##NAMES=Montebrasite
##RRUFFID=R040060
##IDEAL CHEMISTRY=LiAlPO_4_(OH)
##LOCALITY=Oxford County, Maine, USA
##OWNER=RRUFF
##SOURCE=University of Arizona Mineral Museum
##DESCRIPTION=White massive
##STATUS=The identification of this mineral has been confirmed by X-ray diffraction and chemical analysis
##URL=rruff.info/R040060
##MEASURED CHEMISTRY=LiAl(PO_4_)((OH)_0.79_F_0.21_)
##PIN_ID=L00066
##ORIENTATION=Laser parallel to (0 -1 -1). Fiducial mark perpendicular to laser is parallel to a [1 0 0]
150.354, 0.000
151.742, 65.776
153.130, 2.311
154.517, 94.732
155.905, 205.546
157.292, 39.179
158.679, 104.943
160.066, 292.490
161.452, 441.506
162.839, 811.677
164.225, 512.768
165.611, 414.621
166.996, 357.123
168.381, 370.710
169.767, 405.058
171.152, 319.683
172.536, 354.751
173.921, 350.036
175.305, 375.528
176.689, 631.239
178.073, 487.164
179.456, 233.289
180.839, 379.602
182.222, 456.086
183.605, 422.733
184.988, 506.393
186.370, 353.081
187.752, 515.105
189.134, 551.994
190.516, 538.957
191.898, 486.064
193.279, 426.074
194.660, 513.346
196.041, 360.736
197.421, 518.229
198.801, 405.822
200.182, 413.578
201.561, 411.596
202.941, 129.762
204.321, 138.031
205.700, 146.361
207.079, 184.754
208.457, 93.209
209.836, 61.729
211.214, 30.309
212.592, 38.945
213.970, 57.639
215.348, 26.389
216.725, 175.199
218.102, 114.068
219.479, 57.006
220.856, 181.979
222.232, 221.021
223.608, 49.887
224.984, 119.256
226.360, 1.551
227.736, 197.688
229.111, 106.967
230.486, 146.289
231.861, 195.648
233.236, 25.037
234.610, 134.412
235.984, 36.219
237.358, 253.152
238.732, 122.531
240.105, 1.924
241.479, 121.330
242.852, 40.750
244.224, 170.188
245.597, 69.643
246.969, 79.117
248.342, 88.609
249.713, 112.885
251.085, 106.246
252.457, 135.680
253.828, 8.133
255.199, 67.576
256.570, 98.648
257.940, 158.125
259.310, 187.799
260.681, 97.549
262.050, 127.352
263.420, 117.197
264.790, 157.102
266.159, 287.066
267.528, 277.037
268.896, 247.023
270.265, 407.012
271.633, 427.023
273.001, 467.047
274.369, 497.096
275.737, 547.162
277.104, 597.236
278.471, 657.383
279.838, 577.625
281.205, 597.898
282.572, 478.188
283.938, 608.598
285.304, 459.020
286.670, 619.469
288.035, 539.943
289.401, 800.449
290.766, 660.990
292.131, 1031.533
293.495, 1502.078
294.860, 1882.623
296.224, 2493.166
297.588, 2873.711
298.952, 3154.258
300.315, 3084.803
301.679, 2855.350
303.042, 2445.891
304.405, 1916.434
305.767, 1826.977
307.130, 1497.520
308.492, 1378.061
309.854, 1268.664
311.216, 1239.197
312.578, 1169.730
313.939, 1090.264
315.300, 929.820
316.661, 869.061
318.021, 707.986
319.382, 767.475
320.742, 767.061
322.102, 816.727
323.462, 696.463
324.821, 606.260
326.181, 436.111
327.540, 396.012
328.899, 445.955
330.257, 325.939
331.616, 265.965
332.974, 156.020
334.332, 226.104
335.690, 336.215
337.047, 246.350
338.405, 246.510
339.762, 336.693
341.119, 116.896
342.475, 107.121
343.832, 167.365
345.188, 187.631
346.544, 82.088
347.900, 168.199
349.255, 71.527
350.610, 138.754
351.965, 189.027
353.320, 169.318
354.675, 30.072
356.029, 59.607
357.384, 320.707
358.738, 41.498
360.091, 38.150
361.445, 172.199
362.798, 192.789
364.151, 293.191
365.504, 156.783
366.857, 98.443
368.209, 181.994
369.561, 133.682
370.913, 104.117
372.265, 148.303
373.617, 149.182
374.968, 39.949
376.319, 100.420
377.670, 257.799
379.021, 128.686
380.371, 189.393
381.721, 229.941
383.071, 149.123
384.421, 110.279
385.770, 71.365
387.120, 210.906
388.469, 241.816
389.818, 222.936
391.166, 343.500
392.515, 254.145
393.863, 174.883
395.211, 255.922
396.559, 257.840
397.906, 118.418
399.254, 258.264
400.601, 289.004
401.948, 49.926
403.294, 260.691
404.641, 302.049
405.987, 202.646
407.333, 387.842
408.679, 178.600
410.025, 389.492
411.370, 150.516
412.715, 311.102
414.060, 282.641
415.405, 263.656
416.749, 204.539
418.093, 425.613
419.437, 506.393
420.781, 360.889
422.125, 1001.488
423.468, 1262.090
424.811, 1922.703
426.154, 2179.225
427.497, 2149.828
428.839, 2330.904
430.182, 1751.514
431.524, 1382.121
432.866, 992.723
434.207, 793.320
435.549, 483.912
436.890, 304.498
438.231, 375.082
439.572, 325.656
440.912, 106.230
442.252, 386.795
443.593, 177.357
444.932, 267.908
446.272, 288.457
447.611, 188.994
448.951, 179.523
450.290, 160.049
451.628, 310.561
452.967, 241.062
454.305, 91.555
455.644, 262.037
456.981, 82.508
458.319, 192.969
459.657, 163.424
460.994, 183.928
462.331, 104.391
463.668, 214.840
465.004, 225.299
466.341, 75.766
467.677, 246.223
469.013, 136.666
470.348, 207.098
471.684, 347.520
473.019, 267.928
474.354, 268.320
475.689, 188.705
477.024, 529.080
478.358, 739.445
479.692, 529.805
481.026, 710.158
482.360, 640.498
483.694, 780.828
485.027, 651.150
486.360, 451.459
487.693, 811.758
489.026, 722.047
490.358, 612.322
491.691, 612.586
493.023, 622.836
494.354, 613.072
495.686, 553.295
497.017, 533.506
498.349, 543.703
499.680, 523.887
501.010, 514.057
502.341, 394.213
503.671, 384.625
505.001, 324.752
506.331, 394.861
507.661, 372.512
508.990, 192.594
510.319, 320.947
511.648, 171.068
512.977, 171.102
514.306, 31.518
515.634, 201.807
516.962, 240.244
518.290, 30.211
519.618, 140.496
520.945, 179.445
522.273, 90.645
523.600, 141.270
524.927, 188.318
526.253, 2.344
527.580, 27.270
528.906, 2.842
530.232, 184.176
531.558, 35.896
532.883, 54.061
534.208, 84.395
535.534, 195.027
536.858, 85.062
538.183, 65.215
539.508, 120.002
540.832, 159.666
542.156, 139.408
543.480, 29.492
544.803, 39.703
546.127, 133.865
547.450, 93.896
548.773, 43.338
550.096, 223.498
551.418, 162.891
552.741, 142.668
554.063, 72.012
555.385, 11.822
556.706, 241.785
558.028, 331.088
559.349, 151.473
560.670, 113.145
561.991, 152.389
563.312, 137.348
564.632, 302.143
565.952, 38.623
567.272, 161.846
568.592, 131.121
569.911, 100.938
571.231, 290.410
572.550, 138.594
573.869, 101.426
575.187, 130.668
576.506, 94.443
577.824, 163.312
579.142, 20.982
580.460, 258.055
581.778, 237.379
583.095, 339.781
584.412, 51.488
585.729, 347.273
587.046, 118.941
588.363, 277.855
589.679, 236.850
590.995, 375.736
592.311, 425.148
593.627, 443.463
594.942, 451.744
596.258, 561.041
597.573, 899.562
598.888, 798.561
600.202, 897.115
601.517, 1106.066
602.831, 1284.525
604.145, 983.062
605.459, 851.676
606.772, 980.119
608.086, 798.680
609.399, 736.734
610.712, 554.654
612.024, 452.547
613.337, 571.086
614.649, 438.916
615.961, 437.191
617.273, 605.877
618.585, 234.268
619.896, 487.896
621.208, 445.564
622.519, 368.721
623.829, 710.387
625.140, 678.393
626.450, 865.928
627.761, 923.432
629.071, 1131.650
630.380, 1159.086
631.690, 1006.490
632.999, 943.859
634.308, 1131.193
635.617, 678.494
636.926, 805.762
638.235, 922.996
639.543, 1800.195
640.851, 3417.361
642.159, 1924.492
643.466, 2271.588
644.774, 3088.648
646.081, 3205.674
647.388, 3082.668
648.695, 2859.625
650.002, 2896.549
651.308, 2213.434
652.614, 2060.289
653.920, 1007.107
655.226, 773.891
656.531, 631.100
657.837, 317.812
659.142, 504.506
660.447, 211.148
661.752, 457.752
663.056, 364.320
664.360, 170.854
665.664, 367.359
666.968, 114.408
668.272, 260.848
669.575, 297.252
670.879, 183.619
672.182, 209.500
673.484, 195.941
674.787, 332.719
676.089, 198.482
677.392, 264.658
678.694, 52.775
679.995, 109.262
681.297, 155.566
682.598, 92.072
683.899, 136.797
685.200, 190.258
686.501, 35.162
687.802, 221.529
689.102, 208.789
690.402, 114.137
691.702, 69.561
693.002, 206.184
694.301, 94.930
695.600, 32.500
696.899, 243.422
698.198, 219.205
699.497, 134.896
700.795, 99.672
702.093, 24.828
703.391, 130.281
704.689, 265.562
705.987, 114.941
707.284, 320.109
708.581, 195.441
709.878, 300.762
711.175, 175.346
712.472, 149.686
713.768, 564.656
715.064, 82.621
716.360, 27.674
717.656, 452.172
718.951, 87.064
720.247, 201.279
721.542, 255.986
722.837, 46.188
724.131, 221.281
725.426, 95.576
726.720, 159.697
728.014, 24.264
729.308, 47.979
730.601, 161.939
731.895, 30.510
733.188, 243.285
734.481, 62.676
735.774, 177.875
737.067, 101.988
738.359, 13.906
739.651, 230.504
740.943, 198.555
742.235, 7.285
743.526, 146.117
744.818, 119.945
746.109, 149.543
747.400, 53.289
748.691, 306.992
749.981, 280.664
751.271, 54.297
752.562, 198.133
753.851, 81.691
755.141, 175.203
756.431, 78.680
757.720, 182.121
759.009, 155.520
760.298, 128.883
761.587, 162.207
762.875, 125.496
764.163, 238.746
765.451, 292.500
766.739, 315.684
768.027, 98.832
769.314, 311.941
770.601, 145.023
771.888, 58.062
773.175, 101.066
774.462, 56.035
775.748, 286.848
777.034, 50.305
778.320, 27.531
779.606, 135.168
780.892, 367.828
782.177, 330.461
783.462, 73.059
784.747, 295.617
786.032, 308.148
787.317, 290.645
788.601, 263.113
789.885, 435.551
791.169, 297.953
792.453, 530.328
793.736, 352.672
795.019, 574.984
796.303, 557.270
797.585, 569.523
798.868, 711.746
800.151, 713.938
801.433, 516.105
802.715, 968.238
803.997, 490.344
805.279, 782.422
806.560, 524.473
807.841, 596.492
809.122, 568.480
810.403, 120.445
811.684, 522.371
812.964, 224.277
814.245, 396.152
815.525, 567.727
816.804, 319.543
818.084, 381.340
819.363, 492.656
820.643, 84.395
821.922, 385.418
823.201, 227.023
824.479, 228.680
825.758, 249.902
827.036, 181.215
828.314, 92.445
829.592, 213.992
830.869, 255.180
832.147, 13.387
833.424, 66.793
834.701, 147.496
835.977, 201.629
837.254, 358.836
838.530, 49.531
839.807, 140.473
841.082, 80.141
842.358, 68.832
843.634, 262.090
844.909, 302.586
846.184, 2.746
847.459, 293.586
848.734, 106.023
850.008, 49.789
851.283, 110.684
852.557, 101.457
853.831, 411.852
855.105, 22.074
856.378, 208.305
857.651, 88.629
858.925, 230.500
860.197, 319.547
861.470, 110.328
862.743, 80.676
864.015, 291.438
865.287, 168.309
866.559, 221.703
867.831, 47.664
869.102, 91.836
870.373, 210.012
871.645, 100.570
872.915, 110.070
874.186, 250.250
875.457, 130.641
876.727, 9.727
877.997, 449.965
879.267, 199.613
880.536, 139.547
881.806, 97.906
883.075, 417.156
884.344, 62.867
885.613, 212.527
886.882, 412.789
888.150, 66.141
889.419, 276.102
890.687, 125.727
891.954, 32.230
893.222, 302.363
894.490, 72.398
895.757, 269.480
897.024, 249.266
898.291, 111.070
899.557, 458.660
900.824, 137.824
902.090, 228.039
903.356, 288.246
904.622, 57.398
905.888, 407.277
907.153, 266.641
908.418, 306.406
909.683, 255.730
910.948, 135.512
912.213, 615.168
913.477, 204.707
914.741, 364.379
916.005, 453.891
917.269, 6.133
918.533, 533.934
919.796, 273.988
921.060, 213.359
922.323, 363.398
923.585, 112.949
924.848, 342.051
926.111, 471.406
927.373, 275.480
928.635, 655.477
929.897, 79.945
931.158, 435.867
932.420, 455.344
933.681, 125.316
934.942, 445.285
936.203, 414.496
937.463, 344.453
938.724, 544.402
939.984, 234.352
941.244, 234.297
942.504, 544.238
943.764, 404.176
945.023, 164.113
946.282, 144.051
947.541, 243.984
948.800, 573.914
950.059, 253.848
951.317, 333.781
952.575, 183.711
953.833, 563.645
955.091, 353.578
956.349, 323.516
957.606, 573.453
958.864, 313.398
960.121, 563.344
961.377, 863.293
962.634, 772.789
963.891, 1022.750
965.147, 1282.699
966.403, 1092.672
967.659, 1212.660
968.914, 1042.652
970.170, 1022.652
971.425, 692.664
972.680, 632.113
973.935, 842.148
975.190, 562.199
976.444, 722.258
977.698, 922.332
978.952, 602.273
980.206, 861.867
981.460, 781.988
982.713, 772.133
983.967, 1140.332
985.220, 799.910
986.473, 1099.859
987.725, 846.406
988.978, 996.664
990.230, 1132.824
991.482, 942.859
992.734, 1212.691
993.986, 1537.879
995.237, 1298.289
996.488, 1518.727
997.739, 1488.273
998.990, 1788.789
1000.241, 1971.977
1001.492, 2062.004
1002.742, 2352.332
1003.992, 2832.672
1005.242, 3153.426
1006.492, 3713.547
1007.741, 3984.434
1008.990, 4424.742
1010.239, 5201.262
1011.488, 5322.039
1012.737, 5392.578
1013.986, 5158.012
1015.234, 4808.918
1016.482, 4449.180
1017.730, 3740.164
1018.978, 3418.141
1020.225, 2948.863
1021.473, 2259.281
1022.720, 2249.574
1023.967, 2079.762
1025.213, 1678.496
1026.460, 1727.699
1027.706, 1737.664
1028.953, 1807.336
1030.198, 1703.699
1031.444, 1403.699
1032.690, 1803.445
1033.935, 1573.055
1035.180, 1912.902
1036.425, 2053.027
1037.670, 2016.816
1038.915, 2366.906
1040.159, 2346.734
1041.403, 2786.836
1042.647, 3396.953
1043.891, 3387.082
1045.135, 3557.223
1046.378, 3946.746
1047.621, 3596.898
1048.864, 3847.059
1050.107, 3517.230
1051.350, 3457.457
1052.592, 3717.734
1053.835, 3338.109
1055.077, 3908.496
1056.318, 4198.910
1057.560, 4259.320
1058.802, 4829.746
1060.043, 4580.188
1061.284, 4940.641
1062.525, 4801.109
1063.765, 3551.586
1065.006, 3502.078
1066.246, 3002.582
1067.486, 2493.102
1068.726, 2143.633
1069.966, 1634.188
1071.205, 1604.754
1072.445, 1475.332
1073.684, 1135.930
1074.923, 1206.543
1076.161, 807.172
1077.400, 1087.816
1078.638, 818.480
1079.876, 799.188
1081.114, 970.004
1082.352, 860.891
1083.590, 761.758
1084.827, 922.711
1086.064, 543.688
1087.301, 754.734
1088.538, 675.867
1089.775, 677.004
1091.011, 868.160
1092.247, 529.441
1093.483, 320.844
1094.719, 872.188
1095.955, 363.711
1097.190, 575.301
1098.425, 656.910
1099.660, 868.578
1100.895, 530.316
1102.130, 452.156
1103.364, 754.094
1104.598, 926.113
1105.833, 728.262
1107.066, 1460.551
1108.300, 1062.914
1109.534, 905.367
1110.767, 1487.922
1112.000, 740.574
1113.233, 1143.316
1114.466, 1016.156
1115.698, 739.086
1116.930, 922.125
1118.163, 695.273
1119.394, 608.531
1120.626, 1001.906
1121.858, 735.414
1123.089, 1579.059
1124.320, 1542.844
1125.551, 706.777
1126.782, 1130.867
1128.013, 315.133
1129.243, 469.570
1130.473, 544.180
1131.703, 88.992
1132.933, 574.000
1134.163, 449.227
1135.392, 154.668
1136.621, 820.348
1137.850, 113.723
1139.079, 332.473
1140.308, 388.934
1141.536, 135.684
1142.765, 642.734
1143.993, 180.109
1145.221, 467.832
1146.448, 435.922
1147.676, 414.414
1148.903, 393.332
1150.130, 532.715
1151.357, 182.594
1152.584, 643.016
1153.810, 234.027
1155.037, 325.672
1156.263, 600.227
1157.489, 68.719
1158.715, 537.258
1159.940, 415.703
1161.166, 36.156
1162.391, 651.328
1163.616, 327.570
1164.841, 326.172
1166.065, 517.637
1167.290, 47.180
1168.514, 172.031
1169.738, 29.574
1170.962, 0.324
1172.185, 0.000
##END=



