##NAMES=Montebrasite
##RRUFFID=R040060
##IDEAL CHEMISTRY=LiAlPO_4_(OH)
##LOCALITY=Oxford County, Maine, USA
##OWNER=RRUFF
##SOURCE=University of Arizona Mineral Museum
##DESCRIPTION=White massive
##STATUS=The identification of this mineral has been confirmed by X-ray diffraction and chemical analysis
##URL=rruff.info/R040060
##MEASURED CHEMISTRY=LiAl(PO_4_)((OH)_0.79_F_0.21_)
##PIN_ID=L00066
##ORIENTATION=Laser parallel to (0 -1 -1). Fiducial mark perpendicular to laser is parallel to a [1 0 0]
137.850, 0.000
139.240, 77.964
140.630, 140.648
142.020, 86.473
143.410, 64.217
144.799, 189.190
146.188, 40.742
147.577, 124.245
148.965, 17.772
150.354, 70.814
151.742, 19.932
153.130, 69.509
154.517, 79.493
155.905, 49.842
157.292, 40.515
158.679, 111.480
160.066, 182.714
161.452, 384.191
162.839, 665.893
164.225, 417.826
165.611, 419.946
166.996, 272.234
168.381, 394.682
169.767, 517.277
171.152, 400.014
172.536, 382.885
173.921, 425.880
175.305, 438.995
176.689, 532.226
178.073, 445.562
179.456, 319.004
180.839, 432.544
182.222, 356.174
183.605, 419.885
184.988, 393.668
186.370, 417.519
187.752, 421.465
189.134, 495.883
190.516, 299.985
191.898, 364.101
193.279, 378.271
194.660, 462.493
196.041, 456.765
197.421, 401.094
198.801, 265.478
200.182, 269.940
201.561, 284.456
202.941, 239.025
204.321, 193.646
205.700, 208.314
207.079, 143.032
208.457, 107.799
209.836, 122.611
211.214, 71.238
212.592, 52.372
213.970, 47.315
215.348, 42.299
216.725, 87.319
218.102, 172.382
219.479, 117.487
220.856, 142.636
222.232, 37.819
223.608, 93.014
224.984, 78.201
226.360, 113.367
227.736, 238.515
229.111, 203.665
230.486, 128.822
231.861, 193.991
233.236, 59.173
234.610, 134.368
235.984, 0.422
237.358, 124.805
238.732, 110.047
240.105, 14.698
241.479, 190.575
242.852, 2.875
244.224, 22.413
245.597, 117.720
246.969, 133.195
248.342, 88.542
249.713, 53.910
251.085, 109.297
252.457, 104.742
253.828, 120.250
255.199, 105.941
256.570, 71.562
257.940, 127.217
259.310, 152.882
260.681, 209.766
262.050, 195.532
263.420, 81.334
264.790, 297.171
266.159, 323.062
267.528, 228.973
268.896, 384.900
270.265, 520.841
271.633, 456.790
273.001, 402.759
274.369, 688.744
275.737, 734.741
277.104, 760.836
278.471, 686.916
279.838, 643.012
281.205, 619.117
282.572, 605.233
283.938, 441.359
285.304, 407.492
286.670, 453.629
288.035, 359.770
289.401, 505.916
290.766, 652.066
292.131, 908.222
293.495, 1254.381
294.860, 1530.544
296.224, 2046.859
297.588, 2343.127
298.952, 2409.418
300.315, 2496.162
301.679, 2372.336
303.042, 2069.212
304.405, 1665.716
305.767, 1581.733
307.130, 1197.461
308.492, 1032.410
309.854, 1037.813
311.216, 1022.679
312.578, 798.113
313.939, 851.125
315.300, 696.473
316.661, 721.559
318.021, 577.020
319.382, 752.576
320.742, 618.059
322.102, 633.551
323.462, 479.246
324.821, 374.965
326.181, 430.705
327.540, 306.469
328.899, 392.254
330.257, 278.055
331.616, 233.877
332.974, 309.715
334.332, 265.570
335.690, 171.443
337.047, 267.332
338.405, 223.236
339.762, 139.154
341.119, 15.084
342.475, 111.031
343.832, 76.988
345.188, 92.957
346.544, 41.062
347.900, 124.926
349.255, 10.941
350.610, 97.072
351.965, 173.092
353.320, 10.590
354.675, 95.803
356.029, 11.857
357.384, 8.104
358.738, 54.295
360.091, 30.770
361.445, 66.869
362.798, 102.979
364.151, 79.109
365.504, 172.277
366.857, 28.668
368.209, 175.049
369.561, 151.227
370.913, 5.959
372.265, 150.463
373.617, 97.078
374.968, 4.432
376.319, 30.672
377.670, 137.100
379.021, 203.357
380.371, 34.102
381.721, 102.445
383.071, 29.914
384.421, 96.555
385.770, 13.055
387.120, 89.631
388.469, 95.930
389.818, 119.727
391.166, 206.211
392.515, 152.805
393.863, 79.959
395.211, 146.395
396.559, 173.316
397.906, 169.846
399.254, 126.164
400.601, 163.174
401.948, 69.580
403.294, 95.797
404.641, 103.127
405.987, 109.652
407.333, 276.598
408.679, 133.152
410.025, 219.854
411.370, 56.580
412.715, 39.252
414.060, 266.154
415.405, 242.549
416.749, 59.246
418.093, 205.965
419.437, 282.746
420.781, 529.678
422.125, 736.070
423.468, 1042.877
424.811, 1459.289
426.154, 1516.203
427.497, 1567.949
428.839, 1789.096
430.182, 1335.516
431.524, 1131.934
432.866, 898.350
434.207, 624.762
435.549, 481.168
436.890, 227.574
438.231, 313.990
439.572, 350.404
440.912, 236.812
442.252, 143.217
443.593, 189.617
444.932, 116.012
446.272, 222.400
447.611, 108.783
448.951, 95.195
450.290, 181.602
451.628, 38.000
452.967, 124.393
454.305, 50.781
455.644, 47.162
456.981, 83.533
458.319, 10.100
459.657, 136.258
460.994, 112.605
462.331, 248.949
463.668, 145.285
465.004, 71.609
466.341, 247.924
467.677, 164.230
469.013, 160.533
470.348, 256.832
471.684, 353.145
473.019, 259.453
474.354, 145.758
475.689, 242.064
477.024, 428.365
478.358, 554.658
479.692, 550.945
481.026, 607.227
482.360, 743.496
483.694, 729.758
485.027, 686.012
486.360, 592.254
487.693, 570.559
489.026, 536.482
490.358, 500.928
491.691, 537.131
493.023, 563.326
494.354, 639.508
495.686, 485.680
497.017, 321.842
498.349, 357.990
499.680, 384.129
501.010, 480.252
502.341, 366.365
503.671, 252.465
505.001, 268.553
506.331, 214.627
507.661, 169.881
508.990, 116.076
510.319, 92.125
511.648, 158.480
512.977, 54.982
514.306, 42.102
515.634, 158.344
516.962, 85.670
518.290, 101.617
519.618, 37.701
520.945, 144.385
522.273, 151.062
523.600, 159.719
524.927, 103.775
526.253, 87.107
527.580, 92.914
528.906, 238.928
530.232, 94.100
531.558, 91.930
532.883, 48.320
534.208, 5.695
535.534, 155.961
536.858, 113.074
538.183, 229.012
539.508, 83.746
540.832, 91.154
542.156, 2.525
543.480, 73.465
544.803, 109.678
546.127, 98.162
547.450, 213.645
548.773, 100.475
550.096, 125.535
551.418, 100.936
552.741, 7.689
554.063, 143.572
555.385, 29.176
556.706, 125.072
558.028, 220.359
559.349, 18.195
560.670, 165.535
561.991, 241.381
563.312, 14.438
564.632, 149.637
565.952, 55.141
567.272, 151.494
568.592, 117.107
569.911, 112.939
571.231, 71.467
572.550, 74.408
573.869, 289.475
575.187, 124.514
576.506, 120.230
577.824, 105.107
579.142, 70.680
580.460, 345.721
581.778, 102.180
583.095, 283.186
584.412, 87.924
585.729, 193.346
587.046, 209.586
588.363, 407.822
589.679, 322.992
590.995, 327.879
592.311, 402.945
593.627, 398.027
594.942, 382.867
596.258, 641.414
597.573, 716.611
598.888, 761.654
600.202, 786.289
601.517, 1001.523
602.831, 946.227
604.145, 921.312
605.459, 825.613
606.772, 718.258
608.086, 782.963
609.399, 617.719
610.712, 622.137
612.024, 477.041
613.337, 371.232
614.649, 275.707
615.961, 296.736
617.273, 504.525
618.585, 418.648
619.896, 484.377
621.208, 578.311
622.519, 472.215
623.829, 526.293
625.140, 570.131
626.450, 784.992
627.761, 858.766
629.071, 926.938
630.380, 891.160
631.690, 814.844
632.999, 948.496
634.308, 802.115
635.617, 685.703
636.926, 799.258
638.235, 762.777
639.543, 1036.264
640.851, 1179.717
642.159, 1533.137
643.466, 1896.521
644.774, 2639.871
646.081, 2783.188
647.388, 2586.475
648.695, 2329.729
650.002, 1802.945
651.308, 1516.131
652.614, 1029.281
653.920, 882.396
655.226, 725.477
656.531, 538.521
657.837, 411.535
659.142, 340.352
660.447, 337.451
661.752, 290.355
663.056, 284.799
664.360, 346.062
665.664, 228.867
666.968, 261.619
668.272, 184.234
669.575, 146.928
670.879, 49.734
672.182, 202.066
673.484, 44.924
674.787, 277.898
676.089, 230.320
677.392, 82.717
678.694, 90.361
679.995, 13.174
681.297, 125.893
682.598, 27.732
683.899, 304.240
685.200, 221.209
686.501, 54.490
687.802, 170.469
689.102, 103.256
690.402, 195.090
691.702, 43.420
693.002, 39.096
694.301, 191.020
695.600, 38.117
696.899, 229.117
698.198, 93.805
699.497, 164.789
700.795, 106.021
702.093, 7.627
703.391, 278.836
704.689, 170.828
705.987, 117.461
707.284, 260.057
708.581, 41.715
709.878, 132.617
711.175, 194.127
712.472, 131.916
713.768, 282.877
715.064, 20.906
716.360, 31.309
717.656, 132.365
718.951, 66.596
720.247, 273.326
721.542, 194.111
722.837, 54.340
724.131, 155.199
725.426, 95.586
726.720, 145.908
728.014, 60.355
729.308, 240.797
730.601, 241.330
731.895, 72.002
733.188, 272.244
734.481, 92.270
735.774, 212.107
737.067, 32.445
738.359, 47.400
739.651, 282.928
740.943, 92.854
742.235, 34.568
743.526, 5.365
744.818, 134.945
746.109, 195.314
747.400, 145.240
748.691, 135.387
749.981, 185.232
751.271, 14.961
752.562, 85.168
753.851, 114.863
755.141, 204.723
756.431, 54.340
757.720, 174.271
759.009, 73.928
760.298, 303.424
761.587, 86.971
762.875, 142.461
764.163, 121.779
765.451, 161.328
766.739, 70.570
768.027, 210.070
769.314, 129.238
770.601, 88.367
771.888, 97.459
773.175, 216.510
774.462, 15.529
775.748, 364.496
777.034, 263.658
778.320, 182.562
779.606, 301.426
780.892, 30.260
782.177, 259.164
783.462, 32.076
784.747, 117.980
786.032, 376.629
787.317, 335.246
788.601, 304.383
789.885, 282.934
791.169, 339.625
792.453, 249.941
793.736, 488.396
795.019, 396.820
796.303, 455.213
797.585, 653.572
798.868, 621.900
800.151, 580.197
801.433, 629.449
802.715, 677.688
803.997, 545.891
805.279, 694.066
806.560, 542.207
807.841, 450.320
809.122, 378.400
810.403, 396.451
811.684, 484.473
812.964, 412.463
814.245, 550.424
815.525, 348.357
816.804, 266.258
818.084, 334.129
819.363, 291.973
820.643, 309.641
821.922, 457.416
823.201, 274.836
824.479, 102.072
825.758, 188.547
827.036, 135.953
828.314, 52.232
829.592, 189.840
830.869, 120.762
832.147, 65.943
833.424, 90.783
834.701, 95.484
835.977, 2.299
837.254, 184.654
838.530, 67.955
839.807, 0.791
841.082, 55.367
842.358, 2.305
843.634, 118.924
844.909, 15.900
846.184, 17.158
847.459, 102.914
848.734, 80.195
850.008, 84.676
851.283, 47.754
852.557, 38.539
853.831, 295.113
855.105, 101.426
856.378, 185.406
857.651, 32.361
858.925, 41.123
860.197, 14.818
861.470, 12.049
862.743, 47.521
864.015, 63.822
865.287, 119.641
866.559, 236.535
867.831, 116.721
869.102, 147.402
870.373, 121.986
871.645, 128.018
872.915, 146.801
874.186, 106.668
875.457, 144.938
876.727, 65.010
877.997, 151.074
879.267, 176.873
880.536, 102.883
881.806, 38.523
883.075, 224.947
884.344, 11.361
885.613, 97.053
886.882, 253.549
888.150, 159.305
889.419, 185.551
890.687, 50.348
891.954, 80.551
893.222, 46.988
894.490, 37.301
895.757, 117.539
897.024, 30.348
898.291, 6.180
899.557, 222.258
900.824, 38.121
902.090, 313.930
903.356, 189.945
904.622, 2.211
905.888, 357.785
907.153, 43.488
908.418, 159.555
909.683, 4.984
910.948, 60.906
912.213, 236.402
913.477, 52.652
914.741, 60.520
916.005, 136.285
917.269, 11.965
918.533, 137.801
919.796, 3.254
921.060, 109.293
922.323, 264.992
923.585, 130.516
924.848, 176.074
926.111, 132.125
927.373, 226.535
928.635, 12.707
929.897, 78.867
931.158, 484.766
932.420, 290.914
933.681, 36.004
934.942, 342.141
936.203, 46.156
937.463, 349.449
938.724, 105.559
939.984, 18.336
941.244, 137.762
942.504, 273.852
943.764, 339.934
945.023, 166.020
946.282, 212.102
947.541, 108.180
948.800, 234.254
950.059, 120.324
951.317, 266.391
952.575, 37.539
953.833, 298.508
955.091, 134.562
956.349, 160.609
957.606, 186.656
958.864, 52.703
960.121, 368.750
961.377, 414.797
962.634, 650.836
963.891, 796.875
965.147, 1022.914
966.403, 941.129
967.659, 1035.000
968.914, 641.043
970.170, 567.086
971.425, 253.129
972.680, 449.172
973.935, 365.215
975.190, 361.266
976.444, 406.887
977.698, 472.875
978.952, 461.648
980.206, 834.207
981.460, 490.242
982.713, 666.004
983.967, 727.059
985.220, 422.711
986.473, 928.730
987.725, 473.727
988.978, 749.871
990.230, 1001.863
991.482, 756.867
992.734, 882.711
993.986, 947.930
995.237, 833.883
996.488, 1200.160
997.739, 885.781
998.990, 1352.055
1000.241, 1363.023
1001.492, 1444.391
1002.742, 1917.660
1003.992, 1993.789
1005.242, 2400.207
1006.492, 2716.949
1007.741, 3043.383
1008.990, 3419.324
1010.239, 3514.875
1011.488, 3759.977
1012.737, 3936.555
1013.986, 3864.629
1015.234, 3520.793
1016.482, 3201.047
1017.730, 2757.793
1018.978, 2438.055
1020.225, 2135.707
1021.473, 1752.156
1022.720, 1668.957
1023.967, 1476.344
1025.213, 1453.016
1026.460, 1441.109
1027.706, 1067.633
1028.953, 1224.512
1030.198, 1273.926
1031.444, 1070.715
1032.690, 1397.301
1033.935, 1254.262
1035.180, 1460.832
1036.425, 1538.629
1037.670, 1615.703
1038.915, 1912.812
1040.159, 2030.977
1041.403, 2407.824
1042.647, 2844.930
1043.891, 2631.898
1045.135, 3157.516
1046.378, 3154.805
1047.621, 3161.801
1048.864, 3108.707
1050.107, 3016.957
1051.350, 3084.008
1052.592, 2991.328
1053.835, 3018.641
1055.077, 2975.582
1056.318, 3314.285
1057.560, 3701.410
1058.802, 3988.742
1060.043, 3925.719
1061.284, 4012.922
1062.525, 3510.277
1063.765, 3017.953
1065.006, 2735.250
1066.246, 2152.633
1067.486, 1950.234
1068.726, 1477.609
1069.966, 1386.328
1071.205, 1273.695
1072.445, 1001.062
1073.684, 698.750
1074.923, 726.098
1076.161, 653.719
1077.400, 741.066
1078.638, 568.184
1079.876, 525.523
1081.114, 582.844
1082.352, 440.168
1083.590, 627.520
1084.827, 554.828
1086.064, 360.992
1087.301, 668.305
1088.538, 425.609
1089.775, 412.766
1091.011, 560.051
1092.247, 427.355
1093.483, 525.398
1094.719, 532.645
1095.955, 250.285
1097.190, 547.508
1098.425, 414.715
1099.660, 552.730
1100.895, 669.906
1102.130, 456.086
1103.364, 724.020
1104.598, 651.395
1105.833, 818.969
1107.066, 1126.984
1108.300, 894.082
1109.534, 1042.488
1110.767, 1009.551
1112.000, 816.594
1113.233, 1085.383
1114.466, 892.391
1115.698, 530.523
1116.930, 718.184
1118.163, 405.160
1119.394, 714.586
1120.626, 661.703
1121.858, 578.973
1123.089, 679.488
1124.320, 975.766
1125.551, 484.164
1126.782, 592.418
1128.013, 139.328
1129.243, 250.012
1130.473, 337.637
1131.703, 125.625
1132.933, 413.664
1134.163, 102.996
1135.392, 292.066
1136.621, 450.969
1137.850, 241.852
1139.079, 247.660
1140.308, 149.305
1141.536, 267.414
1142.765, 567.078
1143.993, 24.195
1145.221, 399.363
1146.448, 147.824
1147.676, 235.844
1148.903, 75.625
1150.130, 180.734
1151.357, 158.539
1152.584, 356.488
1153.810, 103.203
1155.037, 320.781
1156.263, 267.340
1157.489, 35.590
1158.715, 393.488
1159.940, 100.523
1161.166, 42.305
##END=



