##NAMES=Montebrasite
##RRUFFID=R040060
##IDEAL CHEMISTRY=LiAlPO_4_(OH)
##LOCALITY=Oxford County, Maine, USA
##OWNER=RRUFF
##SOURCE=University of Arizona Mineral Museum
##DESCRIPTION=White massive
##STATUS=The identification of this mineral has been confirmed by X-ray diffraction and chemical analysis
##URL=rruff.info/R040060
##MEASURED CHEMISTRY=LiAl(PO_4_)((OH)_0.79_F_0.21_)
##PIN_ID=L00181
##ORIENTATION=Laser parallel to a* (1 0 0). Fiducial mark perpendicular to laser is parallel to -b [0 -1 0]
108.603, 0.000
109.998, 8.000
111.393, 142.952
112.787, 613.376
114.182, 1385.029
115.576, 1920.732
116.970, 2569.718
118.363, 3062.515
119.757, 2320.572
121.150, 1495.627
122.543, 1139.777
123.936, 937.333
125.328, 890.586
126.720, 826.201
128.112, 1066.313
129.504, 1456.562
130.896, 1954.429
132.287, 2443.534
133.678, 3118.597
135.069, 3404.927
136.460, 3412.778
137.850, 3531.074
139.240, 3099.569
140.630, 2598.310
142.020, 1802.395
143.410, 1268.387
144.799, 766.733
146.188, 484.674
147.577, 306.622
148.965, 228.010
150.354, 196.843
151.742, 51.165
153.130, 117.024
154.517, 91.462
155.905, 162.522
157.292, 238.240
158.679, 273.647
160.066, 372.772
161.452, 504.537
162.839, 619.672
164.225, 706.265
165.611, 905.761
166.996, 882.107
168.381, 983.421
169.767, 1027.036
171.152, 992.250
172.536, 981.840
173.921, 876.672
175.305, 813.525
176.689, 642.042
178.073, 656.034
179.456, 540.439
180.839, 537.264
182.222, 623.943
183.605, 673.105
184.988, 691.708
186.370, 875.677
187.752, 927.741
189.134, 897.665
190.516, 1102.510
191.898, 1221.281
193.279, 1238.990
194.660, 1220.685
196.041, 1322.387
197.421, 1284.108
198.801, 1171.856
200.182, 950.636
201.561, 866.448
202.941, 566.295
204.321, 432.174
205.700, 263.083
207.079, 102.021
208.457, 63.982
209.836, 42.962
211.214, 52.960
212.592, 33.029
213.970, 41.997
215.348, 18.014
216.725, 49.959
218.102, 55.933
219.479, 42.088
220.856, 74.100
222.232, 93.100
223.608, 110.087
224.984, 148.672
226.360, 100.491
227.736, 168.499
229.111, 192.202
230.486, 159.792
231.861, 271.687
233.236, 190.717
234.610, 266.222
235.984, 193.967
237.358, 97.530
238.732, 35.720
240.105, 55.312
241.479, 48.560
242.852, 76.604
244.224, 14.309
245.597, 8.598
246.969, 68.189
248.342, 83.290
249.713, 138.648
251.085, 137.024
252.457, 111.417
253.828, 119.830
255.199, 109.271
256.570, 146.738
257.940, 73.233
259.310, 111.813
260.681, 16.435
262.050, 13.810
263.420, 91.855
264.790, 152.718
266.159, 338.384
267.528, 551.898
268.896, 671.357
270.265, 947.776
271.633, 1281.156
273.001, 1602.499
274.369, 1977.969
275.737, 2342.439
277.104, 2318.341
278.471, 2244.650
279.838, 2121.266
281.205, 1818.119
282.572, 1655.158
283.938, 1582.346
285.304, 1499.650
286.670, 1647.048
288.035, 1884.515
289.401, 2462.039
290.766, 3309.604
292.131, 4437.201
293.495, 6014.963
294.860, 8012.776
296.224, 10070.396
297.588, 11548.076
298.952, 12435.678
300.315, 12013.411
301.679, 11000.994
303.042, 9348.593
304.405, 7686.091
305.767, 6503.555
307.130, 5400.987
308.492, 4718.382
309.854, 4245.727
311.216, 3953.012
312.578, 3640.230
313.939, 3307.385
315.300, 3034.479
316.661, 2871.512
318.021, 2638.488
319.382, 2645.408
320.742, 2622.271
322.102, 2429.082
323.462, 2345.840
324.821, 2072.545
326.181, 1779.114
327.540, 1465.607
328.899, 1212.020
330.257, 998.387
331.616, 814.710
332.974, 680.986
334.332, 433.216
335.690, 457.396
337.047, 376.522
338.405, 249.592
339.762, 310.599
341.119, 213.488
342.475, 142.312
343.832, 25.923
345.188, 127.299
346.544, 16.468
347.900, 59.429
349.255, 3.245
350.610, 88.001
351.965, 73.824
353.320, 54.379
354.675, 25.637
356.029, 35.200
357.384, 42.651
358.738, 62.438
360.091, 21.031
361.445, 54.377
362.798, 21.902
364.151, 69.526
365.504, 72.146
366.857, 38.347
368.209, 99.136
369.561, 77.072
370.913, 82.037
372.265, 135.104
373.617, 191.248
374.968, 209.744
376.319, 171.923
377.670, 212.824
379.021, 230.359
380.371, 275.172
381.721, 364.389
383.071, 283.209
384.421, 378.144
385.770, 293.420
387.120, 499.343
388.469, 453.945
389.818, 438.718
391.166, 512.903
392.515, 537.574
393.863, 492.176
395.211, 546.546
396.559, 530.541
397.906, 534.319
399.254, 578.414
400.601, 612.642
401.948, 656.246
403.294, 610.047
404.641, 784.100
405.987, 752.370
407.333, 715.657
408.679, 868.646
410.025, 912.125
411.370, 879.260
412.715, 1043.126
414.060, 1117.305
415.405, 1252.584
416.749, 1407.205
418.093, 1781.926
419.437, 2333.941
420.781, 3200.671
422.125, 4754.770
423.468, 6934.797
424.811, 9316.323
426.154, 11458.143
427.497, 12140.174
428.839, 11532.196
430.182, 9414.189
431.524, 7096.152
432.866, 5178.084
434.207, 3719.981
435.549, 2521.849
436.890, 1863.677
438.231, 1495.470
439.572, 1177.222
440.912, 878.930
442.252, 870.592
443.593, 672.208
444.932, 723.776
446.272, 615.293
447.611, 586.759
448.951, 568.173
450.290, 515.303
451.628, 550.852
452.967, 472.112
454.305, 393.318
455.644, 384.470
456.981, 445.565
458.319, 416.604
459.657, 457.589
460.994, 398.516
462.331, 429.385
463.668, 420.194
465.004, 432.412
466.341, 551.634
467.677, 502.265
469.013, 682.834
470.348, 773.343
471.684, 893.790
473.019, 1094.176
474.354, 1374.500
475.689, 1534.764
477.024, 1944.966
478.358, 2305.105
479.692, 2575.185
481.026, 2915.203
482.360, 2935.158
483.694, 3155.052
485.027, 3164.884
486.360, 2984.654
487.693, 3014.363
489.026, 2914.010
490.358, 2753.597
491.691, 2743.121
493.023, 2632.583
494.354, 2541.983
495.686, 2411.321
497.017, 2280.599
498.349, 2059.812
499.680, 1928.628
501.010, 1777.622
502.341, 1550.051
503.671, 1554.277
505.001, 1170.395
506.331, 928.328
507.661, 853.796
508.990, 690.789
510.319, 655.332
511.648, 557.463
512.977, 411.100
514.306, 401.912
515.634, 324.984
516.962, 221.692
518.290, 97.656
519.618, 144.606
520.945, 97.611
522.273, 118.604
523.600, 111.210
524.927, 8.682
526.253, 76.679
527.580, 7.511
528.906, 90.295
530.232, 16.982
531.558, 46.203
532.883, 48.200
534.208, 70.491
535.534, 67.662
536.858, 24.657
538.183, 32.793
539.508, 43.639
540.832, 34.988
542.156, 45.196
543.480, 102.328
544.803, 50.895
546.127, 0.516
547.450, 158.959
548.773, 106.960
550.096, 236.955
551.418, 105.251
552.741, 93.577
554.063, 135.561
555.385, 194.994
556.706, 232.915
558.028, 130.949
559.349, 78.963
560.670, 136.757
561.991, 94.670
563.312, 52.837
564.632, 119.898
565.952, 137.428
567.272, 185.973
568.592, 143.171
569.911, 250.324
571.231, 187.539
572.550, 126.940
573.869, 234.411
575.187, 251.359
576.506, 385.550
577.824, 462.344
579.142, 421.131
580.460, 607.885
581.778, 544.944
583.095, 672.965
584.412, 639.608
585.729, 806.392
587.046, 762.860
588.363, 1019.478
589.679, 1146.524
590.995, 1304.038
592.311, 1590.244
593.627, 1567.072
594.942, 1693.167
596.258, 1959.082
597.573, 2434.818
598.888, 2870.669
600.202, 3366.549
601.517, 3562.038
602.831, 3457.559
604.145, 3122.814
605.459, 2838.018
606.772, 2423.250
608.086, 2099.013
609.399, 1724.656
610.712, 1509.603
612.024, 1244.705
613.337, 1189.272
614.649, 1264.124
615.961, 1348.736
617.273, 1233.189
618.585, 1417.530
619.896, 1521.668
621.208, 1765.377
622.519, 2098.655
623.829, 2702.372
625.140, 3195.996
626.450, 3829.131
627.761, 4332.195
629.071, 4585.189
630.380, 4748.113
631.690, 4540.965
632.999, 4373.746
634.308, 4156.453
635.617, 3949.091
636.926, 4051.655
638.235, 4834.149
639.543, 5956.574
640.851, 7598.926
642.159, 9961.207
643.466, 12683.413
644.774, 15565.551
646.081, 16607.613
647.388, 16209.608
648.695, 13881.531
650.002, 11273.382
651.308, 8765.158
652.614, 6426.863
653.920, 4978.498
655.226, 3720.061
656.531, 2761.552
657.837, 2282.972
659.142, 1724.321
660.447, 1535.601
661.752, 1266.812
663.056, 1077.965
664.360, 929.050
665.664, 770.077
666.968, 661.041
668.272, 621.952
669.575, 582.684
670.879, 423.337
672.182, 293.938
673.484, 384.181
674.787, 444.009
676.089, 323.239
677.392, 292.837
678.694, 252.648
679.995, 332.691
681.297, 152.367
682.598, 211.495
683.899, 290.521
685.200, 249.061
686.501, 102.503
687.802, 211.502
689.102, 60.523
690.402, 147.507
691.702, 51.653
693.002, 81.187
694.301, 158.106
695.600, 71.605
696.899, 13.748
698.198, 6.512
699.497, -17.557
700.795, 27.509
702.093, 14.000
703.391, 43.129
704.689, 91.873
705.987, 9.663
707.284, 49.384
708.581, 37.878
709.878, 44.727
711.175, 4.085
712.472, 68.130
713.768, 46.417
715.064, 55.328
716.360, 72.701
717.656, 50.246
718.951, 27.912
720.247, 164.434
721.542, 71.819
722.837, 8.442
724.131, 128.328
725.426, 98.524
726.720, 85.829
728.014, 6.159
729.308, 50.020
730.601, 106.690
731.895, 82.277
733.188, 134.986
734.481, 2.758
735.774, 130.714
737.067, 77.809
738.359, 17.166
739.651, 123.632
740.943, 92.576
742.235, 142.238
743.526, 99.052
744.818, 46.038
746.109, 22.564
747.400, 139.131
748.691, 45.662
749.981, 131.652
751.271, 157.984
752.562, 185.004
753.851, 140.449
755.141, 116.793
756.431, 192.824
757.720, 168.654
759.009, 214.199
760.298, 209.340
761.587, 184.826
762.875, 69.943
764.163, 75.074
765.451, 200.127
766.739, 144.898
768.027, 220.900
769.314, 125.699
770.601, 210.508
771.888, 215.643
773.175, 239.980
774.462, 234.205
775.748, 348.402
777.034, 422.660
778.320, 317.312
779.606, 321.199
780.892, 535.260
782.177, 459.258
783.462, 572.934
784.747, 616.723
786.032, 730.406
787.317, 873.881
788.601, 927.289
789.885, 1090.629
791.169, 1233.902
792.453, 1397.109
793.736, 1630.381
795.019, 1803.453
796.303, 2096.459
797.585, 2349.400
798.868, 2452.275
800.151, 2475.088
801.433, 2537.830
802.715, 2420.512
803.997, 2453.125
805.279, 2275.676
806.560, 1988.162
807.841, 1980.582
809.122, 1832.939
810.403, 1615.232
811.684, 1517.463
812.964, 1369.629
814.245, 1191.732
815.525, 1213.773
816.804, 1055.750
818.084, 917.664
819.363, 829.518
820.643, 751.305
821.922, 763.035
823.201, 524.701
824.479, 576.305
825.758, 437.709
827.036, 438.508
828.314, 369.633
829.592, 289.500
830.869, 311.701
832.147, 202.273
833.424, 162.619
834.701, 233.236
835.977, 133.041
837.254, 303.037
838.530, 93.309
839.807, 53.355
841.082, 122.781
842.358, 27.395
843.634, 1.607
844.909, 111.047
846.184, 39.953
847.459, 99.041
848.734, 161.584
850.008, 101.562
851.283, 0.312
852.557, 46.871
853.831, 115.842
855.105, 64.031
856.378, 200.678
857.651, 98.922
858.925, 142.514
860.197, 53.910
861.470, 31.910
862.743, 34.668
864.015, 26.162
865.287, 49.672
866.559, 98.191
867.831, 164.178
869.102, 103.299
870.373, 110.877
871.645, 18.213
872.915, 185.213
874.186, 63.199
875.457, 240.619
876.727, 83.059
877.997, 104.467
879.267, 81.918
880.536, 10.781
881.806, 174.250
883.075, 141.131
884.344, 61.543
885.613, 78.439
886.882, 5.740
888.150, 9.023
889.419, 118.152
890.687, 35.053
891.954, 220.668
893.222, 32.342
894.490, 45.613
895.757, 71.305
897.024, 7.965
898.291, 94.080
899.557, 59.619
900.824, 46.352
902.090, 152.354
903.356, 48.977
904.622, 14.332
905.888, 33.879
907.153, 1.047
908.418, 35.344
909.683, 62.018
910.948, 108.549
912.213, 121.908
913.477, 81.869
914.741, 148.363
916.005, 124.223
917.269, 120.092
918.533, 166.553
919.796, 17.250
921.060, 119.223
922.323, 95.264
923.585, 1.629
924.848, 167.980
926.111, 174.404
927.373, 160.777
928.635, 127.600
929.897, 121.061
931.158, 123.775
932.420, 117.959
933.681, 114.965
934.942, 191.939
936.203, 128.885
937.463, 135.797
938.724, 332.676
939.984, 219.525
941.244, 256.348
942.504, 203.139
943.764, 349.902
945.023, 324.338
946.282, 213.344
947.541, 390.020
948.800, 376.672
950.059, 453.293
951.317, 629.912
952.575, 336.506
953.833, 683.072
955.091, 469.613
956.349, 686.127
957.606, 832.617
958.864, 1019.082
960.121, 1385.521
961.377, 2071.938
962.634, 3198.328
963.891, 5374.695
965.147, 7461.041
966.403, 8167.363
967.659, 6283.672
968.914, 4319.961
970.170, 3046.227
971.425, 2132.471
972.680, 1918.695
973.935, 1564.896
975.190, 1481.078
976.444, 1427.238
977.698, 1503.379
978.952, 1489.500
980.206, 1815.607
981.460, 1761.695
982.713, 1787.545
983.967, 1982.928
985.220, 1758.139
986.473, 2253.635
987.725, 2048.703
988.978, 2544.480
990.230, 2719.371
991.482, 2694.084
992.734, 3169.086
993.986, 3470.840
995.237, 3684.430
996.488, 4231.477
997.739, 4626.080
998.990, 5370.969
1000.241, 6114.352
1001.492, 7189.291
1002.742, 8502.992
1003.992, 9777.719
1005.242, 11492.727
1006.492, 13347.525
1007.741, 15112.906
1008.990, 17417.871
1010.239, 18748.434
1011.488, 19913.225
1012.737, 20120.482
1013.986, 19186.141
1015.234, 17778.607
1016.482, 15729.656
1017.730, 13434.695
1018.978, 11638.594
1020.225, 9973.789
1021.473, 8478.906
1022.720, 7382.807
1023.967, 6558.254
1025.213, 5853.203
1026.460, 5496.201
1027.706, 5105.400
1028.953, 5170.633
1030.198, 5145.781
1031.444, 4969.877
1032.690, 5475.451
1033.935, 5710.898
1035.180, 6461.973
1036.425, 6967.234
1037.670, 7902.209
1038.915, 8946.754
1040.159, 10282.234
1041.403, 11955.369
1042.647, 13631.314
1043.891, 15004.703
1045.135, 16357.291
1046.378, 16672.650
1047.621, 16427.768
1048.864, 15783.258
1050.107, 14838.629
1051.350, 14583.957
1052.592, 14169.750
1053.835, 14515.123
1055.077, 15349.738
1056.318, 15945.855
1057.560, 17231.002
1058.802, 17846.389
1060.043, 18221.898
1061.284, 17667.621
1062.525, 15933.682
1063.765, 13549.328
1065.006, 11715.271
1066.246, 9351.137
1067.486, 7657.000
1068.726, 6253.082
1069.966, 5037.859
1071.205, 4423.783
1072.445, 3669.605
1073.684, 3105.037
1074.923, 2761.203
1076.161, 2317.416
1077.400, 2403.594
1078.638, 2159.598
1079.876, 2025.119
1081.114, 2001.346
1082.352, 1837.338
1083.590, 1643.332
1084.827, 1629.494
1086.064, 1417.929
1087.301, 1281.443
1088.538, 1197.551
1089.775, 1103.666
1091.011, 1062.386
1092.247, 1065.918
1093.483, 1052.057
1094.719, 1018.074
1095.955, 1084.230
1097.190, 1110.396
1098.425, 1226.572
1099.660, 1458.160
1100.895, 1314.354
1102.130, 1520.559
1103.364, 2046.771
1104.598, 2202.994
1105.833, 2849.229
1107.066, 3475.467
1108.300, 3471.721
1109.534, 3667.980
1110.767, 3514.252
1112.000, 3570.531
1113.233, 3146.824
1114.466, 2683.127
1115.698, 2451.904
1116.930, 2538.242
1118.163, 1914.602
1119.394, 1878.424
1120.626, 2170.781
1121.858, 2290.450
1123.089, 2246.812
1124.320, 1550.381
1125.551, 1696.887
1126.782, 1505.588
1128.013, 1300.437
1129.243, 1565.665
1130.473, 718.322
1131.703, 614.648
1132.933, 640.988
1134.163, 347.338
1135.392, 403.711
1136.621, 400.105
1137.850, 36.516
1139.079, 432.953
1140.308, 269.436
1141.536, 185.969
1142.765, 383.150
1143.993, 60.141
1145.221, 266.072
1146.448, 82.271
1147.676, 168.590
1148.903, 24.949
1150.130, 101.338
1151.357, 37.744
1152.584, 104.219
1153.810, 50.697
1155.037, 7.242
1156.263, 73.883
1157.489, 119.395
1158.715, 257.273
1159.940, 66.066
1161.166, 10.645
1162.391, 177.387
1163.616, 24.162
1164.841, 191.008
1166.065, 107.893
1167.290, 5.178
1168.514, 201.803
1169.738, 171.145
1170.962, 175.945
1172.185, 213.070
1173.409, 139.771
1174.632, 477.430
1175.855, 224.666
1177.078, 41.941
1178.301, 779.240
1179.523, 516.572
1180.746, 773.934
1181.968, 821.338
1183.190, 638.779
1184.412, 1166.252
1185.633, 1373.756
1186.855, 1221.295
1188.076, 1458.871
1189.297, 1566.477
1190.518, 1424.117
1191.738, 1621.797
1192.959, 1289.510
1194.179, 1557.260
1195.399, 1475.051
1196.619, 992.801
1197.838, 1210.594
1199.058, 1088.418
1200.277, 926.285
1201.496, 924.189
1202.715, 782.989
1203.934, 920.098
1205.152, 678.088
1206.371, 566.117
1207.589, 684.189
1208.807, 472.307
1210.024, 240.471
1211.242, 488.682
1212.459, 226.941
1213.677, 415.250
1214.894, 573.611
1216.110, 92.025
1217.327, 630.488
1218.543, 394.777
1219.760, 133.281
1220.976, 691.857
1222.192, 50.506
1223.407, 359.227
1224.623, 545.666
1225.838, 178.586
1227.053, 467.172
1228.268, 265.816
1229.483, 414.242
1230.697, 360.875
1231.912, 139.238
1233.126, 179.266
1234.340, 437.309
1235.554, 105.379
1236.767, 483.461
1237.981, 181.559
1239.194, 299.668
1240.407, 237.785
1241.620, 155.910
1242.832, 214.039
1244.045, 102.164
1245.257, 89.711
1246.469, 104.732
1247.681, 66.512
1248.893, 142.438
1250.104, 243.629
1251.315, 302.824
1252.527, 322.344
1253.738, 374.128
1254.948, 248.773
1256.159, 382.496
1257.369, 300.359
1258.579, 218.734
1259.789, 417.172
1260.999, 33.969
1262.209, 585.773
1263.418, 586.035
1264.628, 56.453
1265.837, 417.035
1267.046, 267.816
1268.254, 73.910
1269.463, 353.172
1270.671, 222.500
1271.879, 251.914
1273.087, 381.438
1274.295, 171.098
1275.502, 370.855
1276.710, 305.066
1277.917, 282.117
1279.124, 278.211
1280.331, 67.270
1281.537, 125.961
1282.744, 254.012
1283.950, 53.434
1285.156, 196.145
1286.362, 190.543
1287.568, 1.766
1288.773, 460.027
1289.978, 0.000
##END=



