##NAMES=Montebrasite
##RRUFFID=R060890
##IDEAL CHEMISTRY=LiAlPO_4_(OH)
##LOCALITY=Mount Marie, Paris, Maine, USA
##OWNER=RRUFF
##SOURCE=Bob Jenkins
##DESCRIPTION=Colorless massive
##STATUS=The identification of this mineral is confirmed by single-crystal X-ray diffraction and chemical analysis.
##URL=rruff.info/R060890
##MEASURED CHEMISTRY=Li_1.00_Al_1.00_(P_1.00_O_4_)(OH)_0.63_F_0.37_)_Î£=1_ ; Li not measured but estimated by stoichiometry
##PIN_ID=M01846
##ORIENTATION=Laser parallel to (1 -1 0). Fiducial mark perpendicular to laser is parallel to c [0 0 1]
90.67800, 0.0000000E+00
91.91600, 0.1982420
93.15500, 22.37842
94.39300, 23.82666
95.63100, 75.16357
96.86900, 24.63672
98.10600, 2.021973
99.34400, 14.34326
100.5810, 36.20508
101.8190, 1.442871
103.0560, 61.22852
104.2930, 11.32227
105.5290, 189.4824
106.7660, 255.5854
108.0020, 288.3535
109.2390, 279.6606
110.4750, 488.6782
111.7110, 485.8218
112.9460, 640.9170
114.1820, 665.6846
115.4170, 861.9233
116.6530, 827.4873
117.8880, 847.2681
119.1230, 1169.185
120.3580, 1353.177
121.5920, 1737.858
122.8270, 2215.854
124.0610, 2574.825
125.2950, 3027.749
126.5290, 3536.645
127.7630, 4117.647
128.9970, 4507.419
130.2300, 5245.851
131.4640, 5539.973
132.6970, 5405.153
133.9300, 5160.617
135.1630, 4605.424
136.3950, 3661.638
137.6280, 2861.310
138.8600, 2239.491
140.0920, 1713.222
141.3240, 1198.542
142.5560, 773.4839
143.7880, 586.0781
145.0190, 297.3516
146.2510, 300.3291
147.4820, 197.0317
148.7130, 104.4790
149.9440, 56.68750
151.1750, 3.329590
152.4050, 60.44434
153.6360, 191.0200
154.8660, 374.4097
156.0960, 618.6235
157.3260, 788.6738
158.5560, 1124.568
159.7850, 1545.316
161.0150, 1965.926
162.2440, 2525.971
163.4730, 3047.125
164.7020, 3451.260
165.9310, 4111.670
167.1590, 4449.683
168.3880, 4620.008
169.6160, 4789.891
170.8440, 4740.183
172.0720, 4449.468
173.3000, 4294.827
174.5280, 4191.355
175.7550, 3910.364
176.9820, 3615.454
178.2100, 3232.621
179.4370, 3068.862
180.6630, 2747.177
181.8900, 2537.562
183.1170, 2357.013
184.3430, 2062.528
185.5690, 1761.104
186.7950, 1702.733
188.0210, 1466.416
189.2470, 1300.146
190.4720, 1017.922
191.6970, 998.7402
192.9230, 663.5991
194.1480, 575.4951
195.3730, 429.4238
196.5970, 444.3867
197.8220, 455.3818
199.0460, 477.4082
200.2700, 554.4629
201.4940, 395.5449
202.7180, 402.6489
203.9420, 442.7666
205.1660, 642.8853
206.3890, 753.0020
207.6120, 733.1177
208.8350, 889.2310
210.0580, 874.3438
211.2810, 819.4561
212.5040, 855.5679
213.7260, 899.6802
214.9480, 871.7925
216.1700, 910.9048
217.3920, 825.0176
218.6140, 824.1313
219.8360, 760.2466
221.0570, 745.3618
222.2790, 707.3286
223.5000, 593.5957
224.7210, 592.7144
225.9410, 622.8340
227.1620, 486.9551
228.3820, 477.0771
229.6030, 273.2007
230.8230, 342.3291
232.0430, 243.4653
233.2630, 80.61230
234.4820, 78.77393
235.7020, 94.94873
236.9210, 100.1357
238.1400, 66.21680
239.3590, 79.35938
240.5780, 55.46924
241.7970, 145.5093
243.0150, 169.5557
244.2340, 61.55518
245.4520, 168.5356
246.6700, 276.8018
247.8880, 89.77002
249.1060, 203.7173
250.3230, 224.6685
251.5400, 98.66309
252.7580, 79.66943
253.9750, 19.68848
255.1920, 81.32178
256.4080, 154.3643
257.6250, 295.4297
258.8410, 411.5376
260.0580, 571.6704
261.2740, 902.8125
262.4900, 1228.969
263.7050, 1666.144
264.9210, 2099.329
266.1360, 2418.520
267.3520, 3098.711
268.5670, 3471.889
269.7820, 4127.063
270.9960, 4473.237
272.2110, 5118.404
273.4250, 5307.559
274.6400, 5699.706
275.8540, 5783.837
277.0680, 5905.936
278.2810, 6065.991
279.4950, 6129.005
280.7090, 6327.978
281.9220, 6719.915
283.1350, 6998.817
284.3480, 7622.684
285.5610, 8512.520
286.7730, 9374.319
287.9860, 10732.10
289.1980, 12529.85
290.4100, 14550.57
291.6220, 16808.26
292.8340, 19976.94
294.0460, 23163.59
295.2570, 26724.22
296.4690, 30923.83
297.6800, 35532.29
298.8910, 40156.86
300.1020, 44027.41
301.3120, 46255.94
302.5230, 46025.47
303.7330, 43764.97
304.9440, 40206.46
306.1540, 35910.94
307.3630, 32066.40
308.5730, 28798.84
309.7830, 25819.25
310.9920, 23494.64
312.2010, 21227.89
313.4100, 19077.91
314.6190, 16798.75
315.8280, 14522.35
317.0370, 12507.68
318.2450, 11101.89
319.4530, 9874.048
320.6610, 9194.215
321.8690, 8375.387
323.0770, 7800.562
324.2850, 7346.743
325.4920, 6810.929
326.6990, 6507.119
327.9060, 5969.312
329.1130, 5543.508
330.3200, 5038.708
331.5270, 4678.909
332.7330, 4291.114
333.9390, 3938.319
335.1450, 3580.528
336.3510, 3453.736
337.5570, 3156.947
338.7630, 2997.158
339.9680, 2959.370
341.1740, 2697.582
342.3790, 2485.794
343.5840, 2525.006
344.7890, 2456.218
345.9930, 2282.429
347.1980, 2361.640
348.4020, 2417.850
349.6060, 2430.058
350.8100, 2472.266
352.0140, 2327.472
353.2180, 2353.677
354.4210, 2512.880
355.6250, 2621.083
356.8280, 2744.283
358.0310, 2910.482
359.2340, 2928.680
360.4360, 3248.875
361.6390, 3191.068
362.8410, 3462.259
364.0430, 3432.449
365.2450, 3720.636
366.4470, 3828.903
367.6490, 3986.085
368.8510, 3984.870
370.0520, 4088.324
371.2530, 4185.996
372.4540, 4190.609
373.6550, 4150.417
374.8560, 4089.405
376.0560, 3996.470
377.2570, 3894.428
378.4570, 3744.954
379.6570, 3558.837
380.8570, 3424.240
382.0570, 3238.032
383.2560, 3081.124
384.4560, 2897.072
385.6550, 2747.741
386.8540, 2547.119
388.0530, 2377.151
389.2520, 2249.132
390.4510, 2079.037
391.6490, 2012.570
392.8470, 1861.088
394.0450, 1751.630
395.2430, 1605.417
396.4410, 1471.668
397.6390, 1483.921
398.8360, 1420.676
400.0340, 1412.625
401.2310, 1287.177
402.4280, 1154.263
403.6250, 1194.512
404.8210, 1120.739
406.0180, 1005.466
407.2140, 1151.946
408.4100, 966.3545
409.6060, 867.0205
410.8020, 899.3643
411.9980, 845.3091
413.1930, 809.7266
414.3890, 821.4053
415.5840, 853.9272
416.7790, 894.4004
417.9740, 959.0283
419.1680, 937.7783
420.3630, 1225.015
421.5570, 1262.095
422.7510, 1722.458
423.9450, 1923.628
425.1390, 2327.944
426.3330, 2436.814
427.5270, 2335.495
428.7200, 2137.247
429.9130, 1771.909
431.1060, 1520.556
432.2990, 1214.187
433.4920, 1082.808
434.6840, 857.4146
435.8770, 672.0063
437.0690, 642.5859
438.2610, 619.1489
439.4530, 526.6963
440.6450, 539.2397
441.8360, 526.7690
443.0280, 441.2847
444.2190, 399.8066
445.4100, 316.3140
446.6010, 308.6602
447.7920, 358.3013
448.9820, 306.7852
450.1730, 352.2534
451.3630, 369.7231
452.5530, 300.1816
453.7430, 288.6265
454.9330, 381.0581
456.1230, 328.4863
457.3120, 306.8999
458.5010, 355.3003
459.6910, 324.6963
460.8800, 269.0859
462.0680, 282.4653
463.2570, 304.8535
464.4460, 264.2349
465.6340, 378.6045
466.8220, 404.9722
468.0100, 424.3306
469.1980, 464.6392
470.3860, 481.5518
471.5730, 498.3306
472.7600, 520.6382
473.9480, 567.2163
475.1350, 578.2217
476.3210, 654.4941
477.5080, 691.7539
478.6950, 820.9990
479.8810, 950.2324
481.0670, 908.4512
482.2530, 860.6558
483.4390, 1021.847
484.6250, 910.0229
485.8100, 984.1846
486.9960, 759.3320
488.1810, 850.4653
489.3660, 769.5835
490.5510, 810.6870
491.7360, 884.7754
492.9200, 744.8491
494.1050, 778.9077
495.2890, 661.9507
496.4730, 674.9785
497.6570, 581.9902
498.8400, 624.9868
500.0240, 549.9678
501.2070, 438.9316
502.3910, 541.8804
503.5740, 356.8130
504.7570, 303.7285
505.9400, 410.6279
507.1220, 243.5103
508.3050, 205.3755
509.4870, 229.2231
510.6690, 81.05371
511.8510, 159.8608
513.0330, 107.6489
514.2140, 120.4150
515.3960, 74.15967
516.5770, 38.87988
517.7580, 29.57666
518.9390, 42.24609
520.1200, 3.890625
521.3010, 7.490723
522.4810, 33.09717
523.6610, 0.6616210
524.8420, 19.19775
526.0220, 20.70947
527.2010, 36.76953
528.3810, 57.73096
529.5610, 76.73975
530.7400, 95.22266
531.9190, 60.24414
533.0980, 7.745117
534.2770, 51.69580
535.4560, 102.1572
536.6340, 8.363770
537.8120, 8.071777
538.9910, 4.503418
540.1690, 111.9346
541.3460, 71.43848
542.5240, 42.01074
543.7020, 124.6382
544.8790, 79.36621
546.0560, 31.17139
547.2330, 55.02881
548.4100, 82.95068
549.5870, 49.95215
550.7630, 38.15576
551.9400, 17.13721
553.1160, 17.69678
554.2920, 2.501465
555.4680, 22.64697
556.6440, 63.17334
557.8190, 70.86035
558.9950, 46.78418
560.1700, 30.60547
561.3450, 116.6421
562.5200, 150.5024
563.6950, 80.03613
564.8690, 125.1641
566.0440, 87.53125
567.2180, 198.9048
568.3920, 246.4336
569.5660, 227.2876
570.7400, 255.1973
571.9130, 306.0103
573.0870, 335.7251
574.2600, 342.4746
575.4330, 275.2080
576.6060, 407.0024
577.7790, 401.0747
578.9520, 321.5977
580.1240, 523.0508
581.2960, 618.0132
582.4690, 691.5596
583.6410, 656.3491
584.8120, 953.7900
585.9840, 1019.438
587.1560, 1160.918
588.3270, 1485.409
589.4980, 1775.704
590.6690, 2140.112
591.8400, 2734.223
593.0110, 3252.435
594.1810, 4260.301
595.3510, 5033.109
596.5220, 6306.731
597.6920, 7691.092
598.8610, 9303.383
600.0310, 10954.24
601.2010, 12709.40
602.3700, 13546.03
603.5390, 13706.35
604.7080, 12733.57
605.8770, 10872.66
607.0460, 9068.647
608.2140, 7483.149
609.3830, 6109.050
610.5510, 5273.992
611.7190, 4523.781
612.8870, 4044.519
614.0550, 3785.036
615.2220, 3755.875
616.3900, 3544.704
617.5570, 3879.400
618.7240, 3906.994
619.8910, 4172.886
621.0580, 4458.461
622.2240, 4927.014
623.3910, 5536.539
624.5570, 6330.061
625.7230, 7153.561
626.8890, 8078.055
628.0550, 9146.537
629.2200, 10226.99
630.3860, 11250.43
631.5510, 12164.84
632.7160, 12578.22
633.8810, 12362.56
635.0460, 12312.88
636.2100, 12309.16
637.3750, 12249.43
638.5390, 13233.66
639.7030, 14369.87
640.8670, 16203.04
642.0310, 18827.18
643.1950, 21689.30
644.3580, 24302.38
645.5210, 26513.44
646.6850, 26672.46
647.8480, 24847.44
649.0100, 21352.32
650.1730, 17384.24
651.3350, 13878.53
652.4980, 10941.11
653.6600, 8750.441
654.8220, 6897.791
655.9840, 5629.915
657.1450, 4699.820
658.3070, 4020.614
659.4680, 3347.478
660.6300, 3070.971
661.7910, 2487.060
662.9510, 2329.741
664.1120, 1967.044
665.2730, 1758.539
666.4330, 1667.010
667.5930, 1485.090
668.7530, 1288.770
669.9130, 1118.247
671.0730, 1146.515
672.2320, 1043.102
673.3920, 940.2412
674.5510, 895.0918
675.7100, 730.7207
676.8690, 865.7485
678.0280, 814.1758
679.1860, 674.7505
680.3450, 598.5459
681.5030, 509.8276
682.6610, 477.9028
683.8190, 462.7393
684.9770, 389.3667
686.1340, 419.9702
687.2920, 277.0278
688.4490, 324.2866
689.6060, 246.5718
690.7630, 271.5527
691.9200, 242.8101
693.0760, 227.4199
694.2330, 181.5103
695.3890, 175.2681
696.5450, 209.1865
697.7010, 136.0815
698.8570, 152.7744
700.0130, 93.29785
701.1680, 128.2861
702.3230, 32.38379
703.4780, 9.145996
704.6330, 39.04883
705.7880, 44.24561
706.9430, 15.16260
708.0970, 14.05127
709.2520, 21.86035
710.4060, 84.25781
711.5600, 101.3423
712.7140, 14.39502
713.8670, 83.40479
715.0210, 69.38232
716.1740, 40.32568
717.3270, 113.2324
718.4800, 123.1079
719.6330, 10.04883
720.7860, 86.74072
721.9380, 50.49756
723.0910, 50.78027
724.2430, 57.86621
725.3950, 4.520996
726.5470, 69.04053
727.6980, 18.43115
728.8500, 71.03955
730.0010, 32.43018
731.1530, 16.94238
732.3040, 30.98291
733.4550, 36.82129
734.6050, 6.920898
735.7560, 66.00146
736.9060, 72.89697
738.0560, 6.383301
739.2060, 23.66455
740.3560, 44.68457
741.5060, 30.23877
742.6560, 26.36328
743.8050, 96.70898
744.9540, 14.16748
746.1030, 64.47852
747.2520, 148.1875
748.4010, 143.6670
749.5500, 174.6582
750.6980, 186.2100
751.8460, 76.30420
752.9950, 153.9248
754.1420, 153.1768
755.2900, 184.8462
756.4380, 233.8540
757.5850, 145.2959
758.7330, 222.0449
759.8800, 346.0278
761.0270, 262.8657
762.1730, 229.1177
763.3200, 397.4194
764.4670, 359.0649
765.6130, 391.4189
766.7590, 406.0420
767.9050, 402.5449
769.0510, 450.7344
770.1960, 476.2310
771.3420, 544.0332
772.4870, 564.2090
773.6320, 635.6631
774.7770, 688.2690
775.9220, 783.2749
777.0670, 971.2505
778.2110, 913.1963
779.3560, 966.6255
780.5000, 1251.512
781.6440, 1323.370
782.7880, 1518.198
783.9320, 1702.067
785.0750, 1824.840
786.2180, 2095.860
787.3620, 2357.229
788.5050, 2606.261
789.6480, 2991.922
790.7900, 3341.556
791.9330, 3679.164
793.0750, 3994.748
794.2170, 4432.307
795.3590, 5004.843
796.5010, 5426.355
797.6430, 5841.845
798.7850, 6205.475
799.9260, 6546.765
801.0670, 6806.193
802.2080, 7009.602
803.3490, 7286.990
804.4900, 7501.357
805.6310, 7511.714
806.7710, 7601.051
807.9110, 7554.388
809.0510, 7478.732
810.1910, 7384.518
811.3310, 7145.362
812.4710, 7016.663
813.6100, 6830.975
814.7490, 6526.268
815.8880, 6132.547
817.0270, 6060.812
818.1660, 5625.090
819.3050, 5601.371
820.4430, 5131.649
821.5820, 4827.945
822.7200, 4475.247
823.8580, 4117.545
824.9950, 3765.842
826.1330, 3400.148
827.2710, 3048.453
828.4080, 2819.757
829.5450, 2592.052
830.6820, 2290.332
831.8190, 2054.511
832.9560, 1767.668
834.0920, 1649.916
835.2280, 1451.882
836.3650, 1198.905
837.5010, 1212.670
838.6360, 1023.568
839.7720, 875.7510
840.9080, 780.2969
842.0430, 631.5625
843.1780, 534.7783
844.3130, 541.7998
845.4480, 378.4565
846.5830, 418.0190
847.7170, 319.6392
848.8520, 323.3203
849.9860, 288.9282
851.1200, 220.5142
852.2540, 210.0020
853.3870, 242.1743
854.5210, 160.8594
855.6540, 172.5776
856.7880, 152.7500
857.9210, 107.3008
859.0540, 123.5767
860.1860, 188.1597
861.3190, 128.5020
862.4510, 96.97705
863.5840, 117.4067
864.7160, 69.99902
865.8480, 30.44238
866.9790, 51.14746
868.1110, 26.28125
869.2420, 56.41211
870.3740, 74.46094
871.5050, 12.51172
872.6360, 13.26465
873.7660, 6.989746
874.8970, 23.31836
876.0280, 19.99365
877.1580, 56.18799
878.2880, 35.12158
879.4180, 31.99268
880.5480, 132.7764
881.6770, 34.53369
882.8070, 76.84277
883.9360, 106.6074
885.0650, 14.47314
886.1940, 62.22217
887.3230, 72.96826
888.4520, 13.45605
889.5800, 43.47168
890.7090, 70.43164
891.8370, 60.30518
892.9650, 151.1226
894.0930, 0.3071290
895.2200, 27.20410
896.3480, 5.114746
897.4750, 107.0288
898.6020, 37.99268
899.7290, 99.97266
900.8560, 78.99756
901.9830, 29.05615
903.1090, 48.12354
904.2360, 3.790039
905.3620, 5.254883
906.4880, 93.63086
907.6140, 0.4409180
908.7400, 11.50830
909.8650, 59.57422
910.9900, 62.34082
912.1160, 26.26416
913.2410, 30.19482
914.3660, 41.86719
915.4900, 61.06445
916.6150, 59.00391
917.7390, 21.95312
918.8640, 2.089355
919.9880, 5.850586
921.1120, 13.14648
922.2350, 44.83496
923.3590, 40.82812
924.4820, 113.8325
925.6060, 79.84766
926.7290, 108.8745
927.8520, 186.9136
928.9740, 125.9653
930.0970, 182.0293
931.2190, 145.1069
932.3420, 160.1973
933.4640, 123.3022
934.5860, 53.42041
935.7080, 165.5532
936.8290, 111.7002
937.9510, 217.8623
939.0720, 316.0396
940.1930, 228.2319
941.3140, 209.4404
942.4350, 282.6650
943.5560, 227.9058
944.6760, 200.1626
945.7960, 290.4365
946.9170, 298.7275
948.0370, 307.0361
949.1560, 320.3623
950.2760, 357.5093
951.3960, 388.0669
952.5150, 429.4468
953.6340, 449.8452
954.7530, 455.2622
955.8720, 448.6973
956.9910, 507.1519
958.1090, 503.6265
959.2280, 493.1196
960.3460, 586.6328
961.4640, 730.1655
962.5820, 698.7188
963.6990, 833.2920
964.8170, 884.8853
965.9340, 918.5005
967.0510, 960.1445
968.1690, 959.8101
969.2850, 1027.501
970.4020, 1186.214
971.5190, 1201.956
972.6350, 1332.723
973.7510, 1524.528
974.8670, 1515.378
975.9830, 1683.272
977.0990, 1870.198
978.2150, 2030.185
979.3300, 2196.216
980.4450, 2395.297
981.5600, 2597.431
982.6750, 2829.600
983.7900, 3268.803
984.9050, 3416.066
986.0190, 4029.357
987.1340, 4479.677
988.2480, 5215.042
989.3620, 5773.432
990.4750, 6621.866
991.5890, 7596.358
992.7020, 8668.908
993.8160, 9893.499
994.9290, 11509.16
996.0420, 13192.88
997.1550, 14769.64
998.2670, 16740.44
999.3800, 18642.30
1000.492, 21040.12
1001.604, 23807.09
1002.716, 26367.40
1003.828, 28933.89
1004.940, 31841.00
1006.051, 34805.43
1007.163, 37168.88
1008.274, 38893.74
1009.385, 40160.80
1010.496, 40264.84
1011.606, 40105.39
1012.717, 38459.14
1013.827, 36527.13
1014.937, 33705.01
1016.047, 30992.05
1017.157, 27801.69
1018.267, 24643.56
1019.377, 22276.93
1020.486, 19502.74
1021.595, 17602.02
1022.704, 15748.78
1023.813, 14388.93
1024.922, 13207.66
1026.030, 12443.08
1027.139, 11749.09
1028.247, 11419.80
1029.355, 11412.28
1030.463, 11418.91
1031.571, 11731.14
1032.678, 12541.33
1033.786, 12800.18
1034.893, 14052.33
1036.000, 14770.22
1037.107, 15937.24
1038.214, 17351.57
1039.321, 18310.95
1040.427, 19296.38
1041.533, 20314.77
1042.639, 21195.89
1043.745, 22511.88
1044.851, 23151.47
1045.957, 24072.12
1047.062, 24601.79
1048.168, 25027.00
1049.273, 25319.77
1050.378, 26133.57
1051.482, 26616.42
1052.587, 27382.24
1053.692, 28647.17
1054.796, 30031.86
1055.900, 31835.88
1057.004, 34095.94
1058.108, 35965.03
1059.212, 37732.17
1060.315, 39323.36
1061.418, 40327.58
1062.522, 39372.86
1063.625, 37706.16
1064.728, 34529.51
1065.830, 30415.90
1066.933, 26401.34
1068.035, 21931.81
1069.137, 18295.33
1070.239, 15300.89
1071.341, 12906.50
1072.443, 10677.15
1073.545, 9091.832
1074.646, 7872.564
1075.747, 6860.339
1076.848, 6003.158
1077.949, 5255.021
1079.050, 4766.926
1080.150, 4088.872
1081.251, 3747.863
1082.351, 3515.895
1083.451, 3211.973
1084.551, 2992.093
1085.651, 2865.258
1086.750, 2683.465
1087.850, 2458.713
1088.949, 2357.003
1090.048, 2394.334
1091.147, 2362.708
1092.246, 2450.123
1093.345, 2407.579
1094.443, 2442.077
1095.541, 2563.616
1096.639, 2723.196
1097.737, 2875.810
1098.835, 3020.183
1099.933, 3268.887
1101.030, 3552.025
1102.128, 3849.551
1103.225, 4209.081
1104.322, 4592.609
1105.419, 5032.767
1106.515, 5497.014
1107.612, 6023.151
1108.708, 6361.988
1109.804, 6841.281
1110.900, 7274.447
1111.996, 7661.032
1113.092, 7904.350
1114.187, 8139.971
1115.283, 8211.243
1116.378, 8192.038
1117.473, 8405.390
1118.568, 8379.777
1119.662, 8534.479
1120.757, 8407.946
1121.851, 8223.291
1122.946, 8112.560
1124.040, 8007.323
1125.134, 7514.940
1126.227, 7330.875
1127.321, 6913.619
1128.414, 6605.341
1129.508, 6359.701
1130.601, 6089.453
1131.693, 5744.199
1132.786, 5448.433
1133.879, 4919.276
1134.971, 4729.447
1136.064, 4287.398
1137.156, 3824.427
1138.248, 3501.509
1139.339, 3124.632
1140.431, 2830.804
1141.522, 2473.072
1142.614, 2168.096
1143.705, 1935.415
1144.796, 1663.766
1145.887, 1463.148
1146.977, 1287.745
1148.068, 1114.678
1149.158, 1021.251
1150.248, 968.8130
1151.338, 919.0176
1152.428, 828.3022
1153.518, 747.0791
1154.607, 674.8315
1155.696, 668.6348
1156.785, 611.7446
1157.874, 638.0815
1158.963, 586.0420
1160.052, 592.0298
1161.141, 506.0518
1162.229, 567.0996
1163.317, 547.2007
1164.405, 528.3354
1165.493, 459.5186
1166.581, 358.7432
1167.668, 379.0000
1168.756, 280.3140
1169.843, 291.6519
1170.930, 261.6821
1172.017, 348.0645
1173.103, 271.5420
1174.190, 337.1201
1175.276, 235.5835
1176.363, 211.0679
1177.449, 202.5728
1178.535, 227.0981
1179.620, 85.65234
1180.706, 163.2271
1181.791, 105.8218
1182.877, 30.43457
1183.962, 187.0708
1185.047, 17.72510
1186.131, 119.3999
1187.216, 108.0933
1188.300, 114.8047
1189.385, 201.9351
1190.469, 103.6812
1191.553, 267.4434
1192.637, 90.22217
1193.720, 150.0166
1194.804, 177.8276
1195.887, 235.6538
1196.970, 194.4956
1198.053, 353.3525
1199.136, 396.2236
1200.219, 359.1099
1201.301, 428.0093
1202.383, 386.9238
1203.465, 414.8511
1204.547, 464.4023
1205.629, 393.3584
1206.711, 470.6597
1207.792, 438.8779
1208.874, 448.0845
1209.955, 394.0947
1211.036, 413.4800
1212.117, 351.6226
1213.198, 380.4150
1214.278, 250.4683
1215.359, 273.1094
1216.439, 288.2402
1217.519, 140.3232
1218.599, 264.4155
1219.678, 91.51709
1220.758, 169.6274
1221.837, 72.74609
1222.917, 81.87891
1223.996, 70.01953
1225.075, 75.16699
1226.153, 13.37354
1227.232, 7.567871
1228.310, 48.26416
1229.389, 84.89209
1230.467, 14.94580
1231.545, 55.27490
1232.622, 24.55762
1233.700, 10.65332
1234.777, 71.55518
1235.855, 71.37646
1236.932, 67.47705
1238.009, 20.89941
1239.086, 66.75977
1240.162, 24.70996
1241.239, 85.64648
1242.315, 43.63672
1243.391, 47.56738
1244.467, 20.15576
1245.543, 115.2036
1246.619, 24.69141
1247.694, 14.58789
1248.769, 58.19336
1249.844, 18.37061
1250.919, 48.76367
1251.994, 79.92480
1253.069, 101.4614
1254.144, 30.72363
1255.218, 84.89648
1256.292, 80.22949
1257.366, 28.75195
1258.440, 54.45459
1259.514, 25.53711
1260.587, 89.80029
1261.661, 30.00684
1262.734, 39.97266
1263.807, 9.554199
1264.880, 69.93262
1265.952, 53.47510
1267.025, 80.25195
1268.097, 37.69482
1269.170, 43.91016
1270.242, 24.40674
