##NAMES=Montebrasite
##RRUFFID=R040062
##IDEAL CHEMISTRY=LiAlPO_4_(OH)
##LOCALITY=Hebron, Maine, USA
##OWNER=RRUFF
##SOURCE=University of Arizona Mineral Museum
##DESCRIPTION=White massive
##STATUS=The identification of this mineral has been confirmed by X-ray diffraction and chemical analysis
##URL=rruff.info/R040062
##MEASURED CHEMISTRY=LiAl(PO_4_)((OH)_0.62_F_0.38_)
##PIN_ID=L00490
##ORIENTATION=Laser parallel to (1 0 1). Fiducial mark perpendicular to laser is parallel to b [0 1 0]
114.726, 0.000
116.123, 6.827
117.519, 151.383
118.915, 124.760
120.311, 224.821
121.706, 606.279
123.102, 1056.091
124.497, 1512.246
125.892, 2083.209
127.286, 2807.873
128.681, 3775.984
130.075, 4856.820
131.469, 4759.838
132.862, 5024.873
134.256, 4621.457
135.649, 3808.989
137.042, 3137.054
138.435, 2255.442
139.827, 1546.699
141.219, 1039.785
142.611, 823.602
144.003, 627.239
145.394, 450.441
146.786, 374.620
148.177, 299.558
149.567, 366.013
150.958, 362.670
152.348, 418.487
153.738, 283.075
155.128, 496.545
156.517, 299.008
157.907, 380.569
159.296, 441.324
160.685, 491.361
162.073, 592.975
163.462, 689.029
164.850, 697.624
166.237, 795.649
167.625, 811.423
169.012, 825.107
170.400, 889.056
171.786, 765.934
173.173, 833.560
174.559, 831.437
175.946, 981.311
177.332, 1124.050
178.717, 1131.785
180.103, 1263.371
181.488, 1412.647
182.873, 1622.807
184.258, 1725.602
185.642, 1910.516
187.026, 2031.459
188.410, 2190.757
189.794, 2190.222
191.178, 2228.536
192.561, 2166.880
193.944, 2185.248
195.327, 2093.638
196.709, 1802.050
198.092, 1640.498
199.474, 1309.017
200.856, 1177.639
202.237, 826.371
203.618, 595.219
205.000, 424.179
206.380, 283.246
207.761, 151.628
209.142, 71.696
210.522, 8.932
211.902, 58.523
213.281, 69.919
214.661, 70.305
216.040, 20.630
217.419, 49.101
218.798, 18.881
220.176, 61.296
221.554, 11.435
222.932, 58.459
224.310, 31.625
225.688, 21.693
227.065, 58.249
228.442, 48.200
229.819, 18.155
231.196, 48.108
232.572, 18.054
233.948, 23.725
235.324, 14.263
236.700, 2.183
238.075, 2.245
239.450, 72.219
240.825, 62.157
242.200, 111.995
243.574, 18.260
244.948, 91.439
246.322, 38.832
247.696, 20.957
249.070, 120.718
250.443, 160.527
251.816, 70.400
253.189, 40.341
254.561, 70.321
255.933, 9.671
257.306, 50.353
258.677, 50.403
260.049, 79.488
261.420, 79.261
262.791, 68.951
264.162, 208.581
265.533, 368.045
266.903, 387.372
268.274, 516.615
269.643, 755.780
271.013, 834.915
272.383, 904.041
273.752, 1033.164
275.121, 1142.285
276.490, 981.403
277.858, 1040.518
279.226, 1119.631
280.595, 1301.023
281.962, 1331.403
283.330, 1432.989
284.697, 1584.862
286.064, 1936.938
287.431, 2309.158
288.798, 3101.484
290.164, 3913.884
291.530, 5376.332
292.896, 7408.809
294.262, 9521.299
295.627, 12553.791
296.993, 15136.273
298.358, 16758.734
299.722, 17161.391
301.087, 16174.239
302.451, 14156.596
303.815, 11899.258
305.179, 10131.521
306.543, 8524.463
307.906, 7346.680
309.269, 6608.844
310.632, 6260.854
311.995, 5862.794
313.357, 5454.665
314.719, 5106.455
316.081, 5008.168
317.443, 4619.803
318.804, 4581.365
320.166, 4042.861
321.527, 3604.298
322.887, 3285.673
324.248, 2616.994
325.608, 2398.264
326.968, 1989.475
328.328, 1730.515
329.688, 1421.333
331.047, 1217.812
332.406, 1162.668
333.765, 953.202
335.124, 933.619
336.482, 953.997
337.840, 744.332
339.198, 754.622
340.556, 644.857
341.913, 624.980
343.271, 464.929
344.628, 454.772
345.984, 444.562
347.341, 584.128
348.697, 453.581
350.053, 472.956
351.409, 482.232
352.765, 341.816
354.120, 341.196
355.475, 341.129
356.830, 361.028
358.185, 380.979
359.539, 376.673
360.894, 391.326
362.248, 390.787
363.601, 380.604
364.955, 425.491
366.308, 411.805
367.661, 482.052
369.014, 638.119
370.367, 583.049
371.719, 653.579
373.071, 566.493
374.423, 614.312
375.775, 601.868
377.126, 520.800
378.478, 514.817
379.828, 611.692
381.179, 550.697
382.530, 679.721
383.880, 704.207
385.230, 672.057
386.580, 581.199
387.929, 497.239
389.279, 498.299
390.628, 692.256
391.977, 541.225
393.325, 549.550
394.674, 669.005
396.022, 588.387
397.370, 756.837
398.718, 695.581
400.065, 744.069
401.413, 774.244
402.760, 586.828
404.106, 791.157
405.453, 732.711
406.799, 761.512
408.146, 864.165
409.491, 992.949
410.837, 969.159
412.182, 1169.094
413.528, 1386.542
414.873, 1859.639
416.217, 2434.617
417.562, 3327.788
418.906, 4855.692
420.250, 7210.080
421.594, 10684.453
422.938, 15102.937
424.281, 18281.408
425.624, 19679.826
426.967, 17828.762
428.310, 14547.720
429.652, 10276.658
430.994, 6985.611
432.336, 4794.547
433.678, 3233.472
435.020, 2382.401
436.361, 1771.315
437.702, 1360.230
439.043, 1189.133
440.383, 978.018
441.724, 866.886
443.064, 745.742
444.404, 734.583
445.743, 463.395
447.083, 362.204
448.422, 370.986
449.761, 389.736
451.100, 328.455
452.438, 327.142
453.777, 275.812
455.115, 354.447
456.453, 319.490
457.790, 271.719
459.128, 300.173
460.465, 218.684
461.802, 167.156
463.139, 295.591
464.475, 193.991
465.811, 312.354
467.147, 100.682
468.483, 258.968
469.819, 257.218
471.154, 445.434
472.489, 523.615
473.824, 451.762
475.159, 709.874
476.493, 787.953
477.827, 865.998
479.161, 834.009
480.495, 981.986
481.829, 1099.930
483.162, 1267.841
484.495, 1365.718
485.828, 1283.562
487.161, 1591.373
488.493, 1599.152
489.825, 1426.896
491.157, 1664.611
492.489, 1462.294
493.820, 1539.944
495.151, 1477.564
496.482, 1405.154
497.813, 1342.715
499.144, 1212.973
500.474, 1197.740
501.804, 985.207
503.134, 892.644
504.464, 880.052
505.793, 777.430
507.123, 714.779
508.451, 582.101
509.780, 489.393
511.109, 386.658
512.437, 213.896
513.765, 261.103
515.093, 128.281
516.421, 135.425
517.748, 122.535
519.075, 30.388
520.402, 53.378
521.729, 3.637
523.055, 150.590
524.382, 52.464
525.708, 75.147
527.034, 71.773
528.359, 71.230
529.685, 52.906
531.010, 34.428
532.335, 28.695
533.659, 58.313
534.984, 24.875
536.308, 57.819
537.632, 58.862
538.956, 134.479
540.279, 162.019
541.603, 90.429
542.926, 76.843
544.249, 54.672
545.571, 141.241
546.894, 142.743
548.216, 177.800
549.538, 305.142
550.860, 165.609
552.181, 260.342
553.503, 89.285
554.824, 65.354
556.145, 241.415
557.465, 137.475
558.786, 82.238
560.106, 319.017
561.426, 14.679
562.746, 147.977
564.065, 94.005
565.385, 157.187
566.704, 122.939
568.023, 217.857
569.341, 363.625
570.660, 349.607
571.978, 373.160
573.296, 397.256
574.614, 333.076
575.931, 325.549
577.248, 381.029
578.565, 393.027
579.882, 413.127
581.199, 478.914
582.515, 567.143
583.831, 602.535
585.147, 639.379
586.463, 622.951
587.779, 868.662
589.094, 810.158
590.409, 965.311
591.724, 1161.260
593.038, 1291.225
594.353, 1586.418
595.667, 2245.582
596.981, 2791.238
598.295, 3286.154
599.608, 3911.098
600.922, 4309.307
602.235, 4305.043
603.547, 3559.797
604.860, 3080.287
606.172, 2405.832
607.485, 2050.463
608.797, 1755.209
610.108, 1609.762
611.420, 1468.021
612.731, 1322.492
614.042, 1206.920
615.353, 1323.748
616.664, 1478.090
617.974, 1392.396
619.284, 1626.432
620.594, 2000.207
621.904, 2184.561
623.213, 2748.361
624.523, 3272.465
625.832, 3845.789
627.141, 4579.734
628.449, 5183.629
629.758, 5437.572
631.066, 5551.477
632.374, 5125.340
633.681, 4659.164
634.989, 4402.949
636.296, 4726.691
637.603, 5280.398
638.910, 6424.062
640.217, 8237.689
641.523, 10661.279
642.829, 13024.826
644.135, 15278.332
645.441, 15451.801
646.747, 13985.230
648.052, 11708.619
649.357, 9191.973
650.662, 6875.285
651.967, 4928.559
653.271, 4041.797
654.575, 2874.992
655.879, 2508.152
657.183, 1991.273
658.486, 1574.357
659.790, 1437.404
661.093, 1270.410
662.396, 943.379
663.698, 1016.309
665.001, 769.201
666.303, 752.059
667.605, 784.875
668.907, 617.656
670.209, 680.080
671.510, 392.662
672.811, 494.652
674.112, 326.635
675.413, 428.523
676.713, 366.838
678.013, 283.662
679.313, 283.988
680.613, 275.844
681.913, 162.588
683.212, 227.863
684.511, 199.287
685.810, 54.721
687.109, 91.281
688.407, 161.998
689.706, 109.951
691.004, 148.568
692.302, 89.037
693.599, 145.037
694.897, 145.953
696.194, 147.062
697.491, 20.457
698.788, 151.469
700.084, 32.334
701.380, 106.047
702.677, 32.805
703.972, 118.252
705.268, 229.426
706.564, 18.943
707.859, 87.936
709.154, 3.330
710.449, 166.094
711.743, 156.197
713.037, 147.258
714.332, 92.146
715.626, 47.912
716.919, 219.064
718.213, 72.260
719.506, 108.053
720.799, 72.029
722.092, 158.174
723.384, 101.836
724.677, 138.447
725.969, 79.180
727.261, 50.121
728.553, 50.500
729.844, 111.086
731.136, 68.365
732.427, 212.041
733.718, 137.521
735.008, 382.793
736.299, 83.082
737.589, 6.656
738.879, 153.549
740.169, 13.729
741.458, 96.135
742.748, 43.904
744.037, 66.088
745.326, 153.842
746.614, 23.744
747.903, 46.385
749.191, 103.414
750.479, 36.811
751.767, 22.902
753.055, 142.584
754.342, 112.242
755.629, 28.125
756.916, 11.457
758.203, 261.004
759.490, 69.471
760.776, 9.982
762.062, 229.400
763.348, 68.801
764.634, 218.174
765.919, 42.471
767.204, 316.830
768.489, 136.109
769.774, 24.633
771.059, 364.584
772.343, 193.779
773.627, 142.957
774.911, 422.117
776.195, 31.260
777.479, 460.381
778.762, 369.486
780.045, 358.682
781.328, 397.754
782.611, 316.812
783.893, 615.852
785.175, 814.877
786.457, 813.883
787.739, 882.875
789.021, 1151.852
790.302, 1200.812
791.583, 1189.758
792.864, 1358.689
794.145, 1697.605
795.425, 1656.508
796.706, 1975.396
797.986, 2244.273
799.266, 2173.133
800.545, 2171.980
801.825, 2520.818
803.104, 2249.645
804.383, 2368.453
805.662, 2207.254
806.940, 2166.043
808.219, 1994.822
809.497, 1823.592
810.775, 2092.348
812.053, 1671.094
813.330, 1659.832
814.608, 1608.561
815.885, 1157.279
817.162, 1445.990
818.438, 1254.691
819.715, 1243.385
820.991, 752.070
822.267, 990.750
823.543, 939.422
824.818, 578.086
826.094, 676.746
827.369, 405.404
828.644, 304.057
829.919, 532.709
831.193, 381.373
832.468, 249.975
833.742, 178.594
835.016, 247.184
836.289, 395.346
837.563, 6.160
838.836, 112.232
840.109, 0.768
841.382, 237.164
842.654, 55.516
843.927, 3.684
845.199, 142.043
846.471, 110.131
847.743, 1.439
849.014, 187.008
850.286, 64.449
851.557, 42.168
852.828, 250.752
854.099, 92.092
855.369, 96.291
856.639, 59.711
857.909, 8.203
859.179, 47.170
860.449, 101.598
861.718, 241.736
862.988, 82.336
864.257, 156.424
865.525, 465.182
866.794, 13.916
868.062, 243.922
869.331, 291.891
870.599, 200.957
871.866, 322.379
873.134, 41.070
874.401, 482.611
875.668, 181.602
876.935, 441.424
878.202, 400.377
879.468, 309.104
880.735, 472.344
882.001, 240.924
883.267, 369.850
884.532, 292.119
885.798, 391.383
887.063, 239.439
888.328, 398.730
889.593, 257.664
890.857, 444.137
892.122, 463.420
893.386, 541.234
894.650, 632.299
895.913, 361.201
897.177, 544.297
898.440, 523.715
899.703, 442.314
900.966, 626.879
902.229, 626.191
903.491, 241.518
904.754, 720.328
906.016, 179.861
907.278, 269.348
908.539, 255.547
909.801, 184.203
911.062, 268.291
912.323, 247.686
913.584, 306.477
914.844, 286.160
916.105, 225.711
917.365, 225.439
918.625, 215.344
919.885, 171.219
921.144, 161.020
922.404, 208.400
923.663, 28.246
924.922, 138.119
926.180, 148.012
927.439, 207.930
928.697, 17.705
929.955, 237.674
931.213, 12.332
932.471, 147.686
933.728, 267.729
934.985, 277.799
936.242, 117.893
937.499, 38.016
938.756, 108.162
940.012, 288.338
941.269, 58.539
942.525, 298.779
943.780, 199.047
945.036, 169.342
946.291, 299.666
947.546, 150.018
948.801, 330.400
950.056, 560.809
951.311, 221.248
952.565, 321.717
953.819, 372.215
955.073, 402.744
956.327, 303.303
957.580, 263.893
958.834, 374.514
960.087, 585.166
961.339, 335.852
962.592, 786.568
963.845, 417.318
965.097, 618.100
966.349, 548.918
967.601, 659.771
968.852, 1000.658
970.104, 391.602
971.355, 1012.564
972.606, 953.559
973.857, 694.580
975.107, 925.631
976.358, 906.713
977.608, 1067.824
978.858, 1448.965
980.108, 1380.141
981.357, 1541.346
982.607, 1732.584
983.856, 1613.852
985.105, 2545.154
986.353, 2126.486
987.602, 2697.855
988.850, 3221.473
990.098, 3362.910
991.346, 4224.346
992.594, 4755.859
993.841, 5397.414
995.089, 6372.260
996.336, 6913.883
997.583, 8285.547
998.829, 9437.191
1000.076, 10828.922
1001.322, 13254.289
1002.568, 15106.102
1003.814, 17257.949
1005.060, 19197.275
1006.305, 20719.207
1007.550, 22958.352
1008.795, 23740.379
1010.040, 23982.441
1011.285, 23895.746
1012.529, 22083.463
1013.773, 20743.320
1015.017, 18320.115
1016.261, 16172.441
1017.505, 14204.979
1018.748, 12407.691
1019.991, 11170.172
1021.234, 9583.502
1022.477, 8626.090
1023.719, 8118.721
1024.962, 7521.539
1026.204, 7084.279
1027.446, 6897.102
1028.688, 7029.961
1029.929, 7012.863
1031.170, 7485.836
1032.411, 7808.848
1033.652, 8631.904
1034.893, 9005.031
1036.134, 10048.199
1037.374, 11021.457
1038.614, 11964.754
1039.854, 12968.102
1041.094, 14311.496
1042.333, 14734.941
1043.572, 15848.434
1044.811, 15872.004
1046.050, 15765.621
1047.289, 15809.307
1048.527, 15533.035
1049.766, 15446.816
1051.004, 15870.666
1052.241, 16384.561
1053.479, 17088.520
1054.717, 18002.500
1055.954, 19856.533
1057.191, 21930.609
1058.428, 21954.709
1059.664, 22868.865
1060.901, 21193.006
1062.137, 19017.217
1063.373, 16291.473
1064.609, 13195.693
1065.844, 11199.947
1067.080, 8524.174
1068.315, 7058.406
1069.550, 6122.672
1070.785, 5116.965
1072.019, 4281.316
1073.254, 3655.568
1074.488, 3139.861
1075.722, 2934.191
1076.955, 2548.562
1078.189, 2112.973
1079.422, 2207.424
1080.656, 1631.809
1081.889, 1836.332
1083.121, 1720.896
1084.354, 1545.496
1085.586, 1390.133
1086.818, 1164.805
1088.050, 1048.463
1089.282, 1344.254
1090.514, 861.379
1091.745, 1036.193
1092.976, 1121.045
1094.207, 755.943
1095.438, 910.887
1096.668, 795.883
1097.899, 1110.936
1099.129, 836.045
1100.359, 851.217
1101.588, 1126.451
1102.818, 701.752
1104.047, 947.125
1105.276, 1002.459
1106.505, 987.867
1107.734, 1043.354
1108.962, 1008.922
1110.191, 924.574
1111.419, 1130.322
1112.647, 986.178
1113.874, 782.500
1115.102, 943.838
1116.329, 664.965
1117.556, 1035.176
1118.783, 948.059
1120.010, 903.000
1121.236, 1178.008
1122.463, 743.084
1123.689, 688.230
1124.914, 653.445
1126.140, 308.736
1127.366, 684.092
1128.591, 379.500
1129.816, 384.980
1131.041, 510.520
1132.266, 46.113
1133.490, 331.781
1134.714, 287.486
1135.938, 76.723
1137.162, 459.119
1138.386, 24.998
1139.609, 260.908
1140.833, 296.863
1142.056, 97.135
1143.279, 498.930
1144.501, 55.053
1145.724, 241.193
1146.946, 407.348
1148.168, 146.434
1149.390, 219.854
1150.612, 146.205
1151.833, 17.379
1153.054, 339.104
1154.275, 174.350
1155.496, 22.260
1156.717, 248.936
1157.937, 34.330
1159.158, 137.533
1160.378, 439.328
1161.598, 113.754
1162.817, 403.227
1164.037, 0.268
1165.256, 2.627
1166.475, 94.543
1167.694, 18.221
1168.913, 199.084
1170.131, 396.457
1171.349, 206.096
1172.567, 451.424
1173.785, 169.018
1175.003, 166.684
1176.220, 364.426
1177.438, 172.244
1178.655, 310.102
1179.872, 388.033
1181.088, 326.043
1182.305, 564.127
1183.521, 402.285
1184.737, 490.520
1185.953, 528.830
1187.169, 767.211
1188.384, 715.668
1189.599, 894.188
1190.814, 837.264
1192.029, 821.357
1193.244, 780.080
1194.459, 741.693
1195.673, 647.867
1196.887, 676.934
1198.101, 666.119
1199.314, 655.422
1200.528, 339.520
1201.741, 1008.961
1202.954, 648.525
1204.167, 390.328
1205.380, 709.980
1206.592, 335.721
1207.805, 345.326
1209.017, 583.604
1210.229, 214.195
1211.440, 610.424
1212.652, 444.393
1213.863, 200.615
1215.074, 438.262
1216.285, 454.826
1217.496, 253.838
1218.707, 240.658
1219.917, 358.879
1221.127, 427.086
1222.337, 555.270
1223.547, 213.426
1224.756, 281.535
1225.966, 389.586
1227.175, 577.561
1228.384, 275.441
1229.592, 103.215
1230.801, 390.840
1232.009, 548.283
1233.217, 95.738
1234.425, 343.125
1235.633, 59.268
1236.841, 408.445
1238.048, 356.959
1239.255, 176.518
1240.462, 506.582
1241.669, 457.652
1242.876, 149.885
1244.082, 502.496
1245.288, 185.574
1246.494, 179.230
1247.700, 623.625
1248.906, 298.973
1250.111, 321.145
1251.316, 336.836
1252.521, 313.596
1253.726, 311.355
1254.931, 340.070
1256.135, 459.807
1257.339, 532.809
1258.543, 220.828
1259.747, 643.330
1260.951, 693.281
1262.154, 2.838
1263.357, 0.000
##END=



