##NAMES=Montebrasite
##RRUFFID=R040060
##IDEAL CHEMISTRY=LiAlPO_4_(OH)
##LOCALITY=Oxford County, Maine, USA
##OWNER=RRUFF
##SOURCE=University of Arizona Mineral Museum
##DESCRIPTION=White massive
##STATUS=The identification of this mineral has been confirmed by X-ray diffraction and chemical analysis
##URL=rruff.info/R040060
##MEASURED CHEMISTRY=LiAl(PO_4_)((OH)_0.79_F_0.21_)
##PIN_ID=L00466
##ORIENTATION=Laser parallel to (-1 0 -1). Fiducial mark perpendicular to laser is parallel to b [0 1 0]
108.603, 0.000
109.998, 8.057
111.393, 148.476
112.787, 791.384
114.182, 1525.797
115.576, 2113.765
116.970, 2730.594
118.363, 2891.933
119.757, 2004.351
121.150, 1375.555
122.543, 1029.674
123.936, 878.934
125.328, 660.645
126.720, 804.785
128.112, 1047.563
129.504, 1462.442
130.896, 1911.775
132.287, 2320.107
133.678, 2752.177
135.069, 2945.766
136.460, 2920.317
137.850, 2744.924
139.240, 2399.501
140.630, 1979.179
142.020, 1306.611
143.410, 859.476
144.799, 511.589
146.188, 304.019
147.577, 243.839
148.965, 205.502
150.354, 149.038
151.742, 57.551
153.130, 203.141
154.517, 184.905
155.905, 272.922
157.292, 358.266
158.679, 443.971
160.066, 645.027
161.452, 770.553
162.839, 880.726
164.225, 1089.773
165.611, 1220.599
166.996, 1317.578
168.381, 1458.894
169.767, 1612.631
171.152, 1489.336
172.536, 1396.316
173.921, 1294.874
175.305, 1076.789
176.689, 991.666
178.073, 933.876
179.456, 1047.337
180.839, 1018.328
182.222, 928.861
183.605, 1026.731
184.988, 1039.371
186.370, 1155.275
187.752, 1195.905
189.134, 1245.472
190.516, 1244.977
191.898, 1362.444
193.279, 1313.921
194.660, 1439.451
196.041, 1333.051
197.421, 1224.726
198.801, 1098.485
200.182, 876.333
201.561, 756.261
202.941, 598.267
204.321, 416.344
205.700, 317.488
207.079, 156.687
208.457, 81.935
209.836, 34.774
211.214, 70.555
212.592, 55.914
213.970, 21.703
215.348, 17.300
216.725, 35.117
218.102, 178.543
219.479, 133.971
220.856, 126.399
222.232, 175.824
223.608, 81.320
224.984, 182.215
226.360, 216.799
227.736, 179.578
229.111, 114.079
230.486, 172.344
231.861, 113.795
233.236, 108.564
234.610, 141.216
235.984, 82.190
237.358, 64.000
238.732, 12.753
240.105, 14.629
241.479, 55.876
242.852, 125.900
244.224, 41.604
245.597, 139.192
246.969, 68.157
248.342, 168.624
249.713, 107.398
251.085, 165.085
252.457, 142.857
253.828, 131.665
255.199, 166.508
256.570, 41.405
257.940, 4.368
259.310, 192.504
260.681, 44.182
262.050, 14.651
263.420, 155.887
264.790, 276.895
266.159, 434.764
267.528, 587.459
268.896, 846.106
270.265, 1298.723
271.633, 1582.312
273.001, 2149.873
274.369, 2426.830
275.737, 2551.906
277.104, 2808.773
278.471, 2526.000
279.838, 2363.491
281.205, 1991.179
282.572, 1869.014
283.938, 1726.960
285.304, 1714.985
286.670, 1923.194
288.035, 2021.647
289.401, 2630.496
290.766, 3538.646
292.131, 4786.797
293.495, 6615.420
294.860, 8333.554
296.224, 10252.075
297.588, 11700.260
298.952, 12438.445
300.315, 11926.575
301.679, 10814.569
303.042, 9242.400
304.405, 7810.177
305.767, 6597.893
307.130, 5585.551
308.492, 4913.135
309.854, 4560.632
311.216, 4038.031
312.578, 3775.332
313.939, 3352.538
315.300, 3009.652
316.661, 2756.682
318.021, 2543.629
319.382, 2560.496
320.742, 2437.287
322.102, 2334.004
323.462, 2150.643
324.821, 1857.150
326.181, 1603.546
327.540, 1409.833
328.899, 1116.056
330.257, 861.214
331.616, 730.306
332.974, 609.339
334.332, 516.311
335.690, 408.211
337.047, 384.041
338.405, 318.770
339.762, 230.360
341.119, 212.736
342.475, 216.879
343.832, 175.754
345.188, 212.350
346.544, 24.317
347.900, 104.880
349.255, 20.897
350.610, 65.853
351.965, 76.772
353.320, 0.345
354.675, 67.489
356.029, 16.488
357.384, 37.037
358.738, 76.703
360.091, 105.655
361.445, 108.547
362.798, 93.226
364.151, 183.754
365.504, 176.034
366.857, 143.304
368.209, 293.798
369.561, 168.823
370.913, 245.115
372.265, 211.114
373.617, 297.493
374.968, 264.759
376.319, 254.134
377.670, 455.354
379.021, 341.368
380.371, 325.252
381.721, 338.388
383.071, 398.426
384.421, 440.657
385.770, 395.065
387.120, 514.494
388.469, 464.430
389.818, 443.161
391.166, 565.582
392.515, 509.003
393.863, 462.667
395.211, 565.590
396.559, 508.869
397.906, 522.228
399.254, 615.051
400.601, 577.791
401.948, 508.340
403.294, 552.173
404.641, 590.025
405.987, 583.315
407.333, 772.441
408.679, 794.990
410.025, 771.654
411.370, 742.024
412.715, 825.931
414.060, 906.407
415.405, 1117.916
416.749, 1200.291
418.093, 1500.248
419.437, 1978.111
420.781, 2877.586
422.125, 4085.510
423.468, 5886.346
424.811, 7676.791
426.154, 8998.182
427.497, 9050.036
428.839, 8351.864
430.182, 6453.693
431.524, 4755.506
432.866, 3367.310
434.207, 2409.088
435.549, 1650.836
436.890, 1302.550
438.231, 984.230
439.572, 765.867
440.912, 687.459
442.252, 649.004
443.593, 530.502
444.932, 881.953
446.272, 383.352
447.611, 344.702
448.951, 295.998
450.290, 207.239
451.628, 678.424
452.967, 969.553
454.305, 260.627
455.644, 371.644
456.981, 272.607
458.319, 343.512
459.657, 334.358
460.994, 335.150
462.331, 355.884
463.668, 396.562
465.004, 527.183
466.341, 547.746
467.677, 498.255
469.013, 678.707
470.348, 779.104
471.684, 1249.443
473.019, 1259.729
474.354, 1359.957
475.689, 1660.132
477.024, 2080.251
478.358, 2340.314
479.692, 2640.322
481.026, 2920.275
482.360, 3130.175
483.694, 3210.019
485.027, 3219.808
486.360, 3019.543
487.693, 3159.223
489.026, 2918.851
490.358, 2798.423
491.691, 2897.942
493.023, 2597.409
494.354, 2576.821
495.686, 2496.180
497.017, 2215.485
498.349, 2124.682
499.680, 2023.543
501.010, 1851.973
502.341, 1680.268
503.671, 1388.522
505.001, 1226.548
506.331, 974.671
507.661, 867.556
508.990, 684.900
510.319, 680.373
511.648, 407.130
512.977, 453.997
514.306, 408.126
515.634, 325.293
516.962, 188.373
518.290, 144.173
519.618, 140.808
520.945, 218.046
522.273, 95.565
523.600, 122.407
524.927, 10.281
526.253, 8.509
527.580, 4.097
528.906, 15.781
530.232, 38.895
531.558, 71.782
532.883, 63.830
534.208, 33.884
535.534, 17.857
536.858, 50.020
538.183, 10.524
539.508, 37.729
540.832, 85.846
542.156, 63.710
543.480, 31.592
544.803, 30.694
546.127, 119.139
547.450, 87.507
548.773, 84.192
550.096, 184.867
551.418, 92.779
552.741, 90.111
554.063, 190.483
555.385, 81.401
556.706, 79.055
558.028, 106.444
559.349, 85.377
560.670, 92.952
561.991, 12.968
563.312, 87.392
564.632, 115.051
565.952, 33.011
567.272, 79.919
568.592, 151.848
569.911, 139.213
571.231, 210.563
572.550, 161.225
573.869, 239.615
575.187, 203.477
576.506, 253.035
577.824, 230.576
579.142, 401.389
580.460, 328.231
581.778, 410.154
583.095, 487.227
584.412, 424.508
585.729, 561.531
587.046, 479.154
588.363, 652.709
589.679, 852.490
590.995, 793.506
592.311, 1010.922
593.627, 1247.641
594.942, 1555.539
596.258, 2032.016
597.573, 2648.645
598.888, 3295.086
600.202, 3711.053
601.517, 3977.594
602.831, 3943.880
604.145, 3459.813
605.459, 2916.065
606.772, 2291.677
608.086, 2017.109
609.399, 1772.151
610.712, 1497.387
612.024, 1283.064
613.337, 1257.818
614.649, 1103.396
615.961, 1337.871
617.273, 1562.587
618.585, 1347.789
619.896, 1412.352
621.208, 1786.943
622.519, 2261.592
623.829, 2546.186
625.140, 3100.724
626.450, 3725.205
627.761, 4239.631
629.071, 4404.000
630.380, 4358.316
631.690, 4262.575
632.999, 3906.778
634.308, 3820.926
635.617, 3455.018
636.926, 3779.055
638.235, 4243.037
639.543, 5136.978
640.851, 6650.863
642.159, 8724.693
643.466, 10918.470
644.774, 12842.190
646.081, 13265.855
647.388, 12489.466
648.695, 10433.021
650.002, 8446.522
651.308, 6499.969
652.614, 4803.358
653.920, 3766.695
655.226, 2819.977
656.531, 2193.205
657.837, 1726.380
659.142, 1499.503
660.447, 1252.575
661.752, 1015.598
663.056, 838.568
664.360, 711.489
665.664, 644.382
666.968, 607.227
668.272, 450.033
669.575, 542.793
670.879, 465.509
672.182, 258.189
673.484, 370.601
674.787, 492.423
676.089, 374.024
677.392, 405.567
678.694, 217.466
679.995, 328.801
681.297, 230.411
682.598, 120.972
683.899, 251.452
685.200, 181.621
686.501, 551.170
687.802, 599.472
689.102, 105.930
690.402, 222.792
691.702, 73.229
693.002, 112.472
694.301, 29.568
695.600, 79.480
696.899, 79.902
698.198, 121.634
699.497, 161.971
700.795, 35.434
702.093, 55.981
703.391, 76.404
704.689, 76.854
705.987, 21.518
707.284, 102.060
708.581, 117.704
709.878, 7.820
711.175, 17.449
712.472, 119.739
713.768, 171.680
715.064, 22.866
716.360, 103.696
717.656, 65.228
718.951, 7.568
720.247, 71.768
721.542, 53.317
722.837, 211.954
724.131, 27.035
725.426, 112.177
726.720, 18.723
728.014, 6.491
729.308, 42.499
730.601, 58.060
731.895, 10.926
733.188, 80.007
734.481, 11.065
735.774, 198.463
737.067, 26.059
738.359, 144.191
739.651, 93.510
740.943, 137.284
742.235, 67.203
743.526, 53.430
744.818, 5.874
746.109, 15.184
747.400, 63.666
748.691, 122.454
749.981, 41.187
751.271, 149.851
752.562, 98.462
753.851, 127.015
755.141, 225.980
756.431, 84.431
757.720, 126.903
759.009, 195.241
760.298, 103.528
761.587, 212.534
762.875, 191.032
764.163, 179.165
765.451, 287.607
766.739, 165.645
768.027, 253.631
769.314, 151.572
770.601, 359.461
771.888, 337.307
773.175, 155.107
774.462, 302.861
775.748, 350.568
777.034, 439.930
778.320, 327.551
779.606, 405.127
780.892, 522.660
782.177, 470.150
783.462, 577.598
784.747, 865.000
786.032, 732.359
787.317, 989.678
788.601, 1016.953
789.885, 1194.186
791.169, 1471.377
792.453, 1568.529
793.736, 1938.814
795.019, 2025.881
796.303, 2382.908
797.585, 2479.895
798.868, 2586.840
800.151, 2703.746
801.433, 2600.613
802.715, 2617.438
803.997, 2634.225
805.279, 2380.973
806.560, 2387.680
807.841, 2174.352
809.122, 1960.984
810.403, 1997.578
811.684, 1714.135
812.964, 1660.652
814.245, 1427.135
815.525, 1323.578
816.804, 1179.986
818.084, 1036.357
819.363, 1162.695
820.643, 748.994
821.922, 845.260
823.201, 801.490
824.479, 597.682
825.758, 453.842
827.036, 539.424
828.314, 365.445
829.592, 371.506
830.869, 277.488
832.147, 323.488
833.424, 288.762
834.701, 124.473
835.977, 239.746
837.254, 304.543
838.530, 169.865
839.807, 174.881
841.082, 100.697
842.358, 36.502
843.634, 41.191
844.909, 156.391
846.184, 130.820
847.459, 195.529
848.734, 39.277
850.008, 93.762
851.283, 8.234
852.557, 212.924
853.831, 32.238
855.105, 21.455
856.378, 185.527
857.651, 69.811
858.925, 64.084
860.197, 107.445
861.470, 71.922
862.743, 126.902
864.015, 58.764
865.287, 109.998
866.559, 25.602
867.831, 11.029
869.102, 8.082
870.373, 13.857
871.645, 163.793
872.915, 35.086
874.186, 30.971
875.457, 72.627
876.727, 192.777
877.997, 186.719
879.267, 100.734
880.536, 49.256
881.806, 161.396
883.075, 4.301
884.344, 11.713
885.613, 133.398
886.882, 97.086
888.150, 7.453
889.419, 118.264
890.687, 19.098
891.954, 214.852
893.222, 91.465
894.490, 17.611
895.757, 4.426
897.024, 7.240
898.291, 193.650
899.557, 123.242
900.824, 56.369
902.090, 80.125
903.356, 52.639
904.622, 96.510
905.888, 50.164
907.153, 16.059
908.418, 8.129
909.683, 98.324
910.948, 85.400
912.213, 59.410
913.477, 26.959
914.741, 12.881
916.005, 311.111
917.269, 14.947
918.533, 19.449
919.796, 33.340
921.060, 87.605
922.323, 91.449
923.585, 145.922
924.848, 80.387
926.111, 134.268
927.373, 168.732
928.635, 56.807
929.897, 147.639
931.158, 112.084
932.420, 116.525
933.681, 150.967
934.942, 275.410
936.203, 79.855
937.463, 214.299
938.724, 98.744
939.984, 143.193
941.244, 77.645
942.504, 212.096
943.764, 226.551
945.023, 98.992
946.282, 185.439
947.541, 319.875
948.800, 314.316
950.059, 168.760
951.317, 253.209
952.575, 57.662
953.833, 462.121
955.091, 256.588
956.349, 591.059
957.606, 565.535
958.864, 460.021
960.121, 594.516
961.377, 799.014
962.634, 1223.521
963.891, 1658.037
965.147, 2072.561
966.403, 2037.096
967.659, 1531.645
968.914, 1356.205
970.170, 1120.773
971.425, 815.357
972.680, 969.951
973.935, 764.553
975.190, 789.170
976.444, 963.799
977.698, 1018.439
978.952, 1133.094
980.206, 1347.766
981.460, 1012.447
982.713, 1377.143
983.967, 1261.863
985.220, 1326.602
986.473, 1671.145
987.725, 1625.916
988.978, 1830.707
990.230, 2095.516
991.482, 2310.344
992.734, 2814.938
993.986, 2869.287
995.237, 3443.727
996.488, 3819.645
997.739, 4244.529
998.990, 5199.516
1000.241, 5764.094
1001.492, 6888.936
1002.742, 8082.789
1003.992, 9297.871
1005.242, 11139.527
1006.492, 12604.053
1007.741, 14369.215
1008.990, 16274.186
1010.239, 17349.176
1011.488, 18354.389
1012.737, 18179.488
1013.986, 17134.830
1015.234, 15790.055
1016.482, 13917.941
1017.730, 12091.031
1018.978, 10304.973
1020.225, 8549.148
1021.473, 7753.080
1022.720, 6458.668
1023.967, 6004.182
1025.213, 5337.588
1026.460, 4833.447
1027.706, 4697.156
1028.953, 4582.936
1030.198, 4668.746
1031.444, 4701.668
1032.690, 4887.561
1033.935, 5403.287
1035.180, 5859.236
1036.425, 6315.246
1037.670, 7391.277
1038.915, 7867.352
1040.159, 9257.152
1041.403, 10592.424
1042.647, 11928.596
1043.891, 13200.281
1045.135, 14275.793
1046.378, 14451.818
1047.621, 14337.859
1048.864, 13614.211
1050.107, 13260.613
1051.350, 12987.049
1052.592, 13083.512
1053.835, 13720.008
1055.077, 14566.535
1056.318, 15983.094
1057.560, 17529.221
1058.802, 18365.836
1060.043, 18678.412
1061.284, 18285.092
1062.525, 16271.809
1063.765, 14207.779
1065.006, 11774.238
1066.246, 9561.047
1067.486, 8107.525
1068.726, 6314.400
1069.966, 5391.307
1071.205, 4288.246
1072.445, 3565.219
1073.684, 3212.223
1074.923, 2579.260
1076.161, 2326.332
1077.400, 2253.434
1078.638, 1858.875
1079.876, 1826.043
1081.114, 1563.246
1082.352, 1560.484
1083.590, 1527.754
1084.827, 1195.061
1086.064, 1182.398
1087.301, 1089.775
1088.538, 877.184
1089.775, 1154.621
1091.011, 1042.092
1092.247, 1019.602
1093.483, 1007.143
1094.719, 1061.541
1095.955, 1099.158
1097.190, 1026.807
1098.425, 1334.494
1099.660, 1602.219
1100.895, 1479.979
1102.130, 1827.775
1103.364, 2285.611
1104.598, 2433.482
1105.833, 3221.391
1107.066, 3819.338
1108.300, 3867.322
1109.534, 4105.346
1110.767, 3853.406
1112.000, 3481.508
1113.233, 3539.650
1114.466, 3867.832
1115.698, 3557.619
1116.930, 2695.887
1118.163, 2344.195
1119.394, 2393.131
1120.626, 2031.523
1121.858, 1909.963
1123.089, 1988.445
1124.320, 1666.971
1125.551, 1485.699
1126.782, 1364.316
1128.013, 882.982
1129.243, 1171.693
1130.473, 810.451
1131.703, 711.326
1132.933, 720.182
1134.163, 439.084
1135.392, 748.111
1136.621, 557.115
1137.850, 126.168
1139.079, 535.275
1140.308, 174.434
1141.536, 293.719
1142.765, 360.504
1143.993, 70.168
1145.221, 399.674
1146.448, 79.111
1147.676, 218.605
1148.903, 348.127
1150.130, 97.691
1151.357, 77.324
1152.584, 177.018
1153.810, 156.781
1155.037, 326.607
1156.263, 156.441
1157.489, 56.338
1158.715, 296.293
1159.940, 56.312
1161.166, 116.393
1162.391, 246.596
1163.616, 136.500
1164.841, 436.475
1166.065, 176.502
1167.290, 256.572
1168.514, 447.002
1169.738, 137.145
1170.962, 297.307
1172.185, 250.582
1173.409, 19.182
1174.632, 571.062
1175.855, 421.400
1177.078, 261.156
1178.301, 731.203
1179.523, 439.639
1180.746, 708.641
1181.968, 927.695
1183.190, 806.807
1184.412, 1346.035
1185.633, 1095.340
1186.855, 1454.734
1188.076, 1734.193
1189.297, 1503.705
1190.518, 1613.273
1191.738, 1442.898
1192.959, 1322.586
1194.179, 1482.371
1195.399, 1242.219
1196.619, 1142.133
1197.838, 1222.113
1199.058, 992.148
1200.277, 1202.246
1201.496, 1022.406
1202.715, 662.633
1203.934, 1052.930
1205.152, 693.289
1206.371, 743.707
1207.589, 814.189
1208.807, 394.732
1210.024, 435.340
1211.242, 516.045
1212.459, 336.814
1213.677, 447.648
1214.894, 468.547
1216.110, 79.510
1217.327, 620.537
1218.543, 91.629
1219.760, 362.789
1220.976, 294.002
1222.192, 75.270
1223.407, 236.592
1224.623, 157.982
1225.838, 79.438
1227.053, 270.955
1228.268, 12.535
1229.483, 334.148
1230.697, 215.822
1231.912, 57.561
1233.126, 359.359
1234.340, 281.166
1235.554, 51.389
1236.767, 273.230
1237.981, 35.127
1239.194, 487.080
1240.407, 219.084
1241.620, 151.141
1242.832, 463.244
1244.045, 245.398
1245.257, 47.604
1246.469, 259.861
1247.681, 142.166
1248.893, 174.502
1250.104, 246.564
1251.315, 118.975
1252.527, 371.465
1253.738, 104.064
1254.948, 136.777
1256.159, 189.602
1257.369, 202.533
1258.579, 225.574
1259.789, 338.727
1260.999, 58.012
1262.209, 625.365
1263.418, 378.854
1264.628, 27.539
1265.837, 536.180
1267.046, 120.014
1268.254, 183.967
1269.463, 448.037
1270.671, 7.773
1271.879, 256.537
1273.087, 280.971
1274.295, 145.525
1275.502, 400.209
1276.710, 44.973
1277.917, 309.975
1279.124, 285.061
1280.331, 30.312
1281.537, 425.744
1282.744, 231.340
1283.950, 97.105
1285.156, 353.051
1286.362, 69.186
1287.568, 104.471
1288.773, 472.096
1289.978, 18.891
1291.184, 135.914
1292.389, 393.180
1293.593, 203.367
1294.798, 377.988
1296.002, 365.582
1297.206, 163.412
1298.410, 650.627
1299.614, 298.924
1300.818, 364.791
1302.021, 492.945
1303.225, 210.809
1304.428, 759.330
1305.631, 467.482
1306.833, 94.365
1308.036, 494.596
1309.238, 308.234
1310.440, 231.605
1311.642, 593.920
1312.844, 125.471
1314.045, 525.945
1315.247, 523.951
1316.448, 7.312
1317.649, 626.650
1318.850, 582.145
1320.051, 295.092
1321.251, 441.211
1322.451, 9.740
1323.651, 0.000
##END=



