##NAMES=Montebrasite
##RRUFFID=R040062
##IDEAL CHEMISTRY=LiAlPO_4_(OH)
##LOCALITY=Hebron, Maine, USA
##OWNER=RRUFF
##SOURCE=University of Arizona Mineral Museum
##DESCRIPTION=White massive
##STATUS=The identification of this mineral has been confirmed by X-ray diffraction and chemical analysis
##URL=rruff.info/R040062
##MEASURED CHEMISTRY=LiAl(PO_4_)((OH)_0.62_F_0.38_)
##PIN_ID=M00438
##ORIENTATION=Laser parallel to a* (1 0 0). Fiducial mark perpendicular to laser is parallel to b [0 1 0]
121.683, 0.000
123.079, 83.647
124.475, 307.150
125.870, 579.729
127.265, 926.325
128.660, 1438.525
130.055, 2061.941
131.449, 2362.550
132.843, 2868.741
134.237, 2809.253
135.631, 2502.918
137.024, 2356.269
138.417, 1734.379
139.810, 1356.729
141.203, 938.971
142.596, 534.367
143.988, 461.127
145.380, 178.180
146.771, 225.377
148.163, 162.674
149.554, 150.040
150.945, 46.302
152.336, 13.105
153.726, 8.863
155.117, 93.208
156.507, 17.001
157.896, 19.933
159.286, 162.504
160.675, 269.220
162.064, 434.387
163.453, 587.765
164.842, 717.222
166.230, 797.662
167.618, 966.431
169.006, 985.010
170.393, 1103.426
171.781, 981.701
173.168, 939.855
174.555, 927.903
175.941, 885.857
177.328, 903.746
178.714, 891.548
180.100, 848.632
181.485, 826.169
182.871, 737.889
184.256, 635.178
185.641, 633.853
187.025, 687.938
188.410, 564.024
189.794, 558.117
191.178, 502.341
192.562, 346.690
193.945, 371.155
195.328, 285.722
196.711, 140.375
198.094, 85.107
199.476, 9.914
200.859, 35.397
202.241, 69.741
203.623, 35.244
205.004, 20.186
206.385, 74.899
207.766, 40.049
209.147, 25.280
210.528, 170.600
211.908, 176.007
213.288, 211.503
214.668, 187.085
216.048, 292.751
217.427, 258.497
218.806, 364.319
220.185, 310.203
221.564, 326.156
222.942, 152.173
224.320, 248.247
225.698, 174.375
227.076, 250.551
228.453, 226.771
229.830, 43.037
231.207, 99.343
232.584, 35.688
233.960, 112.069
235.337, 78.483
236.713, 24.923
238.088, 38.622
239.464, 12.152
240.839, 15.654
242.214, 149.129
243.589, 42.562
244.964, 125.946
246.338, 49.277
247.712, 92.502
249.086, 135.613
250.459, 188.618
251.833, 81.551
253.206, 14.440
254.579, 37.296
255.951, 35.482
257.324, 37.193
258.696, 84.509
260.068, 151.853
261.439, 169.216
262.811, 246.561
264.182, 413.877
265.553, 631.085
266.924, 698.189
268.294, 945.189
269.665, 1272.026
271.035, 1508.816
272.404, 1715.597
273.774, 1882.389
275.143, 1955.397
276.512, 2015.992
277.881, 1962.802
279.250, 1889.615
280.618, 1766.436
281.986, 1713.259
283.354, 1790.085
284.721, 1716.915
286.089, 1883.747
287.456, 1998.847
288.823, 2384.981
290.190, 2821.710
291.556, 3518.834
292.922, 4626.245
294.288, 5773.870
295.654, 7461.654
297.019, 9049.680
298.385, 10517.688
299.750, 11425.774
301.114, 11433.926
302.479, 10702.092
303.843, 9690.301
305.207, 8428.528
306.571, 7176.779
307.935, 6365.037
309.298, 5673.297
310.661, 5251.555
312.024, 4709.812
313.387, 4208.066
314.749, 3726.317
316.111, 3453.977
317.473, 3112.105
318.835, 3060.316
320.196, 2898.493
321.558, 2696.637
322.919, 2494.539
324.279, 2072.625
325.640, 1860.664
327.000, 1668.617
328.360, 1486.447
329.720, 1254.262
331.080, 1042.055
332.439, 879.836
333.798, 777.606
335.157, 660.058
336.516, 723.121
337.874, 520.863
339.232, 478.597
340.590, 426.323
341.948, 304.041
343.305, 201.749
344.662, 289.405
346.019, 277.006
347.376, 374.448
348.733, 241.753
350.089, 248.890
351.445, 195.838
352.801, 132.760
354.156, 219.667
355.512, 276.818
356.867, 204.781
358.222, 271.953
359.576, 189.405
360.931, 287.654
362.285, 275.642
363.639, 303.929
364.992, 340.265
366.346, 373.714
367.699, 498.950
369.052, 460.436
370.405, 430.945
371.757, 593.572
373.110, 505.547
374.462, 605.680
375.814, 617.382
377.165, 660.007
378.516, 717.918
379.868, 589.847
381.218, 667.174
382.569, 495.849
383.920, 523.765
385.270, 663.672
386.620, 531.217
387.969, 630.440
389.319, 548.714
390.668, 646.197
392.017, 443.784
393.366, 440.735
394.714, 609.024
396.063, 479.879
397.411, 477.229
398.759, 564.173
400.106, 531.418
401.454, 405.609
402.801, 462.159
404.148, 538.794
405.495, 346.944
406.841, 581.159
408.187, 500.890
409.533, 515.004
410.879, 416.914
412.224, 446.029
413.570, 382.481
414.915, 424.296
416.260, 520.118
417.604, 524.062
418.949, 791.007
420.293, 1118.347
421.637, 1655.493
422.980, 2402.615
424.324, 3209.701
425.667, 3886.703
427.010, 4133.695
428.353, 4040.677
429.695, 3227.646
431.037, 2634.605
432.379, 2101.549
433.721, 1368.479
435.063, 945.406
436.404, 752.320
437.745, 759.223
439.086, 536.116
440.427, 462.994
441.767, 559.859
443.108, 436.714
444.448, 323.555
445.787, 210.383
447.127, 267.193
448.466, 223.988
449.805, 310.776
451.144, 284.619
452.482, 334.306
453.821, 241.053
455.159, 257.778
456.497, 184.485
457.834, 141.170
459.172, 287.829
460.509, 194.466
461.846, 261.084
463.183, 277.677
464.519, 264.246
465.856, 370.787
467.192, 317.302
468.527, 473.790
469.863, 550.250
471.198, 726.684
472.534, 823.089
473.868, 859.467
475.203, 865.817
476.538, 1182.140
477.872, 1328.436
479.206, 1594.702
480.540, 1730.941
481.873, 1837.152
483.206, 1933.334
484.539, 1919.488
485.872, 1765.613
487.205, 1803.871
488.537, 1745.858
489.869, 1703.817
491.201, 1699.828
492.533, 1625.811
493.864, 1591.764
495.196, 1467.688
496.527, 1243.584
497.857, 1309.450
499.188, 1115.287
500.518, 1031.096
501.848, 952.544
503.178, 762.622
504.508, 758.340
505.837, 624.027
507.166, 579.685
508.495, 455.314
509.824, 390.914
511.153, 316.485
512.481, 232.028
513.809, 377.543
515.137, 183.210
516.464, 48.666
517.792, 184.182
519.119, 119.569
520.446, 35.479
521.772, 50.792
523.099, 1.112
524.425, 4.051
525.751, 62.391
527.077, 23.493
528.402, 70.736
529.728, 14.996
531.053, 49.273
532.377, 44.213
533.702, 8.681
535.027, 33.620
536.351, 48.252
537.675, 66.957
538.998, 37.105
540.322, 177.912
541.645, 23.307
542.968, 68.953
544.291, 4.736
545.613, 131.338
546.936, 7.215
548.258, 137.996
549.580, 146.828
550.902, 121.492
552.223, 437.721
553.544, 46.719
554.865, 18.545
556.186, 186.707
557.507, 560.805
558.827, 187.520
560.147, 213.406
561.467, 57.756
562.786, 43.391
564.106, 127.463
565.425, 165.238
566.744, 109.463
568.063, 124.375
569.381, 99.895
570.700, 122.486
572.018, 58.857
573.335, 242.973
574.653, 161.066
575.970, 326.529
577.288, 390.750
578.604, 244.781
579.921, 288.348
581.238, 293.920
582.554, 337.018
583.870, 390.895
585.186, 425.453
586.501, 465.287
587.817, 544.604
589.132, 588.545
590.447, 722.156
591.761, 885.748
593.076, 911.525
594.390, 1195.154
595.704, 1529.236
597.018, 2063.799
598.331, 2466.734
599.645, 3110.816
600.958, 3744.787
602.271, 4128.410
603.583, 3772.193
604.896, 3385.326
606.208, 2838.379
607.520, 2591.229
608.832, 2173.750
610.143, 1846.332
611.455, 1690.893
612.766, 1553.525
614.077, 1455.152
615.387, 1509.068
616.698, 1481.223
618.008, 1544.021
619.318, 1737.676
620.628, 2079.822
621.937, 2292.262
623.247, 2604.312
624.556, 3246.346
625.865, 3658.309
627.173, 4730.225
628.482, 5152.096
629.790, 5903.920
631.098, 6115.703
632.405, 5827.441
633.713, 5459.135
635.020, 4760.781
636.327, 4592.383
637.634, 4243.936
638.941, 4415.445
640.247, 5156.908
641.553, 6048.326
642.859, 7389.697
644.165, 8841.020
645.471, 9772.301
646.776, 9733.535
648.081, 8724.723
649.386, 7535.859
650.691, 6006.953
651.995, 4628.004
653.299, 3709.002
654.603, 2779.959
655.907, 2360.865
657.210, 1841.732
658.514, 1492.549
659.817, 1143.320
661.120, 1114.045
662.422, 794.723
663.725, 885.354
665.027, 715.939
666.329, 756.479
667.630, 696.973
668.932, 627.420
670.233, 587.799
671.534, 338.154
672.835, 388.223
674.136, 357.441
675.436, 557.410
676.737, 247.059
678.036, 485.865
679.336, 274.893
680.636, 382.422
681.935, 209.834
683.234, 183.264
684.533, 201.590
685.832, 184.377
687.130, 170.604
688.428, 304.621
689.726, 169.279
691.024, 265.838
692.322, 170.684
693.619, 185.070
694.916, 63.928
696.213, 198.484
697.510, 108.242
698.806, 88.066
700.102, 36.391
701.398, 43.174
702.694, 51.990
703.990, 212.670
705.285, 179.621
706.580, 208.104
707.875, 26.576
709.170, 24.525
710.464, 166.375
711.758, 71.619
713.052, 289.938
714.346, 150.139
715.640, 28.213
716.933, 206.332
718.226, 33.746
719.519, 250.523
720.812, 11.475
722.105, 206.191
723.397, 126.393
724.689, 30.863
725.981, 127.850
727.272, 125.320
728.564, 211.713
729.855, 20.682
731.146, 26.551
732.437, 164.271
733.727, 118.055
735.017, 299.629
736.308, 16.943
737.597, 265.717
738.887, 191.453
740.176, 58.646
741.466, 25.803
742.755, 92.891
744.043, 129.932
745.332, 196.926
746.620, 189.980
747.908, 0.791
749.196, 157.637
750.484, 64.439
751.771, 21.197
753.059, 287.900
754.346, 44.783
755.633, 51.398
756.919, 87.969
758.206, 60.303
759.492, 180.973
760.778, 187.410
762.063, 223.809
763.349, 290.168
764.634, 263.402
765.919, 2.885
767.204, 232.000
768.489, 198.781
769.773, 164.936
771.057, 381.051
772.341, 150.207
773.625, 16.248
774.909, 462.238
776.192, 198.195
777.475, 364.113
778.758, 270.000
780.041, 485.850
781.323, 411.666
782.605, 377.445
783.887, 663.195
785.169, 830.377
786.451, 796.059
787.732, 1091.709
789.013, 1397.326
790.294, 1162.908
791.575, 1328.459
792.856, 1414.221
794.136, 1589.707
795.416, 1685.162
796.696, 1910.586
797.976, 1978.656
799.255, 1971.338
800.534, 2086.668
801.813, 2271.967
803.092, 2197.234
804.371, 2482.473
805.649, 2277.682
806.927, 2152.857
808.205, 2238.008
809.483, 2003.127
810.760, 2108.217
812.037, 1913.277
813.315, 1798.309
814.591, 1853.311
815.868, 1278.283
817.144, 1543.232
818.421, 1468.152
819.697, 1403.043
820.972, 977.908
822.248, 952.744
823.523, 817.553
824.798, 1002.338
826.073, 646.914
827.348, 631.646
828.623, 516.262
829.897, 510.947
831.171, 445.055
832.445, 279.699
833.718, 323.887
834.992, 138.500
836.265, 282.404
837.538, 176.227
838.811, 240.113
840.083, 203.957
841.356, 267.748
842.628, 102.123
843.900, 165.947
845.171, 210.178
846.443, 64.023
847.714, 107.949
848.985, 161.092
850.256, 5.072
851.527, 191.383
852.797, 191.801
854.067, 54.258
855.337, 116.887
856.607, 60.346
857.876, 146.568
859.146, 177.029
860.415, 130.734
861.684, 182.824
862.953, 57.900
864.221, 65.561
865.489, 228.457
866.757, 17.547
868.025, 73.771
869.293, 245.867
870.560, 59.459
871.828, 201.719
873.095, 35.527
874.361, 255.617
875.628, 109.240
876.894, 312.156
878.160, 224.428
879.426, 27.764
880.692, 501.082
881.958, 94.762
883.223, 74.441
884.488, 106.705
885.753, 330.176
887.018, 6.215
888.282, 167.805
889.546, 69.773
890.810, 124.162
892.074, 177.725
893.338, 60.557
894.601, 142.914
895.864, 156.043
897.127, 209.350
898.390, 272.936
899.652, 146.494
900.915, 267.820
902.177, 281.248
903.439, 94.176
904.700, 386.574
905.962, 0.553
907.223, 73.334
908.484, 186.176
909.745, 59.318
911.006, 362.250
912.266, 155.787
913.526, 309.352
914.786, 233.070
916.046, 137.068
917.306, 10.959
918.565, 87.178
919.824, 23.438
921.083, 140.156
922.342, 53.615
923.600, 92.430
924.859, 150.934
926.117, 43.393
927.375, 167.314
928.632, 50.891
929.890, 184.805
931.147, 108.688
932.404, 52.594
933.661, 166.496
934.918, 300.395
936.174, 55.715
937.430, 308.170
938.686, 32.053
939.942, 35.934
941.198, 229.816
942.453, 163.697
943.708, 12.420
944.963, 71.463
946.218, 105.346
947.472, 269.229
948.727, 273.115
949.981, 377.004
951.235, 400.125
952.488, 174.791
953.742, 388.686
954.995, 322.584
956.248, 246.486
957.501, 310.393
958.754, 494.303
960.006, 488.217
961.258, 452.137
962.510, 976.061
963.762, 889.990
965.014, 1023.924
966.265, 837.865
967.516, 881.811
968.767, 675.764
970.018, 409.725
971.269, 773.691
972.519, 627.668
973.769, 451.652
975.019, 725.646
976.269, 649.650
977.518, 603.664
978.767, 877.688
980.017, 811.723
981.265, 945.768
982.514, 1069.824
983.762, 793.893
985.011, 1457.971
986.259, 1291.797
987.507, 1595.898
988.754, 1939.926
990.002, 1874.055
991.249, 2468.199
992.496, 2772.355
993.743, 3146.152
994.989, 3990.240
996.236, 3944.438
997.482, 4608.141
998.728, 5182.047
999.974, 5896.203
1001.219, 7009.727
1002.464, 7941.797
1003.710, 8976.096
1004.954, 10069.906
1006.199, 10954.012
1007.444, 12004.547
1008.688, 12919.719
1009.932, 12954.484
1011.176, 13288.754
1012.420, 12495.977
1013.663, 11847.051
1014.906, 10835.078
1016.149, 9499.604
1017.392, 8402.898
1018.635, 7537.242
1019.877, 6441.891
1021.120, 5786.242
1022.362, 5170.027
1023.603, 4654.346
1024.845, 4432.992
1026.086, 4157.883
1027.328, 4092.742
1028.569, 4360.949
1029.809, 4265.512
1031.050, 4660.453
1032.290, 4915.910
1033.530, 5400.799
1034.770, 5705.844
1036.010, 6360.916
1037.250, 6965.553
1038.489, 7760.725
1039.728, 8105.867
1040.967, 9471.188
1042.206, 9756.539
1043.444, 10591.912
1044.683, 10917.338
1045.921, 10962.799
1047.159, 11318.293
1048.396, 11053.766
1049.634, 10859.195
1050.871, 10934.668
1052.108, 10890.176
1053.345, 11065.527
1054.582, 11480.826
1055.818, 11995.922
1057.054, 12940.943
1058.290, 12655.961
1059.526, 13590.979
1060.762, 13075.998
1061.997, 11861.012
1063.232, 10716.016
1064.467, 8991.004
1065.702, 7845.965
1066.937, 6020.793
1068.171, 5005.582
1069.405, 4319.875
1070.639, 3734.744
1071.873, 3059.875
1073.107, 2741.664
1074.340, 2306.529
1075.573, 2261.406
1076.806, 2166.033
1078.039, 1670.598
1079.272, 1725.094
1080.504, 1289.510
1081.736, 1384.006
1082.968, 1438.244
1084.200, 1271.959
1085.431, 1287.160
1086.663, 1252.383
1087.894, 1307.385
1089.125, 1202.660
1090.355, 1007.959
1091.586, 1103.285
1092.816, 996.596
1094.046, 1184.012
1095.276, 1049.418
1096.506, 1124.850
1097.735, 1350.312
1098.965, 1555.805
1100.194, 1621.324
1101.423, 1926.875
1102.651, 2012.455
1103.880, 2288.068
1105.108, 2973.711
1106.336, 3169.387
1107.564, 3085.092
1108.792, 3420.832
1110.019, 3226.605
1111.246, 3502.418
1112.473, 3768.264
1113.700, 3174.146
1114.927, 3320.072
1116.153, 3116.037
1117.380, 3152.184
1118.606, 3218.373
1119.831, 2614.703
1121.057, 2731.123
1122.283, 2577.576
1123.508, 2044.051
1124.733, 2250.584
1125.958, 1787.166
1127.182, 1873.682
1128.407, 1770.188
1129.631, 1626.648
1130.855, 1403.066
1132.079, 1079.508
1133.302, 1005.982
1134.526, 1262.492
1135.749, 649.035
1136.972, 1195.600
1138.195, 682.188
1139.417, 858.805
1140.640, 615.447
1141.862, 332.113
1143.084, 568.816
1144.305, 295.559
1145.527, 552.344
1146.748, 459.174
1147.970, 256.049
1149.191, 372.980
1150.411, 519.979
1151.632, 407.057
1152.852, 284.219
1154.072, 281.455
1155.292, 168.766
1156.512, 26.160
1157.732, 413.662
1158.951, 28.762
1160.170, 578.891
1161.389, 43.379
1162.608, 304.426
1163.826, 292.312
1165.045, 450.279
1166.263, 178.334
1167.481, 176.469
1168.699, 115.301
1169.916, 333.016
1171.134, 28.570
1172.351, 109.934
1173.568, 338.535
1174.784, 172.773
1176.001, 216.008
1177.217, 364.887
1178.433, 73.852
1179.649, 472.918
1180.865, 252.098
1182.081, 231.398
1183.296, 520.820
1184.511, 240.375
1185.726, 430.074
1186.941, 679.910
1188.155, 229.910
1189.370, 630.066
1190.584, 310.395
1191.798, 510.898
1193.011, 770.090
1194.225, 469.250
1195.438, 572.883
1196.651, 732.984
1197.864, 273.211
1199.077, 759.254
1200.290, 368.078
1201.502, 864.785
1202.714, 558.184
1203.926, 238.609
1205.138, 641.410
1206.349, 373.418
1207.561, 144.465
1208.772, 694.340
1209.983, 292.762
1211.194, 389.434
1212.404, 595.547
1213.614, 20.047
1214.825, 246.348
1216.034, 535.043
1217.244, 46.648
1218.454, 547.926
1219.663, 129.324
1220.872, 151.766
1222.081, 496.254
1223.290, 202.406
1224.498, 177.793
1225.707, 290.062
1226.915, 0.922
1228.123, 0.000
##END=



