##NAMES=Montebrasite
##RRUFFID=R060890
##IDEAL CHEMISTRY=LiAlPO_4_(OH)
##LOCALITY=Mount Marie, Paris, Maine, USA
##OWNER=RRUFF
##SOURCE=Bob Jenkins
##DESCRIPTION=Colorless massive
##STATUS=The identification of this mineral is confirmed by single-crystal X-ray diffraction and chemical analysis.
##URL=rruff.info/R060890
##MEASURED CHEMISTRY=Li_1.00_Al_1.00_(P_1.00_O_4_)(OH)_0.63_F_0.37_)_Î£=1_ ; Li not measured but estimated by stoichiometry
##PIN_ID=M01084
##ORIENTATION=Laser parallel to -a* (-1 0 0). Fiducial mark perpendicular to laser is parallel to b [0 1 0]
90.67800, 0.0000000E+00
91.91600, 97.84180
93.15500, 191.6777
94.39300, 98.25293
95.63100, 166.0566
96.86900, 143.9023
98.10600, 109.0801
99.34400, 103.2031
100.5810, 151.7676
101.8190, 47.63086
103.0560, 135.6201
104.2930, 116.1748
105.5290, 200.7588
106.7660, 319.3486
108.0020, 582.9648
109.2390, 324.5605
110.4750, 478.0000
111.7110, 659.1406
112.9460, 554.7822
114.1820, 938.7686
115.4170, 1060.985
116.6530, 1274.354
117.8880, 1477.813
119.1230, 1763.322
120.3580, 2157.963
121.5920, 2550.706
122.8270, 3267.682
124.0610, 3662.863
125.2950, 4078.562
126.5290, 4303.059
127.7630, 4741.690
128.9970, 5215.135
130.2300, 5309.104
131.4640, 5334.726
132.6970, 4998.028
133.9300, 4223.904
135.1630, 3638.390
136.3950, 2934.527
137.6280, 2410.348
138.8600, 1871.881
140.0920, 1568.155
141.3240, 1180.190
142.5560, 916.0078
143.7880, 763.6260
145.0190, 526.0605
146.2510, 523.3262
147.4820, 403.4346
148.7130, 457.0752
149.9440, 376.9316
151.1750, 246.3643
152.4050, 265.7227
153.6360, 208.9375
154.8660, 310.5703
156.0960, 299.3594
157.3260, 358.8525
158.5560, 244.1387
159.7850, 632.9873
161.0150, 484.0205
162.2440, 824.9980
163.4730, 819.4238
164.7020, 922.1045
165.9310, 1063.571
167.1590, 1012.695
168.3880, 1083.247
169.6160, 1113.243
170.8440, 1062.272
172.0720, 988.0801
173.3000, 893.0938
174.5280, 942.1768
175.7550, 782.3242
176.9820, 906.5342
178.2100, 701.8037
179.4370, 589.1318
180.6630, 426.5176
181.8900, 579.9561
183.1170, 473.4463
184.3430, 590.9834
185.5690, 624.5664
186.7950, 441.1914
188.0210, 496.8555
189.2470, 294.5586
190.4720, 270.2988
191.6970, 371.0732
192.9230, 281.8818
194.1480, 381.7217
195.3730, 376.5918
196.5970, 316.4844
197.8220, 426.3975
199.0460, 262.3301
200.2700, 316.2783
201.4940, 445.2393
202.7180, 278.2129
203.9420, 142.1953
205.1660, 40.18750
206.3890, 163.1895
207.6120, 53.20020
208.8350, 10.21973
210.0580, 82.74902
211.2810, 122.2920
212.5040, 163.3438
213.7260, 96.59180
214.9480, 35.51562
216.1700, 76.42871
217.3920, 45.67090
218.6140, 15.21582
219.8360, 20.09082
221.0570, 1.044922
222.2790, 49.19238
223.5000, 8.344727
224.7210, 107.5635
225.9410, 8.507813
227.1620, 30.49316
228.3820, 31.54590
229.6030, 31.61133
230.8230, 27.66797
232.0430, 66.78516
233.2630, 185.9004
234.4820, 88.95117
235.7020, 42.71191
236.9210, 11.44336
238.1400, 52.17578
239.3590, 63.17383
240.5780, 20.29980
241.7970, 18.52441
243.0150, 101.2754
244.2340, 158.1445
245.4520, 12.97754
246.6700, 200.2637
247.8880, 126.5596
249.1060, 48.11328
250.3230, 109.5244
251.5400, 80.03223
252.7580, 52.44531
253.9750, 80.94531
255.1920, 121.4805
256.4080, 103.0264
257.6250, 291.5811
258.8410, 202.1406
260.0580, 291.7021
261.2740, 367.2646
262.4900, 435.8643
263.7050, 540.4629
264.9210, 515.0605
266.1360, 860.6562
267.3520, 661.2480
268.5670, 958.8525
269.7820, 1194.443
270.9960, 1293.021
272.2110, 1305.593
273.4250, 1473.147
274.6400, 1642.680
275.8540, 1892.193
277.0680, 1865.684
278.2810, 2113.152
279.4950, 2557.602
280.7090, 2754.035
281.9220, 3105.452
283.1350, 3498.855
284.3480, 4046.271
285.5610, 4397.674
286.7730, 5238.066
287.9860, 6233.449
289.1980, 7475.828
290.4100, 8760.197
291.6220, 10345.56
292.8340, 12233.92
294.0460, 13767.27
295.2570, 15986.62
296.4690, 17853.95
297.6800, 20034.20
298.8910, 22194.38
300.1020, 24263.45
301.3120, 25084.50
302.5230, 24767.51
303.7330, 23957.53
304.9440, 22201.46
306.1540, 20087.37
307.3630, 18378.24
308.5730, 16995.97
309.7830, 15536.70
310.9920, 14102.45
312.2010, 12966.21
313.4100, 11590.91
314.6190, 10481.52
315.8280, 8738.152
317.0370, 8079.799
318.2450, 7262.416
319.4530, 6545.049
320.6610, 5714.697
321.8690, 5618.361
323.0770, 5048.041
324.2850, 4997.734
325.4920, 4761.445
326.6990, 4445.168
327.9060, 4344.904
329.1130, 3933.656
330.3200, 3675.424
331.5270, 3325.203
332.7330, 3191.994
333.9390, 2986.803
335.1450, 2973.621
336.3510, 2693.455
337.5570, 2391.303
338.7630, 2374.162
339.9680, 2202.035
341.1740, 2161.922
342.3790, 2181.820
343.5840, 1982.732
344.7890, 2087.654
345.9930, 2035.822
347.1980, 2106.752
348.4020, 2140.404
349.6060, 2138.799
350.8100, 1995.977
352.0140, 2035.447
353.2180, 2001.975
354.4210, 2201.000
355.6250, 2113.074
356.8280, 2258.127
358.0310, 2266.191
359.2340, 2442.582
360.4360, 2491.869
361.6390, 2500.650
362.8410, 2523.766
364.0430, 2467.510
365.2450, 2572.010
366.4470, 2608.895
367.6490, 2686.061
368.8510, 2617.488
370.0520, 2672.736
371.2530, 2805.293
372.4540, 2687.496
373.6550, 2503.705
374.8560, 2334.977
376.0560, 2488.559
377.2570, 2185.756
378.4570, 2062.543
379.6570, 1894.850
380.8570, 1946.174
382.0570, 1614.389
383.2560, 1534.740
384.4560, 1607.104
385.6550, 1191.477
386.8540, 1209.861
388.0530, 1255.180
389.2520, 1131.100
390.4510, 1129.816
391.6490, 1169.238
392.8470, 941.6699
394.0450, 864.2480
395.2430, 887.7051
396.4410, 970.3281
397.6390, 873.8008
398.8360, 898.0176
400.0340, 730.5039
401.2310, 615.0020
402.4280, 494.5039
403.6250, 715.0137
404.8210, 426.5293
406.0180, 457.5625
407.2140, 726.2441
408.4100, 498.7832
409.6060, 551.3281
410.8020, 632.8789
411.9980, 552.5938
413.1930, 407.1582
414.3890, 361.7305
415.5840, 437.1973
416.7790, 520.7871
417.9740, 304.3848
419.1680, 505.9883
420.3630, 667.6016
421.5570, 853.2227
422.7510, 862.8535
423.9450, 914.4922
425.1390, 1116.141
426.3330, 1213.801
427.5270, 1181.943
428.7200, 991.6172
429.9130, 797.3027
431.1060, 728.0469
432.2990, 696.7949
433.4920, 542.5742
434.6840, 338.3789
435.8770, 437.2012
437.0690, 413.0469
438.2610, 502.8984
439.4530, 322.7637
440.6450, 371.6367
441.8360, 510.5391
443.0280, 212.4883
444.2190, 328.4453
445.4100, 289.4160
446.6010, 165.4297
447.7920, 454.4551
448.9820, 484.4863
450.1730, 195.5273
451.3630, 243.5840
452.5530, 279.6621
453.7430, 140.8027
454.9330, 241.9492
456.1230, 286.1094
457.3120, 176.2773
458.5010, 231.4609
459.6910, 222.6484
460.8800, 176.8496
462.0680, 61.10742
463.2570, 216.3730
464.4460, 145.6699
465.6340, 247.9766
466.8220, 127.3145
468.0100, 245.6738
469.1980, 281.0410
470.3860, 435.4160
471.5730, 238.8047
472.7600, 332.2012
473.9480, 443.6074
475.1350, 279.0234
476.3210, 296.4492
477.5080, 375.8828
478.6950, 615.3418
479.8810, 453.8066
481.0670, 420.2793
482.2530, 577.7871
483.4390, 599.2988
484.6250, 564.8203
485.8100, 404.3535
486.9960, 701.8926
488.1810, 842.4375
489.3660, 753.9961
490.5510, 807.5605
491.7360, 763.1328
492.9200, 1063.711
494.1050, 802.3027
495.2890, 936.9004
496.4730, 864.5059
497.6570, 831.1230
498.8400, 1064.781
500.0240, 805.4453
501.2070, 847.1172
502.3910, 586.8320
503.5740, 654.5664
504.7570, 669.3398
505.9400, 349.1172
507.1220, 649.9141
508.3050, 397.7305
509.4870, 412.5586
510.6690, 299.3926
511.8510, 388.2383
513.0330, 417.1230
514.2140, 234.0176
515.3960, 269.9219
516.5770, 153.8418
517.7580, 155.7832
518.9390, 160.7422
520.1200, 56.72852
521.3010, 232.7734
522.4810, 147.8262
523.6610, 105.8828
524.8420, 108.9453
526.0220, 105.0117
527.2010, 145.0840
528.3810, 79.83984
529.5610, 112.7832
530.7400, 84.25391
531.9190, 60.66016
533.0980, 17.41406
534.2770, 25.48828
535.4560, 130.4297
536.6340, 302.5879
537.8120, 136.3867
538.9910, 15.59766
540.1690, 74.41211
541.3460, 63.54492
542.5240, 83.50391
543.7020, 62.46875
544.8790, 43.43555
546.0560, 85.40430
547.2330, 147.6230
548.4100, 5.722656
549.5870, 59.17969
550.7630, 110.0820
551.9400, 121.9883
553.1160, 76.10352
554.2920, 218.7676
555.4680, 43.64453
556.6440, 54.40430
557.8190, 95.44727
558.9950, 53.29883
560.1700, 43.15430
561.3450, 79.01172
562.5200, 104.8672
563.6950, 125.7266
564.8690, 35.58594
566.0440, 23.50000
567.2180, 66.88086
568.3920, 91.25391
569.5660, 273.5625
570.7400, 84.21875
571.9130, 105.6641
573.0870, 115.4805
574.2600, 97.74414
575.4330, 303.1562
576.6060, 246.9297
577.7790, 116.9453
578.9520, 191.7578
580.1240, 110.7344
581.2960, 205.5430
582.4690, 103.2930
583.6410, 507.7754
584.8120, 232.9629
585.9840, 497.0410
587.1560, 378.8027
588.3270, 494.0430
589.4980, 456.8340
590.6690, 643.6211
591.8400, 562.3359
593.0110, 890.7520
594.1810, 1117.307
595.3510, 1290.076
596.5220, 1365.842
597.6920, 1618.602
598.8610, 1854.355
600.0310, 1871.104
601.2010, 2118.354
602.3700, 2310.498
603.5390, 2034.232
604.7080, 1864.246
605.8770, 1746.986
607.0460, 1527.092
608.2140, 1316.178
609.3830, 1325.992
610.5510, 1382.701
611.7190, 1318.422
612.8870, 1334.205
614.0550, 1361.916
615.2220, 1238.619
616.3900, 1525.340
617.5570, 1822.051
618.7240, 1978.572
619.8910, 2008.270
621.0580, 2230.965
622.2240, 2469.500
623.3910, 2655.189
624.5570, 3196.867
625.7230, 3632.553
626.8890, 3979.227
628.0550, 4276.893
629.2200, 4868.551
630.3860, 5323.197
631.5510, 5569.840
632.7160, 6116.473
633.8810, 6498.092
635.0460, 6974.703
636.2100, 7692.316
637.3750, 8380.918
638.5390, 10027.50
639.7030, 10987.09
640.8670, 13205.66
642.0310, 14810.22
643.1950, 16736.77
644.3580, 18678.31
645.5210, 19772.84
646.6850, 19141.36
647.8480, 17212.87
649.0100, 14547.37
650.1730, 11836.86
651.3350, 9532.332
652.4980, 7441.801
653.6600, 6066.254
654.8220, 4871.693
655.9840, 3988.123
657.1450, 3346.543
658.3070, 2810.947
659.4680, 2347.342
660.6300, 2157.723
661.7910, 1897.092
662.9510, 1602.451
664.1120, 1516.797
665.2730, 1266.133
666.4330, 1169.453
667.5930, 1004.760
668.7530, 940.2930
669.9130, 766.7188
671.0730, 841.9863
672.2320, 649.5918
673.3920, 457.8379
674.5510, 537.0664
675.7100, 582.1543
676.8690, 552.3594
678.0280, 434.9863
679.1860, 554.1660
680.3450, 475.5977
681.5030, 409.7539
682.6610, 469.8965
683.8190, 406.0312
684.9770, 262.1484
686.1340, 272.2578
687.2920, 285.8457
688.4490, 164.7773
689.6060, 164.8496
690.7630, 150.9082
691.9200, 192.9570
693.0760, 165.8398
694.2330, 309.8633
695.3890, 35.87891
696.5450, 116.9902
697.7010, 134.9688
698.8570, 143.9395
700.0130, 135.8984
701.1680, 36.84375
702.3230, 192.7695
703.4780, 228.6836
704.6330, 35.58594
705.7880, 54.46680
706.9430, 330.3320
708.0970, 139.7109
709.2520, 38.55273
710.4060, 143.6250
711.5600, 106.0859
712.7140, 29.21484
713.8670, 31.56445
715.0210, 11.03320
716.1740, 9.398438
717.3270, 132.1289
718.4800, 28.64453
719.6330, 132.1387
720.7860, 37.37695
721.9380, 96.94922
723.0910, 55.39453
724.2430, 61.72070
725.3950, 85.96680
726.5470, 51.26562
727.6980, 107.4824
728.8500, 98.68945
730.0010, 32.88477
731.1530, 1.937500
732.3040, 147.7969
733.4550, 247.2324
734.6050, 235.2520
735.7560, 174.2598
736.9060, 203.2578
738.0560, 194.2461
739.2060, 44.22461
740.3560, 127.2109
741.5060, 133.6543
742.6560, 27.83398
743.8050, 132.9707
744.9540, 30.23438
746.1030, 1.511719
747.2520, 70.22656
748.4010, 149.9277
749.5500, 105.3652
750.6980, 76.74414
751.8460, 204.4160
752.9950, 201.0801
754.1420, 124.2520
755.2900, 280.8945
756.4380, 2.470703
757.5850, 91.12891
758.7330, 192.7441
759.8800, 34.60352
761.0270, 312.8438
762.1730, 311.3613
763.3200, 204.1367
764.4670, 305.6367
765.6130, 251.1270
766.7590, 166.7812
767.9050, 365.2520
769.0510, 206.2734
770.1960, 190.7285
771.3420, 307.1758
772.4870, 367.6133
773.6320, 335.0254
774.7770, 286.4473
775.9220, 124.8613
777.0670, 190.2695
778.2110, 396.6699
779.3560, 107.0605
780.5000, 378.4473
781.6440, 453.5273
782.7880, 289.0801
783.9320, 708.4434
785.0750, 495.8027
786.2180, 780.1562
787.3620, 659.8496
788.5050, 814.1895
789.6480, 955.5254
790.7900, 1229.855
791.9330, 1071.193
793.0750, 1350.512
794.2170, 1351.824
795.3590, 1357.133
796.5010, 1748.436
797.6430, 1857.734
798.7850, 1738.029
799.9260, 2129.080
801.0670, 2004.367
802.2080, 2200.646
803.3490, 2332.926
804.4900, 2222.201
805.6310, 2243.471
806.7710, 2433.754
807.9110, 2309.062
809.0510, 2292.367
810.1910, 2141.680
811.3310, 2093.992
812.4710, 2264.301
813.6100, 2159.639
814.7490, 2139.975
815.8880, 1932.342
817.0270, 1821.705
818.1660, 1664.086
819.3050, 1857.465
820.4430, 1844.844
821.5820, 1681.217
822.7200, 1605.592
823.8580, 1492.965
824.9950, 1496.375
826.1330, 1215.785
827.2710, 1143.195
828.4080, 875.6055
829.5450, 908.0137
830.6820, 1104.441
831.8190, 742.8691
832.9560, 1041.221
834.0920, 599.6641
835.2280, 700.1074
836.3650, 559.5488
837.5010, 422.9922
838.6360, 389.4434
839.7720, 514.8887
840.9080, 438.3340
842.0430, 463.7344
843.1780, 340.6641
844.3130, 353.1172
845.4480, 194.5977
846.5830, 423.2422
847.7170, 372.1016
848.8520, 239.5879
849.9860, 137.6328
851.1200, 221.5332
852.2540, 472.0703
853.3870, 347.3750
854.5210, 329.8828
855.6540, 202.2324
856.7880, 236.7520
857.9210, 132.3340
859.0540, 362.1855
860.1860, 466.3398
861.3190, 353.6074
862.4510, 366.1914
863.5840, 246.3047
864.7160, 412.8691
865.8480, 346.4434
866.9790, 209.0938
868.1110, 371.0430
869.2420, 127.8613
870.3740, 115.4688
871.5050, 144.0859
872.6360, 98.71094
873.7660, 188.3457
874.8970, 296.9922
876.0280, 15.85938
877.1580, 261.3945
878.2880, 83.93359
879.4180, 216.4453
880.5480, 69.10547
881.6770, 106.4004
882.8070, 145.7227
883.9360, 178.3223
885.0650, 90.96875
886.1940, 49.28320
887.3230, 105.3340
888.4520, 247.0293
889.5800, 125.2578
890.7090, 109.4160
891.8370, 186.1270
892.9650, 139.0352
894.0930, 59.22461
895.2200, 2.468750
896.3480, 58.54102
897.4750, 37.22852
898.6020, 87.98828
899.7290, 45.77930
900.8560, 129.5645
901.9830, 8.625000
903.1090, 23.19727
904.2360, 23.94141
905.3620, 71.96680
906.4880, 137.8887
907.6140, 94.83594
908.7400, 63.20312
909.8650, 149.7871
910.9900, 43.79297
912.1160, 50.85156
913.2410, 123.9453
914.3660, 8.058594
915.4900, 47.20508
916.6150, 30.62891
917.7390, 10.43164
918.8640, 57.78320
919.9880, 42.01172
921.1120, 183.2617
922.2350, 18.46680
923.3590, 66.82031
924.4820, 273.1328
925.6060, 131.4805
926.7290, 1.859375
927.8520, 72.25391
928.9740, 52.67188
930.0970, 154.1035
931.2190, 273.5742
932.3420, 31.06250
933.4640, 140.5684
934.5860, 34.87305
935.7080, 128.6953
936.8290, 177.2852
937.9510, 88.89258
939.0720, 161.5195
940.1930, 102.1660
941.3140, 226.8340
942.4350, 129.5215
943.5560, 174.2285
944.6760, 390.9570
945.7960, 225.7031
946.9170, 233.4727
948.0370, 126.2793
949.1560, 101.1074
950.2760, 413.9570
951.3960, 224.8223
952.5150, 270.7109
953.6340, 348.6172
954.7530, 302.5488
955.8720, 474.4980
956.9910, 430.4688
958.1090, 602.4668
959.2280, 534.4844
960.3460, 472.5234
961.4640, 645.5820
962.5820, 635.6641
963.6990, 553.7637
964.8170, 831.8867
965.9340, 731.0273
967.0510, 971.1934
968.1690, 604.3828
969.2850, 1124.594
970.4020, 864.8262
971.5190, 925.0801
972.6350, 940.3555
973.7510, 983.6602
974.8670, 1126.986
975.9830, 1145.332
977.0990, 1265.707
978.2150, 1340.105
979.3300, 1595.525
980.4450, 1603.969
981.5600, 1622.438
982.6750, 2409.977
983.7900, 2409.539
984.9050, 2783.141
986.0190, 2919.789
987.1340, 3438.467
988.2480, 3897.182
989.3620, 4181.920
990.4750, 4917.684
991.5890, 5635.469
992.7020, 6724.301
993.8160, 7604.193
994.9290, 8520.107
996.0420, 9992.049
997.1550, 11203.05
998.2670, 12745.07
999.3800, 14578.11
1000.492, 15978.18
1001.604, 18050.27
1002.716, 20223.40
1003.828, 21946.60
1004.940, 24011.82
1006.051, 25338.07
1007.163, 26553.34
1008.274, 28323.63
1009.385, 28570.95
1010.496, 28776.69
1011.606, 28017.09
1012.717, 26866.87
1013.827, 25442.34
1014.937, 23318.84
1016.047, 21628.38
1017.157, 19502.95
1018.267, 16997.55
1019.377, 15484.42
1020.486, 13695.37
1021.595, 12252.04
1022.704, 11023.73
1023.813, 9723.922
1024.922, 8914.340
1026.030, 8076.102
1027.139, 7415.898
1028.247, 7038.119
1029.355, 6799.891
1030.463, 6409.861
1031.571, 6500.773
1032.678, 6623.441
1033.786, 6831.400
1034.893, 7168.523
1036.000, 8047.359
1037.107, 7528.252
1038.214, 8030.627
1039.321, 8629.699
1040.427, 8527.762
1041.533, 8969.883
1042.639, 9509.941
1043.745, 9696.102
1044.851, 10352.78
1045.957, 10846.81
1047.062, 11075.29
1048.168, 11723.26
1049.273, 12043.54
1050.378, 12872.50
1051.482, 13362.63
1052.587, 14328.97
1053.692, 15333.32
1054.796, 16762.76
1055.900, 18370.80
1057.004, 19740.29
1058.108, 21368.58
1059.212, 22827.99
1060.315, 23743.45
1061.418, 24605.02
1062.522, 24406.53
1063.625, 23523.97
1064.728, 21733.52
1065.830, 19061.08
1066.933, 17004.86
1068.035, 14080.70
1069.137, 11514.32
1070.239, 9820.967
1071.341, 7945.627
1072.443, 6958.307
1073.545, 6007.002
1074.646, 4981.717
1075.747, 4163.449
1076.848, 3848.201
1077.949, 3341.971
1079.050, 2626.756
1080.150, 2509.209
1081.251, 2306.031
1082.351, 2019.871
1083.451, 1929.727
1084.551, 1770.605
1085.651, 1565.498
1086.750, 1457.412
1087.850, 1171.342
1088.949, 860.8262
1090.048, 887.2734
1091.147, 874.8926
1092.246, 827.2383
1093.345, 638.6602
1094.443, 632.1484
1095.541, 552.7051
1096.639, 886.9355
1097.737, 718.0137
1098.835, 656.1074
1099.933, 793.2168
1101.030, 756.3418
1102.128, 572.4824
1103.225, 589.6484
1104.322, 704.8281
1105.419, 851.6504
1106.515, 937.8633
1107.612, 763.0977
1108.708, 1161.346
1109.804, 999.6094
1110.900, 951.8887
1111.996, 1175.182
1113.092, 964.4902
1114.187, 1045.814
1115.283, 1192.152
1116.378, 1097.504
1117.473, 1074.871
1118.568, 1220.402
1119.662, 1157.797
1120.757, 1080.203
1121.851, 1196.627
1122.946, 1167.062
1124.040, 1092.512
1125.134, 1217.973
1126.227, 904.4473
1127.321, 913.9355
1128.414, 1006.436
1129.508, 1042.949
1130.601, 853.4766
1131.693, 795.0117
1132.786, 717.5645
1133.879, 633.1250
1134.971, 600.6973
1136.064, 646.2969
1137.156, 309.9375
1138.248, 623.5898
1139.339, 510.2559
1140.431, 262.9336
1141.522, 223.6191
1142.614, 140.3340
1143.705, 312.0605
1144.796, 91.81641
1145.887, 110.5801
1146.977, 329.3555
1148.068, 282.1426
1149.158, 177.9355
1150.248, 182.7402
1151.338, 151.5723
1152.428, 55.42188
1153.518, 240.2852
1154.607, 73.18164
1155.696, 95.88672
1156.785, 73.00000
1157.874, 36.90039
1158.963, 90.19531
1160.052, 43.68359
1161.141, 196.5684
1162.229, 115.4727
1163.317, 346.3848
1164.405, 142.3223
1165.493, 30.72852
1166.581, 164.2344
1167.668, 76.79297
1168.756, 144.8574
1169.843, 99.01172
1170.930, 7.111328
1172.017, 108.7637
1173.103, 109.3555
1174.190, 123.4844
1175.276, 118.6699
1176.363, 72.88477
1177.449, 8.867188
1178.535, 53.38086
1179.620, 135.3457
1180.706, 80.91992
1181.791, 160.7754
1182.877, 63.47852
1183.962, 32.18945
1185.047, 5.093750
1186.131, 180.6172
1187.216, 22.66406
1188.300, 35.95898
1189.385, 37.27344
1190.469, 145.3906
1191.553, 20.06250
1192.637, 60.73633
1193.720, 52.58398
1194.804, 218.0684
1195.887, 406.7246
1196.970, 107.6113
1198.053, 185.9922
1199.136, 346.6094
1200.219, 197.2285
1201.301, 73.85547
1202.383, 295.4883
1203.465, 162.1270
1204.547, 158.7695
1205.629, 108.4180
1206.711, 190.0703
1207.792, 168.7285
1208.874, 195.3887
1209.955, 61.94336
1211.036, 180.6875
1212.117, 179.3242
1213.198, 93.96289
1214.278, 73.24219
1215.359, 227.8906
1216.439, 285.5430
1217.519, 80.20117
1218.599, 128.8652
1219.678, 7.466797
1220.758, 81.18750
1221.837, 255.8457
1222.917, 129.5078
1223.996, 53.17773
1225.075, 186.8457
1226.153, 229.5215
1227.232, 316.1992
1228.310, 324.8828
1229.389, 190.5664
1230.467, 259.2578
1231.545, 295.9512
1232.622, 233.2891
1233.700, 220.9883
1234.777, 12.69141
1235.855, 121.3887
1236.932, 70.30859
1238.009, 271.0117
1239.086, 75.71875
1240.162, 204.4277
1241.239, 252.1406
1242.315, 339.8555
1243.391, 265.5723
1244.467, 286.2910
1245.543, 345.0137
1246.619, 178.7344
1247.694, 32.46289
1248.769, 108.1875
1249.844, 181.9160
1250.919, 225.6426
1251.994, 148.3750
1253.069, 174.1074
1254.144, 89.84180
1255.218, 368.5781
1256.292, 110.3145
1257.366, 88.05273
1258.440, 273.7930
1259.514, 186.5352
1260.587, 137.2773
1261.661, 289.0234
1262.734, 50.76758
1263.807, 79.51562
1264.880, 237.9355
1265.952, 411.1934
1267.025, 207.9434
1268.097, 351.6934
1269.170, 414.4453
1270.242, 161.1992
