##NAMES=Monticellite
##RRUFFID=R040115
##IDEAL CHEMISTRY=CaMgSiO_4_
##LOCALITY=Magnet Cove, Arkansas, USA
##OWNER=RRUFF
##SOURCE=University of Arizona Mineral Museum
##DESCRIPTION=Brown blebs in matrix
##STATUS=The identification of this mineral has been confirmed by X-ray diffraction and chemical analysis
##URL=rruff.info/R040115
##MEASURED CHEMISTRY=Ca_0.99_(Mg_0.85_ Fe_0.12_Mn_0.03_)Si_1.00_O_4_
##PIN_ID=M00492
##ORIENTATION=Laser parallel to b* (0 1 0). Fiducial mark perpendicular to laser is parallel to -c [0 0 -1]
101.036, 0.000
102.428, 1.074
103.820, 69.935
105.212, 111.000
106.604, 127.454
107.995, 154.752
109.387, 150.765
110.777, 142.698
112.168, 127.019
113.559, 149.531
114.949, 145.895
116.339, 258.150
117.729, 344.438
119.119, 299.946
120.508, 199.869
121.897, 86.665
123.286, 223.842
124.675, 177.590
126.063, 191.569
127.452, 212.090
128.840, 174.219
130.228, 197.766
131.615, 257.240
133.003, 336.637
134.390, 394.917
135.777, 614.098
137.164, 788.179
138.550, 940.157
139.937, 810.744
141.323, 636.084
142.709, 364.927
144.094, 244.356
145.480, 144.053
146.865, 38.854
148.250, 68.926
149.635, 4.350
151.019, 18.422
152.403, 37.871
153.788, 8.360
155.171, 14.150
156.555, 65.955
157.939, 84.015
159.322, 143.368
160.705, 199.230
162.088, 291.151
163.470, 439.375
164.853, 534.323
166.235, 708.351
167.617, 896.437
168.998, 1085.500
170.380, 1120.513
171.761, 1007.442
173.142, 654.267
174.523, 438.989
175.904, 226.610
177.284, 118.134
178.664, 20.565
180.044, 20.905
181.424, 12.158
182.803, 9.326
184.183, 4.431
185.562, 28.478
186.940, 10.604
188.319, 1.324
189.698, 35.736
191.076, 33.783
192.454, 9.851
193.831, 101.970
195.209, 94.767
196.586, 123.942
197.963, 109.613
199.340, 92.483
200.717, 196.342
202.093, 223.190
203.470, 176.023
204.846, 194.838
206.221, 299.631
207.597, 364.084
208.972, 355.611
210.347, 143.338
211.722, 20.967
213.097, 18.827
214.472, 47.887
215.846, 20.967
217.220, 24.934
218.594, 12.871
219.967, 51.605
221.341, 50.339
222.714, 66.361
224.087, 107.288
225.460, 127.895
226.832, 151.270
228.204, 193.834
229.577, 252.089
230.948, 264.922
232.320, 329.859
233.692, 387.826
235.063, 489.147
236.434, 547.803
237.805, 661.433
239.175, 698.921
240.545, 756.602
241.916, 936.357
243.286, 966.516
244.655, 1052.645
246.025, 1218.747
247.394, 1396.825
248.763, 1811.879
250.132, 2400.906
251.501, 3366.909
252.869, 4485.886
254.237, 5946.835
255.605, 6858.760
256.973, 6870.657
258.340, 5796.529
259.708, 4308.372
261.075, 3049.191
262.442, 2235.984
263.808, 1747.750
265.175, 1331.489
266.541, 1101.568
267.907, 912.165
269.273, 738.038
270.639, 686.907
272.004, 508.760
273.369, 521.587
274.734, 463.380
276.099, 421.137
277.463, 241.857
278.828, 201.534
280.192, 191.157
281.556, 86.728
282.919, 121.250
284.283, 67.793
285.646, 129.402
287.009, 37.012
288.372, 90.651
289.734, 68.242
291.097, 111.787
292.459, 90.082
293.821, 155.305
295.183, 177.478
296.544, 237.050
297.905, 255.629
299.266, 434.207
300.627, 605.767
301.988, 838.118
303.348, 982.569
304.709, 1065.696
306.069, 979.740
307.428, 733.095
308.788, 468.999
310.147, 283.999
311.507, 232.783
312.865, 76.484
314.224, 100.885
315.583, 25.964
316.941, 49.511
318.299, 45.574
319.657, 56.865
321.015, 2.005
322.372, 4.046
323.729, 57.061
325.086, 108.822
326.443, 123.657
327.800, 85.420
329.156, 140.745
330.512, 70.515
331.868, 33.348
333.224, 158.171
334.579, 83.626
335.935, 50.127
337.290, 63.474
338.645, 37.720
339.999, 6.226
341.354, 78.411
342.708, 16.646
344.062, 21.028
345.416, 9.284
346.769, 1.765
348.123, 4.511
349.476, 12.761
350.829, 10.443
352.182, 19.369
353.534, 7.916
354.887, 19.503
356.239, 16.658
357.591, 63.281
358.942, 2.858
360.294, 18.483
361.645, 30.936
362.996, 4.537
364.347, 31.096
365.698, 34.627
367.048, 31.132
368.398, 17.624
369.748, 23.086
371.098, 52.519
372.448, 74.917
373.797, 87.233
375.146, 55.854
376.495, 142.408
377.844, 143.204
379.192, 73.730
380.540, 271.273
381.889, 219.635
383.236, 313.341
384.584, 383.001
385.932, 517.682
387.279, 562.797
388.626, 603.331
389.973, 726.213
391.319, 773.053
392.666, 954.855
394.012, 1169.627
395.358, 1359.356
396.704, 1828.056
398.049, 2077.728
399.394, 2453.376
400.740, 2771.999
402.084, 3364.596
403.429, 3860.170
404.774, 4357.723
406.118, 5173.257
407.462, 5724.771
408.806, 6099.265
410.150, 6185.739
411.493, 5595.193
412.836, 4763.628
414.179, 3840.043
415.522, 2955.439
416.865, 2430.814
418.207, 1824.171
419.549, 1318.508
420.891, 1128.824
422.233, 960.122
423.575, 803.400
424.916, 627.659
426.257, 578.897
427.598, 473.117
428.939, 457.307
430.279, 393.471
431.619, 333.605
432.959, 260.711
434.299, 251.788
435.639, 278.836
436.978, 249.855
438.318, 281.846
439.657, 259.843
440.996, 241.742
442.334, 189.647
443.673, 189.166
445.011, 165.921
446.349, 139.174
447.687, 128.777
449.024, 110.473
450.361, 109.224
451.699, 92.474
453.036, 117.875
454.372, 125.154
455.709, 129.675
457.045, 44.452
458.381, 40.212
459.717, 36.735
461.053, 35.226
462.388, 56.683
463.724, 41.125
465.059, 90.672
466.394, 100.301
467.728, 37.639
469.063, 105.107
470.397, 72.433
471.731, 66.944
473.065, 110.177
474.398, 27.814
475.732, 95.055
477.065, 14.463
478.398, 44.302
479.731, 49.421
481.063, 23.173
482.396, 26.243
483.728, 29.721
485.060, 52.152
486.391, 39.002
487.723, 43.863
489.054, 9.447
490.385, 40.118
491.716, 33.107
493.047, 31.353
494.377, 81.463
495.708, 64.349
497.038, 101.616
498.368, 118.948
499.697, 60.757
501.027, 123.193
502.356, 82.322
503.685, 139.389
505.014, 110.002
506.342, 139.189
507.671, 193.041
508.999, 99.275
510.327, 169.964
511.655, 175.750
512.982, 188.597
514.310, 237.295
515.637, 214.069
516.964, 306.527
518.291, 325.092
519.617, 378.193
520.944, 429.148
522.270, 557.836
523.596, 764.603
524.921, 1021.669
526.247, 1241.470
527.572, 1760.898
528.897, 2217.022
530.222, 2770.197
531.547, 2965.636
532.871, 2873.198
534.196, 2374.580
535.520, 1884.982
536.844, 1451.761
538.167, 1111.520
539.491, 881.967
540.814, 709.873
542.137, 622.757
543.460, 576.620
544.783, 521.461
546.105, 433.282
547.427, 490.080
548.749, 424.856
550.071, 351.609
551.393, 467.208
552.714, 499.917
554.035, 430.604
555.356, 498.625
556.677, 517.269
557.998, 501.150
559.318, 612.750
560.638, 680.328
561.958, 690.885
563.278, 728.419
564.597, 829.933
565.917, 945.426
567.236, 1024.897
568.555, 1154.347
569.874, 1220.776
571.192, 1416.184
572.511, 1566.572
573.829, 1587.938
575.147, 1695.284
576.464, 1804.609
577.782, 1983.914
579.099, 2218.198
580.416, 2316.462
581.733, 2596.705
583.050, 2863.928
584.366, 2875.131
585.683, 3132.314
586.999, 2871.478
588.315, 2833.620
589.630, 2620.744
590.946, 2291.848
592.261, 1951.932
593.576, 1676.997
594.891, 1403.528
596.206, 1147.708
597.520, 956.078
598.834, 734.067
600.148, 602.037
601.462, 507.988
602.776, 438.924
604.089, 369.776
605.402, 282.501
606.715, 246.167
608.028, 247.743
609.341, 215.299
610.653, 138.771
611.965, 177.333
613.277, 155.912
614.589, 63.495
615.901, 58.631
617.212, 108.717
618.523, 117.758
619.834, 132.774
621.145, 98.956
622.456, 64.993
623.766, 37.304
625.076, 109.639
626.386, 58.604
627.696, 84.430
629.006, 32.107
630.315, 90.245
631.624, 6.550
632.933, 18.673
634.242, 62.507
635.551, 16.007
636.859, 25.883
638.167, 71.154
639.475, 2.500
640.783, 24.830
642.090, 78.831
643.398, 27.697
644.705, 37.441
646.012, 33.784
647.318, 95.378
648.625, 10.943
649.931, 18.624
651.237, 24.837
652.543, 5.021
653.849, 53.208
655.155, 22.661
656.460, 33.406
657.765, 62.217
659.070, 35.875
660.375, 20.181
661.679, 91.735
662.984, 48.474
664.288, 20.601
665.592, 48.408
666.895, 29.908
668.199, 61.950
669.502, 9.016
670.805, 12.082
672.108, 29.838
673.411, 15.761
674.713, 70.322
676.016, 14.545
677.318, 37.591
678.620, 8.753
679.921, 56.917
681.223, 10.882
682.524, 25.688
683.825, 47.510
685.126, 44.260
686.427, 52.038
687.727, 28.812
689.028, 56.584
690.328, 12.649
691.628, 14.213
692.927, 71.855
694.227, 42.600
695.526, 98.645
696.825, 144.075
698.124, 119.806
699.423, 124.530
700.721, 108.249
702.020, 84.007
703.318, 133.672
704.616, 23.376
705.913, 26.075
707.211, 20.229
708.508, 115.452
709.805, 107.130
711.102, 11.196
712.399, 120.469
713.695, 29.869
714.992, 79.777
716.288, 81.419
717.584, 110.059
718.879, 45.695
720.175, 17.329
721.470, 111.960
722.765, 201.588
724.060, 116.215
725.355, 149.838
726.649, 159.461
727.944, 147.081
729.238, 252.699
730.532, 251.687
731.825, 170.932
733.119, 291.546
734.412, 171.160
735.705, 105.773
736.998, 197.385
738.291, 182.997
739.584, 228.608
740.876, 168.220
742.168, 238.832
743.460, 167.443
744.752, 95.055
746.043, 212.667
747.334, 296.280
748.626, 204.895
749.916, 125.510
751.207, 226.126
752.498, 235.745
753.788, 309.365
755.078, 224.986
756.368, 338.609
757.658, 299.235
758.947, 211.862
760.237, 362.492
761.526, 265.125
762.815, 444.761
764.104, 315.401
765.392, 381.046
766.680, 418.695
767.969, 375.358
769.257, 510.031
770.544, 454.522
771.832, 539.006
773.119, 523.703
774.406, 621.406
775.693, 621.117
776.980, 660.485
778.267, 605.392
779.553, 724.860
780.839, 742.596
782.125, 769.178
783.411, 895.880
784.697, 754.376
785.982, 879.129
787.267, 966.010
788.552, 1086.371
789.837, 1157.114
791.122, 1260.324
792.406, 1301.195
793.690, 1456.388
794.974, 1552.923
796.258, 1674.101
797.542, 2110.953
798.825, 2159.618
800.108, 2713.373
801.391, 2873.172
802.674, 3558.117
803.957, 4002.441
805.239, 4759.208
806.522, 5875.756
807.804, 7042.197
809.085, 9321.042
810.367, 11993.914
811.649, 15453.079
812.930, 20410.145
814.211, 26500.230
815.492, 32192.346
816.772, 36595.441
818.053, 37575.867
819.333, 34994.074
820.613, 29568.207
821.893, 24031.922
823.173, 18860.666
824.452, 14940.777
825.732, 12391.743
827.011, 9999.889
828.290, 8832.992
829.568, 7661.437
830.847, 6812.577
832.125, 6310.303
833.403, 5903.987
834.681, 5950.519
835.959, 5918.446
837.236, 6277.738
838.514, 6845.957
839.791, 8241.820
841.068, 10127.210
842.345, 12627.859
843.621, 17210.299
844.898, 22599.963
846.174, 30213.424
847.450, 39001.906
848.726, 45179.410
850.001, 48455.906
851.277, 44522.430
852.552, 36060.977
853.827, 27750.525
855.102, 20442.102
856.376, 15192.689
857.651, 11897.291
858.925, 9384.911
860.199, 7340.545
861.473, 5868.325
862.746, 4993.988
864.020, 4344.664
865.293, 3516.000
866.566, 3158.707
867.839, 2678.170
869.112, 2499.908
870.384, 2170.663
871.656, 2027.432
872.928, 1735.217
874.200, 1789.017
875.472, 1771.832
876.744, 1654.664
878.015, 1784.513
879.286, 1852.375
880.557, 1748.255
881.828, 1651.150
883.098, 1380.070
884.369, 1098.007
885.639, 951.960
886.909, 732.929
888.178, 744.913
889.448, 672.914
890.717, 775.932
891.987, 636.964
893.256, 650.014
894.524, 704.080
895.793, 640.162
897.061, 820.261
898.330, 765.376
899.598, 711.509
900.865, 624.656
902.133, 678.821
903.401, 411.115
904.668, 375.312
905.935, 471.527
907.202, 211.758
908.468, 335.006
909.735, 361.269
911.001, 354.550
912.267, 251.848
913.533, 205.161
914.799, 260.492
916.064, 146.840
917.330, 330.203
918.595, 243.584
919.860, 81.178
921.124, 228.452
922.389, 350.442
923.653, 261.890
924.918, 254.354
926.182, 333.837
927.445, 244.334
928.709, 426.849
929.972, 327.388
931.236, 466.944
932.499, 531.519
933.761, 646.109
935.024, 535.718
936.286, 900.343
937.549, 1315.985
938.811, 1478.660
940.073, 2104.355
941.334, 2973.078
942.596, 4499.816
943.857, 6786.583
945.118, 9380.366
946.379, 11102.192
947.640, 11980.236
948.900, 10632.110
950.161, 7969.324
951.421, 5702.711
952.681, 4263.971
953.940, 3049.927
955.200, 2168.183
956.459, 1577.215
957.719, 1460.336
958.978, 1066.409
960.236, 1024.050
961.495, 712.173
962.753, 664.312
964.012, 610.478
965.270, 362.661
966.527, 370.888
967.785, 386.138
969.043, 363.436
970.300, 332.766
971.557, 79.118
972.814, 138.488
974.071, 61.890
975.327, 116.325
976.583, 66.778
977.840, 168.252
979.095, 74.745
980.351, 135.252
981.607, 59.155
982.862, 20.873
984.117, 11.294
985.372, 227.301
986.627, 90.069
987.882, 93.564
989.136, 63.213
990.390, 85.111
991.644, 95.768
992.898, 16.554
994.152, 125.804
995.405, 97.503
996.659, 46.219
997.912, 130.946
999.165, 183.685
1000.417, 110.435
1001.670, 33.195
1002.922, 296.969
1004.174, 137.751
1005.426, 188.871
1006.678, 81.677
1007.930, 102.493
1009.181, 114.320
1010.432, 123.157
1011.683, 139.006
1012.934, 137.470
1014.185, 109.739
1015.435, 109.623
1016.685, 97.519
1017.935, 28.423
1019.185, 102.345
1020.435, 139.274
1021.684, 77.215
1022.934, 152.164
1024.183, 230.123
1025.432, 83.092
1026.680, 228.068
1027.929, 159.055
1029.177, 104.051
1030.425, 99.056
1031.673, 236.069
1032.921, 154.191
1034.169, 82.222
1035.416, 57.261
1036.663, 250.309
1037.911, 58.364
1039.157, 200.428
1040.404, 153.499
1041.650, 142.579
1042.897, 340.665
1044.143, 90.771
1045.389, 124.882
1046.634, 165.002
1047.880, 112.128
1049.125, 13.263
1050.371, 48.403
1051.615, 157.552
1052.860, 4.293
1054.105, 101.867
1055.349, 99.033
1056.593, 90.207
1057.837, 8.387
1059.081, 161.571
1060.325, 38.765
1061.568, 113.963
1062.812, 26.166
1064.055, 93.376
1065.298, 92.592
1066.540, 76.814
1067.783, 23.041
1069.025, 50.727
1070.267, 22.712
1071.509, 37.295
1072.751, 11.910
1073.993, 43.120
1075.234, 57.335
1076.475, 29.555
1077.716, 83.778
1078.957, 104.018
1080.198, 88.251
1081.438, 138.488
1082.679, 80.729
1083.919, 115.160
1085.159, 181.409
1086.398, 145.664
1087.638, 97.558
1088.877, 79.819
1090.116, 21.084
1091.355, 123.353
1092.594, 37.685
1093.833, 27.956
1095.071, 62.417
1096.309, 40.305
1097.547, 128.957
1098.785, 41.780
1100.023, 124.537
1101.260, 2.474
1102.498, 176.704
1103.735, 56.116
1104.972, 141.852
1106.208, 63.996
1107.445, 22.165
1108.681, 2.718
1109.918, 111.393
1111.154, 63.505
1112.389, 82.912
1113.625, 89.338
1114.860, 52.315
1116.096, 78.515
1117.331, 99.644
1118.566, 111.760
1119.800, 139.866
1121.035, 178.922
1122.269, 163.427
1123.503, 198.528
1124.737, 178.427
1125.971, 197.725
1127.205, 139.301
1128.438, 41.392
1129.671, 11.480
1130.904, 10.562
1132.137, 70.738
1133.370, 177.680
1134.602, 85.711
1135.834, 28.621
1137.066, 27.269
1138.298, 156.325
1139.530, 147.032
1140.762, 232.163
1141.993, 74.128
1143.224, 70.777
1144.455, 55.680
1145.686, 68.578
1146.917, 48.473
1148.147, 127.361
1149.377, 126.247
1150.607, 171.255
1151.837, 66.131
1153.067, 1.997
1154.296, 151.971
1155.526, 41.821
1156.755, 34.666
1157.984, 147.508
1159.213, 145.343
1160.441, 192.232
1161.670, 150.098
1162.898, 162.920
1164.126, 71.734
1165.354, 208.544
1166.581, 199.349
1167.809, 177.147
1169.036, 46.941
1170.263, 246.729
1171.490, 210.512
1172.717, 141.288
1173.943, 181.059
1175.170, 233.823
1176.396, 78.582
1177.622, 208.335
1178.848, 196.081
1180.073, 8.045
1181.299, 218.670
1182.524, 131.379
1183.749, 111.081
1184.974, 179.778
1186.199, 286.468
1187.423, 65.151
1188.648, 167.827
1189.872, 146.497
1191.096, 181.350
1192.320, 193.007
1193.543, 107.657
1194.767, 218.328
1195.990, 187.965
1197.213, 254.626
1198.436, 208.248
1199.659, 292.865
1200.881, 167.362
1202.104, 209.964
1203.326, 301.560
1204.548, 400.148
1205.770, 360.569
1206.991, 379.304
1208.213, 252.871
1209.434, 268.432
1210.655, 147.984
1211.876, 223.531
1213.096, 249.070
1214.317, 201.602
1215.537, 321.127
1216.757, 185.458
1217.977, 205.118
1219.197, 157.086
1220.417, 147.607
1221.636, 129.121
1222.855, 160.629
1224.074, 116.130
1225.293, 1.375
1226.512, 220.095
1227.731, 92.559
1228.949, 155.015
1230.167, 51.464
1231.385, 107.901
1232.603, 159.332
1233.820, 26.245
1235.038, 104.138
1236.255, 238.511
1237.472, 194.875
1238.689, 67.231
1239.906, 263.575
1241.122, 55.914
1242.338, 512.242
1243.555, 619.367
1244.771, 191.680
1245.986, 87.623
1247.202, 16.403
1248.417, 175.319
1249.633, 137.560
1250.848, 115.510
1252.063, 149.623
1253.277, 58.674
1254.492, 90.782
1255.706, 133.331
1256.920, 135.417
1258.134, 34.496
1259.348, 33.563
1260.562, 38.771
1261.775, 147.628
1262.988, 106.371
1264.201, 70.587
1265.414, 195.538
1266.627, 9.482
1267.839, 0.416
1269.052, 179.336
1270.264, 110.249
1271.476, 163.154
1272.688, 0.948
1273.899, 143.938
1275.111, 105.814
1276.322, 101.324
1277.533, 29.773
1278.744, 88.631
1279.955, 8.481
1281.165, 34.678
1282.376, 21.151
1283.586, 125.972
1284.796, 51.784
1286.006, 32.390
1287.215, 146.200
1288.425, 83.322
1289.634, 87.107
1290.843, 106.884
1292.052, 64.656
1293.261, 145.421
1294.469, 158.181
1295.678, 37.934
1296.886, 146.680
1298.094, 212.418
1299.302, 38.826
1300.509, 201.553
1301.717, 153.272
1302.924, 115.986
1304.131, 119.693
1305.338, 49.394
1306.545, 54.088
1307.752, 79.774
1308.958, 151.453
1310.164, 129.946
1311.370, 178.793
1312.576, 166.454
1313.782, 203.107
1314.987, 317.755
1316.193, 188.397
1317.398, 295.033
1318.603, 257.664
1319.807, 360.291
1321.012, 139.913
1322.216, 222.533
1323.421, 189.148
1324.625, 37.759
1325.829, 187.267
1327.032, 173.872
1328.236, 282.473
1329.439, 180.072
1330.642, 234.688
1331.845, 90.262
1333.048, 195.854
1334.251, 129.442
1335.453, 23.971
1336.656, 160.604
1337.858, 146.178
1339.060, 57.751
1340.261, 152.322
1341.463, 56.893
1342.664, 188.463
1343.866, 128.032
1345.067, 110.603
1346.267, 160.174
1347.468, 116.746
1348.669, 115.320
1349.869, 119.126
1351.069, 126.043
1352.269, 124.054
1353.469, 168.637
1354.668, 210.224
1355.868, 221.815
1357.067, 220.412
1358.266, 225.103
1359.465, 292.668
1360.664, 253.627
1361.862, 201.313
1363.061, 317.100
1364.259, 304.845
1365.457, 407.514
1366.655, 299.192
1367.852, 199.885
1369.050, 111.589
1370.247, 105.599
1371.444, 289.033
1372.641, 160.657
1373.838, 199.093
1375.035, 281.314
1376.231, 238.686
1377.427, 244.079
1378.623, 195.688
1379.819, 138.893
1381.015, 234.038
1382.211, 173.190
1383.406, 200.162
1384.601, 153.700
1385.796, 124.198
1386.991, 200.146
1388.185, 111.031
1389.380, 58.625
1390.574, 174.318
1391.768, 179.073
1392.962, 246.504
1394.156, 197.719
1395.350, 197.559
1396.543, 301.148
1397.736, 115.125
1398.929, 109.683
1400.122, 167.555
1401.315, 117.460
1402.507, 187.144
1403.700, 187.532
1404.892, 193.140
1406.084, 262.434
1407.276, 74.686
1408.467, 121.266
1409.659, 160.838
1410.850, 206.406
1412.041, 292.809
1413.232, 113.229
1414.423, 324.792
1415.614, 133.349
1416.804, 201.770
1417.994, 242.313
1419.184, 367.854
1420.374, 237.388
1421.564, 275.917
1422.753, 285.442
1423.943, 259.959
1425.132, 172.474
1426.321, 389.806
1427.510, 165.337
1428.698, 316.864
1429.887, 306.385
1431.075, 186.613
1432.263, 257.083
1433.451, 175.508
1434.639, 384.918
1435.827, 382.371
1437.014, 264.818
1438.201, 483.258
1439.388, 376.692
1440.575, 396.120
1441.762, 322.538
1442.949, 383.948
1444.135, 328.312
1445.321, 425.615
1446.507, 452.904
1447.693, 411.176
1448.879, 426.462
1450.064, 396.736
1451.250, 464.002
1452.435, 261.294
1453.620, 560.615
1454.805, 380.937
1455.989, 442.251
1457.174, 632.556
1458.358, 476.013
1459.542, 491.460
1460.726, 565.067
1461.910, 422.780
1463.093, 524.541
1464.277, 214.330
1465.460, 393.205
1466.643, 396.151
1467.826, 336.111
1469.009, 444.084
1470.191, 341.076
1471.373, 298.082
1472.556, 304.106
1473.738, 492.147
1474.919, 222.206
1476.101, 720.288
1477.283, 702.393
1478.464, 524.565
1479.645, 208.814
1480.826, 216.100
1482.007, 300.426
1483.187, 506.794
1484.368, 323.209
1485.548, 280.680
1486.728, 327.215
1487.908, 282.821
1489.088, 231.507
1490.268, 227.246
1491.447, 273.138
1492.626, 215.096
1493.805, 195.145
1494.984, 301.283
1496.163, 268.510
1497.341, 188.830
1498.520, 153.250
1499.698, 93.782
1500.876, 65.018
1502.054, 19.771
1503.232, 68.164
1504.409, 29.743
1505.586, 66.520
1506.763, 190.971
1507.940, 219.626
1509.117, 119.504
1510.294, 207.621
1511.470, 137.003
1512.647, 223.685
1513.823, 162.596
1514.999, 137.493
1516.174, 82.485
1517.350, 87.427
1518.526, 19.815
1519.701, 42.386
1520.876, 19.188
1522.051, 26.253
1523.226, 0.418
1524.400, 0.000
##END=



