##NAMES=Montebrasite
##RRUFFID=R040060
##IDEAL CHEMISTRY=LiAlPO_4_(OH)
##LOCALITY=Oxford County, Maine, USA
##OWNER=RRUFF
##SOURCE=University of Arizona Mineral Museum
##DESCRIPTION=White massive
##STATUS=The identification of this mineral has been confirmed by X-ray diffraction and chemical analysis
##URL=rruff.info/R040060
##MEASURED CHEMISTRY=LiAl(PO_4_)((OH)_0.79_F_0.21_)
##PIN_ID=L00548
##ORIENTATION=Laser parallel to b* (0 1 0). Fiducial mark perpendicular to laser is parallel to -c [0 0 -1]
125.328, 0.000
126.720, 1.069
128.112, 20.582
129.504, 170.855
130.896, 467.612
132.287, 595.640
133.678, 856.348
135.069, 1019.456
136.460, 1026.771
137.850, 1098.122
139.240, 1045.766
140.630, 862.880
142.020, 658.792
143.410, 363.460
144.799, 194.723
146.188, 150.449
147.577, 57.726
148.965, 34.428
150.354, 65.308
151.742, 19.331
153.130, 30.527
154.517, 91.751
155.905, 164.304
157.292, 8.609
158.679, 174.558
160.066, 146.747
161.452, 194.879
162.839, 286.942
164.225, 354.934
165.611, 518.856
166.996, 465.710
168.381, 527.497
169.767, 593.971
171.152, 589.468
172.536, 589.923
173.921, 549.339
175.305, 426.716
176.689, 477.057
178.073, 410.367
179.456, 293.667
180.839, 213.968
182.222, 234.665
183.605, 289.484
184.988, 340.592
186.370, 284.705
187.752, 380.977
189.134, 348.046
190.516, 378.467
191.898, 467.888
193.279, 466.090
194.660, 651.128
196.041, 645.434
197.421, 709.691
198.801, 553.900
200.182, 398.058
201.561, 422.163
202.941, 236.218
204.321, 220.221
205.700, 174.173
207.079, 178.076
208.457, 151.948
209.836, 45.790
211.214, 49.616
212.592, 83.445
213.970, 32.729
215.348, 41.091
216.725, 44.903
218.102, 28.713
219.479, 72.510
220.856, 116.294
222.232, 90.061
223.608, 123.807
224.984, 87.543
226.360, 141.264
227.736, 144.973
229.111, 108.665
230.486, 202.699
231.861, 186.690
233.236, 161.092
234.610, 75.553
235.984, 109.573
237.358, 50.784
238.732, 10.205
240.105, 30.749
241.479, 81.766
242.852, 43.566
244.224, 111.447
245.597, 20.539
246.969, 89.142
248.342, 16.136
249.713, 8.577
251.085, 24.054
252.457, 61.399
253.828, 23.006
255.199, 22.145
256.570, 17.736
257.940, 35.415
259.310, 8.841
260.681, 8.118
262.050, 54.884
263.420, 27.932
264.790, 151.105
266.159, 174.069
267.528, 267.268
268.896, 270.233
270.265, 503.159
271.633, 566.055
273.001, 848.895
274.369, 1161.678
275.737, 1204.417
277.104, 1327.117
278.471, 1189.780
279.838, 1002.410
281.205, 905.005
282.572, 677.566
283.938, 780.093
285.304, 702.583
286.670, 825.077
288.035, 937.752
289.401, 1140.898
290.766, 1553.819
292.131, 2256.939
293.495, 2930.131
294.860, 3633.355
296.224, 4417.336
297.588, 4641.363
298.952, 4665.088
300.315, 4138.756
301.679, 3662.484
303.042, 3056.189
304.405, 2479.949
305.767, 2183.429
307.130, 1846.958
308.492, 1640.867
309.854, 1454.249
311.216, 1367.627
312.578, 1250.994
313.939, 1124.350
315.300, 987.694
316.661, 931.025
318.021, 813.599
319.382, 876.899
320.742, 890.186
322.102, 913.451
323.462, 756.693
324.821, 799.912
326.181, 673.105
327.540, 556.276
328.899, 399.421
330.257, 362.544
331.616, 275.643
332.974, 278.716
334.332, 101.740
335.690, 194.741
337.047, 107.720
338.405, 110.673
339.762, 93.602
341.119, 96.508
342.475, 99.389
343.832, 162.245
345.188, 105.079
346.544, 52.099
347.900, 80.667
349.255, 26.312
350.610, 16.489
351.965, 30.544
353.320, 2.803
354.675, 36.374
356.029, 50.404
357.384, 44.040
358.738, 60.831
360.091, 17.199
361.445, 45.645
362.798, 11.275
364.151, 13.855
365.504, 11.506
366.857, 7.880
368.209, 35.355
369.561, 79.782
370.913, 34.131
372.265, 102.350
373.617, 65.059
374.968, 18.005
376.319, 60.866
377.670, 97.841
379.021, 112.110
380.371, 85.910
381.721, 78.717
383.071, 52.135
384.421, 107.442
385.770, 99.957
387.120, 232.714
388.469, 214.996
389.818, 188.312
391.166, 210.735
392.515, 242.558
393.863, 235.208
395.211, 287.716
396.559, 250.541
397.906, 272.682
399.254, 235.327
400.601, 237.574
401.948, 220.020
403.294, 262.227
404.641, 254.514
405.987, 206.624
407.333, 364.299
408.679, 424.672
410.025, 516.648
411.370, 266.879
412.715, 438.564
414.060, 561.562
415.405, 458.771
416.749, 480.330
418.093, 570.331
419.437, 799.485
420.781, 1020.494
422.125, 1561.069
423.468, 2341.031
424.811, 3141.794
426.154, 3692.408
427.497, 3823.195
428.839, 3493.952
430.182, 2814.696
431.524, 2155.409
432.866, 1496.097
434.207, 1076.756
435.549, 777.385
436.890, 457.987
438.231, 528.561
439.572, 419.106
440.912, 319.624
442.252, 440.111
443.593, 360.570
444.932, 270.999
446.272, 291.398
447.611, 221.771
448.951, 212.109
450.290, 172.420
451.628, 252.697
452.967, 252.943
454.305, 273.157
455.644, 313.338
456.981, 123.484
458.319, 123.590
459.657, 203.652
460.994, 223.686
462.331, 213.682
463.668, 223.637
465.004, 203.552
466.341, 273.427
467.677, 263.263
469.013, 173.058
470.348, 302.812
471.684, 482.525
473.019, 542.199
474.354, 641.833
475.689, 711.426
477.024, 990.976
478.358, 970.485
479.692, 1079.956
481.026, 1189.385
482.360, 1378.772
483.694, 1398.117
485.027, 1317.420
486.360, 1276.682
487.693, 1365.900
489.026, 1065.075
490.358, 1074.209
491.691, 1123.299
493.023, 1072.347
494.354, 961.351
495.686, 1020.083
497.017, 849.000
498.349, 907.655
499.680, 846.272
501.010, 604.767
502.341, 683.223
503.671, 461.640
505.001, 410.741
506.331, 319.078
507.661, 454.074
508.990, 252.482
510.319, 288.018
511.648, 236.040
512.977, 121.462
514.306, 68.737
515.634, 127.796
516.962, 1.846
518.290, 9.473
519.618, 33.854
520.945, 169.809
522.273, 108.482
523.600, 15.105
524.927, 7.773
526.253, 18.494
527.580, 54.918
528.906, 7.016
530.232, 3.908
531.558, 65.971
532.883, 152.137
534.208, 90.027
535.534, 110.904
536.858, 71.252
538.183, 3.703
539.508, 4.598
540.832, 102.635
542.156, 20.658
543.480, 21.887
544.803, 155.551
546.127, 94.543
547.450, 202.855
548.773, 20.650
550.096, 158.064
551.418, 295.264
552.741, 94.371
554.063, 122.100
555.385, 59.467
556.706, 197.586
558.028, 74.818
559.349, 152.637
560.670, 80.322
561.991, 137.336
563.312, 105.482
564.632, 132.180
565.952, 68.328
567.272, 98.939
568.592, 136.516
569.911, 153.572
571.231, 120.291
572.550, 3.627
573.869, 180.211
575.187, 166.848
576.506, 84.285
577.824, 391.242
579.142, 289.709
580.460, 376.752
581.778, 273.250
583.095, 440.037
584.412, 365.775
585.729, 432.475
587.046, 468.465
588.363, 498.076
589.679, 603.932
590.995, 610.627
592.311, 736.766
593.627, 662.605
594.942, 698.861
596.258, 974.691
597.573, 1210.928
598.888, 1226.789
600.202, 1502.188
601.517, 1598.039
602.831, 1483.510
604.145, 1299.023
605.459, 1144.736
606.772, 849.789
608.086, 725.586
609.399, 710.705
610.712, 585.986
612.024, 591.496
613.337, 376.682
614.649, 521.674
615.961, 455.842
617.273, 479.584
618.585, 516.365
619.896, 541.057
621.208, 724.828
622.519, 759.172
623.829, 1133.383
625.140, 1357.504
626.450, 1541.531
627.761, 1585.389
629.071, 1489.594
630.380, 1453.316
631.690, 1256.984
632.999, 1250.594
634.308, 1234.148
635.617, 1157.646
636.926, 1351.088
638.235, 1584.473
639.543, 1967.818
640.851, 2581.105
642.159, 3304.338
643.466, 4157.512
644.774, 4850.627
646.081, 5063.688
647.388, 4616.691
648.695, 3709.637
650.002, 3072.525
651.308, 2265.357
652.614, 1588.129
653.920, 1420.848
655.226, 1083.508
656.531, 856.111
657.837, 558.658
659.142, 391.150
660.447, 443.586
661.752, 245.965
663.056, 448.301
664.360, 70.547
665.664, 292.760
666.968, 284.920
668.272, 247.002
669.575, 218.707
670.879, 260.074
672.182, 51.754
673.484, 202.945
674.787, 93.498
676.089, 172.480
677.392, 182.881
678.694, 66.998
679.995, 138.408
681.297, 217.828
682.598, 118.215
683.899, 119.057
685.200, 89.807
686.501, 60.193
687.802, 79.387
689.102, 95.936
690.402, 96.443
691.702, 42.635
693.002, 80.449
694.301, 155.098
695.600, 33.752
696.899, 44.479
698.198, 35.434
699.497, 74.504
700.795, 121.988
702.093, 7.670
703.391, 42.568
704.689, 103.137
705.987, 154.592
707.284, 214.729
708.581, 4.344
709.878, 85.439
711.175, 165.090
712.472, 28.986
713.768, 179.209
715.064, 55.348
716.360, 65.221
717.656, 174.672
718.951, 14.156
720.247, 253.633
721.542, 17.400
722.837, 76.461
724.131, 40.244
725.426, 108.840
726.720, 178.182
728.014, 78.461
729.308, 188.803
730.601, 167.453
731.895, 28.127
733.188, 76.256
734.481, 4.693
735.774, 54.678
737.067, 144.105
738.359, 73.248
739.651, 302.195
740.943, 71.152
742.235, 223.348
743.526, 27.631
744.818, 231.648
746.109, 50.752
747.400, 139.773
748.691, 199.062
749.981, 87.000
751.271, 175.098
752.562, 73.709
753.851, 142.123
755.141, 240.551
756.431, 118.697
757.720, 196.650
759.009, 164.279
760.298, 112.176
761.587, 203.213
762.875, 40.516
764.163, 107.908
765.451, 135.691
766.739, 73.197
768.027, 152.533
769.314, 199.984
770.601, 217.404
771.888, 304.807
773.175, 8.273
774.462, 148.562
775.748, 345.252
777.034, 201.867
778.320, 199.955
779.606, 276.451
780.892, 272.965
782.177, 209.627
783.462, 236.393
784.747, 423.008
786.032, 509.229
787.317, 445.385
788.601, 531.732
789.885, 527.934
791.169, 663.926
792.453, 839.865
793.736, 969.791
795.019, 985.623
796.303, 1051.400
797.585, 1177.123
798.868, 1312.793
800.151, 1198.412
801.433, 1204.236
802.715, 1199.748
803.997, 1035.205
805.279, 1000.611
806.560, 825.963
807.841, 901.262
809.122, 806.510
810.403, 561.705
811.684, 646.846
812.964, 501.936
814.245, 546.975
815.525, 541.961
816.804, 316.424
818.084, 391.307
819.363, 544.875
820.643, 249.379
821.922, 293.801
823.201, 368.014
824.479, 272.059
825.758, 116.227
827.036, 289.340
828.314, 123.170
829.592, 346.500
830.869, 310.129
832.147, 16.240
833.424, 156.756
834.701, 120.070
835.977, 23.680
837.254, 96.830
838.530, 189.936
839.807, 62.891
841.082, 150.951
842.358, 3.783
843.634, 276.668
844.909, 99.512
846.184, 21.336
847.459, 211.326
848.734, 135.695
850.008, 3.564
851.283, 28.604
852.557, 300.645
853.831, 192.982
855.105, 155.506
856.378, 96.344
857.651, 108.309
858.925, 19.381
860.197, 133.080
861.470, 65.752
862.743, 116.529
864.015, 158.566
865.287, 59.102
866.559, 62.367
867.831, 95.371
869.102, 66.127
870.373, 77.664
871.645, 109.695
872.915, 60.629
874.186, 192.906
875.457, 52.104
876.727, 66.404
877.997, 224.668
879.267, 46.164
880.536, 62.115
881.806, 172.900
883.075, 164.555
884.344, 23.918
885.613, 156.709
886.882, 177.730
888.150, 27.139
889.419, 47.877
890.687, 29.061
891.954, 129.873
893.222, 111.639
894.490, 47.650
895.757, 63.680
897.024, 1.277
898.291, 12.545
899.557, 12.881
900.824, 6.328
902.090, 254.666
903.356, 175.158
904.622, 35.988
905.888, 66.316
907.153, 46.926
908.418, 97.910
909.683, 128.352
910.948, 189.086
912.213, 109.652
913.477, 50.053
914.741, 230.564
916.005, 180.301
917.269, 70.457
918.533, 120.697
919.796, 29.385
921.060, 100.852
922.323, 91.254
923.585, 81.697
924.848, 182.477
926.111, 180.463
927.373, 200.531
928.635, 281.381
929.897, 18.383
931.158, 281.807
932.420, 182.289
933.681, 132.732
934.942, 92.879
936.203, 113.113
937.463, 193.744
938.724, 214.346
939.984, 134.920
941.244, 155.463
942.504, 235.979
943.764, 246.467
945.023, 63.072
946.282, 217.344
947.541, 207.730
948.800, 288.094
950.059, 328.430
951.317, 438.744
952.575, 119.029
953.833, 529.289
955.091, 319.527
956.349, 409.738
957.606, 609.930
958.864, 650.094
960.121, 900.240
961.377, 1320.361
962.634, 2020.465
963.891, 3130.547
965.147, 3610.609
966.403, 3470.652
967.659, 2390.676
968.914, 1570.664
970.170, 1210.656
971.425, 810.635
972.680, 870.311
973.935, 660.160
975.190, 510.096
976.444, 789.838
977.698, 798.918
978.952, 698.721
980.206, 907.818
981.460, 627.701
982.713, 967.576
983.967, 904.422
985.220, 603.646
986.473, 982.717
987.725, 701.221
988.978, 810.188
990.230, 1054.418
991.482, 1103.246
992.734, 1352.488
993.986, 1170.799
995.237, 1280.576
996.488, 1541.789
997.739, 1838.666
998.990, 2018.307
1000.241, 2058.037
1001.492, 2576.082
1002.742, 2964.814
1003.992, 3344.734
1005.242, 4064.277
1006.492, 4673.732
1007.741, 5512.914
1008.990, 6392.174
1010.239, 6789.482
1011.488, 7258.715
1012.737, 7197.674
1013.986, 6766.781
1015.234, 6086.066
1016.482, 5303.328
1017.730, 4382.219
1018.978, 3714.586
1020.225, 3023.469
1021.473, 2582.410
1022.720, 2411.879
1023.967, 2140.480
1025.213, 2109.574
1026.460, 1857.980
1027.706, 1831.637
1028.953, 1730.402
1030.198, 1784.414
1031.444, 1813.762
1032.690, 1840.824
1033.935, 2339.562
1035.180, 2417.750
1036.425, 2616.633
1037.670, 2931.688
1038.915, 3249.375
1040.159, 3666.797
1041.403, 4826.367
1042.647, 5724.539
1043.891, 6182.891
1045.135, 6482.027
1046.378, 6467.066
1047.621, 6216.555
1048.864, 5715.055
1050.107, 5211.484
1051.350, 5279.859
1052.592, 5179.172
1053.835, 5638.727
1055.077, 5946.426
1056.318, 6515.520
1057.560, 7284.047
1058.802, 7293.516
1060.043, 7072.469
1061.284, 6451.895
1062.525, 5596.090
1063.765, 4735.414
1065.006, 3904.719
1066.246, 3183.652
1067.486, 2702.914
1068.726, 2162.152
1069.966, 1931.371
1071.205, 1590.570
1072.445, 1439.746
1073.684, 1128.906
1074.923, 1168.043
1076.161, 777.164
1077.400, 966.266
1078.638, 735.367
1079.876, 754.449
1081.114, 783.535
1082.352, 752.633
1083.590, 691.742
1084.827, 730.777
1086.064, 689.820
1087.301, 468.840
1088.538, 577.871
1089.775, 497.039
1091.011, 696.219
1092.247, 485.379
1093.483, 524.531
1094.719, 533.715
1095.955, 512.895
1097.190, 542.086
1098.425, 431.348
1099.660, 700.676
1100.895, 659.996
1102.130, 799.336
1103.364, 1328.777
1104.598, 1098.320
1105.833, 1807.918
1107.066, 2077.551
1108.300, 1767.293
1109.534, 1937.105
1110.767, 1756.961
1112.000, 1506.887
1113.233, 1356.887
1114.466, 1096.992
1115.698, 827.129
1116.930, 897.340
1118.163, 467.598
1119.394, 807.898
1120.626, 598.359
1121.858, 448.871
1123.089, 689.438
1124.320, 410.066
1125.551, 640.754
1126.782, 521.512
1128.013, 142.352
1129.243, 603.273
1130.473, 354.285
1131.703, 165.395
1132.933, 416.613
1134.163, 117.941
1135.392, 429.395
1136.621, 230.969
1137.850, 77.312
1139.079, 484.551
1140.308, 116.566
1141.536, 288.750
1142.765, 311.098
1143.993, 26.383
1145.221, 456.320
1146.448, 69.215
1147.676, 122.316
1148.903, 485.625
1150.130, 159.168
1151.357, 142.953
1152.584, 167.004
1153.810, 101.348
1155.037, 456.008
1156.263, 341.008
1157.489, 48.840
1158.715, 392.020
1159.940, 155.254
1161.166, 217.703
1162.391, 228.125
1163.616, 21.148
1164.841, 428.734
1166.065, 116.574
1167.290, 192.422
1168.514, 222.160
1169.738, 44.469
1170.962, 327.098
1172.185, 221.578
1173.409, 4.156
1174.632, 422.648
1175.855, 0.000
##END=



