##NAMES=Montebrasite
##RRUFFID=R040062
##IDEAL CHEMISTRY=LiAlPO_4_(OH)
##LOCALITY=Hebron, Maine, USA
##OWNER=RRUFF
##SOURCE=University of Arizona Mineral Museum
##DESCRIPTION=White massive
##STATUS=The identification of this mineral has been confirmed by X-ray diffraction and chemical analysis
##URL=rruff.info/R040062
##MEASURED CHEMISTRY=LiAl(PO_4_)((OH)_0.62_F_0.38_)
##PIN_ID=L00144
##ORIENTATION=Laser parallel to (1 1 0). Fiducial mark perpendicular to laser is parallel to -c [0 0 -1]
113.329, 0.000
114.726, 144.216
116.123, 82.157
117.519, 135.715
118.915, 144.693
120.311, 74.072
121.706, 180.836
123.102, 463.428
124.497, 480.578
125.892, 791.296
127.286, 1134.797
128.681, 1590.482
130.075, 2088.156
131.469, 2248.753
132.862, 2520.717
134.256, 2304.115
135.649, 1878.562
137.042, 1653.783
138.435, 1339.581
139.827, 895.817
141.219, 502.389
142.611, 389.220
144.003, 196.253
145.394, 134.605
146.786, 135.502
148.177, 10.142
149.567, 75.032
150.958, 59.501
152.348, 43.282
153.738, 146.458
155.128, 189.096
156.517, 351.253
157.907, 492.983
159.296, 844.335
160.685, 1035.357
162.073, 1496.085
163.462, 1816.553
164.850, 2246.787
166.237, 2546.814
167.625, 2766.656
169.012, 2806.330
170.400, 2965.854
171.786, 2595.242
173.173, 2534.503
174.559, 2253.648
175.946, 2156.343
177.332, 2028.329
178.717, 1884.426
180.103, 1811.981
181.488, 1725.062
182.873, 1574.464
184.258, 1558.780
185.642, 1446.841
187.026, 1361.658
188.410, 1226.580
189.794, 1161.588
191.178, 806.670
192.561, 661.821
193.944, 707.037
195.327, 482.314
196.709, 327.639
198.092, 242.996
199.474, 98.415
200.856, 193.905
202.237, 129.479
203.618, 135.144
205.000, 350.916
206.380, 336.799
207.761, 362.761
209.142, 368.803
210.522, 424.919
211.902, 711.104
213.281, 567.355
214.661, 523.668
216.040, 690.039
217.419, 716.465
218.798, 622.941
220.176, 529.466
221.554, 616.035
222.932, 572.648
224.310, 529.300
225.688, 365.988
227.065, 392.714
228.442, 379.472
229.819, 146.255
231.196, 303.051
232.572, 89.857
233.948, 96.683
235.324, 33.535
236.700, 100.406
238.075, 82.687
239.450, 65.745
240.825, 78.679
242.200, 111.560
243.574, 15.643
244.948, 297.068
246.322, 89.686
247.696, 142.206
249.070, 164.604
250.443, 96.915
251.816, 129.210
253.189, 21.369
254.561, 103.521
255.933, 15.634
257.306, 92.275
258.677, 210.175
260.049, 337.995
261.420, 635.719
262.791, 923.240
264.162, 1220.600
265.533, 1677.819
266.903, 2174.954
268.274, 2792.041
269.643, 3579.129
271.013, 4126.214
272.383, 4833.300
273.752, 5160.385
275.121, 5397.469
276.490, 5074.551
277.858, 4971.630
279.226, 4427.658
280.595, 4014.369
281.962, 3851.507
283.330, 3808.945
284.697, 3716.617
286.064, 4164.469
287.431, 4572.465
288.798, 5450.580
290.164, 6579.322
291.530, 8417.954
292.896, 11186.343
294.262, 14134.767
295.627, 17966.258
296.993, 21175.018
298.358, 23493.529
299.722, 23422.059
301.087, 21800.941
302.451, 18849.496
303.815, 15848.266
305.179, 13546.831
306.543, 11605.398
307.906, 10673.966
309.269, 9832.534
310.632, 8941.093
311.995, 8009.636
313.357, 6788.078
314.719, 5886.549
316.081, 5104.985
317.443, 4453.390
318.804, 4091.766
320.166, 3720.112
321.527, 3448.436
322.887, 3306.734
324.248, 2735.011
325.608, 2613.266
326.968, 2231.502
328.328, 2029.718
329.688, 1677.916
331.047, 1596.099
332.406, 1414.262
333.765, 1032.410
335.124, 1130.543
336.482, 908.660
337.840, 836.764
339.198, 794.852
340.556, 762.863
341.913, 600.756
343.271, 548.556
344.628, 636.089
345.984, 433.414
347.341, 600.591
348.697, 447.682
350.053, 545.056
351.409, 412.333
352.765, 400.865
354.120, 368.535
355.475, 536.468
356.830, 564.109
358.185, 591.610
359.539, 560.295
360.894, 509.094
362.248, 757.503
363.601, 695.151
364.955, 752.081
366.308, 870.587
367.661, 1018.559
369.014, 1141.521
370.367, 999.506
371.719, 1153.771
373.071, 1263.961
374.423, 1383.442
375.775, 1364.962
377.126, 1378.068
378.478, 1366.936
379.828, 1393.725
381.179, 1331.822
382.530, 1381.745
383.880, 1400.818
385.230, 1279.582
386.580, 1247.430
387.929, 1246.201
389.279, 1226.831
390.628, 1134.485
391.977, 1142.780
393.325, 1051.157
394.674, 1100.465
396.022, 1021.768
397.370, 959.552
398.718, 978.377
400.065, 967.129
401.413, 849.984
402.760, 655.258
404.106, 857.844
405.453, 868.211
406.799, 826.354
408.146, 775.328
409.491, 747.277
410.837, 586.021
412.182, 692.678
413.528, 594.656
414.873, 603.639
416.217, 539.520
417.562, 619.893
418.906, 825.377
420.250, 932.455
421.594, 1519.404
422.938, 2096.506
424.281, 2693.438
425.624, 3040.348
426.967, 2777.275
428.310, 2364.227
429.652, 1741.158
430.994, 1288.074
432.336, 954.971
433.678, 761.854
435.020, 528.719
436.361, 475.562
437.702, 532.395
439.043, 329.209
440.383, 226.002
441.724, 452.781
443.064, 259.543
444.404, 276.285
445.743, 293.002
447.083, 599.695
448.422, 226.365
449.761, 233.008
451.100, 99.623
452.438, 146.209
453.777, 222.762
455.115, 229.287
456.453, 14.219
457.790, 172.221
459.128, 308.623
460.465, 244.996
461.802, 161.340
463.139, 337.648
464.475, 193.928
465.811, 310.172
467.147, 366.383
468.483, 432.564
469.819, 848.711
471.154, 1124.826
472.489, 790.910
473.824, 996.959
475.159, 1112.977
476.493, 1338.961
477.827, 1514.910
479.161, 1760.828
480.495, 1776.711
481.829, 1962.562
483.162, 2038.381
484.495, 1944.164
485.828, 1579.914
487.161, 1955.629
488.493, 1601.311
489.825, 1526.959
491.157, 1622.572
492.489, 1218.152
493.820, 1313.695
495.151, 1209.205
496.482, 844.680
497.813, 1040.119
499.144, 875.523
500.474, 840.891
501.804, 626.223
503.134, 621.523
504.464, 586.787
505.793, 482.018
507.123, 407.215
508.451, 312.379
509.780, 227.510
511.109, 252.607
512.437, 47.670
513.765, 162.686
515.093, 107.662
516.421, 172.598
517.748, 207.496
519.075, 42.357
520.402, 37.170
521.729, 61.934
523.055, 176.881
524.382, 108.441
525.708, 56.115
527.034, 110.623
528.359, 44.783
529.685, 109.898
531.010, 65.291
532.335, 0.277
533.659, 14.342
534.984, 21.340
536.308, 46.547
537.632, 38.209
538.956, 104.686
540.279, 99.635
541.603, 154.443
542.926, 30.994
544.249, 52.980
545.571, 147.240
546.894, 52.957
548.216, 162.494
549.538, 191.945
550.860, 86.041
552.181, 88.334
553.503, 35.773
554.824, 9.873
556.145, 174.592
557.465, 57.803
558.786, 67.842
560.106, 131.293
561.426, 34.391
562.746, 243.170
564.065, 275.957
565.385, 125.115
566.704, 238.242
568.023, 260.305
569.341, 233.621
570.660, 396.938
571.978, 151.381
573.296, 354.666
574.614, 237.818
575.931, 482.439
577.248, 535.268
578.565, 381.867
579.882, 584.432
581.199, 367.443
582.515, 745.119
583.831, 598.344
585.147, 538.861
586.463, 970.807
587.779, 923.492
589.094, 1096.678
590.409, 1229.754
591.724, 1592.488
593.038, 1845.723
594.353, 2547.996
595.667, 3541.240
596.981, 4784.498
598.295, 6066.391
599.608, 7448.719
600.922, 8180.967
602.235, 8492.713
603.547, 6904.410
604.860, 5696.057
606.172, 4567.840
607.485, 3689.961
608.797, 2991.492
610.108, 2562.441
611.420, 2283.803
612.731, 2155.184
614.042, 2036.535
615.353, 2104.859
616.664, 2105.859
617.974, 2147.074
619.284, 2348.240
620.594, 2739.021
621.904, 3080.090
623.213, 3830.906
624.523, 4551.885
625.832, 5522.824
627.141, 6543.711
628.449, 7404.551
629.758, 7865.340
631.066, 7616.074
632.374, 6726.764
633.681, 5917.402
634.989, 5037.992
636.296, 4788.533
637.603, 4749.021
638.910, 5439.465
640.217, 6589.855
641.523, 8480.195
642.829, 10030.492
644.135, 12000.734
645.441, 12660.930
646.747, 11801.078
648.052, 10171.168
649.357, 7931.219
650.662, 6011.217
651.967, 4491.164
653.271, 3681.064
654.575, 2680.916
655.879, 2390.717
657.183, 1880.469
658.486, 1560.174
659.790, 1279.826
661.093, 1339.434
662.396, 948.990
663.698, 1188.498
665.001, 877.955
666.303, 857.365
667.605, 726.430
668.907, 815.547
670.209, 793.361
671.510, 571.992
672.811, 530.312
674.112, 438.879
675.413, 677.535
676.713, 464.961
678.013, 472.225
679.313, 359.828
680.613, 538.143
681.913, 597.127
683.212, 414.484
684.511, 372.328
685.810, 325.131
687.109, 282.857
688.407, 204.252
689.706, 279.662
691.004, 335.730
692.302, 199.707
693.599, 182.041
694.897, 32.545
696.194, 241.072
697.491, 58.482
698.788, 71.000
700.084, 62.939
701.380, 186.191
702.677, 53.330
703.972, 119.615
705.268, 108.512
706.564, 145.658
707.859, 75.352
709.154, 0.916
710.449, 100.467
711.743, 83.674
713.037, 290.338
714.332, 44.100
715.626, 201.451
716.919, 277.639
718.213, 26.701
719.506, 359.875
720.799, 193.455
722.092, 232.172
723.384, 81.602
724.677, 184.562
725.969, 180.572
727.261, 61.816
728.553, 187.275
729.844, 213.639
731.136, 50.635
732.427, 277.053
733.718, 156.570
735.008, 439.537
736.299, 195.717
737.589, 18.320
738.879, 117.730
740.169, 66.264
741.458, 90.365
742.748, 205.408
744.037, 91.143
745.326, 96.830
746.614, 152.475
747.903, 68.076
749.191, 233.631
750.479, 59.146
751.767, 54.615
753.055, 310.035
754.342, 166.025
755.629, 171.371
756.916, 306.676
758.203, 421.947
759.490, 297.184
760.776, 239.662
762.062, 144.828
763.348, 439.955
764.634, 365.049
765.919, 200.109
767.204, 491.846
768.489, 436.840
769.774, 251.801
771.059, 856.740
772.343, 361.996
773.627, 496.873
774.911, 731.719
776.195, 476.531
777.479, 743.688
778.762, 808.439
780.045, 1004.525
781.328, 1119.215
782.611, 1153.875
783.893, 1478.504
785.175, 1663.100
786.457, 1947.668
787.739, 2212.207
789.021, 2806.715
790.302, 2811.195
791.583, 3145.646
792.864, 3580.070
794.145, 4074.465
795.425, 4168.832
796.706, 4533.170
797.986, 5347.484
799.266, 5111.770
800.545, 5316.027
801.825, 5600.262
803.104, 5464.469
804.383, 5628.648
805.662, 5122.805
806.940, 5046.938
808.219, 4671.043
809.497, 4495.127
810.775, 4339.188
812.053, 3923.219
813.330, 3677.230
814.608, 3681.219
815.885, 2895.184
817.162, 3099.125
818.438, 2833.045
819.715, 2536.945
820.991, 1980.818
822.267, 1714.676
823.543, 1698.514
824.818, 1392.334
826.094, 1366.137
827.369, 1199.924
828.644, 973.691
829.919, 947.443
831.193, 691.182
832.468, 594.910
833.742, 618.395
835.016, 372.090
836.289, 605.812
837.563, 419.523
838.836, 223.094
840.109, 566.494
841.382, 269.709
842.654, 262.641
843.927, 215.896
845.199, 149.389
846.471, 192.336
847.743, 54.758
849.014, 215.717
850.286, 28.885
851.557, 109.605
852.828, 282.246
854.099, 42.510
855.369, 100.393
856.639, 31.781
857.909, 75.721
859.179, 146.754
860.449, 40.477
861.718, 174.021
862.988, 76.670
864.257, 55.639
865.525, 207.801
866.794, 101.164
868.062, 27.641
869.331, 310.650
870.599, 16.018
871.866, 381.592
873.134, 15.166
874.401, 232.348
875.668, 35.551
876.935, 249.850
878.202, 242.865
879.468, 104.125
880.735, 387.734
882.001, 130.729
883.267, 36.164
884.532, 145.438
885.798, 128.812
887.063, 18.375
888.328, 151.932
889.593, 54.994
890.857, 93.344
892.122, 366.104
893.386, 241.521
894.650, 205.469
895.913, 118.633
897.177, 301.252
898.440, 403.943
899.703, 136.932
900.966, 409.375
902.229, 332.734
903.491, 115.086
904.754, 377.377
906.016, 29.006
907.278, 144.133
908.539, 197.311
909.801, 200.947
911.062, 154.590
912.323, 181.756
913.584, 291.691
914.844, 174.762
916.105, 258.377
917.365, 12.006
918.625, 174.629
919.885, 108.961
921.144, 182.562
922.404, 156.119
923.663, 20.258
924.922, 233.373
926.180, 87.016
927.439, 50.670
928.697, 85.664
929.955, 447.996
931.213, 58.332
932.471, 285.342
933.728, 139.029
934.985, 262.732
936.242, 96.463
937.499, 170.211
938.756, 113.973
940.012, 287.754
941.269, 211.553
942.525, 345.385
943.780, 139.234
945.036, 153.104
946.291, 226.992
947.546, 380.898
948.801, 444.824
950.056, 558.770
951.311, 192.734
952.565, 436.717
953.819, 300.721
955.073, 224.742
956.327, 328.783
957.580, 142.848
958.834, 236.926
960.087, 411.018
961.339, 245.125
962.592, 569.244
963.845, 243.381
965.097, 527.531
966.349, 511.695
967.601, 425.875
968.852, 810.072
970.104, 394.285
971.355, 618.514
972.606, 792.762
973.857, 677.021
975.107, 691.305
976.358, 1015.604
977.608, 879.920
978.858, 1344.256
980.108, 1378.609
981.357, 1272.984
982.607, 1667.381
983.856, 1221.797
985.105, 2316.234
986.353, 1790.693
987.602, 2355.174
988.850, 2769.680
990.098, 3004.207
991.346, 3478.758
992.594, 4243.332
993.841, 4667.934
995.089, 5562.562
996.336, 5847.215
997.583, 7391.895
998.829, 8112.613
1000.076, 9107.359
1001.322, 11121.887
1002.568, 12669.449
1003.814, 14324.293
1005.060, 16066.346
1006.305, 17491.279
1007.550, 18956.111
1008.795, 19866.447
1010.040, 19831.482
1011.285, 19854.008
1012.529, 18250.443
1013.773, 17251.336
1015.017, 15113.312
1016.261, 13298.566
1017.505, 11583.848
1018.748, 10099.191
1019.991, 8824.572
1021.234, 7689.656
1022.477, 7075.123
1023.719, 6580.621
1024.962, 6325.561
1026.204, 6031.195
1027.446, 5906.904
1028.688, 6202.646
1029.929, 6173.797
1031.170, 7109.613
1032.411, 7085.465
1033.652, 8420.180
1034.893, 8996.109
1036.134, 10182.074
1037.374, 11318.137
1038.614, 12134.234
1039.854, 13600.371
1041.094, 15416.566
1042.333, 16002.803
1043.572, 17139.109
1044.811, 17445.508
1046.050, 17351.934
1047.289, 17658.416
1048.527, 17014.938
1049.766, 16641.502
1051.004, 16708.117
1052.241, 16914.770
1053.479, 17141.473
1054.717, 17728.227
1055.954, 19254.426
1057.191, 21041.273
1058.428, 20408.172
1059.664, 21215.113
1060.901, 19262.086
1062.137, 17081.729
1063.373, 14728.699
1064.609, 11515.707
1065.844, 9892.766
1067.080, 7669.719
1068.315, 6220.012
1069.550, 5517.059
1070.785, 4574.152
1072.019, 3861.293
1073.254, 3378.133
1074.488, 2935.367
1075.722, 2902.652
1076.955, 2459.984
1078.189, 2114.992
1079.422, 2262.422
1080.656, 1808.535
1081.889, 1886.062
1083.121, 1843.641
1084.354, 1554.328
1085.586, 1782.012
1086.818, 1729.754
1088.050, 1858.047
1089.282, 1785.922
1090.514, 1467.773
1091.745, 1795.797
1092.976, 2303.898
1094.207, 1832.129
1095.438, 2210.398
1096.668, 2368.566
1097.899, 2916.781
1099.129, 3154.750
1100.359, 3252.727
1101.588, 4220.855
1102.818, 4658.746
1104.047, 5256.629
1105.276, 6565.742
1106.505, 7072.281
1107.734, 7379.117
1108.962, 7576.004
1110.191, 7352.930
1111.419, 7539.914
1112.647, 7366.949
1113.874, 6664.031
1115.102, 6751.164
1116.329, 6188.355
1117.556, 6155.598
1118.783, 6012.891
1120.010, 5350.238
1121.236, 5557.641
1122.463, 4855.102
1123.689, 4372.617
1124.914, 4090.188
1126.140, 3327.816
1127.366, 3465.547
1128.591, 2923.375
1129.816, 2681.320
1131.041, 2429.340
1132.266, 1987.473
1133.490, 2205.691
1134.714, 1863.980
1135.938, 1192.289
1137.162, 1680.664
1138.386, 909.105
1139.609, 847.555
1140.833, 1016.012
1142.056, 514.551
1143.279, 1093.180
1144.501, 411.887
1145.724, 740.648
1146.946, 669.473
1148.168, 238.352
1149.390, 437.289
1150.612, 476.285
1151.833, 405.328
1153.054, 364.430
1154.275, 113.594
1155.496, 132.812
1156.717, 452.086
1157.937, 461.469
1159.158, 59.051
1160.378, 640.496
1161.598, 179.805
1162.817, 439.957
1164.037, 29.789
1165.256, 229.688
1166.475, 289.684
1167.694, 30.234
1168.913, 229.883
1170.131, 410.043
1171.349, 209.746
1172.567, 350.449
1173.785, 250.699
1175.003, 121.000
1176.220, 321.359
1177.438, 271.770
1178.655, 92.242
1179.872, 532.781
1181.088, 233.430
1182.305, 344.203
1183.521, 245.098
1184.737, 436.121
1185.953, 607.273
1187.169, 638.551
1188.384, 389.965
1189.599, 901.520
1190.814, 343.207
1192.029, 805.031
1193.244, 896.992
1194.459, 519.094
1195.673, 731.332
1196.887, 973.715
1198.101, 696.254
1199.314, 888.949
1200.528, 301.797
1201.741, 1224.812
1202.954, 807.992
1204.167, 371.348
1205.380, 1024.883
1206.592, 464.449
1207.805, 626.117
1209.017, 869.473
1210.229, 281.047
1211.440, 694.664
1212.652, 594.113
1213.863, 116.988
1215.074, 599.977
1216.285, 603.090
1217.496, 266.316
1218.707, 559.660
1219.917, 483.105
1221.127, 366.641
1222.337, 590.250
1223.547, 483.926
1224.756, 337.637
1225.966, 411.363
1227.175, 325.062
1228.384, 368.703
1229.592, 37.641
1230.801, 497.348
1232.009, 722.523
1233.217, 30.074
1234.425, 568.070
1235.633, 33.426
1236.841, 535.668
1238.048, 225.461
1239.255, 176.125
1240.462, 597.922
1241.669, 288.145
1242.876, 319.375
1244.082, 424.969
1245.288, 207.867
1246.494, 100.344
1247.700, 270.336
1248.906, 250.199
1250.111, 0.820
1251.316, 0.000
##END=



