##NAMES=Montebrasite
##RRUFFID=R040060
##IDEAL CHEMISTRY=LiAlPO_4_(OH)
##LOCALITY=Oxford County, Maine, USA
##OWNER=RRUFF
##SOURCE=University of Arizona Mineral Museum
##DESCRIPTION=White massive
##STATUS=The identification of this mineral has been confirmed by X-ray diffraction and chemical analysis
##URL=rruff.info/R040060
##MEASURED CHEMISTRY=LiAl(PO_4_)((OH)_0.79_F_0.21_)
##PIN_ID=L00171
##ORIENTATION=Laser parallel to (-1 -1 0). Fiducial mark perpendicular to laser is parallel to c [0 0 1]
122.543, 0.000
123.936, 55.172
125.328, 3.298
126.720, 270.277
128.112, 527.266
129.504, 943.354
130.896, 1335.935
132.287, 1823.555
133.678, 2295.166
135.069, 2649.925
136.460, 2537.115
137.850, 2476.225
139.240, 2107.182
140.630, 1780.191
142.020, 1274.771
143.410, 810.483
144.799, 517.021
146.188, 264.481
147.577, 242.344
148.965, 130.508
150.354, 8.896
151.742, 37.489
153.130, 66.771
154.517, 197.202
155.905, 250.903
157.292, 386.296
158.679, 441.260
160.066, 495.625
161.452, 549.459
162.839, 642.817
164.225, 835.749
165.611, 1008.296
166.996, 900.496
168.381, 997.078
169.767, 1028.564
171.152, 999.812
172.536, 1000.850
173.921, 781.696
175.305, 692.372
176.689, 672.892
178.073, 603.272
179.456, 553.535
180.839, 594.748
182.222, 565.237
183.605, 687.110
184.988, 867.155
186.370, 973.971
187.752, 1091.912
189.134, 1395.035
190.516, 1362.403
191.898, 1659.988
193.279, 1656.781
194.660, 1873.618
196.041, 1770.494
197.421, 1687.395
198.801, 1544.313
200.182, 1371.243
201.561, 1088.185
202.941, 795.135
204.321, 672.096
205.700, 449.060
207.079, 396.031
208.457, 203.036
209.836, 100.083
211.214, 147.181
212.592, 124.337
213.970, 8.453
215.348, 108.811
216.725, 36.124
218.102, 133.485
219.479, 100.892
220.856, 88.344
222.232, 125.841
223.608, 263.372
224.984, 110.939
226.360, 168.539
227.736, 216.167
229.111, 353.821
230.486, 201.501
231.861, 319.201
233.236, 116.922
234.610, 244.955
235.984, 142.922
237.358, 152.156
238.732, 15.969
240.105, 114.494
241.479, 154.959
242.852, 110.298
244.224, 89.901
245.597, 67.879
246.969, 35.638
248.342, 126.203
249.713, 8.201
251.085, 50.089
252.457, 162.193
253.828, 184.316
255.199, 136.404
256.570, 18.462
257.940, 80.527
259.310, 42.600
260.681, 5.336
262.050, 63.282
263.420, 71.246
264.790, 289.201
266.159, 387.074
267.528, 574.942
268.896, 672.708
270.265, 1050.363
271.633, 1227.800
273.001, 1575.136
274.369, 1852.397
275.737, 2059.652
277.104, 1946.900
278.471, 1884.146
279.838, 1831.387
281.205, 1688.625
282.572, 1395.855
283.938, 1313.082
285.304, 1420.301
286.670, 1737.518
288.035, 1914.434
289.401, 2481.885
290.766, 3149.668
292.131, 4497.742
293.495, 6226.180
294.860, 8054.600
296.224, 9933.139
297.588, 11181.770
298.952, 11680.477
300.315, 11129.723
301.679, 10108.541
303.042, 8507.535
304.405, 6966.422
305.767, 5965.328
307.130, 5014.250
308.492, 4353.180
309.854, 4012.109
311.216, 3651.039
312.578, 3459.965
313.939, 3158.889
315.300, 2917.805
316.661, 2776.715
318.021, 2645.609
319.382, 2594.492
320.742, 2583.344
322.102, 2562.154
323.462, 2380.930
324.821, 1959.670
326.181, 1678.379
327.540, 1417.059
328.899, 1275.707
330.257, 964.330
331.616, 842.924
332.974, 551.473
334.332, 529.996
335.690, 438.500
337.047, 336.982
338.405, 335.443
339.762, 213.883
341.119, 192.303
342.475, 140.705
343.832, 89.086
345.188, 247.441
346.544, 105.777
347.900, 163.998
349.255, 87.799
350.610, 160.232
351.965, 78.078
353.320, 24.326
354.675, 93.740
356.029, 61.188
357.384, 18.863
358.738, 57.002
360.091, 25.381
361.445, 32.447
362.798, 70.252
364.151, 18.113
365.504, 107.396
366.857, 126.543
368.209, 185.564
369.561, 129.027
370.913, 136.924
372.265, 108.486
373.617, 116.160
374.968, 215.236
376.319, 193.428
377.670, 142.299
379.021, 290.393
380.371, 200.303
381.721, 248.178
383.071, 266.635
384.421, 354.900
385.770, 267.912
387.120, 426.158
388.469, 393.400
389.818, 341.273
391.166, 528.492
392.515, 506.012
393.863, 263.457
395.211, 512.094
396.559, 640.084
397.906, 557.512
399.254, 578.316
400.601, 596.578
401.948, 524.092
403.294, 501.742
404.641, 609.406
405.987, 548.961
407.333, 636.605
408.679, 614.371
410.025, 661.721
411.370, 690.264
412.715, 785.973
414.060, 1059.312
415.405, 1075.453
416.749, 1340.461
418.093, 1618.320
419.437, 2313.209
420.781, 3304.188
422.125, 5017.600
423.468, 7263.920
424.811, 9530.875
426.154, 11497.811
427.497, 11584.750
428.839, 10201.695
430.182, 7778.627
431.524, 5525.539
432.866, 3942.467
434.207, 2859.379
435.549, 1866.275
436.890, 1273.164
438.231, 1060.066
439.572, 946.949
440.912, 643.818
442.252, 650.670
443.593, 497.514
444.932, 334.346
446.272, 501.162
447.611, 317.961
448.951, 314.742
450.290, 321.510
451.628, 228.262
452.967, 244.992
454.305, 181.701
455.644, 308.385
456.981, 305.047
458.319, 261.688
459.657, 228.299
460.994, 114.887
462.331, 361.445
463.668, 197.975
465.004, 404.479
466.341, 490.953
467.677, 437.396
469.013, 623.812
470.348, 660.199
471.684, 886.559
473.019, 982.885
474.354, 1299.184
475.689, 1495.451
477.024, 1631.689
478.358, 2137.898
479.692, 2364.076
481.026, 2570.223
482.360, 2676.340
483.694, 2832.424
485.027, 2738.477
486.360, 2514.498
487.693, 2670.490
489.026, 2526.449
490.358, 2422.381
491.691, 2448.279
493.023, 2194.148
494.354, 2119.984
495.686, 1985.789
497.017, 1991.561
498.349, 1777.303
499.680, 1453.012
501.010, 1348.691
502.341, 1244.338
503.671, 1019.951
505.001, 965.334
506.331, 560.885
507.661, 626.254
508.990, 521.738
510.319, 489.176
511.648, 454.598
512.977, 329.691
514.306, 120.975
515.634, 256.062
516.962, 200.908
518.290, 94.600
519.618, 209.295
520.945, 150.322
522.273, 154.908
523.600, 139.645
524.927, 13.100
526.253, 18.740
527.580, 23.945
528.906, 60.203
530.232, 125.395
531.558, 29.918
532.883, 175.174
534.208, 149.744
535.534, 77.836
536.858, 167.070
538.183, 88.025
539.508, 1.023
540.832, 134.479
542.156, 59.510
543.480, 74.082
544.803, 51.178
546.127, 74.912
547.450, 310.988
548.773, 125.828
550.096, 320.221
551.418, 204.998
552.741, 219.877
554.063, 53.070
555.385, 107.486
556.706, 232.350
558.028, 13.635
559.349, 71.100
560.670, 127.691
561.991, 153.908
563.312, 151.502
564.632, 187.061
565.952, 141.324
567.272, 120.984
568.592, 215.801
569.911, 196.814
571.231, 252.787
572.550, 187.826
573.869, 221.398
575.187, 155.023
576.506, 192.088
577.824, 276.791
579.142, 287.092
580.460, 273.391
581.778, 291.354
583.095, 413.154
584.412, 377.016
585.729, 385.189
587.046, 494.066
588.363, 678.451
589.679, 682.281
590.995, 832.650
592.311, 856.316
593.627, 1190.240
594.942, 1335.199
596.258, 1775.299
597.573, 2278.480
598.888, 2711.959
600.202, 3245.105
601.517, 3310.232
602.831, 3274.619
604.145, 2848.152
605.459, 2431.311
606.772, 2084.387
608.086, 1907.504
609.399, 1440.875
610.712, 1413.521
612.024, 1216.518
613.337, 979.594
614.649, 1132.133
615.961, 1114.715
617.273, 1287.215
618.585, 1180.217
619.896, 1292.531
621.208, 1774.826
622.519, 1876.934
623.829, 2479.314
625.140, 2851.570
626.450, 3393.684
627.761, 3955.750
629.071, 4097.773
630.380, 4369.750
631.690, 4031.684
632.999, 3803.572
634.308, 3835.414
635.617, 3737.211
636.926, 4258.963
638.235, 5010.668
639.543, 6402.332
640.851, 8393.949
642.159, 10965.516
643.466, 13667.043
644.774, 16418.527
646.081, 17099.963
647.388, 15841.355
648.695, 13532.701
650.002, 10774.000
651.308, 8215.258
652.614, 5946.467
653.920, 4457.633
655.226, 3558.754
656.531, 2829.830
657.837, 2090.861
659.142, 1861.846
660.447, 1422.787
661.752, 1243.682
663.056, 924.533
664.360, 935.340
665.664, 856.102
666.968, 706.818
668.272, 607.527
669.575, 598.189
670.879, 458.809
672.182, 428.816
673.484, 429.342
674.787, 619.588
676.089, 399.324
677.392, 369.525
678.694, 209.529
679.995, 349.445
681.297, 349.252
682.598, 138.020
683.899, 246.430
685.200, 124.916
686.501, 119.969
687.802, 399.471
689.102, 175.270
690.402, 174.881
691.702, 13.039
693.002, 182.014
694.301, 88.941
695.600, 51.178
696.899, 65.887
698.198, 133.209
699.497, 231.609
700.795, 180.145
702.093, 46.145
703.391, 44.580
704.689, 134.184
705.987, 235.568
707.284, 134.854
708.581, 106.969
709.878, 84.092
711.175, 193.562
712.472, 95.561
713.768, 274.299
715.064, 113.410
716.360, 31.145
717.656, 39.281
718.951, 7.459
720.247, 55.539
721.542, 173.707
722.837, 28.365
724.131, 81.111
725.426, 50.814
726.720, 39.549
728.014, 67.578
729.308, 295.281
730.601, 285.477
731.895, 17.020
733.188, 84.574
734.481, 37.572
735.774, 31.119
737.067, 1.236
738.359, 63.334
739.651, 194.320
740.943, 8.070
742.235, 20.539
743.526, 76.900
744.818, 154.490
746.109, 48.162
747.400, 169.082
748.691, 96.789
749.981, 43.947
751.271, 48.951
752.562, 240.246
753.851, 157.211
755.141, 224.133
756.431, 33.059
757.720, 49.895
759.009, 96.666
760.298, 173.396
761.587, 180.086
762.875, 156.734
764.163, 83.346
765.451, 269.914
766.739, 146.447
768.027, 72.939
769.314, 229.723
770.601, 206.139
771.888, 212.520
773.175, 78.863
774.462, 115.170
775.748, 241.439
777.034, 397.674
778.320, 173.875
779.606, 190.041
780.892, 386.170
782.177, 352.268
783.462, 488.334
784.747, 504.365
786.032, 580.367
787.317, 746.336
788.601, 902.271
789.885, 978.178
791.169, 1134.053
792.453, 1349.895
793.736, 1695.705
795.019, 1821.488
796.303, 1897.240
797.585, 2112.963
798.868, 2338.656
800.151, 2214.318
801.433, 2309.969
802.715, 2365.576
803.997, 2081.154
805.279, 2226.705
806.560, 1822.227
807.841, 1837.721
809.122, 1623.188
810.403, 1388.627
811.684, 1484.043
812.964, 1289.430
814.245, 1224.789
815.525, 1080.127
816.804, 865.439
818.084, 940.725
819.363, 1055.984
820.643, 601.221
821.922, 676.436
823.201, 551.623
824.479, 506.787
825.758, 371.932
827.036, 367.053
828.314, 242.148
829.592, 527.227
830.869, 402.285
832.147, 77.324
833.424, 261.805
834.701, 156.803
835.977, 11.781
837.254, 155.922
838.530, 120.510
839.807, 5.447
841.082, 148.590
842.358, 63.508
843.634, 97.816
844.909, 182.111
846.184, 174.074
847.459, 188.469
848.734, 7.488
850.008, 70.896
851.283, 145.357
852.557, 58.799
853.831, 93.363
855.105, 212.289
856.378, 280.576
857.651, 3.410
858.925, 52.570
860.197, 211.832
861.470, 64.188
862.743, 69.621
864.015, 85.070
865.287, 80.754
866.559, 122.910
867.831, 252.625
869.102, 61.008
870.373, 82.723
871.645, 34.777
872.915, 105.406
874.186, 28.023
875.457, 91.930
876.727, 49.609
877.997, 93.645
879.267, 69.340
880.536, 22.703
881.806, 65.641
883.075, 69.977
884.344, 105.652
885.613, 65.227
886.882, 238.469
888.150, 33.922
889.419, 27.680
890.687, 12.406
891.954, 53.629
893.222, 147.570
894.490, 37.160
895.757, 96.016
897.024, 10.676
898.291, 73.148
899.557, 160.398
900.824, 25.691
902.090, 247.934
903.356, 200.480
904.622, 82.145
905.888, 22.102
907.153, 66.016
908.418, 79.770
909.683, 2.418
910.948, 205.316
912.213, 259.031
913.477, 63.082
914.741, 207.188
916.005, 161.219
917.269, 34.961
918.533, 299.395
919.796, 83.445
921.060, 22.781
922.323, 111.656
923.585, 66.027
924.848, 150.449
926.111, 144.332
927.373, 118.398
928.635, 362.934
929.897, 67.477
931.158, 341.863
932.420, 106.344
933.681, 50.938
934.942, 255.547
936.203, 90.172
937.463, 284.812
938.724, 209.469
939.984, 54.145
941.244, 218.836
942.504, 203.547
943.764, 398.270
945.023, 73.016
946.282, 277.777
947.541, 112.559
948.800, 377.359
950.059, 212.180
951.317, 487.023
952.575, 1.887
953.833, 356.766
955.091, 381.672
956.349, 306.594
957.606, 511.535
958.864, 396.500
960.121, 481.480
961.377, 776.488
962.634, 831.516
963.891, 1286.562
965.147, 1201.633
966.403, 1346.730
967.659, 951.844
968.914, 1246.984
970.170, 902.148
971.425, 787.344
972.680, 1012.566
973.935, 697.809
975.190, 833.074
976.444, 1068.367
977.698, 933.684
978.952, 1039.020
980.206, 1414.391
981.460, 1109.789
982.713, 1455.211
983.967, 1730.602
985.220, 1446.086
986.473, 1951.598
987.725, 1836.715
988.978, 2032.301
990.230, 2458.367
991.482, 2492.969
992.734, 3018.672
993.986, 3144.391
995.237, 3540.266
996.488, 4136.164
997.739, 4462.191
998.990, 5408.281
1000.241, 6153.477
1001.492, 7109.660
1002.742, 8467.664
1003.992, 10093.930
1005.242, 11550.242
1006.492, 13354.312
1007.741, 15440.691
1008.990, 17306.922
1010.239, 18800.730
1011.488, 19487.273
1012.737, 19470.664
1013.986, 18557.273
1015.234, 17064.039
1016.482, 14827.090
1017.730, 12703.930
1018.978, 10867.066
1020.225, 9364.031
1021.473, 8091.094
1022.720, 6918.195
1023.967, 6255.340
1025.213, 5592.598
1026.460, 5199.883
1027.706, 4775.477
1028.953, 4852.898
1030.198, 4637.891
1031.444, 4705.430
1032.690, 4873.039
1033.935, 5378.285
1035.180, 6091.980
1036.425, 6589.809
1037.670, 7407.668
1038.915, 8604.762
1040.159, 9632.812
1041.403, 10910.633
1042.647, 12828.867
1043.891, 13657.133
1045.135, 14695.484
1046.378, 15183.895
1047.621, 14572.141
1048.864, 14430.617
1050.107, 13429.156
1051.350, 12897.223
1052.592, 12955.836
1053.835, 13174.484
1055.077, 14061.000
1056.318, 15329.742
1057.560, 16338.512
1058.802, 17585.297
1060.043, 17344.141
1061.284, 17013.031
1062.525, 15031.969
1063.765, 12890.926
1065.006, 10909.910
1066.246, 8648.934
1067.486, 7397.980
1068.726, 5687.059
1069.966, 4776.172
1071.205, 3884.980
1072.445, 3424.176
1073.684, 2933.398
1074.923, 2542.641
1076.161, 2021.930
1077.400, 2031.246
1078.638, 1690.594
1079.876, 1539.969
1081.114, 1469.363
1082.352, 1238.789
1083.590, 1288.250
1084.827, 1247.723
1086.064, 1177.223
1087.301, 1056.742
1088.538, 1126.289
1089.775, 1005.930
1091.011, 1095.520
1092.247, 925.129
1093.483, 944.758
1094.719, 1184.406
1095.955, 844.809
1097.190, 964.492
1098.425, 1214.195
1099.660, 1195.020
1100.895, 1234.762
1102.130, 1204.496
1103.364, 1694.910
1104.598, 1614.699
1105.833, 2254.504
1107.066, 2894.324
1108.300, 2824.160
1109.534, 2934.578
1110.767, 2974.461
1112.000, 2524.355
1113.233, 2675.020
1114.466, 2234.941
1115.698, 2006.027
1116.930, 1875.996
1118.163, 1515.969
1119.394, 1758.637
1120.626, 1498.641
1121.858, 1308.766
1123.089, 1619.227
1124.320, 1449.270
1125.551, 1199.727
1126.782, 969.793
1128.013, 531.160
1129.243, 782.703
1130.473, 483.859
1131.703, 305.133
1132.933, 566.320
1134.163, 357.082
1135.392, 421.004
1136.621, 572.516
1137.850, 46.988
1139.079, 319.242
1140.308, 210.770
1141.536, 312.633
1142.765, 318.203
1143.993, 98.914
1145.221, 370.262
1146.448, 96.324
1147.676, 197.672
1148.903, 291.137
1150.130, 6.594
1151.357, 35.945
1152.584, 340.434
1153.810, 150.883
1155.037, 202.797
1156.263, 414.250
1157.489, 5.297
1158.715, 319.648
1159.940, 270.930
1161.166, 132.465
1162.391, 444.430
1163.616, 126.570
1164.841, 397.945
1166.065, 234.488
1167.290, 95.633
1168.514, 456.305
1169.738, 197.582
1170.962, 127.879
1172.185, 465.738
1173.409, 196.914
1174.632, 517.480
1175.855, 578.160
1177.078, 460.562
1178.301, 922.203
1179.523, 671.406
1180.746, 1031.586
1181.968, 953.223
1183.190, 1109.133
1184.412, 1419.895
1185.633, 1430.160
1186.855, 1552.016
1188.076, 1833.078
1189.297, 1918.242
1190.518, 1979.859
1191.738, 2018.094
1192.959, 2108.707
1194.179, 2020.168
1195.399, 1671.273
1196.619, 1271.586
1197.838, 1702.805
1199.058, 1175.645
1200.277, 1345.535
1201.496, 1416.188
1202.715, 837.234
1203.934, 1136.617
1205.152, 842.562
1206.371, 892.980
1207.589, 1012.738
1208.807, 654.562
1210.024, 713.754
1211.242, 723.992
1212.459, 625.109
1213.677, 694.742
1214.894, 975.387
1216.110, 277.348
1217.327, 806.371
1218.543, 422.477
1219.760, 501.348
1220.976, 590.688
1222.192, 365.777
1223.407, 654.918
1224.623, 595.207
1225.838, 584.449
1227.053, 494.453
1228.268, 504.930
1229.483, 304.531
1230.697, 623.090
1231.912, 373.508
1233.126, 592.250
1234.340, 791.715
1235.554, 312.289
1236.767, 830.469
1237.981, 378.633
1239.194, 367.547
1240.407, 515.660
1241.620, 173.898
1242.832, 481.980
1244.045, 710.012
1245.257, 99.133
1246.469, 537.105
1247.681, 475.059
1248.893, 222.977
1250.104, 550.863
1251.315, 488.789
1252.527, 487.152
1253.738, 444.938
1254.948, 264.387
1256.159, 422.785
1257.369, 650.457
1258.579, 228.344
1259.789, 575.910
1260.999, 143.738
1262.209, 614.016
1263.418, 761.293
1264.628, 8.504
1265.837, 496.461
1267.046, 413.418
1268.254, 342.836
1269.463, 519.621
1270.671, 356.336
1271.879, 583.781
1273.087, 150.262
1274.295, 116.590
1275.502, 212.809
1276.710, 188.965
1277.917, 216.520
1279.124, 322.391
1280.331, 8.180
1281.537, 154.238
1282.744, 399.672
1283.950, 25.535
1285.156, 159.602
1286.362, 114.566
1287.568, 330.465
1288.773, 364.176
1289.978, 261.254
1291.184, 16.867
1292.389, 217.422
1293.593, 31.586
1294.798, 85.664
1296.002, 69.586
1297.206, 13.477
1298.410, 447.676
1299.614, 141.367
1300.818, 95.070
1302.021, 318.316
1303.225, 21.602
1304.428, 264.789
1305.631, 207.879
1306.833, 259.137
1308.036, 123.672
1309.238, 246.375
1310.440, 171.012
1311.642, 311.965
1312.844, 75.656
1314.045, 276.578
1315.247, 508.723
1316.448, 189.223
1317.649, 292.660
1318.850, 434.426
1320.051, 73.914
1321.251, 107.605
1322.451, 188.984
1323.651, 49.746
1324.851, 511.355
1326.051, 247.641
1327.251, 3.164
1328.450, 363.844
1329.649, 225.594
1330.848, 154.793
1332.047, 275.066
1333.245, 144.750
1334.444, 175.273
1335.642, 34.793
1336.840, 355.008
1338.038, 184.723
1339.236, 224.340
1340.433, 403.863
1341.630, 203.293
1342.828, 72.633
1344.025, 481.875
1345.221, 291.027
1346.418, 210.086
1347.614, 659.051
1348.810, 2.066
1350.006, 316.699
1351.202, 465.379
1352.398, 113.980
1353.593, 812.492
1354.789, 321.051
1355.984, 169.410
1357.179, 447.691
1358.373, 215.902
1359.568, 94.043
1360.762, 562.102
1361.956, 9.898
1363.150, 578.012
1364.344, 457.156
1365.538, 4.953
1366.731, 482.676
1367.924, 220.867
1369.117, 438.496
1370.310, 246.082
1371.503, 186.559
1372.695, 323.988
1373.888, 561.379
1375.080, 178.688
1376.272, 495.523
1377.464, 314.328
1378.655, 150.754
1379.847, 704.504
1381.038, 728.438
1382.229, 412.273
1383.420, 865.281
1384.610, 567.809
1385.801, 601.375
1386.991, 1074.188
1388.181, 347.578
1389.371, 940.273
1390.561, 633.461
1391.750, 705.723
1392.940, 787.434
1394.129, 607.320
1395.318, 499.938
1396.507, 1172.086
1397.696, 264.156
1398.884, 473.418
1400.072, 753.121
1401.260, 583.285
1402.448, 1089.215
1403.636, 563.398
1404.824, 161.410
1406.011, 751.223
1407.198, 568.895
1408.385, 374.051
1409.572, 959.031
1410.758, 143.668
1411.945, 607.305
1413.131, 810.871
1414.317, 397.609
1415.503, 1055.715
1416.689, 611.359
1417.874, 534.789
1419.060, 901.836
1420.245, 174.234
1421.430, 706.848
1422.615, 599.191
1423.799, 403.477
1424.984, 690.602
1426.168, 666.188
1427.352, 527.945
1428.536, 568.188
1429.720, 379.688
1430.903, 450.305
1432.087, 892.078
1433.270, 651.504
1434.453, 582.090
1435.635, 886.219
1436.818, 578.301
1438.001, 748.492
1439.183, 877.551
1440.365, 287.906
1441.547, 1186.473
1442.728, 767.242
1443.910, 508.152
1445.091, 987.422
1446.272, 756.438
1447.453, 363.188
1448.634, 1261.340
1449.815, 600.320
1450.995, 797.500
1452.176, 947.340
1453.356, 217.992
1454.535, 1108.461
1455.715, 1026.113
1456.895, 765.633
1458.074, 1104.496
1459.253, 631.809
1460.432, 944.277
1461.611, 1261.090
1462.790, 767.320
1463.968, 977.234
1465.146, 1271.855
1466.324, 412.211
1467.502, 1028.828
1468.680, 943.207
1469.858, 510.145
1471.035, 1082.668
1472.212, 779.707
1473.389, 1105.953
1474.566, 934.238
1475.742, 662.629
1476.919, 1091.406
1478.095, 720.090
1479.271, 588.820
1480.447, 887.434
1481.623, 954.477
1482.798, 533.324
1483.974, 1172.270
1485.149, 641.277
1486.324, 530.312
1487.499, 1107.133
1488.674, 575.953
1489.848, 864.746
1491.022, 1113.695
1492.196, 532.891
1493.370, 1032.621
1494.544, 912.926
1495.718, 193.637
1496.891, 1094.891
1498.064, 846.543
1499.237, 428.484
1500.410, 1090.730
1501.583, 243.387
1502.755, 466.516
1503.928, 920.129
1505.100, 5.523
1506.272, 929.582
1507.443, 1015.559
1508.615, 131.031
1509.786, 938.742
1510.958, 467.516
1512.129, 22.441
1513.300, 815.262
1514.470, 714.164
1515.641, 429.492
1516.811, 674.062
1517.981, 0.621
1519.151, 240.676
1520.321, 0.000
##END=



