##NAMES=Montebrasite
##RRUFFID=R060890
##IDEAL CHEMISTRY=LiAlPO_4_(OH)
##LOCALITY=Mount Marie, Paris, Maine, USA
##OWNER=RRUFF
##SOURCE=Bob Jenkins
##DESCRIPTION=Colorless massive
##STATUS=The identification of this mineral is confirmed by single-crystal X-ray diffraction and chemical analysis.
##URL=rruff.info/R060890
##MEASURED CHEMISTRY=Li_1.00_Al_1.00_(P_1.00_O_4_)(OH)_0.63_F_0.37_)_Î£=1_ ; Li not measured but estimated by stoichiometry
##PIN_ID=M01846
##ORIENTATION=Laser parallel to (1 -1 0). Fiducial mark perpendicular to laser is parallel to c [0 0 1]
90.67800, 0.0000000E+00
91.91600, 242.4766
93.15500, 6.566895
94.39300, 158.0771
95.63100, 72.90723
96.86900, 174.4951
98.10600, 244.1523
99.34400, 156.9639
100.5810, 246.1069
101.8190, 92.86914
103.0560, 67.70459
104.2930, 202.2139
105.5290, 447.5522
106.7660, 493.8486
108.0020, 675.4902
109.2390, 957.0356
110.4750, 1064.232
111.7110, 1032.080
112.9460, 1224.451
114.1820, 1536.160
115.4170, 2026.070
116.6530, 2120.169
117.8880, 2713.259
119.1230, 3116.976
120.3580, 3511.147
121.5920, 4244.188
122.8270, 4965.334
124.0610, 5764.678
125.2950, 6595.302
126.5290, 7573.276
127.7630, 8614.692
128.9970, 9835.742
130.2300, 10517.20
131.4640, 11142.38
132.6970, 10760.82
133.9300, 9668.677
135.1630, 8398.999
136.3950, 6616.841
137.6280, 5088.249
138.8600, 4070.267
140.0920, 3071.924
141.3240, 2157.283
142.5560, 1597.240
143.7880, 1045.022
145.0190, 729.4253
146.2510, 558.9834
147.4820, 540.5405
148.7130, 413.5254
149.9440, 246.4385
151.1750, 343.6455
152.4050, 414.3057
153.6360, 358.9512
154.8660, 454.5820
156.0960, 495.1938
157.3260, 504.0181
158.5560, 557.8647
159.7850, 553.8413
161.0150, 651.3301
162.2440, 669.7939
163.4730, 807.5674
164.7020, 943.0913
165.9310, 1046.117
167.1590, 1123.920
168.3880, 1043.537
169.6160, 1089.858
170.8440, 986.4780
172.0720, 854.7671
173.3000, 877.5586
174.5280, 876.0308
175.7550, 749.5146
176.9820, 629.0874
178.2100, 676.7441
179.4370, 585.4810
180.6630, 634.2930
181.8900, 703.1753
183.1170, 563.1245
184.3430, 450.1367
185.5690, 448.2080
186.7950, 484.3345
188.0210, 292.5137
189.2470, 339.7407
190.4720, 322.0142
191.6970, 182.3301
192.9230, 121.6816
194.1480, 43.05615
195.3730, 26.44873
196.5970, 9.857910
197.8220, 6.285156
199.0460, 45.27148
200.2700, 33.18848
201.4940, 13.66406
202.7180, 41.84473
203.9420, 176.3398
205.1660, 183.8257
206.3890, 224.3066
207.6120, 124.7803
208.8350, 41.24805
210.0580, 80.29102
211.2810, 107.8354
212.5040, 253.3872
213.7260, 183.9453
214.9480, 272.5103
216.1700, 396.0752
217.3920, 453.6201
218.6140, 420.1133
219.8360, 462.5718
221.0570, 329.9199
222.2790, 379.0098
223.5000, 393.9229
224.7210, 407.8286
225.9410, 476.7539
227.1620, 321.6992
228.3820, 303.6636
229.6030, 207.6475
230.8230, 305.6514
232.0430, 273.6719
233.2630, 222.7129
234.4820, 147.7715
235.7020, 105.8477
236.9210, 129.9424
238.1400, 29.22656
239.3590, 138.7388
240.5780, 75.48291
241.7970, 36.46826
243.0150, 41.38672
244.2340, 19.12646
245.4520, 33.76514
246.6700, 64.32373
247.8880, 142.8213
249.1060, 32.29102
250.3230, 26.71143
251.5400, 80.07959
252.7580, 181.4194
253.9750, 83.77246
255.1920, 74.87256
256.4080, 139.5488
257.6250, 278.2397
258.8410, 253.9414
260.0580, 498.6587
261.2740, 641.3730
262.4900, 876.0947
263.7050, 937.8096
264.9210, 1211.518
266.1360, 1484.203
267.3520, 1815.855
268.5670, 2066.622
269.7820, 2398.040
270.9960, 2588.581
272.2110, 2809.092
273.4250, 3029.588
274.6400, 3083.059
275.8540, 3101.510
277.0680, 3128.935
278.2810, 3083.327
279.4950, 3023.690
280.7090, 2967.023
281.9220, 3091.327
283.1350, 3324.605
284.3480, 3579.857
285.5610, 4053.088
286.7730, 4631.295
287.9860, 5346.479
289.1980, 6382.634
290.4100, 7658.728
291.6220, 9205.157
292.8340, 10977.03
294.0460, 13044.39
295.2570, 15272.79
296.4690, 17711.04
297.6800, 20466.28
298.8910, 23232.53
300.1020, 26049.78
301.3120, 27424.02
302.5230, 27435.28
303.7330, 25810.54
304.9440, 22966.80
306.1540, 20349.06
307.3630, 17066.33
308.5730, 14635.60
309.7830, 12784.88
310.9920, 11038.15
312.2010, 9918.422
313.4100, 8996.667
314.6190, 8126.871
315.8280, 7544.960
317.0370, 6967.006
318.2450, 6281.919
319.4530, 5886.788
320.6610, 5427.667
321.8690, 4837.552
323.0770, 4408.445
324.2850, 3967.346
325.4920, 3579.254
326.6990, 3204.168
327.9060, 2764.089
329.1130, 2532.016
330.3200, 2154.948
331.5270, 2013.886
332.7330, 1735.829
333.9390, 1541.777
335.1450, 1393.729
336.3510, 1247.687
337.5570, 971.6367
338.7630, 993.3433
339.9680, 797.5303
341.1740, 743.3750
342.3790, 697.5312
343.5840, 563.5361
344.7890, 478.3618
345.9930, 407.5181
347.1980, 370.0703
348.4020, 223.2578
349.6060, 210.6782
350.8100, 175.4238
352.0140, 165.3022
353.2180, 196.4736
354.4210, 252.9336
355.6250, 242.7056
356.8280, 145.3423
358.0310, 230.3618
359.2340, 243.3853
360.4360, 200.4116
361.6390, 314.4414
362.8410, 303.4741
364.0430, 295.5103
365.2450, 378.5498
366.4470, 320.5928
367.6490, 467.6416
368.8510, 426.6953
370.0520, 531.7549
371.2530, 527.8198
372.4540, 526.8896
373.6550, 493.9648
374.8560, 484.3691
376.0560, 543.1284
377.2570, 435.2168
378.4570, 505.3101
379.6570, 475.4067
380.8570, 418.4062
382.0570, 399.6021
383.2560, 334.6226
384.4560, 346.3999
385.6550, 396.1421
386.8540, 353.7983
388.0530, 435.9878
389.2520, 329.8218
390.4510, 394.6646
391.6490, 346.6011
392.8470, 310.8066
394.0450, 474.6470
395.2430, 373.2939
396.4410, 462.0347
397.6390, 503.2339
398.8360, 486.9404
400.0340, 548.0771
401.2310, 627.8027
402.4280, 674.6006
403.6250, 741.3740
404.8210, 836.6997
406.0180, 935.0972
407.2140, 1018.337
408.4100, 1159.804
409.6060, 1369.305
410.8020, 1606.732
411.9980, 2078.471
413.1930, 2840.553
414.3890, 3531.525
415.5840, 4507.048
416.7790, 6069.347
417.9740, 7694.789
419.1680, 9464.414
420.3630, 11392.96
421.5570, 13667.54
422.7510, 16875.42
423.9450, 20184.82
425.1390, 23207.95
426.3330, 24068.09
427.5270, 22256.29
428.7200, 18204.33
429.9130, 13951.23
431.1060, 9969.244
432.2990, 7085.206
433.4920, 5125.925
434.6840, 3892.639
435.8770, 2948.383
437.0690, 2404.081
438.2610, 1843.774
439.4530, 1632.476
440.6450, 1395.188
441.8360, 1162.903
443.0280, 1021.624
444.2190, 875.3564
445.4100, 775.0835
446.6010, 772.8140
447.7920, 613.5420
448.9820, 785.2725
450.1730, 551.0244
451.3630, 663.7744
452.5530, 620.5464
453.7430, 592.3125
454.9330, 623.0796
456.1230, 726.8438
457.3120, 705.6045
458.5010, 811.3564
459.6910, 889.1025
460.8800, 903.8403
462.0680, 1167.570
463.2570, 1179.294
464.4460, 1289.013
465.6340, 2102.724
466.8220, 1890.737
468.0100, 2232.151
469.1980, 2091.873
470.3860, 2367.603
471.5730, 2745.336
472.7600, 3183.064
473.9480, 3662.788
475.1350, 4092.503
476.3210, 4764.210
477.5080, 5145.911
478.6950, 5843.605
479.8810, 6108.291
481.0670, 6434.966
482.2530, 6902.635
483.4390, 6950.299
484.6250, 6992.958
485.8100, 7063.615
486.9960, 7056.271
488.1810, 6900.939
489.3660, 6679.600
490.5510, 6421.258
491.7360, 6332.922
492.9200, 5958.632
494.1050, 5622.386
495.2890, 5300.196
496.4730, 5100.034
497.6570, 4669.878
498.8400, 4438.709
500.0240, 3953.526
501.2070, 3545.327
502.3910, 3366.113
503.5740, 2843.883
504.7570, 2519.637
505.9400, 2215.376
507.1220, 1982.098
508.3050, 1714.358
509.4870, 1445.493
510.6690, 1252.166
511.8510, 1159.821
513.0330, 936.4585
514.2140, 693.0791
515.3960, 626.6821
516.5770, 448.2671
517.7580, 440.8345
518.9390, 345.3833
520.1200, 265.9131
521.3010, 249.7905
522.4810, 196.9180
523.6610, 177.3916
524.8420, 115.8447
526.0220, 48.27686
527.2010, 14.68359
528.3810, 6.063965
529.5610, 9.582520
530.7400, 29.62012
531.9190, 43.95166
533.0980, 59.69482
534.2770, 62.47852
535.4560, 73.28418
536.6340, 112.1475
537.8120, 103.0903
538.9910, 84.09424
540.1690, 58.12354
541.3460, 100.1895
542.5240, 41.34180
543.7020, 41.54932
544.8790, 72.81396
546.0560, 1.151855
547.2330, 50.52588
548.4100, 1.037109
549.5870, 19.43506
550.7630, 98.04590
551.9400, 18.50098
553.1160, 44.90479
554.2920, 7.280273
555.4680, 15.96094
556.6440, 82.72168
557.8190, 47.51367
558.9950, 97.90332
560.1700, 4.591309
561.3450, 69.14893
562.5200, 58.86670
563.6950, 23.46631
564.8690, 98.19922
566.0440, 161.7817
567.2180, 157.1514
568.3920, 141.6582
569.5660, 178.8262
570.7400, 210.4780
571.9130, 182.9941
573.0870, 194.3540
574.2600, 250.6606
575.4330, 265.3960
576.6060, 242.6963
577.7790, 381.7129
578.9520, 309.8555
580.1240, 328.5762
581.2960, 535.1494
582.4690, 409.1807
583.6410, 462.3838
584.8120, 608.1133
585.9840, 574.6973
587.1560, 694.0210
588.3270, 920.4741
589.4980, 992.6167
590.6690, 1152.604
591.8400, 1380.883
593.0110, 1560.005
594.1810, 1899.675
595.3510, 2190.539
596.5220, 2550.733
597.6920, 2923.745
598.8610, 3501.750
600.0310, 4064.841
601.2010, 4520.652
602.3700, 4761.434
603.5390, 4844.471
604.7080, 4621.559
605.8770, 4342.439
607.0460, 3675.723
608.2140, 3189.774
609.3830, 2927.605
610.5510, 2748.554
611.7190, 2618.718
612.8870, 2714.542
614.0550, 2810.527
615.2220, 2949.402
616.3900, 3171.944
617.5570, 3415.189
618.7240, 3787.048
619.8910, 4170.810
621.0580, 4681.587
622.2240, 5204.822
623.3910, 6054.144
624.5570, 6966.626
625.7230, 7869.794
626.8890, 8822.071
628.0550, 10092.08
629.2200, 11455.10
630.3860, 12550.14
631.5510, 13795.91
632.7160, 14861.36
633.8810, 15615.97
635.0460, 16620.56
636.2100, 18262.91
637.3750, 20167.26
638.5390, 23226.53
639.7030, 26323.76
640.8670, 30266.94
642.0310, 35227.09
643.1950, 40924.21
644.3580, 45963.31
645.5210, 49349.37
646.6850, 49702.40
647.8480, 45850.37
649.0100, 39369.32
650.1730, 31481.22
651.3350, 24460.09
652.4980, 18938.91
653.6600, 14700.70
654.8220, 11729.44
655.9840, 9338.142
657.1450, 7586.801
658.3070, 6308.422
659.4680, 5285.001
660.6300, 4502.538
661.7910, 3767.036
662.9510, 3373.426
664.1120, 2882.690
665.2730, 2562.649
666.4330, 2277.280
667.5930, 2056.646
668.7530, 1770.888
669.9130, 1642.600
671.0730, 1437.022
672.2320, 1416.473
673.3920, 1204.863
674.5510, 1003.006
675.7100, 1054.400
676.8690, 916.2842
678.0280, 782.6680
679.1860, 742.1768
680.3450, 760.2476
681.5030, 635.6113
682.6610, 542.6030
683.8190, 396.5181
684.9770, 491.4077
686.1340, 446.6943
687.2920, 314.8594
688.4490, 382.1328
689.6060, 348.1279
690.7630, 281.0396
691.9200, 313.9731
693.0760, 306.5469
694.2330, 179.7261
695.3890, 151.9648
696.5450, 143.6011
697.7010, 207.4077
698.8570, 179.0205
700.0130, 111.4009
701.1680, 108.8057
702.3230, 129.1211
703.4780, 94.09521
704.6330, 116.4858
705.7880, 160.0977
706.9430, 119.6475
708.0970, 45.08789
709.2520, 84.68164
710.4060, 32.21191
711.5600, 136.6704
712.7140, 142.1328
713.8670, 21.78369
715.0210, 129.3809
716.1740, 49.86426
717.3270, 42.37207
718.4800, 16.16992
719.6330, 29.35596
720.7860, 12.24365
721.9380, 8.508789
723.0910, 33.33008
724.2430, 63.76660
725.3950, 4.055664
726.5470, 23.04492
727.6980, 5.980469
728.8500, 70.52686
730.0010, 27.45361
731.1530, 73.82666
732.3040, 47.91650
733.4550, 9.486328
734.6050, 26.30957
735.7560, 31.29297
736.9060, 82.69971
738.0560, 72.73486
739.2060, 97.23828
740.3560, 96.03467
741.5060, 66.75195
742.6560, 60.94336
743.8050, 72.09082
744.9540, 14.19482
746.1030, 16.71973
747.2520, 13.74902
748.4010, 14.75586
749.5500, 0.1962890
750.6980, 34.47266
751.8460, 68.70166
752.9950, 74.00537
754.1420, 93.95459
755.2900, 52.61328
756.4380, 67.93604
757.5850, 72.65967
758.7330, 69.80859
759.8800, 112.2627
761.0270, 97.76318
762.1730, 85.57227
763.3200, 110.9521
764.4670, 97.21387
765.6130, 128.0674
766.7590, 114.2261
767.9050, 104.3882
769.0510, 154.7544
770.1960, 219.7969
771.3420, 172.0854
772.4870, 164.9448
773.6320, 213.8789
774.7770, 200.7793
775.9220, 233.7344
777.0670, 318.9331
778.2110, 292.7300
779.3560, 284.4937
780.5000, 366.8481
781.6440, 384.5449
782.7880, 373.1680
783.9320, 465.2588
785.0750, 425.8555
786.2180, 611.4194
787.3620, 599.9512
788.5050, 690.4502
789.6480, 687.9170
790.7900, 812.4141
791.9330, 869.8315
793.0750, 960.7051
794.2170, 1090.543
795.3590, 1174.931
796.5010, 1322.209
797.6430, 1445.457
798.7850, 1412.675
799.9260, 1517.862
801.0670, 1650.020
802.2080, 1820.148
803.3490, 1729.250
804.4900, 1772.324
805.6310, 1763.375
806.7710, 1663.400
807.9110, 1718.406
809.0510, 1798.396
810.1910, 1718.375
811.3310, 1722.347
812.4710, 1609.313
813.6100, 1690.278
814.7490, 1521.251
815.8880, 1551.229
817.0270, 1471.211
818.1660, 1401.187
819.3050, 1271.170
820.4430, 1242.144
821.5820, 1098.110
822.7200, 1083.077
823.8580, 963.0254
824.9950, 1029.970
826.1330, 818.8965
827.2710, 803.8105
828.4080, 702.7031
829.5450, 675.5850
830.6820, 651.4463
831.8190, 535.9507
832.9560, 582.3247
834.0920, 481.6455
835.2280, 298.2476
836.3650, 388.7139
837.5010, 224.8901
838.6360, 259.0405
839.7720, 173.2612
840.9080, 208.2983
842.0430, 70.43994
843.1780, 98.74756
844.3130, 246.8716
845.4480, 47.28906
846.5830, 66.82324
847.7170, 130.1299
848.8520, 80.19434
849.9860, 168.2686
851.1200, 80.86963
852.2540, 8.136719
853.3870, 63.08740
854.5210, 38.14307
855.6540, 7.422363
856.7880, 65.10938
857.9210, 91.14062
859.0540, 162.9585
860.1860, 151.5400
861.3190, 14.56201
862.4510, 107.1338
863.5840, 40.53418
864.7160, 32.79541
865.8480, 9.976563
866.9790, 32.41602
868.1110, 8.970215
869.2420, 23.70752
870.3740, 17.33105
871.5050, 1.977539
872.6360, 12.51758
873.7660, 6.021484
874.8970, 4.312012
876.0280, 14.49951
877.1580, 12.44678
878.2880, 36.47363
879.4180, 32.58545
880.5480, 33.24121
881.6770, 6.146484
882.8070, 3.752930
883.9360, 50.47266
885.0650, 99.35986
886.1940, 153.5220
887.3230, 70.42090
888.4520, 34.53223
889.5800, 5.578125
890.7090, 1.375977
891.8370, 17.82031
892.9650, 48.96631
894.0930, 11.06006
895.2200, 71.20947
896.3480, 27.86621
897.4750, 56.65137
898.6020, 49.64209
899.7290, 41.36523
900.8560, 8.761719
901.9830, 20.12305
903.1090, 0.4375000
904.2360, 35.30420
905.3620, 47.18555
906.4880, 10.04199
907.6140, 27.45801
908.7400, 87.09717
909.8650, 27.87109
910.9900, 3.394531
912.1160, 14.61182
913.2410, 29.17236
914.3660, 45.96289
915.4900, 110.2393
916.6150, 15.52441
917.7390, 33.69434
918.8640, 68.91455
919.9880, 110.8506
921.1120, 106.6240
922.2350, 60.40625
923.3590, 104.1973
924.4820, 61.99805
925.6060, 3.191895
926.7290, 1.626465
927.8520, 20.45557
928.9740, 7.295410
930.0970, 4.854004
931.2190, 164.0059
932.3420, 135.8774
933.4640, 134.7612
934.5860, 96.65674
935.7080, 88.56494
936.8290, 107.2373
937.9510, 152.4199
939.0720, 152.3672
940.1930, 192.3286
941.3140, 207.3037
942.4350, 252.6216
943.5560, 278.2964
944.6760, 318.3154
945.7960, 345.3486
946.9170, 302.3975
948.0370, 331.4619
949.1560, 332.5410
950.2760, 284.6362
951.3960, 326.7476
952.5150, 434.8745
953.6340, 352.0181
954.7530, 278.1782
955.8720, 506.3545
956.9910, 470.5479
958.1090, 598.7573
959.2280, 609.9844
960.3460, 642.2285
961.4640, 819.4907
962.5820, 804.7710
963.6990, 759.0684
964.8170, 870.3843
965.9340, 863.7192
967.0510, 918.0830
968.1690, 1054.473
969.2850, 1134.883
970.4020, 1147.314
971.5190, 1246.773
972.6350, 1313.292
973.7510, 1427.849
974.8670, 1508.445
975.9830, 1591.071
977.0990, 1835.731
978.2150, 2039.426
979.3300, 2172.146
980.4450, 2432.843
981.5600, 2431.715
982.6750, 2917.520
983.7900, 3112.356
984.9050, 3521.241
986.0190, 3879.157
987.1340, 4412.532
988.2480, 4930.112
989.3620, 5706.126
990.4750, 6466.477
991.5890, 7310.598
992.7020, 8416.771
993.8160, 9565.017
994.9290, 11088.32
996.0420, 12409.41
997.1550, 14136.78
998.2670, 15886.18
999.3800, 18066.00
1000.492, 20101.30
1001.604, 22569.84
1002.716, 25288.31
1003.828, 27816.96
1004.940, 30416.33
1006.051, 33526.55
1007.163, 35428.32
1008.274, 37598.46
1009.385, 38583.12
1010.496, 39208.00
1011.606, 38560.90
1012.717, 37592.83
1013.827, 35562.80
1014.937, 33389.81
1016.047, 30525.83
1017.157, 28119.55
1018.267, 25350.13
1019.377, 22817.15
1020.486, 20488.92
1021.595, 18503.73
1022.704, 16955.46
1023.813, 15618.54
1024.922, 14880.90
1026.030, 14061.60
1027.139, 13678.89
1028.247, 13673.00
1029.355, 13702.31
1030.463, 14330.82
1031.571, 14861.01
1032.678, 15848.62
1033.786, 17058.70
1034.893, 18384.48
1036.000, 20005.29
1037.107, 21326.11
1038.214, 22916.72
1039.321, 24328.64
1040.427, 25750.32
1041.533, 26733.43
1042.639, 28043.46
1043.745, 28881.54
1044.851, 29706.56
1045.957, 29976.34
1047.062, 30441.52
1048.168, 29999.74
1049.273, 29482.38
1050.378, 29510.01
1051.482, 29288.38
1052.587, 29047.28
1053.692, 29335.68
1054.796, 29641.11
1055.900, 30153.58
1057.004, 31294.08
1058.108, 32275.62
1059.212, 33240.13
1060.315, 33725.72
1061.418, 33694.37
1062.522, 32762.04
1063.625, 31355.68
1064.728, 28776.42
1065.830, 25392.21
1066.933, 22260.03
1068.035, 18973.88
1069.137, 16090.77
1070.239, 13784.69
1071.341, 11635.65
1072.443, 10014.64
1073.545, 8855.674
1074.646, 7570.741
1075.747, 6818.841
1076.848, 6150.980
1077.949, 5503.155
1079.050, 5019.365
1080.150, 4625.609
1081.251, 4103.889
1082.351, 3838.204
1083.451, 3511.555
1084.551, 3338.940
1085.651, 3142.359
1086.750, 2911.814
1087.850, 2679.304
1088.949, 2555.828
1090.048, 2540.385
1091.147, 2347.979
1092.246, 2515.607
1093.345, 2125.269
1094.443, 2305.965
1095.541, 2155.695
1096.639, 2055.462
1097.737, 1995.262
1098.835, 1975.917
1099.933, 2069.637
1101.030, 2024.558
1102.128, 2215.511
1103.225, 2383.892
1104.322, 2459.287
1105.419, 2616.749
1106.515, 2714.568
1107.612, 2909.721
1108.708, 3054.354
1109.804, 3189.176
1110.900, 3503.251
1111.996, 3490.519
1113.092, 3610.819
1114.187, 3811.693
1115.283, 3772.820
1116.378, 3884.916
1117.473, 3789.365
1118.568, 3829.845
1119.662, 3863.331
1120.757, 3776.374
1121.851, 3756.996
1122.946, 3729.630
1124.040, 3463.781
1125.134, 3364.442
1126.227, 3409.319
1127.321, 3145.080
1128.414, 3057.871
1129.508, 2891.695
1130.601, 2715.547
1131.693, 2546.441
1132.786, 2364.615
1133.879, 2187.080
1134.971, 2114.785
1136.064, 2039.282
1137.156, 1691.040
1138.248, 1536.702
1139.339, 1468.791
1140.431, 1278.173
1141.522, 1171.317
1142.614, 956.4863
1143.705, 836.6797
1144.796, 823.8975
1145.887, 752.1387
1146.977, 571.6699
1148.068, 543.9590
1149.158, 399.3804
1150.248, 483.7319
1151.338, 346.1279
1152.428, 312.6880
1153.518, 280.1919
1154.607, 374.7251
1155.696, 283.4404
1156.785, 290.3604
1157.874, 238.3071
1158.963, 219.8726
1160.052, 208.5972
1161.141, 246.0361
1162.229, 128.7534
1163.317, 268.5112
1164.405, 161.2979
1165.493, 290.1113
1166.581, 119.9424
1167.668, 197.7930
1168.756, 198.6616
1169.843, 166.5684
1170.930, 177.4775
1172.017, 231.5483
1173.103, 299.4980
1174.190, 114.0630
1175.276, 245.0513
1176.363, 112.0562
1177.449, 245.0820
1178.535, 158.9717
1179.620, 75.02734
1180.706, 83.85352
1181.791, 171.2310
1182.877, 22.34082
1183.962, 93.47510
1185.047, 17.62354
1186.131, 8.786621
1187.216, 199.9624
1188.300, 102.1514
1189.385, 196.3530
1190.469, 258.5684
1191.553, 199.7964
1192.637, 265.0371
1193.720, 199.2886
1194.804, 136.5532
1195.887, 192.8296
1196.970, 218.1172
1198.053, 121.4160
1199.136, 150.7256
1200.219, 200.0449
1201.301, 278.3745
1202.383, 218.9414
1203.465, 278.2925
1204.547, 264.6963
1205.629, 336.0684
1206.711, 247.2515
1207.792, 271.4985
1208.874, 206.0400
1209.955, 236.4473
1211.036, 230.0645
1212.117, 193.4888
1213.198, 221.9219
1214.278, 202.3623
1215.359, 171.8096
1216.439, 170.2637
1217.519, 132.7241
1218.599, 96.19092
1219.678, 28.66357
1220.758, 176.1416
1221.837, 135.6265
1222.917, 53.11572
1223.996, 121.6323
1225.075, 78.13281
1226.153, 121.7539
1227.232, 17.26221
1228.310, 44.22559
1229.389, 22.49951
1230.467, 12.99219
1231.545, 45.48682
1232.622, 32.01514
1233.700, 151.5288
1234.777, 68.10986
1235.855, 72.99756
1236.932, 22.12793
1238.009, 48.63135
1239.086, 47.22266
1240.162, 2.412598
1241.239, 16.04492
1242.315, 18.49805
1243.391, 8.192383
1244.467, 30.89014
1245.543, 81.60596
1246.619, 7.636230
1247.694, 95.87646
1248.769, 32.43701
1249.844, 4.218262
1250.919, 66.04492
1251.994, 12.89746
1253.069, 54.72314
1254.144, 141.5522
1255.218, 6.508789
1256.292, 13.43359
1257.366, 19.47559
1258.440, 23.33984
1259.514, 19.21533
1260.587, 32.08789
1261.661, 8.111816
1262.734, 14.87207
1263.807, 17.87646
1264.880, 13.26025
1265.952, 33.11230
1267.025, 3.810547
1268.097, 35.75977
1269.170, 12.89844
1270.242, 57.79297
