##NAMES=Montebrasite
##RRUFFID=R040062
##IDEAL CHEMISTRY=LiAlPO_4_(OH)
##LOCALITY=Hebron, Maine, USA
##OWNER=RRUFF
##SOURCE=University of Arizona Mineral Museum
##DESCRIPTION=White massive
##STATUS=The identification of this mineral has been confirmed by X-ray diffraction and chemical analysis
##URL=rruff.info/R040062
##MEASURED CHEMISTRY=LiAl(PO_4_)((OH)_0.62_F_0.38_)
##PIN_ID=L00072
##ORIENTATION=Laser parallel to (0 1 1). Fiducial mark perpendicular to laser is parallel to a [1 0 0]
114.726, 0.000
116.123, 2.121
117.519, 48.720
118.915, 3.771
120.311, 141.556
121.706, 240.702
123.102, 544.850
124.497, 632.963
125.892, 934.172
127.286, 1167.694
128.681, 1673.030
130.075, 1970.127
131.469, 2118.849
132.862, 2319.133
134.256, 1910.609
135.649, 1762.807
137.042, 1465.403
138.435, 1128.259
139.827, 921.276
141.219, 734.415
142.611, 719.178
144.003, 555.041
145.394, 441.320
146.786, 568.494
148.177, 577.021
149.567, 536.261
150.958, 605.912
152.348, 724.772
153.738, 752.637
155.128, 859.600
156.517, 915.760
157.907, 981.196
159.296, 1225.986
160.685, 1250.201
162.073, 1396.358
163.462, 1499.897
164.850, 1463.901
166.237, 1307.865
167.625, 1342.469
169.012, 1172.676
170.400, 1163.158
171.786, 998.938
173.173, 830.593
174.559, 645.397
175.946, 673.744
177.332, 559.346
178.717, 632.835
180.103, 564.730
181.488, 569.639
182.873, 676.353
184.258, 616.724
185.642, 656.695
187.026, 772.518
188.410, 679.712
189.794, 664.839
191.178, 719.681
192.561, 624.548
193.944, 640.508
195.327, 694.344
196.709, 579.270
198.092, 524.229
199.474, 450.175
200.856, 382.725
202.237, 369.567
203.618, 264.859
205.000, 290.238
206.380, 225.705
207.761, 101.253
209.142, 76.874
210.522, 142.562
211.902, 208.312
213.281, 134.122
214.661, 109.984
216.040, 75.895
217.419, 141.847
218.798, 57.837
220.176, 93.860
221.554, 20.085
222.932, 64.004
224.310, 52.102
225.688, 11.774
227.065, 84.363
228.442, 49.491
229.819, 83.342
231.196, 42.806
232.572, 8.946
233.948, 35.076
235.324, 21.206
236.700, 12.669
238.075, 6.533
239.450, 40.379
240.825, 24.229
242.200, 78.067
243.574, 28.128
244.948, 115.639
246.322, 30.623
247.696, 143.082
249.070, 96.736
250.443, 29.620
251.816, 95.909
253.189, 67.810
254.561, 101.526
255.933, 15.338
257.306, 60.834
258.677, 43.005
260.049, 33.114
261.420, 89.153
262.791, 145.146
264.162, 161.041
265.533, 377.021
266.903, 312.749
268.274, 368.361
269.643, 563.936
271.013, 549.479
272.383, 595.020
273.752, 620.560
275.121, 646.276
276.490, 711.632
277.858, 687.164
279.226, 732.902
280.595, 690.133
281.962, 847.241
283.330, 984.800
284.697, 992.712
286.064, 1280.562
287.431, 1558.967
288.798, 2097.082
290.164, 2665.263
291.530, 3693.334
292.896, 5101.605
294.262, 6409.781
295.627, 8297.900
296.993, 9906.531
298.358, 10914.667
299.722, 10892.713
301.087, 10070.762
302.451, 8708.751
303.815, 7496.715
305.179, 6714.648
306.543, 5692.549
307.906, 5320.406
309.269, 4798.223
310.632, 4515.990
311.995, 3873.706
313.357, 3461.366
314.719, 2838.965
316.081, 2536.500
317.443, 2233.975
318.804, 2201.396
320.166, 1898.765
321.527, 1766.086
322.887, 1673.360
324.248, 1370.593
325.608, 1307.785
326.968, 1214.930
328.328, 1172.035
329.688, 999.102
331.047, 876.128
332.406, 803.111
333.765, 729.939
335.124, 706.696
336.482, 602.882
337.840, 569.910
339.198, 436.411
340.556, 392.852
341.913, 339.356
343.271, 415.414
344.628, 351.515
345.984, 397.484
347.341, 463.358
348.697, 259.162
350.053, 314.854
351.409, 320.496
352.765, 306.916
354.120, 322.822
355.475, 418.920
356.830, 394.706
358.185, 400.559
359.539, 349.544
360.894, 265.927
362.248, 482.059
363.601, 307.664
364.955, 273.968
366.308, 400.958
367.661, 307.263
369.014, 455.225
370.367, 353.578
371.719, 312.041
373.071, 437.880
374.423, 416.660
375.775, 453.367
377.126, 432.219
378.478, 388.385
379.828, 438.386
381.179, 387.056
382.530, 372.737
383.880, 439.657
385.230, 342.598
386.580, 412.379
387.929, 368.189
389.279, 500.887
390.628, 406.221
391.977, 378.499
393.325, 247.224
394.674, 383.284
396.022, 438.702
397.370, 374.024
398.718, 359.021
400.065, 316.060
401.413, 379.601
402.760, 272.099
404.106, 254.798
405.453, 234.155
406.799, 363.598
408.146, 310.935
409.491, 386.087
410.837, 251.434
412.182, 169.134
413.528, 304.184
414.873, 489.334
416.217, 399.730
417.562, 597.275
418.906, 1020.114
420.250, 1345.258
421.594, 2056.411
422.938, 2971.150
424.281, 3586.297
425.624, 3831.665
426.967, 3347.087
428.310, 2712.535
429.652, 1767.971
430.994, 1363.395
432.336, 928.808
433.678, 654.209
435.020, 489.598
436.361, 424.980
437.702, 270.352
439.043, 325.713
440.383, 161.060
441.724, 346.393
443.064, 261.704
444.404, 256.996
445.743, 162.267
447.083, 257.545
448.422, 102.798
449.761, 188.044
451.100, 183.261
452.438, 228.452
453.777, 173.653
455.115, 198.828
456.453, 212.594
457.790, 89.115
459.128, 204.225
460.465, 309.307
461.802, 214.361
463.139, 279.388
464.475, 224.390
465.811, 359.364
467.147, 384.318
468.483, 509.246
469.819, 544.146
471.154, 719.021
472.489, 813.869
473.824, 918.689
475.159, 1003.481
476.493, 1428.247
477.827, 1432.983
479.161, 1477.694
480.495, 1612.378
481.829, 1517.033
483.162, 1641.661
484.495, 1576.262
485.828, 1430.836
487.161, 1505.382
488.493, 1269.901
489.825, 1214.394
491.157, 1218.858
492.489, 1043.296
493.820, 937.708
495.151, 992.092
496.482, 886.450
497.813, 840.780
499.144, 755.085
500.474, 689.365
501.804, 625.509
503.134, 557.848
504.464, 512.050
505.793, 406.227
507.123, 390.379
508.451, 244.510
509.780, 268.615
511.109, 332.695
512.437, 56.756
513.765, 170.783
515.093, 124.785
516.421, 199.018
517.748, 182.969
519.075, 33.105
520.402, 60.768
521.729, 114.896
523.055, 358.789
524.382, 72.650
525.708, 6.406
527.034, 70.240
528.359, 16.027
529.685, 22.209
531.010, 28.420
532.335, 75.633
533.659, 30.553
534.984, 23.512
536.308, 32.037
537.632, 51.854
538.956, 54.422
540.279, 28.475
541.603, 73.879
542.926, 2.527
544.249, 65.168
545.571, 159.035
546.894, 52.773
548.216, 133.414
549.538, 200.102
550.860, 2.975
552.181, 156.516
553.503, 36.711
554.824, 30.262
556.145, 123.744
557.465, 146.777
558.786, 31.438
560.106, 201.477
561.426, 34.404
562.746, 155.346
564.065, 148.174
565.385, 36.928
566.704, 86.061
568.023, 173.170
569.341, 146.088
570.660, 279.395
571.978, 199.129
573.296, 311.824
574.614, 95.068
575.931, 258.133
577.248, 320.820
578.565, 255.004
579.882, 337.598
581.199, 350.078
582.515, 378.449
583.831, 363.650
585.147, 446.635
586.463, 589.373
587.779, 622.203
589.094, 655.092
590.409, 847.934
591.724, 1080.541
593.038, 1243.283
594.353, 1737.076
595.667, 2589.580
596.981, 2992.705
598.295, 3894.844
599.608, 4506.908
600.922, 4978.959
602.235, 4721.371
603.547, 3773.348
604.860, 3112.951
606.172, 2344.857
607.485, 1890.666
608.797, 1852.383
610.108, 1324.070
611.420, 1194.471
612.731, 1046.004
614.042, 1017.977
615.353, 1174.334
616.664, 1115.393
617.974, 1007.021
619.284, 1128.723
620.594, 1450.180
621.904, 1402.066
623.213, 1683.850
624.523, 1836.826
625.832, 2148.188
627.141, 2429.512
628.449, 2821.508
629.758, 3022.754
631.066, 3083.961
632.374, 2975.137
633.681, 2996.273
634.989, 3077.373
636.296, 3608.432
637.603, 4249.451
638.910, 5380.434
640.217, 7071.377
641.523, 9402.285
642.829, 11153.148
644.135, 13173.980
645.441, 13094.766
646.747, 11715.518
648.052, 9566.227
649.357, 7196.906
650.662, 5557.541
651.967, 3798.139
653.271, 3238.697
654.575, 2319.221
655.879, 1989.703
657.183, 1620.148
658.486, 1400.557
659.790, 1070.926
661.093, 1081.256
662.396, 641.547
663.698, 901.803
665.001, 632.020
666.303, 592.199
667.605, 512.488
668.907, 442.590
670.209, 561.863
671.510, 331.609
672.811, 241.125
674.112, 361.770
675.413, 421.447
676.713, 337.953
678.013, 227.018
679.313, 276.293
680.613, 276.049
681.913, 305.068
683.212, 263.359
684.511, 285.773
685.810, 252.123
687.109, 247.152
688.407, 167.938
689.706, 216.734
691.004, 145.773
692.302, 94.035
693.599, 159.953
694.897, 206.027
696.194, 190.441
697.491, 91.426
698.788, 219.916
700.084, 7.361
701.380, 135.662
702.677, 164.340
703.972, 147.908
705.268, 188.139
706.564, 16.867
707.859, 26.158
709.154, 37.807
710.449, 149.656
711.743, 157.430
713.037, 255.443
714.332, 66.479
715.626, 257.791
716.919, 245.920
718.213, 57.064
719.506, 330.701
720.799, 48.531
722.092, 191.947
723.384, 0.758
724.677, 196.867
725.969, 104.346
727.261, 47.658
728.553, 269.881
729.844, 97.752
731.136, 134.730
732.427, 222.412
733.718, 119.826
735.008, 277.631
736.299, 94.770
737.589, 67.289
738.879, 130.088
740.169, 97.430
741.458, 144.736
742.748, 112.004
744.037, 90.848
745.326, 90.158
746.614, 135.215
747.903, 92.346
749.191, 39.445
750.479, 126.496
751.767, 53.516
753.055, 190.494
754.342, 147.443
755.629, 194.361
756.916, 91.252
758.203, 198.107
759.490, 75.062
760.776, 181.668
762.062, 21.629
763.348, 195.008
764.634, 161.617
765.919, 91.797
767.204, 174.682
768.489, 71.137
769.774, 32.441
771.059, 383.912
772.343, 120.242
773.627, 106.545
774.911, 212.820
776.195, 51.975
777.479, 59.939
778.762, 17.514
780.045, 173.984
781.328, 150.107
782.611, 36.209
783.893, 272.279
785.175, 308.324
786.457, 405.785
787.739, 211.785
789.021, 497.762
790.302, 273.713
791.583, 449.641
792.864, 475.547
794.145, 511.430
795.425, 437.293
796.706, 413.133
797.986, 457.480
799.266, 484.330
800.545, 520.525
801.825, 626.283
803.104, 622.020
804.383, 667.736
805.662, 623.434
806.940, 629.109
808.219, 464.768
809.497, 600.406
810.775, 506.027
812.053, 341.631
813.330, 347.215
814.608, 652.783
815.885, 118.334
817.162, 483.867
818.438, 579.387
819.715, 464.885
820.991, 20.371
822.267, 185.838
823.543, 251.289
824.818, 166.730
826.094, 232.160
827.369, 2.684
828.644, 262.713
829.919, 318.092
831.193, 213.475
832.468, 78.557
833.742, 153.840
835.016, 309.115
836.289, 214.459
837.563, 60.322
838.836, 74.943
840.109, 29.920
841.382, 325.186
842.654, 139.979
843.927, 55.025
845.199, 289.654
846.471, 123.914
847.743, 141.320
849.014, 93.545
850.286, 261.621
851.557, 12.234
852.828, 247.061
854.099, 47.748
855.369, 152.236
856.639, 113.150
857.909, 28.674
859.179, 46.037
860.449, 167.307
861.718, 285.992
862.988, 231.486
864.257, 11.449
865.525, 203.174
866.794, 58.217
868.062, 194.479
869.331, 479.578
870.599, 154.641
871.866, 391.676
873.134, 3.189
874.401, 399.865
875.668, 204.787
876.935, 405.596
878.202, 250.570
879.468, 55.176
880.735, 513.156
882.001, 118.354
883.267, 252.975
884.532, 67.771
885.798, 232.949
887.063, 266.623
888.328, 51.859
889.593, 87.203
890.857, 184.322
892.122, 259.213
893.386, 403.984
894.650, 318.977
895.913, 66.145
897.177, 558.648
898.440, 323.459
899.703, 148.482
900.966, 423.350
902.229, 287.139
903.491, 242.199
904.754, 396.613
906.016, 191.990
907.278, 117.211
908.539, 92.633
909.801, 267.678
911.062, 123.131
912.323, 170.727
913.584, 216.211
914.844, 67.305
916.105, 242.824
917.365, 88.332
918.625, 147.180
919.885, 230.816
921.144, 186.037
922.404, 176.906
923.663, 112.541
924.922, 18.064
926.180, 93.566
927.439, 120.738
928.697, 85.477
929.955, 73.514
931.213, 26.010
932.471, 89.713
933.728, 105.455
934.985, 380.508
936.242, 126.299
937.499, 77.891
938.756, 157.932
940.012, 133.777
941.269, 39.646
942.525, 265.541
943.780, 21.463
945.036, 87.406
946.291, 93.375
947.546, 209.369
948.801, 265.389
950.056, 351.438
951.311, 67.510
952.565, 383.609
953.819, 159.734
955.073, 295.887
956.327, 92.064
957.580, 258.271
958.834, 104.504
960.087, 210.766
961.339, 277.055
962.592, 373.367
963.845, 159.713
965.097, 406.086
966.349, 122.488
967.601, 398.922
968.852, 665.385
970.104, 221.949
971.355, 658.545
972.606, 435.020
973.857, 301.678
975.107, 558.367
976.358, 655.088
977.608, 801.838
978.858, 937.758
980.108, 824.602
981.357, 1111.473
982.607, 1098.410
983.856, 1165.377
985.105, 1732.379
986.353, 1429.500
987.602, 1926.650
988.850, 2350.355
990.098, 2217.584
991.346, 2663.066
992.594, 3290.365
993.841, 3597.701
995.089, 4592.465
996.336, 4789.881
997.583, 6057.365
998.829, 6627.273
1000.076, 7894.840
1001.322, 9595.184
1002.568, 10992.848
1003.814, 12690.551
1005.060, 13678.303
1006.305, 15356.160
1007.550, 16638.613
1008.795, 17365.316
1010.040, 17583.326
1011.285, 17351.391
1012.529, 15549.547
1013.773, 14897.814
1015.017, 12965.662
1016.261, 11474.041
1017.505, 9992.520
1018.748, 8591.062
1019.991, 7689.686
1021.234, 6428.350
1022.477, 5777.084
1023.719, 5255.785
1024.962, 4584.660
1026.204, 4103.568
1027.446, 3662.555
1028.688, 3681.580
1029.929, 3360.654
1031.170, 3599.801
1032.411, 3688.977
1033.652, 3918.248
1034.893, 3767.557
1036.134, 4206.898
1037.374, 4496.400
1038.614, 5015.934
1039.854, 5225.549
1041.094, 5855.236
1042.333, 6264.957
1043.572, 6764.727
1044.811, 7186.607
1046.050, 7492.764
1047.289, 7972.652
1048.527, 8492.574
1049.766, 8942.533
1051.004, 10012.531
1052.241, 11542.570
1053.479, 12662.652
1054.717, 14622.773
1055.954, 17232.924
1057.191, 19563.111
1058.428, 20073.328
1059.664, 20703.584
1060.901, 19353.871
1062.137, 17084.223
1063.373, 14264.605
1064.609, 11955.041
1065.844, 9585.504
1067.080, 7820.293
1068.315, 5836.574
1069.550, 5047.172
1070.785, 4017.805
1072.019, 3368.492
1073.254, 2689.207
1074.488, 2269.957
1075.722, 2160.734
1076.955, 1708.641
1078.189, 1557.742
1079.422, 1447.244
1080.656, 947.861
1081.889, 1228.830
1083.121, 1079.830
1084.354, 880.885
1085.586, 1011.971
1086.818, 841.643
1088.050, 982.789
1089.282, 773.963
1090.514, 525.451
1091.745, 706.682
1092.976, 747.938
1094.207, 819.223
1095.438, 790.527
1096.668, 642.137
1097.899, 1173.494
1099.129, 984.873
1100.359, 1076.555
1101.588, 1387.984
1102.818, 1109.434
1104.047, 1620.904
1105.276, 2052.396
1106.505, 2063.906
1107.734, 2085.561
1108.962, 2137.113
1110.191, 2118.686
1111.419, 2093.199
1112.647, 2081.889
1113.874, 1994.598
1115.102, 1906.252
1116.329, 1858.832
1117.556, 1837.291
1118.783, 1838.990
1120.010, 1721.199
1121.236, 1753.920
1122.463, 1276.002
1123.689, 1278.535
1124.914, 1300.373
1126.140, 722.383
1127.366, 1311.066
1128.591, 702.951
1129.816, 951.990
1131.041, 843.893
1132.266, 616.854
1133.490, 788.977
1134.714, 500.908
1135.938, 323.621
1137.162, 918.490
1138.386, 341.064
1139.609, 593.799
1140.833, 376.686
1142.056, 30.021
1143.279, 533.330
1144.501, 62.914
1145.724, 395.914
1146.946, 310.336
1148.168, 246.914
1149.390, 349.465
1150.612, 293.465
1151.833, 175.506
1153.054, 363.340
1154.275, 38.020
1155.496, 291.646
1156.717, 291.021
1157.937, 153.064
1159.158, 252.443
1160.378, 715.297
1161.598, 47.465
1162.817, 529.758
1164.037, 126.799
1165.256, 438.781
1166.475, 530.264
1167.694, 214.826
1168.913, 417.340
1170.131, 723.760
1171.349, 276.467
1172.567, 788.852
1173.785, 527.094
1175.003, 429.379
1176.220, 725.076
1177.438, 508.846
1178.655, 820.875
1179.872, 796.285
1181.088, 819.709
1182.305, 1261.414
1183.521, 882.266
1184.737, 1243.988
1185.953, 1517.252
1187.169, 1870.387
1188.384, 1872.867
1189.599, 1878.250
1190.814, 1110.109
1192.029, 1532.613
1193.244, 1217.961
1194.459, 1199.738
1195.673, 1143.555
1196.887, 1166.598
1198.101, 958.383
1199.314, 1152.625
1200.528, 715.133
1201.741, 1286.926
1202.954, 990.250
1204.167, 652.449
1205.380, 1224.375
1206.592, 576.820
1207.805, 878.617
1209.017, 710.684
1210.229, 402.484
1211.440, 1024.840
1212.652, 497.387
1213.863, 559.832
1215.074, 741.609
1216.285, 534.383
1217.496, 666.160
1218.707, 458.383
1219.917, 460.148
1221.127, 681.906
1222.337, 404.727
1223.547, 477.238
1224.756, 290.238
1225.966, 545.805
1227.175, 638.125
1228.384, 350.555
1229.592, 258.000
1230.801, 629.379
1232.009, 681.617
1233.217, 304.035
1234.425, 505.340
1235.633, 197.156
1236.841, 728.730
1238.048, 319.887
1239.255, 300.988
1240.462, 841.953
1241.669, 222.871
1242.876, 314.281
1244.082, 464.973
1245.288, 236.023
1246.494, 326.773
1247.700, 627.105
1248.906, 517.285
1250.111, 387.430
1251.316, 337.621
1252.521, 298.000
1253.726, 437.832
1254.931, 368.203
1256.135, 758.465
1257.339, 367.992
1258.543, 90.055
1259.747, 849.449
1260.951, 608.773
1262.154, 231.961
1263.357, 737.250
1264.560, 246.293
1265.763, 161.652
1266.966, 320.559
1268.168, 219.457
1269.371, 438.965
1270.573, 357.668
1271.775, 42.945
1272.976, 555.578
1274.178, 45.965
1275.379, 683.082
1276.580, 161.277
1277.781, 250.629
1278.982, 647.926
1280.182, 235.676
1281.383, 33.332
1282.583, 281.816
1283.783, 249.281
1284.982, 218.078
1286.182, 145.352
1287.381, 142.383
1288.580, 40.684
1289.779, 206.285
1290.978, 63.164
1292.177, 280.855
1293.375, 9.773
1294.573, 86.324
1295.771, 463.480
1296.969, 170.477
1298.166, 55.379
1299.364, 131.109
1300.561, 33.277
##END=



