##NAMES=Montebrasite
##RRUFFID=R040060
##IDEAL CHEMISTRY=LiAlPO_4_(OH)
##LOCALITY=Oxford County, Maine, USA
##OWNER=RRUFF
##SOURCE=University of Arizona Mineral Museum
##DESCRIPTION=White massive
##STATUS=The identification of this mineral has been confirmed by X-ray diffraction and chemical analysis
##URL=rruff.info/R040060
##MEASURED CHEMISTRY=LiAl(PO_4_)((OH)_0.79_F_0.21_)
##PIN_ID=L00218
##ORIENTATION=Laser parallel to -c* (0 0 -1). Fiducial mark perpendicular to laser is parallel to a [1 0 0]
109.998, 0.000
111.393, 8.386
112.787, 466.323
114.182, 1364.571
115.576, 1826.203
116.970, 2165.474
118.363, 2491.671
119.757, 1841.900
121.150, 1192.438
122.543, 786.739
123.936, 653.623
125.328, 624.104
126.720, 761.440
128.112, 1044.772
129.504, 1583.354
130.896, 2207.434
132.287, 2951.289
133.678, 3617.413
135.069, 4096.508
136.460, 4228.626
137.850, 4266.405
139.240, 3768.424
140.630, 3105.597
142.020, 2220.896
143.410, 1568.458
144.799, 1015.811
146.188, 631.321
147.577, 482.650
148.965, 196.352
150.354, 181.803
151.742, 29.132
153.130, 93.449
154.517, 97.860
155.905, 242.461
157.292, 267.337
158.679, 434.563
160.066, 550.477
161.452, 770.716
162.839, 945.730
164.225, 1237.688
165.611, 1415.262
166.996, 1583.485
168.381, 1814.387
169.767, 1927.996
171.152, 1891.456
172.536, 1800.889
173.921, 1634.347
175.305, 1442.521
176.689, 1312.541
178.073, 1191.347
179.456, 1204.677
180.839, 1081.339
182.222, 1185.585
183.605, 1219.589
184.988, 1299.119
186.370, 1458.563
187.752, 1519.947
189.134, 1558.359
190.516, 1719.793
191.898, 1709.247
193.279, 1880.720
194.660, 1977.235
196.041, 1996.836
197.421, 1823.542
198.801, 1656.363
200.182, 1404.303
201.561, 1286.361
202.941, 971.536
204.321, 715.824
205.700, 471.221
207.079, 334.721
208.457, 145.319
209.836, 32.010
211.214, 73.787
212.592, 43.644
213.970, 7.427
215.348, 33.569
216.725, 104.625
218.102, 103.737
219.479, 202.899
220.856, 185.107
222.232, 263.358
223.608, 292.647
224.984, 281.972
226.360, 301.329
227.736, 354.705
229.111, 291.424
230.486, 289.112
231.861, 246.571
233.236, 153.698
234.610, 202.807
235.984, 132.514
237.358, 49.446
238.732, 26.296
240.105, 6.176
241.479, 33.669
242.852, 147.319
244.224, 125.883
245.597, 124.437
246.969, 142.991
248.342, 198.544
249.713, 177.105
251.085, 169.678
252.457, 195.261
253.828, 199.855
255.199, 172.457
256.570, 167.066
257.940, 89.702
259.310, 50.452
260.681, 1.603
262.050, 70.438
263.420, 102.029
264.790, 309.370
266.159, 485.479
267.528, 649.452
268.896, 962.394
270.265, 1470.352
271.633, 1883.323
273.001, 2385.309
274.369, 2963.309
275.737, 3283.820
277.104, 3377.663
278.471, 3291.492
279.838, 3113.792
281.205, 2835.441
282.572, 2409.362
283.938, 2324.493
285.304, 2236.793
286.670, 2404.226
288.035, 2656.762
289.401, 3332.380
290.766, 4388.063
292.131, 6023.797
293.495, 8319.566
294.860, 11005.356
296.224, 13841.157
297.588, 16026.954
298.952, 17162.744
300.315, 17048.525
301.679, 15724.292
303.042, 13900.035
304.405, 11775.757
305.767, 10071.457
307.130, 8637.134
308.492, 7542.779
309.854, 6848.377
311.216, 6263.910
312.578, 5779.365
313.939, 5224.745
315.300, 4780.055
316.661, 4315.300
318.021, 4022.482
319.382, 3983.608
320.742, 3783.681
322.102, 3623.702
323.462, 3508.675
324.821, 3070.592
326.181, 2804.462
327.540, 2296.245
328.899, 1943.989
330.257, 1559.696
331.616, 1247.367
332.974, 1134.003
334.332, 848.606
335.690, 761.177
337.047, 491.714
338.405, 430.216
339.762, 406.649
341.119, 363.886
342.475, 290.890
343.832, 304.612
345.188, 223.061
346.544, 166.218
347.900, 150.124
349.255, 59.903
350.610, 104.654
351.965, 12.403
353.320, 10.138
354.675, 73.857
356.029, 75.572
357.384, 68.490
358.738, 108.486
360.091, 106.500
361.445, 185.104
362.798, 138.371
364.151, 144.728
365.504, 196.407
366.857, 175.997
368.209, 264.082
369.561, 196.776
370.913, 314.008
372.265, 366.142
373.617, 332.249
374.968, 407.212
376.319, 356.139
377.670, 482.276
379.021, 485.633
380.371, 498.028
381.721, 628.286
383.071, 605.633
384.421, 618.750
385.770, 723.467
387.120, 662.158
388.469, 784.857
389.818, 802.546
391.166, 825.230
392.515, 910.924
393.863, 917.617
395.211, 1041.297
396.559, 1024.021
397.906, 1047.809
399.254, 1058.646
400.601, 1134.472
401.948, 1040.696
403.294, 1062.475
404.641, 1071.316
405.987, 1041.997
407.333, 1010.259
408.679, 1151.231
410.025, 1137.140
411.370, 1172.390
412.715, 1340.082
414.060, 1539.162
415.405, 1512.629
416.749, 1802.799
418.093, 2077.690
419.437, 2641.908
420.781, 3622.980
422.125, 5170.519
423.468, 7441.333
424.811, 9973.872
426.154, 12076.481
427.497, 12959.087
428.839, 12121.686
430.182, 10144.282
431.524, 7836.875
432.866, 5659.466
434.207, 4132.055
435.549, 2928.658
436.890, 2113.257
438.231, 1726.855
439.572, 1292.446
440.912, 977.023
442.252, 944.589
443.593, 815.140
444.932, 635.672
446.272, 597.186
447.611, 592.678
448.951, 452.152
450.290, 442.604
451.628, 434.033
452.967, 447.438
454.305, 295.817
455.644, 352.169
456.981, 362.496
458.319, 316.794
459.657, 438.066
460.994, 405.309
462.331, 432.523
463.668, 485.710
465.004, 585.867
466.341, 547.996
467.677, 659.095
469.013, 764.166
470.348, 932.208
471.684, 1162.220
473.019, 1342.203
474.354, 1639.158
475.689, 2066.083
477.024, 2428.980
478.358, 2868.849
479.692, 3299.688
481.026, 3651.499
482.360, 3853.283
483.694, 4095.039
485.027, 4176.765
486.360, 4028.462
487.693, 4090.133
489.026, 3891.774
490.358, 3783.388
491.691, 3754.974
493.023, 3486.532
494.354, 3498.061
495.686, 3289.562
497.017, 3171.035
498.349, 2936.479
499.680, 2701.896
501.010, 2407.284
502.341, 2146.644
503.671, 1901.977
505.001, 1576.285
506.331, 1402.567
507.661, 1118.583
508.990, 955.506
510.319, 783.339
511.648, 626.939
512.977, 496.905
514.306, 387.729
515.634, 357.790
516.962, 160.862
518.290, 140.761
519.618, 136.231
520.945, 15.663
522.273, 75.989
523.600, 53.842
524.927, 6.900
526.253, 37.768
527.580, 29.743
528.906, 39.492
530.232, 64.032
531.558, 62.493
532.883, 68.251
534.208, 91.733
535.534, 7.491
536.858, 53.716
538.183, 12.923
539.508, 49.136
540.832, 84.448
542.156, 63.892
543.480, 121.308
544.803, 221.564
546.127, 238.719
547.450, 243.507
548.773, 252.532
550.096, 282.543
551.418, 297.171
552.741, 322.683
554.063, 281.530
555.385, 236.612
556.706, 217.214
558.028, 208.515
559.349, 194.394
560.670, 230.486
561.991, 165.531
563.312, 222.113
564.632, 229.055
565.952, 171.634
567.272, 260.950
568.592, 236.997
569.911, 345.068
571.231, 259.530
572.550, 333.203
573.869, 377.711
575.187, 445.050
576.506, 503.825
577.824, 607.862
579.142, 560.543
580.460, 613.224
581.778, 644.923
583.095, 820.291
584.412, 784.493
585.729, 847.535
587.046, 845.506
588.363, 944.308
589.679, 1069.462
590.995, 1289.650
592.311, 1505.008
593.627, 1801.283
594.942, 2145.961
596.258, 2820.596
597.573, 3661.186
598.888, 4431.596
600.202, 5452.488
601.517, 5843.672
602.831, 5984.009
604.145, 5394.384
605.459, 4734.662
606.772, 3895.515
608.086, 3335.957
609.399, 2636.043
610.712, 2315.832
612.024, 2090.639
613.337, 1756.142
614.649, 1786.765
615.961, 1773.055
617.273, 1793.396
618.585, 1966.532
619.896, 2136.694
621.208, 2470.745
622.519, 2859.754
623.829, 3488.724
625.140, 4217.649
626.450, 5136.533
627.761, 5735.373
629.071, 6324.171
630.380, 6452.926
631.690, 6301.638
632.999, 5800.307
634.308, 5508.933
635.617, 5317.514
636.926, 5436.053
638.235, 5894.549
639.543, 7203.000
640.851, 9011.410
642.159, 11809.774
643.466, 14888.097
644.774, 18386.375
646.081, 19964.605
647.388, 19452.797
648.695, 17280.947
650.002, 14139.050
651.308, 10997.107
652.614, 8475.122
653.920, 6263.092
655.226, 4741.020
656.531, 3638.903
657.837, 2916.741
659.142, 2254.536
660.447, 1796.286
661.752, 1541.991
663.056, 1305.652
664.360, 1154.270
665.664, 895.844
666.968, 830.374
668.272, 743.866
669.575, 585.316
670.879, 640.737
672.182, 427.129
673.484, 407.480
674.787, 392.582
676.089, 345.561
677.392, 338.478
678.694, 212.755
679.995, 271.322
681.297, 220.748
682.598, 197.899
683.899, 233.990
685.200, 229.535
686.501, 118.439
687.802, 126.783
689.102, 44.121
690.402, 99.195
691.702, 29.987
693.002, 54.824
694.301, 10.915
695.600, 16.077
696.899, 2.166
698.198, 14.890
699.497, 4.303
700.795, 18.086
702.093, 64.673
703.391, 27.368
704.689, 116.314
705.987, 28.471
707.284, 39.649
708.581, 37.910
709.878, 43.563
711.175, 83.276
712.472, 45.054
713.768, 17.646
715.064, 10.423
716.360, 13.209
717.656, 43.243
718.951, 20.449
720.247, 29.375
721.542, 47.060
722.837, 60.542
724.131, 31.728
725.426, 7.354
726.720, 1.080
728.014, 65.116
729.308, 55.488
730.601, 65.967
731.895, 0.507
733.188, 103.846
734.481, 21.006
735.774, 1.780
737.067, 20.222
738.359, 67.483
739.651, 34.173
740.943, 94.448
742.235, 97.543
743.526, 119.381
744.818, 74.629
746.109, 69.355
747.400, 58.023
748.691, 24.615
749.981, 105.899
751.271, 46.176
752.562, 112.709
753.851, 145.799
755.141, 70.873
756.431, 55.110
757.720, 131.287
759.009, 110.411
760.298, 122.482
761.587, 60.745
762.875, 82.451
764.163, 139.359
765.451, 201.393
766.739, 185.200
768.027, 249.981
769.314, 209.703
770.601, 277.368
771.888, 252.987
773.175, 301.562
774.462, 272.091
775.748, 413.575
777.034, 430.016
778.320, 512.861
779.606, 475.215
780.892, 597.524
782.177, 649.791
783.462, 652.015
784.747, 834.195
786.032, 976.333
787.317, 1118.429
788.601, 1310.482
789.885, 1452.493
791.169, 1724.463
792.453, 1936.392
793.736, 2428.276
795.019, 2730.123
796.303, 3071.928
797.585, 3353.689
798.868, 3525.414
800.151, 3517.096
801.433, 3778.738
802.715, 3640.342
803.997, 3471.904
805.279, 3433.430
806.560, 3184.914
807.841, 2916.359
809.122, 2757.766
810.403, 2399.133
811.684, 2360.462
812.964, 2061.754
814.245, 1973.007
815.525, 1824.224
816.804, 1565.403
818.084, 1396.545
819.363, 1347.649
820.643, 1128.719
821.922, 969.751
823.201, 890.747
824.479, 731.707
825.758, 702.631
827.036, 573.521
828.314, 514.374
829.592, 535.194
830.869, 415.980
832.147, 356.725
833.424, 276.914
834.701, 227.316
835.977, 157.479
837.254, 257.514
838.530, 227.690
839.807, 167.834
841.082, 157.503
842.358, 167.208
843.634, 126.137
844.909, 65.712
846.184, 34.478
847.459, 53.646
848.734, 1.888
850.008, 98.492
851.283, 75.938
852.557, 4.191
853.831, 31.410
855.105, 57.729
856.378, 61.093
857.651, 63.230
858.925, 56.131
860.197, 104.453
861.470, 0.897
862.743, 3.809
864.015, 28.123
865.287, 82.852
866.559, 85.574
867.831, 28.751
869.102, 32.718
870.373, 46.961
871.645, 36.779
872.915, 61.940
874.186, 70.293
875.457, 67.814
876.727, 43.823
877.997, 143.787
879.267, 40.368
880.536, 23.429
881.806, 8.560
883.075, 36.718
884.344, 64.943
885.613, 10.957
886.882, 20.399
888.150, 13.402
889.419, 7.424
890.687, 30.492
891.954, 62.274
893.222, 34.953
894.490, 6.526
895.757, 41.921
897.024, 99.512
898.291, 8.634
899.557, 16.699
900.824, 25.453
902.090, 58.424
903.356, 93.148
904.622, 5.743
905.888, 27.342
907.153, 28.813
908.418, 59.185
909.683, 26.842
910.948, 55.301
912.213, 113.673
913.477, 67.901
914.741, 30.108
916.005, 48.044
917.269, 43.491
918.533, 95.220
919.796, 66.134
921.060, 2.763
922.323, 91.495
923.585, 100.515
924.848, 59.438
926.111, 108.524
927.373, 77.541
928.635, 96.623
929.897, 24.295
931.158, 74.782
932.420, 103.858
933.681, 82.935
934.942, 132.011
936.203, 121.089
937.463, 50.168
938.724, 169.248
939.984, 118.329
941.244, 187.413
942.504, 196.501
943.764, 175.589
945.023, 164.683
946.282, 163.778
947.541, 192.878
948.800, 251.981
950.059, 221.087
951.317, 210.199
952.575, 249.317
953.833, 448.439
955.091, 437.567
956.349, 406.700
957.606, 465.838
958.864, 484.983
960.121, 654.137
961.377, 663.298
962.634, 1032.467
963.891, 1561.644
965.147, 1910.835
966.403, 2100.036
967.659, 1779.242
968.914, 1438.459
970.170, 1277.683
971.425, 1176.930
972.680, 1186.187
973.935, 1065.452
975.190, 1244.736
976.444, 1354.031
977.698, 1513.338
978.952, 1582.655
980.206, 1731.983
981.460, 1681.330
982.713, 1810.688
983.967, 2060.061
985.220, 2079.445
986.473, 2318.855
987.725, 2468.213
988.978, 2777.691
990.230, 3097.205
991.482, 3326.740
992.734, 3896.273
993.986, 4275.873
995.237, 4945.367
996.488, 5574.658
997.739, 6483.885
998.990, 7443.223
1000.241, 8631.549
1001.492, 9891.189
1002.742, 11760.791
1003.992, 13559.508
1005.242, 15989.012
1006.492, 18638.678
1007.741, 21208.463
1008.990, 24213.838
1010.239, 26643.719
1011.488, 27943.830
1012.737, 29063.039
1013.986, 27582.607
1015.234, 25722.641
1016.482, 23287.613
1017.730, 20077.957
1018.978, 17646.324
1020.225, 15194.580
1021.473, 13102.186
1022.720, 11472.624
1023.967, 10103.209
1025.213, 9149.926
1026.460, 8350.576
1027.706, 7838.861
1028.953, 7439.590
1030.198, 7250.354
1031.444, 7109.897
1032.690, 7500.691
1033.935, 7921.582
1035.180, 8539.393
1036.425, 9210.341
1037.670, 10240.449
1038.915, 11390.932
1040.159, 12951.712
1041.403, 14681.628
1042.647, 16990.121
1043.891, 18749.996
1045.135, 20681.035
1046.378, 21492.307
1047.621, 21109.135
1048.864, 20800.459
1050.107, 19661.830
1051.350, 19172.486
1052.592, 19103.953
1053.835, 19371.627
1055.077, 20613.018
1056.318, 22703.836
1057.560, 24974.641
1058.802, 26996.250
1060.043, 27477.916
1061.284, 27319.600
1062.525, 25131.307
1063.765, 21900.797
1065.006, 18781.818
1066.246, 15503.607
1067.486, 12834.245
1068.726, 10266.079
1069.966, 8475.922
1071.205, 7087.797
1072.445, 5999.719
1073.684, 5061.660
1074.923, 4393.623
1076.161, 3785.604
1077.400, 3547.606
1078.638, 3189.631
1079.876, 2821.226
1081.114, 2743.295
1082.352, 2425.385
1083.590, 2427.527
1084.827, 2129.689
1086.064, 2001.876
1087.301, 1814.082
1088.538, 1916.308
1089.775, 1538.681
1091.011, 1540.949
1092.247, 1513.237
1093.483, 1925.664
1094.719, 1637.991
1095.955, 1530.338
1097.190, 1552.704
1098.425, 1885.088
1099.660, 1937.774
1100.895, 2330.195
1102.130, 2462.635
1103.364, 3105.164
1104.598, 3527.643
1105.833, 4370.139
1107.066, 5122.975
1108.300, 5545.509
1109.534, 5818.617
1110.767, 5851.547
1112.000, 5344.137
1113.233, 5008.387
1114.466, 4651.010
1115.698, 4123.648
1116.930, 3756.543
1118.163, 3369.223
1119.394, 3124.956
1120.626, 2917.775
1121.858, 2850.570
1123.089, 2835.474
1124.320, 2628.231
1125.551, 2151.366
1126.782, 2124.602
1128.013, 1657.602
1129.243, 1551.567
1130.473, 1334.849
1131.703, 1138.377
1132.933, 1171.393
1134.163, 906.461
1135.392, 786.521
1136.621, 821.535
1137.850, 499.039
1139.079, 509.034
1140.308, 584.623
1141.536, 517.902
1142.765, 438.475
1143.993, 407.147
1145.221, 307.076
1146.448, 250.809
1147.676, 374.738
1148.903, 422.808
1150.130, 347.748
1151.357, 191.044
1152.584, 335.073
1153.810, 378.726
1155.037, 266.868
1156.263, 345.661
1157.489, 198.947
1158.715, 292.242
1159.940, 235.899
1161.166, 184.834
1162.391, 378.863
1163.616, 242.279
1164.841, 275.892
1166.065, 329.402
1167.290, 322.868
1168.514, 437.744
1169.738, 502.265
1170.962, 445.727
1172.185, 530.322
1173.409, 335.427
1174.632, 498.574
1175.855, 578.188
1177.078, 542.104
1178.301, 855.362
1179.523, 942.053
1180.746, 955.656
1181.968, 1330.010
1183.190, 1354.191
1184.412, 1607.562
1185.633, 1908.440
1186.855, 1992.203
1188.076, 2125.333
1189.297, 2316.496
1190.518, 2172.121
1191.738, 2457.852
1192.959, 2282.359
1194.179, 2236.660
1195.399, 2140.122
1196.619, 1758.810
1197.838, 1783.555
1199.058, 1691.219
1200.277, 1484.871
1201.496, 1548.725
1202.715, 1255.512
1203.934, 1198.572
1205.152, 1121.831
1206.371, 910.894
1207.589, 934.101
1208.807, 867.386
1210.024, 540.625
1211.242, 623.617
1212.459, 558.205
1213.677, 331.723
1214.894, 524.754
1216.110, 278.975
1217.327, 341.906
1218.543, 438.644
1219.760, 251.952
1220.976, 354.834
1222.192, 287.838
1223.407, 161.086
1224.623, 454.161
1225.838, 97.271
1227.053, 251.501
1228.268, 114.783
1229.483, 135.420
1230.697, 278.553
1231.912, 152.164
1233.126, 215.389
1234.340, 238.107
1235.554, 42.123
1236.767, 214.998
1237.981, 77.703
1239.194, 50.961
1240.407, 113.654
1241.620, 156.531
1242.832, 159.533
1244.045, 142.203
1245.257, 24.867
1246.469, 227.512
1247.681, 190.150
1248.893, 83.363
1250.104, 256.088
1251.315, 138.672
1252.527, 31.678
1253.738, 224.301
1254.948, 2.746
1256.159, 30.150
1257.369, 212.600
1258.579, 24.939
1259.789, 147.400
1260.999, 129.654
1262.209, 73.684
1263.418, 145.830
1264.628, 42.047
1265.837, 110.857
1267.046, 122.859
1268.254, 25.158
1269.463, 157.314
1270.671, 59.207
1271.879, 42.092
1273.087, 103.867
1274.295, 4.389
1275.502, 47.307
1276.710, 8.938
1277.917, 120.895
1279.124, 17.551
1280.331, 96.045
1281.537, 14.643
1282.744, 53.279
1283.950, 92.031
1285.156, 20.869
1286.362, 90.535
1287.568, 98.432
1288.773, 67.281
1289.978, 86.428
1291.184, 24.363
1292.389, 15.078
1293.593, 54.246
1294.798, 3.635
1296.002, 116.932
1297.206, 17.457
1298.410, 47.986
1299.614, 51.596
1300.818, 61.242
1302.021, 139.053
1303.225, 139.229
1304.428, 59.355
1305.631, 60.561
1306.833, 29.447
1308.036, 119.404
1309.238, 79.320
1310.440, 130.814
1311.642, 118.965
1312.844, 8.693
1314.045, 18.363
1315.247, 127.977
1316.448, 17.531
1317.649, 7.033
1318.850, 256.477
1320.051, 64.146
1321.251, 55.148
1322.451, 184.389
1323.651, 16.428
1324.851, 102.684
1326.051, 31.742
1327.251, 40.742
1328.450, 159.689
1329.649, 81.414
1330.848, 77.404
1332.047, 216.166
1333.245, 85.121
1334.444, 3.510
1335.642, 2.084
1336.840, 30.602
1338.038, 39.064
1339.236, 137.475
1340.433, 44.160
1341.630, 24.137
1342.828, 27.617
1344.025, 90.562
1345.221, 68.697
1346.418, 13.215
1347.614, 254.812
1348.810, 172.803
1350.006, 49.252
1351.202, 178.629
1352.398, 156.475
1353.593, 164.277
1354.789, 262.484
1355.984, 30.221
1357.179, 97.916
1358.373, 205.580
1359.568, 43.217
1360.762, 320.822
1361.956, 11.596
1363.150, 125.949
1364.344, 243.473
1365.538, 190.957
1366.731, 128.432
1367.924, 165.895
1369.117, 153.354
1370.310, 40.812
1371.503, 108.822
1372.695, 73.676
1373.888, 133.654
1375.080, 70.887
1376.272, 111.842
1377.464, 352.629
1378.655, 53.490
1379.847, 194.188
1381.038, 254.961
1382.229, 115.396
1383.420, 276.084
1384.610, 196.648
1385.801, 166.893
1386.991, 356.826
1388.181, 256.916
1389.371, 385.523
1390.561, 365.629
1391.750, 122.498
1392.940, 222.529
1394.129, 260.217
1395.318, 149.387
1396.507, 237.855
1397.696, 156.502
1398.884, 163.607
1400.072, 382.191
1401.260, 217.588
1402.448, 313.385
1403.636, 306.127
1404.824, 25.582
1406.011, 406.965
1407.198, 223.043
1408.385, 69.787
1409.572, 294.252
1410.758, 212.260
1411.945, 82.117
1413.131, 228.787
1414.317, 32.074
1415.503, 187.283
1416.689, 242.930
1417.874, 306.029
1419.060, 194.559
1420.245, 90.998
1421.430, 202.725
1422.615, 346.885
1423.799, 162.209
1424.984, 198.492
1426.168, 349.236
1427.352, 189.850
1428.536, 74.189
1429.720, 179.150
1430.903, 77.162
1432.087, 255.986
1433.270, 291.799
1434.453, 177.223
1435.635, 432.193
1436.818, 365.141
1438.001, 199.695
1439.183, 392.949
1440.365, 80.596
1441.547, 255.621
1442.728, 399.586
1443.910, 91.320
1445.091, 329.719
1446.272, 311.730
1447.453, 75.027
1448.634, 206.039
1449.815, 248.617
1450.995, 261.684
1452.176, 434.180
1453.356, 107.113
1454.535, 218.445
1455.715, 420.596
1456.895, 251.578
1458.074, 291.539
1459.253, 313.275
1460.432, 285.303
1461.611, 462.793
1462.790, 212.596
1463.968, 374.562
1465.146, 454.926
1466.324, 173.855
1467.502, 345.596
1468.680, 376.295
1469.858, 267.918
1471.035, 389.607
1472.212, 421.551
1473.389, 282.605
1474.566, 414.131
1475.742, 296.389
1476.919, 158.646
1478.095, 280.803
1479.271, 382.738
1480.447, 264.816
1481.623, 467.410
1482.798, 210.008
1483.974, 292.623
1485.149, 515.217
1486.324, 217.855
1487.499, 330.619
1488.674, 313.496
1489.848, 196.697
1491.022, 390.092
1492.196, 273.811
1493.370, 167.773
1494.544, 481.961
1495.718, 23.555
1496.891, 341.195
1498.064, 276.252
1499.237, 151.672
1500.410, 247.473
1501.583, 333.730
1502.755, 120.533
1503.928, 387.951
1505.100, 356.051
1506.272, 248.830
1507.443, 367.830
1508.615, 87.701
1509.786, 348.549
1510.958, 490.434
1512.129, 4.662
1513.300, 222.986
1514.470, 392.141
1515.641, 0.000
##END=



