##NAMES=Montebrasite
##RRUFFID=R060890
##IDEAL CHEMISTRY=LiAlPO_4_(OH)
##LOCALITY=Mount Marie, Paris, Maine, USA
##OWNER=RRUFF
##SOURCE=Bob Jenkins
##DESCRIPTION=Colorless massive
##STATUS=The identification of this mineral is confirmed by single-crystal X-ray diffraction and chemical analysis.
##URL=rruff.info/R060890
##MEASURED CHEMISTRY=Li_1.00_Al_1.00_(P_1.00_O_4_)(OH)_0.63_F_0.37_)_Î£=1_ ; Li not measured but estimated by stoichiometry
##PIN_ID=M01503
##ORIENTATION=Laser parallel to (-1 0 -1). Fiducial mark perpendicular to laser is parallel to b [0 1 0]
90.67800, 0.0000000E+00
91.91600, 93.77832
93.15500, 13.16382
94.39300, 151.4414
95.63100, 43.09253
96.86900, 4.938965
98.10600, 12.73706
99.34400, 52.50830
100.5810, 6.348633
101.8190, 39.58325
103.0560, 31.97412
104.2930, 81.28394
105.5290, 124.3105
106.7660, 331.9343
108.0020, 421.1548
109.2390, 448.0352
110.4750, 468.6121
111.7110, 595.7898
112.9460, 572.3845
114.1820, 791.2534
115.4170, 955.2939
116.6530, 1222.434
117.8880, 1397.618
119.1230, 1713.809
120.3580, 2037.979
121.5920, 2361.295
122.8270, 3026.048
124.0610, 3482.171
125.2950, 3934.780
126.5290, 4258.314
127.7630, 4808.335
128.9970, 5365.057
130.2300, 5519.386
131.4640, 5866.965
132.6970, 5655.396
133.9300, 5310.413
135.1630, 4848.048
136.3950, 4144.339
137.6280, 3447.313
138.8600, 2828.000
140.0920, 2291.422
141.3240, 1864.161
142.5560, 1525.557
143.7880, 1256.306
145.0190, 1080.864
146.2510, 973.2439
147.4820, 762.4578
148.7130, 673.5171
149.9440, 626.4321
151.1750, 553.1721
152.4050, 621.5781
153.6360, 583.1995
154.8660, 562.0977
156.0960, 548.2632
157.3260, 489.4075
158.5560, 528.3645
159.7850, 563.2842
161.0150, 603.1895
162.2440, 751.6831
163.4730, 845.2520
164.7020, 880.1912
165.9310, 891.7615
167.1590, 1044.792
168.3880, 1171.874
169.6160, 1064.434
170.8440, 1148.208
172.0720, 1212.849
173.3000, 1199.343
174.5280, 1198.008
175.7550, 1186.300
176.9820, 1222.635
178.2100, 1211.011
179.4370, 1258.425
180.6630, 1324.876
181.8900, 1344.361
183.1170, 1357.341
184.3430, 1284.423
185.5690, 1337.995
186.7950, 1357.592
188.0210, 1329.210
189.2470, 1389.850
190.4720, 1292.507
191.6970, 1277.183
192.9230, 1240.874
194.1480, 1142.581
195.3730, 1101.301
196.5970, 1082.032
197.8220, 955.7734
199.0460, 912.5217
200.2700, 887.2742
201.4940, 748.0264
202.7180, 617.7778
203.9420, 450.5430
205.1660, 266.3247
206.3890, 190.1052
207.6120, 152.8794
208.8350, 106.6487
210.0580, 115.4128
211.2810, 44.17236
212.5040, 7.071533
213.7260, 35.68042
214.9480, 13.42969
216.1700, 27.17578
217.3920, 1.918945
218.6140, 13.33960
219.8360, 13.39966
221.0570, 18.13745
222.2790, 5.125977
223.5000, 4.609375
224.7210, 4.657715
225.9410, 35.95288
227.1620, 0.2653810
228.3820, 53.39062
229.6030, 132.9783
230.8230, 6.624512
232.0430, 58.81201
233.2630, 34.27759
234.4820, 23.83081
235.7020, 21.44336
236.9210, 9.102295
238.1400, 11.90503
239.3590, 90.80688
240.5780, 20.09106
241.7970, 61.39307
243.0150, 75.64331
244.2340, 13.86108
245.4520, 28.49829
246.6700, 23.65210
247.8880, 8.779785
249.1060, 9.890137
250.3230, 45.01147
251.5400, 13.92798
252.7580, 32.87109
253.9750, 80.81958
255.1920, 41.78125
256.4080, 104.7446
257.6250, 32.70776
258.8410, 126.6643
260.0580, 179.6121
261.2740, 282.5500
262.4900, 275.4773
263.7050, 356.3933
264.9210, 321.2971
266.1360, 407.1895
267.3520, 430.0698
268.5670, 564.9380
269.7820, 695.7910
270.9960, 718.6282
272.2110, 824.4460
273.4250, 896.2424
274.6400, 992.0139
275.8540, 1182.757
277.0680, 1248.471
278.2810, 1542.156
279.4950, 1790.814
280.7090, 2097.447
281.9220, 2519.057
283.1350, 2908.645
284.3480, 3570.213
285.5610, 4312.761
286.7730, 5127.291
287.9860, 6453.806
289.1980, 7990.303
290.4100, 9818.786
291.6220, 12069.25
292.8340, 14616.71
294.0460, 17086.16
295.2570, 19619.59
296.4690, 22518.01
297.6800, 25067.41
298.8910, 28461.78
300.1020, 30369.12
301.3120, 32129.40
302.5230, 32307.66
303.7330, 31428.88
304.9440, 29076.04
306.1540, 26476.18
307.3630, 24054.22
308.5730, 21877.17
309.7830, 20019.08
310.9920, 18346.96
312.2010, 16878.76
313.4100, 15130.47
314.6190, 13558.14
315.8280, 11951.98
317.0370, 10527.61
318.2450, 9097.875
319.4530, 7863.506
320.6610, 7058.143
321.8690, 6339.784
323.0770, 5740.430
324.2850, 5295.082
325.4920, 4981.740
326.6990, 4661.404
327.9060, 4405.074
329.1130, 4169.749
330.3200, 3869.429
331.5270, 3744.115
332.7330, 3503.806
333.9390, 3428.502
335.1450, 3125.204
336.3510, 3000.911
337.5570, 2871.623
338.7630, 2756.340
339.9680, 2662.062
341.1740, 2558.791
342.3790, 2474.524
343.5840, 2363.262
344.7890, 2347.005
345.9930, 2362.753
347.1980, 2272.507
348.4020, 2299.265
349.6060, 2336.030
350.8100, 2300.799
352.0140, 2327.574
353.2180, 2349.354
354.4210, 2340.140
355.6250, 2339.931
356.8280, 2358.330
358.0310, 2464.790
359.2340, 2672.078
360.4360, 2678.744
361.6390, 2774.884
362.8410, 2786.044
364.0430, 2833.279
365.2450, 2898.068
366.4470, 3010.057
367.6490, 3054.907
368.8510, 2938.390
370.0520, 3037.337
371.2530, 3124.354
372.4540, 2956.643
373.6550, 2905.374
374.8560, 2872.403
376.0560, 2816.195
377.2570, 2711.951
378.4570, 2627.285
379.6570, 2411.313
380.8570, 2249.533
382.0570, 2177.570
383.2560, 2045.447
384.4560, 2004.386
385.6550, 1822.778
386.8540, 1711.595
388.0530, 1563.533
389.2520, 1506.363
390.4510, 1458.982
391.6490, 1380.068
392.8470, 1268.901
394.0450, 1146.701
395.2430, 1074.236
396.4410, 1007.251
397.6390, 1045.105
398.8360, 895.3259
400.0340, 740.6772
401.2310, 788.3911
402.4280, 689.2783
403.6250, 743.2729
404.8210, 683.2693
406.0180, 625.2681
407.2140, 484.2686
408.4100, 552.2720
409.6060, 597.2773
410.8020, 465.2852
411.9980, 467.2966
413.1930, 442.3105
414.3890, 484.3267
415.5840, 561.3457
416.7790, 678.5425
417.9740, 671.5706
419.1680, 825.6025
420.3630, 888.6416
421.5570, 1020.684
422.7510, 1156.730
423.9450, 1204.780
425.1390, 1315.844
426.3330, 1256.848
427.5270, 1307.994
428.7200, 1038.077
429.9130, 894.1653
431.1060, 647.2588
432.2990, 522.3589
433.4920, 387.4644
434.6840, 369.5742
435.8770, 226.6892
437.0690, 180.8101
438.2610, 138.9363
439.4530, 107.0857
440.6450, 110.2490
441.8360, 57.41724
443.0280, 83.59985
444.2190, 66.80371
445.4100, 57.02246
446.6010, 71.25098
447.7920, 2.485352
448.9820, 141.7253
450.1730, 107.9719
451.3630, 71.22949
452.5530, 15.49463
453.7430, 86.80249
454.9330, 1.120361
456.1230, 13.44922
457.3120, 15.79321
458.5010, 83.85498
459.6910, 36.47705
460.8800, 28.18066
462.0680, 6.189209
463.2570, 2.582031
464.4460, 89.98267
465.6340, 115.3960
466.8220, 140.8213
468.0100, 117.2610
469.1980, 128.7373
470.3860, 221.2236
471.5730, 189.7205
472.7600, 216.2432
473.9480, 336.7761
475.1350, 357.3364
476.3210, 327.9041
477.5080, 501.4819
478.6950, 459.0710
479.8810, 547.6816
481.0670, 455.3105
482.2530, 471.9514
483.4390, 616.6050
484.6250, 589.2690
485.8100, 640.9404
486.9960, 583.6221
488.1810, 624.7891
489.3660, 610.0117
490.5510, 674.7322
491.7360, 647.4619
492.9200, 664.2175
494.1050, 588.9800
495.2890, 652.7698
496.4730, 578.5669
497.6570, 764.3713
498.8400, 564.1912
500.0240, 647.0371
501.2070, 643.9026
502.3910, 607.7766
503.5740, 571.6621
504.7570, 513.5557
505.9400, 569.4614
507.1220, 453.3845
508.3050, 371.3171
509.4870, 388.2583
510.6690, 291.2129
511.8510, 282.1792
513.0330, 190.1584
514.2140, 226.1587
515.3960, 109.1707
516.5770, 102.1870
517.7580, 11.24927
518.9390, 64.32056
520.1200, 87.41772
521.3010, 109.5342
522.4810, 93.66699
523.6610, 47.81494
524.8420, 10.97461
526.0220, 37.14697
527.2010, 18.43506
528.3810, 15.98071
529.5610, 23.81592
530.7400, 4.089111
531.9190, 26.62622
533.0980, 53.33252
534.2770, 25.04126
535.4560, 25.74585
536.6340, 26.78320
537.8120, 98.15259
538.9910, 5.894287
540.1690, 59.63501
541.3460, 21.39453
542.5240, 27.15796
543.7020, 6.927246
544.8790, 41.30444
546.0560, 53.53687
547.2330, 81.77026
548.4100, 62.00439
549.5870, 123.2390
550.7630, 67.47412
551.9400, 102.7100
553.1160, 120.1777
554.2920, 29.41455
555.4680, 24.65088
556.6440, 17.95215
557.8190, 8.322266
558.9950, 17.21143
560.1700, 35.66162
561.3450, 3.808105
562.5200, 121.0537
563.6950, 35.39551
564.8690, 107.7539
566.0440, 99.37842
567.2180, 120.6943
568.3920, 30.15967
569.5660, 88.80420
570.7400, 25.51465
571.9130, 112.0254
573.0870, 66.74951
574.2600, 162.2856
575.4330, 185.6167
576.6060, 135.9976
577.7790, 198.6558
578.9520, 242.1387
580.1240, 312.7578
581.2960, 357.0342
582.4690, 332.3999
583.6410, 479.8594
584.8120, 515.8599
585.9840, 621.3145
587.1560, 724.5923
588.3270, 851.9575
589.4980, 997.2783
590.6690, 1118.758
591.8400, 1331.045
593.0110, 1574.581
594.1810, 1846.182
595.3510, 2194.222
596.5220, 2508.345
597.6920, 2903.370
598.8610, 3320.589
600.0310, 3668.932
601.2010, 3851.782
602.3700, 4104.452
603.5390, 3841.193
604.7080, 3739.450
605.8770, 3137.705
607.0460, 2707.983
608.2140, 2373.677
609.3830, 2153.622
610.5510, 1867.396
611.7190, 1796.330
612.8870, 1744.699
614.0550, 1735.558
615.2220, 1784.328
616.3900, 1921.578
617.5570, 2059.372
618.7240, 2266.431
619.8910, 2462.879
621.0580, 2881.506
622.2240, 3138.888
623.3910, 3745.273
624.5570, 4135.108
625.7230, 4714.416
626.8890, 5390.334
628.0550, 5909.944
629.2200, 6645.249
630.3860, 7312.970
631.5510, 7922.570
632.7160, 8484.121
633.8810, 9137.256
635.0460, 9928.270
636.2100, 10854.58
637.3750, 12287.74
638.5390, 14125.87
639.7030, 15942.06
640.8670, 18120.81
642.0310, 20475.83
643.1950, 22991.81
644.3580, 25186.66
645.5210, 26311.49
646.6850, 25597.36
647.8480, 23568.16
649.0100, 20102.95
650.1730, 16324.71
651.3350, 12906.55
652.4980, 10137.29
653.6600, 7894.999
654.8220, 6264.697
655.9840, 5160.377
657.1450, 4064.040
658.3070, 3422.684
659.4680, 2871.310
660.6300, 2459.917
661.7910, 2104.507
662.9510, 1905.077
664.1120, 1616.628
665.2730, 1549.161
666.4330, 1284.675
667.5930, 1100.168
668.7530, 1070.643
669.9130, 882.0977
671.0730, 793.5327
672.2320, 757.2749
673.3920, 689.8457
674.5510, 558.5942
675.7100, 547.2944
676.8690, 485.1987
678.0280, 472.6406
679.1860, 425.8267
680.3450, 375.8643
681.5030, 357.5928
682.6610, 390.1016
683.8190, 290.1816
684.9770, 234.3735
686.1340, 294.5449
687.2920, 240.6953
688.4490, 212.8252
689.6060, 262.9351
690.7630, 167.0234
691.9200, 69.09131
693.0760, 126.1362
694.2330, 173.1602
695.3890, 102.1631
696.5450, 69.14453
697.7010, 42.92871
698.8570, 71.85986
700.0130, 26.76855
701.1680, 114.6470
702.3230, 91.50439
703.4780, 87.33887
704.6330, 4.849121
705.7880, 21.91992
706.9430, 72.07422
708.0970, 54.80811
709.2520, 52.34619
710.4060, 69.00830
711.5600, 52.30859
712.7140, 66.50879
713.8670, 100.9204
715.0210, 88.48242
716.1740, 58.02148
717.3270, 73.53369
718.4800, 32.97852
719.6330, 4.449219
720.7860, 88.21387
721.9380, 1.576660
723.0910, 22.87109
724.2430, 3.960938
725.3950, 34.92969
726.5470, 95.11865
727.6980, 103.2837
728.8500, 77.42480
730.0010, 33.54102
731.1530, 70.62402
732.3040, 94.31885
733.4550, 46.07031
734.6050, 39.00195
735.7560, 14.07422
736.9060, 115.9355
738.0560, 66.77344
739.2060, 48.59961
740.3560, 54.21631
741.5060, 13.49170
742.6560, 104.7856
743.8050, 40.13867
744.9540, 38.93262
746.1030, 26.51172
747.2520, 62.83984
748.4010, 57.45068
749.5500, 51.69775
750.6980, 20.90088
751.8460, 57.16113
752.9950, 25.52734
754.1420, 96.73633
755.2900, 57.75342
756.4380, 48.25000
757.5850, 4.588867
758.7330, 8.996094
759.8800, 36.09570
761.0270, 35.12305
762.1730, 54.45654
763.3200, 80.41895
764.4670, 51.03906
765.6130, 62.15381
766.7590, 77.03076
767.9050, 9.788574
769.0510, 59.00732
770.1960, 24.22461
771.3420, 82.48047
772.4870, 32.83838
773.6320, 65.77588
774.7770, 73.36475
775.9220, 11.92871
777.0670, 22.54980
778.2110, 42.91309
779.3560, 74.34570
780.5000, 74.75537
781.6440, 108.1411
782.7880, 167.5059
783.9320, 78.84863
785.0750, 133.1704
786.2180, 99.47021
787.3620, 124.7490
788.5050, 67.00732
789.6480, 127.2437
790.7900, 175.4595
791.9330, 78.65430
793.0750, 202.8296
794.2170, 207.9849
795.3590, 139.1196
796.5010, 181.2344
797.6430, 222.3301
798.7850, 259.4058
799.9260, 293.4624
801.0670, 231.5000
802.2080, 253.5181
803.3490, 329.5176
804.4900, 253.4980
805.6310, 175.4609
806.7710, 255.4038
807.9110, 353.3301
809.0510, 325.2373
810.1910, 262.1309
811.3310, 298.0151
812.4710, 312.8853
813.6100, 233.7407
814.7490, 266.5830
815.8880, 205.4287
817.0270, 227.2583
818.1660, 260.0815
819.3050, 241.5815
820.4430, 202.6885
821.5820, 259.4707
822.7200, 276.2373
823.8580, 289.4189
824.9950, 198.7231
826.1330, 255.4434
827.2710, 204.1489
828.4080, 139.8398
829.5450, 236.2837
830.6820, 168.9453
831.8190, 105.5933
832.9560, 122.1616
834.0920, 102.5439
835.2280, 101.6006
836.3650, 82.72656
837.5010, 31.64648
838.6360, 46.20264
839.7720, 90.64844
840.9080, 103.0654
842.0430, 45.20312
843.1780, 13.36279
844.3130, 16.90186
845.4480, 22.02637
846.5830, 60.95850
847.7170, 1.868652
848.8520, 80.07471
849.9860, 16.80518
851.1200, 53.49951
852.2540, 84.74463
853.3870, 26.70020
854.5210, 69.81934
855.6540, 60.79102
856.7880, 0.9052730
857.9210, 22.29541
859.0540, 1.391602
860.1860, 63.06592
861.3190, 50.00391
862.4510, 9.211914
863.5840, 54.32959
864.7160, 54.47803
865.8480, 7.460938
866.9790, 64.62500
868.1110, 9.531250
869.2420, 31.71191
870.3740, 47.73779
871.5050, 2.987793
872.6360, 56.38281
873.7660, 9.548340
874.8970, 44.37939
876.0280, 91.10352
877.1580, 61.92139
878.2880, 18.49072
879.4180, 83.42969
880.5480, 6.392578
881.6770, 9.611816
882.8070, 3.806641
883.9360, 27.48633
885.0650, 51.00586
886.1940, 52.29688
887.3230, 91.83838
888.4520, 47.51318
889.5800, 0.9448240
890.7090, 30.11084
891.8370, 43.72266
892.9650, 31.38818
894.0930, 22.89697
895.2200, 48.62891
896.3480, 64.39941
897.4750, 70.84082
898.6020, 86.45264
899.7290, 56.73193
900.8560, 12.54492
901.9830, 45.94580
903.1090, 18.26514
904.2360, 19.10010
905.3620, 106.5811
906.4880, 122.1050
907.6140, 25.03760
908.7400, 132.0894
909.8650, 81.83105
910.9900, 13.72510
912.1160, 62.64160
913.2410, 30.49170
914.3660, 64.78564
915.4900, 162.7988
916.6150, 70.84424
917.7390, 72.01855
918.8640, 96.20508
919.9880, 206.3472
921.1120, 186.5576
922.2350, 96.78027
923.3590, 214.0156
924.4820, 69.17432
925.6060, 251.4365
926.7290, 182.7114
927.8520, 210.9995
928.9740, 205.3022
930.0970, 270.6191
931.2190, 206.9507
932.3420, 350.2969
933.4640, 274.6582
934.5860, 257.0347
935.7080, 310.4263
936.8290, 175.8330
937.9510, 273.2563
939.0720, 313.6963
940.1930, 397.1523
941.3140, 332.6250
942.4350, 340.1191
943.5560, 421.6309
944.6760, 365.1606
945.7960, 515.7065
946.9170, 502.2705
948.0370, 516.8530
949.1560, 530.4531
950.2760, 560.0723
951.3960, 623.7095
952.5150, 568.3652
953.6340, 619.0532
954.7530, 690.7603
955.8720, 732.4941
956.9910, 688.2471
958.1090, 802.0200
959.2280, 801.8130
960.3460, 849.6909
961.4640, 911.4590
962.5820, 953.3154
963.6990, 1080.199
964.8170, 1146.110
965.9340, 1247.044
967.0510, 1212.010
968.1690, 1355.997
969.2850, 1514.008
970.4020, 1522.066
971.5190, 1805.158
972.6350, 1867.276
973.7510, 1999.419
974.8670, 2176.608
975.9830, 2259.822
977.0990, 2358.077
978.2150, 2720.943
979.3300, 2950.231
980.4450, 3191.733
981.5600, 3669.135
982.6750, 4034.908
983.7900, 4356.383
984.9050, 5043.481
986.0190, 5574.024
987.1340, 6270.603
988.2480, 6996.221
989.3620, 7964.867
990.4750, 8979.557
991.5890, 10435.52
992.7020, 12314.70
993.8160, 13847.29
994.9290, 16099.58
996.0420, 18241.74
997.1550, 20594.66
998.2670, 23522.62
999.3800, 26458.61
1000.492, 29719.63
1001.604, 33594.69
1002.716, 37272.79
1003.828, 41347.52
1004.940, 45351.71
1006.051, 49077.77
1007.163, 52056.04
1008.274, 54218.35
1009.385, 55722.68
1010.496, 56038.66
1011.606, 55116.09
1012.717, 52987.95
1013.827, 49973.75
1014.937, 46375.11
1016.047, 42317.67
1017.157, 37938.18
1018.267, 33755.03
1019.377, 29680.93
1020.486, 26132.64
1021.595, 23056.73
1022.704, 20030.57
1023.813, 17838.44
1024.922, 15689.56
1026.030, 13706.22
1027.139, 12222.24
1028.247, 10925.76
1029.355, 10040.30
1030.463, 9102.421
1031.571, 8434.241
1032.678, 7852.439
1033.786, 7513.987
1034.893, 7197.043
1036.000, 7230.344
1037.107, 7056.350
1038.214, 7056.733
1039.321, 7132.153
1040.427, 7313.623
1041.533, 7591.126
1042.639, 8158.684
1043.745, 8623.277
1044.851, 9226.903
1045.957, 9867.581
1047.062, 10600.31
1048.168, 11688.07
1049.273, 12907.87
1050.378, 14571.71
1051.482, 16217.57
1052.587, 17929.46
1053.692, 20732.40
1054.796, 23277.36
1055.900, 26325.35
1057.004, 30041.38
1058.108, 33032.44
1059.212, 35848.54
1060.315, 38158.66
1061.418, 39205.80
1062.522, 39021.00
1063.625, 37203.22
1064.728, 34086.48
1065.830, 29718.77
1066.933, 25840.09
1068.035, 21273.44
1069.137, 17633.82
1070.239, 14362.24
1071.341, 11714.69
1072.443, 9828.166
1073.545, 8063.679
1074.646, 6784.269
1075.747, 5742.845
1076.848, 4936.453
1077.949, 4163.092
1079.050, 3534.765
1080.150, 3144.468
1081.251, 2842.203
1082.351, 2378.970
1083.451, 2146.768
1084.551, 1916.597
1085.651, 1621.305
1086.750, 1537.197
1087.850, 1330.682
1088.949, 1282.637
1090.048, 1234.622
1091.147, 1002.638
1092.246, 904.6846
1093.345, 804.7617
1094.443, 829.2056
1095.541, 709.6406
1096.639, 836.8672
1097.737, 690.6426
1098.835, 718.7441
1099.933, 767.0029
1101.030, 779.2910
1102.128, 860.0601
1103.225, 842.5269
1104.322, 794.9067
1105.419, 1012.625
1106.515, 1214.248
1107.612, 1196.714
1108.708, 1218.035
1109.804, 1205.558
1110.900, 1369.115
1111.996, 1330.847
1113.092, 1487.521
1114.187, 1454.207
1115.283, 1515.480
1116.378, 1624.932
1117.473, 1503.360
1118.568, 1622.344
1119.662, 1531.796
1120.757, 1454.611
1121.851, 1604.484
1122.946, 1395.311
1124.040, 1283.192
1125.134, 1247.128
1126.227, 1265.091
1127.321, 1120.093
1128.414, 1123.135
1129.508, 1017.202
1130.601, 1052.298
1131.693, 932.6143
1132.786, 961.7554
1133.879, 838.5391
1134.971, 713.2280
1136.064, 722.6973
1137.156, 603.3633
1138.248, 588.6396
1139.339, 462.0493
1140.431, 326.6934
1141.522, 219.0288
1142.614, 266.4062
1143.705, 269.8042
1144.796, 209.2476
1145.887, 178.1836
1146.977, 97.68848
1148.068, 179.5415
1149.158, 18.05762
1150.248, 39.39844
1151.338, 48.56006
1152.428, 83.06836
1153.518, 86.73193
1154.607, 91.41357
1155.696, 86.53955
1156.785, 25.26074
1157.874, 1.992676
1158.963, 64.77100
1160.052, 60.44434
1161.141, 42.38525
1162.229, 14.19385
1163.317, 58.18604
1164.405, 72.31836
1165.493, 40.91992
1166.581, 52.81689
1167.668, 73.73047
1168.756, 11.66113
1169.843, 57.69287
1170.930, 79.65332
1172.017, 81.62891
1173.103, 110.1938
1174.190, 123.6294
1175.276, 133.6509
1176.363, 152.8735
1177.449, 155.0703
1178.535, 53.99609
1179.620, 112.0762
1180.706, 109.1709
1181.791, 92.27783
1182.877, 143.3975
1183.962, 150.5293
1185.047, 191.6724
1186.131, 194.8296
1187.216, 187.1792
1188.300, 176.1792
1189.385, 171.3726
1190.469, 120.5757
1191.553, 146.7910
1192.637, 277.0171
1193.720, 211.2524
1194.804, 202.4985
1195.887, 173.7539
1196.970, 144.2866
1198.053, 157.2920
1199.136, 108.5747
1200.219, 181.8657
1201.301, 183.1650
1202.383, 123.4731
1203.465, 133.7886
1204.547, 31.88721
1205.629, 69.43311
1206.711, 52.76123
1207.792, 155.0962
1208.874, 143.4385
1209.955, 131.6260
1211.036, 144.6377
1212.117, 68.50488
1213.198, 73.87305
1214.278, 33.24658
1215.359, 61.37207
1216.439, 54.98926
1217.519, 35.64453
1218.599, 7.712402
1219.678, 31.07373
1220.758, 36.44043
1221.837, 22.81104
1222.917, 12.34326
1223.996, 6.435059
1225.075, 26.05664
1226.153, 20.68701
1227.232, 10.32422
1228.310, 34.96484
1229.389, 27.38037
1230.467, 20.72900
1231.545, 95.23828
1232.622, 36.74121
1233.700, 62.66016
1234.777, 1.049805
1235.855, 87.76221
1236.932, 35.48145
1238.009, 28.27393
1239.086, 49.95410
1240.162, 28.28320
1241.239, 66.48633
1242.315, 81.29248
1243.391, 29.14307
1244.467, 38.01318
1245.543, 39.98145
1246.619, 2.826660
1247.694, 29.75488
1248.769, 36.70410
1249.844, 29.32080
1250.919, 15.99951
1251.994, 39.97900
1253.069, 55.88232
1254.144, 39.99951
1255.218, 39.95361
1256.292, 62.90527
1257.366, 26.70703
1258.440, 111.7681
1259.514, 26.35010
1260.587, 21.71094
1261.661, 40.71436
1262.734, 6.970703
1263.807, 10.28027
1264.880, 18.23096
1265.952, 5.592773
1267.025, 32.67969
1268.097, 0.5400390
1269.170, 2.615234
1270.242, 72.21240
