##NAMES=Monticellite
##RRUFFID=R040115
##IDEAL CHEMISTRY=CaMgSiO_4_
##LOCALITY=Magnet Cove, Arkansas, USA
##OWNER=RRUFF
##SOURCE=University of Arizona Mineral Museum
##DESCRIPTION=Brown blebs in matrix
##STATUS=The identification of this mineral has been confirmed by X-ray diffraction and chemical analysis
##URL=rruff.info/R040115
##MEASURED CHEMISTRY=Ca_0.99_(Mg_0.85_ Fe_0.12_Mn_0.03_)Si_1.00_O_4_
##PIN_ID=M00321
##ORIENTATION=Laser parallel to a* (1 0 0). Fiducial mark perpendicular to laser is parallel to -b [0 -1 0]
96.858, 0.000
98.251, 1.159
99.644, 42.375
101.036, 17.499
102.428, 31.760
103.820, 40.485
105.212, 41.683
106.604, 108.700
107.995, 91.101
109.387, 115.783
110.777, 58.436
112.168, 108.792
113.559, 96.718
114.949, 167.149
116.339, 170.979
117.729, 243.099
119.119, 220.649
120.508, 162.615
121.897, 186.552
123.286, 270.385
124.675, 206.127
126.063, 251.878
127.452, 286.551
128.840, 312.424
130.228, 343.627
131.615, 383.916
133.003, 508.253
134.390, 670.508
135.777, 885.634
137.164, 1133.640
138.550, 1533.534
139.937, 1916.328
141.323, 2353.810
142.709, 2594.286
144.094, 2484.156
145.480, 2164.921
146.865, 1641.831
148.250, 1271.737
149.635, 887.635
151.019, 656.516
152.403, 448.427
153.788, 456.898
155.171, 324.768
156.555, 321.623
157.939, 321.482
159.322, 393.295
160.705, 490.916
162.088, 611.014
163.470, 861.237
164.853, 1105.772
166.235, 1450.726
167.617, 1722.774
168.998, 2026.557
170.380, 1942.269
171.761, 1704.702
173.142, 1264.115
174.523, 937.507
175.904, 636.878
177.284, 368.225
178.664, 228.552
180.044, 116.856
181.424, 85.157
182.803, 22.458
184.183, 33.234
185.562, 3.094
186.940, 52.575
188.319, 31.239
189.698, 16.897
191.076, 1.565
192.454, 22.094
193.831, 17.123
195.209, 10.672
196.586, 12.685
197.963, 30.333
199.340, 34.359
200.717, 29.009
202.093, 97.508
203.470, 104.020
204.846, 41.744
206.221, 56.463
207.597, 123.965
208.972, 99.080
210.347, 8.304
211.722, 68.251
213.097, 46.795
214.472, 74.326
215.846, 81.842
217.220, 54.791
218.594, 20.985
219.967, 17.672
221.341, 3.989
222.714, 32.181
224.087, 24.331
225.460, 7.958
226.832, 12.525
228.204, 1.472
229.577, 28.521
230.948, 5.935
232.320, 5.769
233.692, 9.386
235.063, 29.451
236.434, 47.642
237.805, 1.714
239.175, 10.768
240.545, 9.197
241.916, 9.041
243.286, 38.807
244.655, 78.711
246.025, 132.611
247.394, 203.488
248.763, 280.332
250.132, 306.146
251.501, 470.935
252.869, 524.700
254.237, 646.446
255.605, 842.175
256.973, 832.884
258.340, 806.575
259.708, 600.248
261.075, 544.901
262.442, 405.736
263.808, 347.266
265.175, 328.426
266.541, 332.766
267.907, 353.073
269.273, 406.475
270.639, 500.556
272.004, 424.621
273.369, 540.045
274.734, 493.478
276.099, 444.919
277.463, 267.361
278.828, 248.803
280.192, 220.323
281.556, 128.818
282.919, 86.877
284.283, 46.216
285.646, 75.909
287.009, 43.572
288.372, 8.943
289.734, 77.820
291.097, 34.438
292.459, 49.017
293.821, 93.881
295.183, 17.038
296.544, 67.075
297.905, 55.420
299.266, 60.453
300.627, 30.026
301.988, 55.965
303.348, 92.772
304.709, 89.255
306.069, 105.709
307.428, 98.975
308.788, 89.638
310.147, 96.626
311.507, 56.714
312.865, 65.864
314.224, 13.088
315.583, 17.291
316.941, 79.080
318.299, 49.137
319.657, 57.831
321.015, 85.730
322.372, 99.547
323.729, 134.607
325.086, 156.403
326.443, 141.609
327.800, 164.528
329.156, 158.296
330.512, 179.363
331.868, 144.240
333.224, 109.166
334.579, 84.150
335.935, 62.363
337.290, 72.806
338.645, 49.209
339.999, 119.647
341.354, 80.829
342.708, 58.548
344.062, 82.098
345.416, 14.634
346.769, 60.975
348.123, 120.658
349.476, 53.282
350.829, 8.859
352.182, 10.007
353.534, 15.767
354.887, 94.561
356.239, 3.370
357.591, 76.776
358.942, 59.192
360.294, 45.555
361.645, 100.899
362.996, 84.225
364.347, 133.533
365.698, 88.824
367.048, 113.099
368.398, 149.378
369.748, 108.636
371.098, 143.873
372.448, 150.090
373.797, 134.751
375.146, 141.934
376.495, 193.100
377.844, 228.248
379.192, 205.379
380.540, 323.515
381.889, 210.631
383.236, 322.729
384.584, 478.445
385.932, 481.361
387.279, 550.740
388.626, 837.055
389.973, 987.992
391.319, 1175.744
392.666, 1390.671
394.012, 1666.481
395.358, 1965.726
396.704, 2347.519
398.049, 2407.230
399.394, 2605.076
400.740, 2408.688
402.084, 2305.410
403.429, 1987.303
404.774, 1757.969
406.118, 1546.737
407.462, 1191.489
408.806, 951.226
410.150, 793.946
411.493, 665.651
412.836, 541.340
414.179, 454.014
415.522, 378.629
416.865, 305.352
418.207, 285.940
419.549, 224.551
420.891, 211.147
422.233, 235.728
423.575, 147.292
424.916, 40.842
426.257, 192.369
427.598, 93.879
428.939, 119.370
430.279, 103.843
431.619, 28.295
432.959, 30.724
434.299, 188.128
435.639, 204.766
436.978, 159.866
438.318, 188.162
439.657, 154.786
440.996, 96.175
442.334, 100.497
443.673, 32.761
445.011, 5.999
446.349, 62.407
447.687, 5.588
449.024, 115.671
450.361, 40.420
451.699, 2.526
453.036, 7.632
454.372, 17.400
455.709, 6.221
457.045, 4.407
458.381, 9.492
459.717, 21.307
461.053, 2.110
462.388, 64.684
463.724, 10.596
465.059, 53.303
466.394, 55.294
467.728, 7.035
469.063, 31.129
470.397, 14.814
471.731, 86.513
473.065, 8.984
474.398, 64.018
475.732, 63.917
477.065, 4.119
478.398, 75.336
479.731, 3.394
481.063, 15.674
482.396, 18.058
483.728, 23.827
485.060, 116.540
486.391, 48.683
487.723, 75.008
489.054, 70.313
490.385, 69.238
491.716, 69.862
493.047, 60.509
494.377, 51.973
495.708, 37.073
497.038, 24.401
498.368, 1.603
499.697, 23.826
501.027, 35.332
502.356, 75.865
503.685, 103.626
505.014, 125.626
506.342, 29.310
507.671, 116.833
508.999, 79.815
510.327, 16.434
511.655, 53.386
512.982, 41.248
514.310, 159.925
515.637, 52.743
516.964, 133.382
518.291, 91.299
519.617, 266.856
520.944, 291.279
522.270, 300.023
523.596, 540.678
524.921, 606.451
526.247, 939.088
527.572, 1216.997
528.897, 1559.719
530.222, 2019.383
531.547, 2035.071
532.871, 2110.743
534.196, 1777.399
535.520, 1419.040
536.844, 1270.664
538.167, 921.271
539.491, 723.450
540.814, 584.024
542.137, 487.583
543.460, 384.124
544.783, 364.651
546.105, 254.172
547.427, 294.684
548.749, 226.183
550.071, 196.941
551.393, 239.415
552.714, 250.879
554.035, 159.323
555.356, 166.847
556.677, 183.264
557.998, 169.674
559.318, 182.069
560.638, 228.450
561.958, 145.890
563.278, 132.247
564.597, 155.234
565.917, 213.562
567.236, 192.875
568.555, 253.174
569.874, 263.009
571.192, 267.729
572.511, 277.984
573.829, 270.226
575.147, 233.453
576.464, 251.667
577.782, 283.867
579.099, 256.291
580.416, 158.227
581.733, 208.387
583.050, 179.533
584.366, 93.157
585.683, 127.277
586.999, 97.290
588.315, 123.384
589.630, 220.414
590.946, 93.785
592.261, 153.183
593.576, 157.228
594.891, 27.260
596.206, 88.277
597.520, 124.282
598.834, 77.275
600.148, 43.175
601.462, 63.083
602.776, 97.408
604.089, 25.435
605.402, 73.078
606.715, 40.726
608.028, 164.639
609.341, 137.020
610.653, 96.681
611.965, 68.264
613.277, 7.581
614.589, 5.574
615.901, 56.656
617.212, 65.403
618.523, 36.434
619.834, 70.896
621.145, 33.481
622.456, 19.145
623.766, 39.380
625.076, 36.054
626.386, 8.580
627.696, 24.918
629.006, 21.586
630.315, 61.028
631.624, 3.561
632.933, 24.994
634.242, 144.430
635.551, 42.258
636.859, 114.788
638.167, 20.338
639.475, 128.304
640.783, 36.994
642.090, 93.428
643.398, 5.948
644.705, 43.222
646.012, 33.657
647.318, 3.946
648.625, 104.431
649.931, 17.814
651.237, 23.121
652.543, 31.331
653.849, 18.664
655.155, 80.066
656.460, 14.179
657.765, 126.519
659.070, 41.544
660.375, 59.833
661.679, 127.362
662.984, 62.110
664.288, 11.419
665.592, 15.071
666.895, 63.442
668.199, 17.209
669.502, 37.907
670.805, 72.126
672.108, 52.352
673.411, 3.451
674.713, 57.066
676.016, 95.356
677.318, 10.818
678.620, 57.284
679.921, 39.761
681.223, 20.239
682.524, 128.736
683.825, 93.766
685.126, 107.689
686.427, 136.147
687.727, 6.608
689.028, 65.070
690.328, 11.535
691.628, 170.001
692.927, 87.471
694.227, 98.943
695.526, 104.583
696.825, 184.847
698.124, 89.279
699.423, 62.715
700.721, 103.155
702.020, 88.598
703.318, 131.045
704.616, 105.496
705.913, 8.049
707.211, 28.407
708.508, 1.602
709.805, 85.333
711.102, 3.197
712.399, 131.276
713.695, 84.755
714.992, 156.239
716.288, 48.728
717.584, 2.778
718.879, 147.722
720.175, 19.773
721.470, 157.731
722.765, 189.243
724.060, 98.760
725.355, 138.284
726.649, 95.814
727.944, 127.353
729.238, 241.897
730.532, 195.794
731.825, 209.010
733.119, 170.578
734.412, 168.154
735.705, 103.738
736.998, 144.330
738.291, 253.931
739.584, 222.539
740.876, 281.160
742.168, 274.789
743.460, 160.427
744.752, 207.075
746.043, 286.732
747.334, 409.402
748.626, 240.085
749.916, 265.778
751.207, 233.159
752.498, 278.872
753.788, 401.595
755.078, 225.329
756.368, 366.039
757.658, 251.796
758.947, 295.566
760.237, 362.102
761.526, 312.904
762.815, 366.717
764.104, 407.549
765.392, 410.396
766.680, 572.261
767.969, 359.143
769.257, 617.385
770.544, 437.592
771.832, 554.539
773.119, 626.504
774.406, 661.485
775.693, 701.487
776.980, 607.503
778.267, 790.428
779.553, 749.253
780.839, 879.323
782.125, 850.028
783.411, 981.137
784.697, 955.223
785.982, 1084.364
787.267, 1107.020
788.552, 1251.203
789.837, 1351.591
791.122, 1477.626
792.406, 1617.865
793.690, 1762.354
794.974, 1955.639
796.258, 2192.236
797.542, 2609.572
798.825, 2834.152
800.108, 3516.545
801.391, 3997.960
802.674, 4731.756
803.957, 5546.227
805.239, 6733.720
806.522, 8289.229
807.804, 10046.758
809.085, 13379.939
810.367, 17484.514
811.649, 22666.045
812.930, 29938.674
814.211, 38100.609
815.492, 44934.309
816.772, 50265.016
818.053, 50725.008
819.333, 46847.941
820.613, 39437.363
821.893, 31964.168
823.173, 24769.990
824.452, 18916.828
825.732, 15159.514
827.011, 11609.397
828.290, 9523.425
829.568, 7801.143
830.847, 6480.068
832.125, 5667.256
833.403, 4868.202
834.681, 4140.386
835.959, 3541.286
837.236, 3179.354
838.514, 2955.254
839.791, 3022.631
841.068, 3180.761
842.345, 3268.912
843.621, 3984.084
844.898, 4751.279
846.174, 5795.494
847.450, 7165.731
848.726, 7814.992
850.001, 8220.687
851.277, 7592.990
852.552, 6243.316
853.827, 5078.666
855.102, 3938.037
856.376, 2955.432
857.651, 2545.850
858.925, 2170.289
860.199, 1754.482
861.473, 1371.969
862.746, 1238.472
864.020, 1247.004
865.293, 984.466
866.566, 1078.045
867.839, 814.647
869.112, 878.273
870.384, 607.922
871.656, 675.523
872.928, 581.222
874.200, 771.296
875.472, 605.041
876.744, 544.809
878.015, 561.602
879.286, 483.419
880.557, 555.259
881.828, 641.125
883.098, 593.027
884.369, 560.955
885.639, 633.907
886.909, 649.883
888.178, 721.885
889.448, 707.909
890.717, 1055.960
891.987, 1046.034
893.256, 1423.133
894.524, 1975.256
895.793, 2376.404
897.061, 3189.578
898.330, 3509.775
899.598, 3177.998
900.865, 2860.246
902.133, 2182.518
903.401, 1446.814
904.668, 1195.139
905.935, 836.486
907.202, 588.860
908.468, 521.259
909.735, 513.688
911.001, 431.143
912.267, 370.622
913.533, 330.127
914.799, 339.659
916.064, 200.215
917.330, 393.796
918.595, 153.401
919.860, 248.032
921.124, 303.701
922.389, 226.397
923.653, 207.122
924.918, 255.872
926.182, 292.647
927.445, 296.446
928.709, 321.272
929.972, 282.151
931.236, 339.056
932.499, 246.998
933.761, 352.968
935.024, 265.963
936.286, 222.982
937.549, 614.037
938.811, 477.117
940.073, 787.223
941.334, 956.354
942.596, 1325.510
943.857, 2051.691
945.118, 2593.896
946.379, 2778.136
947.640, 2895.397
948.900, 2611.697
950.161, 1849.276
951.421, 1322.633
952.681, 975.922
953.940, 745.332
955.200, 457.441
956.459, 259.906
957.719, 420.396
958.978, 234.907
960.236, 221.029
961.495, 95.595
962.753, 137.038
964.012, 11.656
965.270, 39.690
966.527, 184.627
967.785, 86.330
969.043, 97.066
970.300, 26.857
971.557, 30.323
972.814, 52.512
974.071, 68.632
975.327, 30.233
976.583, 8.123
977.840, 193.053
979.095, 8.988
980.351, 35.670
981.607, 38.301
982.862, 11.494
984.117, 62.433
985.372, 9.216
986.627, 104.277
987.882, 62.797
989.136, 64.895
990.390, 13.964
991.644, 113.209
992.898, 45.404
994.152, 7.620
995.405, 100.859
996.659, 144.133
997.912, 121.429
999.165, 153.751
1000.417, 173.097
1001.670, 148.765
1002.922, 161.669
1004.174, 120.438
1005.426, 156.902
1006.678, 163.388
1007.930, 187.895
1009.181, 151.421
1010.432, 102.969
1011.683, 200.538
1012.934, 94.129
1014.185, 181.751
1015.435, 199.395
1016.685, 131.059
1017.935, 199.652
1019.185, 254.445
1020.435, 239.170
1021.684, 147.913
1022.934, 157.677
1024.183, 270.460
1025.432, 191.267
1026.680, 273.091
1027.929, 265.937
1029.177, 238.800
1030.425, 204.684
1031.673, 228.586
1032.921, 317.717
1034.169, 162.660
1035.416, 351.622
1036.663, 425.603
1037.911, 240.602
1039.157, 288.619
1040.404, 302.654
1041.650, 321.708
1042.897, 515.780
1044.143, 272.869
1045.389, 374.977
1046.634, 394.102
1047.880, 193.243
1049.125, 237.403
1050.371, 143.581
1051.615, 457.776
1052.860, 160.989
1054.105, 396.218
1055.349, 172.466
1056.593, 173.729
1057.837, 161.009
1059.081, 310.525
1060.325, 150.839
1061.568, 217.169
1062.812, 134.516
1064.055, 176.878
1065.298, 211.258
1066.540, 192.652
1067.783, 107.062
1069.025, 54.489
1070.267, 242.664
1071.509, 28.122
1072.751, 146.596
1073.993, 185.084
1075.234, 93.589
1076.475, 66.107
1077.716, 181.720
1078.957, 104.915
1080.198, 148.479
1081.438, 128.057
1082.679, 114.649
1083.919, 265.255
1085.159, 90.876
1086.398, 140.510
1087.638, 14.157
1088.877, 156.818
1090.116, 114.493
1091.355, 51.183
1092.594, 65.013
1093.833, 77.727
1095.071, 76.455
1096.309, 44.195
1097.547, 45.949
1098.785, 97.565
1100.023, 73.166
1101.260, 13.678
1102.498, 84.071
1103.735, 85.168
1104.972, 148.371
1106.208, 40.115
1107.445, 13.871
1108.681, 5.363
1109.918, 154.408
1111.154, 10.808
1112.389, 80.978
1113.625, 117.624
1114.860, 99.462
1116.096, 178.306
1117.331, 40.560
1118.566, 93.052
1119.800, 117.851
1121.035, 77.999
1122.269, 120.827
1123.503, 124.564
1124.737, 146.531
1125.971, 116.377
1127.205, 129.813
1128.438, 41.460
1129.671, 119.156
1130.904, 23.835
1132.137, 153.812
1133.370, 203.731
1134.602, 129.994
1135.834, 25.017
1137.066, 45.901
1138.298, 216.794
1139.530, 38.345
1140.762, 257.470
1141.993, 41.387
1143.224, 56.312
1144.455, 61.620
1145.686, 55.561
1146.917, 145.946
1148.147, 191.901
1149.377, 51.864
1150.607, 178.845
1151.837, 15.821
1153.067, 53.803
1154.296, 136.791
1155.526, 140.786
1156.755, 75.787
1157.984, 135.806
1159.213, 88.819
1160.441, 162.840
1161.670, 209.737
1162.898, 224.770
1164.126, 242.377
1165.354, 272.830
1166.581, 218.898
1167.809, 276.954
1169.036, 248.063
1170.263, 153.079
1171.490, 194.171
1172.717, 157.247
1173.943, 151.327
1175.170, 174.413
1176.396, 60.504
1177.622, 307.600
1178.848, 109.699
1180.073, 39.490
1181.299, 237.592
1182.524, 164.677
1183.749, 207.768
1184.974, 192.860
1186.199, 142.959
1187.423, 141.062
1188.648, 163.169
1189.872, 159.279
1191.096, 149.394
1192.320, 97.512
1193.543, 142.636
1194.767, 227.763
1195.990, 90.894
1197.213, 203.027
1198.436, 63.164
1199.659, 282.306
1200.881, 80.450
1202.104, 212.599
1203.326, 110.751
1204.548, 328.906
1205.770, 0.935
1206.991, 192.218
1208.213, 210.372
1209.434, 212.529
1210.655, 69.689
1211.876, 134.854
1213.096, 104.021
1214.317, 210.192
1215.537, 117.366
1216.757, 25.456
1217.977, 217.700
1219.197, 68.876
1220.417, 113.057
1221.636, 160.240
1222.855, 75.426
1224.074, 37.617
1225.293, 91.191
1226.512, 183.947
1227.731, 130.089
1228.949, 146.234
1230.167, 65.383
1231.385, 106.534
1232.603, 142.688
1233.820, 194.844
1235.038, 57.003
1236.255, 225.163
1237.472, 156.326
1238.689, 37.490
1239.906, 311.655
1241.122, 60.821
1242.338, 189.990
1243.555, 202.156
1244.771, 14.318
1245.986, 190.224
1247.202, 2.618
1248.417, 166.634
1249.633, 204.791
1250.848, 5.265
1252.063, 162.396
1253.277, 172.514
1254.492, 61.634
1255.706, 182.168
1256.920, 142.282
1258.134, 109.531
1259.348, 30.366
1260.562, 130.724
1261.775, 249.181
1262.988, 26.735
1264.201, 47.663
1265.414, 144.377
1266.627, 101.410
1267.839, 154.448
1269.052, 116.472
1270.264, 25.507
1271.476, 134.541
1272.688, 11.422
1273.899, 80.592
1275.111, 33.071
1276.322, 23.933
1277.533, 43.177
1278.744, 54.188
1279.955, 4.209
1281.165, 105.230
1282.376, 64.270
1283.586, 108.305
1284.796, 36.659
1286.006, 16.365
1287.215, 158.390
1288.425, 60.416
1289.634, 44.557
1290.843, 65.456
1292.052, 11.530
1293.261, 131.479
1294.469, 101.486
1295.678, 38.504
1296.886, 86.493
1298.094, 178.408
1299.302, 45.406
1300.509, 161.405
1301.717, 168.405
1302.924, 33.406
1304.131, 105.406
1305.338, 48.407
1306.545, 36.592
1307.752, 91.397
1308.958, 117.389
1310.164, 91.379
1311.370, 84.370
1312.576, 298.362
1313.782, 196.354
1314.987, 174.346
1316.193, 31.339
1317.398, 257.332
1318.603, 98.326
1319.807, 274.321
1321.012, 197.318
1322.216, 341.316
1323.421, 209.316
1324.625, 0.683
1325.829, 219.112
1327.032, 137.117
1328.236, 269.125
1329.439, 144.136
1330.642, 34.150
1331.845, 168.170
1333.048, 186.191
1334.251, 242.219
1335.453, 97.250
1336.656, 148.286
1337.858, 96.329
1339.060, 141.376
1340.261, 59.428
1341.463, 190.485
1342.664, 229.549
1343.866, 114.618
1345.067, 172.695
1346.267, 115.777
1347.468, 209.868
1348.669, 34.968
1349.869, 310.073
1351.069, 196.969
1352.269, 148.093
1353.469, 292.227
1354.668, 234.372
1355.868, 281.527
1357.067, 403.695
1358.266, 95.874
1359.465, 298.066
1360.664, 242.273
1361.862, 215.763
1363.061, 394.130
1364.259, 266.385
1365.457, 178.654
1366.655, 308.944
1367.852, 269.256
1369.050, 291.508
1370.247, 349.218
1371.444, 229.600
1372.641, 226.009
1373.838, 277.201
1375.035, 277.395
1376.231, 272.266
1377.427, 286.903
1378.623, 206.109
1379.819, 233.232
1381.015, 117.356
1382.211, 162.530
1383.406, 210.268
1384.601, 218.517
1385.796, 302.763
1386.991, 326.294
1388.185, 270.125
1389.380, 231.584
1390.574, 271.900
1391.768, 227.220
1392.962, 228.547
1394.156, 263.799
1395.350, 260.458
1396.543, 258.719
1397.736, 146.021
1398.929, 338.182
1400.122, 239.697
1401.315, 319.838
1402.507, 263.999
1403.700, 282.663
1404.892, 358.970
1406.084, 296.809
1407.276, 276.826
1408.467, 262.007
1409.659, 173.482
1410.850, 296.701
1412.041, 474.153
1413.232, 221.337
1414.423, 428.521
1415.614, 330.691
1416.804, 315.127
1417.994, 397.272
1419.184, 389.417
1420.374, 240.563
1421.564, 414.679
1422.753, 293.824
1423.943, 365.968
1425.132, 178.113
1426.321, 366.269
1427.510, 405.442
1428.698, 366.615
1429.887, 290.791
1431.075, 277.967
1432.263, 315.141
1433.451, 234.313
1434.639, 442.486
1435.827, 292.656
1437.014, 184.825
1438.201, 506.992
1439.388, 475.175
1440.575, 390.355
1441.762, 380.531
1442.949, 250.702
1444.135, 409.889
1445.321, 315.027
1446.507, 485.157
1447.693, 264.277
1448.879, 336.490
1450.064, 420.693
1451.250, 318.890
1452.435, 193.079
1453.620, 442.264
1454.805, 354.444
1455.989, 346.621
1457.174, 421.819
1458.358, 231.039
1459.542, 415.250
1460.726, 371.536
1461.910, 326.920
1463.093, 456.322
1464.277, 313.811
1465.460, 174.314
1466.643, 364.898
1467.826, 142.601
1469.009, 425.379
1470.191, 240.218
1471.373, 250.122
1472.556, 318.100
1473.738, 438.106
1474.919, 247.147
1476.101, 296.238
1477.283, 376.383
1478.464, 232.566
1479.645, 298.798
1480.826, 226.074
1482.007, 123.403
1483.187, 418.787
1484.368, 293.232
1485.548, 270.744
1486.728, 171.329
1487.908, 295.993
1489.088, 188.743
1490.268, 457.588
1491.447, 315.537
1492.626, 85.603
1493.805, 159.788
1494.984, 284.098
1496.163, 192.536
1497.341, 171.106
1498.520, 238.812
1499.698, 157.656
1500.876, 215.652
1502.054, 75.812
1503.232, 78.155
1504.409, 53.307
1505.586, 65.452
1506.763, 135.450
1507.940, 170.715
1509.117, 186.270
1510.294, 201.146
1511.470, 257.374
1512.647, 205.001
1513.823, 189.080
1514.999, 177.594
1516.174, 118.054
1517.350, 20.836
1518.526, 180.772
1519.701, 20.583
1520.876, 68.254
1522.051, 25.815
1523.226, 0.586
1524.400, 0.000
##END=



