##NAMES=Montebrasite
##RRUFFID=R060890
##IDEAL CHEMISTRY=LiAlPO_4_(OH)
##LOCALITY=Mount Marie, Paris, Maine, USA
##OWNER=RRUFF
##SOURCE=Bob Jenkins
##DESCRIPTION=Colorless massive
##STATUS=The identification of this mineral is confirmed by single-crystal X-ray diffraction and chemical analysis.
##URL=rruff.info/R060890
##MEASURED CHEMISTRY=Li_1.00_Al_1.00_(P_1.00_O_4_)(OH)_0.63_F_0.37_)_Î£=1_ ; Li not measured but estimated by stoichiometry
##PIN_ID=M01307
##ORIENTATION=Laser parallel to -c* (0 0 -1). Fiducial mark perpendicular to laser is parallel to a [1 0 0]
90.67800, 0.0000000E+00
91.91600, 301.4971
93.15500, 278.4346
94.39300, 124.1211
95.63100, 467.5010
96.86900, 30.16406
98.10600, 24.47363
99.34400, 3.149414
100.5810, 89.61230
101.8190, 95.66309
103.0560, 201.7383
104.2930, 615.4551
105.5290, 976.4541
106.7660, 1641.439
108.0020, 2020.208
109.2390, 1566.874
110.4750, 1138.892
111.7110, 958.3750
112.9460, 1248.909
114.1820, 1457.120
115.4170, 1611.736
116.6530, 1742.565
117.8880, 1523.470
119.1230, 1589.347
120.3580, 1351.139
121.5920, 1456.836
122.8270, 1737.440
124.0610, 2148.012
125.2950, 2359.692
126.5290, 2563.882
127.7630, 3039.735
128.9970, 3571.063
130.2300, 3693.857
131.4640, 4068.463
132.6970, 3941.123
133.9300, 3448.625
135.1630, 3201.057
136.3950, 2783.510
137.6280, 2009.069
138.8600, 1858.811
140.0920, 1684.801
141.3240, 1038.098
142.5560, 927.7539
143.7880, 977.8184
145.0190, 741.3301
146.2510, 582.3301
147.4820, 658.8486
148.7130, 792.9160
149.9440, 714.3057
151.1750, 764.5566
152.4050, 1050.519
153.6360, 1081.106
154.8660, 1478.358
156.0960, 1611.749
157.3260, 2005.366
158.5560, 2142.925
159.7850, 2462.938
161.0150, 3049.949
162.2440, 3675.055
163.4730, 4246.427
164.7020, 4505.602
165.9310, 4859.512
167.1590, 5243.000
168.3880, 5185.930
169.6160, 5122.670
170.8440, 4968.502
172.0720, 4803.010
173.3000, 4549.896
174.5280, 4251.875
175.7550, 3860.840
176.9820, 3563.289
178.2100, 3224.828
179.4370, 2859.450
180.6630, 2674.149
181.8900, 2607.919
183.1170, 2262.756
184.3430, 2367.655
185.5690, 2232.609
186.7950, 2198.612
188.0210, 1998.658
189.2470, 1868.745
190.4720, 1801.457
191.6970, 1763.020
192.9230, 1665.199
194.1480, 1537.403
195.3730, 1515.631
196.5970, 1437.615
197.8220, 1422.137
199.0460, 1358.410
200.2700, 1429.692
201.4940, 1411.972
202.7180, 1131.239
203.9420, 822.4824
205.1660, 616.6953
206.3890, 486.9580
207.6120, 526.0293
208.8350, 403.1533
210.0580, 372.2510
211.2810, 490.3193
212.5040, 468.3633
213.7260, 456.3809
214.9480, 385.3730
216.1700, 327.3418
217.3920, 398.2881
218.6140, 403.2119
219.8360, 262.1123
221.0570, 355.9932
222.2790, 247.8535
223.5000, 264.6914
224.7210, 244.0029
225.9410, 224.2959
227.1620, 204.0645
228.3820, 98.80762
229.6030, 118.5234
230.8230, 64.79395
232.0430, 35.14258
233.2630, 122.5361
234.4820, 54.01953
235.7020, 51.69141
236.9210, 181.5537
238.1400, 194.8779
239.3590, 115.2979
240.5780, 48.84961
241.7970, 153.6436
243.0150, 44.42578
244.2340, 201.1689
245.4520, 158.4170
246.6700, 66.19629
247.8880, 164.0010
249.1060, 63.85449
250.3230, 57.66406
251.5400, 17.42773
252.7580, 134.6465
253.9750, 262.9570
255.1920, 250.0107
256.4080, 345.1221
257.6250, 351.2158
258.8410, 595.2256
260.0580, 752.1973
261.2740, 925.1660
262.4900, 1186.291
263.7050, 1353.091
264.9210, 1796.782
266.1360, 1778.543
267.3520, 2292.270
268.5670, 2568.951
269.7820, 2738.586
270.9960, 3130.176
272.2110, 3230.718
273.4250, 3309.205
274.6400, 3324.627
275.8540, 3309.015
277.0680, 3287.312
278.2810, 2947.538
279.4950, 2961.692
280.7090, 2770.767
281.9220, 2746.766
283.1350, 2852.694
284.3480, 2818.553
285.5610, 2947.346
286.7730, 3260.076
287.9860, 3570.436
289.1980, 4015.358
290.4100, 4641.918
291.6220, 5394.422
292.8340, 6297.879
294.0460, 7356.284
295.2570, 8904.646
296.4690, 10272.96
297.6800, 11885.24
298.8910, 13744.46
300.1020, 15610.64
301.3120, 16739.78
302.5230, 17133.87
303.7330, 16609.90
304.9440, 15252.88
306.1540, 13301.80
307.3630, 11377.57
308.5730, 9992.121
309.7830, 8471.488
310.9920, 7427.541
312.2010, 6631.395
313.4100, 5790.037
314.6190, 5205.398
315.8280, 4427.551
317.0370, 3820.551
318.2450, 3610.484
319.4530, 3131.406
320.6610, 2652.322
321.8690, 2391.242
323.0770, 2309.158
324.2850, 2061.074
325.4920, 1999.988
326.6990, 2018.904
327.9060, 1772.814
329.1130, 1602.725
330.3200, 1449.631
331.5270, 1260.537
332.7330, 1188.439
333.9390, 1188.338
335.1450, 904.2344
336.3510, 695.1289
337.5570, 747.0195
338.7630, 663.9062
339.9680, 610.0273
341.1740, 691.6660
342.3790, 536.5410
343.5840, 596.4121
344.7890, 539.2812
345.9930, 459.1445
347.1980, 601.0020
348.4020, 513.8594
349.6060, 542.7109
350.8100, 427.5586
352.0140, 394.4043
353.2180, 485.2461
354.4210, 419.7812
355.6250, 589.1914
356.8280, 419.0234
358.0310, 714.8457
359.2340, 587.6211
360.4360, 602.1055
361.6390, 692.3516
362.8410, 770.9004
364.0430, 748.4746
365.2450, 754.3984
366.4470, 759.7891
367.6490, 726.6230
368.8510, 852.6113
370.0520, 868.4414
371.2530, 761.1211
372.4540, 980.6465
373.6550, 852.7891
374.8560, 905.3066
376.0560, 840.0117
377.2570, 701.6348
378.4570, 716.8281
379.6570, 679.3789
380.8570, 566.1406
382.0570, 439.8184
383.2560, 482.6523
384.4560, 268.4805
385.6550, 229.4766
386.8540, 294.9043
388.0530, 400.1953
389.2520, 257.6523
390.4510, 153.8477
391.6490, 478.2109
392.8470, 175.0664
394.0450, 135.3945
395.2430, 107.6992
396.4410, 289.7500
397.6390, 73.29492
398.8360, 170.2656
400.0340, 123.1074
401.2310, 123.9590
402.4280, 152.3086
403.6250, 261.8945
404.8210, 120.5195
406.0180, 161.0840
407.2140, 108.5488
408.4100, 315.0898
409.6060, 154.6113
410.8020, 310.3066
411.9980, 284.8164
413.1930, 688.3203
414.3890, 566.8613
415.5840, 856.3789
416.7790, 1026.918
417.9740, 1596.426
419.1680, 1778.828
420.3630, 2341.326
421.5570, 2771.000
422.7510, 3348.004
423.9450, 4241.479
425.1390, 5167.492
426.3330, 5381.459
427.5270, 5213.930
428.7200, 4518.410
429.9130, 3383.883
431.1060, 2606.352
432.2990, 1862.814
433.4920, 1404.277
434.6840, 1178.734
435.8770, 900.1836
437.0690, 793.6523
438.2610, 503.9219
439.4530, 540.3789
440.6450, 445.8301
441.8360, 431.3125
443.0280, 361.8105
444.2190, 384.4258
445.4100, 400.6543
446.6010, 449.3594
447.7920, 496.9141
448.9820, 525.4688
450.1730, 595.0254
451.3630, 595.5820
452.5530, 570.1367
453.7430, 607.6934
454.9330, 698.2500
456.1230, 645.8105
457.3120, 1166.373
458.5010, 1015.939
459.6910, 1211.518
460.8800, 1519.104
462.0680, 1418.693
463.2570, 1398.287
464.4460, 1296.887
465.6340, 1454.494
466.8220, 1630.104
468.0100, 1461.719
469.1980, 1473.338
470.3860, 1628.965
471.5730, 1920.596
472.7600, 1903.230
473.9480, 2206.871
475.1350, 2297.521
476.3210, 2522.176
477.5080, 2807.838
478.6950, 2914.506
479.8810, 3289.178
481.0670, 3469.855
482.2530, 3391.539
483.4390, 3625.230
484.6250, 3570.930
485.8100, 3702.631
486.9960, 3351.340
488.1810, 3307.055
489.3660, 3258.773
490.5510, 3198.498
491.7360, 3126.779
492.9200, 3048.346
494.1050, 2945.709
495.2890, 2847.457
496.4730, 2712.213
497.6570, 2558.674
498.8400, 2213.740
500.0240, 2189.516
501.2070, 1867.293
502.3910, 1684.080
503.5740, 1677.873
504.7570, 1500.674
505.9400, 1253.480
507.1220, 1114.297
508.3050, 1041.121
509.4870, 1072.951
510.6690, 812.7891
511.8510, 843.6406
513.0330, 712.5000
514.2140, 303.3691
515.3960, 422.2500
516.5770, 335.1484
517.7580, 406.0605
518.9390, 457.0234
520.1200, 318.0254
521.3010, 147.0918
522.4810, 103.2051
523.6610, 99.36328
524.8420, 214.5996
526.0220, 127.9199
527.2010, 346.2988
528.3810, 80.72461
529.5610, 31.22070
530.7400, 56.75977
531.9190, 121.3809
533.0980, 10.77734
534.2770, 39.74023
535.4560, 165.4492
536.6340, 24.70703
537.8120, 69.99219
538.9910, 72.14844
540.1690, 32.54688
541.3460, 144.7031
542.5240, 68.96484
543.7020, 5.757813
544.8790, 83.59180
546.0560, 21.37109
547.2330, 82.71680
548.4100, 51.99414
549.5870, 81.69727
550.7630, 28.51953
551.9400, 77.55078
553.1160, 47.19922
554.2920, 163.9551
555.4680, 36.17188
556.6440, 144.1270
557.8190, 39.07422
558.9950, 122.9531
560.1700, 165.3789
561.3450, 84.34766
562.5200, 89.67773
563.6950, 77.90820
564.8690, 178.8867
566.0440, 10.46875
567.2180, 7.791016
568.3920, 249.9062
569.5660, 157.9473
570.7400, 133.5938
571.9130, 188.9121
573.0870, 307.5605
574.2600, 237.7402
575.4330, 442.3945
576.6060, 200.0508
577.7790, 409.5020
578.9520, 13.65625
580.1240, 113.0254
581.2960, 446.7129
582.4690, 578.0020
583.6410, 632.9531
584.8120, 592.1465
585.9840, 674.4160
587.1560, 735.2363
588.3270, 807.4277
589.4980, 1050.381
590.6690, 1491.812
591.8400, 2059.453
593.0110, 1443.562
594.1810, 1811.658
595.3510, 2397.668
596.5220, 2950.520
597.6920, 3390.434
598.8610, 4081.811
600.0310, 5022.697
601.2010, 5857.801
602.3700, 6567.547
603.5390, 6540.340
604.7080, 6391.086
605.8770, 5277.832
607.0460, 4319.578
608.2140, 3509.318
609.3830, 2762.061
610.5510, 2379.809
611.7190, 1926.555
612.8870, 1940.332
614.0550, 1664.400
615.2220, 1556.367
616.3900, 1209.584
617.5570, 1428.441
618.7240, 1411.439
619.8910, 1581.406
621.0580, 1302.496
622.2240, 1865.484
623.3910, 2148.582
624.5570, 2707.332
625.7230, 2745.287
626.8890, 2498.086
628.0550, 2567.879
629.2200, 2742.900
630.3860, 3139.754
631.5510, 3460.730
632.7160, 3710.748
633.8810, 3880.639
635.0460, 3745.520
636.2100, 3897.410
637.3750, 4138.299
638.5390, 4478.195
639.7030, 5130.088
640.8670, 5948.982
642.0310, 6753.873
643.1950, 7949.754
644.3580, 9152.629
645.5210, 9992.496
646.6850, 10290.36
647.8480, 9838.232
649.0100, 8746.100
650.1730, 7089.957
651.3350, 5770.809
652.4980, 4468.650
653.6600, 3696.484
654.8220, 3281.344
655.9840, 2322.197
657.1450, 1855.041
658.3070, 1457.875
659.4680, 1223.697
660.6300, 1206.525
661.7910, 984.3457
662.9510, 857.1836
664.1120, 817.0566
665.2730, 596.9277
666.4330, 647.7910
667.5930, 541.6445
668.7530, 572.4863
669.9130, 519.3164
671.0730, 464.1328
672.2320, 391.9355
673.3920, 358.9590
674.5510, 333.1191
675.7100, 300.1172
676.8690, 266.6523
678.0280, 290.3770
679.1860, 328.3496
680.3450, 212.9766
681.5030, 168.6523
682.6610, 182.6836
683.8190, 128.2148
684.9770, 178.8457
686.1340, 214.4102
687.2920, 121.0098
688.4490, 325.6797
689.6060, 216.2461
690.7630, 99.80859
691.9200, 245.1641
693.0760, 193.6797
694.2330, 73.82031
695.3890, 5.419922
696.5450, 11.96680
697.7010, 123.3008
698.8570, 0.6406250
700.0130, 136.0488
701.1680, 79.33398
702.3230, 116.4141
703.4780, 101.1387
704.6330, 7.632813
705.7880, 23.98047
706.9430, 126.6836
708.0970, 29.18555
709.2520, 140.8945
710.4060, 17.96094
711.5600, 209.0020
712.7140, 2.087891
713.8670, 210.0742
715.0210, 203.0449
716.1740, 46.98438
717.3270, 115.6035
718.4800, 187.9023
719.6330, 169.1465
720.7860, 106.8379
721.9380, 34.09961
723.0910, 24.58398
724.2430, 105.7578
725.3950, 125.4180
726.5470, 104.0391
727.6980, 95.40234
728.8500, 25.83008
730.0010, 20.27539
731.1530, 58.89062
732.3040, 66.61133
733.4550, 87.46289
734.6050, 144.0410
735.7560, 127.3184
736.9060, 38.57422
738.0560, 22.99805
739.2060, 83.24805
740.3560, 171.7148
741.5060, 161.1504
742.6560, 226.2754
743.8050, 172.9375
744.9540, 230.5957
746.1030, 201.7109
747.2520, 214.3418
748.4010, 202.4121
749.5500, 203.4082
750.6980, 201.1289
751.8460, 113.0801
752.9950, 137.0059
754.1420, 75.92188
755.2900, 162.1465
756.4380, 126.4062
757.5850, 137.9004
758.7330, 106.6992
759.8800, 130.4707
761.0270, 103.4297
762.1730, 198.1504
763.3200, 135.1992
764.4670, 198.9609
765.6130, 196.9766
766.7590, 143.6797
767.9050, 274.2285
769.0510, 183.4414
770.1960, 180.0176
771.3420, 429.7695
772.4870, 273.3066
773.6320, 252.2461
774.7770, 412.5918
775.9220, 411.6152
777.0670, 409.0410
778.2110, 386.5176
779.3560, 499.9297
780.5000, 569.3867
781.6440, 428.7227
782.7880, 466.2910
783.9320, 338.9199
785.0750, 845.1191
786.2180, 603.6426
787.3620, 820.7812
788.5050, 785.8906
789.6480, 856.9727
790.7900, 904.2051
791.9330, 1004.721
793.0750, 1287.631
794.2170, 1274.602
795.3590, 1635.545
796.5010, 1847.516
797.6430, 1690.938
798.7850, 1966.795
799.9260, 1829.975
801.0670, 2014.799
802.2080, 2199.029
803.3490, 2058.771
804.4900, 2440.447
805.6310, 2230.129
806.7710, 2346.240
807.9110, 2381.867
809.0510, 2304.555
810.1910, 2353.119
811.3310, 2376.658
812.4710, 2339.168
813.6100, 2330.686
814.7490, 2208.176
815.8880, 2170.641
817.0270, 1905.084
818.1660, 1978.508
819.3050, 1892.934
820.4430, 1820.342
821.5820, 1829.664
822.7200, 1769.014
823.8580, 1528.336
824.9950, 1444.529
826.1330, 1296.807
827.2710, 1122.451
828.4080, 981.0820
829.5450, 843.2930
830.6820, 850.4707
831.8190, 794.1680
832.9560, 709.1016
834.0920, 770.0195
835.2280, 653.9824
836.3650, 733.1328
837.5010, 323.1621
838.6360, 447.9219
839.7720, 423.8438
840.9080, 270.6992
842.0430, 409.6836
843.1780, 266.6113
844.3130, 282.4844
845.4480, 435.0078
846.5830, 256.8906
847.7170, 229.0840
848.8520, 193.9219
849.9860, 227.2070
851.1200, 359.9980
852.2540, 22.23828
853.3870, 34.68555
854.5210, 143.1934
855.6540, 104.8281
856.7880, 154.4355
857.9210, 198.4219
859.0540, 232.9336
860.1860, 312.7578
861.3190, 51.69531
862.4510, 205.0586
863.5840, 30.02734
864.7160, 257.2109
865.8480, 151.8926
866.9790, 103.3457
868.1110, 0.6933590
869.2420, 40.25000
870.3740, 110.7441
871.5050, 267.3594
872.6360, 185.3750
873.7660, 107.9121
874.8970, 139.9141
876.0280, 3.314453
877.1580, 31.77539
878.2880, 132.7969
879.4180, 112.8457
880.5480, 30.87500
881.6770, 132.8789
882.8070, 102.8672
883.9360, 10.16602
885.0650, 363.7617
886.1940, 111.3281
887.3230, 327.4922
888.4520, 282.0020
889.5800, 131.5938
890.7090, 49.91406
891.8370, 161.5742
892.9650, 8.929688
894.0930, 199.5703
895.2200, 155.9258
896.3480, 76.36523
897.4750, 161.6738
898.6020, 39.30469
899.7290, 188.2852
900.8560, 33.20312
901.9830, 1.675781
903.1090, 220.1055
904.2360, 8.802734
905.3620, 47.65039
906.4880, 83.57812
907.6140, 99.57227
908.7400, 25.29102
909.8650, 1.189453
910.9900, 45.11523
912.1160, 92.91406
913.2410, 23.06836
914.3660, 78.91406
915.4900, 60.88477
916.6150, 80.83984
917.7390, 16.78516
918.8640, 2.714844
919.9880, 58.37305
921.1120, 4.492188
922.2350, 91.33984
923.3590, 99.17578
924.4820, 204.0020
925.6060, 36.81836
926.7290, 129.3770
927.8520, 11.34570
928.9740, 210.0547
930.0970, 110.7539
931.2190, 56.44531
932.3420, 60.87500
933.4640, 103.7637
934.5860, 107.6055
935.7080, 183.0410
936.8290, 47.58203
937.9510, 218.8457
939.0720, 22.73438
940.1930, 160.6660
941.3140, 9.939453
942.4350, 89.43945
943.5560, 23.81250
944.6760, 126.1777
945.7960, 67.53516
946.9170, 116.6094
948.0370, 204.2344
949.1560, 162.5762
950.2760, 247.9062
951.3960, 207.2363
952.5150, 127.5586
953.6340, 117.8730
954.7530, 154.1855
955.8720, 87.49219
956.9910, 328.7949
958.1090, 358.0898
959.2280, 392.3848
960.3460, 312.6719
961.4640, 406.9551
962.5820, 458.2578
963.6990, 453.5625
964.8170, 526.8672
965.9340, 616.1680
967.0510, 597.5059
968.1690, 669.8477
969.2850, 595.9941
970.4020, 420.5723
971.5190, 427.9629
972.6350, 454.3730
973.7510, 375.7891
974.8670, 431.2051
975.9830, 418.6445
977.0990, 430.8262
978.2150, 494.5723
979.3300, 462.0488
980.4450, 682.5469
981.5600, 669.0410
982.6750, 992.5664
983.7900, 957.0273
984.9050, 1154.582
986.0190, 1014.139
987.1340, 1240.674
988.2480, 1369.555
989.3620, 1619.922
990.4750, 1768.170
991.5890, 2116.654
992.7020, 2446.355
993.8160, 2731.100
994.9290, 3188.848
996.0420, 3512.045
997.1550, 4003.855
998.2670, 4352.717
999.3800, 4807.572
1000.492, 5380.391
1001.604, 6356.070
1002.716, 7199.623
1003.828, 7894.996
1004.940, 8582.748
1006.051, 9349.750
1007.163, 10267.80
1008.274, 10545.67
1009.385, 11370.69
1010.496, 11524.51
1011.606, 11239.01
1012.717, 11073.07
1013.827, 10375.07
1014.937, 9845.648
1016.047, 9257.758
1017.157, 8334.750
1018.267, 7703.451
1019.377, 7045.641
1020.486, 6421.086
1021.595, 5781.289
1022.704, 5532.502
1023.813, 5068.707
1024.922, 4871.582
1026.030, 4722.820
1027.139, 4669.984
1028.247, 4594.244
1029.355, 4745.969
1030.463, 4976.572
1031.571, 5267.859
1032.678, 5730.797
1033.786, 6259.008
1034.893, 6527.955
1036.000, 7393.195
1037.107, 7869.572
1038.214, 8628.271
1039.321, 8876.594
1040.427, 9898.723
1041.533, 10126.05
1042.639, 10568.96
1043.745, 11097.46
1044.851, 11479.26
1045.957, 12084.64
1047.062, 12409.96
1048.168, 12635.32
1049.273, 13009.63
1050.378, 13090.05
1051.482, 13409.22
1052.587, 14061.32
1053.692, 14545.83
1054.796, 15438.00
1055.900, 16229.55
1057.004, 17912.11
1058.108, 19141.68
1059.212, 20693.09
1060.315, 21904.57
1061.418, 23376.92
1062.522, 23403.56
1063.625, 23097.21
1064.728, 21462.83
1065.830, 19614.98
1066.933, 16974.69
1068.035, 14298.05
1069.137, 12092.76
1070.239, 9967.051
1071.341, 8031.816
1072.443, 6764.635
1073.545, 5572.434
1074.646, 4908.791
1075.747, 4142.623
1076.848, 3788.381
1077.949, 2967.244
1079.050, 2649.127
1080.150, 2699.023
1081.251, 2014.941
1082.351, 1924.873
1083.451, 1721.822
1084.551, 1681.789
1085.651, 1589.768
1086.750, 1502.768
1087.850, 1414.781
1088.949, 1358.812
1090.048, 1351.371
1091.147, 1231.930
1092.246, 1409.018
1093.345, 1340.123
1094.443, 1428.852
1095.541, 1310.504
1096.639, 1422.752
1097.737, 1426.922
1098.835, 1395.127
1099.933, 1554.330
1101.030, 1976.562
1102.128, 1670.117
1103.225, 2128.533
1104.322, 2130.121
1105.419, 2555.064
1106.515, 2635.572
1107.612, 2875.082
1108.708, 3197.564
1109.804, 3097.797
1110.900, 3456.203
1111.996, 3536.584
1113.092, 3638.963
1114.187, 3921.303
1115.283, 4126.748
1116.378, 4001.146
1117.473, 4290.582
1118.568, 4377.062
1119.662, 4388.621
1120.757, 4519.453
1121.851, 4524.488
1122.946, 4509.953
1124.040, 4361.576
1125.134, 4451.602
1126.227, 4310.906
1127.321, 4094.656
1128.414, 4151.324
1129.508, 3974.002
1130.601, 3944.891
1131.693, 3905.830
1132.786, 3728.416
1133.879, 3211.141
1134.971, 2882.684
1136.064, 2491.732
1137.156, 2372.238
1138.248, 2133.635
1139.339, 1813.703
1140.431, 1665.758
1141.522, 1307.090
1142.614, 1457.258
1143.705, 1186.150
1144.796, 789.6895
1145.887, 934.9609
1146.977, 691.8984
1148.068, 761.8438
1149.158, 518.2207
1150.248, 470.0508
1151.338, 472.1562
1152.428, 661.1836
1153.518, 475.2188
1154.607, 487.3574
1155.696, 125.6660
1156.785, 501.7168
1157.874, 385.9121
1158.963, 166.9844
1160.052, 234.0586
1161.141, 321.1387
1162.229, 368.2227
1163.317, 340.3125
1164.405, 345.4043
1165.493, 400.5605
1166.581, 357.7207
1167.668, 392.8906
1168.756, 253.1289
1169.843, 423.3789
1170.930, 486.6523
1172.017, 321.9551
1173.103, 533.2598
1174.190, 376.5801
1175.276, 429.9102
1176.363, 494.2598
1177.449, 276.6133
1178.535, 449.1680
1179.620, 506.5371
1180.706, 253.2910
1181.791, 404.6641
1182.877, 462.0391
1183.962, 458.8164
1185.047, 495.2148
1186.131, 567.6191
1187.216, 571.4453
1188.300, 621.2090
1189.385, 654.8379
1190.469, 647.6172
1191.553, 752.6367
1192.637, 681.3711
1193.720, 681.0938
1194.804, 938.8477
1195.887, 958.5547
1196.970, 903.1719
1198.053, 692.6895
1199.136, 924.1816
1200.219, 744.7207
1201.301, 766.2676
1202.383, 924.9258
1203.465, 999.7168
1204.547, 798.3086
1205.629, 726.0488
1206.711, 817.7969
1207.792, 570.3457
1208.874, 463.8906
1209.955, 728.5430
1211.036, 530.0859
1212.117, 554.6211
1213.198, 695.1562
1214.278, 552.6855
1215.359, 521.2129
1216.439, 699.7383
1217.519, 267.2578
1218.599, 448.7754
1219.678, 315.2891
1220.758, 235.8926
1221.837, 81.39844
1222.917, 211.8965
1223.996, 87.31055
1225.075, 31.86328
1226.153, 28.56055
1227.232, 345.9805
1228.310, 40.55078
1229.389, 146.8359
1230.467, 56.39258
1231.545, 122.2344
1232.622, 21.93164
1233.700, 88.64844
1234.777, 9.394531
1235.855, 18.84570
1236.932, 99.92578
1238.009, 35.24023
1239.086, 45.60352
1240.162, 64.51953
1241.239, 13.36523
1242.315, 185.7285
1243.391, 90.79102
1244.467, 76.23242
1245.543, 73.75195
1246.619, 283.5801
1247.694, 411.1270
1248.769, 163.5820
1249.844, 84.33203
1250.919, 102.4629
1251.994, 60.65234
1253.069, 351.5137
1254.144, 51.73828
1255.218, 146.9551
1256.292, 56.11914
1257.366, 148.5098
1258.440, 145.1289
1259.514, 76.73633
1260.587, 68.33203
1261.661, 166.0859
1262.734, 135.6230
1263.807, 83.92188
1264.880, 60.71289
1265.952, 80.31055
1267.025, 125.6016
1268.097, 86.39844
1269.170, 6.246094
1270.242, 73.72266
