##NAMES=Montebrasite
##RRUFFID=R040062
##IDEAL CHEMISTRY=LiAlPO_4_(OH)
##LOCALITY=Hebron, Maine, USA
##OWNER=RRUFF
##SOURCE=University of Arizona Mineral Museum
##DESCRIPTION=White massive
##STATUS=The identification of this mineral has been confirmed by X-ray diffraction and chemical analysis
##URL=rruff.info/R040062
##MEASURED CHEMISTRY=LiAl(PO_4_)((OH)_0.62_F_0.38_)
##PIN_ID=L00408
##ORIENTATION=Laser parallel to c* (0 0 1). Fiducial mark perpendicular to laser is parallel to a [1 0 0]
111.932, 0.000
113.329, 165.259
114.726, 239.668
116.123, 187.404
117.519, 318.116
118.915, 205.979
120.311, 229.397
121.706, 507.098
123.102, 708.413
124.497, 863.761
125.892, 1198.319
127.286, 1552.254
128.681, 2096.993
130.075, 2692.769
131.469, 2997.674
132.862, 3072.639
134.256, 3084.277
135.649, 2729.705
137.042, 2170.937
138.435, 1563.628
139.827, 992.148
141.219, 680.671
142.611, 353.352
144.003, 329.356
145.394, 90.823
146.786, 108.025
148.177, 45.753
149.567, 14.258
150.958, 6.811
152.348, 51.943
153.738, 7.307
155.128, 47.096
156.517, 28.812
157.907, 102.533
159.296, 159.555
160.685, 243.588
162.073, 308.655
163.462, 304.081
164.850, 202.927
166.237, 196.811
167.625, 178.730
169.012, 131.681
170.400, 150.671
171.786, 149.802
173.173, 98.280
174.559, 68.136
175.946, 219.309
177.332, 323.661
178.717, 381.678
180.103, 524.733
181.488, 605.201
182.873, 766.129
184.258, 887.155
185.642, 1024.210
187.026, 1140.797
188.410, 1212.344
189.794, 1273.848
191.178, 1365.310
192.561, 1316.729
193.944, 1348.107
195.327, 1219.457
196.709, 1020.814
198.092, 800.203
199.474, 607.627
200.856, 383.088
202.237, 285.584
203.618, 44.116
205.000, 1.323
206.380, 0.735
207.761, 180.125
209.142, 181.494
210.522, 37.848
211.902, 61.188
213.281, 98.527
214.661, 10.868
216.040, 143.795
217.419, 149.456
218.798, 177.112
220.176, 196.760
221.554, 191.411
222.932, 197.004
224.310, 232.600
225.688, 282.177
227.065, 417.736
228.442, 310.222
229.819, 352.993
231.196, 368.759
232.572, 303.677
233.948, 261.346
235.324, 271.305
236.700, 176.570
238.075, 262.951
239.450, 225.640
240.825, 173.936
242.200, 202.354
243.574, 237.699
244.948, 84.791
246.322, 99.910
247.696, 24.999
249.070, 9.467
250.443, 52.957
251.816, 26.460
253.189, 20.969
254.561, 35.526
255.933, 27.976
257.306, 37.475
258.677, 141.971
260.049, 214.463
261.420, 290.305
262.791, 410.469
264.162, 492.840
265.533, 697.242
266.903, 847.583
268.274, 1107.896
269.643, 1418.191
271.013, 1768.472
272.383, 2038.736
273.752, 2188.984
275.121, 2295.257
276.490, 2319.434
277.858, 2230.777
279.226, 2072.654
280.595, 1824.819
281.962, 1877.160
283.330, 1959.616
284.697, 2062.148
286.064, 2234.729
287.431, 2567.330
288.798, 3179.942
290.164, 4092.553
291.530, 5375.154
292.896, 7147.738
294.262, 9590.301
295.627, 13192.790
296.993, 16705.258
298.358, 19697.695
299.722, 21290.082
301.087, 20632.439
302.451, 18064.754
303.815, 14857.003
305.179, 12079.202
306.543, 9411.350
307.906, 7633.453
309.269, 6315.512
310.632, 5507.530
311.995, 4849.508
313.357, 4600.258
314.719, 4402.154
316.081, 4354.014
317.443, 4025.836
318.804, 3777.508
320.166, 3419.261
321.527, 3010.260
322.887, 2451.946
324.248, 1963.553
325.608, 1604.762
326.968, 1235.823
328.328, 1106.737
329.688, 967.639
331.047, 668.528
332.406, 599.408
333.765, 510.275
335.124, 491.130
336.482, 441.973
337.840, 432.800
339.198, 323.611
340.556, 294.404
341.913, 205.178
343.271, 118.929
344.628, 126.646
345.984, 12.322
347.341, 167.953
348.697, 31.516
350.053, 69.049
351.409, 22.440
352.765, 62.962
354.120, 15.527
355.475, 40.873
356.830, 71.253
358.185, 6.388
359.539, 97.395
360.894, 13.438
362.248, 84.094
363.601, 47.338
364.955, 6.206
366.308, 8.567
367.661, 29.361
369.014, 71.947
370.367, 52.296
371.719, 71.452
373.071, 112.847
374.423, 82.228
375.775, 102.262
377.126, 58.895
378.478, 120.024
379.828, 202.970
381.179, 164.101
382.530, 255.832
383.880, 267.423
385.230, 309.248
386.580, 309.991
387.929, 310.743
389.279, 380.692
390.628, 492.879
391.977, 513.337
393.325, 473.531
394.674, 543.964
396.022, 484.541
397.370, 684.585
398.718, 644.529
400.065, 725.660
401.413, 845.479
402.760, 846.118
404.106, 916.311
405.453, 966.323
406.799, 1136.409
408.146, 1186.509
409.491, 1355.857
410.837, 1434.881
412.182, 1752.789
413.528, 2052.401
414.873, 2511.110
416.217, 3220.133
417.562, 4225.449
418.906, 6054.107
420.250, 8902.899
421.594, 13152.195
422.938, 19491.539
424.281, 25960.912
425.624, 30600.266
426.967, 30639.604
428.310, 25558.920
429.652, 18288.238
430.994, 12307.547
432.336, 8086.857
433.678, 5426.166
435.020, 3935.457
436.361, 2904.739
437.702, 2234.001
439.043, 1783.244
440.383, 1422.460
441.724, 1281.648
443.064, 1080.810
444.404, 899.957
445.743, 839.073
447.083, 658.158
448.422, 657.229
449.761, 626.273
451.100, 505.284
452.438, 554.263
453.777, 513.230
455.115, 392.162
456.453, 341.063
457.790, 469.930
459.128, 568.761
460.465, 587.557
461.802, 546.318
463.139, 665.044
464.475, 673.749
465.811, 782.417
467.147, 936.766
468.483, 1079.697
469.819, 1288.285
471.154, 1476.835
472.489, 1665.351
473.824, 2003.830
475.159, 2422.280
476.493, 2960.693
477.827, 3339.071
479.161, 3837.414
480.495, 4125.721
481.829, 4533.990
483.162, 4652.229
484.495, 4840.432
485.828, 4688.598
487.161, 4946.729
488.493, 4714.828
489.825, 4552.891
491.157, 4710.920
492.489, 4378.916
493.820, 4276.879
495.151, 4214.807
496.482, 3632.700
497.813, 3450.560
499.144, 3208.385
500.474, 2946.173
501.804, 2513.928
503.134, 2211.496
504.464, 1919.425
505.793, 1525.826
507.123, 1401.596
508.451, 1118.850
509.780, 965.047
511.109, 871.678
512.437, 675.263
513.765, 496.268
515.093, 470.214
516.421, 366.361
517.748, 322.808
519.075, 147.219
520.402, 165.878
521.729, 201.254
523.055, 217.634
524.382, 39.316
525.708, 5.716
527.034, 99.288
528.359, 35.188
529.685, 10.802
531.010, 6.548
532.335, 37.396
533.659, 21.062
534.984, 54.904
536.308, 38.126
537.632, 22.231
538.956, 18.294
540.279, 50.989
541.603, 7.760
542.926, 14.575
544.249, 2.427
545.571, 89.210
546.894, 87.362
548.216, 5.287
549.538, 231.492
550.860, 129.182
552.181, 188.384
553.503, 125.918
554.824, 92.526
556.145, 190.689
557.465, 207.023
558.786, 33.692
560.106, 232.859
561.426, 69.562
562.746, 132.900
564.065, 168.764
565.385, 166.347
566.704, 112.424
568.023, 296.750
569.341, 224.504
570.660, 352.188
571.978, 186.896
573.296, 324.435
574.614, 213.989
575.931, 324.752
577.248, 350.396
578.565, 362.909
579.882, 417.312
581.199, 430.240
582.515, 495.480
583.831, 461.284
585.147, 517.103
586.463, 483.086
587.779, 553.255
589.094, 510.872
590.409, 651.560
591.724, 731.569
593.038, 737.210
594.353, 755.247
595.667, 990.658
596.981, 1206.098
598.295, 1351.174
599.608, 1586.279
600.922, 1811.528
602.235, 1980.601
603.547, 1775.729
604.860, 1590.529
606.172, 1490.148
607.485, 1205.599
608.797, 1310.660
610.108, 1375.199
611.420, 1195.367
612.731, 1309.650
614.042, 1284.483
615.353, 1469.012
616.664, 1663.192
617.974, 1547.527
619.284, 1831.809
620.594, 2165.815
621.904, 2272.779
623.213, 2586.695
624.523, 2856.172
625.832, 3399.997
627.141, 4103.777
628.449, 4587.512
629.758, 5211.199
631.066, 5914.842
632.374, 6188.436
633.681, 6891.986
634.989, 7765.490
636.296, 9208.949
637.603, 11562.361
638.910, 14825.728
640.217, 20409.047
641.523, 27562.324
642.829, 35315.551
644.135, 43698.738
645.441, 46211.871
646.747, 44464.965
648.052, 37988.012
649.357, 29621.016
650.662, 22193.977
651.967, 16106.887
653.271, 12299.752
654.575, 9172.575
655.879, 7235.350
657.183, 5778.082
658.486, 4730.770
659.790, 3923.412
661.093, 3306.011
662.396, 2688.567
663.698, 2481.081
665.001, 1983.559
666.303, 1835.994
667.605, 1568.391
668.907, 1350.748
670.209, 1333.077
671.510, 995.392
672.811, 967.677
674.112, 869.925
675.413, 792.131
676.713, 623.645
678.013, 616.258
679.313, 746.987
680.613, 598.743
681.913, 469.464
683.212, 519.306
684.511, 390.504
685.810, 518.465
687.109, 348.647
688.407, 308.712
689.706, 328.466
691.004, 389.752
692.302, 166.243
693.599, 333.735
694.897, 187.708
696.194, 286.345
697.491, 176.876
698.788, 238.953
700.084, 79.024
701.380, 219.881
702.677, 60.401
703.972, 101.718
705.268, 180.758
706.564, 71.776
707.859, 22.313
709.154, 73.025
710.449, 173.423
711.743, 43.582
713.037, 214.146
714.332, 105.262
715.626, 13.973
716.919, 104.431
718.213, 56.035
719.506, 283.834
720.799, 126.186
722.092, 183.606
723.384, 76.945
724.677, 33.213
725.969, 33.009
727.261, 86.785
728.553, 32.650
729.844, 7.398
731.136, 27.991
732.427, 191.780
733.718, 58.376
735.008, 231.375
736.299, 18.909
737.589, 139.268
738.879, 90.237
740.169, 79.703
741.458, 59.130
742.748, 31.484
744.037, 7.822
745.326, 42.927
746.614, 33.759
747.903, 55.333
749.191, 5.614
750.479, 63.377
751.767, 52.332
753.055, 111.250
754.342, 90.134
755.629, 48.983
756.916, 32.202
758.203, 46.542
759.490, 105.251
760.776, 46.072
762.062, 22.529
763.348, 31.092
764.634, 109.618
765.919, 61.886
767.204, 176.530
768.489, 24.919
769.774, 53.273
771.059, 121.598
772.343, 69.894
773.627, 68.161
774.911, 166.465
776.195, 25.323
777.479, 122.836
778.762, 69.029
780.045, 239.557
781.328, 197.591
782.611, 115.600
783.893, 253.584
785.175, 361.545
786.457, 409.481
787.739, 417.397
789.021, 505.289
790.302, 653.158
791.583, 691.005
792.864, 848.831
794.145, 986.635
795.425, 924.419
796.706, 1072.181
797.986, 1259.923
799.266, 1227.645
800.545, 1235.348
801.825, 1333.030
803.104, 1400.694
804.383, 1458.339
805.662, 1355.965
806.940, 1343.574
808.219, 1161.165
809.497, 1108.739
810.775, 1166.296
812.053, 933.837
813.330, 1001.362
814.608, 1118.870
815.885, 756.363
817.162, 873.842
818.438, 861.305
819.715, 738.754
820.991, 326.189
822.267, 513.609
823.543, 421.018
824.818, 318.412
826.094, 435.794
827.369, 173.164
828.644, 290.521
829.919, 277.867
831.193, 105.204
832.468, 102.532
833.742, 79.851
835.016, 97.160
836.289, 64.467
837.563, 66.321
838.836, 49.070
840.109, 26.377
841.382, 23.683
842.654, 59.037
843.927, 71.741
845.199, 45.545
846.471, 112.266
847.743, 130.416
849.014, 66.382
850.286, 6.387
851.557, 69.563
852.828, 12.502
854.099, 46.526
855.369, 70.468
856.639, 33.951
857.909, 82.388
859.179, 109.248
860.449, 125.156
861.718, 169.514
862.988, 95.498
864.257, 162.365
865.525, 367.651
866.794, 124.728
868.062, 331.429
869.331, 465.590
870.599, 432.176
871.866, 732.083
873.134, 599.429
874.401, 845.014
875.668, 802.066
876.935, 1020.832
878.202, 946.135
879.468, 841.475
880.735, 1049.762
882.001, 825.184
883.267, 838.559
884.532, 800.695
885.798, 887.932
887.063, 738.273
888.328, 875.701
889.593, 668.635
890.857, 864.074
892.122, 930.996
893.386, 917.873
894.650, 1044.553
895.913, 1017.016
897.177, 1372.002
898.440, 1023.887
899.703, 1166.418
900.966, 1283.289
902.229, 1057.734
903.491, 914.777
904.754, 1011.762
906.016, 639.084
907.278, 696.348
908.539, 563.438
909.801, 466.680
911.062, 343.838
912.323, 329.227
913.584, 243.912
914.844, 300.666
916.105, 267.787
917.365, 215.404
918.625, 216.219
919.885, 165.193
921.144, 162.441
922.404, 109.973
923.663, 77.824
924.922, 135.500
926.180, 6.793
927.439, 81.162
928.697, 36.139
929.955, 49.393
931.213, 43.438
932.471, 114.609
933.728, 142.680
934.985, 190.779
936.242, 58.928
937.499, 187.102
938.756, 155.303
940.012, 123.531
941.269, 151.787
942.525, 210.076
943.780, 226.865
945.036, 266.742
946.291, 315.117
947.546, 293.523
948.801, 321.959
950.056, 380.422
951.311, 268.916
952.565, 547.441
953.819, 245.996
955.073, 344.586
956.327, 433.203
957.580, 361.855
958.834, 410.537
960.087, 519.254
961.339, 398.004
962.592, 746.787
963.845, 525.604
965.097, 714.453
966.349, 593.338
967.601, 692.258
968.852, 1001.211
970.104, 710.223
971.355, 1089.271
972.606, 1098.355
973.857, 1177.479
975.107, 1326.639
976.358, 1365.834
977.608, 1515.068
978.858, 1844.340
980.108, 1863.648
981.357, 2002.992
982.607, 2532.377
983.856, 2381.797
985.105, 3201.254
986.353, 2970.752
987.602, 3740.281
988.850, 4309.842
990.098, 4539.434
991.346, 5739.057
992.594, 6198.711
993.841, 7366.336
995.089, 8625.723
996.336, 9555.480
997.583, 11596.053
998.829, 13010.354
1000.076, 15030.215
1001.322, 18139.883
1002.568, 20537.475
1003.814, 23957.174
1005.060, 26527.330
1006.305, 29177.381
1007.550, 32618.465
1008.795, 33518.609
1010.040, 34858.785
1011.285, 34219.512
1012.529, 32199.967
1013.773, 30780.283
1015.017, 26894.535
1016.261, 23974.932
1017.505, 20995.740
1018.748, 18346.273
1019.991, 16296.859
1021.234, 14047.494
1022.477, 12378.197
1023.719, 11748.941
1024.962, 10739.781
1026.204, 10300.660
1027.446, 9761.621
1028.688, 9762.633
1029.929, 10323.695
1031.170, 10834.844
1032.411, 11576.043
1033.652, 12847.303
1034.893, 13698.633
1036.134, 15390.006
1037.374, 16741.459
1038.614, 18242.947
1039.854, 20124.508
1041.094, 21866.164
1042.333, 23107.873
1043.572, 24259.621
1044.811, 23991.428
1046.050, 24543.293
1047.289, 23405.229
1048.527, 22707.229
1049.766, 21459.305
1051.004, 20451.426
1052.241, 20243.611
1053.479, 19505.846
1054.717, 19018.131
1055.954, 20060.473
1057.191, 20452.859
1058.428, 19585.299
1059.664, 19697.807
1060.901, 18210.367
1062.137, 16382.971
1063.373, 13845.656
1064.609, 11478.395
1065.844, 9861.166
1067.080, 7833.984
1068.315, 6836.777
1069.550, 5999.625
1070.785, 4962.514
1072.019, 4425.430
1073.254, 3858.393
1074.488, 3271.404
1075.722, 3204.361
1076.955, 2757.428
1078.189, 2500.561
1079.422, 2413.746
1080.656, 1826.479
1081.889, 2039.795
1083.121, 1893.164
1084.354, 1642.338
1085.586, 1635.816
1086.818, 1399.344
1088.050, 1522.930
1089.282, 1326.568
1090.514, 991.768
1091.745, 1185.516
1092.976, 1079.322
1094.207, 963.186
1095.438, 937.104
1096.668, 881.080
1097.899, 1065.115
1099.129, 769.207
1100.359, 773.357
1101.588, 1057.566
1102.818, 791.844
1104.047, 1096.186
1105.276, 1300.598
1106.505, 1065.080
1107.734, 1279.641
1108.962, 1164.271
1110.191, 1038.828
1111.419, 1373.455
1112.647, 1268.105
1113.874, 1122.824
1115.102, 1157.613
1116.329, 1102.480
1117.556, 1133.100
1118.783, 1068.117
1120.010, 981.830
1121.236, 908.381
1122.463, 793.637
1123.689, 738.988
1124.914, 704.447
1126.140, 429.570
1127.366, 764.736
1128.591, 339.926
1129.816, 1015.090
1131.041, 730.312
1132.266, 265.627
1133.490, 431.154
1134.714, 335.059
1135.938, 179.039
1137.162, 553.096
1138.386, 117.250
1139.609, 171.484
1140.833, 245.848
1142.056, 89.791
1143.279, 314.670
1144.501, 40.797
1145.724, 123.816
1146.946, 178.502
1148.168, 256.752
1149.390, 38.053
1150.612, 242.941
1151.833, 62.092
1153.054, 62.957
1154.275, 71.914
1155.496, 43.293
1156.717, 158.582
1157.937, 26.051
1159.158, 10.602
1160.378, 134.924
1161.598, 119.471
1162.817, 186.211
1164.037, 18.029
1165.256, 197.809
1166.475, 293.723
1167.694, 69.713
1168.913, 155.779
1170.131, 421.924
1171.349, 158.145
1172.567, 394.443
1173.785, 260.814
1175.003, 267.266
1176.220, 413.795
1177.438, 550.402
1178.655, 607.094
1179.872, 653.863
1181.088, 590.723
1182.305, 737.623
1183.521, 654.564
1184.737, 951.584
1185.953, 948.660
1187.169, 1065.814
1188.384, 1073.043
1189.599, 1230.348
1190.814, 1200.900
1192.029, 1335.186
1193.244, 1222.715
1194.459, 910.318
1195.673, 1007.998
1196.887, 985.752
1198.101, 823.576
1199.314, 981.387
1200.528, 489.264
1201.741, 1027.209
1202.954, 715.217
1204.167, 403.299
1205.380, 681.459
1206.592, 519.688
1207.805, 458.037
1209.017, 446.521
1210.229, 145.141
1211.440, 408.979
1212.652, 316.072
1213.863, 142.852
1215.074, 411.480
1216.285, 366.770
1217.496, 191.178
1218.707, 298.785
1219.917, 267.273
1221.127, 236.531
1222.337, 234.553
1223.547, 163.582
1224.756, 42.719
1225.966, 161.963
1227.175, 271.311
1228.384, 200.760
1229.592, 109.686
1230.801, 299.969
1232.009, 289.725
1233.217, 69.586
1234.425, 279.549
1235.633, 20.385
1236.841, 349.783
1238.048, 100.049
1239.255, 110.420
1240.462, 440.893
1241.669, 131.473
1242.876, 142.156
1244.082, 312.943
1245.288, 193.924
1246.494, 240.729
1247.700, 287.982
1248.906, 150.883
1250.111, 314.322
1251.316, 188.363
1252.521, 132.766
1253.726, 247.561
1254.931, 267.518
1256.135, 381.311
1257.339, 205.135
1258.543, 178.955
1259.747, 493.070
1260.951, 387.508
1262.154, 67.699
1263.357, 517.383
1264.560, 182.594
1265.763, 257.740
1266.966, 424.547
1268.168, 344.416
1269.371, 366.182
1270.573, 415.213
1271.775, 172.023
1272.976, 474.004
1274.178, 54.496
1275.379, 323.150
1276.580, 249.176
1277.781, 0.000
##END=



