##NAMES=Montebrasite
##RRUFFID=R040062
##IDEAL CHEMISTRY=LiAlPO_4_(OH)
##LOCALITY=Hebron, Maine, USA
##OWNER=RRUFF
##SOURCE=University of Arizona Mineral Museum
##DESCRIPTION=White massive
##STATUS=The identification of this mineral has been confirmed by X-ray diffraction and chemical analysis
##URL=rruff.info/R040062
##MEASURED CHEMISTRY=LiAl(PO_4_)((OH)_0.62_F_0.38_)
##PIN_ID=L00090
##ORIENTATION=Laser parallel to -b* (0 -1 0). Fiducial mark perpendicular to laser is parallel to c [0 0 1]
131.469, 0.000
132.862, 186.109
134.256, 125.941
135.649, 190.517
137.042, 202.862
138.435, 216.160
139.827, 162.656
141.219, 128.341
142.611, 195.198
144.003, 92.986
145.394, 38.429
146.786, 171.035
148.177, 61.204
149.567, 151.904
150.958, 123.016
152.348, 264.456
153.738, 176.167
155.128, 318.104
156.517, 340.317
157.907, 522.725
159.296, 635.934
160.685, 680.291
162.073, 754.646
163.462, 948.929
164.850, 1113.128
166.237, 1017.261
167.625, 1111.350
169.012, 1105.406
170.400, 1179.444
171.786, 993.473
173.173, 977.496
174.559, 741.525
175.946, 795.562
177.332, 819.604
178.717, 743.655
180.103, 618.937
181.488, 542.978
182.873, 637.034
184.258, 472.316
185.642, 616.598
187.026, 494.970
188.410, 347.084
189.794, 395.236
191.178, 358.548
192.561, 211.923
193.944, 386.038
195.327, 229.528
196.709, 173.085
198.092, 136.705
199.474, 90.391
200.856, 64.157
202.237, 147.983
203.618, 51.867
205.000, 145.808
206.380, 209.801
207.761, 173.846
209.142, 247.942
210.522, 282.086
211.902, 336.276
213.281, 160.516
214.661, 314.804
216.040, 249.134
217.419, 183.496
218.798, 207.878
220.176, 182.279
221.554, 336.668
222.932, 231.048
224.310, 175.450
225.688, 179.880
227.065, 184.332
228.442, 11.188
229.819, 63.317
231.196, 157.846
232.572, 22.400
233.948, 226.977
235.324, 91.577
236.700, 13.800
238.075, 0.845
239.450, 75.512
240.825, 109.803
242.200, 55.094
243.574, 209.631
244.948, 65.627
246.322, 159.133
247.696, 46.088
249.070, 108.729
250.443, 123.609
251.816, 128.508
253.189, 33.445
254.561, 11.559
255.933, 33.516
257.306, 198.609
258.677, 113.764
260.049, 358.977
261.420, 214.219
262.791, 269.482
264.162, 514.758
265.533, 740.084
266.903, 875.457
268.274, 1001.664
269.643, 1217.092
271.013, 1462.518
272.383, 1467.936
273.752, 1713.379
275.121, 1878.859
276.490, 1594.348
277.858, 1479.848
279.226, 1305.377
280.595, 1330.918
281.962, 1206.465
283.330, 1172.021
284.697, 977.584
286.064, 1143.150
287.431, 1048.725
288.798, 1284.303
290.164, 1549.889
291.530, 1655.477
292.896, 2451.383
294.262, 2766.977
295.627, 3842.979
296.993, 4468.771
298.358, 5004.545
299.722, 5250.229
301.087, 4915.758
302.451, 4411.225
303.815, 3866.281
305.179, 3271.387
306.543, 2776.539
307.906, 2311.736
309.269, 2026.920
310.632, 1998.084
311.995, 1753.383
313.357, 1548.605
314.719, 1193.959
316.081, 1159.334
317.443, 934.730
318.804, 970.146
320.166, 625.582
321.527, 671.033
322.887, 676.500
324.248, 491.980
325.608, 577.469
326.968, 392.963
328.328, 408.467
329.688, 353.975
331.047, 359.492
332.406, 315.016
333.765, 230.547
335.124, 186.090
336.482, 281.639
337.840, 157.195
339.198, 232.762
340.556, 18.332
341.913, 153.914
343.271, 59.500
344.628, 185.090
345.984, 150.686
347.341, 216.289
348.697, 211.896
350.053, 237.508
351.409, 183.020
352.765, 168.500
354.120, 123.973
355.475, 259.451
356.830, 164.945
358.185, 120.443
359.539, 86.277
360.894, 162.016
362.248, 207.549
363.601, 103.090
364.955, 171.895
366.308, 219.760
367.661, 255.324
369.014, 240.896
370.367, 196.938
371.719, 264.205
373.071, 220.182
374.423, 209.328
375.775, 204.945
377.126, 235.977
378.478, 122.111
379.828, 228.365
381.179, 333.990
382.530, 313.783
383.880, 240.105
385.230, 99.807
386.580, 295.461
387.929, 81.637
389.279, 249.807
390.628, 215.473
391.977, 190.949
393.325, 116.648
394.674, 223.510
396.022, 151.973
397.370, 158.215
398.718, 283.908
400.065, 217.379
401.413, 113.004
402.760, 16.225
404.106, 376.785
405.453, 150.215
406.799, 387.172
408.146, 140.842
409.491, 137.357
410.837, 81.543
412.182, 197.496
413.528, 168.365
414.873, 244.172
416.217, 200.910
417.562, 236.693
418.906, 302.551
420.250, 549.047
421.594, 564.961
422.938, 922.734
424.281, 1158.721
425.624, 1335.170
426.967, 1081.309
428.310, 1207.281
429.652, 723.252
430.994, 629.283
432.336, 585.240
433.678, 421.189
435.020, 237.133
436.361, 283.072
437.702, 469.006
439.043, 284.932
440.383, 180.850
441.724, 526.760
443.064, 322.666
444.404, 238.568
445.743, 234.461
447.083, 110.346
448.422, 146.225
449.761, 452.096
451.100, 17.959
452.438, 403.811
453.777, 99.678
455.115, 325.531
456.453, 1.381
457.790, 157.215
459.128, 443.043
460.465, 358.863
461.802, 274.676
463.139, 350.479
464.475, 326.277
465.811, 632.068
467.147, 377.850
468.483, 543.629
469.819, 659.396
471.154, 745.158
472.489, 720.932
473.824, 806.695
475.159, 982.451
476.493, 1248.197
477.827, 1253.936
479.161, 1659.666
480.495, 1615.385
481.829, 1581.096
483.162, 1846.797
484.495, 1812.486
485.828, 1468.166
487.161, 1843.838
488.493, 1629.498
489.825, 1365.146
491.157, 1600.783
492.489, 1386.412
493.820, 1532.029
495.151, 1447.637
496.482, 1043.230
497.813, 1278.814
499.144, 1074.387
500.474, 1159.945
501.804, 815.494
503.134, 731.031
504.464, 826.555
505.793, 722.352
507.123, 717.852
508.451, 433.340
509.780, 528.811
511.109, 494.271
512.437, 249.721
513.765, 395.156
515.093, 380.746
516.421, 186.156
517.748, 332.074
519.075, 67.459
520.402, 94.102
521.729, 169.457
523.055, 234.797
524.382, 39.410
525.708, 23.832
527.034, 331.418
528.359, 246.652
529.685, 42.389
531.010, 12.410
532.335, 63.262
533.659, 41.426
534.984, 153.680
536.308, 70.549
537.632, 34.480
538.956, 20.145
540.279, 295.588
541.603, 49.148
542.926, 15.803
544.249, 46.047
545.571, 208.832
546.894, 44.633
548.216, 20.527
549.538, 264.715
550.860, 129.846
552.181, 165.855
553.503, 2.090
554.824, 23.152
556.145, 41.891
557.465, 226.553
558.786, 108.129
560.106, 227.102
561.426, 58.354
562.746, 21.895
564.065, 172.566
565.385, 19.574
566.704, 33.994
568.023, 50.885
569.341, 185.268
570.660, 169.637
571.978, 45.652
573.296, 408.633
574.614, 32.895
575.931, 166.268
577.248, 210.484
578.565, 94.340
579.882, 378.510
581.199, 22.852
582.515, 355.873
583.831, 139.969
585.147, 214.045
586.463, 288.428
587.779, 422.945
589.094, 236.949
590.409, 451.076
591.724, 365.090
593.038, 439.197
594.353, 523.105
595.667, 1017.193
596.981, 1241.057
598.295, 1524.893
599.608, 1608.703
600.922, 2022.713
602.235, 2067.025
603.547, 1810.766
604.860, 1674.482
606.172, 1358.176
607.485, 1101.844
608.797, 825.488
610.108, 808.797
611.420, 786.979
612.731, 710.609
614.042, 534.221
615.353, 737.879
616.664, 671.438
617.974, 554.973
619.284, 689.027
620.594, 1032.512
621.904, 916.047
623.213, 1119.482
624.523, 1212.895
625.832, 1296.279
627.141, 1839.641
628.449, 1983.150
629.758, 2246.459
631.066, 2429.744
632.374, 2153.006
633.681, 1976.240
634.989, 1669.449
636.296, 1802.635
637.603, 1605.795
638.910, 1698.930
640.217, 2102.039
641.523, 2595.121
642.829, 2998.178
644.135, 3891.211
645.441, 3914.219
646.747, 3767.203
648.052, 3230.160
649.357, 2843.092
650.662, 2065.998
651.967, 1598.877
653.271, 1531.732
654.575, 894.562
655.879, 907.369
657.183, 760.148
658.486, 642.902
659.790, 675.633
661.093, 648.336
662.396, 201.012
663.698, 613.662
665.001, 356.285
666.303, 438.889
667.605, 361.465
668.907, 344.016
670.209, 526.543
671.510, 229.043
672.811, 291.518
674.112, 143.967
675.413, 456.387
676.713, 68.457
678.013, 300.596
679.313, 342.926
680.613, 155.232
681.913, 194.254
683.212, 294.199
684.511, 266.537
685.810, 138.738
687.109, 280.447
688.407, 140.914
689.706, 222.648
691.004, 381.193
692.302, 103.250
693.599, 389.869
694.897, 101.580
696.194, 142.934
697.491, 188.375
698.788, 359.020
700.084, 10.242
701.380, 338.301
702.677, 70.137
703.972, 251.430
705.268, 140.703
706.564, 162.457
707.859, 54.051
709.154, 45.725
710.449, 237.264
711.743, 156.123
713.037, 417.182
714.332, 89.088
715.626, 82.484
716.919, 404.018
718.213, 149.545
719.506, 328.734
720.799, 149.967
722.092, 440.115
723.384, 10.479
724.677, 390.951
725.969, 342.031
727.261, 133.021
728.553, 339.076
729.844, 290.170
731.136, 98.900
732.427, 431.875
733.718, 267.184
735.008, 363.008
736.299, 163.762
737.589, 255.248
738.879, 355.307
740.169, 205.375
741.458, 125.730
742.748, 86.227
744.037, 318.104
745.326, 168.492
746.614, 188.930
747.903, 159.350
749.191, 369.748
750.479, 150.133
751.767, 220.496
753.055, 400.844
754.342, 211.205
755.629, 141.520
756.916, 61.812
758.203, 372.088
759.490, 212.344
760.776, 212.586
762.062, 232.811
763.348, 293.020
764.634, 373.213
765.919, 36.607
767.204, 368.045
768.489, 358.152
769.774, 78.244
771.059, 528.314
772.343, 378.371
773.627, 58.412
774.911, 538.432
776.195, 168.436
777.479, 498.455
778.762, 328.430
780.045, 418.391
781.328, 428.334
782.611, 138.264
783.893, 568.178
785.175, 478.080
786.457, 447.963
787.739, 537.836
789.021, 707.691
790.302, 597.537
791.583, 787.367
792.864, 757.186
794.145, 976.988
795.425, 946.779
796.706, 1066.557
797.986, 1416.322
799.266, 1156.074
800.545, 1165.814
801.825, 1335.543
803.104, 1155.258
804.383, 1534.961
805.662, 1214.652
806.940, 1264.330
808.219, 1203.998
809.497, 1033.656
810.775, 1323.303
812.053, 822.938
813.330, 942.561
814.608, 1292.174
815.885, 461.775
817.162, 1021.080
818.438, 950.662
819.715, 960.576
820.991, 450.139
822.267, 529.689
823.543, 639.230
824.818, 438.764
826.094, 558.121
827.369, 307.633
828.644, 266.617
829.919, 426.109
831.193, 204.326
832.468, 243.807
833.742, 323.279
835.016, 152.273
836.289, 521.451
837.563, 90.924
838.836, 190.389
840.109, 179.332
841.382, 188.785
842.654, 217.738
843.927, 217.027
845.199, 296.512
846.471, 255.305
847.743, 54.797
849.014, 263.633
850.286, 47.340
851.557, 38.164
852.828, 351.270
854.099, 37.477
855.369, 316.914
856.639, 95.414
857.909, 154.848
859.179, 423.848
860.449, 82.941
861.718, 231.133
862.988, 10.887
864.257, 158.535
865.525, 537.684
866.794, 7.184
868.062, 386.004
869.331, 434.887
870.599, 154.434
871.866, 681.387
873.134, 90.996
874.401, 328.055
875.668, 197.754
876.935, 344.977
878.202, 444.688
879.468, 54.391
880.735, 533.738
882.001, 163.473
883.267, 16.793
884.532, 243.805
885.798, 423.539
887.063, 23.613
888.328, 473.355
889.593, 57.098
890.857, 53.738
892.122, 443.477
893.386, 243.211
894.650, 372.629
895.913, 48.109
897.177, 401.637
898.440, 111.242
899.703, 190.949
900.966, 420.539
902.229, 310.309
903.491, 59.883
904.754, 619.668
906.016, 0.543
907.278, 139.254
908.539, 68.840
909.801, 198.102
911.062, 347.922
912.323, 67.746
913.584, 397.578
914.844, 407.418
916.105, 257.273
917.365, 297.137
918.625, 277.578
919.885, 392.176
921.144, 251.934
922.404, 311.219
923.663, 30.992
924.922, 260.770
926.180, 170.008
927.439, 379.801
928.697, 0.477
929.955, 409.328
931.213, 179.137
932.471, 288.953
933.728, 428.777
934.985, 318.434
936.242, 28.289
937.499, 288.145
938.756, 258.012
940.012, 617.887
941.269, 297.773
942.525, 247.660
943.780, 187.559
945.036, 87.457
946.291, 207.371
947.546, 277.285
948.801, 187.215
950.056, 437.145
951.311, 67.086
952.565, 517.031
953.819, 306.988
955.073, 266.953
956.327, 196.918
957.580, 86.891
958.834, 6.875
960.087, 416.863
961.339, 36.859
962.592, 606.867
963.845, 36.879
965.097, 326.898
966.349, 206.926
967.601, 86.957
968.852, 567.004
970.104, 22.941
971.355, 467.121
972.606, 307.199
973.857, 87.289
975.107, 177.391
976.358, 347.508
977.608, 387.633
978.858, 547.777
980.108, 297.934
981.357, 458.105
982.607, 798.289
983.856, 188.492
985.105, 1088.715
986.353, 548.945
987.602, 809.195
988.850, 1209.344
990.098, 799.625
991.346, 1109.918
992.594, 1310.230
993.841, 1500.555
995.089, 1946.117
996.336, 1866.477
997.583, 2426.852
998.829, 2347.023
1000.076, 2517.426
1001.322, 3434.512
1002.568, 3842.078
1003.814, 4292.523
1005.060, 4652.750
1006.305, 4993.242
1007.550, 5723.754
1008.795, 5974.285
1010.040, 6074.828
1011.285, 6045.355
1012.529, 5523.621
1013.773, 5383.172
1015.017, 4732.527
1016.261, 4213.164
1017.505, 3783.500
1018.748, 3348.840
1019.991, 2889.527
1021.234, 2590.578
1022.477, 2098.840
1023.719, 2349.633
1024.962, 2240.941
1026.204, 1891.816
1027.446, 1962.727
1028.688, 1813.648
1029.929, 1714.594
1031.170, 2185.555
1032.411, 2086.531
1033.652, 2326.738
1034.893, 2367.793
1036.134, 2498.859
1037.374, 2730.035
1038.614, 3071.223
1039.854, 3130.316
1041.094, 3991.625
1042.333, 3602.957
1043.572, 4284.305
1044.811, 4315.750
1046.050, 4185.738
1047.289, 4547.152
1048.527, 4468.594
1049.766, 4360.051
1051.004, 4721.531
1052.241, 4683.035
1053.479, 4754.562
1054.717, 4916.109
1055.954, 5357.590
1057.191, 6259.125
1058.428, 5460.680
1059.664, 6312.262
1060.901, 5823.867
1062.137, 5155.500
1063.373, 4747.148
1064.609, 3570.719
1065.844, 3672.211
1067.080, 2613.715
1068.315, 1930.672
1069.550, 2182.066
1070.785, 1743.191
1072.019, 1484.328
1073.254, 1345.465
1074.488, 1026.617
1075.722, 1127.770
1076.955, 848.926
1078.189, 850.055
1079.422, 1231.215
1080.656, 622.379
1081.889, 763.539
1083.121, 884.691
1084.354, 729.152
1085.586, 910.297
1086.818, 821.426
1088.050, 983.023
1089.282, 794.125
1090.514, 485.164
1091.745, 776.184
1092.976, 1037.191
1094.207, 588.383
1095.438, 759.395
1096.668, 880.410
1097.899, 1141.660
1099.129, 1092.680
1100.359, 863.562
1101.588, 1534.430
1102.818, 1455.270
1104.047, 1536.102
1105.276, 1896.977
1106.505, 2107.785
1107.734, 2138.977
1108.962, 2319.754
1110.191, 1910.531
1111.419, 2381.316
1112.647, 2362.047
1113.874, 1923.949
1115.102, 2243.516
1116.329, 2015.449
1117.556, 1827.066
1118.783, 1939.062
1120.010, 1581.090
1121.236, 1863.148
1122.463, 1845.246
1123.689, 1507.371
1124.914, 1829.531
1126.140, 731.730
1127.366, 1393.961
1128.591, 1106.227
1129.816, 938.480
1131.041, 1030.766
1132.266, 533.098
1133.490, 1005.523
1134.714, 847.984
1135.938, 290.480
1137.162, 1123.012
1138.386, 445.508
1139.609, 597.953
1140.833, 810.414
1142.056, 77.117
1143.279, 835.305
1144.501, 267.539
1145.724, 699.801
1146.946, 682.082
1148.168, 74.395
1149.390, 336.742
1150.612, 569.105
1151.833, 311.523
1153.054, 283.965
1154.275, 236.426
1155.496, 408.922
1156.717, 491.441
1157.937, 313.973
1159.158, 103.473
1160.378, 819.105
1161.598, 118.305
1162.817, 314.309
1164.037, 266.918
1165.256, 50.359
1166.475, 412.492
1167.694, 65.375
1168.913, 91.691
1170.131, 821.277
1171.349, 295.707
1172.567, 587.352
1173.785, 320.406
1175.003, 183.504
1176.220, 496.648
1177.438, 339.848
1178.655, 333.098
1179.872, 626.406
1181.088, 399.773
1182.305, 503.203
1183.521, 726.707
1184.737, 470.285
1185.953, 603.934
1187.169, 887.668
1188.384, 801.484
1189.599, 1165.371
1190.814, 189.324
1192.029, 953.332
1193.244, 1007.406
1194.459, 581.531
1195.673, 785.715
1196.887, 999.961
1198.101, 524.266
1199.314, 908.633
1200.528, 303.062
1201.741, 1504.695
1202.954, 888.992
1204.167, 253.363
1205.380, 1267.418
1206.592, 631.934
1207.805, 526.527
1209.017, 901.191
1210.229, 43.828
1211.440, 662.340
1212.652, 796.051
1213.863, 265.289
1215.074, 723.719
1216.285, 929.484
1217.496, 320.238
1218.707, 670.824
1219.917, 691.230
1221.127, 161.422
1222.337, 601.375
1223.547, 381.059
1224.756, 240.430
1225.966, 579.148
1227.175, 347.754
1228.384, 655.895
1229.592, 36.484
1230.801, 750.523
1232.009, 727.434
1233.217, 33.633
1234.425, 779.004
1235.633, 252.328
1236.841, 527.613
1238.048, 313.453
1239.255, 73.078
1240.462, 582.512
1241.669, 321.762
1242.876, 60.855
1244.082, 599.883
1245.288, 367.289
1246.494, 173.809
1247.700, 404.844
1248.906, 192.113
1250.111, 76.785
1251.316, 342.773
1252.521, 3.098
1253.726, 231.223
1254.931, 450.672
1256.135, 239.398
1257.339, 323.547
1258.543, 1.348
1259.747, 0.000
##END=



