##NAMES=Montebrasite
##RRUFFID=R060890
##IDEAL CHEMISTRY=LiAlPO_4_(OH)
##LOCALITY=Mount Marie, Paris, Maine, USA
##OWNER=RRUFF
##SOURCE=Bob Jenkins
##DESCRIPTION=Colorless massive
##STATUS=The identification of this mineral is confirmed by single-crystal X-ray diffraction and chemical analysis.
##URL=rruff.info/R060890
##MEASURED CHEMISTRY=Li_1.00_Al_1.00_(P_1.00_O_4_)(OH)_0.63_F_0.37_)_Î£=1_ ; Li not measured but estimated by stoichiometry
##PIN_ID=M01677
##ORIENTATION=Laser parallel to b* (0 1 0). Fiducial mark perpendicular to laser is parallel to c [0 0 1]
90.67800, 0.0000000E+00
91.91600, 131.9619
93.15500, 26.30371
94.39300, 184.7505
95.63100, 253.4971
96.86900, 85.03418
98.10600, 27.43994
99.34400, 67.44922
100.5810, 112.2090
101.8190, 95.44580
103.0560, 139.0835
104.2930, 70.12695
105.5290, 150.1011
106.7660, 268.6094
108.0020, 292.4937
109.2390, 234.6230
110.4750, 399.8848
111.7110, 358.1763
112.9460, 424.4087
114.1820, 598.5034
115.4170, 838.3931
116.6530, 855.0195
117.8880, 1116.333
119.1230, 1328.292
120.3580, 1503.047
121.5920, 1800.398
122.8270, 2004.268
124.0610, 2144.631
125.2950, 2193.470
126.5290, 2344.765
127.7630, 2297.498
128.9970, 2407.640
130.2300, 2452.155
131.4640, 2332.014
132.6970, 2051.198
133.9300, 1692.691
135.1630, 1427.479
136.3950, 1222.550
137.6280, 1084.896
138.8600, 870.5083
140.0920, 714.3789
141.3240, 520.5005
142.5560, 415.7002
143.7880, 252.4756
145.0190, 263.3179
146.2510, 195.3901
147.4820, 192.6875
148.7130, 163.7349
149.9440, 62.92773
151.1750, 127.9233
152.4050, 134.9805
153.6360, 103.2476
154.8660, 163.7202
156.0960, 145.3955
157.3260, 150.2764
158.5560, 121.3735
159.7850, 112.6641
161.0150, 264.1455
162.2440, 321.8213
163.4730, 434.6787
164.7020, 484.6743
165.9310, 727.6836
167.1590, 737.7085
168.3880, 955.7480
169.6160, 1035.819
170.8440, 1011.950
172.0720, 1210.151
173.3000, 1460.430
174.5280, 1492.794
175.7550, 1506.251
176.9820, 1699.805
178.2100, 1772.458
179.4370, 1802.216
180.6630, 1945.079
181.8900, 2045.049
183.1170, 1959.130
184.3430, 2086.319
185.5690, 2156.620
186.7950, 2135.032
188.0210, 2082.556
189.2470, 1926.192
190.4720, 1802.940
191.6970, 1611.799
192.9230, 1620.770
194.1480, 1454.852
195.3730, 1255.043
196.5970, 1010.343
197.8220, 847.7520
199.0460, 714.2705
200.2700, 506.8955
201.4940, 415.6279
202.7180, 179.4673
203.9420, 115.4116
205.1660, 123.4609
206.3890, 101.3848
207.6120, 54.12695
208.8350, 13.76611
210.0580, 10.30273
211.2810, 120.2622
212.5040, 153.9282
213.7260, 121.6948
214.9480, 240.5610
216.1700, 339.5264
217.3920, 410.5898
218.6140, 447.7510
219.8360, 457.0078
221.0570, 533.3613
222.2790, 477.9067
223.5000, 535.7690
224.7210, 585.9766
225.9410, 551.9243
227.1620, 519.7134
228.3820, 512.5933
229.6030, 592.5645
230.8230, 524.9229
232.0430, 471.4082
233.2630, 590.6411
234.4820, 576.9614
235.7020, 517.3672
236.9210, 392.8589
238.1400, 482.1704
239.3590, 441.3818
240.5780, 276.4824
241.7970, 287.6411
243.0150, 354.0820
244.2340, 217.7681
245.4520, 226.7314
246.6700, 172.9082
247.8880, 151.3179
249.1060, 164.9331
250.3230, 150.5898
251.5400, 161.2056
252.7580, 209.8833
253.9750, 149.2183
255.1920, 255.7192
256.4080, 182.3823
257.6250, 313.2310
258.8410, 381.2173
260.0580, 451.1343
261.2740, 605.5879
262.4900, 670.9678
263.7050, 673.4731
264.9210, 787.1011
266.1360, 866.8325
267.3520, 866.6758
268.5670, 1020.617
269.7820, 1117.674
270.9960, 1047.826
272.2110, 1196.091
273.4250, 1329.448
274.6400, 1327.894
275.8540, 1303.426
277.0680, 1382.048
278.2810, 1645.751
279.4950, 1682.538
280.7090, 1985.416
281.9220, 2275.373
283.1350, 2579.407
284.3480, 3143.519
285.5610, 3850.706
286.7730, 4791.966
287.9860, 6298.304
289.1980, 8064.713
290.4100, 10135.20
291.6220, 12922.75
292.8340, 15829.37
294.0460, 18376.05
295.2570, 20816.79
296.4690, 23183.59
297.6800, 24777.46
298.8910, 26341.39
300.1020, 27495.40
301.3120, 28277.45
302.5230, 27608.58
303.7330, 26173.76
304.9440, 23835.01
306.1540, 21192.32
307.3630, 18645.69
308.5730, 16109.11
309.7830, 14232.05
310.9920, 12277.14
312.2010, 10990.75
313.4100, 9652.405
314.6190, 8649.120
315.8280, 7694.896
317.0370, 6895.728
318.2450, 5904.618
319.4530, 5301.564
320.6610, 4481.567
321.8690, 3765.627
323.0770, 3090.744
324.2850, 2534.916
325.4920, 2108.143
326.6990, 1839.424
327.9060, 1577.761
329.1130, 1183.151
330.3200, 1239.595
331.5270, 1053.092
332.7330, 1010.642
333.9390, 779.2437
335.1450, 685.8984
336.3510, 690.6035
337.5570, 629.3599
338.7630, 538.1660
339.9680, 533.0229
341.1740, 309.9292
342.3790, 240.8843
343.5840, 181.8882
344.7890, 93.93994
345.9930, 179.0391
347.1980, 122.1855
348.4020, 144.3789
349.6060, 39.61768
350.8100, 108.9033
352.0140, 12.16895
353.2180, 6.326660
354.4210, 28.99658
355.6250, 16.59668
356.8280, 41.09229
358.0310, 18.58301
359.2340, 10.64795
360.4360, 28.66748
361.6390, 29.33740
362.8410, 59.04834
364.0430, 92.40283
365.2450, 23.59131
366.4470, 32.42334
367.6490, 184.2939
368.8510, 29.79932
370.0520, 199.1421
371.2530, 32.87939
372.4540, 102.1343
373.6550, 91.18506
374.8560, 90.27295
376.0560, 237.3960
377.2570, 149.5522
378.4570, 241.7446
379.6570, 168.9717
380.8570, 204.2339
382.0570, 152.5293
383.2560, 233.8799
384.4560, 205.4985
385.6550, 136.5508
386.8540, 274.5840
388.0530, 137.3345
389.2520, 453.2900
390.4510, 399.4268
391.6490, 442.4082
392.8470, 513.9565
394.0450, 528.3594
395.2430, 534.2305
396.4410, 562.8052
397.6390, 744.5264
398.8360, 685.3145
400.0340, 936.3174
401.2310, 1112.274
402.4280, 1154.963
403.6250, 1457.402
404.8210, 1503.351
406.0180, 1934.348
407.2140, 2287.094
408.4100, 2700.594
409.6060, 3563.907
410.8020, 4579.452
411.9980, 6233.830
413.1930, 8251.719
414.3890, 11580.16
415.5840, 15546.61
416.7790, 20426.59
417.9740, 25791.14
419.1680, 29546.74
420.3630, 32043.44
421.5570, 33901.09
422.7510, 36093.77
423.9450, 37872.95
425.1390, 38084.69
426.3330, 36059.46
427.5270, 31802.28
428.7200, 25821.12
429.9130, 19471.99
431.1060, 14468.25
432.2990, 10462.17
433.4920, 7538.117
434.6840, 5712.091
435.8770, 4462.098
437.0690, 3512.139
438.2610, 2594.207
439.4530, 2065.312
440.6450, 1726.448
441.8360, 1452.615
443.0280, 1219.813
444.2190, 1163.045
445.4100, 817.3198
446.6010, 808.6230
447.7920, 596.9468
448.9820, 527.2876
450.1730, 505.6514
451.3630, 546.0332
452.5530, 419.4448
453.7430, 411.8750
454.9330, 485.3291
456.1230, 437.8018
457.3120, 416.2910
458.5010, 471.7949
459.6910, 560.3135
460.8800, 632.8521
462.0680, 710.4048
463.2570, 826.9741
464.4460, 1009.862
465.6340, 1203.104
466.8220, 1460.782
468.0100, 1696.438
469.1980, 1980.111
470.3860, 2256.802
471.5730, 2622.515
472.7600, 3013.646
473.9480, 3465.985
475.1350, 3927.746
476.3210, 4359.519
477.5080, 4753.330
478.6950, 5289.111
479.8810, 5490.921
481.0670, 5906.741
482.2530, 6242.569
483.4390, 6214.401
484.6250, 6420.248
485.8100, 6432.107
486.9960, 6578.974
488.1810, 6416.852
489.3660, 6251.733
490.5510, 6137.618
491.7360, 6056.511
492.9200, 5852.411
494.1050, 5556.312
495.2890, 5173.129
496.4730, 4882.000
497.6570, 4564.655
498.8400, 4165.447
500.0240, 3768.952
501.2070, 3425.726
502.3910, 3103.565
503.5740, 2671.484
504.7570, 2316.401
505.9400, 2068.316
507.1220, 1705.229
508.3050, 1536.140
509.4870, 1370.047
510.6690, 1085.951
511.8510, 1026.564
513.0330, 829.4600
514.2140, 740.0249
515.3960, 558.9106
516.5770, 440.7910
517.7580, 296.6670
518.9390, 217.5356
520.1200, 200.3984
521.3010, 157.2549
522.4810, 110.0498
523.6610, 67.94580
524.8420, 58.78027
526.0220, 51.39404
527.2010, 21.61475
528.3810, 53.86963
529.5610, 6.826172
530.7400, 13.50146
531.9190, 179.8618
533.0980, 127.3398
534.2770, 68.91064
535.4560, 81.54443
536.6340, 2.249023
537.8120, 5.015137
538.9910, 112.7515
540.1690, 63.60791
541.3460, 65.52881
542.5240, 174.5171
543.7020, 5.630859
544.8790, 0.2163090
546.0560, 23.97363
547.2330, 6.212402
548.4100, 17.49316
549.5870, 11.82178
550.7630, 163.0259
551.9400, 7.635254
553.1160, 76.23535
554.2920, 29.44189
555.4680, 105.0547
556.6440, 35.46729
557.8190, 57.64893
558.9950, 87.24316
560.1700, 96.65186
561.3450, 42.75537
562.5200, 136.2510
563.6950, 96.21826
564.8690, 13.88965
566.0440, 103.2383
567.2180, 124.5610
568.3920, 192.1484
569.5660, 116.8530
570.7400, 254.4277
571.9130, 81.67139
573.0870, 241.7817
574.2600, 241.0098
575.4330, 207.0649
576.6060, 274.9780
577.7790, 348.9653
578.9520, 287.2158
580.1240, 376.3921
581.2960, 356.8066
582.4690, 334.2715
583.6410, 404.1802
584.8120, 456.4487
585.9840, 544.9614
587.1560, 525.2334
588.3270, 577.8169
589.4980, 642.6592
590.6690, 698.8960
591.8400, 732.1797
593.0110, 735.0762
594.1810, 870.4546
595.3510, 914.1089
596.5220, 905.7368
597.6920, 969.8716
598.8610, 1059.732
600.0310, 1060.523
601.2010, 1062.635
602.3700, 1311.573
603.5390, 1085.983
604.7080, 1130.085
605.8770, 1381.435
607.0460, 1291.981
608.2140, 1283.381
609.3830, 1272.076
610.5510, 1395.165
611.7190, 1502.312
612.8870, 1538.741
614.0550, 1688.679
615.2220, 1807.850
616.3900, 2016.906
617.5570, 2178.997
618.7240, 2319.011
619.8910, 2578.805
621.0580, 2876.907
622.2240, 3273.983
623.3910, 3644.864
624.5570, 4149.882
625.7230, 4621.285
626.8890, 5130.090
628.0550, 5878.302
629.2200, 6542.213
630.3860, 7571.082
631.5510, 8773.823
632.7160, 10315.39
633.8810, 12242.95
635.0460, 14858.48
636.2100, 18387.94
637.3750, 22738.39
638.5390, 27784.59
639.7030, 32069.96
640.8670, 35873.31
642.0310, 38677.62
643.1950, 40773.89
644.3580, 42078.11
645.5210, 41952.31
646.6850, 39839.47
647.8480, 35532.58
649.0100, 30164.66
650.1730, 24298.69
651.3350, 19248.69
652.4980, 15043.65
653.6600, 11769.57
654.8220, 9490.450
655.9840, 7569.294
657.1450, 6200.098
658.3070, 5015.859
659.4680, 4504.583
660.6300, 3807.268
661.7910, 3215.911
662.9510, 2752.515
664.1120, 2384.079
665.2730, 2229.604
666.4330, 1800.874
667.5930, 1747.723
668.7530, 1436.608
669.9130, 1349.788
671.0730, 1266.774
672.2320, 1071.600
673.3920, 962.5889
674.5510, 968.0205
675.7100, 778.6050
676.8690, 849.7295
678.0280, 720.1553
679.1860, 692.4399
680.3450, 667.6621
681.5030, 527.6743
682.6610, 485.7354
683.8190, 453.0669
684.9770, 430.6494
686.1340, 330.7246
687.2920, 276.7515
688.4490, 265.3115
689.6060, 143.5532
690.7630, 228.2622
691.9200, 167.7354
693.0760, 97.37549
694.2330, 218.4980
695.3890, 195.0645
696.5450, 16.38379
697.7010, 30.62354
698.8570, 73.02979
700.0130, 88.39453
701.1680, 135.6367
702.3230, 91.92725
703.4780, 55.17871
704.6330, 64.91064
705.7880, 140.0752
706.9430, 30.79395
708.0970, 46.25830
709.2520, 105.2637
710.4060, 62.23340
711.5600, 155.7939
712.7140, 131.6904
713.8670, 28.55225
715.0210, 7.365723
716.1740, 5.121094
717.3270, 51.81836
718.4800, 15.52637
719.6330, 13.75635
720.7860, 12.31348
721.9380, 2.792969
723.0910, 3.785645
724.2430, 40.42627
725.3950, 11.85400
726.5470, 68.08057
727.6980, 128.2695
728.8500, 35.42627
730.0010, 77.89404
731.1530, 4.381836
732.3040, 66.63721
733.4550, 16.61963
734.6050, 48.55420
735.7560, 72.44922
736.9060, 90.44287
738.0560, 92.37109
739.2060, 23.06592
740.3560, 75.69482
741.5060, 48.63867
742.6560, 22.31934
743.8050, 142.9551
744.9540, 9.286621
746.1030, 54.15381
747.2520, 27.32422
748.4010, 15.00439
749.5500, 5.602539
750.6980, 84.73584
751.8460, 19.31934
752.9950, 35.92822
754.1420, 40.07715
755.2900, 5.933105
756.4380, 137.1875
757.5850, 46.88965
758.7330, 32.29932
759.8800, 91.99414
761.0270, 132.9902
762.1730, 4.959961
763.3200, 15.88428
764.4670, 32.32617
765.6130, 18.17529
766.7590, 77.82812
767.9050, 76.61230
769.0510, 25.65576
770.1960, 28.37842
771.3420, 163.0674
772.4870, 106.7329
773.6320, 24.46240
774.7770, 162.0718
775.9220, 27.65869
777.0670, 176.2139
778.2110, 213.1831
779.3560, 224.6934
780.5000, 285.1816
781.6440, 281.6479
782.7880, 331.0923
783.9320, 363.3608
785.0750, 395.3027
786.2180, 433.3003
787.3620, 477.6611
788.5050, 513.0015
789.6480, 554.3223
790.7900, 604.2852
791.9330, 748.9028
793.0750, 725.1650
794.2170, 805.4072
795.3590, 908.6299
796.5010, 920.8350
797.6430, 1023.022
798.7850, 1022.190
799.9260, 1144.341
801.0670, 1171.042
802.2080, 1218.284
803.3490, 1237.690
804.4900, 1292.791
805.6310, 1292.889
806.7710, 1299.991
807.9110, 1282.083
809.0510, 1314.171
810.1910, 1253.298
811.3310, 1257.450
812.4710, 1247.613
813.6100, 1186.791
814.7490, 1206.964
815.8880, 1192.132
817.0270, 1090.326
818.1660, 995.5303
819.3050, 1014.750
820.4430, 1005.011
821.5820, 976.2725
822.7200, 914.4780
823.8580, 782.7979
824.9950, 744.0640
826.1330, 683.3350
827.2710, 599.3872
828.4080, 351.6504
829.5450, 534.8843
830.6820, 404.3682
831.8190, 536.6309
832.9560, 530.8838
834.0920, 317.4482
835.2280, 324.5039
836.3650, 282.7178
837.5010, 146.2095
838.6360, 270.2754
839.7720, 298.8418
840.9080, 75.67578
842.0430, 179.7930
843.1780, 99.90967
844.3130, 159.7329
845.4480, 180.4116
846.5830, 121.1924
847.7170, 26.27588
848.8520, 53.46387
849.9860, 151.5068
851.1200, 115.6934
852.2540, 198.9956
853.3870, 109.1948
854.5210, 131.1050
855.6540, 43.06006
856.7880, 24.24951
857.9210, 152.3589
859.0540, 86.49561
860.1860, 80.24609
861.3190, 127.7246
862.4510, 113.4160
863.5840, 69.76953
864.7160, 77.37012
865.8480, 25.48145
866.9790, 36.05273
868.1110, 37.98438
869.2420, 34.40723
870.3740, 21.52637
871.5050, 88.64648
872.6360, 6.768555
873.7660, 18.07129
874.8970, 55.95508
876.0280, 58.50781
877.1580, 66.82129
878.2880, 34.35840
879.4180, 23.82031
880.5480, 28.97949
881.6770, 114.0186
882.8070, 33.13672
883.9360, 13.06738
885.0650, 47.30762
886.1940, 58.60059
887.3230, 56.41699
888.4520, 98.02539
889.5800, 64.78906
890.7090, 85.52246
891.8370, 44.68066
892.9650, 28.05664
894.0930, 18.59668
895.2200, 30.47266
896.3480, 21.64844
897.4750, 39.94141
898.6020, 13.07715
899.7290, 57.19434
900.8560, 117.1074
901.9830, 37.02148
903.1090, 39.12695
904.2360, 16.69629
905.3620, 45.58301
906.4880, 21.00586
907.6140, 66.41797
908.7400, 6.156250
909.8650, 29.31152
910.9900, 6.763672
912.1160, 164.4434
913.2410, 56.07520
914.3660, 42.41504
915.4900, 152.9189
916.6150, 59.44043
917.7390, 16.97559
918.8640, 104.5283
919.9880, 99.09668
921.1120, 42.68164
922.2350, 196.2822
923.3590, 48.90137
924.4820, 242.5371
925.6060, 104.1895
926.7290, 245.8604
927.8520, 232.5479
928.9740, 207.2539
930.0970, 266.9775
931.2190, 216.8711
932.3420, 272.4814
933.4640, 158.2617
934.5860, 230.0605
935.7080, 193.8789
936.8290, 258.7158
937.9510, 338.5723
939.0720, 287.4492
940.1930, 336.3457
941.3140, 385.2617
942.4350, 497.1973
943.5560, 504.1904
944.6760, 477.1318
945.7960, 535.1289
946.9170, 518.1465
948.0370, 489.1846
949.1560, 532.2432
950.2760, 565.3223
951.3960, 636.4209
952.5150, 680.5430
953.6340, 736.1836
954.7530, 791.8457
955.8720, 815.0283
956.9910, 900.2314
958.1090, 869.4561
959.2280, 1009.702
960.3460, 913.9688
961.4640, 948.2559
962.5820, 1061.567
963.6990, 1130.899
964.8170, 1203.254
965.9340, 1290.632
967.0510, 1423.033
968.1690, 1497.456
969.2850, 1624.378
970.4020, 1682.432
971.5190, 1862.963
972.6350, 1964.520
973.7510, 2080.100
974.8670, 2315.715
975.9830, 2347.376
977.0990, 2535.068
978.2150, 2797.785
979.3300, 3079.547
980.4450, 3370.342
981.5600, 3693.160
982.6750, 4058.007
983.7900, 4619.879
984.9050, 5048.781
986.0190, 5607.721
987.1340, 6307.697
988.2480, 7219.602
989.3620, 8217.758
990.4750, 9524.847
991.5890, 10945.25
992.7020, 12559.41
993.8160, 14561.62
994.9290, 16559.11
996.0420, 18534.18
997.1550, 21234.53
998.2670, 23880.91
999.3800, 26610.32
1000.492, 29769.77
1001.604, 33137.24
1002.716, 36521.76
1003.828, 39982.31
1004.940, 42678.91
1006.051, 45536.53
1007.163, 47685.91
1008.274, 48849.58
1009.385, 48986.29
1010.496, 48484.02
1011.606, 46963.56
1012.717, 44671.65
1013.827, 41940.26
1014.937, 38714.73
1016.047, 35096.65
1017.157, 31459.62
1018.267, 28135.38
1019.377, 25186.42
1020.486, 22332.49
1021.595, 20099.96
1022.704, 17836.71
1023.813, 16035.96
1024.922, 14612.68
1026.030, 13407.54
1027.139, 12611.24
1028.247, 11977.21
1029.355, 11912.89
1030.463, 11602.43
1031.571, 11831.59
1032.678, 11833.42
1033.786, 12154.25
1034.893, 12787.76
1036.000, 13468.67
1037.107, 14209.22
1038.214, 14858.53
1039.321, 15319.17
1040.427, 16395.26
1041.533, 16794.95
1042.639, 17280.58
1043.745, 17448.33
1044.851, 18223.10
1045.957, 18531.90
1047.062, 18610.55
1048.168, 19041.41
1049.273, 19202.29
1050.378, 19175.21
1051.482, 19691.14
1052.587, 20088.11
1053.692, 20915.11
1054.796, 21860.12
1055.900, 22683.17
1057.004, 23907.24
1058.108, 25169.34
1059.212, 25417.46
1060.315, 25933.61
1061.418, 25243.79
1062.522, 24279.99
1063.625, 22881.21
1064.728, 20895.47
1065.830, 18579.75
1066.933, 16127.05
1068.035, 13667.38
1069.137, 11602.73
1070.239, 10031.11
1071.341, 8593.511
1072.443, 7228.941
1073.545, 6435.395
1074.646, 5709.875
1075.747, 5074.379
1076.848, 4453.908
1077.949, 4111.463
1079.050, 3744.041
1080.150, 3392.645
1081.251, 2969.271
1082.351, 2758.926
1083.451, 2612.603
1084.551, 2246.304
1085.651, 2233.030
1086.750, 1942.779
1087.850, 1743.553
1088.949, 1604.352
1090.048, 1504.174
1091.147, 1449.020
1092.246, 1417.889
1093.345, 1263.783
1094.443, 1040.699
1095.541, 1030.641
1096.639, 948.6055
1097.737, 997.5938
1098.835, 930.6035
1099.933, 833.6387
1101.030, 654.0322
1102.128, 699.1123
1103.225, 638.2148
1104.322, 560.3760
1105.419, 589.5244
1106.515, 621.4600
1107.612, 534.6846
1108.708, 638.4619
1109.804, 476.6992
1110.900, 471.0850
1111.996, 521.3652
1113.092, 541.6738
1114.187, 412.0039
1115.283, 544.3545
1116.378, 369.2344
1117.473, 359.0625
1118.568, 455.4746
1119.662, 418.4531
1120.757, 416.9062
1121.851, 496.3799
1122.946, 392.8730
1124.040, 390.3887
1125.134, 356.1426
1126.227, 234.7236
1127.321, 195.9697
1128.414, 216.5947
1129.508, 161.0400
1130.601, 182.7236
1131.693, 149.7305
1132.786, 68.11426
1133.879, 73.82910
1134.971, 33.38184
1136.064, 59.14160
1137.156, 39.10254
1138.248, 50.09961
1139.339, 44.98828
1140.431, 34.82227
1141.522, 70.34570
1142.614, 14.48438
1143.705, 9.688477
1144.796, 67.14258
1145.887, 116.2812
1146.977, 10.28711
1148.068, 37.14453
1149.158, 30.35742
1150.248, 38.70508
1151.338, 38.60742
1152.428, 19.52246
1153.518, 16.53906
1154.607, 28.57812
1155.696, 53.41992
1156.785, 38.41309
1157.874, 25.40332
1158.963, 65.61621
1160.052, 74.64941
1161.141, 3.300781
1162.229, 18.21680
1163.317, 9.110352
1164.405, 42.66992
1165.493, 11.77539
1166.581, 27.11816
1167.668, 42.99023
1168.756, 23.11719
1169.843, 83.23633
1170.930, 8.631836
1172.017, 140.5059
1173.103, 90.65332
1174.190, 37.81250
1175.276, 90.98340
1176.363, 129.1631
1177.449, 25.64648
1178.535, 71.18164
1179.620, 150.6494
1180.706, 264.8633
1181.791, 166.0879
1182.877, 323.3203
1183.962, 239.5635
1185.047, 375.8154
1186.131, 207.7969
1187.216, 340.0645
1188.300, 365.3418
1189.385, 335.6270
1190.469, 349.9199
1191.553, 450.2207
1192.637, 443.5342
1193.720, 422.8516
1194.804, 436.1758
1195.887, 381.5068
1196.970, 442.8467
1198.053, 388.1934
1199.136, 416.5479
1200.219, 564.9082
1201.301, 511.2754
1202.383, 505.6484
1203.465, 448.0293
1204.547, 353.4160
1205.629, 471.8086
1206.711, 407.2080
1207.792, 435.6123
1208.874, 541.0225
1209.955, 433.4375
1211.036, 357.8594
1212.117, 351.2861
1213.198, 383.7168
1214.278, 296.1543
1215.359, 391.5957
1216.439, 294.0420
1217.519, 295.4932
1218.599, 264.9482
1219.678, 191.4072
1220.758, 80.87109
1221.837, 123.3389
1222.917, 175.8096
1223.996, 102.2861
1225.075, 194.7646
1226.153, 48.24805
1227.232, 52.73438
1228.310, 124.2236
1229.389, 142.7148
1230.467, 11.79004
1231.545, 117.6943
1232.622, 60.18066
1233.700, 20.66992
1234.777, 44.16016
1235.855, 18.06543
1236.932, 56.58887
1238.009, 4.855469
1239.086, 122.3740
1240.162, 18.81543
1241.239, 107.2930
1242.315, 62.23242
1243.391, 103.6758
1244.467, 67.14453
1245.543, 10.41211
1246.619, 11.01758
1247.694, 119.4434
1248.769, 8.868164
1249.844, 100.3828
1250.919, 117.8018
1251.994, 57.22070
1253.069, 67.64062
1254.144, 36.94238
1255.218, 204.5498
1256.292, 7.126953
1257.366, 100.0430
1258.440, 9.587891
1259.514, 62.76270
1260.587, 23.11230
1261.661, 12.45605
1262.734, 92.79102
1263.807, 24.23730
1264.880, 169.0684
1265.952, 32.95020
1267.025, 88.25000
1268.097, 26.76855
1269.170, 43.60547
1270.242, 138.8945
