##NAMES=Montebrasite
##RRUFFID=R060890
##IDEAL CHEMISTRY=LiAlPO_4_(OH)
##LOCALITY=Mount Marie, Paris, Maine, USA
##OWNER=RRUFF
##SOURCE=Bob Jenkins
##DESCRIPTION=Colorless massive
##STATUS=The identification of this mineral is confirmed by single-crystal X-ray diffraction and chemical analysis.
##URL=rruff.info/R060890
##MEASURED CHEMISTRY=Li_1.00_Al_1.00_(P_1.00_O_4_)(OH)_0.63_F_0.37_)_Î£=1_ ; Li not measured but estimated by stoichiometry
##PIN_ID=M01084
##ORIENTATION=Laser parallel to -a* (-1 0 0). Fiducial mark perpendicular to laser is parallel to b [0 1 0]
90.67800, 0.0000000E+00
91.91600, 197.0117
93.15500, 127.8018
94.39300, 156.1240
95.63100, 283.9121
96.86900, 177.0762
98.10600, 160.7666
99.34400, 210.6152
100.5810, 75.37891
101.8190, 43.37500
103.0560, 42.94824
104.2930, 106.0342
105.5290, 268.8545
106.7660, 532.9434
108.0020, 703.3975
109.2390, 580.5967
110.4750, 488.2080
111.7110, 383.0166
112.9460, 567.8730
114.1820, 705.6787
115.4170, 934.3682
116.6530, 1025.901
117.8880, 964.2559
119.1230, 1435.864
120.3580, 1498.894
121.5920, 1590.400
122.8270, 2049.932
124.0610, 2339.163
125.2950, 2645.721
126.5290, 2882.349
127.7630, 2985.109
128.9970, 3572.137
130.2300, 3902.516
131.4640, 3880.307
132.6970, 3746.529
133.9300, 3172.234
135.1630, 2664.473
136.3950, 2088.291
137.6280, 1962.726
138.8600, 1388.813
140.0920, 1209.586
141.3240, 731.0664
142.5560, 485.2832
143.7880, 482.2549
145.0190, 250.0000
146.2510, 103.5342
147.4820, 112.8701
148.7130, 209.5752
149.9440, 269.1719
151.1750, 302.4131
152.4050, 314.0361
153.6360, 354.6445
154.8660, 333.8594
156.0960, 289.9092
157.3260, 300.9316
158.5560, 356.8496
159.7850, 334.6729
161.0150, 397.8867
162.2440, 403.2129
163.4730, 551.0156
164.7020, 669.8613
165.9310, 851.6553
167.1590, 824.0234
168.3880, 890.8955
169.6160, 985.6797
170.8440, 1028.877
172.0720, 1090.843
173.3000, 1189.099
174.5280, 1234.544
175.7550, 1354.066
176.9820, 1536.666
178.2100, 1686.334
179.4370, 1626.070
180.6630, 1696.871
181.8900, 1666.729
183.1170, 1707.642
184.3430, 1842.605
185.5690, 1873.616
186.7950, 1919.673
188.0210, 1974.771
189.2470, 1938.910
190.4720, 1997.087
191.6970, 1993.300
192.9230, 1909.904
194.1480, 1795.817
195.3730, 1709.108
196.5970, 1543.406
197.8220, 1404.704
199.0460, 1173.009
200.2700, 1024.319
201.4940, 784.6367
202.7180, 727.9619
203.9420, 257.2949
205.1660, 43.63574
206.3890, 72.01465
207.6120, 132.6582
208.8350, 115.2910
210.0580, 114.9150
211.2810, 209.5293
212.5040, 166.1348
213.7260, 163.7285
214.9480, 20.31250
216.1700, 121.8877
217.3920, 33.45215
218.6140, 44.99414
219.8360, 59.45117
221.0570, 138.9180
222.2790, 79.34375
223.5000, 142.5840
224.7210, 62.62012
225.9410, 80.41406
227.1620, 95.08301
228.3820, 228.6797
229.6030, 154.2900
230.8230, 292.9180
232.0430, 217.5625
233.2630, 135.3691
234.4820, 323.0576
235.7020, 267.7715
236.9210, 214.5225
238.1400, 196.1562
239.3590, 257.8457
240.5780, 88.50195
241.7970, 209.0508
243.0150, 51.55859
244.2340, 149.7539
245.4520, 134.9912
246.6700, 165.2598
247.8880, 137.5928
249.1060, 138.0225
250.3230, 106.0176
251.5400, 153.3965
252.7580, 142.7773
253.9750, 209.1660
255.1920, 298.5459
256.4080, 380.9277
257.6250, 393.2988
258.8410, 247.6787
260.0580, 296.0762
261.2740, 453.4756
262.4900, 667.8604
263.7050, 671.2344
264.9210, 561.5928
266.1360, 735.9316
267.3520, 742.2451
268.5670, 788.5254
269.7820, 756.7588
270.9960, 813.6797
272.2110, 843.0889
273.4250, 907.1992
274.6400, 914.2734
275.8540, 975.3125
277.0680, 1067.348
278.2810, 937.3545
279.4950, 1019.335
280.7090, 1034.293
281.9220, 1191.941
283.1350, 1621.148
284.3480, 1701.050
285.5610, 2029.933
286.7730, 2471.798
287.9860, 3229.651
289.1980, 3908.490
290.4100, 5026.319
291.6220, 6338.135
292.8340, 7656.782
294.0460, 9561.454
295.2570, 11360.14
296.4690, 13595.58
297.6800, 15885.76
298.8910, 18039.66
300.1020, 20812.43
301.3120, 23264.09
302.5230, 24655.59
303.7330, 24209.15
304.9440, 22736.89
306.1540, 20103.63
307.3630, 17431.38
308.5730, 14403.15
309.7830, 12333.93
310.9920, 10535.73
312.2010, 9135.530
313.4100, 8074.346
314.6190, 7488.169
315.8280, 6682.004
317.0370, 6098.846
318.2450, 5481.700
319.4530, 4651.564
320.6610, 4033.442
321.8690, 3409.331
323.0770, 2917.230
324.2850, 2386.142
325.4920, 2136.064
326.6990, 1821.995
327.9060, 1397.938
329.1130, 1290.889
330.3200, 1308.851
331.5270, 1095.820
332.7330, 1072.802
333.9390, 962.7900
335.1450, 829.7871
336.3510, 737.7939
337.5570, 601.8086
338.7630, 750.8320
339.9680, 625.8633
341.1740, 581.9033
342.3790, 498.9512
343.5840, 425.0059
344.7890, 502.0684
345.9930, 415.1406
347.1980, 256.2207
348.4020, 337.3076
349.6060, 270.4033
350.8100, 217.9600
352.0140, 201.2539
353.2180, 181.2676
354.4210, 164.3906
355.6250, 158.5234
356.8280, 161.3193
358.0310, 163.0713
359.2340, 178.0459
360.4360, 163.5518
361.6390, 197.8340
362.8410, 135.1943
364.0430, 89.24219
365.2450, 93.82227
366.4470, 151.3848
367.6490, 148.9033
368.8510, 165.8223
370.0520, 278.2529
371.2530, 122.8623
372.4540, 5.625000
373.6550, 275.8955
374.8560, 191.9648
376.0560, 233.2578
377.2570, 102.5625
378.4570, 288.6143
379.6570, 233.9414
380.8570, 274.5127
382.0570, 43.86035
383.2560, 230.2070
384.4560, 194.5527
385.6550, 218.7168
386.8540, 213.0605
388.0530, 261.0469
389.2520, 410.4473
390.4510, 217.1328
391.6490, 412.4189
392.8470, 205.5127
394.0450, 290.2617
395.2430, 520.7344
396.4410, 466.4395
397.6390, 651.6729
398.8360, 739.8096
400.0340, 634.8740
401.2310, 701.5771
402.4280, 683.3096
403.6250, 986.7578
404.8210, 1075.090
406.0180, 1228.206
407.2140, 1334.027
408.4100, 1606.796
409.6060, 1880.739
410.8020, 2452.244
411.9980, 3063.744
413.1930, 4084.380
414.3890, 5500.524
415.5840, 7265.144
416.7790, 9655.447
417.9740, 12815.23
419.1680, 15561.57
420.3630, 18390.76
421.5570, 21519.35
422.7510, 25994.11
423.9450, 31115.46
425.1390, 36413.76
426.3330, 39217.11
427.5270, 36748.48
428.7200, 30755.91
429.9130, 23166.30
431.1060, 16986.89
432.2990, 11935.56
433.4920, 8571.104
434.6840, 6126.629
435.8770, 4777.071
437.0690, 3643.549
438.2610, 3026.051
439.4530, 2337.577
440.6450, 1855.110
441.8360, 1473.645
443.0280, 1238.188
444.2190, 1022.730
445.4100, 958.2734
446.6010, 878.8193
447.7920, 742.3652
448.9820, 637.7969
450.1730, 468.4893
451.3630, 390.0850
452.5530, 265.7090
453.7430, 185.3408
454.9330, 173.5273
456.1230, 375.6328
457.3120, 211.2793
458.5010, 254.9268
459.6910, 343.5762
460.8800, 236.2295
462.0680, 347.8809
463.2570, 263.5361
464.4460, 349.1865
465.6340, 369.8545
466.8220, 357.5176
468.0100, 615.1758
469.1980, 720.8311
470.3860, 739.5010
471.5730, 858.1670
472.7600, 977.4414
473.9480, 1087.490
475.1350, 1313.143
476.3210, 1483.791
477.5080, 1773.445
478.6950, 1919.107
479.8810, 2232.781
481.0670, 2400.452
482.2530, 2540.113
483.4390, 2757.770
484.6250, 2970.450
485.8100, 3006.125
486.9960, 3180.793
488.1810, 3321.451
489.3660, 3201.121
490.5510, 3185.783
491.7360, 3225.437
492.9200, 3058.082
494.1050, 3058.725
495.2890, 2882.393
496.4730, 2882.100
497.6570, 2833.844
498.8400, 2663.623
500.0240, 2290.461
501.2070, 2100.347
502.3910, 1864.278
503.5740, 1679.219
504.7570, 1417.192
505.9400, 1247.728
507.1220, 1093.238
508.3050, 912.1309
509.4870, 885.0938
510.6690, 778.0479
511.8510, 796.9912
513.0330, 559.9277
514.2140, 507.8535
515.3960, 339.6318
516.5770, 357.5361
517.7580, 392.4277
518.9390, 199.3066
520.1200, 223.1729
521.3010, 217.0254
522.4810, 39.13477
523.6610, 180.6709
524.8420, 276.4619
526.0220, 242.2383
527.2010, 96.00098
528.3810, 157.7490
529.5610, 68.51855
530.7400, 14.83691
531.9190, 23.81836
533.0980, 157.5459
534.2770, 76.01172
535.4560, 21.46484
536.6340, 56.91992
537.8120, 49.61621
538.9910, 43.22656
540.1690, 3.147461
541.3460, 52.50391
542.5240, 13.20410
543.7020, 93.93555
544.8790, 120.7402
546.0560, 70.62305
547.2330, 8.422852
548.4100, 13.55469
549.5870, 69.99707
550.7630, 30.77441
551.9400, 132.9102
553.1160, 22.81055
554.2920, 7.946289
555.4680, 9.680664
556.6440, 39.16113
557.8190, 299.3906
558.9950, 72.62598
560.1700, 176.0205
561.3450, 74.52539
562.5200, 138.1475
563.6950, 97.20996
564.8690, 201.0312
566.0440, 14.27051
567.2180, 207.1426
568.3920, 348.6836
569.5660, 193.1338
570.7400, 244.1904
571.9130, 172.2354
573.0870, 151.0371
574.2600, 182.5488
575.4330, 190.9551
576.6060, 320.4404
577.7790, 341.5010
578.9520, 456.6396
580.1240, 321.6152
581.2960, 403.1621
582.4690, 725.1934
583.6410, 409.7148
584.8120, 666.2188
585.9840, 599.6504
587.1560, 714.3447
588.3270, 705.8428
589.4980, 662.5596
590.6690, 697.3652
591.8400, 838.3223
593.0110, 716.2051
594.1810, 940.4961
595.3510, 845.1523
596.5220, 1209.471
597.6920, 1123.348
598.8610, 1292.788
600.0310, 1326.961
601.2010, 1468.111
602.3700, 1565.466
603.5390, 1409.625
604.7080, 1516.338
605.8770, 1344.697
607.0460, 1374.349
608.2140, 1233.970
609.3830, 1227.560
610.5510, 1363.930
611.7190, 1195.537
612.8870, 1320.744
614.0550, 1275.347
615.2220, 1291.780
616.3900, 1388.182
617.5570, 1777.576
618.7240, 1599.501
619.8910, 1975.522
621.0580, 1934.799
622.2240, 2137.084
623.3910, 2379.417
624.5570, 2799.854
625.7230, 2886.284
626.8890, 3198.438
628.0550, 3438.514
629.2200, 3813.555
630.3860, 4442.584
631.5510, 4621.586
632.7160, 5149.525
633.8810, 5711.430
635.0460, 6548.300
636.2100, 7809.138
637.3750, 9244.919
638.5390, 10994.10
639.7030, 13054.43
640.8670, 15402.13
642.0310, 17975.79
643.1950, 21027.41
644.3580, 23964.01
645.5210, 26765.57
646.6850, 27771.12
647.8480, 25999.63
649.0100, 23053.10
650.1730, 18774.55
651.3350, 14863.96
652.4980, 11544.33
653.6600, 9178.668
654.8220, 6843.967
655.9840, 5883.232
657.1450, 4742.459
658.3070, 4144.647
659.4680, 3341.803
660.6300, 2935.924
661.7910, 2433.004
662.9510, 1958.817
664.1120, 1831.826
665.2730, 1585.798
666.4330, 1361.732
667.5930, 1176.379
668.7530, 1057.450
669.9130, 995.7275
671.0730, 898.2842
672.2320, 816.4580
673.3920, 760.1221
674.5510, 565.8281
675.7100, 630.8672
676.8690, 511.0205
678.0280, 412.1035
679.1860, 400.2539
680.3450, 340.0850
681.5030, 343.0273
682.6610, 282.0947
683.8190, 344.0918
684.9770, 264.3379
686.1340, 311.6631
687.2920, 323.1641
688.4490, 132.9199
689.6060, 266.6895
690.7630, 301.2471
691.9200, 172.2051
693.0760, 88.12793
694.2330, 103.8721
695.3890, 173.0674
696.5450, 100.7490
697.7010, 58.70410
698.8570, 112.1387
700.0130, 77.03320
701.1680, 75.87305
702.3230, 55.35352
703.4780, 8.611328
704.6330, 103.2227
705.7880, 157.8438
706.9430, 36.61523
708.0970, 77.83789
709.2520, 61.81055
710.4060, 47.50781
711.5600, 141.5918
712.7140, 203.5508
713.8670, 10.60742
715.0210, 119.3750
716.1740, 81.35547
717.3270, 51.44531
718.4800, 49.55469
719.6330, 24.10547
720.7860, 78.78516
721.9380, 22.42578
723.0910, 137.0137
724.2430, 145.5684
725.3950, 94.09180
726.5470, 113.5781
727.6980, 3.968750
728.8500, 73.42188
730.0010, 73.22461
731.1530, 56.97070
732.3040, 17.19336
733.4550, 7.441406
734.6050, 99.35938
735.7560, 53.37695
736.9060, 76.35938
738.0560, 38.30469
739.2060, 37.20703
740.3560, 71.35938
741.5060, 33.36914
742.6560, 276.6855
743.8050, 27.55469
744.9540, 329.1348
746.1030, 273.7969
747.2520, 170.4316
748.4010, 31.95898
749.5500, 140.5801
750.6980, 50.09180
751.8460, 121.5703
752.9950, 269.0215
754.1420, 163.4473
755.2900, 7.156250
756.4380, 0.8085940
757.5850, 34.70312
758.7330, 194.5273
759.8800, 126.7324
761.0270, 104.9121
762.1730, 77.93359
763.3200, 62.13281
764.4670, 115.1758
765.6130, 137.1914
766.7590, 28.81641
767.9050, 112.1172
769.0510, 107.0293
770.1960, 133.9160
771.3420, 277.7832
772.4870, 108.6250
773.6320, 113.4727
774.7770, 347.2734
775.9220, 133.0527
777.0670, 284.8086
778.2110, 254.5449
779.3560, 246.5566
780.5000, 242.7461
781.6440, 347.2012
782.7880, 262.1250
783.9320, 533.5352
785.0750, 411.0566
786.2180, 577.6699
787.3620, 449.3652
788.5050, 521.9219
789.6480, 514.4590
790.7900, 491.4238
791.9330, 640.9258
793.0750, 754.4082
794.2170, 921.8730
795.3590, 1045.320
796.5010, 995.5586
797.6430, 1074.971
798.7850, 979.3633
799.9260, 1102.240
801.0670, 1115.613
802.2080, 1473.969
803.3490, 1297.309
804.4900, 1481.633
805.6310, 1355.941
806.7710, 1349.238
807.9110, 1350.535
809.0510, 1418.828
810.1910, 1396.104
811.3310, 1233.410
812.4710, 1312.729
813.6100, 1342.207
814.7490, 1144.500
815.8880, 1235.783
817.0270, 1079.066
818.1660, 1131.340
819.3050, 1134.061
820.4430, 1279.896
821.5820, 1135.186
822.7200, 1006.490
823.8580, 921.8145
824.9950, 839.4023
826.1330, 934.8828
827.2710, 749.1914
828.4080, 810.4883
829.5450, 818.4258
830.6820, 588.7344
831.8190, 764.2520
832.9560, 475.2031
834.0920, 316.7188
835.2280, 645.5273
836.3650, 468.1445
837.5010, 307.6758
838.6360, 480.9336
839.7720, 345.7773
840.9080, 362.8320
842.0430, 393.4434
843.1780, 477.3906
844.3130, 410.6426
845.4480, 401.9609
846.5830, 250.6445
847.7170, 258.5488
848.8520, 223.9844
849.9860, 299.3574
851.1200, 304.8770
852.2540, 377.7129
853.3870, 360.2402
854.5210, 379.6641
855.6540, 399.2246
856.7880, 350.1914
857.9210, 360.6504
859.0540, 386.0312
860.1860, 541.5293
861.3190, 481.5098
862.4510, 399.2109
863.5840, 496.0801
864.7160, 409.7090
865.8480, 348.2266
866.9790, 402.5664
868.1110, 503.9609
869.2420, 237.9219
870.3740, 147.4961
871.5050, 128.3848
872.6360, 274.6934
873.7660, 277.4160
874.8970, 245.3828
876.0280, 210.3516
877.1580, 241.0918
878.2880, 309.0098
879.4180, 263.3594
880.5480, 245.0586
881.6770, 118.5254
882.8070, 165.0078
883.9360, 345.5117
885.0650, 105.2148
886.1940, 228.6582
887.3230, 6.484375
888.4520, 272.8984
889.5800, 184.4590
890.7090, 206.0586
891.8370, 82.66992
892.9650, 35.27148
894.0930, 152.6660
895.2200, 103.3301
896.3480, 326.9727
897.4750, 76.54688
898.6020, 285.9980
899.7290, 185.4473
900.8560, 237.1523
901.9830, 177.9258
903.1090, 181.7305
904.2360, 123.5430
905.3620, 96.36523
906.4880, 77.23047
907.6140, 104.1133
908.7400, 1.1719000E-02
909.8650, 166.9297
910.9900, 242.8633
912.1160, 91.81641
913.2410, 91.78320
914.3660, 18.22852
915.4900, 27.21680
916.6150, 68.47461
917.7390, 17.19531
918.8640, 94.16211
919.9880, 72.13477
921.1120, 0.8945310
922.2350, 78.05664
923.3590, 51.99023
924.4820, 128.0586
925.6060, 25.85352
926.7290, 89.25000
927.8520, 47.37305
928.9740, 165.5156
930.0970, 10.68164
931.2190, 40.13477
932.3420, 81.06641
933.4640, 164.2852
934.5860, 28.47461
935.7080, 51.78320
936.8290, 124.0625
937.9510, 52.36328
939.0720, 48.68750
940.1930, 103.0352
941.3140, 182.4023
942.4350, 293.7949
943.5560, 111.2109
944.6760, 202.6484
945.7960, 26.10938
946.9170, 242.5938
948.0370, 53.89844
949.1560, 298.6191
950.2760, 184.1641
951.3960, 288.7305
952.5150, 295.3203
953.6340, 234.9355
954.7530, 365.5742
955.8720, 535.2383
956.9910, 505.9258
958.1090, 532.6367
959.2280, 539.3730
960.3460, 452.1348
961.4640, 414.9219
962.5820, 476.7363
963.6990, 623.5723
964.8170, 681.4492
965.9340, 673.3535
967.0510, 931.2891
968.1690, 882.2480
969.2850, 1008.238
970.4020, 944.2598
971.5190, 974.3125
972.6350, 1215.426
973.7510, 1251.570
974.8670, 1223.748
975.9830, 1437.969
977.0990, 1515.217
978.2150, 1636.496
979.3300, 1808.824
980.4450, 1990.186
981.5600, 2105.607
982.6750, 2161.084
983.7900, 2470.588
984.9050, 2608.123
986.0190, 3093.697
987.1340, 3205.346
988.2480, 3651.062
989.3620, 4296.834
990.4750, 4678.662
991.5890, 5378.541
992.7020, 6135.453
993.8160, 6873.400
994.9290, 7941.383
996.0420, 8929.391
997.1550, 10375.44
998.2670, 11741.52
999.3800, 13230.64
1000.492, 14840.80
1001.604, 16728.02
1002.716, 19090.30
1003.828, 20722.62
1004.940, 22665.99
1006.051, 24436.38
1007.163, 26185.81
1008.274, 27573.27
1009.385, 28934.76
1010.496, 29064.30
1011.606, 29126.06
1012.717, 28202.50
1013.827, 27091.56
1014.937, 25727.71
1016.047, 23659.89
1017.157, 21461.89
1018.267, 19522.66
1019.377, 17672.47
1020.486, 16033.31
1021.595, 14197.99
1022.704, 12856.89
1023.813, 11642.25
1024.922, 10576.22
1026.030, 9772.221
1027.139, 9429.457
1028.247, 8889.555
1029.355, 8695.201
1030.463, 8527.457
1031.571, 8418.852
1032.678, 8491.615
1033.786, 9049.910
1034.893, 9251.375
1036.000, 9700.521
1037.107, 10461.29
1038.214, 11008.71
1039.321, 11384.16
1040.427, 12143.64
1041.533, 12519.14
1042.639, 13132.65
1043.745, 13615.21
1044.851, 14094.79
1045.957, 14371.40
1047.062, 14597.04
1048.168, 14733.41
1049.273, 15090.87
1050.378, 15206.03
1051.482, 15762.50
1052.587, 16056.50
1053.692, 16439.39
1054.796, 17119.20
1055.900, 18174.94
1057.004, 19548.82
1058.108, 20631.72
1059.212, 21836.50
1060.315, 24275.17
1061.418, 23497.16
1062.522, 23505.17
1063.625, 22732.22
1064.728, 21444.47
1065.830, 19366.57
1066.933, 17351.69
1068.035, 14847.34
1069.137, 12267.52
1070.239, 10575.72
1071.341, 8686.949
1072.443, 7428.207
1073.545, 6389.488
1074.646, 5451.795
1075.747, 4671.129
1076.848, 4092.490
1077.949, 3850.877
1079.050, 3524.293
1080.150, 3150.730
1081.251, 2991.023
1082.351, 2637.514
1083.451, 2538.033
1084.551, 2275.578
1085.651, 1871.146
1086.750, 1803.742
1087.850, 1625.545
1088.949, 1685.012
1090.048, 1469.686
1091.147, 1449.383
1092.246, 1351.105
1093.345, 1257.863
1094.443, 1119.648
1095.541, 1125.455
1096.639, 1008.486
1097.737, 1098.346
1098.835, 787.2285
1099.933, 657.1465
1101.030, 765.0938
1102.128, 683.0703
1103.225, 541.0684
1104.322, 381.0918
1105.419, 570.1367
1106.515, 582.2090
1107.612, 621.3027
1108.708, 495.5312
1109.804, 567.6699
1110.900, 590.8359
1111.996, 520.0234
1113.092, 799.2363
1114.187, 601.2148
1115.283, 426.4707
1116.378, 661.7500
1117.473, 557.0527
1118.568, 545.3750
1119.662, 437.7188
1120.757, 535.0859
1121.851, 598.4746
1122.946, 437.6953
1124.040, 393.1250
1125.134, 384.6016
1126.227, 352.1016
1127.321, 347.6211
1128.414, 216.9922
1129.508, 470.5508
1130.601, 84.13086
1131.693, 225.7305
1132.786, 276.6543
1133.879, 118.2930
1134.971, 177.9492
1136.064, 235.6250
1137.156, 162.3203
1138.248, 144.0312
1139.339, 60.76172
1140.431, 70.51172
1141.522, 16.27734
1142.614, 1.062500
1143.705, 34.13672
1144.796, 65.30469
1145.887, 345.4844
1146.977, 25.80273
1148.068, 41.11523
1149.158, 178.5703
1150.248, 17.27148
1151.338, 226.9883
1152.428, 10.27539
1153.518, 15.46680
1154.607, 98.77344
1155.696, 109.0469
1156.785, 148.6445
1157.874, 85.45312
1158.963, 81.45898
1160.052, 0.3398440
1161.141, 10.95508
1162.229, 7.820313
1163.317, 19.55078
1164.405, 30.32031
1165.493, 31.85547
1166.581, 44.03711
1167.668, 54.21875
1168.756, 178.5840
1169.843, 31.40234
1170.930, 241.2324
1172.017, 121.0742
1173.103, 123.9316
1174.190, 207.8008
1175.276, 120.6973
1176.363, 238.6074
1177.449, 182.5273
1178.535, 48.46094
1179.620, 330.4121
1180.706, 4.375000
1181.791, 26.35352
1182.877, 82.34570
1183.962, 130.3633
1185.047, 203.4043
1186.131, 235.4570
1187.216, 167.5312
1188.300, 221.6172
1189.385, 151.7168
1190.469, 266.8281
1191.553, 375.9512
1192.637, 412.0859
1193.720, 446.0117
1194.804, 358.3906
1195.887, 415.5645
1196.970, 469.7500
1198.053, 413.9453
1199.136, 213.1523
1200.219, 252.3730
1201.301, 271.6035
1202.383, 264.8457
1203.465, 285.0957
1204.547, 222.3574
1205.629, 205.6289
1206.711, 232.9102
1207.792, 378.2012
1208.874, 210.5039
1209.955, 363.8164
1211.036, 221.1367
1212.117, 309.4727
1213.198, 303.8184
1214.278, 192.1719
1215.359, 149.5391
1216.439, 252.9121
1217.519, 177.2969
1218.599, 149.6855
1219.678, 251.0859
1220.758, 170.4961
1221.837, 140.9141
1222.917, 168.1367
1223.996, 314.7832
1225.075, 109.2266
1226.153, 17.32227
1227.232, 138.1133
1228.310, 106.5586
1229.389, 68.14844
1230.467, 104.9941
1231.545, 59.46289
1232.622, 151.9395
1233.700, 113.4199
1234.777, 105.9082
1235.855, 184.4023
1236.932, 361.9043
1238.009, 39.41406
1239.086, 326.9258
1240.162, 123.4473
1241.239, 156.9688
1242.315, 190.5000
1243.391, 57.96094
1244.467, 103.5371
1245.543, 239.0430
1246.619, 166.5547
1247.694, 216.0742
1248.769, 89.59570
1249.844, 70.31445
1250.919, 76.65625
1251.994, 22.80664
1253.069, 89.71094
1254.144, 89.15625
1255.218, 99.68164
1256.292, 153.2109
1257.366, 1.255859
1258.440, 139.2637
1259.514, 113.7871
1260.587, 190.3164
1261.661, 39.84570
1262.734, 148.3770
1263.807, 261.9355
1264.880, 258.4727
1265.952, 380.0156
1267.025, 129.5586
1268.097, 355.1074
1269.170, 220.7109
1270.242, 318.2656
