##NAMES=Montebrasite
##RRUFFID=R040062
##IDEAL CHEMISTRY=LiAlPO_4_(OH)
##LOCALITY=Hebron, Maine, USA
##OWNER=RRUFF
##SOURCE=University of Arizona Mineral Museum
##DESCRIPTION=White massive
##STATUS=The identification of this mineral has been confirmed by X-ray diffraction and chemical analysis
##URL=rruff.info/R040062
##MEASURED CHEMISTRY=LiAl(PO_4_)((OH)_0.62_F_0.38_)
##PIN_ID=M00438
##ORIENTATION=Laser parallel to a* (1 0 0). Fiducial mark perpendicular to laser is parallel to b [0 1 0]
123.079, 0.000
124.475, 28.969
125.870, 199.371
127.265, 220.033
128.660, 477.831
130.055, 810.799
131.449, 831.056
132.843, 1106.950
134.237, 1017.270
135.631, 941.052
137.024, 857.576
138.417, 686.192
139.810, 595.175
141.203, 330.705
142.596, 335.500
143.988, 191.582
145.380, 48.639
146.771, 146.496
148.163, 25.023
149.554, 124.119
150.945, 13.703
152.336, 83.714
153.726, 86.108
155.117, 149.872
156.507, 199.618
157.896, 220.192
159.286, 325.130
160.675, 439.918
162.064, 546.113
163.453, 870.641
164.842, 1075.097
166.230, 1159.499
167.618, 1393.857
169.006, 1458.182
170.393, 1512.484
171.781, 1316.774
173.168, 1421.060
174.555, 1345.345
175.941, 1379.638
177.328, 1333.941
178.714, 1208.262
180.100, 1172.601
181.485, 1126.961
182.871, 1068.731
184.256, 915.146
185.641, 915.813
187.025, 828.757
188.410, 788.381
189.794, 587.749
191.178, 490.312
192.562, 443.015
193.945, 395.853
195.328, 308.816
196.711, 171.894
198.094, 105.074
199.476, 1.646
200.859, 81.727
202.241, 35.186
203.623, 108.729
205.004, 122.351
206.385, 216.029
207.766, 169.706
209.147, 223.414
210.528, 257.224
211.908, 401.081
213.288, 364.994
214.668, 288.966
216.048, 363.001
217.427, 247.094
218.806, 401.242
220.185, 295.449
221.564, 419.712
222.942, 344.028
224.320, 348.398
225.698, 202.818
227.076, 367.286
228.453, 191.803
229.830, 196.363
231.207, 130.968
232.584, 155.616
233.960, 160.304
235.337, 95.035
236.713, 39.804
238.088, 54.604
239.464, 39.438
240.839, 145.680
242.214, 160.746
243.589, 4.232
244.964, 110.727
246.338, 5.522
247.712, 60.161
249.086, 134.692
250.459, 129.132
251.833, 83.488
253.206, 77.727
254.579, 41.827
255.951, 25.852
257.324, 40.605
258.696, 86.130
260.068, 182.157
261.439, 308.221
262.811, 374.303
264.182, 560.415
265.553, 856.446
266.924, 962.428
268.294, 1118.379
269.665, 1534.254
271.035, 1950.083
272.404, 2045.891
273.774, 2381.698
275.143, 2517.506
276.512, 2493.315
277.881, 2409.125
279.250, 2274.936
280.618, 2160.746
281.986, 2016.556
283.354, 2022.363
284.721, 2038.171
286.089, 2263.975
287.456, 2240.080
288.823, 2743.175
290.190, 3227.241
291.556, 4051.477
292.922, 5116.242
294.288, 6321.287
295.654, 8239.732
297.019, 9945.123
298.385, 11440.438
299.750, 12145.871
301.114, 12221.544
302.479, 11427.172
303.843, 10053.200
305.207, 8948.969
306.571, 7765.184
307.935, 6661.060
309.298, 6196.982
310.661, 5552.943
312.024, 4968.939
313.387, 4374.969
314.749, 3771.026
316.111, 3257.109
317.473, 2833.218
318.835, 2809.341
320.196, 2145.471
321.558, 2211.603
322.919, 1987.734
324.279, 1793.869
325.640, 1570.004
327.000, 1536.133
328.360, 1322.264
329.720, 1138.398
331.080, 834.538
332.439, 900.679
333.798, 756.824
335.157, 672.971
336.516, 589.121
337.874, 545.273
339.232, 461.429
340.590, 437.586
341.948, 353.746
343.305, 289.907
344.662, 356.071
346.019, 322.576
347.376, 328.579
348.733, 338.938
350.089, 270.752
351.445, 306.550
352.801, 292.658
354.156, 218.975
355.512, 404.690
356.867, 403.549
358.222, 329.622
359.576, 366.159
360.931, 423.004
362.285, 499.611
363.639, 498.054
364.992, 487.708
366.346, 552.458
367.699, 638.543
369.052, 735.341
370.405, 761.557
371.757, 835.817
373.110, 762.940
374.462, 864.997
375.814, 741.333
377.165, 832.908
378.516, 879.950
379.868, 724.812
381.218, 771.438
382.569, 835.234
383.920, 769.453
385.270, 817.449
386.620, 844.177
387.969, 720.462
389.319, 756.651
390.668, 792.536
392.017, 638.970
393.366, 595.309
394.714, 716.223
396.063, 622.629
397.411, 569.148
398.759, 485.400
400.106, 489.739
401.454, 499.763
402.801, 498.737
404.148, 488.549
405.495, 447.629
406.841, 494.038
408.187, 446.045
409.533, 481.823
410.879, 365.834
412.224, 316.065
413.570, 308.909
414.915, 282.196
416.260, 226.945
417.604, 181.396
418.949, 266.229
420.293, 372.104
421.637, 487.856
422.980, 783.594
424.324, 859.321
425.667, 1005.032
427.010, 1080.732
428.353, 1096.421
429.695, 1025.059
431.037, 687.760
432.379, 743.404
433.721, 479.031
435.063, 304.649
436.404, 280.253
437.745, 155.840
439.086, 311.413
440.427, 136.968
441.767, 222.505
443.108, 188.022
444.448, 103.525
445.787, 199.008
447.127, 254.471
448.466, 29.919
449.805, 345.344
451.144, 40.762
452.482, 226.167
453.821, 61.562
455.159, 56.941
456.497, 27.696
457.834, 67.617
459.172, 222.909
460.509, 138.183
461.846, 93.438
463.183, 148.670
464.519, 53.882
465.856, 199.068
467.192, 44.232
468.527, 169.371
469.863, 224.486
471.198, 339.578
472.534, 314.646
473.868, 319.689
475.203, 504.708
476.538, 589.703
477.872, 484.671
479.206, 739.613
480.540, 594.531
481.873, 769.422
483.206, 824.286
484.539, 849.124
485.872, 623.935
487.205, 978.719
488.537, 623.476
489.869, 778.207
491.201, 812.907
492.533, 647.582
493.864, 632.229
495.196, 736.848
496.527, 411.438
497.857, 565.998
499.188, 430.529
500.518, 395.031
501.848, 279.506
503.178, 373.951
504.508, 458.365
505.837, 122.750
507.166, 287.102
508.495, 151.424
509.824, 195.713
511.153, 269.975
512.481, 124.203
513.809, 78.404
515.137, 242.771
516.464, 3.094
517.792, 141.033
519.119, 65.076
520.446, 49.609
521.772, 63.574
523.099, 177.918
524.425, 58.186
525.751, 93.902
527.077, 160.076
528.402, 125.848
529.728, 18.891
531.053, 57.229
532.377, 46.322
533.702, 49.146
535.027, 114.545
536.351, 41.008
537.675, 52.963
538.998, 93.008
540.322, 80.371
541.645, 75.785
542.968, 82.434
544.291, 21.387
545.613, 75.102
546.936, 138.340
548.258, 161.346
549.580, 234.893
550.902, 109.100
552.223, 137.764
553.544, 26.592
554.865, 127.186
556.186, 110.035
557.507, 162.480
558.827, 21.057
560.147, 223.854
561.467, 6.621
562.786, 185.809
564.106, 178.051
565.425, 138.236
566.744, 110.629
568.063, 226.189
569.381, 149.086
570.700, 221.836
572.018, 29.203
573.335, 111.676
574.653, 45.482
575.970, 233.471
577.288, 285.857
578.604, 305.447
579.921, 337.322
581.238, 358.988
582.554, 443.436
583.870, 425.943
585.186, 419.350
586.501, 522.588
587.817, 535.674
589.132, 677.900
590.447, 789.885
591.761, 1021.549
593.076, 1015.211
594.390, 1287.357
595.704, 1729.516
597.018, 2271.812
598.331, 2903.117
599.645, 3554.896
600.958, 4336.367
602.271, 4718.227
603.583, 4289.371
604.896, 3640.918
606.208, 3092.869
607.520, 2593.805
608.832, 2194.779
610.143, 1885.686
611.455, 1527.299
612.766, 1508.172
614.077, 1338.818
615.387, 1376.197
616.698, 1306.695
618.008, 1287.553
619.318, 1418.297
620.628, 1638.760
621.937, 1719.408
623.247, 1939.594
624.556, 2270.061
625.865, 2750.098
627.173, 3160.477
628.482, 3690.807
629.790, 4151.098
631.098, 4241.346
632.405, 4051.549
633.713, 3591.703
635.020, 3131.816
636.327, 2961.883
637.634, 2731.906
638.941, 2941.883
640.247, 3261.814
641.553, 4151.703
642.859, 4661.543
644.165, 5971.342
645.471, 6541.094
646.776, 6280.799
648.081, 5870.461
649.386, 5030.080
650.691, 4069.650
651.995, 2999.178
653.299, 2598.658
654.603, 1858.094
655.907, 1737.486
657.210, 1346.832
658.514, 1226.133
659.817, 985.389
661.120, 964.600
662.422, 733.766
663.725, 722.547
665.027, 631.623
666.329, 720.414
667.630, 509.338
668.932, 618.277
670.233, 676.795
671.534, 325.035
672.835, 503.838
674.136, 359.461
675.436, 547.830
676.737, 245.697
678.036, 423.215
679.336, 270.930
680.636, 459.236
681.935, 250.990
683.234, 290.436
684.533, 258.502
685.832, 105.924
687.130, 252.719
688.428, 305.164
689.726, 102.023
691.024, 234.557
692.322, 92.328
693.619, 134.582
694.916, 121.979
696.213, 230.852
697.510, 118.070
698.806, 222.092
700.102, 101.465
701.398, 110.137
702.694, 196.906
703.990, 214.887
705.285, 152.162
706.580, 59.906
707.875, 43.234
709.170, 4.062
710.464, 82.279
711.758, 239.908
713.052, 336.436
714.346, 43.916
715.640, 221.061
716.933, 217.898
718.226, 57.658
719.519, 368.844
720.812, 74.416
722.105, 271.701
723.397, 2.461
724.689, 133.896
725.981, 159.883
727.272, 33.557
728.564, 210.266
729.855, 42.586
731.146, 43.094
732.437, 213.473
733.727, 70.395
735.017, 365.709
736.308, 91.857
737.597, 61.816
738.887, 137.867
740.176, 43.871
741.466, 49.984
742.755, 55.885
744.043, 161.734
745.332, 207.547
746.620, 273.312
747.908, 19.125
749.196, 134.797
750.484, 120.428
751.771, 96.348
753.059, 311.891
754.346, 177.447
755.633, 246.029
756.919, 141.457
758.206, 346.846
759.492, 192.195
760.778, 98.197
762.063, 243.465
763.349, 308.695
764.634, 233.891
765.919, 119.051
767.204, 234.553
768.489, 269.635
769.773, 274.682
771.057, 359.713
772.341, 249.363
773.625, 264.326
774.909, 569.252
776.192, 264.145
777.475, 509.002
778.758, 283.826
780.041, 499.029
781.323, 483.789
782.605, 518.512
783.887, 713.205
785.169, 918.250
786.451, 1122.875
787.732, 1027.471
789.013, 1372.029
790.294, 1416.559
791.575, 1721.055
792.856, 1845.520
794.136, 1999.951
795.416, 2114.350
796.696, 2238.721
797.976, 2713.057
799.255, 2637.363
800.534, 2891.641
801.813, 3365.887
803.092, 2850.102
804.371, 3044.285
805.649, 2858.438
806.927, 2922.562
808.205, 2796.656
809.483, 2500.723
810.760, 2604.756
812.037, 2238.764
813.315, 2262.744
814.591, 2296.691
815.868, 1640.613
817.144, 1894.506
818.421, 1848.369
819.697, 1682.209
820.972, 1236.021
822.248, 1169.805
823.523, 1193.562
824.798, 1027.295
826.073, 980.797
827.348, 854.477
828.623, 528.094
829.897, 611.738
831.171, 454.832
832.445, 438.432
833.718, 421.590
834.992, 235.145
836.265, 468.225
837.538, 241.518
838.811, 184.652
840.083, 47.021
841.356, 13.240
842.628, 203.580
843.900, 45.936
845.171, 149.045
846.443, 261.340
847.714, 44.027
848.985, 226.594
850.256, 159.717
851.527, 207.686
852.797, 265.252
854.067, 32.373
855.337, 190.029
856.607, 12.852
857.876, 144.277
859.146, 118.191
860.415, 229.822
861.684, 76.939
862.953, 82.961
864.221, 1.100
865.489, 291.627
866.757, 35.299
868.025, 71.576
869.293, 204.158
870.560, 16.715
871.828, 232.783
873.095, 75.766
874.361, 270.781
875.628, 153.643
876.894, 353.301
878.160, 175.568
879.426, 57.969
880.692, 325.719
881.958, 111.676
883.223, 99.553
884.488, 3.445
885.753, 229.105
887.018, 104.404
888.282, 247.365
889.546, 70.744
890.810, 200.754
892.074, 242.904
893.338, 64.109
894.601, 175.426
895.864, 116.844
897.127, 109.072
898.390, 261.488
899.652, 74.176
900.915, 224.812
902.177, 366.910
903.439, 8.945
904.700, 380.797
905.962, 73.586
907.223, 64.150
908.484, 88.359
909.745, 80.432
911.006, 213.164
912.266, 14.555
913.526, 307.266
914.786, 199.750
916.046, 172.445
917.306, 304.883
918.565, 3.164
919.824, 129.266
921.083, 231.840
922.342, 154.436
923.600, 92.918
924.859, 129.512
926.117, 62.002
927.375, 304.588
928.632, 77.074
929.890, 359.643
931.147, 7.795
932.404, 174.758
933.661, 107.305
934.918, 149.842
936.174, 7.627
937.430, 184.895
938.686, 87.410
939.942, 209.918
941.198, 132.422
942.453, 204.922
943.708, 117.416
944.963, 49.904
946.218, 142.389
947.472, 364.869
948.727, 197.348
949.981, 469.824
951.235, 162.303
952.488, 344.773
953.742, 217.246
954.995, 409.715
956.248, 342.178
957.501, 354.645
958.754, 217.107
960.006, 659.570
961.258, 462.031
962.510, 1054.490
963.762, 1136.951
965.014, 1389.410
966.265, 1031.869
967.516, 744.328
968.767, 816.787
970.018, 409.250
971.269, 611.709
972.519, 454.172
973.769, 546.635
975.019, 539.102
976.269, 501.568
977.518, 464.039
978.767, 856.514
980.017, 808.992
981.265, 701.477
982.514, 993.963
983.762, 676.457
985.011, 1368.959
986.259, 1311.467
987.507, 1333.980
988.754, 1686.500
990.002, 1728.916
991.249, 2180.773
992.496, 2602.357
993.743, 2464.895
994.989, 3326.789
996.236, 3289.127
997.482, 4051.703
998.728, 4463.637
999.974, 4986.230
1001.219, 5988.680
1002.464, 6787.111
1003.710, 7329.734
1004.954, 8489.240
1006.199, 9291.885
1007.444, 10103.715
1008.688, 10946.311
1009.932, 10998.699
1011.176, 10981.391
1012.420, 10298.793
1013.663, 9785.566
1014.906, 8887.395
1016.149, 7850.172
1017.392, 6660.059
1018.635, 6152.506
1019.877, 5245.348
1021.120, 4717.607
1022.362, 4170.504
1023.603, 3833.102
1024.845, 3713.035
1026.086, 3486.008
1027.328, 3319.008
1028.569, 3728.719
1029.809, 3341.434
1031.050, 3724.506
1032.290, 3928.480
1033.530, 4551.484
1034.770, 4644.035
1036.010, 5097.209
1037.250, 5660.406
1038.489, 6213.650
1039.728, 6783.059
1040.967, 7776.350
1042.206, 8169.662
1043.444, 8742.844
1044.683, 9066.211
1045.921, 8939.605
1047.159, 9473.023
1048.396, 9406.469
1049.634, 9169.852
1050.871, 9153.352
1052.108, 9386.879
1053.345, 9410.102
1054.582, 9753.688
1055.818, 10167.168
1057.054, 11117.617
1058.290, 10671.207
1059.526, 11674.822
1060.762, 11208.469
1061.997, 10100.986
1063.232, 9064.215
1064.467, 7487.332
1065.702, 6310.309
1066.937, 4933.283
1068.171, 4255.879
1069.405, 3758.855
1070.639, 3011.828
1071.873, 2535.242
1073.107, 2193.539
1074.340, 1876.480
1075.573, 1839.400
1076.806, 1642.303
1078.039, 1395.178
1079.272, 1518.018
1080.504, 1440.422
1081.736, 1313.229
1082.968, 1156.041
1084.200, 1058.857
1085.431, 1121.270
1086.663, 1214.070
1087.894, 1236.893
1089.125, 1079.725
1090.355, 862.586
1091.586, 1035.484
1092.816, 972.402
1094.046, 1121.477
1095.276, 1204.617
1096.506, 1237.918
1097.735, 1501.496
1098.965, 1684.898
1100.194, 1548.316
1101.423, 2081.750
1102.651, 2005.203
1103.880, 2448.676
1105.108, 3222.166
1106.336, 3465.678
1107.564, 3449.209
1108.792, 3862.762
1110.019, 3706.336
1111.246, 3909.930
1112.473, 4073.547
1113.700, 3657.188
1114.927, 3630.852
1116.153, 3374.535
1117.380, 3398.242
1118.606, 3391.980
1119.831, 2875.758
1121.057, 2989.562
1122.283, 2763.402
1123.508, 2657.273
1124.733, 2631.312
1125.958, 2378.480
1127.182, 2129.625
1128.407, 1963.918
1129.631, 1708.227
1130.855, 1472.613
1132.079, 1177.070
1133.302, 1041.570
1134.526, 1256.113
1135.749, 560.379
1136.972, 1044.637
1138.195, 608.887
1139.417, 733.152
1140.640, 737.453
1141.862, 331.773
1143.084, 716.176
1144.305, 340.598
1145.527, 565.051
1146.748, 469.527
1147.970, 134.023
1149.191, 298.551
1150.411, 493.102
1151.632, 357.719
1152.852, 342.359
1154.072, 187.043
1155.292, 91.770
1156.512, 156.547
1157.732, 321.371
1158.951, 73.730
1160.170, 491.258
1161.389, 106.305
1162.608, 181.422
1163.826, 236.598
1165.045, 121.852
1166.263, 137.176
1167.481, 152.570
1168.699, 98.039
1169.916, 323.582
1171.134, 410.816
1172.351, 154.855
1173.568, 250.598
1174.784, 83.582
1176.001, 252.320
1177.217, 218.301
1178.433, 95.633
1179.649, 240.523
1180.865, 116.762
1182.081, 193.102
1183.296, 249.531
1184.511, 76.059
1185.726, 342.680
1186.941, 499.395
1188.155, 206.199
1189.370, 663.098
1190.584, 120.109
1191.798, 357.230
1193.011, 724.480
1194.225, 271.855
1195.438, 439.367
1196.651, 777.020
1197.864, 194.820
1199.077, 672.770
1200.290, 340.887
1201.502, 891.531
1202.714, 439.465
1203.926, 307.555
1205.138, 705.797
1206.349, 484.199
1207.561, 343.500
1208.772, 498.414
1209.983, 34.145
1211.194, 322.906
1212.404, 464.895
1213.614, 96.488
1214.825, 237.617
1216.034, 458.199
1217.244, 11.863
1218.454, 347.316
1219.663, 325.586
1220.872, 252.766
1222.081, 618.629
1223.290, 234.059
1224.498, 137.750
1225.707, 493.117
1226.915, 192.027
1228.123, 314.180
1229.331, 156.297
1230.538, 113.430
1231.746, 445.621
1232.953, 1.211
1234.160, 183.859
1235.366, 131.426
1236.573, 340.766
1237.779, 244.012
1238.986, 81.555
1240.192, 376.078
1241.397, 321.895
1242.603, 0.000
##END=



