##NAMES=Montebrasite
##RRUFFID=R040062
##IDEAL CHEMISTRY=LiAlPO_4_(OH)
##LOCALITY=Hebron, Maine, USA
##OWNER=RRUFF
##SOURCE=University of Arizona Mineral Museum
##DESCRIPTION=White massive
##STATUS=The identification of this mineral has been confirmed by X-ray diffraction and chemical analysis
##URL=rruff.info/R040062
##MEASURED CHEMISTRY=LiAl(PO_4_)((OH)_0.62_F_0.38_)
##PIN_ID=L00408
##ORIENTATION=Laser parallel to c* (0 0 1). Fiducial mark perpendicular to laser is parallel to a [1 0 0]
111.932, 0.000
113.329, 40.712
114.726, 29.776
116.123, 0.921
117.519, 97.726
118.915, 11.972
120.311, 191.611
121.706, 253.008
123.102, 507.885
124.497, 604.077
125.892, 993.780
127.286, 1286.726
128.681, 1867.932
130.075, 2440.359
131.469, 2884.502
132.862, 3279.722
134.256, 3205.540
135.649, 2871.642
137.042, 2347.814
138.435, 1834.271
139.827, 1349.632
141.219, 953.326
142.611, 775.754
144.003, 632.680
145.394, 475.539
146.786, 545.543
148.177, 551.669
149.567, 537.123
150.958, 510.436
152.348, 713.453
153.738, 689.290
155.128, 778.064
156.517, 942.890
157.907, 1011.866
159.296, 1274.081
160.685, 1416.613
162.073, 1542.525
163.462, 1738.632
164.850, 1864.423
166.237, 1818.298
167.625, 1843.153
169.012, 1757.379
170.400, 1658.395
171.786, 1407.166
173.173, 1443.414
174.559, 1254.963
175.946, 1225.997
177.332, 1169.378
178.717, 1135.820
180.103, 1213.252
181.488, 1201.110
182.873, 1430.654
184.258, 1422.425
185.642, 1671.779
187.026, 1605.869
188.410, 1791.799
189.794, 1718.002
191.178, 1866.255
192.561, 1830.511
193.944, 1914.771
195.327, 1859.051
196.709, 1763.420
198.092, 1543.899
199.474, 1447.497
200.856, 1324.223
202.237, 1053.072
203.618, 887.041
205.000, 730.121
206.380, 574.298
207.761, 467.904
209.142, 359.913
210.522, 314.335
211.902, 224.827
213.281, 233.378
214.661, 145.981
216.040, 3.369
217.419, 123.321
218.798, 46.049
220.176, 11.807
221.554, 62.592
222.932, 3.601
224.310, 11.222
225.688, 37.946
227.065, 44.886
228.442, 30.289
229.819, 58.520
231.196, 23.309
232.572, 58.925
233.948, 27.172
235.324, 132.423
236.700, 50.686
238.075, 95.955
239.450, 11.232
240.825, 107.500
242.200, 81.680
243.574, 11.168
244.948, 102.992
246.322, 46.057
247.696, 81.115
249.070, 43.205
250.443, 89.340
251.816, 26.553
253.189, 21.166
254.561, 99.160
255.933, 29.414
257.306, 1.184
258.677, 50.077
260.049, 73.188
261.420, 19.192
262.791, 15.059
264.162, 88.795
265.533, 101.711
266.903, 282.994
268.274, 247.511
269.643, 398.009
271.013, 531.483
272.383, 571.955
273.752, 587.428
275.121, 795.902
276.490, 691.379
277.858, 803.081
279.226, 898.408
280.595, 906.103
281.962, 964.038
283.330, 1212.142
284.697, 1330.441
286.064, 1778.932
287.431, 2057.623
288.798, 2736.398
290.164, 3445.188
291.530, 4624.006
292.896, 6452.799
294.262, 8631.559
295.627, 11590.181
296.993, 15028.756
298.358, 18087.018
299.722, 19925.268
301.087, 20013.438
302.451, 18221.676
303.815, 15679.752
305.179, 13487.768
306.543, 11585.726
307.906, 10413.613
309.269, 9661.432
310.632, 8959.163
311.995, 8176.801
313.357, 7234.352
314.719, 6451.812
316.081, 5779.190
317.443, 4786.490
318.804, 4243.717
320.166, 3760.877
321.527, 3547.972
322.887, 3225.006
324.248, 2781.982
325.608, 2638.904
326.968, 2345.774
328.328, 2252.590
329.688, 1889.309
331.047, 1835.938
332.406, 1702.474
333.765, 1468.873
335.124, 1395.166
336.482, 1281.396
337.840, 1147.465
339.198, 1153.313
340.556, 1149.005
341.913, 1114.488
343.271, 959.838
344.628, 835.035
345.984, 740.082
347.341, 895.062
348.697, 739.937
350.053, 804.770
351.409, 749.801
352.765, 774.877
354.120, 670.560
355.475, 776.297
356.830, 771.445
358.185, 816.493
359.539, 722.061
360.894, 737.765
362.248, 822.971
363.601, 728.242
364.955, 763.772
366.308, 790.680
367.661, 825.684
369.014, 786.605
370.367, 898.591
371.719, 873.959
373.071, 1009.253
374.423, 995.612
375.775, 990.711
377.126, 995.506
378.478, 990.711
379.828, 948.159
381.179, 946.732
382.530, 930.041
383.880, 920.937
385.230, 906.054
386.580, 908.060
387.929, 894.181
389.279, 911.599
390.628, 815.674
391.977, 827.070
393.325, 771.212
394.674, 755.597
396.022, 744.739
397.370, 734.980
398.718, 638.648
400.065, 718.009
401.413, 553.825
402.760, 525.707
404.106, 561.043
405.453, 488.070
406.799, 581.092
408.146, 546.900
409.491, 495.898
410.837, 442.691
412.182, 451.861
413.528, 548.551
414.873, 618.787
416.217, 662.028
417.562, 907.760
418.906, 1191.048
420.250, 1702.977
421.594, 2576.629
422.938, 3610.500
424.281, 5003.586
425.624, 5916.520
426.967, 6030.580
428.310, 5354.729
429.652, 3869.326
430.994, 2683.916
432.336, 1818.495
433.678, 1333.066
435.020, 1017.627
436.361, 692.179
437.702, 496.739
439.043, 531.290
440.383, 435.820
441.724, 350.343
443.064, 294.841
444.404, 249.323
445.743, 193.777
447.083, 168.213
448.422, 132.620
449.761, 120.691
451.100, 121.351
452.438, 115.667
453.777, 119.993
455.115, 124.286
456.453, 149.595
457.790, 152.811
459.128, 227.024
460.465, 211.228
461.802, 277.901
463.139, 189.545
464.475, 303.658
465.811, 337.741
467.147, 281.795
468.483, 385.819
469.819, 389.814
471.154, 512.559
472.489, 697.715
473.824, 801.621
475.159, 895.498
476.493, 1049.348
477.827, 1132.087
479.161, 1416.959
480.495, 1350.724
481.829, 1394.459
483.162, 1538.167
484.495, 1371.848
485.828, 1205.500
487.161, 1269.126
488.493, 1102.723
489.825, 876.293
491.157, 1029.836
492.489, 843.351
493.820, 806.841
495.151, 840.304
496.482, 563.740
497.813, 617.151
499.144, 640.537
500.474, 513.899
501.804, 387.236
503.134, 420.551
504.464, 363.843
505.793, 277.112
507.123, 310.359
508.451, 263.587
509.780, 246.791
511.109, 169.974
512.437, 153.134
513.765, 36.271
515.093, 29.377
516.421, 132.456
517.748, 155.508
519.075, 48.535
520.402, 31.535
521.729, 114.505
523.055, 97.447
524.382, 50.362
525.708, 16.745
527.034, 156.103
528.359, 80.800
529.685, 97.818
531.010, 64.849
532.335, 77.769
533.659, 100.826
534.984, 6.395
536.308, 143.142
537.632, 49.630
538.956, 77.449
540.279, 65.330
541.603, 1.551
542.926, 120.954
544.249, 9.873
545.571, 102.247
546.894, 40.093
548.216, 54.000
549.538, 116.734
550.860, 0.416
552.181, 143.673
553.503, 7.140
554.824, 29.573
556.145, 192.508
557.465, 184.720
558.786, 77.796
560.106, 270.399
561.426, 72.889
562.746, 188.201
564.065, 170.366
565.385, 127.742
566.704, 150.170
568.023, 244.853
569.341, 269.602
570.660, 302.979
571.978, 162.162
573.296, 434.520
574.614, 198.002
575.931, 392.554
577.248, 344.803
578.565, 457.073
579.882, 449.157
581.199, 452.481
582.515, 605.694
583.831, 727.994
585.147, 817.039
586.463, 855.570
587.779, 891.077
589.094, 1033.517
590.409, 1205.586
591.724, 1557.583
593.038, 1919.675
594.353, 2371.907
595.667, 3248.135
596.981, 4329.879
598.295, 5641.590
599.608, 7006.322
600.922, 8328.220
602.235, 8701.489
603.547, 7533.240
604.860, 6386.607
606.172, 5028.238
607.485, 3950.586
608.797, 3191.860
610.108, 2342.810
611.420, 2103.396
612.731, 1844.502
614.042, 1639.713
615.353, 1420.665
616.664, 1471.581
617.974, 1527.009
619.284, 1448.160
620.594, 1599.234
621.904, 1580.438
623.213, 1811.442
624.523, 2012.490
625.832, 2203.426
627.141, 2614.326
628.449, 3025.189
629.758, 3356.018
631.066, 3526.811
632.374, 3577.568
633.681, 3568.290
634.989, 3738.977
636.296, 4109.627
637.603, 4840.243
638.910, 5940.822
640.217, 7941.366
641.523, 10631.876
642.829, 13232.352
644.135, 16442.791
645.441, 17533.193
646.747, 17043.562
648.052, 14613.894
649.357, 11574.190
650.662, 8774.454
651.967, 6264.680
653.271, 4934.873
654.575, 3695.031
655.879, 3005.154
657.183, 2495.241
658.486, 1935.294
659.790, 1675.312
661.093, 1595.294
662.396, 1145.243
663.698, 1195.156
665.001, 935.033
666.303, 974.878
667.605, 794.686
668.907, 694.237
670.209, 663.684
671.510, 462.480
672.811, 491.186
674.112, 400.440
675.413, 359.759
676.713, 388.519
678.013, 387.103
679.313, 356.147
680.613, 295.085
681.913, 344.814
683.212, 412.036
684.511, 211.118
685.810, 214.240
687.109, 307.702
688.407, 196.291
689.706, 154.908
691.004, 213.586
692.302, 111.140
693.599, 172.173
694.897, 132.739
696.194, 145.771
697.491, 101.474
698.788, 209.361
700.084, 42.122
701.380, 225.465
702.677, 26.238
703.972, 57.003
705.268, 135.076
706.564, 63.251
707.859, 80.325
709.154, 68.525
710.449, 175.668
711.743, 93.098
713.037, 221.388
714.332, 110.386
715.626, 127.203
716.919, 155.462
718.213, 12.941
719.506, 270.883
720.799, 21.281
722.092, 156.281
723.384, 23.905
724.677, 21.865
725.969, 59.779
727.261, 52.349
728.553, 165.041
729.844, 52.788
731.136, 139.752
732.427, 177.812
733.718, 104.653
735.008, 252.762
736.299, 50.146
737.589, 122.514
738.879, 124.702
740.169, 58.115
741.458, 51.024
742.748, 4.021
744.037, 72.919
745.326, 129.825
746.614, 136.699
747.903, 103.544
749.191, 70.357
750.479, 22.864
751.767, 153.846
753.055, 150.526
754.342, 2.821
755.629, 83.773
756.916, 20.339
758.203, 96.860
759.490, 13.352
760.776, 59.798
762.062, 26.214
763.348, 72.593
764.634, 178.944
765.919, 114.457
767.204, 85.961
768.489, 27.847
769.774, 128.283
771.059, 244.389
772.343, 29.530
773.627, 106.634
774.911, 182.626
776.195, 48.918
777.479, 154.964
778.762, 90.906
780.045, 216.893
781.328, 232.763
782.611, 178.609
783.893, 344.433
785.175, 250.232
786.457, 416.012
787.739, 441.767
789.021, 647.502
790.302, 573.216
791.583, 728.908
792.864, 804.579
794.145, 870.230
795.425, 985.860
796.706, 981.472
797.986, 1237.063
799.266, 1052.635
800.545, 1128.186
801.825, 1273.720
803.104, 1219.234
804.383, 1324.730
805.662, 1190.209
806.940, 1055.670
808.219, 1191.112
809.497, 1046.539
810.775, 1041.949
812.053, 887.341
813.330, 822.719
814.608, 948.080
815.885, 603.426
817.162, 768.756
818.438, 764.072
819.715, 699.371
820.991, 434.656
822.267, 469.930
823.543, 435.188
824.818, 400.434
826.094, 355.672
827.369, 301.650
828.644, 256.117
829.919, 221.324
831.193, 156.523
832.468, 201.715
833.742, 46.896
835.016, 17.932
836.289, 227.223
837.563, 112.377
838.836, 57.248
840.109, 27.826
841.382, 147.344
842.654, 82.227
843.927, 16.934
845.199, 141.893
846.471, 43.660
847.743, 48.818
849.014, 95.832
850.286, 139.420
851.557, 5.059
852.828, 209.883
854.099, 48.387
855.369, 123.404
856.639, 117.068
857.909, 3.645
859.179, 30.939
860.449, 24.549
861.718, 158.568
862.988, 145.490
864.257, 137.139
865.525, 191.422
866.794, 116.424
868.062, 110.572
869.331, 235.193
870.599, 199.938
871.866, 321.844
873.134, 66.910
874.401, 436.770
875.668, 211.562
876.935, 384.109
878.202, 276.592
879.468, 120.449
880.735, 498.500
882.001, 213.387
883.267, 187.139
884.532, 279.803
885.798, 304.783
887.063, 209.725
888.328, 404.838
889.593, 288.691
890.857, 342.637
892.122, 347.479
893.386, 385.557
894.650, 534.129
895.913, 365.705
897.177, 640.326
898.440, 575.291
899.703, 540.309
900.966, 625.209
902.229, 579.947
903.491, 360.670
904.754, 685.854
906.016, 251.049
907.278, 243.203
908.539, 98.170
909.801, 371.744
911.062, 306.820
912.323, 80.182
913.584, 75.146
914.844, 139.229
916.105, 64.314
917.365, 20.289
918.625, 144.578
919.885, 110.592
921.144, 61.658
922.404, 27.068
923.663, 12.514
924.922, 13.305
926.180, 19.109
927.439, 25.389
928.697, 10.150
929.955, 0.643
931.213, 9.133
932.471, 116.445
933.728, 62.045
934.985, 227.668
936.242, 163.314
937.499, 88.986
938.756, 54.684
940.012, 180.404
941.269, 206.146
942.525, 221.945
943.780, 57.768
945.036, 193.615
946.291, 139.488
947.546, 255.387
948.801, 181.312
950.056, 407.268
951.311, 213.246
952.565, 319.252
953.819, 375.287
955.073, 341.350
956.327, 247.441
957.580, 273.561
958.834, 299.711
960.087, 445.893
961.339, 442.102
962.592, 548.344
963.845, 404.617
965.097, 610.918
966.349, 527.250
967.601, 503.615
968.852, 830.012
970.104, 416.455
971.355, 872.934
972.606, 809.443
973.857, 955.986
975.107, 1002.564
976.358, 1099.176
977.608, 1195.820
978.858, 1452.498
980.108, 1469.213
981.357, 1575.957
982.607, 1972.736
983.856, 1809.541
985.105, 2706.371
986.353, 2372.141
987.602, 2939.025
988.850, 3445.938
990.098, 3592.879
991.346, 4498.400
992.594, 5125.396
993.841, 6002.426
995.089, 6780.547
996.336, 7627.637
997.583, 9483.230
998.829, 10408.105
1000.076, 12335.289
1001.322, 15029.496
1002.568, 17036.404
1003.814, 20013.693
1005.060, 22161.043
1006.305, 24648.424
1007.550, 27591.902
1008.795, 28619.172
1010.040, 29966.688
1011.285, 30064.246
1012.529, 28141.844
1013.773, 27219.484
1015.017, 23688.000
1016.261, 21495.717
1017.505, 18803.467
1018.748, 16091.301
1019.991, 14139.170
1021.234, 11957.078
1022.477, 10525.037
1023.719, 9563.039
1024.962, 8182.211
1026.204, 7620.312
1027.446, 6768.463
1028.688, 6256.666
1029.929, 6064.910
1031.170, 5783.229
1032.411, 5601.586
1033.652, 6009.996
1034.893, 5838.492
1036.134, 6417.033
1037.374, 6435.660
1038.614, 6814.330
1039.854, 7313.043
1041.094, 8021.848
1042.333, 8400.699
1043.572, 9249.621
1044.811, 9578.615
1046.050, 10447.668
1047.289, 11146.770
1048.527, 12155.914
1049.766, 13435.102
1051.004, 14814.336
1052.241, 17423.615
1053.479, 19602.967
1054.717, 22602.354
1055.954, 27351.783
1057.191, 30821.283
1058.428, 33240.816
1059.664, 35640.414
1060.901, 33660.055
1062.137, 31589.756
1063.373, 26269.490
1064.609, 21459.275
1065.844, 17809.113
1067.080, 14146.559
1068.315, 11014.412
1069.550, 8914.379
1070.785, 7104.406
1072.019, 5884.488
1073.254, 4914.611
1074.488, 3884.656
1075.722, 3574.900
1076.955, 2824.873
1078.189, 2575.102
1079.422, 2385.465
1080.656, 1885.814
1081.889, 2066.312
1083.121, 1526.861
1084.354, 1358.400
1085.586, 1449.061
1086.818, 1089.775
1088.050, 1380.713
1089.282, 1041.541
1090.514, 979.164
1091.745, 1000.111
1092.976, 1071.117
1094.207, 982.184
1095.438, 1053.311
1096.668, 964.500
1097.899, 1125.752
1099.129, 1267.070
1100.359, 1258.455
1101.588, 1719.908
1102.818, 1741.436
1104.047, 2053.031
1105.276, 2364.705
1106.505, 2546.457
1107.734, 2693.307
1108.962, 2740.135
1110.191, 2772.090
1111.419, 2823.902
1112.647, 2695.785
1113.874, 2627.742
1115.102, 2699.768
1116.329, 2311.865
1117.556, 2487.500
1118.783, 2289.736
1120.010, 2232.043
1121.236, 2120.699
1122.463, 1866.912
1123.689, 1739.500
1124.914, 1491.801
1126.140, 1214.119
1127.366, 1446.385
1128.591, 958.672
1129.816, 991.066
1131.041, 841.729
1132.266, 582.463
1133.490, 993.271
1134.714, 664.156
1135.938, 415.119
1137.162, 696.141
1138.386, 237.260
1139.609, 378.477
1140.833, 429.785
1142.056, 58.832
1143.279, 372.668
1144.501, 35.756
1145.724, 315.893
1146.946, 567.607
1148.168, 150.600
1149.390, 241.268
1150.612, 163.211
1151.833, 65.219
1153.054, 257.303
1154.275, 70.533
1155.496, 451.703
1156.717, 224.016
1157.937, 36.404
1159.158, 128.865
1160.378, 451.402
1161.598, 45.986
1162.817, 296.699
1164.037, 19.457
1165.256, 222.291
1166.475, 385.197
1167.694, 128.176
1168.913, 401.229
1170.131, 504.355
1171.349, 52.447
1172.567, 590.859
1173.785, 304.266
1175.003, 407.746
1176.220, 611.307
1177.438, 654.949
1178.655, 728.668
1179.872, 772.465
1181.088, 806.320
1182.305, 1020.250
1183.521, 1064.205
1184.737, 1128.184
1185.953, 1282.230
1187.169, 1326.350
1188.384, 1420.535
1189.599, 1484.787
1190.814, 1445.295
1192.029, 1473.484
1193.244, 1327.924
1194.459, 1122.428
1195.673, 1016.998
1196.887, 1071.598
1198.101, 1026.229
1199.314, 920.916
1200.528, 585.656
1201.741, 1130.459
1202.954, 725.322
1204.167, 430.305
1205.380, 915.418
1206.592, 430.668
1207.805, 766.053
1209.017, 509.244
1210.229, 93.684
1211.440, 489.414
1212.652, 155.211
1213.863, 151.016
1215.074, 383.365
1216.285, 269.357
1217.496, 135.482
1218.707, 129.566
1219.917, 165.908
1221.127, 292.387
1222.337, 268.998
1223.547, 282.611
1224.756, 179.422
1225.966, 246.365
1227.175, 93.443
1228.384, 120.658
1229.592, 21.990
1230.801, 205.514
1232.009, 283.164
1233.217, 0.971
1234.425, 188.938
1235.633, 122.930
1236.841, 165.383
1238.048, 33.879
1239.255, 42.572
1240.462, 421.469
1241.669, 210.568
1242.876, 130.002
1244.082, 369.893
1245.288, 260.340
1246.494, 111.168
1247.700, 332.432
1248.906, 154.047
1250.111, 246.213
1251.316, 388.805
1252.521, 275.822
1253.726, 279.037
1254.931, 321.594
1256.135, 463.883
1257.339, 345.137
1258.543, 166.547
1259.747, 488.051
1260.951, 339.488
1262.154, 29.342
1263.357, 461.270
1264.560, 201.729
1265.763, 184.697
1266.966, 411.531
1268.168, 319.629
1269.371, 397.916
1270.573, 375.961
1271.775, 87.303
1272.976, 174.428
1274.178, 0.000
##END=



