##NAMES=Montebrasite
##RRUFFID=R040060
##IDEAL CHEMISTRY=LiAlPO_4_(OH)
##LOCALITY=Oxford County, Maine, USA
##OWNER=RRUFF
##SOURCE=University of Arizona Mineral Museum
##DESCRIPTION=White massive
##STATUS=The identification of this mineral has been confirmed by X-ray diffraction and chemical analysis
##URL=rruff.info/R040060
##MEASURED CHEMISTRY=LiAl(PO_4_)((OH)_0.79_F_0.21_)
##PIN_ID=L00171
##ORIENTATION=Laser parallel to (-1 -1 0). Fiducial mark perpendicular to laser is parallel to c [0 0 1]
121.150, 0.000
122.543, 15.552
123.936, 38.527
125.328, 70.479
126.720, 199.461
128.112, 438.480
129.504, 918.299
130.896, 1249.658
132.287, 1625.084
133.678, 1984.154
135.069, 2243.682
136.460, 2230.648
137.850, 2108.513
139.240, 1790.771
140.630, 1449.281
142.020, 862.153
143.410, 605.027
144.799, 373.313
146.188, 291.330
147.577, 119.135
148.965, 60.767
150.354, 3.727
151.742, 57.286
153.130, 66.148
154.517, 22.591
155.905, 12.884
157.292, 46.651
158.679, 224.169
160.066, 96.668
161.452, 243.146
162.839, 236.606
164.225, 237.482
165.611, 360.801
166.996, 419.214
168.381, 416.146
169.767, 444.151
171.152, 373.221
172.536, 394.349
173.921, 390.531
175.305, 280.764
176.689, 325.044
178.073, 332.452
179.456, 253.072
180.839, 212.972
182.222, 298.112
183.605, 380.637
184.988, 516.241
186.370, 503.830
187.752, 646.381
189.134, 679.041
190.516, 771.429
191.898, 772.842
193.279, 834.226
194.660, 915.585
196.041, 816.921
197.421, 778.235
198.801, 739.527
200.182, 520.799
201.561, 472.049
202.941, 354.279
204.321, 137.490
205.700, 129.690
207.079, 22.107
208.457, 55.898
209.836, 129.682
211.214, 9.543
212.592, 14.227
213.970, 25.008
215.348, 10.247
216.725, 61.490
218.102, 206.738
219.479, 210.970
220.856, 142.187
222.232, 168.400
223.608, 241.616
224.984, 302.837
226.360, 204.059
227.736, 295.277
229.111, 326.492
230.486, 357.703
231.861, 328.914
233.236, 240.260
234.610, 368.010
235.984, 251.060
237.358, 275.828
238.732, 242.085
240.105, 190.138
241.479, 173.887
242.852, 132.576
244.224, 152.525
245.597, 171.889
246.969, 242.834
248.342, 64.650
249.713, 135.865
251.085, 56.529
252.457, 67.330
253.828, 88.025
255.199, 78.731
256.570, 9.447
257.940, 80.171
259.310, 10.898
260.681, 111.631
262.050, 152.362
263.420, 233.096
264.790, 253.837
266.159, 264.592
267.528, 465.341
268.896, 616.092
270.265, 926.847
271.633, 1047.595
273.001, 1258.332
274.369, 1429.058
275.737, 1599.778
277.104, 1660.492
278.471, 1571.198
279.838, 1451.898
281.205, 1332.592
282.572, 1303.279
283.938, 1263.961
285.304, 1204.636
286.670, 1585.347
288.035, 1656.390
289.401, 2147.608
290.766, 2808.936
292.131, 4050.330
293.495, 5391.771
294.860, 7073.230
296.224, 8724.702
297.588, 9996.186
298.952, 10307.680
300.315, 9889.179
301.679, 8810.561
303.042, 7261.954
304.405, 5783.340
305.767, 4724.734
307.130, 3886.136
308.492, 3297.538
309.854, 2918.933
311.216, 2570.319
312.578, 2341.700
313.939, 2153.076
315.300, 2024.325
316.661, 2013.200
318.021, 1854.561
319.382, 1925.916
320.742, 1806.826
322.102, 1728.171
323.462, 1489.509
324.821, 1310.840
326.181, 1062.165
327.540, 833.486
328.899, 724.774
330.257, 475.871
331.616, 496.951
332.974, 378.031
334.332, 429.111
335.690, 300.191
337.047, 221.269
338.405, 252.346
339.762, 163.421
341.119, 204.494
342.475, 135.564
343.832, 76.632
345.188, 67.693
346.544, 51.253
347.900, 49.774
349.255, 0.794
350.610, 31.797
351.965, 17.208
353.320, 16.238
354.675, 4.910
356.029, 16.284
357.384, 52.796
358.738, 58.457
360.091, 10.167
361.445, 68.396
362.798, 52.819
364.151, 65.548
365.504, 3.744
366.857, 32.770
368.209, 31.516
369.561, 70.356
370.913, 110.596
372.265, 72.623
373.617, 5.767
374.968, 86.868
376.319, 30.410
377.670, 126.214
379.021, 227.972
380.371, 99.738
381.721, 150.739
383.071, 212.071
384.421, 133.577
385.770, 204.675
387.120, 215.628
388.469, 316.516
389.818, 218.342
391.166, 309.145
392.515, 409.984
393.863, 310.613
395.211, 382.097
396.559, 422.928
397.906, 423.729
399.254, 494.434
400.601, 465.041
401.948, 475.633
403.294, 476.915
404.641, 638.188
405.987, 548.654
407.333, 631.031
408.679, 821.360
410.025, 851.718
411.370, 772.545
412.715, 963.284
414.060, 994.073
415.405, 1295.490
416.749, 1556.026
418.093, 1966.574
419.437, 2776.421
420.781, 4176.811
422.125, 6166.734
423.468, 8797.145
424.811, 11517.470
426.154, 13447.789
427.497, 13138.115
428.839, 11198.433
430.182, 8268.756
431.524, 5899.070
432.866, 3999.375
434.207, 2879.682
435.549, 1999.991
436.890, 1350.288
438.231, 1110.577
439.572, 900.876
440.912, 661.175
442.252, 641.463
443.593, 581.767
444.932, 432.089
446.272, 272.399
447.611, 312.701
448.951, 192.994
450.290, 243.276
451.628, 263.555
452.967, 223.820
454.305, 214.070
455.644, 244.304
456.981, 204.521
458.319, 204.725
459.657, 294.912
460.994, 355.084
462.331, 415.239
463.668, 315.377
465.004, 375.497
466.341, 345.601
467.677, 395.688
469.013, 485.755
470.348, 485.806
471.684, 795.837
473.019, 855.852
474.354, 995.848
475.689, 1035.825
477.024, 1425.785
478.358, 1605.737
479.692, 1945.670
481.026, 2065.585
482.360, 2275.483
483.694, 2225.361
485.027, 2225.223
486.360, 2245.062
487.693, 2354.883
489.026, 2244.684
490.358, 2154.466
491.691, 2124.229
493.023, 2003.973
494.354, 1993.698
495.686, 2013.404
497.017, 1843.090
498.349, 1622.758
499.680, 1462.405
501.010, 1272.034
502.341, 1041.641
503.671, 991.229
505.001, 900.702
506.331, 700.113
507.661, 575.256
508.990, 494.544
510.319, 542.901
511.648, 372.041
512.977, 369.215
514.306, 96.425
515.634, 124.316
516.962, 223.112
518.290, 97.946
519.618, 67.067
520.945, 24.518
522.273, 88.294
523.600, 27.318
524.927, 11.212
526.253, 129.155
527.580, 55.142
528.906, 1.486
530.232, 10.853
531.558, 59.993
532.883, 39.015
534.208, 77.365
535.534, 43.230
536.858, 63.843
538.183, 5.102
539.508, 4.523
540.832, 93.882
542.156, 37.781
543.480, 22.650
544.803, 76.127
546.127, 109.582
547.450, 123.660
548.773, 4.886
550.096, 147.831
551.418, 136.733
552.741, 185.756
554.063, 25.273
555.385, 134.486
556.706, 134.414
558.028, 153.570
559.349, 174.130
560.670, 176.041
561.991, 34.650
563.312, 34.271
564.632, 183.167
565.952, 7.903
567.272, 221.302
568.592, 208.754
569.911, 87.233
571.231, 106.122
572.550, 97.581
573.869, 26.121
575.187, 154.899
576.506, 157.331
577.824, 246.153
579.142, 197.942
580.460, 216.444
581.778, 201.357
583.095, 280.215
584.412, 238.864
585.729, 270.944
587.046, 289.828
588.363, 421.282
589.679, 479.707
590.995, 378.661
592.311, 519.749
593.627, 620.533
594.942, 618.424
596.258, 957.019
597.573, 1250.016
598.888, 1410.834
600.202, 1708.909
601.517, 1662.909
602.831, 1727.874
604.145, 1485.715
605.459, 1234.329
606.772, 1112.772
608.086, 1100.877
609.399, 841.291
610.712, 859.254
612.024, 696.873
613.337, 644.523
614.649, 642.375
615.961, 800.174
617.273, 888.091
618.585, 955.954
619.896, 1043.281
621.208, 1260.576
622.519, 1447.994
623.829, 1755.350
625.140, 2142.586
626.450, 2599.792
627.761, 2726.967
629.071, 3024.111
630.380, 3011.225
631.690, 3088.307
632.999, 3205.360
634.308, 3262.381
635.617, 3309.372
636.926, 4126.332
638.235, 5183.261
639.543, 6660.158
640.851, 8727.026
642.159, 12033.865
643.466, 14930.670
644.774, 17757.443
646.081, 18534.188
647.388, 17030.904
648.695, 14097.585
650.002, 10924.237
651.308, 8180.857
652.614, 6087.445
653.920, 4534.004
655.226, 3610.532
656.531, 2877.029
657.837, 2213.495
659.142, 1769.931
660.447, 1386.334
661.752, 1322.706
663.056, 1009.050
664.360, 845.362
665.664, 831.662
666.968, 807.934
668.272, 674.178
669.575, 430.395
670.879, 516.590
672.182, 432.383
673.484, 398.271
674.787, 454.395
676.089, 260.145
677.392, 425.732
678.694, 244.096
679.995, 259.764
681.297, 254.982
682.598, 190.096
683.899, 215.891
685.200, 141.367
686.501, 136.184
687.802, 221.287
689.102, 203.287
690.402, 308.547
691.702, 123.979
693.002, 65.975
694.301, 236.621
695.600, 101.697
696.899, 86.309
698.198, 36.725
699.497, 48.275
700.795, 87.361
702.093, 62.480
703.391, 87.770
704.689, 173.027
705.987, 22.402
707.284, 172.793
708.581, 137.955
709.878, 53.271
711.175, 77.660
712.472, 32.660
713.768, 77.615
715.064, 16.375
716.360, 7.867
717.656, 197.104
718.951, 42.844
720.247, 118.953
721.542, 103.848
722.837, 56.750
724.131, 98.379
725.426, 186.385
726.720, 80.635
728.014, 4.660
729.308, 149.533
730.601, 83.059
731.895, 22.236
733.188, 62.062
734.481, 13.451
735.774, 120.910
737.067, 64.695
738.359, 49.541
739.651, 63.814
740.943, 21.943
742.235, 42.236
743.526, 13.619
744.818, 94.182
746.109, 38.381
747.400, 7.600
748.691, 3.633
749.981, 190.279
751.271, 44.164
752.562, 40.021
753.851, 6.240
755.141, 117.488
756.431, 58.811
757.720, 75.191
759.009, 148.340
760.298, 31.844
761.587, 35.314
762.875, 58.752
764.163, 7.426
765.451, 75.930
766.739, 149.260
768.027, 132.561
769.314, 75.838
770.601, 79.086
771.888, 42.309
773.175, 45.502
774.462, 178.664
775.748, 281.807
777.034, 124.922
778.320, 145.186
779.606, 218.256
780.892, 261.301
782.177, 324.322
783.462, 177.322
784.747, 200.295
786.032, 483.250
787.317, 456.182
788.601, 499.090
789.885, 581.977
791.169, 614.842
792.453, 747.684
793.736, 980.504
795.019, 1023.305
796.303, 1156.082
797.585, 1158.838
798.868, 1281.574
800.151, 1334.291
801.433, 1266.984
802.715, 1229.660
803.997, 1112.312
805.279, 1194.949
806.560, 967.566
807.841, 960.162
809.122, 1022.740
810.403, 805.297
811.684, 867.834
812.964, 810.355
814.245, 572.859
815.525, 635.342
816.804, 557.807
818.084, 450.254
819.363, 582.684
820.643, 285.096
821.922, 297.492
823.201, 329.869
824.479, 242.230
825.758, 304.574
827.036, 286.902
828.314, 159.215
829.592, 361.514
830.869, 343.797
832.147, 43.936
833.424, 148.295
834.701, 110.508
835.977, 52.713
837.254, 134.699
838.530, 136.781
839.807, 108.543
841.082, 40.277
842.358, 7.641
843.634, 124.383
844.909, 66.514
846.184, 58.193
847.459, 119.566
848.734, 1.709
850.008, 53.334
851.283, 25.107
852.557, 31.959
853.831, 76.918
855.105, 34.549
856.378, 15.812
857.651, 27.271
858.925, 0.924
860.197, 46.863
861.470, 18.660
862.743, 20.305
864.015, 91.422
865.287, 82.807
866.559, 93.443
867.831, 75.180
869.102, 15.252
870.373, 53.289
871.645, 34.898
872.915, 44.139
874.186, 117.305
875.457, 178.684
876.727, 89.750
877.997, 262.543
879.267, 194.277
880.536, 14.426
881.806, 104.270
883.075, 255.854
884.344, 12.830
885.613, 54.801
886.882, 166.014
888.150, 4.232
889.419, 65.711
890.687, 60.758
891.954, 71.830
893.222, 153.088
894.490, 40.887
895.757, 121.855
897.024, 99.768
898.291, 8.406
899.557, 202.402
900.824, 81.051
902.090, 259.979
903.356, 221.773
904.622, 67.156
905.888, 149.477
907.153, 8.264
908.418, 89.766
909.683, 175.324
910.948, 69.891
912.213, 111.561
913.477, 82.432
914.741, 63.451
916.005, 25.215
917.269, 3.785
918.533, 85.213
919.796, 36.963
921.060, 118.658
922.323, 90.129
923.585, 91.629
924.848, 102.990
926.111, 4.379
927.373, 156.285
928.635, 78.203
929.897, 190.027
931.158, 411.754
932.420, 203.631
933.681, 5.520
934.942, 167.420
936.203, 129.328
937.463, 141.246
938.724, 213.174
939.984, 145.113
941.244, 107.061
942.504, 209.018
943.764, 250.988
945.023, 172.967
946.282, 4.959
947.541, 196.961
948.800, 228.977
950.059, 151.002
951.317, 313.043
952.575, 125.094
953.833, 417.158
955.091, 219.234
956.349, 281.322
957.606, 383.422
958.864, 315.533
960.121, 347.658
961.377, 449.797
962.634, 621.949
963.891, 814.113
965.147, 766.293
966.403, 998.488
967.659, 720.693
968.914, 812.918
970.170, 815.152
971.425, 627.408
972.680, 939.676
973.935, 741.961
975.190, 744.291
976.444, 836.631
977.698, 918.990
978.952, 731.363
980.206, 1253.752
981.460, 1116.158
982.713, 1348.582
983.967, 1377.818
985.220, 1170.275
986.473, 1702.750
987.725, 1585.150
988.978, 1887.672
990.230, 2210.572
991.482, 2373.189
992.734, 2675.703
993.986, 2747.402
995.237, 3190.121
996.488, 3864.852
997.739, 4427.637
998.990, 4910.467
1000.241, 5602.891
1001.492, 6495.760
1002.742, 7967.018
1003.992, 8999.898
1005.242, 10568.500
1006.492, 12151.453
1007.741, 13804.369
1008.990, 15437.430
1010.239, 16520.188
1011.488, 17223.344
1012.737, 17046.469
1013.986, 15899.637
1015.234, 14652.879
1016.482, 12896.158
1017.730, 10989.461
1018.978, 9469.109
1020.225, 7801.814
1021.473, 6875.293
1022.720, 5937.260
1023.967, 5458.832
1025.213, 4762.426
1026.460, 4416.043
1027.706, 4179.688
1028.953, 4263.461
1030.198, 4297.254
1031.444, 4350.664
1032.690, 4764.539
1033.935, 5028.436
1035.180, 5782.068
1036.425, 6416.078
1037.670, 7170.105
1038.915, 8194.184
1040.159, 9228.281
1041.403, 10582.422
1042.647, 12146.645
1043.891, 13410.887
1045.135, 14015.219
1046.378, 14429.584
1047.621, 13870.258
1048.864, 13164.523
1050.107, 12268.955
1051.350, 11363.420
1052.592, 10887.918
1053.835, 10652.426
1055.077, 10765.000
1056.318, 11259.566
1057.560, 11744.156
1058.802, 12158.773
1060.043, 11853.430
1061.284, 11268.133
1062.525, 10172.855
1063.765, 8597.598
1065.006, 7332.357
1066.246, 5876.725
1067.486, 5031.527
1068.726, 4136.348
1069.966, 3361.182
1071.205, 2906.027
1072.445, 2520.895
1073.684, 2225.824
1074.923, 1930.721
1076.161, 1605.635
1077.400, 1680.559
1078.638, 1385.500
1079.876, 1233.285
1081.114, 1308.254
1082.352, 1103.236
1083.590, 1048.713
1084.827, 1003.721
1086.064, 868.742
1087.301, 843.773
1088.538, 778.816
1089.775, 843.871
1091.011, 778.934
1092.247, 694.010
1093.483, 839.100
1094.719, 734.197
1095.955, 709.936
1097.190, 835.051
1098.425, 670.176
1099.660, 725.926
1100.895, 801.070
1102.130, 696.496
1103.364, 1181.658
1104.598, 1126.840
1105.833, 1442.023
1107.066, 1617.209
1108.300, 1662.402
1109.534, 1668.143
1110.767, 1783.551
1112.000, 1478.764
1113.233, 1534.596
1114.466, 1399.822
1115.698, 1155.578
1116.930, 1160.820
1118.163, 966.064
1119.394, 1012.996
1120.626, 948.252
1121.858, 944.061
1123.089, 1096.066
1124.320, 761.332
1125.551, 617.188
1126.782, 732.707
1128.013, 388.561
1129.243, 454.670
1130.473, 410.400
1131.703, 226.508
1132.933, 302.082
1134.163, 288.680
1135.392, 316.643
1136.621, 382.988
1137.850, 31.652
1139.079, 288.039
1140.308, 104.455
1141.536, 100.789
1142.765, 215.980
1143.993, 88.385
1145.221, 258.627
1146.448, 46.326
1147.676, 72.432
1148.903, 130.619
1150.130, 126.922
1151.357, 93.689
1152.584, 150.461
1153.810, 26.064
1155.037, 233.746
1156.263, 0.053
1157.489, 135.637
1158.715, 255.066
1159.940, 100.803
1161.166, 47.270
1162.391, 198.646
1163.616, 48.168
1164.841, 294.711
1166.065, 198.734
1167.290, 94.561
1168.514, 233.629
1169.738, 129.686
1170.962, 145.365
1172.185, 262.766
1173.409, 89.234
1174.632, 436.490
1175.855, 419.109
1177.078, 195.229
1178.301, 511.826
1179.523, 383.389
1180.746, 589.059
1181.968, 677.078
1183.190, 563.566
1184.412, 869.406
1185.633, 827.691
1186.855, 922.910
1188.076, 1029.166
1189.297, 927.197
1190.518, 1063.348
1191.738, 1032.248
1192.959, 838.520
1194.179, 973.471
1195.399, 919.361
1196.619, 764.672
1197.838, 910.299
1199.058, 746.256
1200.277, 590.727
1201.496, 966.086
1202.715, 480.643
1203.934, 905.023
1205.152, 490.883
1206.371, 465.967
1207.589, 550.947
1208.807, 466.957
1210.024, 411.182
1211.242, 465.768
1212.459, 351.680
1213.677, 475.807
1214.894, 560.334
1216.110, 265.010
1217.327, 539.371
1218.543, 315.084
1219.760, 209.660
1220.976, 393.576
1222.192, 278.953
1223.407, 413.012
1224.623, 298.412
1225.838, 293.102
1227.053, 427.176
1228.268, 401.740
1229.483, 126.248
1230.697, 370.186
1231.912, 335.451
1233.126, 409.094
1234.340, 403.537
1235.554, 267.383
1236.767, 480.969
1237.981, 385.164
1239.194, 329.930
1240.407, 443.453
1241.620, 117.275
1242.832, 271.080
1244.045, 324.539
1245.257, 128.902
1246.469, 452.311
1247.681, 216.182
1248.893, 309.701
1250.104, 282.996
1251.315, 286.668
1252.527, 419.912
1253.738, 333.125
1254.948, 166.457
1256.159, 249.592
1257.369, 432.695
1258.579, 156.029
1259.789, 408.938
1260.999, 182.139
1262.209, 336.275
1263.418, 378.990
1264.628, 22.242
1265.837, 404.912
1267.046, 187.430
1268.254, 59.506
1269.463, 352.844
1270.671, 185.289
1271.879, 268.160
1273.087, 190.223
1274.295, 132.549
1275.502, 224.592
1276.710, 136.320
1277.917, 268.965
1279.124, 60.467
1280.331, 11.906
1281.537, 93.291
1282.744, 324.504
1283.950, 174.791
1285.156, 86.154
1286.362, 97.033
1287.568, 102.158
1288.773, 258.949
1289.978, 132.381
1291.184, 18.170
1292.389, 138.646
1293.593, 9.066
1294.798, 99.412
1296.002, 49.693
1297.206, 49.902
1298.410, 260.457
1299.614, 20.537
1300.818, 119.465
1302.021, 260.404
1303.225, 9.773
1304.428, 219.965
1305.631, 79.633
1306.833, 40.768
1308.036, 11.266
1309.238, 68.152
1310.440, 242.508
1311.642, 186.684
1312.844, 4.195
1314.045, 124.838
1315.247, 213.799
1316.448, 137.314
1317.649, 71.451
1318.850, 30.121
1320.051, 221.293
1321.251, 107.146
1322.451, 55.508
1323.651, 46.219
1324.851, 181.953
1326.051, 149.943
1327.251, 58.025
1328.450, 125.926
1329.649, 3.764
1330.848, 261.527
1332.047, 69.229
1333.245, 153.139
1334.444, 74.385
1335.642, 168.158
1336.840, 59.174
1338.038, 286.441
1339.236, 93.650
1340.433, 190.797
1341.630, 117.885
1342.828, 74.912
1344.025, 461.883
1345.221, 148.797
1346.418, 335.656
1347.614, 392.467
1348.810, 69.230
1350.006, 185.945
1351.202, 202.611
1352.398, 49.238
1353.593, 545.816
1354.789, 272.361
1355.984, 48.871
1357.179, 415.346
1358.373, 261.793
1359.568, 218.215
1360.762, 284.619
1361.956, 51.014
1363.150, 217.393
1364.344, 373.746
1365.538, 70.137
1366.731, 316.541
1367.924, 63.105
1369.117, 149.584
1370.310, 296.242
1371.503, 175.457
1372.695, 182.139
1373.888, 305.797
1375.080, 66.467
1376.272, 437.070
1377.464, 177.613
1378.655, 318.086
1379.847, 477.840
1381.038, 228.182
1382.229, 117.805
1383.420, 517.719
1384.610, 307.838
1385.801, 307.914
1386.991, 667.107
1388.181, 166.365
1389.371, 645.646
1390.561, 275.436
1391.750, 353.242
1392.940, 554.467
1394.129, 293.281
1395.318, 391.730
1396.507, 629.559
1397.696, 357.502
1398.884, 411.883
1400.072, 519.605
1401.260, 299.389
1402.448, 494.445
1403.636, 267.703
1404.824, 81.840
1406.011, 564.914
1407.198, 219.035
1408.385, 343.355
1409.572, 445.994
1410.758, 197.262
1411.945, 454.600
1413.131, 294.039
1414.317, 133.910
1415.503, 473.848
1416.689, 202.109
1417.874, 253.332
1419.060, 422.234
1420.245, 35.977
1421.430, 370.906
1422.615, 422.402
1423.799, 231.770
1424.984, 233.910
1426.168, 383.992
1427.352, 225.336
1428.536, 396.426
1429.720, 206.512
1430.903, 99.129
1432.087, 452.945
1433.270, 283.016
1434.453, 432.570
1435.635, 375.543
1436.818, 275.957
1438.001, 447.461
1439.183, 306.930
1440.365, 78.898
1441.547, 428.652
1442.728, 486.641
1443.910, 167.055
1445.091, 537.359
1446.272, 426.219
1447.453, 195.793
1448.634, 545.898
1449.815, 304.367
1450.995, 533.676
1452.176, 441.949
1453.356, 210.797
1454.535, 610.090
1455.715, 548.512
1456.895, 457.145
1458.074, 545.832
1459.253, 293.805
1460.432, 248.199
1461.611, 695.285
1462.790, 433.582
1463.968, 580.387
1465.146, 696.500
1466.324, 114.332
1467.502, 713.094
1468.680, 629.844
1469.858, 399.648
1471.035, 650.301
1472.212, 521.207
1473.389, 600.785
1474.566, 761.539
1475.742, 352.297
1476.919, 423.008
1478.095, 332.184
1479.271, 322.883
1480.447, 573.625
1481.623, 724.473
1482.798, 335.406
1483.974, 636.492
1485.149, 157.746
1486.324, 209.203
1487.499, 570.898
1488.674, 243.094
1489.848, 475.699
1491.022, 608.863
1492.196, 292.535
1493.370, 536.648
1494.544, 451.145
1495.718, 196.082
1496.891, 611.562
1498.064, 457.695
1499.237, 194.543
1500.410, 682.230
1501.583, 330.895
1502.755, 310.664
1503.928, 611.664
1505.100, 144.070
1506.272, 518.176
1507.443, 624.352
1508.615, 163.055
1509.786, 644.926
1510.958, 210.074
1512.129, 5.004
1513.300, 569.641
1514.470, 0.000
##END=



