##NAMES=Montebrasite
##RRUFFID=R060890
##IDEAL CHEMISTRY=LiAlPO_4_(OH)
##LOCALITY=Mount Marie, Paris, Maine, USA
##OWNER=RRUFF
##SOURCE=Bob Jenkins
##DESCRIPTION=Colorless massive
##STATUS=The identification of this mineral is confirmed by single-crystal X-ray diffraction and chemical analysis.
##URL=rruff.info/R060890
##MEASURED CHEMISTRY=Li_1.00_Al_1.00_(P_1.00_O_4_)(OH)_0.63_F_0.37_)_Î£=1_ ; Li not measured but estimated by stoichiometry
##PIN_ID=M01307
##ORIENTATION=Laser parallel to -c* (0 0 -1). Fiducial mark perpendicular to laser is parallel to a [1 0 0]
90.67800, 0.0000000E+00
91.91600, 61.77148
93.15500, 8.154297
94.39300, 169.0361
95.63100, 60.43555
96.86900, 15.03223
98.10600, 129.2725
99.34400, 46.96777
100.5810, 6.796875
101.8190, 145.5137
103.0560, 72.41211
104.2930, 263.3789
105.5290, 582.9600
106.7660, 899.8066
108.0020, 1123.842
109.2390, 1065.197
110.4750, 1028.952
111.7110, 1176.169
112.9460, 1379.451
114.1820, 1633.436
115.4170, 1798.965
116.6530, 2062.521
117.8880, 2206.295
119.1230, 2348.074
120.3580, 2572.379
121.5920, 2780.538
122.8270, 3102.322
124.0610, 3536.115
125.2950, 3891.357
126.5290, 4619.014
127.7630, 4813.571
128.9970, 5488.209
130.2300, 5818.311
131.4640, 6123.188
132.6970, 5735.314
133.9300, 5167.336
135.1630, 4368.350
136.3950, 3514.447
137.6280, 2605.705
138.8600, 2488.195
140.0920, 2021.979
141.3240, 1622.113
142.5560, 1457.646
143.7880, 1140.616
145.0190, 882.0693
146.2510, 861.0371
147.4820, 994.5498
148.7130, 1085.636
149.9440, 991.7207
151.1750, 1027.311
152.4050, 1137.900
153.6360, 1271.129
154.8660, 1332.383
156.0960, 1501.403
157.3260, 1549.365
158.5560, 1594.191
159.7850, 1657.134
161.0150, 1660.619
162.2440, 1629.168
163.4730, 1821.314
164.7020, 1608.040
165.9310, 1803.061
167.1590, 1747.702
168.3880, 1753.147
169.6160, 1557.846
170.8440, 1452.529
172.0720, 1157.140
173.3000, 1052.060
174.5280, 1061.039
175.7550, 1038.922
176.9820, 1016.896
178.2100, 995.3262
179.4370, 909.0967
180.6630, 905.3115
181.8900, 880.9971
183.1170, 779.9434
184.3430, 885.3496
185.5690, 1019.804
186.7950, 1014.304
188.0210, 924.8418
189.2470, 1032.417
190.4720, 964.0195
191.6970, 1155.650
192.9230, 1105.093
194.1480, 1118.976
195.3730, 1109.664
196.5970, 1166.366
197.8220, 1230.078
199.0460, 950.7930
200.2700, 1085.501
201.4940, 1189.199
202.7180, 715.8828
203.9420, 612.5410
205.1660, 540.1660
206.3890, 374.7578
207.6120, 417.3174
208.8350, 213.8467
210.0580, 351.3438
211.2810, 312.8115
212.5040, 251.2500
213.7260, 187.6602
214.9480, 276.0420
216.1700, 167.3994
217.3920, 158.7305
218.6140, 171.0332
219.8360, 14.31445
221.0570, 24.43066
222.2790, 185.8018
223.5000, 51.00781
224.7210, 56.18652
225.9410, 78.66406
227.1620, 163.5459
228.3820, 106.5332
229.6030, 44.51367
230.8230, 39.42188
232.0430, 163.7725
233.2630, 67.17090
234.4820, 24.63086
235.7020, 65.94922
236.9210, 47.38477
238.1400, 65.65723
239.3590, 44.01367
240.5780, 12.25586
241.7970, 124.3359
243.0150, 210.8994
244.2340, 145.7988
245.4520, 161.2871
246.6700, 154.9062
247.8880, 90.70605
249.1060, 79.88184
250.3230, 37.20020
251.5400, 79.22070
252.7580, 12.36133
253.9750, 118.0361
255.1920, 48.41504
256.4080, 306.7656
257.6250, 426.0889
258.8410, 448.5674
260.0580, 525.9697
261.2740, 651.1836
262.4900, 783.3545
263.7050, 807.5205
264.9210, 943.6904
266.1360, 1268.713
267.3520, 1216.737
268.5670, 1324.716
269.7820, 1622.646
270.9960, 1624.522
272.2110, 1638.350
273.4250, 1751.111
274.6400, 1724.803
275.8540, 1585.430
277.0680, 1582.970
278.2810, 1558.422
279.4950, 1641.787
280.7090, 1582.072
281.9220, 1564.278
283.1350, 1698.415
284.3480, 1695.481
285.5610, 1892.482
286.7730, 2139.419
287.9860, 2502.296
289.1980, 2978.114
290.4100, 3377.879
291.6220, 4107.589
292.8340, 4755.248
294.0460, 5539.856
295.2570, 6580.420
296.4690, 7531.932
297.6800, 9087.396
298.8910, 10606.81
300.1020, 11659.17
301.3120, 12637.47
302.5230, 12722.62
303.7330, 12081.70
304.9440, 11363.62
306.1540, 9543.359
307.3630, 8405.017
308.5730, 7086.433
309.7830, 6155.751
310.9920, 5465.010
312.2010, 4673.150
313.4100, 4132.243
314.6190, 3499.649
315.8280, 3283.066
317.0370, 2880.344
318.2450, 2697.556
319.4530, 2458.734
320.6610, 2274.910
321.8690, 2286.084
323.0770, 2274.255
324.2850, 2090.424
325.4920, 1876.590
326.6990, 1806.751
327.9060, 1587.909
329.1130, 1433.062
330.3200, 1401.213
331.5270, 1407.358
332.7330, 1219.569
333.9390, 1295.634
335.1450, 995.7646
336.3510, 870.8906
337.5570, 935.0117
338.7630, 662.1270
339.9680, 720.2373
341.1740, 580.3418
342.3790, 607.4404
343.5840, 612.5352
344.7890, 625.6240
345.9930, 619.5469
347.1980, 591.1250
348.4020, 576.8584
349.6060, 541.9258
350.8100, 477.9883
352.0140, 509.0459
353.2180, 393.1016
354.4210, 417.5791
355.6250, 576.6250
356.8280, 431.5342
358.0310, 397.1875
359.2340, 452.4707
360.4360, 382.2295
361.6390, 475.3564
362.8410, 455.4189
364.0430, 424.5918
365.2450, 422.8975
366.4470, 329.8662
367.6490, 364.1865
368.8510, 421.2041
370.0520, 490.4287
371.2530, 411.1553
372.4540, 460.5977
373.6550, 464.1016
374.8560, 547.0605
376.0560, 548.8613
377.2570, 320.4668
378.4570, 147.1836
379.6570, 314.6191
380.8570, 400.4492
382.0570, 337.7676
383.2560, 193.5938
384.4560, 460.2012
385.6550, 168.9980
386.8540, 276.2461
388.0530, 308.0469
389.2520, 318.5645
390.4510, 282.9492
391.6490, 211.3301
392.8470, 174.6152
394.0450, 37.55859
395.2430, 280.1582
396.4410, 270.3184
397.6390, 431.8730
398.8360, 250.4375
400.0340, 267.3574
401.2310, 268.0586
402.4280, 29.87695
403.6250, 37.66406
404.8210, 259.0000
406.0180, 403.7656
407.2140, 298.5430
408.4100, 145.2852
409.6060, 323.0156
410.8020, 547.7383
411.9980, 619.5195
413.1930, 820.1680
414.3890, 788.9082
415.5840, 1204.797
416.7790, 1437.465
417.9740, 1783.123
419.1680, 2321.795
420.3630, 2754.436
421.5570, 3350.068
422.7510, 3908.693
423.9450, 4580.309
425.1390, 5326.918
426.3330, 4935.807
427.5270, 4725.402
428.7200, 3647.002
429.9130, 2858.602
431.1060, 2141.191
432.2990, 1590.779
433.4920, 1038.359
434.6840, 1009.936
435.8770, 865.5195
437.0690, 673.1152
438.2610, 519.7324
439.4530, 627.3809
440.6450, 601.0273
441.8360, 513.6895
443.0280, 347.3516
444.2190, 583.0508
445.4100, 450.7617
446.6010, 432.4844
447.7920, 638.2090
448.9820, 702.9375
450.1730, 636.6680
451.3630, 576.3984
452.5530, 546.1309
453.7430, 619.0879
454.9330, 722.6152
456.1230, 803.3965
457.3120, 929.8418
458.5010, 1118.020
459.6910, 1182.863
460.8800, 1245.717
462.0680, 1346.576
463.2570, 1332.447
464.4460, 1547.324
465.6340, 1530.207
466.8220, 1789.098
468.0100, 1863.494
469.1980, 1819.908
470.3860, 2113.826
471.5730, 2073.754
472.7600, 2247.689
473.9480, 2476.631
475.1350, 2732.582
476.3210, 3010.539
477.5080, 3276.510
478.6950, 3404.490
479.8810, 3742.475
481.0670, 3555.467
482.2530, 3772.467
483.4390, 4007.477
484.6250, 3755.504
485.8100, 3548.541
486.9960, 3555.584
488.1810, 3322.637
489.3660, 3229.697
490.5510, 2991.768
491.7360, 2844.844
492.9200, 2609.930
494.1050, 2583.025
495.2890, 2456.133
496.4730, 2069.250
497.6570, 1840.377
498.8400, 1829.514
500.0240, 1800.658
501.2070, 1696.812
502.3910, 1575.980
503.5740, 1211.158
504.7570, 1143.346
505.9400, 1077.543
507.1220, 783.7578
508.3050, 842.0000
509.4870, 675.2812
510.6690, 700.5762
511.8510, 507.8906
513.0330, 434.2266
514.2140, 397.6152
515.3960, 373.0781
516.5770, 184.5566
517.7580, 285.0586
518.9390, 175.5801
520.1200, 88.17773
521.3010, 156.5879
522.4810, 36.26758
523.6610, 61.96680
524.8420, 85.31250
526.0220, 47.60156
527.2010, 193.1348
528.3810, 172.8516
529.5610, 113.6797
530.7400, 116.4082
531.9190, 24.46875
533.0980, 6.460938
534.2770, 6.613281
535.4560, 58.74219
536.6340, 98.68750
537.8120, 44.09375
538.9910, 92.87109
540.1690, 55.35547
541.3460, 34.40625
542.5240, 17.84375
543.7020, 2.101563
544.8790, 126.1758
546.0560, 51.70508
547.2330, 16.55859
548.4100, 199.1719
549.5870, 48.02148
550.7630, 31.21875
551.9400, 62.42578
553.1160, 3.361328
554.2920, 72.85742
555.4680, 17.08398
556.6440, 64.68555
557.8190, 109.5352
558.9950, 52.76172
560.1700, 60.00586
561.3450, 40.21680
562.5200, 115.4492
563.6950, 227.6875
564.8690, 130.9297
566.0440, 87.18164
567.2180, 13.53516
568.3920, 254.7539
569.5660, 251.8496
570.7400, 184.5176
571.9130, 54.83008
573.0870, 228.2246
574.2600, 251.5938
575.4330, 178.8809
576.6060, 388.1738
577.7790, 174.4336
578.9520, 105.9355
580.1240, 336.4062
581.2960, 406.1836
582.4690, 311.2363
583.6410, 566.6621
584.8120, 378.9043
585.9840, 476.5449
587.1560, 529.0391
588.3270, 518.4414
589.4980, 539.3770
590.6690, 693.2070
591.8400, 768.3516
593.0110, 963.3770
594.1810, 1028.180
595.3510, 1225.162
596.5220, 1315.322
597.6920, 1666.803
598.8610, 1765.785
600.0310, 2085.309
601.2010, 2275.896
602.3700, 2447.266
603.5390, 2294.756
604.7080, 2384.268
605.8770, 1959.773
607.0460, 1991.602
608.2140, 1586.107
609.3830, 1401.309
610.5510, 1478.867
611.7190, 1351.367
612.8870, 1464.428
614.0550, 1286.033
615.2220, 1289.535
616.3900, 1522.432
617.5570, 1470.111
618.7240, 1628.613
619.8910, 1802.240
621.0580, 2106.803
622.2240, 2184.418
623.3910, 2616.822
624.5570, 2942.307
625.7230, 3071.449
626.8890, 3515.186
628.0550, 4039.988
629.2200, 4691.631
630.3860, 5165.570
631.5510, 5615.207
632.7160, 6333.168
633.8810, 6750.064
635.0460, 7494.779
636.2100, 8249.764
637.3750, 9495.613
638.5390, 11202.31
639.7030, 13125.06
640.8670, 15773.85
642.0310, 18903.62
643.1950, 23042.40
644.3580, 26741.17
645.5210, 30216.93
646.6850, 30963.70
647.8480, 29114.51
649.0100, 25257.29
650.1730, 20060.07
651.3350, 15798.84
652.4980, 12122.61
653.6600, 9243.363
654.8220, 7391.113
655.9840, 5916.857
657.1450, 4660.590
658.3070, 4139.314
659.4680, 3423.029
660.6300, 2713.734
661.7910, 2512.430
662.9510, 1998.115
664.1120, 1702.789
665.2730, 1806.494
666.4330, 1301.867
667.5930, 1150.516
668.7530, 1113.152
669.9130, 1052.773
671.0730, 870.7539
672.2320, 920.8574
673.3920, 672.3340
674.5510, 613.9023
675.7100, 733.4570
676.8690, 513.9961
678.0280, 551.3203
679.1860, 521.3867
680.3450, 521.8770
681.5030, 486.1914
682.6610, 434.9336
683.8190, 395.3906
684.9770, 357.5684
686.1340, 290.6719
687.2920, 280.0684
688.4490, 240.2129
689.6060, 199.7871
690.7630, 242.1309
691.9200, 237.4609
693.0760, 283.6992
694.2330, 269.9941
695.3890, 267.2715
696.5450, 240.3633
697.7010, 233.7344
698.8570, 182.7891
700.0130, 201.3223
701.1680, 234.5098
702.3230, 206.8516
703.4780, 255.0039
704.6330, 153.3066
705.7880, 315.8594
706.9430, 171.6680
708.0970, 14.25586
709.2520, 65.77539
710.4060, 182.4609
711.5600, 137.4492
712.7140, 146.6855
713.8670, 125.7324
715.0210, 11.11328
716.1740, 12.87695
717.3270, 64.04688
718.4800, 94.87891
719.6330, 63.78711
720.7860, 39.57227
721.9380, 151.4023
723.0910, 120.9688
724.2430, 15.45508
725.3950, 12.69727
726.5470, 26.65039
727.6980, 47.20508
728.8500, 67.67773
730.0010, 84.36914
731.1530, 377.2949
732.3040, 77.50781
733.4550, 0.5234380
734.6050, 65.13477
735.7560, 192.2598
736.9060, 138.7070
738.0560, 177.2051
739.2060, 162.1973
740.3560, 44.44531
741.5060, 210.7676
742.6560, 185.3145
743.8050, 279.3867
744.9540, 114.1426
746.1030, 278.3887
747.2520, 23.09180
748.4010, 179.7520
749.5500, 210.3848
750.6980, 67.24023
751.8460, 170.1035
752.9950, 247.6562
754.1420, 100.3008
755.2900, 38.79492
756.4380, 235.8184
757.5850, 164.5781
758.7330, 193.5000
759.8800, 204.8301
761.0270, 71.88477
762.1730, 34.47656
763.3200, 97.69141
764.4670, 190.9688
765.6130, 173.5508
766.7590, 226.3262
767.9050, 154.8379
769.0510, 255.0039
770.1960, 151.0938
771.3420, 179.9141
772.4870, 77.25195
773.6320, 180.4590
774.7770, 211.4121
775.9220, 280.4824
777.0670, 261.3203
778.2110, 383.1680
779.3560, 488.9941
780.5000, 278.7891
781.6440, 365.3652
782.7880, 495.0957
783.9320, 533.1914
785.0750, 436.3984
786.2180, 531.2656
787.3620, 608.0742
788.5050, 450.6445
789.6480, 448.2852
790.7900, 490.8457
791.9330, 676.2500
793.0750, 793.6895
794.2170, 605.0938
795.3590, 439.4688
796.5010, 812.3340
797.6430, 690.6406
798.7850, 1157.957
799.9260, 927.5469
801.0670, 705.7539
802.2080, 1275.945
803.3490, 1109.102
804.4900, 1094.230
805.6310, 1009.330
806.7710, 864.3926
807.9110, 1226.424
809.0510, 1203.441
810.1910, 1100.432
811.3310, 940.3887
812.4710, 1158.311
813.6100, 953.2031
814.7490, 845.0625
815.8880, 1141.895
817.0270, 954.7109
818.1660, 711.4941
819.3050, 968.2500
820.4430, 834.9707
821.5820, 936.6621
822.7200, 759.3223
823.8580, 721.9570
824.9950, 771.5586
826.1330, 691.1719
827.2710, 546.7520
828.4080, 692.3047
829.5450, 524.8223
830.6820, 481.3086
831.8190, 442.7637
832.9560, 625.1875
834.0920, 425.5898
835.2280, 536.9590
836.3650, 166.3008
837.5010, 407.6133
838.6360, 205.8984
839.7720, 431.1504
840.9080, 204.3691
842.0430, 27.44336
843.1780, 275.6582
844.3130, 385.7305
845.4480, 270.9727
846.5830, 103.6152
847.7170, 304.5898
848.8520, 170.4590
849.9860, 209.3281
851.1200, 177.0762
852.2540, 144.1504
853.3870, 306.0566
854.5210, 120.6953
855.6540, 234.3418
856.7880, 223.6582
857.9210, 108.6738
859.0540, 28.29297
860.1860, 177.0605
861.3190, 102.4102
862.4510, 226.8828
863.5840, 125.4238
864.7160, 137.4121
865.8480, 151.4785
866.9790, 240.5898
868.1110, 221.0371
869.2420, 62.93555
870.3740, 9.861328
871.5050, 59.55078
872.6360, 204.6641
873.7660, 337.3594
874.8970, 125.4883
876.0280, 55.53320
877.1580, 9.769531
878.2880, 26.85547
879.4180, 4.814453
880.5480, 219.9121
881.6770, 31.58008
882.8070, 144.5488
883.9360, 243.7969
885.0650, 164.6699
886.1940, 72.58008
887.3230, 5.904297
888.4520, 203.6562
889.5800, 97.49023
890.7090, 137.9102
891.8370, 17.52539
892.9650, 42.29492
894.0930, 98.08398
895.2200, 185.4570
896.3480, 38.95703
897.4750, 45.71680
898.6020, 60.71094
899.7290, 97.16016
900.8560, 15.41797
901.9830, 111.4141
903.1090, 166.8555
904.2360, 19.18555
905.3620, 221.0430
906.4880, 112.0723
907.6140, 16.81836
908.7400, 185.1289
909.8650, 131.5820
910.9900, 48.40625
912.1160, 231.6309
913.2410, 137.8145
914.3660, 111.9121
915.4900, 105.6250
916.6150, 9.673828
917.7390, 245.0059
918.8640, 70.33008
919.9880, 89.71875
921.1120, 5.833984
922.2350, 8.369141
923.3590, 141.8926
924.4820, 27.40820
925.6060, 35.90820
926.7290, 20.49219
927.8520, 76.99805
928.9740, 130.3184
930.0970, 141.8633
931.2190, 13.51562
932.3420, 46.61914
933.4640, 20.36328
934.5860, 9.441406
935.7080, 80.99219
936.8290, 50.18359
937.9510, 38.30273
939.0720, 39.07031
940.1930, 79.95898
941.3140, 153.4961
942.4350, 159.6504
943.5560, 275.5703
944.6760, 347.3125
945.7960, 377.2598
946.9170, 240.3477
948.0370, 318.9023
949.1560, 311.0527
950.2760, 299.6973
951.3960, 408.5645
952.5150, 295.8398
953.6340, 402.7578
954.7530, 421.9902
955.8720, 481.3613
956.9910, 453.8164
958.1090, 453.0801
959.2280, 539.3008
960.3460, 577.3574
961.4640, 539.7598
962.5820, 742.8789
963.6990, 658.1172
964.8170, 895.3535
965.9340, 855.5840
967.0510, 761.8164
968.1690, 880.0449
969.2850, 709.2734
970.4020, 604.5000
971.5190, 749.3828
972.6350, 491.6094
973.7510, 530.6602
974.8670, 692.9062
975.9830, 630.9805
977.0990, 706.7910
978.2150, 825.0469
979.3300, 961.3008
980.4450, 998.5859
981.5600, 1022.195
982.6750, 1345.523
983.7900, 1182.588
984.9050, 1273.820
986.0190, 1524.947
987.1340, 1762.963
988.2480, 2067.350
989.3620, 2332.357
990.4750, 2534.828
991.5890, 2794.330
992.7020, 3091.516
993.8160, 3562.090
994.9290, 3941.717
996.0420, 4310.098
997.1550, 5088.863
998.2670, 5513.395
999.3800, 6133.992
1000.492, 7177.660
1001.604, 8006.480
1002.716, 9128.303
1003.828, 10111.31
1004.940, 11203.96
1006.051, 12500.51
1007.163, 13457.41
1008.274, 14293.36
1009.385, 14898.22
1010.496, 15357.80
1011.606, 15254.30
1012.717, 14941.59
1013.827, 14334.33
1014.937, 13358.37
1016.047, 12487.91
1017.157, 11852.98
1018.267, 10594.07
1019.377, 9500.182
1020.486, 8913.062
1021.595, 8136.936
1022.704, 7729.150
1023.813, 7259.148
1024.922, 6576.510
1026.030, 6577.217
1027.139, 6258.176
1028.247, 5987.957
1029.355, 6395.328
1030.463, 6750.961
1031.571, 7080.039
1032.678, 7567.500
1033.786, 8178.881
1034.893, 8854.945
1036.000, 9535.441
1037.107, 10504.91
1038.214, 11015.37
1039.321, 11677.89
1040.427, 12585.66
1041.533, 12868.91
1042.639, 13550.28
1043.745, 14127.91
1044.851, 14316.39
1045.957, 14643.10
1047.062, 14734.81
1048.168, 14798.53
1049.273, 14785.32
1050.378, 14604.32
1051.482, 14696.14
1052.587, 15043.59
1053.692, 15324.92
1054.796, 15838.58
1055.900, 16424.95
1057.004, 16953.21
1058.108, 17842.05
1059.212, 18556.96
1060.315, 19360.02
1061.418, 19795.03
1062.522, 19884.07
1063.625, 19246.12
1064.728, 17994.68
1065.830, 16003.77
1066.933, 13880.85
1068.035, 12099.64
1069.137, 10333.80
1070.239, 8624.965
1071.341, 7466.170
1072.443, 6223.395
1073.545, 5248.643
1074.646, 4535.912
1075.747, 3701.201
1076.848, 3489.516
1077.949, 2775.850
1079.050, 2709.205
1080.150, 2528.580
1081.251, 2331.982
1082.351, 2138.402
1083.451, 1877.848
1084.551, 1624.314
1085.651, 1698.805
1086.750, 1709.314
1087.850, 1559.846
1088.949, 1268.402
1090.048, 1228.979
1091.147, 1056.578
1092.246, 1168.197
1093.345, 924.8398
1094.443, 822.5059
1095.541, 1061.197
1096.639, 924.9043
1097.737, 1053.639
1098.835, 1009.395
1099.933, 886.1719
1101.030, 1092.971
1102.128, 1059.793
1103.225, 1173.635
1104.322, 1101.504
1105.419, 1411.393
1106.515, 1485.574
1107.612, 1139.508
1108.708, 1595.695
1109.804, 1626.010
1110.900, 1647.070
1111.996, 1883.748
1113.092, 1976.852
1114.187, 2041.789
1115.283, 2030.121
1116.378, 2134.293
1117.473, 2386.945
1118.568, 2271.230
1119.662, 2104.469
1120.757, 2376.729
1121.851, 2293.336
1122.946, 2189.443
1124.040, 2384.082
1125.134, 1992.248
1126.227, 2050.617
1127.321, 2082.312
1128.414, 2055.906
1129.508, 2030.357
1130.601, 1768.770
1131.693, 1922.230
1132.786, 1632.273
1133.879, 1592.771
1134.971, 1624.330
1136.064, 1286.887
1137.156, 1337.471
1138.248, 1079.217
1139.339, 922.8613
1140.431, 814.4062
1141.522, 738.3027
1142.614, 645.1816
1143.705, 544.3066
1144.796, 533.8145
1145.887, 552.8867
1146.977, 482.7031
1148.068, 503.5371
1149.158, 419.7383
1150.248, 382.7988
1151.338, 183.8926
1152.428, 299.6660
1153.518, 386.6113
1154.607, 407.4805
1155.696, 569.6387
1156.785, 385.7441
1157.874, 318.2168
1158.963, 212.3594
1160.052, 315.0801
1161.141, 40.17383
1162.229, 241.5391
1163.317, 295.2305
1164.405, 561.8926
1165.493, 342.0684
1166.581, 460.8223
1167.668, 327.0840
1168.756, 288.0703
1169.843, 481.5039
1170.930, 376.9883
1172.017, 365.5391
1173.103, 392.8105
1174.190, 401.4551
1175.276, 531.9219
1176.363, 523.6836
1177.449, 545.0020
1178.535, 631.5312
1179.620, 853.3223
1180.706, 726.0898
1181.791, 882.6465
1182.877, 697.2090
1183.962, 618.7969
1185.047, 826.6465
1186.131, 813.2734
1187.216, 641.9023
1188.300, 951.5391
1189.385, 1090.547
1190.469, 1033.473
1191.553, 905.1309
1192.637, 1069.791
1193.720, 1021.453
1194.804, 1033.223
1195.887, 1078.891
1196.970, 1172.566
1198.053, 875.2461
1199.136, 1002.928
1200.219, 989.6152
1201.301, 1129.312
1202.383, 941.0137
1203.465, 941.7148
1204.547, 901.4180
1205.629, 902.1250
1206.711, 685.8320
1207.792, 765.5410
1208.874, 505.2520
1209.955, 503.9629
1211.036, 435.6758
1212.117, 448.3906
1213.198, 417.3633
1214.278, 382.3906
1215.359, 531.7988
1216.439, 355.5156
1217.519, 385.2305
1218.599, 448.9473
1219.678, 377.6660
1220.758, 384.6211
1221.837, 101.0977
1222.917, 305.8086
1223.996, 95.53125
1225.075, 39.41602
1226.153, 191.1191
1227.232, 15.87891
1228.310, 16.57812
1229.389, 279.2734
1230.467, 89.96875
1231.545, 17.65820
1232.622, 62.34375
1233.700, 45.02930
1234.777, 43.70898
1235.855, 86.61914
1236.932, 188.1543
1238.009, 5.220703
1239.086, 32.59570
1240.162, 90.47461
1241.239, 51.93164
1242.315, 120.6289
1243.391, 148.8164
1244.467, 1.845703
1245.543, 71.62695
1246.619, 60.49805
1247.694, 26.30078
1248.769, 87.79492
1249.844, 113.2109
1250.919, 54.38086
1251.994, 77.00586
1253.069, 211.6816
1254.144, 202.8945
1255.218, 138.5977
1256.292, 113.3340
1257.366, 16.66211
1258.440, 178.6484
1259.514, 146.9062
1260.587, 188.8711
1261.661, 65.31836
1262.734, 80.58594
1263.807, 64.48242
1264.880, 149.3691
1265.952, 183.3340
1267.025, 52.10742
1268.097, 151.9609
1269.170, 247.8008
1270.242, 80.58789
