##NAMES=Monticellite
##RRUFFID=R040115
##IDEAL CHEMISTRY=CaMgSiO_4_
##LOCALITY=Magnet Cove, Arkansas, USA
##OWNER=RRUFF
##SOURCE=University of Arizona Mineral Museum
##DESCRIPTION=Brown blebs in matrix
##STATUS=The identification of this mineral has been confirmed by X-ray diffraction and chemical analysis
##URL=rruff.info/R040115
##MEASURED CHEMISTRY=Ca_0.99_(Mg_0.85_ Fe_0.12_Mn_0.03_)Si_1.00_O_4_
##PIN_ID=M00321
##ORIENTATION=Laser parallel to a* (1 0 0). Fiducial mark perpendicular to laser is parallel to -b [0 -1 0]
95.465, 0.000
96.858, 23.481
98.251, 42.465
99.644, 61.183
101.036, 32.805
102.428, 25.623
103.820, 6.593
105.212, 58.847
106.604, 84.754
107.995, 114.378
109.387, 114.616
110.777, 79.160
112.168, 62.832
113.559, 54.538
114.949, 121.230
116.339, 176.877
117.729, 191.126
119.119, 150.912
120.508, 112.429
121.897, 73.500
123.286, 90.095
124.675, 122.281
126.063, 106.120
127.452, 110.658
128.840, 113.947
130.228, 138.042
131.615, 113.975
133.003, 164.760
134.390, 216.409
135.777, 250.931
137.164, 386.336
138.550, 534.158
139.937, 659.521
141.323, 864.225
142.709, 868.350
144.094, 900.184
145.480, 707.747
146.865, 574.420
148.250, 498.915
149.635, 306.238
151.019, 267.591
152.403, 187.975
153.788, 182.386
155.171, 212.824
156.555, 175.285
157.939, 209.769
159.322, 282.278
160.705, 425.876
162.088, 586.626
163.470, 794.637
164.853, 1085.712
166.235, 1411.780
167.617, 1780.817
168.998, 2010.825
170.380, 2007.804
171.761, 1674.754
173.142, 1248.677
174.523, 899.572
175.904, 563.440
177.284, 344.282
178.664, 193.106
180.044, 41.937
181.424, 47.771
182.803, 12.396
184.183, 38.556
185.562, 15.288
186.940, 37.859
188.319, 50.996
189.698, 31.879
191.076, 14.234
192.454, 17.338
193.831, 12.570
195.209, 12.486
196.586, 80.409
197.963, 78.349
199.340, 79.299
200.717, 152.292
202.093, 163.299
203.470, 188.316
204.846, 286.349
206.221, 413.377
207.597, 538.434
208.972, 565.485
210.347, 643.531
211.722, 732.578
213.097, 856.629
214.472, 865.675
215.846, 848.716
217.220, 649.749
218.594, 517.774
219.967, 319.783
221.341, 232.774
222.714, 176.271
224.087, 158.593
225.460, 109.037
226.832, 115.441
228.204, 147.156
229.577, 128.964
230.948, 197.723
232.320, 218.848
233.692, 202.270
235.063, 314.242
236.434, 382.681
237.805, 452.016
239.175, 561.339
240.545, 636.652
241.916, 789.953
243.286, 978.241
244.655, 1222.517
246.025, 1494.778
247.394, 1853.025
248.763, 2363.257
250.132, 2992.474
251.501, 3805.675
252.869, 4679.862
254.237, 5505.032
255.605, 5958.186
256.973, 5854.326
258.340, 5087.448
259.708, 3906.554
261.075, 2915.751
262.442, 2177.913
263.808, 1689.021
265.175, 1367.020
266.541, 1263.032
267.907, 1111.163
269.273, 1150.608
270.639, 1120.964
272.004, 1151.168
273.369, 1125.222
274.734, 1102.322
276.099, 978.531
277.463, 730.735
278.828, 666.025
280.192, 514.329
281.556, 309.678
282.919, 307.973
284.283, 255.387
285.646, 286.674
287.009, 265.249
288.372, 166.293
289.734, 274.545
291.097, 271.021
292.459, 309.236
293.821, 425.408
295.183, 413.623
296.544, 624.823
297.905, 772.590
299.266, 1187.141
300.627, 1553.447
301.988, 1999.614
303.348, 2315.781
304.709, 2379.698
306.069, 2198.309
307.428, 1804.043
308.788, 1348.843
310.147, 1039.069
311.507, 706.893
312.865, 541.520
314.224, 421.694
315.583, 356.373
316.941, 329.562
318.299, 381.943
319.657, 402.868
321.015, 475.341
322.372, 621.276
323.729, 749.143
325.086, 1046.005
326.443, 1396.950
327.800, 1652.066
329.156, 1911.864
330.512, 2038.823
331.868, 1897.505
333.224, 1652.361
334.579, 1303.454
335.935, 942.870
337.290, 747.734
338.645, 504.493
339.999, 437.879
341.354, 293.246
342.708, 264.663
344.062, 209.816
345.416, 157.819
346.769, 94.460
348.123, 103.328
349.476, 35.007
350.829, 5.081
352.182, 24.007
353.534, 16.823
354.887, 3.224
356.239, 40.420
357.591, 35.984
358.942, 52.415
360.294, 45.444
361.645, 7.509
362.996, 27.592
364.347, 2.362
365.698, 38.298
367.048, 0.216
368.398, 103.133
369.748, 20.033
371.098, 86.915
372.448, 79.778
373.797, 126.624
375.146, 177.537
376.495, 207.904
377.844, 285.061
379.192, 304.839
380.540, 356.621
381.889, 408.385
383.236, 545.133
384.584, 757.863
385.932, 884.574
387.279, 1067.258
388.626, 1442.918
389.973, 1857.554
391.319, 2336.142
392.666, 3000.686
394.012, 3610.195
395.358, 4120.683
396.704, 4666.148
398.049, 4903.599
399.394, 5040.041
400.740, 4531.469
402.084, 4144.880
403.429, 3501.277
404.774, 2992.658
406.118, 2535.023
407.462, 1973.373
408.806, 1642.707
410.150, 1336.025
411.493, 1091.327
412.836, 898.614
414.179, 736.885
415.522, 612.139
416.865, 527.378
418.207, 434.563
419.549, 375.809
420.891, 324.000
422.233, 276.176
423.575, 249.331
424.916, 216.008
426.257, 206.580
427.598, 188.675
428.939, 122.749
430.279, 142.803
431.619, 68.839
432.959, 103.851
434.299, 137.842
435.639, 123.811
436.978, 94.759
438.318, 92.684
439.657, 68.587
440.996, 61.844
442.334, 50.848
443.673, 56.259
445.011, 38.066
446.349, 50.062
447.687, 62.054
449.024, 27.882
450.361, 45.547
451.699, 20.273
453.036, 44.935
454.372, 47.771
455.709, 40.666
457.045, 41.249
458.381, 0.944
459.717, 8.906
461.053, 24.715
462.388, 37.440
463.724, 37.082
465.059, 58.605
466.394, 1.604
467.728, 1.500
469.063, 50.388
470.397, 10.154
471.731, 1.121
473.065, 85.138
474.398, 21.527
475.732, 77.441
477.065, 21.423
478.398, 12.026
479.731, 45.595
481.063, 132.243
482.396, 46.575
483.728, 58.570
485.060, 57.573
486.391, 3.984
487.723, 33.972
489.054, 65.881
490.385, 46.853
491.716, 78.007
493.047, 54.860
494.377, 34.664
495.708, 132.235
497.038, 50.021
498.368, 59.698
499.697, 128.460
501.027, 129.087
502.356, 113.690
503.685, 123.029
505.014, 161.584
506.342, 135.274
507.671, 173.879
508.999, 185.269
510.327, 203.518
511.655, 172.644
512.982, 231.553
514.310, 301.379
515.637, 237.922
516.964, 333.526
518.291, 395.879
519.617, 550.083
520.944, 596.654
522.270, 788.687
523.596, 1091.394
524.921, 1528.968
526.247, 2310.741
527.572, 2775.384
528.897, 3406.435
530.222, 4209.973
531.547, 4390.909
532.871, 4232.795
534.196, 3533.852
535.520, 2863.966
536.844, 2351.059
538.167, 1825.975
539.491, 1323.740
540.814, 1070.767
542.137, 852.772
543.460, 744.756
544.783, 695.718
546.105, 519.658
547.427, 554.576
548.749, 448.473
550.071, 456.520
551.393, 405.374
552.714, 410.207
554.035, 384.019
555.356, 409.810
556.677, 429.580
557.998, 437.323
559.318, 495.051
560.638, 465.758
561.958, 513.445
563.278, 518.110
564.597, 645.755
565.917, 657.380
567.236, 742.984
568.555, 895.567
569.874, 933.130
571.192, 1286.673
572.511, 1481.195
573.829, 1609.697
575.147, 1555.179
576.464, 1706.640
577.782, 1521.081
579.099, 1403.502
580.416, 1238.903
581.733, 1074.285
583.050, 957.646
584.366, 886.988
585.683, 801.311
586.999, 646.613
588.315, 492.782
589.630, 509.016
590.946, 425.919
592.261, 382.951
593.576, 364.106
594.891, 278.184
596.206, 222.121
597.520, 267.031
598.834, 141.821
600.148, 152.565
601.462, 96.230
602.776, 123.914
604.089, 68.435
605.402, 62.038
606.715, 94.688
608.028, 135.067
609.341, 116.577
610.653, 111.826
611.965, 63.297
613.277, 44.774
614.589, 11.173
615.901, 75.548
617.212, 29.320
618.523, 37.272
619.834, 43.435
621.145, 24.296
622.456, 33.921
623.766, 3.723
625.076, 17.846
626.386, 3.802
627.696, 50.399
629.006, 71.864
630.315, 76.225
631.624, 31.513
632.933, 8.835
634.242, 125.307
635.551, 4.086
636.859, 54.699
638.167, 24.899
639.475, 4.683
640.783, 47.958
642.090, 60.792
643.398, 8.478
644.705, 45.140
646.012, 34.440
647.318, 32.259
648.625, 8.229
649.931, 44.528
651.237, 48.085
652.543, 1.620
653.849, 36.323
655.155, 53.792
656.460, 25.341
657.765, 72.240
659.070, 70.419
660.375, 3.048
661.679, 89.791
662.984, 26.216
664.288, 45.368
665.592, 22.583
666.895, 30.476
668.199, 25.563
669.502, 22.328
670.805, 75.787
672.108, 69.047
673.411, 22.124
674.713, 5.682
676.016, 46.500
677.318, 12.672
678.620, 7.153
679.921, 14.984
681.223, 0.182
682.524, 51.691
683.825, 69.426
685.126, 103.419
686.427, 131.273
687.727, 70.124
689.028, 142.969
690.328, 110.807
691.628, 97.640
692.927, 56.466
694.227, 31.286
695.526, 76.902
696.825, 125.864
698.124, 146.625
699.423, 13.378
700.721, 119.126
702.020, 82.868
703.318, 23.604
704.616, 54.336
705.913, 25.938
707.211, 17.771
708.508, 100.476
709.805, 92.176
711.102, 52.871
712.399, 140.561
713.695, 42.752
714.992, 77.911
716.288, 12.571
717.584, 148.227
718.879, 158.879
720.175, 34.528
721.470, 133.174
722.765, 138.816
724.060, 188.456
725.355, 96.093
726.649, 79.728
727.944, 99.360
729.238, 182.990
730.532, 79.618
731.825, 206.244
733.119, 220.868
734.412, 87.491
735.705, 156.112
736.998, 192.732
738.291, 191.351
739.584, 219.969
740.876, 210.836
742.168, 240.204
743.460, 199.820
744.752, 184.438
746.043, 205.054
747.334, 328.672
748.626, 198.292
749.916, 257.912
751.207, 311.533
752.498, 234.156
753.788, 381.780
755.078, 291.408
756.368, 403.038
757.658, 384.565
758.947, 340.202
760.237, 437.629
761.526, 355.039
762.815, 365.594
764.104, 382.247
765.392, 465.920
766.680, 431.592
767.969, 410.071
769.257, 550.473
770.544, 474.166
771.832, 598.727
773.119, 558.999
774.406, 561.402
775.693, 635.871
776.980, 569.566
778.267, 686.022
779.553, 639.146
780.839, 708.354
782.125, 764.547
783.411, 801.154
784.697, 858.333
785.982, 789.922
787.267, 967.549
788.552, 933.631
789.837, 1001.475
791.122, 1172.979
792.406, 1270.347
793.690, 1391.620
794.974, 1496.205
796.258, 1544.108
797.542, 1940.992
798.825, 2096.475
800.108, 2491.362
801.391, 2781.316
802.674, 3387.192
803.957, 3813.871
805.239, 4367.838
806.522, 5511.846
807.804, 6618.072
809.085, 8673.075
810.367, 11320.169
811.649, 14749.167
812.930, 19142.291
814.211, 24292.420
815.492, 28851.803
816.772, 32236.963
818.053, 33000.980
819.333, 30610.824
820.613, 26109.939
821.893, 21680.816
823.173, 17371.312
824.452, 13942.489
825.732, 11697.671
827.011, 9651.925
828.290, 8326.546
829.568, 7380.649
830.847, 6781.946
832.125, 6554.301
833.403, 6302.546
834.681, 6220.858
835.959, 6305.883
837.236, 6881.751
838.514, 7697.281
839.791, 9394.679
841.068, 11730.082
842.345, 15168.674
843.621, 20628.107
844.898, 27218.551
846.174, 35683.051
847.450, 45603.523
848.726, 52198.008
850.001, 54859.949
851.277, 50963.469
852.552, 41648.000
853.827, 32836.551
855.102, 24772.109
856.376, 18842.686
857.651, 14752.277
858.925, 11588.881
860.199, 9243.329
861.473, 7395.965
862.746, 6279.617
864.020, 5432.282
865.293, 4465.963
866.566, 4060.660
867.839, 3543.378
869.112, 3223.107
870.384, 2902.850
871.656, 2700.610
872.928, 2483.599
874.200, 2304.177
875.472, 2177.984
876.744, 2025.808
878.015, 1905.648
879.286, 1799.504
880.557, 1851.376
881.828, 1934.265
883.098, 1863.171
884.369, 1900.092
885.639, 2056.030
886.909, 2303.985
888.178, 2566.956
889.448, 2872.944
890.717, 3760.949
891.987, 4498.971
893.256, 6042.009
894.524, 8282.064
895.793, 11194.138
897.061, 14342.225
898.330, 16247.330
899.598, 15644.454
900.865, 13400.594
902.133, 9903.753
903.401, 6778.926
904.668, 4949.119
905.935, 3688.326
907.202, 2667.552
908.468, 2162.795
909.735, 1755.056
911.001, 1427.334
912.267, 1201.630
913.533, 1112.944
914.799, 996.276
916.064, 884.625
917.330, 866.461
918.595, 760.846
919.860, 686.248
921.124, 696.667
922.389, 684.105
923.653, 651.792
924.918, 592.043
926.182, 658.541
927.445, 618.057
928.709, 710.592
929.972, 652.159
931.236, 681.744
932.499, 837.354
933.761, 868.984
935.024, 1033.639
936.286, 1189.311
937.549, 1536.025
938.811, 1790.014
940.073, 2626.781
941.334, 3429.574
942.596, 4913.382
943.857, 7017.449
945.118, 9208.462
946.379, 10501.351
947.640, 10753.303
948.900, 9474.538
950.161, 6996.344
951.421, 5128.382
952.681, 3748.450
953.940, 2776.551
955.200, 1854.671
956.459, 1320.836
957.719, 1086.194
958.978, 869.400
960.236, 650.087
961.495, 486.355
962.753, 413.638
964.012, 368.938
965.270, 211.293
966.527, 292.689
967.785, 223.105
969.043, 58.543
970.300, 116.006
971.557, 103.499
972.814, 83.007
974.071, 14.460
975.327, 27.095
976.583, 0.668
977.840, 68.279
979.095, 51.903
980.351, 59.449
981.607, 33.195
982.862, 16.946
984.117, 60.346
985.372, 122.359
986.627, 221.919
987.882, 91.415
989.136, 21.587
990.390, 100.933
991.644, 69.717
992.898, 8.614
994.152, 14.066
995.405, 39.761
996.659, 0.521
997.912, 96.209
999.165, 101.957
1000.417, 96.717
1001.670, 39.511
1002.922, 223.317
1004.174, 69.137
1005.426, 182.968
1006.678, 90.813
1007.930, 102.670
1009.181, 141.540
1010.432, 98.422
1011.683, 62.323
1012.934, 118.236
1014.185, 120.162
1015.435, 180.099
1016.685, 91.049
1017.935, 72.010
1019.185, 177.993
1020.435, 232.987
1021.684, 84.993
1022.934, 187.010
1024.183, 197.038
1025.432, 256.078
1026.680, 304.128
1027.929, 268.189
1029.177, 298.262
1030.425, 261.346
1031.673, 273.440
1032.921, 223.544
1034.169, 274.659
1035.416, 282.784
1036.663, 321.481
1037.911, 382.066
1039.157, 421.222
1040.404, 402.388
1041.650, 424.563
1042.897, 472.749
1044.143, 321.944
1045.389, 293.148
1046.634, 323.362
1047.880, 286.584
1049.125, 183.817
1050.371, 147.059
1051.615, 243.309
1052.860, 136.568
1054.105, 248.836
1055.349, 162.112
1056.593, 94.397
1057.837, 36.690
1059.081, 99.992
1060.325, 69.302
1061.568, 37.619
1062.812, 5.945
1064.055, 24.277
1065.298, 77.618
1066.540, 72.034
1067.783, 107.291
1069.025, 28.623
1070.267, 144.961
1071.509, 31.308
1072.751, 78.661
1073.993, 150.021
1075.234, 82.391
1076.475, 103.869
1077.716, 50.249
1078.957, 75.956
1080.198, 144.348
1081.438, 144.746
1082.679, 124.164
1083.919, 150.573
1085.159, 79.988
1086.398, 127.409
1087.638, 43.960
1088.877, 86.214
1090.116, 19.653
1091.355, 138.073
1092.594, 1.078
1093.833, 3.503
1095.071, 34.382
1096.309, 29.607
1097.547, 1.023
1098.785, 98.418
1100.023, 45.969
1101.260, 13.027
1102.498, 96.340
1103.735, 36.790
1104.972, 83.050
1106.208, 32.582
1107.445, 80.975
1108.681, 3.338
1109.918, 109.685
1111.154, 90.064
1112.389, 182.664
1113.625, 205.530
1114.860, 209.790
1116.096, 171.136
1117.331, 262.233
1118.566, 75.579
1119.800, 98.922
1121.035, 176.265
1122.269, 122.606
1123.503, 211.771
1124.737, 153.112
1125.971, 70.454
1127.205, 130.787
1128.438, 52.255
1129.671, 121.670
1130.904, 25.130
1132.137, 124.219
1133.370, 103.818
1134.602, 173.615
1135.834, 20.065
1137.066, 50.263
1138.298, 144.143
1139.530, 22.423
1140.762, 260.788
1141.993, 85.999
1143.224, 58.581
1144.455, 27.204
1145.686, 57.460
1146.917, 109.449
1148.147, 81.732
1149.377, 147.014
1150.607, 178.290
1151.837, 264.583
1153.067, 204.851
1154.296, 199.197
1155.526, 268.457
1156.755, 220.712
1157.984, 166.963
1159.213, 126.292
1160.441, 191.535
1161.670, 147.932
1162.898, 198.164
1164.126, 110.392
1165.354, 209.615
1166.581, 172.833
1167.809, 151.045
1169.036, 67.252
1170.263, 97.140
1171.490, 167.650
1172.717, 171.840
1173.943, 143.025
1175.170, 257.204
1176.396, 162.377
1177.622, 225.544
1178.848, 234.705
1180.073, 51.859
1181.299, 56.008
1182.524, 153.149
1183.749, 57.285
1184.974, 192.414
1186.199, 171.537
1187.423, 150.652
1188.648, 210.763
1189.872, 180.865
1191.096, 151.961
1192.320, 96.049
1193.543, 175.132
1194.767, 165.207
1195.990, 160.274
1197.213, 166.334
1198.436, 148.389
1199.659, 163.033
1200.881, 238.472
1202.104, 192.504
1203.326, 252.527
1204.548, 289.544
1205.770, 226.553
1206.991, 179.554
1208.213, 226.548
1209.434, 173.534
1210.655, 94.512
1211.876, 111.482
1213.096, 171.445
1214.317, 115.932
1215.537, 107.880
1216.757, 126.821
1217.977, 130.756
1219.197, 111.684
1220.417, 96.604
1221.636, 61.515
1222.855, 47.419
1224.074, 108.315
1225.293, 36.203
1226.512, 87.080
1227.731, 124.950
1228.949, 64.812
1230.167, 113.688
1231.385, 171.514
1232.603, 123.360
1233.820, 46.199
1235.038, 20.774
1236.255, 65.590
1237.472, 83.396
1238.689, 60.805
1239.906, 90.727
1241.122, 1.333
1242.338, 27.087
1243.555, 140.778
1244.771, 6.801
1245.986, 65.033
1247.202, 33.357
1248.417, 69.204
1249.633, 7.755
1250.848, 53.776
1252.063, 112.654
1253.277, 12.099
1254.492, 72.692
1255.706, 113.239
1256.920, 63.600
1258.134, 37.950
1259.348, 128.741
1260.562, 71.281
1261.775, 227.733
1262.988, 5.075
1264.201, 79.092
1265.414, 157.238
1266.627, 75.371
1267.839, 104.495
1269.052, 53.610
1270.264, 7.716
1271.476, 69.810
1272.688, 111.894
1273.899, 49.968
1275.111, 80.032
1276.322, 11.902
1277.533, 53.939
1278.744, 39.076
1279.955, 26.090
1281.165, 88.093
1282.376, 31.072
1283.586, 58.117
1284.796, 41.844
1286.006, 5.186
1287.215, 59.200
1288.425, 38.206
1289.634, 15.799
1290.843, 102.176
1292.052, 16.141
1293.261, 99.093
1294.469, 80.037
1295.678, 144.969
1296.886, 75.892
1298.094, 103.806
1299.302, 61.708
1300.509, 85.600
1301.717, 156.481
1302.924, 122.354
1304.131, 62.214
1305.338, 123.063
1306.545, 50.903
1307.752, 184.730
1308.958, 180.548
1310.164, 195.354
1311.370, 173.147
1312.576, 233.931
1313.782, 206.703
1314.987, 251.464
1316.193, 272.216
1317.398, 348.956
1318.603, 320.689
1319.807, 360.415
1321.012, 219.132
1322.216, 319.840
1323.421, 205.542
1324.625, 170.235
1325.829, 273.923
1327.032, 115.604
1328.236, 191.278
1329.439, 91.947
1330.642, 83.610
1331.845, 181.266
1333.048, 280.916
1334.251, 200.561
1335.453, 86.200
1336.656, 132.833
1337.858, 165.462
1339.060, 86.084
1340.261, 127.702
1341.463, 132.315
1342.664, 157.926
1343.866, 251.530
1345.067, 118.131
1346.267, 224.729
1347.468, 163.325
1348.669, 187.918
1349.869, 250.509
1351.069, 289.099
1352.269, 200.688
1353.469, 230.276
1354.668, 205.866
1355.868, 270.456
1357.067, 281.048
1358.266, 130.654
1359.465, 288.341
1360.664, 212.955
1361.862, 144.018
1363.061, 292.642
1364.259, 194.271
1365.457, 189.907
1366.655, 249.547
1367.852, 274.096
1369.050, 241.760
1370.247, 203.114
1371.444, 146.805
1372.641, 204.505
1373.838, 253.181
1375.035, 252.887
1376.231, 248.200
1377.427, 209.943
1378.623, 192.502
1379.819, 204.541
1381.015, 112.031
1382.211, 258.373
1383.406, 158.984
1384.601, 129.369
1385.796, 215.858
1386.991, 225.729
1388.185, 201.055
1389.380, 130.867
1390.574, 148.540
1391.768, 117.134
1392.962, 125.744
1394.156, 172.961
1395.350, 128.792
1396.543, 196.507
1397.736, 120.211
1398.929, 249.667
1400.122, 213.310
1401.315, 114.814
1402.507, 157.498
1403.700, 201.193
1404.892, 216.278
1406.084, 167.974
1407.276, 200.062
1408.467, 200.318
1409.659, 47.860
1410.850, 179.228
1412.041, 262.557
1413.232, 136.794
1414.423, 223.119
1415.614, 230.324
1416.804, 134.411
1417.994, 204.690
1419.184, 293.955
1420.374, 159.205
1421.564, 360.440
1422.753, 159.661
1423.943, 263.868
1425.132, 151.062
1426.321, 307.239
1427.510, 259.400
1428.698, 273.550
1429.887, 224.680
1431.075, 236.797
1432.263, 217.898
1433.451, 147.982
1434.639, 261.049
1435.827, 203.098
1437.014, 205.131
1438.201, 276.144
1439.388, 292.139
1440.575, 281.114
1441.762, 240.069
1442.949, 364.000
1444.135, 269.904
1445.321, 347.780
1446.507, 280.629
1447.693, 217.452
1448.879, 362.250
1450.064, 220.016
1451.250, 318.734
1452.435, 358.402
1453.620, 452.049
1454.805, 259.712
1455.989, 231.418
1457.174, 284.153
1458.358, 190.011
1459.542, 267.969
1460.726, 328.224
1461.910, 252.477
1463.093, 419.735
1464.277, 165.058
1465.460, 249.473
1466.643, 267.000
1467.826, 105.625
1469.009, 416.264
1470.191, 119.914
1471.373, 231.580
1472.556, 223.262
1473.738, 336.958
1474.919, 331.121
1476.101, 256.405
1477.283, 324.161
1478.464, 200.943
1479.645, 173.757
1480.826, 285.604
1482.007, 179.488
1483.187, 306.419
1484.368, 237.398
1485.548, 270.437
1486.728, 194.543
1487.908, 233.726
1489.088, 203.997
1490.268, 326.371
1491.447, 177.857
1492.626, 164.454
1493.805, 182.147
1494.984, 296.942
1496.163, 219.836
1497.341, 78.827
1498.520, 153.921
1499.698, 29.129
1500.876, 16.365
1502.054, 86.943
1503.232, 9.422
1504.409, 43.390
1505.586, 92.396
1506.763, 148.613
1507.940, 167.923
1509.117, 189.900
1510.294, 187.730
1511.470, 180.001
1512.647, 157.454
1513.823, 100.496
1514.999, 187.568
1516.174, 190.541
1517.350, 8.193
1518.526, 166.306
1519.701, 104.012
1520.876, 299.604
1522.051, 54.280
1523.226, 64.140
1524.400, 0.000
##END=



