##NAMES=Monticellite
##RRUFFID=R040115
##IDEAL CHEMISTRY=CaMgSiO_4_
##LOCALITY=Magnet Cove, Arkansas, USA
##OWNER=RRUFF
##SOURCE=University of Arizona Mineral Museum
##DESCRIPTION=Brown blebs in matrix
##STATUS=The identification of this mineral has been confirmed by X-ray diffraction and chemical analysis
##URL=rruff.info/R040115
##MEASURED CHEMISTRY=Ca_0.99_(Mg_0.85_ Fe_0.12_Mn_0.03_)Si_1.00_O_4_
##PIN_ID=M00321
##ORIENTATION=Laser parallel to a* (1 0 0). Fiducial mark perpendicular to laser is parallel to -b [0 -1 0]
102.428, 0.000
103.820, 27.436
105.212, 12.396
106.604, 77.117
107.995, 67.488
109.387, 51.899
110.777, 24.807
112.168, 34.774
113.559, 21.889
114.949, 43.186
116.339, 90.140
117.729, 105.056
119.119, 67.342
120.508, 27.871
121.897, 17.622
123.286, 35.572
124.675, 23.698
126.063, 16.978
127.452, 4.394
128.840, 6.069
130.228, 7.574
131.615, 17.688
133.003, 22.135
134.390, 3.039
135.777, 50.045
137.164, 2.162
138.550, 54.384
139.937, 15.693
141.323, 35.076
142.709, 22.521
144.094, 44.016
145.480, 40.555
146.865, 41.130
148.250, 51.735
149.635, 67.368
151.019, 62.024
152.403, 84.702
153.788, 96.668
155.171, 110.110
156.555, 151.838
157.939, 170.581
159.322, 241.336
160.705, 406.103
162.088, 510.881
163.470, 735.673
164.853, 1031.521
166.235, 1321.480
167.617, 1661.718
168.998, 1791.094
170.380, 1785.576
171.761, 1490.130
173.142, 1146.674
174.523, 865.179
175.904, 549.643
177.284, 368.070
178.664, 213.461
180.044, 109.817
181.424, 101.139
182.803, 49.429
184.183, 39.687
185.562, 28.914
186.940, 56.117
188.319, 57.299
189.698, 65.463
191.076, 68.611
192.454, 69.854
193.831, 52.866
195.209, 69.977
196.586, 87.077
197.963, 85.170
199.340, 118.255
200.717, 101.326
202.093, 133.391
203.470, 164.456
204.846, 168.515
206.221, 226.569
207.597, 235.620
208.972, 209.670
210.347, 186.717
211.722, 174.764
213.097, 174.808
214.472, 189.852
215.846, 211.892
217.220, 206.925
218.594, 195.954
219.967, 168.977
221.341, 153.994
222.714, 177.116
224.087, 132.338
225.460, 173.723
226.832, 191.818
228.204, 176.823
229.577, 196.119
230.948, 238.552
232.320, 265.108
233.692, 298.584
235.063, 328.839
236.434, 381.936
237.805, 434.060
239.175, 478.760
240.545, 536.849
241.916, 608.607
243.286, 758.225
244.655, 949.717
246.025, 1133.205
247.394, 1498.687
248.763, 2078.165
250.132, 2807.636
251.501, 3988.099
252.869, 5070.554
254.237, 6215.000
255.605, 6732.439
256.973, 6335.867
258.340, 5389.288
259.708, 4302.698
261.075, 3165.100
262.442, 2292.492
263.808, 1699.875
265.175, 1314.248
266.541, 1141.612
267.907, 1065.087
269.273, 1066.630
270.639, 1110.217
272.004, 1178.833
273.369, 1134.975
274.734, 1109.376
276.099, 1040.791
277.463, 924.466
278.828, 804.226
280.192, 614.918
281.556, 501.609
282.919, 458.453
284.283, 396.323
285.646, 402.087
287.009, 379.843
288.372, 380.620
289.734, 429.437
291.097, 450.280
292.459, 466.207
293.821, 533.043
295.183, 680.847
296.544, 870.245
297.905, 1163.107
299.266, 1610.025
300.627, 2139.866
301.988, 2690.123
303.348, 3029.985
304.709, 3092.861
306.069, 2825.655
307.428, 2306.620
308.788, 1764.552
310.147, 1277.401
311.507, 927.531
312.865, 630.436
314.224, 460.445
315.583, 369.292
316.941, 262.392
318.299, 225.506
319.657, 204.385
321.015, 195.366
322.372, 181.319
323.729, 211.426
325.086, 175.362
326.443, 203.215
327.800, 234.011
329.156, 223.824
330.512, 199.610
331.868, 182.442
333.224, 152.291
334.579, 134.866
335.935, 93.819
337.290, 94.559
338.645, 71.290
339.999, 50.012
341.354, 51.426
342.708, 43.427
344.062, 41.123
345.416, 40.809
346.769, 25.487
348.123, 4.156
349.476, 13.188
350.829, 9.452
352.182, 18.082
353.534, 34.297
354.887, 19.305
356.239, 45.103
357.591, 31.535
358.942, 0.011
360.294, 29.455
361.645, 12.057
362.996, 11.442
364.347, 3.043
365.698, 29.484
367.048, 5.034
368.398, 7.402
369.748, 0.174
371.098, 12.764
372.448, 3.371
373.797, 14.007
375.146, 5.373
376.495, 4.274
377.844, 42.065
379.192, 57.393
380.540, 60.711
381.889, 64.020
383.236, 128.318
384.584, 194.608
385.932, 188.887
387.279, 271.156
388.626, 380.414
389.973, 502.648
391.319, 639.869
392.666, 825.061
394.012, 1047.207
395.358, 1262.324
396.704, 1439.420
398.049, 1579.487
399.394, 1626.396
400.740, 1668.559
402.084, 1565.566
403.429, 1427.554
404.774, 1237.532
406.118, 1055.502
407.462, 900.464
408.806, 734.418
410.150, 631.364
411.493, 561.302
412.836, 430.232
414.179, 376.153
415.522, 301.067
416.865, 263.973
418.207, 244.871
419.549, 192.760
420.891, 185.642
422.233, 166.516
423.575, 141.381
424.916, 108.239
426.257, 117.088
427.598, 101.616
428.939, 94.763
430.279, 103.588
431.619, 115.405
432.959, 123.213
434.299, 127.011
435.639, 87.801
436.978, 92.580
438.318, 84.351
439.657, 62.112
440.996, 81.863
442.334, 86.604
443.673, 45.540
445.011, 43.260
446.349, 65.422
447.687, 71.471
449.024, 67.382
450.361, 59.286
451.699, 54.247
453.036, 44.284
454.372, 40.480
455.709, 66.170
457.045, 51.418
458.381, 62.745
459.717, 57.098
461.053, 75.093
462.388, 32.674
463.724, 75.793
465.059, 72.869
466.394, 92.781
467.728, 57.360
469.063, 64.390
470.397, 82.627
471.731, 47.833
473.065, 72.329
474.398, 58.844
475.732, 88.833
477.065, 51.280
478.398, 49.953
479.731, 77.362
481.063, 63.799
482.396, 69.208
483.728, 55.902
485.060, 77.642
486.391, 96.843
487.723, 113.074
489.054, 105.956
490.385, 114.249
491.716, 97.529
493.047, 90.796
494.377, 105.050
495.708, 113.290
497.038, 150.518
498.368, 128.734
499.697, 142.184
501.027, 140.331
502.356, 128.469
503.685, 149.986
505.014, 167.051
506.342, 162.401
507.671, 210.327
508.999, 156.793
510.327, 219.186
511.655, 233.151
512.982, 254.906
514.310, 293.781
515.637, 321.519
516.964, 365.789
518.291, 447.972
519.617, 598.041
520.944, 744.225
522.270, 894.737
523.596, 1229.009
524.921, 1648.153
526.247, 2264.250
527.572, 3060.860
528.897, 3780.124
530.222, 4527.000
531.547, 4724.063
532.871, 4472.698
534.196, 3711.083
535.520, 2983.175
536.844, 2380.696
538.167, 1864.449
539.491, 1403.201
540.814, 1101.987
542.137, 891.776
543.460, 744.601
544.783, 619.415
546.105, 549.220
547.427, 491.015
548.749, 439.800
550.071, 421.575
551.393, 408.340
552.714, 370.096
554.035, 369.274
555.356, 363.580
556.677, 365.308
557.998, 357.027
559.318, 375.737
560.638, 360.439
561.958, 345.132
563.278, 379.816
564.597, 393.492
565.917, 372.159
567.236, 440.818
568.555, 443.469
569.874, 470.111
571.192, 516.745
572.511, 537.370
573.829, 533.988
575.147, 539.597
576.464, 546.644
577.782, 542.846
579.099, 555.377
580.416, 538.955
581.733, 544.525
583.050, 541.086
584.366, 462.641
585.683, 464.187
586.999, 382.726
588.315, 331.257
589.630, 299.781
590.946, 235.298
592.261, 252.807
593.576, 187.309
594.891, 121.803
596.206, 74.290
597.520, 97.771
598.834, 103.167
600.148, 55.633
601.462, 15.092
602.776, 62.375
604.089, 10.368
605.402, 9.012
606.715, 12.345
608.028, 11.677
609.341, 8.965
610.653, 6.223
611.965, 2.391
613.277, 18.512
614.589, 47.211
615.901, 17.067
617.212, 33.882
618.523, 12.772
619.834, 22.598
621.145, 15.855
622.456, 0.267
623.766, 2.365
625.076, 11.536
626.386, 32.475
627.696, 4.472
629.006, 36.398
630.315, 12.373
631.624, 10.639
632.933, 18.770
634.242, 11.245
635.551, 0.998
636.859, 10.725
638.167, 28.322
639.475, 28.489
640.783, 33.647
642.090, 50.979
643.398, 11.162
644.705, 12.278
646.012, 7.350
647.318, 10.548
648.625, 34.463
649.931, 19.322
651.237, 21.151
652.543, 16.039
653.849, 36.943
655.155, 32.845
656.460, 5.256
657.765, 13.638
659.070, 4.530
660.375, 9.580
661.679, 16.303
662.984, 7.814
664.288, 5.063
665.592, 39.940
666.895, 17.818
668.199, 10.298
669.502, 25.583
670.805, 20.535
672.108, 12.350
673.411, 25.235
674.713, 3.863
676.016, 0.050
677.318, 7.967
678.620, 0.087
679.921, 12.836
681.223, 1.781
682.524, 10.731
683.825, 3.697
685.126, 32.669
686.427, 44.654
687.727, 12.653
689.028, 31.666
690.328, 16.684
691.628, 65.706
692.927, 23.733
694.227, 70.768
695.526, 34.803
696.825, 73.840
698.124, 39.879
699.423, 45.919
700.721, 40.960
702.020, 55.002
703.318, 66.046
704.616, 76.091
705.913, 49.138
707.211, 42.187
708.508, 62.238
709.805, 80.291
711.102, 30.346
712.399, 109.402
713.695, 72.462
714.992, 113.523
716.288, 97.587
717.584, 75.654
718.879, 134.723
720.175, 80.795
721.470, 135.870
722.765, 112.947
724.060, 137.028
725.355, 129.112
726.649, 114.199
727.944, 162.289
729.238, 152.383
730.532, 162.154
731.825, 136.581
733.119, 174.685
734.412, 156.794
735.705, 168.906
736.998, 132.022
738.291, 165.142
739.584, 171.266
740.876, 166.394
742.168, 151.527
743.460, 189.664
744.752, 147.806
746.043, 221.952
747.334, 218.103
748.626, 185.259
749.916, 212.419
751.207, 237.584
752.498, 242.755
753.788, 288.938
755.078, 241.128
756.368, 293.325
757.658, 258.323
758.947, 251.536
760.237, 288.304
761.526, 300.187
762.815, 299.207
764.104, 331.233
765.392, 334.198
766.680, 345.092
767.969, 378.833
769.257, 348.074
770.544, 387.757
771.832, 393.358
773.119, 434.929
774.406, 393.859
775.693, 405.202
776.980, 413.001
778.267, 458.841
779.553, 427.840
780.839, 457.169
782.125, 504.043
783.411, 538.706
784.697, 565.396
785.982, 562.792
787.267, 601.165
788.552, 674.062
789.837, 639.499
791.122, 725.705
792.406, 817.170
793.690, 853.610
794.974, 966.074
796.258, 982.258
797.542, 1121.390
798.825, 1206.061
800.108, 1431.701
801.391, 1584.694
802.674, 1811.274
803.957, 2014.876
805.239, 2388.489
806.522, 2863.112
807.804, 3484.747
809.085, 4461.393
810.367, 5625.049
811.649, 7207.468
812.930, 9414.146
814.211, 12036.837
815.492, 14420.112
816.772, 16176.821
818.053, 16658.246
819.333, 15576.980
820.613, 13579.728
821.893, 11617.485
823.173, 9619.890
824.452, 8102.670
825.732, 7146.585
827.011, 6198.391
828.290, 5811.476
829.568, 5424.220
830.847, 5142.272
832.125, 5224.399
833.403, 5238.563
834.681, 5535.441
835.959, 6059.491
837.236, 6833.101
838.514, 7989.215
839.791, 10023.046
841.068, 12884.242
842.345, 17002.068
843.621, 23300.025
844.898, 31099.098
846.174, 41264.312
847.450, 52358.305
848.726, 59171.309
850.001, 61556.324
851.277, 56619.340
852.552, 46432.387
853.827, 36633.434
855.102, 27387.494
856.376, 20909.564
857.651, 16298.646
858.925, 12738.745
860.199, 10022.849
861.473, 7974.967
862.746, 6714.095
864.020, 5750.237
865.293, 4714.390
866.566, 4137.553
867.839, 3621.729
869.112, 3274.917
870.384, 2843.117
871.656, 2646.328
872.928, 2334.550
874.200, 2123.785
875.472, 1989.031
876.744, 1810.289
878.015, 1662.559
879.286, 1537.840
880.557, 1495.134
881.828, 1371.438
883.098, 1289.755
884.369, 1218.084
885.639, 1254.424
886.909, 1201.776
888.178, 1272.141
889.448, 1263.516
890.717, 1439.903
891.987, 1580.303
893.256, 1904.714
894.524, 2358.136
895.793, 2950.570
897.061, 3516.016
898.330, 3844.474
899.598, 3589.944
900.865, 3070.425
902.133, 2365.918
903.401, 1783.422
904.668, 1453.939
905.935, 1172.250
907.202, 911.790
908.468, 835.921
909.735, 692.484
911.001, 681.111
912.267, 570.697
913.533, 553.200
914.799, 560.066
916.064, 452.619
917.330, 460.267
918.595, 453.067
919.860, 384.159
921.124, 450.848
922.389, 412.979
923.653, 396.705
924.918, 466.450
926.182, 477.530
927.445, 489.602
928.709, 536.784
929.972, 566.613
931.236, 614.455
932.499, 717.309
933.761, 845.176
935.024, 979.066
936.286, 1176.971
937.549, 1495.899
938.811, 1945.838
940.073, 2661.260
941.334, 3651.233
942.596, 5245.216
943.857, 7535.214
945.118, 9837.358
946.379, 11251.399
947.640, 11234.931
948.900, 9792.017
950.161, 7311.277
951.421, 5380.191
952.681, 3781.222
953.940, 2738.649
955.200, 1900.103
956.459, 1391.283
957.719, 1094.472
958.978, 811.672
960.236, 697.882
961.495, 531.101
962.753, 453.329
964.012, 374.573
965.270, 256.827
966.527, 226.096
967.785, 162.376
969.043, 141.670
970.300, 129.977
971.557, 85.291
972.814, 100.614
974.071, 58.950
975.327, 35.297
976.583, 33.652
977.840, 37.020
979.095, 12.604
980.351, 30.776
981.607, 10.829
982.862, 12.427
984.117, 38.017
985.372, 36.393
986.627, 8.188
987.882, 23.764
989.136, 9.339
990.390, 48.910
991.644, 55.490
992.898, 27.077
994.152, 17.334
995.405, 5.248
996.659, 9.823
997.912, 51.605
999.165, 21.039
1000.417, 59.481
1001.670, 70.928
1002.922, 97.382
1004.174, 98.747
1005.426, 87.308
1006.678, 87.780
1007.930, 85.257
1009.181, 70.740
1010.432, 89.229
1011.683, 68.723
1012.934, 71.225
1014.185, 81.731
1015.435, 95.243
1016.685, 122.761
1017.935, 69.283
1019.185, 144.811
1020.435, 137.343
1021.684, 67.880
1022.934, 65.422
1024.183, 117.969
1025.432, 148.520
1026.680, 120.076
1027.929, 145.636
1029.177, 141.200
1030.425, 121.768
1031.673, 103.341
1032.921, 150.917
1034.169, 86.498
1035.416, 83.082
1036.663, 126.669
1037.911, 121.261
1039.157, 147.856
1040.404, 137.455
1041.650, 135.057
1042.897, 134.820
1044.143, 119.293
1045.389, 108.883
1046.634, 94.498
1047.880, 61.115
1049.125, 52.736
1050.371, 17.359
1051.615, 48.986
1052.860, 29.615
1054.105, 44.246
1055.349, 33.121
1056.593, 39.499
1057.837, 9.878
1059.081, 38.740
1060.325, 18.640
1061.568, 6.973
1062.812, 33.413
1064.055, 1.813
1065.298, 15.215
1066.540, 5.375
1067.783, 36.309
1069.025, 40.735
1070.267, 42.819
1071.509, 4.625
1072.751, 23.022
1073.993, 15.579
1075.234, 20.591
1076.475, 1.020
1077.716, 2.346
1078.957, 47.557
1080.198, 35.093
1081.438, 54.226
1082.679, 60.711
1083.919, 61.627
1085.159, 44.386
1086.398, 18.201
1087.638, 20.448
1088.877, 2.609
1090.116, 19.361
1091.355, 33.889
1092.594, 52.127
1093.833, 12.619
1095.071, 35.352
1096.309, 17.696
1097.547, 40.291
1098.785, 7.056
1100.023, 5.291
1101.260, 6.290
1102.498, 5.187
1103.735, 28.212
1104.972, 23.062
1106.208, 19.541
1107.445, 86.476
1108.681, 59.009
1109.918, 43.783
1111.154, 89.401
1112.389, 86.004
1113.625, 103.020
1114.860, 68.738
1116.096, 137.416
1117.331, 80.128
1118.566, 55.115
1119.800, 92.576
1121.035, 94.136
1122.269, 130.772
1123.503, 122.171
1124.737, 130.911
1125.971, 104.498
1127.205, 119.880
1128.438, 96.039
1129.671, 66.040
1130.904, 107.511
1132.137, 73.676
1133.370, 127.647
1134.602, 49.547
1135.834, 63.732
1137.066, 74.428
1138.298, 82.606
1139.530, 91.451
1140.762, 94.807
1141.993, 78.394
1143.224, 79.930
1144.455, 80.302
1145.686, 71.439
1146.917, 91.811
1148.147, 170.209
1149.377, 96.558
1150.607, 195.873
1151.837, 141.256
1153.067, 180.570
1154.296, 190.853
1155.526, 118.120
1156.755, 110.382
1157.984, 135.638
1159.213, 134.927
1160.441, 165.588
1161.670, 143.826
1162.898, 152.125
1164.126, 118.352
1165.354, 114.572
1166.581, 104.867
1167.809, 124.075
1169.036, 126.276
1170.263, 145.472
1171.490, 122.661
1172.717, 99.844
1173.943, 96.020
1175.170, 132.189
1176.396, 72.352
1177.622, 105.509
1178.848, 108.659
1180.073, 56.802
1181.299, 63.938
1182.524, 122.067
1183.749, 100.189
1184.974, 78.305
1186.199, 124.414
1187.423, 74.515
1188.648, 65.610
1189.872, 70.697
1191.096, 58.777
1192.320, 100.884
1193.543, 139.950
1194.767, 84.008
1195.990, 85.060
1197.213, 153.104
1198.436, 81.140
1199.659, 121.169
1200.881, 130.200
1202.104, 211.215
1203.326, 85.438
1204.548, 143.437
1205.770, 90.849
1206.991, 116.833
1208.213, 106.758
1209.434, 107.727
1210.655, 66.791
1211.876, 103.502
1213.096, 71.529
1214.317, 5.503
1215.537, 97.291
1216.757, 75.793
1217.977, 49.740
1219.197, 29.213
1220.417, 47.110
1221.636, 16.999
1222.855, 40.574
1224.074, 4.834
1225.293, 11.655
1226.512, 56.507
1227.731, 43.351
1228.949, 14.188
1230.167, 5.051
1231.385, 19.866
1232.603, 16.672
1233.820, 28.515
1235.038, 50.302
1236.255, 9.628
1237.472, 60.470
1238.689, 2.231
1239.906, 30.021
1241.122, 8.601
1242.338, 9.306
1243.555, 11.474
1244.771, 16.298
1245.986, 23.838
1247.202, 12.302
1248.417, 48.461
1249.633, 24.818
1250.848, 2.854
1252.063, 38.740
1253.277, 3.354
1254.492, 27.923
1255.706, 9.479
1256.920, 19.026
1258.134, 8.412
1259.348, 0.884
1260.562, 10.367
1261.775, 14.095
1262.988, 10.431
1264.201, 1.094
1265.414, 36.537
1266.627, 21.971
1267.839, 9.591
1269.052, 48.821
1270.264, 9.227
1271.476, 18.623
1272.688, 51.012
1273.899, 38.627
1275.111, 15.999
1276.322, 10.360
1277.533, 7.289
1278.744, 4.947
1279.955, 1.389
1281.165, 52.715
1282.376, 36.073
1283.586, 41.389
1284.796, 5.699
1286.006, 10.991
1287.215, 24.317
1288.425, 17.620
1289.634, 21.946
1290.843, 36.234
1292.052, 35.097
1293.261, 29.790
1294.469, 38.057
1295.678, 45.316
1296.886, 29.568
1298.094, 42.811
1299.302, 49.048
1300.509, 76.277
1301.717, 64.498
1302.924, 77.712
1304.131, 41.918
1305.338, 5.116
1306.545, 66.306
1307.752, 35.488
1308.958, 72.662
1310.164, 101.829
1311.370, 31.987
1312.576, 112.137
1313.782, 97.910
1314.987, 144.415
1316.193, 95.542
1317.398, 157.662
1318.603, 89.775
1319.807, 144.881
1321.012, 92.980
1322.216, 164.072
1323.421, 103.158
1324.625, 98.238
1325.829, 60.311
1327.032, 122.378
1328.236, 95.440
1329.439, 93.496
1330.642, 76.543
1331.845, 63.585
1333.048, 52.621
1334.251, 103.652
1335.453, 54.677
1336.656, 41.696
1337.858, 83.709
1339.060, 61.718
1340.261, 79.720
1341.463, 64.717
1342.664, 49.709
1343.866, 79.697
1345.067, 46.679
1346.267, 61.656
1347.468, 54.629
1348.669, 59.605
1349.869, 90.577
1351.069, 68.547
1352.269, 80.513
1353.469, 61.480
1354.668, 66.444
1355.868, 49.413
1357.067, 75.380
1358.266, 39.349
1359.465, 68.591
1360.664, 71.469
1361.862, 38.544
1363.061, 97.536
1364.259, 105.419
1365.457, 124.392
1366.655, 78.490
1367.852, 69.442
1369.050, 84.290
1370.247, 96.907
1371.444, 99.892
1372.641, 101.004
1373.838, 37.523
1375.035, 88.929
1376.231, 45.699
1377.427, 34.321
1378.623, 66.094
1379.819, 41.971
1381.015, 27.392
1382.211, 56.231
1383.406, 55.344
1384.601, 33.430
1385.796, 64.795
1386.991, 39.065
1388.185, 18.825
1389.380, 31.460
1390.574, 54.655
1391.768, 34.282
1392.962, 49.993
1394.156, 39.704
1395.350, 67.818
1396.543, 25.244
1397.736, 36.643
1398.929, 46.180
1400.122, 40.837
1401.315, 25.650
1402.507, 46.779
1403.700, 43.177
1404.892, 26.457
1406.084, 47.337
1407.276, 11.740
1408.467, 75.968
1409.659, 42.417
1410.850, 22.147
1412.041, 86.838
1413.232, 67.550
1414.423, 59.349
1415.614, 81.318
1416.804, 3.020
1417.994, 73.269
1419.184, 68.994
1420.374, 34.688
1421.564, 66.479
1422.753, 38.261
1423.943, 49.034
1425.132, 13.798
1426.321, 88.553
1427.510, 76.298
1428.698, 85.035
1429.887, 33.763
1431.075, 59.482
1432.263, 14.192
1433.451, 44.842
1434.639, 83.533
1435.827, 58.215
1437.014, 42.872
1438.201, 75.535
1439.388, 98.189
1440.575, 98.833
1441.762, 90.466
1442.949, 95.088
1444.135, 109.645
1445.321, 90.194
1446.507, 91.791
1447.693, 72.368
1448.879, 113.933
1450.064, 93.498
1451.250, 109.985
1452.435, 90.536
1453.620, 162.994
1454.805, 88.363
1455.989, 148.895
1457.174, 196.406
1458.358, 117.801
1459.542, 85.357
1460.726, 152.947
1461.910, 139.592
1463.093, 112.204
1464.277, 56.913
1465.460, 34.580
1466.643, 143.349
1467.826, 70.989
1469.009, 111.817
1470.191, 103.623
1471.373, 111.460
1472.556, 75.695
1473.738, 92.530
1474.919, 139.368
1476.101, 143.207
1477.283, 96.943
1478.464, 98.784
1479.645, 83.628
1480.826, 108.386
1482.007, 74.241
1483.187, 111.103
1484.368, 97.976
1485.548, 71.859
1486.728, 134.759
1487.908, 131.675
1489.088, 88.611
1490.268, 140.572
1491.447, 97.562
1492.626, 86.585
1493.805, 37.645
1494.984, 73.736
1496.163, 91.857
1497.341, 73.008
1498.520, 35.189
1499.698, 26.397
1500.876, 37.662
1502.054, 45.961
1503.232, 46.305
1504.409, 15.696
1505.586, 48.140
1506.763, 54.642
1507.940, 16.791
1509.117, 51.847
1510.294, 81.564
1511.470, 94.365
1512.647, 29.260
1513.823, 98.263
1514.999, 50.386
1516.174, 88.480
1517.350, 66.882
1518.526, 22.183
1519.701, 73.556
1520.876, 11.940
1522.051, 5.581
1523.226, 73.032
1524.400, 1.011
1525.574, 25.770
1526.749, 0.000
##END=



