##NAMES=Muscovite
##RRUFFID=R050188
##IDEAL CHEMISTRY=KAl_2_(Si_3_Al)O_10_(OH)_2_
##LOCALITY=Sapinero, near Blue Mesa Reservoir, Gunnison County, Colorado, USA
##OWNER=RRUFF
##SOURCE=Dave Bunk Minerals
##DESCRIPTION=Black pseudohexagonal crystal, polytype 2M1, associated with quartz
##STATUS=The identification of this mineral has been confirmed by X-ray diffraction and chemical analysis
##URL=rruff.info/R050188
##MEASURED CHEMISTRY=(K_0.91_Na_0.09_)(Al_0.86_Fe^3+^_0.06_Fe^2+^_0.04_Mg_0.03_Ti_0.01_)_2_(Si_0.78_Al_0.22_)_4_O_10_(OH)_2_
##PIN_ID=L00510
##ORIENTATION=Laser parallel to a* (1 0 0). Fiducial mark perpendicular to laser is parallel to -b [0 -1 0]
112.168, 0.000
113.559, 88.119
114.949, 279.809
116.339, 532.601
117.729, 643.154
119.119, 500.223
120.508, 525.400
121.897, 502.973
123.286, 383.477
124.675, 191.915
126.063, 66.473
127.452, 67.500
128.840, 118.513
130.228, 57.011
131.615, 248.707
133.003, 254.267
134.390, 525.413
135.777, 557.898
137.164, 1001.496
138.550, 1273.009
139.937, 1521.270
141.323, 1824.189
142.709, 2040.705
144.094, 2351.699
145.480, 2560.074
146.865, 2898.742
148.250, 3208.620
149.635, 3464.629
151.019, 3773.699
152.403, 3950.763
153.788, 4238.757
155.171, 4632.602
156.555, 4694.215
157.939, 5023.530
159.322, 5355.490
160.705, 5529.049
162.088, 5752.167
163.470, 5998.816
164.853, 6242.971
166.235, 5783.602
167.617, 5655.720
168.998, 6079.794
170.380, 5032.904
171.761, 4488.553
173.142, 4490.626
174.523, 4361.145
175.904, 4200.123
177.284, 4198.555
178.664, 4264.939
180.044, 4272.697
181.424, 4641.361
182.803, 4859.390
184.183, 5244.761
185.562, 5762.457
186.940, 6289.457
188.319, 6758.744
189.698, 6983.306
191.076, 7443.120
192.454, 7714.180
193.831, 7895.467
195.209, 7915.900
196.586, 7608.290
197.963, 7304.662
199.340, 7026.033
200.717, 6661.413
202.093, 6238.824
203.470, 5866.193
204.846, 5598.595
206.221, 5513.072
207.597, 5597.639
208.972, 5334.299
210.347, 5127.062
211.722, 5046.930
213.097, 4889.906
214.472, 5112.993
215.846, 4989.195
217.220, 4791.510
218.594, 4566.939
219.967, 3943.484
221.341, 3571.145
222.714, 2796.906
224.087, 2307.307
225.460, 1752.457
226.832, 1148.305
228.204, 795.244
229.577, 582.723
230.948, 410.731
232.320, 197.357
233.692, 241.568
235.063, 249.307
236.434, 364.487
237.805, 668.056
239.175, 901.929
240.545, 1473.007
241.916, 1975.203
243.286, 2678.443
244.655, 3730.708
246.025, 4968.975
247.394, 6400.238
248.763, 8135.496
250.132, 10979.742
251.501, 13738.984
252.869, 17477.217
254.237, 21422.430
255.605, 25484.643
256.973, 29866.830
258.340, 33187.000
259.708, 36263.168
261.075, 37192.324
262.442, 37708.461
263.808, 35694.570
265.175, 33284.672
266.541, 29845.752
267.907, 26094.809
269.273, 22378.852
270.639, 18749.873
272.004, 16040.874
273.369, 13607.854
274.734, 11197.812
276.099, 9307.745
277.463, 8010.306
278.828, 6554.523
280.192, 5484.161
281.556, 4699.070
282.919, 4005.233
284.283, 3434.689
285.646, 2777.802
287.009, 2418.292
288.372, 2262.128
289.734, 1865.280
291.097, 1591.726
292.459, 1552.458
293.821, 1344.642
295.183, 1379.846
296.544, 1214.271
297.905, 1289.901
299.266, 1129.726
300.627, 1130.732
301.988, 1318.912
303.348, 1173.254
304.709, 1216.751
306.069, 1282.395
307.428, 1306.176
308.788, 1337.331
310.147, 1343.128
311.507, 1315.284
312.865, 1257.553
314.224, 1227.450
315.583, 1202.406
316.941, 1114.981
318.299, 946.647
319.657, 865.402
321.015, 773.241
322.372, 699.160
323.729, 568.157
325.086, 488.228
326.443, 375.920
327.800, 306.656
329.156, 139.934
330.512, 62.418
331.868, 85.438
333.224, 61.101
334.579, 242.107
335.935, 92.436
337.290, 284.086
338.645, 197.595
339.999, 166.985
341.354, 174.394
342.708, 53.682
344.062, 50.061
345.416, 13.927
346.769, 183.792
348.123, 261.266
349.476, 441.142
350.829, 752.459
352.182, 878.069
353.534, 1064.550
354.887, 1296.613
356.239, 1500.287
357.591, 1764.681
358.942, 2169.351
360.294, 2322.413
361.645, 2503.230
362.996, 2958.253
364.347, 3194.074
365.698, 3627.583
367.048, 3839.614
368.398, 4108.052
369.748, 4468.683
371.098, 4818.392
372.448, 5135.463
373.797, 5264.487
375.146, 5675.453
376.495, 6006.340
377.844, 6253.327
379.192, 6663.129
380.540, 6898.709
381.889, 6855.865
383.236, 7442.654
384.584, 7668.438
385.932, 7961.207
387.279, 8459.916
388.626, 9054.553
389.973, 9416.118
391.319, 10171.637
392.666, 10702.135
394.012, 11467.617
395.358, 12386.078
396.704, 13313.517
398.049, 14539.931
399.394, 15167.321
400.740, 16543.678
402.084, 17336.008
403.429, 18219.301
404.774, 19449.562
406.118, 20135.789
407.462, 20545.992
408.806, 21190.152
410.150, 21558.281
411.493, 21704.369
412.836, 21571.674
414.179, 20732.461
415.522, 20560.451
416.865, 19694.404
418.207, 18567.330
419.549, 17718.213
420.891, 16895.061
422.233, 15939.880
423.575, 14628.659
424.916, 13903.403
426.257, 13092.113
427.598, 12014.786
428.939, 11558.424
430.279, 10558.025
431.619, 9775.588
432.959, 9273.119
434.299, 8640.610
435.639, 7711.066
436.978, 7370.486
438.318, 6585.869
439.657, 6151.250
440.996, 5669.628
442.334, 4990.999
443.673, 4603.361
445.011, 4224.715
446.349, 3835.056
447.687, 3482.389
449.024, 3145.709
450.361, 2860.710
451.699, 2535.306
453.036, 2338.580
454.372, 2134.850
455.709, 1866.120
457.045, 1857.370
458.381, 1581.598
459.717, 1545.802
461.053, 1462.981
462.388, 1443.135
463.724, 1427.263
465.059, 1307.362
466.394, 1166.434
467.728, 1268.477
469.063, 1103.488
470.397, 1069.470
471.731, 1135.419
473.065, 1030.336
474.398, 1063.220
475.732, 823.070
477.065, 840.886
478.398, 766.667
479.731, 746.412
481.063, 685.121
482.396, 604.793
483.728, 625.428
485.060, 454.025
486.391, 459.584
487.723, 323.104
489.054, 350.584
490.385, 315.022
491.716, 150.419
493.047, 77.432
494.377, 88.852
495.708, 22.239
497.038, 15.302
498.368, 118.900
499.697, 138.953
501.027, 140.219
502.356, 160.038
503.685, 221.667
505.014, 338.497
506.342, 239.819
507.671, 280.375
508.999, 222.190
510.327, 292.236
511.655, 232.548
512.982, 214.097
514.310, 254.873
515.637, 136.896
516.964, 180.106
518.291, 168.526
519.617, 95.149
520.944, 186.938
522.270, 62.938
523.596, 28.079
524.921, 39.323
526.247, 34.331
527.572, 25.934
528.897, 102.462
530.222, 143.962
531.547, 184.470
532.871, 187.972
534.196, 192.491
535.520, 359.036
536.844, 334.587
538.167, 392.160
539.491, 344.750
540.814, 499.349
542.137, 517.960
543.460, 614.565
544.783, 521.180
546.105, 678.783
547.427, 647.365
548.749, 757.918
550.071, 804.431
551.393, 872.907
552.714, 885.340
554.035, 1016.729
555.356, 1025.076
556.677, 1027.380
557.998, 1162.642
559.318, 1132.860
560.638, 1182.037
561.958, 1168.170
563.278, 1391.262
564.597, 1270.312
565.917, 1376.319
567.236, 1345.285
568.555, 1329.209
569.874, 1389.092
571.192, 1443.932
572.511, 1508.731
573.829, 1520.265
575.147, 1471.207
576.464, 1513.883
577.782, 1509.519
579.099, 1457.112
580.416, 1608.667
581.733, 1718.181
583.050, 1605.654
584.366, 1872.088
585.683, 1794.482
586.999, 1857.835
588.315, 2154.151
589.630, 2074.425
590.946, 2288.662
592.261, 2452.858
593.576, 2437.017
594.891, 2577.135
596.206, 2756.215
597.520, 3000.259
598.834, 3040.263
600.148, 3125.228
601.462, 3423.155
602.776, 3508.044
604.089, 3638.896
605.402, 3863.707
606.715, 4071.482
608.028, 4191.220
609.341, 4425.918
610.653, 4516.579
611.965, 4842.202
613.277, 4924.788
614.589, 5088.335
615.901, 5435.845
617.212, 5577.318
618.523, 5924.753
619.834, 6010.152
621.145, 6103.513
622.456, 6305.836
623.766, 6572.125
625.076, 6667.376
626.386, 6922.590
627.696, 6848.768
629.006, 7317.910
630.315, 7005.017
631.624, 7270.087
632.933, 7420.121
634.242, 7362.122
635.551, 7372.086
636.859, 7207.015
638.167, 7269.741
639.475, 7288.771
640.783, 7273.597
642.090, 7234.389
643.398, 7122.146
644.705, 7039.651
646.012, 6792.488
647.318, 6755.145
648.625, 6679.628
649.931, 6457.478
651.237, 6406.160
652.543, 6281.204
653.849, 6351.588
655.155, 6139.306
656.460, 6229.899
657.765, 6086.284
659.070, 5846.897
660.375, 5853.297
661.679, 5666.794
662.984, 5522.930
664.288, 5672.192
665.592, 5481.850
666.895, 5393.106
668.199, 5478.922
669.502, 5355.447
670.805, 5643.099
672.108, 5561.168
673.411, 5715.624
674.713, 6011.357
676.016, 6161.812
677.318, 6463.872
678.620, 6752.175
679.921, 7082.443
681.223, 7743.485
682.524, 8114.253
683.825, 9296.062
685.126, 10245.752
686.427, 11557.625
687.727, 12490.816
689.028, 13716.987
690.328, 15787.599
691.628, 17832.959
692.927, 19912.619
694.227, 21675.758
695.526, 25345.824
696.825, 27246.500
698.124, 29399.395
699.423, 31013.533
700.721, 31901.646
702.020, 31462.557
703.318, 30792.221
704.616, 28214.035
705.913, 26250.402
707.211, 24159.254
708.508, 21020.449
709.805, 18183.637
711.102, 16285.821
712.399, 13771.999
713.695, 12290.168
714.992, 10691.332
716.288, 9451.492
717.584, 8446.644
718.879, 7512.792
720.175, 7110.934
721.470, 6341.072
722.765, 5977.206
724.060, 5588.336
725.355, 5335.464
726.649, 5112.589
727.944, 5141.709
729.238, 5030.178
730.532, 5171.944
731.825, 5135.060
733.119, 5164.173
734.412, 5418.286
735.705, 5752.397
736.998, 5918.508
738.291, 6436.619
739.584, 6859.730
740.876, 7178.843
742.168, 7477.957
743.460, 7827.072
744.752, 8082.517
746.043, 8727.307
747.334, 8565.426
748.626, 8763.549
749.916, 8912.673
751.207, 8740.803
752.498, 8856.935
753.788, 8512.070
755.078, 8474.212
756.368, 7941.355
757.658, 7664.504
758.947, 7440.658
760.237, 6753.815
761.526, 6397.979
762.815, 5911.148
764.104, 5527.325
765.392, 5091.506
766.680, 4579.695
767.969, 4357.889
769.257, 3775.090
770.544, 3605.299
771.832, 3252.515
773.119, 3098.738
774.406, 2885.970
775.693, 2557.209
776.980, 2510.458
778.267, 2345.715
779.553, 2302.981
780.839, 2143.256
782.125, 2126.541
783.411, 2064.835
784.697, 1988.139
785.982, 1877.454
787.267, 1827.778
788.552, 1762.113
789.837, 1766.459
791.122, 1700.715
792.406, 1654.576
793.690, 1605.564
794.974, 1515.956
796.258, 1454.359
797.542, 1402.245
798.825, 1354.203
800.108, 1283.643
801.391, 1201.098
802.674, 1101.564
803.957, 977.046
805.239, 912.550
806.522, 693.087
807.804, 739.656
809.085, 659.282
810.367, 466.956
811.649, 474.710
812.930, 368.551
814.211, 248.479
815.492, 249.497
816.772, 243.621
818.053, 269.885
819.333, 251.136
820.613, 234.135
821.893, 227.681
823.173, 218.167
824.452, 194.213
825.732, 198.896
827.011, 165.966
828.290, 130.123
829.568, 156.377
830.847, 81.521
832.125, 83.152
833.403, 26.323
834.681, 95.747
835.959, 134.161
837.236, 174.584
838.514, 99.055
839.791, 168.534
841.068, 270.072
842.345, 195.725
843.621, 281.459
844.898, 308.318
846.174, 200.318
847.450, 257.407
848.726, 237.614
850.001, 201.929
851.277, 219.334
852.552, 143.837
853.827, 207.400
855.102, 125.055
856.376, 88.758
857.651, 54.489
858.925, 4.767
860.199, 10.960
861.473, 86.323
862.746, 45.633
864.020, 48.966
865.293, 239.323
866.566, 214.703
867.839, 264.108
869.112, 316.540
870.384, 291.005
871.656, 326.500
872.928, 481.033
874.200, 485.591
875.472, 593.188
876.744, 616.818
878.015, 602.482
879.286, 676.184
880.557, 760.920
881.828, 772.698
883.098, 898.509
884.369, 896.349
885.639, 1012.229
886.909, 1139.137
888.178, 1227.464
889.448, 1355.493
890.717, 1488.076
891.987, 1629.140
893.256, 1769.244
894.524, 1990.384
895.793, 2172.554
897.061, 2388.746
898.330, 2585.978
899.598, 2944.249
900.865, 3258.555
902.133, 3396.882
903.401, 3668.236
904.668, 3908.620
905.935, 4010.030
907.202, 4186.465
908.468, 4268.232
909.735, 4424.418
911.001, 4350.930
912.267, 4401.461
913.533, 4359.010
914.799, 4186.585
916.064, 4148.176
917.330, 3832.787
918.595, 3665.423
919.860, 3616.083
921.124, 3276.768
922.389, 3015.474
923.653, 2782.207
924.918, 2608.959
926.182, 2502.731
927.445, 2355.522
928.709, 2188.333
929.972, 1996.164
931.236, 1963.011
932.499, 1871.878
933.761, 1650.767
935.024, 1727.673
936.286, 1706.596
937.549, 1567.538
938.811, 1695.497
940.073, 1646.472
941.334, 1742.466
942.596, 1778.476
943.857, 1784.502
945.118, 1835.545
946.379, 1947.606
947.640, 2092.684
948.900, 2134.779
950.161, 2253.888
951.421, 2293.013
952.681, 2396.154
953.940, 2378.310
955.200, 2402.481
956.459, 2423.668
957.719, 2376.870
958.978, 2327.086
960.236, 2199.316
961.495, 2220.560
962.753, 2029.818
964.012, 1890.088
965.270, 1871.371
966.527, 1765.666
967.785, 1701.972
969.043, 1652.291
970.300, 1525.619
971.557, 1528.956
972.814, 1540.303
974.071, 1509.658
975.327, 1433.022
976.583, 1559.393
977.840, 1490.770
979.095, 1415.154
980.351, 1515.544
981.607, 1514.940
982.862, 1501.341
984.117, 1585.748
985.372, 1449.985
986.627, 1474.652
987.882, 1455.907
989.136, 1444.601
990.390, 1462.010
991.644, 1431.042
992.898, 1397.685
994.152, 1366.981
995.405, 1363.587
996.659, 1318.104
997.912, 1358.101
999.165, 1413.519
1000.417, 1392.627
1001.670, 1408.579
1002.922, 1375.961
1004.174, 1401.582
1005.426, 1455.223
1006.678, 1491.201
1007.930, 1537.604
1009.181, 1583.477
1010.432, 1630.691
1011.683, 1677.738
1012.934, 1731.573
1014.185, 1789.141
1015.435, 1846.208
1016.685, 1867.944
1017.935, 1835.096
1019.185, 1890.950
1020.435, 1833.107
1021.684, 1865.318
1022.934, 1877.797
1024.183, 1812.144
1025.432, 1796.387
1026.680, 1728.757
1027.929, 1615.261
1029.177, 1536.341
1030.425, 1578.742
1031.673, 1363.168
1032.921, 1342.292
1034.169, 1198.499
1035.416, 1197.182
1036.663, 1079.200
1037.911, 1072.132
1039.157, 1021.608
1040.404, 1016.871
1041.650, 1089.549
1042.897, 1078.582
1044.143, 1098.215
1045.389, 1271.834
1046.634, 1244.438
1047.880, 1391.302
1049.125, 1523.915
1050.371, 1661.575
1051.615, 1700.321
1052.860, 1878.680
1054.105, 1910.302
1055.349, 1978.056
1056.593, 2167.446
1057.837, 2265.541
1059.081, 2276.715
1060.325, 2467.748
1061.568, 2539.955
1062.812, 2619.910
1064.055, 2727.175
1065.298, 2763.341
1066.540, 2773.534
1067.783, 2794.002
1069.025, 2866.235
1070.267, 2910.656
1071.509, 3003.412
1072.751, 3035.025
1073.993, 3072.521
1075.234, 3243.877
1076.475, 3095.099
1077.716, 3000.763
1078.957, 3081.000
1080.198, 3079.953
1081.438, 2992.271
1082.679, 3078.120
1083.919, 2909.133
1085.159, 3000.037
1086.398, 2965.309
1087.638, 2910.294
1088.877, 2873.222
1090.116, 2921.251
1091.355, 2921.199
1092.594, 2947.942
1093.833, 2876.901
1095.071, 2973.124
1096.309, 2978.124
1097.547, 2974.900
1098.785, 3099.611
1100.023, 3135.361
1101.260, 3263.088
1102.498, 3339.882
1103.735, 3411.607
1104.972, 3497.337
1106.208, 3564.977
1107.445, 3608.588
1108.681, 3843.067
1109.918, 3789.658
1111.154, 3879.188
1112.389, 3914.777
1113.625, 3840.194
1114.860, 3828.650
1116.096, 3843.131
1117.331, 3709.798
1118.566, 3622.094
1119.800, 3585.452
1121.035, 3357.877
1122.269, 3450.209
1123.503, 3335.731
1124.737, 3010.961
1125.971, 2823.316
1127.205, 2525.678
1128.438, 2327.155
1129.671, 2131.477
1130.904, 1999.972
1132.137, 1766.283
1133.370, 1658.413
1134.602, 1477.565
1135.834, 1324.670
1137.066, 1192.994
1138.298, 998.984
1139.530, 925.259
1140.762, 772.480
1141.993, 660.820
1143.224, 558.104
1144.455, 452.522
1145.686, 381.885
1146.917, 307.162
1148.147, 240.603
1149.377, 197.161
1150.607, 119.480
1151.837, 77.908
1153.067, 89.278
1154.296, 51.761
1155.526, 12.294
1156.755, 73.765
1157.984, 12.812
1159.213, 12.444
1160.441, 32.937
1161.670, 11.622
1162.898, 18.473
1164.126, 12.143
1165.354, 17.666
1166.581, 27.814
1167.809, 47.503
1169.036, 31.410
1170.263, 66.539
1171.490, 15.685
1172.717, 60.859
1173.943, 46.005
1175.170, 47.238
1176.396, 55.500
1177.622, 43.837
1178.848, 75.253
1180.073, 37.766
1181.299, 22.364
1182.524, 61.052
1183.749, 17.845
1184.974, 31.697
1186.199, 55.601
1187.423, 67.442
1188.648, 73.436
1189.872, 62.526
1191.096, 39.637
1192.320, 22.941
1193.543, 11.699
1194.767, 57.647
1195.990, 53.121
1197.213, 37.488
1198.436, 10.720
1199.659, 0.067
1200.881, 19.632
1202.104, 5.387
1203.326, 0.809
1204.548, 10.042
1205.770, 5.053
1206.991, 8.105
1208.213, 45.114
1209.434, 33.087
1210.655, 13.053
1211.876, 50.947
1213.096, 47.805
1214.317, 2.628
1215.537, 11.402
1216.757, 0.499
1217.977, 18.814
1219.197, 1.453
1220.417, 29.041
1221.636, 36.591
1222.855, 46.102
1224.074, 23.576
1225.293, 45.009
1226.512, 75.404
1227.731, 39.764
1228.949, 19.086
1230.167, 66.364
1231.385, 79.606
1232.603, 42.813
1233.820, 67.983
1235.038, 74.185
1236.255, 61.300
1237.472, 70.361
1238.689, 105.386
1239.906, 67.377
1241.122, 45.330
1242.338, 61.244
1243.555, 87.123
1244.771, 99.967
1245.986, 87.775
1247.202, 90.562
1248.417, 104.300
1249.633, 71.003
1250.848, 85.670
1252.063, 99.301
1253.277, 102.895
1254.492, 131.454
1255.706, 100.976
1256.920, 112.461
1258.134, 94.981
1259.348, 132.390
1260.562, 119.761
1261.775, 110.095
1262.988, 79.392
1264.201, 146.650
1265.414, 127.910
1266.627, 108.092
1267.839, 126.236
1269.052, 88.355
1270.264, 142.423
1271.476, 108.453
1272.688, 102.445
1273.899, 86.420
1275.111, 103.336
1276.322, 80.213
1277.533, 100.185
1278.744, 135.897
1279.955, 127.661
1281.165, 140.386
1282.376, 142.109
1283.586, 126.760
1284.796, 110.375
1286.006, 128.953
1287.215, 112.495
1288.425, 133.072
1289.634, 113.542
1290.843, 141.025
1292.052, 182.424
1293.261, 126.789
1294.469, 122.118
1295.678, 186.413
1296.886, 168.673
1298.094, 185.886
1299.302, 166.077
1300.509, 156.092
1301.717, 169.896
1302.924, 178.913
1304.131, 184.069
1305.338, 143.164
1306.545, 175.878
1307.752, 222.836
1308.958, 152.350
1310.164, 187.117
1311.370, 166.417
1312.576, 123.001
1313.782, 158.245
1314.987, 215.409
1316.193, 180.306
1317.398, 175.283
1318.603, 148.337
1319.807, 151.239
1321.012, 139.980
1322.216, 138.119
1323.421, 139.165
1324.625, 138.364
1325.829, 141.660
1327.032, 148.564
1328.236, 151.964
1329.439, 152.003
1330.642, 147.684
1331.845, 111.634
1333.048, 124.347
1334.251, 122.616
1335.453, 104.517
1336.656, 142.779
1337.858, 137.028
1339.060, 116.264
1340.261, 128.211
1341.463, 120.384
1342.664, 139.481
1343.866, 135.768
1345.067, 138.809
1346.267, 134.007
1347.468, 133.900
1348.669, 138.129
1349.869, 138.625
1351.069, 119.383
1352.269, 134.886
1353.469, 121.186
1354.668, 95.317
1355.868, 121.899
1357.067, 106.158
1358.266, 123.363
1359.465, 115.350
1360.664, 133.704
1361.862, 105.382
1363.061, 111.915
1364.259, 148.566
1365.457, 170.307
1366.655, 119.156
1367.852, 101.112
1369.050, 126.587
1370.247, 93.461
1371.444, 106.604
1372.641, 135.338
1373.838, 140.249
1375.035, 138.494
1376.231, 165.556
1377.427, 119.507
1378.623, 68.572
1379.819, 80.527
1381.015, 104.355
1382.211, 125.158
1383.406, 93.079
1384.601, 120.704
1385.796, 96.189
1386.991, 106.284
1388.185, 111.257
1389.380, 86.052
1390.574, 74.863
1391.768, 123.827
1392.962, 120.617
1394.156, 88.385
1395.350, 105.081
1396.543, 84.598
1397.736, 131.155
1398.929, 110.478
1400.122, 134.938
1401.315, 52.949
1402.507, 102.811
1403.700, 101.930
1404.892, 70.135
1406.084, 85.263
1407.276, 83.162
1408.467, 54.008
1409.659, 95.814
1410.850, 70.815
1412.041, 56.734
1413.232, 137.816
1414.423, 79.652
1415.614, 97.556
1416.804, 49.298
1417.994, 74.330
1419.184, 67.107
1420.374, 38.600
1421.564, 59.512
1422.753, 65.511
1423.943, 67.282
1425.132, 36.034
1426.321, 50.914
1427.510, 60.979
1428.698, 54.239
1429.887, 68.331
1431.075, 21.550
1432.263, 40.898
1433.451, 25.385
1434.639, 75.015
1435.827, 42.697
1437.014, 45.393
1438.201, 81.113
1439.388, 76.853
1440.575, 60.591
1441.762, 70.267
1442.949, 71.977
1444.135, 49.695
1445.321, 74.432
1446.507, 43.185
1447.693, 75.931
1448.879, 46.673
1450.064, 69.403
1451.250, 8.136
1452.435, 19.854
1453.620, 82.394
1454.805, 22.083
1455.989, 32.762
1457.174, 29.436
1458.358, 17.093
1459.542, 86.707
1460.726, 24.337
1461.910, 90.959
1463.093, 25.582
1464.277, 42.044
1465.460, 35.690
1466.643, 31.351
1467.826, 46.938
1469.009, 82.651
1470.191, 45.357
1471.373, 67.128
1472.556, 26.880
1473.738, 13.602
1474.919, 33.491
1476.101, 49.327
1477.283, 11.305
1478.464, 48.318
1479.645, 13.146
1480.826, 17.060
1482.007, 17.134
1483.187, 29.219
1484.368, 45.318
1485.548, 44.431
1486.728, 33.557
1487.908, 5.303
1489.088, 66.552
1490.268, 63.611
1491.447, 38.747
1492.626, 11.148
1493.805, 39.092
1494.984, 94.368
1496.163, 46.689
1497.341, 53.054
1498.520, 68.465
1499.698, 31.922
1500.876, 1.616
