##NAMES=Muscovite
##RRUFFID=R050188
##IDEAL CHEMISTRY=KAl_2_(Si_3_Al)O_10_(OH)_2_
##LOCALITY=Sapinero, near Blue Mesa Reservoir, Gunnison County, Colorado, USA
##OWNER=RRUFF
##SOURCE=Dave Bunk Minerals
##DESCRIPTION=Black pseudohexagonal crystal, polytype 2M1, associated with quartz
##STATUS=The identification of this mineral has been confirmed by X-ray diffraction and chemical analysis
##URL=rruff.info/R050188
##MEASURED CHEMISTRY=(K_0.91_Na_0.09_)(Al_0.86_Fe^3+^_0.06_Fe^2+^_0.04_Mg_0.03_Ti_0.01_)_2_(Si_0.78_Al_0.22_)_4_O_10_(OH)_2_
##PIN_ID=L00384
##ORIENTATION=Laser parallel to b* (0 1 0). Fiducial mark perpendicular to laser is parallel to c [0 0 1]
119.119, 0.000
120.508, 29.926
121.897, 37.586
123.286, 74.012
124.675, 63.742
126.063, 128.750
127.452, 74.353
128.840, 36.838
130.228, 26.358
131.615, 100.529
133.003, 2.699
134.390, 14.544
135.777, 62.866
137.164, 14.948
138.550, 34.875
139.937, 0.812
141.323, 56.670
142.709, 105.361
144.094, 16.811
145.480, 124.958
146.865, 171.834
148.250, 248.396
149.635, 237.580
151.019, 321.408
152.403, 346.605
153.788, 443.358
155.171, 481.553
156.555, 535.159
157.939, 585.146
159.322, 638.490
160.705, 743.167
162.088, 934.150
163.470, 1128.410
164.853, 1303.921
166.235, 1494.661
167.617, 1807.613
168.998, 2128.765
170.380, 2647.112
171.761, 3145.967
173.142, 3839.754
174.523, 4688.723
175.904, 5705.871
177.284, 6914.141
178.664, 8295.539
180.044, 10062.065
181.424, 11966.713
182.803, 13779.474
184.183, 15935.349
185.562, 18030.330
186.940, 19619.414
188.319, 21623.588
189.698, 22146.863
191.076, 22828.234
192.454, 22899.693
193.831, 22383.238
195.209, 21264.867
196.586, 19548.568
197.963, 17830.354
199.340, 15756.217
200.717, 14200.146
202.093, 12662.140
203.470, 11354.145
204.846, 10458.151
206.221, 9851.154
207.597, 9580.127
208.972, 8860.100
210.347, 8726.042
211.722, 8448.979
213.097, 8004.942
214.472, 7980.939
215.846, 7546.969
217.220, 7135.038
218.594, 6690.149
219.967, 6095.301
221.341, 5548.644
222.714, 5125.126
224.087, 4872.660
225.460, 4572.402
226.832, 4396.332
228.204, 4138.763
229.577, 4242.148
230.948, 4175.119
232.320, 4361.982
233.692, 4475.080
235.063, 4828.353
236.434, 5113.761
237.805, 5702.207
239.175, 6393.684
240.545, 7218.186
241.916, 8051.710
243.286, 9239.260
244.655, 10590.836
246.025, 12497.430
247.394, 14760.050
248.763, 17139.691
250.132, 20964.361
251.501, 24764.053
252.869, 29896.762
254.237, 35350.488
255.605, 40849.254
256.973, 46627.023
258.340, 49974.816
259.708, 51902.625
261.075, 50856.461
262.442, 47749.316
263.808, 42569.195
265.175, 36894.090
266.541, 31274.012
267.907, 25968.951
269.273, 21692.900
270.639, 17533.877
272.004, 14931.866
273.369, 12396.868
274.734, 10236.887
276.099, 8590.920
277.463, 7417.968
278.828, 6224.031
280.192, 5276.107
281.556, 4623.199
282.919, 3932.305
284.283, 3579.506
285.646, 2971.498
287.009, 2676.270
288.372, 2422.850
289.734, 2121.144
291.097, 1898.506
292.459, 1750.261
293.821, 1525.814
295.183, 1456.668
296.544, 1207.218
297.905, 1128.002
299.266, 1055.694
300.627, 939.870
301.988, 866.843
303.348, 735.905
304.709, 650.046
306.069, 636.275
307.428, 624.582
308.788, 567.961
310.147, 474.410
311.507, 359.924
312.865, 349.502
314.224, 263.138
315.583, 177.832
316.941, 178.580
318.299, 61.379
319.657, 109.228
321.015, 4.875
322.372, 9.065
323.729, 24.949
325.086, 91.924
326.443, 145.873
327.800, 64.729
329.156, 183.633
330.512, 173.520
331.868, 29.503
333.224, 41.873
334.579, 54.640
335.935, 157.682
337.290, 44.464
338.645, 366.339
339.999, 45.176
341.354, 14.687
342.708, 29.987
344.062, 66.221
345.416, 174.758
346.769, 230.343
348.123, 314.171
349.476, 401.806
350.829, 511.876
352.182, 577.652
353.534, 720.364
354.887, 733.182
356.239, 843.658
357.591, 901.271
358.942, 1011.776
360.294, 984.294
361.645, 1096.825
362.996, 1118.369
364.347, 1156.925
365.698, 1302.492
367.048, 1342.073
368.398, 1289.665
369.748, 1422.269
371.098, 1347.885
372.448, 1437.514
373.797, 1466.155
375.146, 1543.810
376.495, 1600.717
377.844, 1520.155
379.192, 1704.847
380.540, 1707.551
381.889, 1728.268
383.236, 1980.996
384.584, 2101.734
385.932, 2296.459
387.279, 2378.142
388.626, 2238.750
389.973, 2325.351
391.319, 2523.954
392.666, 2617.567
394.012, 2850.179
395.358, 3045.800
396.704, 3388.429
398.049, 3643.065
399.394, 3929.209
400.740, 4295.860
402.084, 4516.631
403.429, 4822.397
404.774, 5236.065
406.118, 5434.738
407.462, 5497.418
408.806, 5666.103
410.150, 5682.718
411.493, 5729.415
412.836, 5609.117
414.179, 5326.823
415.522, 5279.564
416.865, 4997.282
418.207, 4684.003
419.549, 4460.729
420.891, 4222.460
422.233, 3914.195
423.575, 3557.934
424.916, 3386.678
426.257, 3193.426
427.598, 3036.178
428.939, 2858.933
430.279, 2671.828
431.619, 2457.222
432.959, 2284.223
434.299, 2035.993
435.639, 1804.767
436.978, 1675.544
438.318, 1405.324
439.657, 1291.608
440.996, 1206.896
442.334, 1052.686
443.673, 951.479
445.011, 879.274
446.349, 764.079
447.687, 757.893
449.024, 621.717
450.361, 509.552
451.699, 511.400
453.036, 435.260
454.372, 402.134
455.709, 371.413
457.045, 337.927
458.381, 314.842
459.717, 270.771
461.053, 270.709
462.388, 256.674
463.724, 279.647
465.059, 263.646
466.394, 235.618
467.728, 241.615
469.063, 237.619
470.397, 210.628
471.731, 270.645
473.065, 187.667
474.398, 249.695
475.732, 181.729
477.065, 213.768
478.398, 222.811
479.731, 231.858
481.063, 140.910
482.396, 167.875
483.728, 172.935
485.060, 75.528
486.391, 132.751
487.723, 38.328
489.054, 123.646
490.385, 35.106
491.716, 62.875
493.047, 30.469
494.377, 58.460
495.708, 51.022
497.038, 136.088
498.368, 187.235
499.697, 115.489
501.027, 74.391
502.356, 112.764
503.685, 127.205
505.014, 115.722
506.342, 84.309
507.671, 71.950
508.999, 68.639
510.327, 75.374
511.655, 14.843
512.982, 17.056
514.310, 14.266
515.637, 104.473
516.964, 21.681
518.291, 117.887
519.617, 87.097
520.944, 120.308
522.270, 247.521
523.596, 239.746
524.921, 211.972
526.247, 307.208
527.572, 325.450
528.897, 427.701
530.222, 396.968
531.547, 485.237
532.871, 430.514
534.196, 420.821
535.520, 478.160
536.844, 301.507
538.167, 346.880
539.491, 325.270
540.814, 189.683
542.137, 223.109
543.460, 197.540
544.783, 106.979
546.105, 93.430
547.427, 25.891
548.749, 33.366
550.071, 39.857
551.393, 55.359
552.714, 51.870
554.035, 35.382
555.356, 44.896
556.677, 35.399
557.998, 6.947
559.318, 30.469
560.638, 18.996
561.958, 19.521
563.278, 82.060
564.597, 48.600
565.917, 99.155
567.236, 62.716
568.555, 0.722
569.874, 141.830
571.192, 101.383
572.511, 131.936
573.829, 23.491
575.147, 216.045
576.464, 185.599
577.782, 186.154
579.099, 201.711
580.416, 249.271
581.733, 294.831
583.050, 299.391
584.366, 429.953
585.683, 404.515
586.999, 458.077
588.315, 542.642
589.630, 540.208
590.946, 604.642
592.261, 678.341
593.576, 677.907
594.891, 794.475
596.206, 823.048
597.520, 878.621
598.834, 977.195
600.148, 1002.769
601.462, 1138.343
602.776, 1071.918
604.089, 1136.492
605.402, 1167.067
606.715, 1385.643
608.028, 1344.218
609.341, 1438.793
610.653, 1522.368
611.965, 1552.943
613.277, 1629.518
614.589, 1665.093
615.901, 1757.667
617.212, 1970.241
618.523, 2063.815
619.834, 2149.207
621.145, 2288.739
622.456, 2303.534
623.766, 2492.104
625.076, 2630.674
626.386, 2731.244
627.696, 2697.812
629.006, 2941.381
630.315, 2832.948
631.624, 3049.514
632.933, 3157.080
634.242, 3041.644
635.551, 3205.207
636.859, 3190.769
638.167, 3280.330
639.475, 3288.668
640.783, 3132.449
642.090, 3267.008
643.398, 3109.568
644.705, 3081.141
646.012, 3056.659
647.318, 3015.263
648.625, 3054.884
649.931, 2945.637
651.237, 2918.392
652.543, 2855.414
653.849, 2982.960
655.155, 2798.149
656.460, 2938.114
657.765, 2873.571
659.070, 2838.675
660.375, 2946.365
661.679, 2890.146
662.984, 2906.647
664.288, 2900.121
665.592, 3015.375
666.895, 3027.844
668.199, 3111.896
669.502, 3208.266
670.805, 3505.719
672.108, 3584.085
673.411, 3753.812
674.713, 4164.423
676.016, 4297.229
677.318, 4680.970
678.620, 4915.715
679.921, 5340.601
681.223, 5911.355
682.524, 6240.007
683.825, 7119.287
685.126, 7784.706
686.427, 8532.951
687.727, 9411.727
689.028, 10330.803
690.328, 11787.349
691.628, 13096.469
692.927, 14700.269
694.227, 15924.977
695.526, 18316.258
696.825, 19684.186
698.124, 21054.496
699.423, 22239.260
700.721, 22414.230
702.020, 21728.477
703.318, 20681.490
704.616, 18678.959
705.913, 16986.150
707.211, 15154.110
708.508, 13073.281
709.805, 10965.116
711.102, 9744.970
712.399, 8339.528
713.695, 7362.047
714.992, 6313.355
716.288, 5641.738
717.584, 5126.433
718.879, 4560.523
720.175, 4363.440
721.470, 3922.190
722.765, 3722.876
724.060, 3563.757
725.355, 3455.642
726.649, 3334.453
727.944, 3468.263
729.238, 3419.062
730.532, 3460.853
731.825, 3535.663
733.119, 3587.474
734.412, 3683.360
735.705, 3905.531
736.998, 4239.340
738.291, 4433.151
739.584, 4765.962
740.876, 5054.772
742.168, 5167.583
743.460, 5403.667
744.752, 5638.478
746.043, 5911.290
747.334, 5791.100
748.626, 5683.910
749.916, 5861.721
751.207, 5628.539
752.498, 5598.349
753.788, 5270.159
755.078, 5075.968
756.368, 4860.777
757.658, 4473.587
758.947, 4343.396
760.237, 3858.205
761.526, 3529.014
762.815, 3185.822
764.104, 2929.631
765.392, 2625.438
766.680, 2312.247
767.969, 2268.055
769.257, 1887.861
770.544, 1829.669
771.832, 1632.476
773.119, 1473.283
774.406, 1447.090
775.693, 1193.896
776.980, 1196.703
778.267, 1170.509
779.553, 1063.315
780.839, 991.122
782.125, 949.928
783.411, 941.733
784.697, 911.539
785.982, 933.345
787.267, 914.150
788.552, 842.955
789.837, 874.760
791.122, 885.564
792.406, 912.369
793.690, 873.173
794.974, 844.977
796.258, 818.781
797.542, 724.584
798.825, 795.388
800.108, 663.191
801.391, 685.995
802.674, 613.798
803.957, 519.602
805.239, 650.426
806.522, 421.265
807.804, 450.124
809.085, 440.000
810.367, 303.918
811.649, 258.891
812.930, 304.898
814.211, 239.931
815.492, 276.998
816.772, 230.103
818.053, 166.243
819.333, 132.410
820.613, 181.601
821.893, 211.814
823.173, 119.052
824.452, 193.291
825.732, 81.531
827.011, 146.772
828.290, 120.012
829.568, 1.252
830.847, 176.488
832.125, 84.723
833.403, 32.044
834.681, 22.167
835.959, 27.624
837.236, 5.434
838.514, 23.252
839.791, 52.089
841.068, 31.041
842.345, 16.831
843.621, 103.718
844.898, 112.665
846.174, 11.678
847.450, 89.703
848.726, 50.783
850.001, 76.896
851.277, 35.056
852.552, 10.241
853.827, 13.439
855.102, 33.651
856.376, 29.888
857.651, 37.118
858.925, 48.431
860.199, 28.748
861.473, 16.087
862.746, 17.558
864.020, 13.956
865.293, 22.155
866.566, 5.529
867.839, 43.086
869.112, 3.297
870.384, 48.311
871.656, 48.083
872.928, 7.492
874.200, 40.936
875.472, 8.054
876.744, 11.318
878.015, 53.681
879.286, 62.239
880.557, 41.811
881.828, 72.393
883.098, 39.987
884.369, 31.580
885.639, 69.171
886.909, 11.760
888.178, 0.350
889.448, 78.945
890.717, 38.540
891.987, 80.145
893.256, 63.750
894.524, 97.354
895.793, 1.956
897.061, 40.550
898.330, 31.144
899.598, 120.735
900.865, 36.324
902.133, 146.912
903.401, 9.503
904.668, 86.069
905.935, 94.639
907.202, 120.206
908.468, 129.772
909.735, 80.336
911.001, 87.897
912.267, 47.456
913.533, 114.017
914.799, 71.577
916.064, 88.072
917.330, 46.706
918.595, 83.275
919.860, 156.846
921.124, 126.423
922.389, 158.017
923.653, 186.606
924.918, 198.193
926.182, 192.777
927.445, 171.360
928.709, 124.943
929.972, 175.524
931.236, 143.103
932.499, 193.680
933.761, 179.253
935.024, 170.825
936.286, 254.394
937.549, 181.961
938.811, 227.525
940.073, 185.087
941.334, 213.650
942.596, 218.215
943.857, 269.777
945.118, 227.335
946.379, 200.892
947.640, 299.448
948.900, 270.002
950.161, 308.552
951.421, 297.100
952.681, 383.644
953.940, 266.185
955.200, 288.723
956.459, 362.259
957.719, 372.792
958.978, 369.322
960.236, 320.849
961.495, 382.372
962.753, 372.891
964.012, 298.406
965.270, 389.917
966.527, 423.423
967.785, 409.926
969.043, 466.424
970.300, 494.917
971.557, 545.405
972.814, 533.888
974.071, 595.366
975.327, 483.840
976.583, 537.309
977.840, 593.771
979.095, 545.229
980.351, 639.683
981.607, 720.065
982.862, 641.513
984.117, 843.956
985.372, 700.260
986.627, 781.693
987.882, 863.230
989.136, 795.137
990.390, 917.905
991.644, 878.844
992.898, 931.255
994.152, 1029.367
995.405, 1019.006
996.659, 1110.064
997.912, 1089.446
999.165, 1179.916
1000.417, 1181.814
1001.670, 1335.062
1002.922, 1280.924
1004.174, 1400.334
1005.426, 1380.567
1006.678, 1397.488
1007.930, 1559.862
1009.181, 1462.648
1010.432, 1574.619
1011.683, 1574.900
1012.934, 1628.889
1014.185, 1788.209
1015.435, 1828.589
1016.685, 1784.198
1017.935, 1901.830
1019.185, 1948.169
1020.435, 1974.934
1021.684, 2153.268
1022.934, 2385.217
1024.183, 2285.521
1025.432, 2296.021
1026.680, 2233.661
1027.929, 2416.011
1029.177, 2317.342
1030.425, 2514.219
1031.673, 2529.470
1032.921, 2527.047
1034.169, 2592.542
1035.416, 2692.925
1036.663, 2806.402
1037.911, 2985.430
1039.157, 3212.496
1040.404, 3418.006
1041.650, 3812.531
1042.897, 4032.065
1044.143, 4334.747
1045.389, 4773.127
1046.634, 5103.144
1047.880, 5504.627
1049.125, 5854.007
1050.371, 6332.467
1051.615, 6545.880
1052.860, 7082.265
1054.105, 7239.526
1055.349, 7485.897
1056.593, 7671.206
1057.837, 8039.605
1059.081, 7993.077
1060.325, 8189.353
1061.568, 8053.762
1062.812, 8154.081
1064.055, 8025.476
1065.298, 7990.666
1066.540, 7807.028
1067.783, 7524.401
1069.025, 7549.358
1070.267, 7254.727
1071.509, 6895.135
1072.751, 7039.337
1073.993, 6688.559
1075.234, 6548.751
1076.475, 6286.227
1077.716, 6095.225
1078.957, 5934.535
1080.198, 5721.562
1081.438, 5527.171
1082.679, 5368.445
1083.919, 5108.792
1085.159, 4943.128
1086.398, 4651.392
1087.638, 4479.694
1088.877, 4232.979
1090.116, 4025.033
1091.355, 3808.252
1092.594, 3616.372
1093.833, 3333.618
1095.071, 3099.775
1096.309, 3017.659
1097.547, 2653.907
1098.785, 2515.028
1100.023, 2334.115
1101.260, 2250.232
1102.498, 1968.308
1103.735, 1907.694
1104.972, 1746.758
1106.208, 1640.119
1107.445, 1505.391
1108.681, 1427.441
1109.918, 1319.271
1111.154, 1220.634
1112.389, 1134.663
1113.625, 1025.813
1114.860, 935.849
1116.096, 908.166
1117.331, 841.281
1118.566, 740.281
1119.800, 735.393
1121.035, 708.473
1122.269, 725.454
1123.503, 677.429
1124.737, 654.914
1125.971, 591.999
1127.205, 534.069
1128.438, 488.332
1129.671, 387.441
1130.904, 406.594
1132.137, 421.815
1133.370, 324.185
1134.602, 296.192
1135.834, 240.261
1137.066, 215.767
1138.298, 194.435
1139.530, 188.067
1140.762, 187.080
1141.993, 161.096
1143.224, 136.025
1144.455, 108.007
1145.686, 119.984
1146.917, 126.961
1148.147, 107.957
1149.377, 96.245
1150.607, 147.086
1151.837, 69.161
1153.067, 39.186
1154.296, 76.368
1155.526, 0.397
1156.755, 24.740
1157.984, 84.462
1159.213, 29.506
1160.441, 61.552
1161.670, 62.784
1162.898, 15.176
1164.126, 46.847
1165.354, 68.872
1166.581, 87.113
1167.809, 100.333
1169.036, 82.868
1170.263, 96.021
1171.490, 35.035
1172.717, 28.042
1173.943, 9.053
1175.170, 45.453
1176.396, 43.937
1177.622, 52.537
1178.848, 42.455
1180.073, 47.584
1181.299, 13.343
1182.524, 4.170
1183.749, 89.987
1184.974, 7.905
1186.199, 43.698
1187.423, 12.066
1188.648, 45.178
1189.872, 8.542
1191.096, 0.252
1192.320, 39.953
1193.543, 61.654
1194.767, 14.341
1195.990, 38.062
1197.213, 18.732
1198.436, 28.394
1199.659, 35.093
1200.881, 86.833
1202.104, 36.476
1203.326, 51.115
1204.548, 28.743
1205.770, 12.362
1206.991, 56.972
1208.213, 23.575
1209.434, 9.830
1210.655, 25.747
1211.876, 23.684
1213.096, 31.860
1214.317, 26.604
1215.537, 4.092
1216.757, 26.596
1217.977, 59.118
1219.197, 66.317
1220.417, 59.746
1221.636, 85.168
1222.855, 6.583
1224.074, 5.011
1225.293, 34.381
1226.512, 16.767
1227.731, 44.144
1228.949, 39.514
1230.167, 20.876
1231.385, 22.230
1232.603, 38.577
1233.820, 27.917
1235.038, 31.250
1236.255, 6.427
1237.472, 9.119
1238.689, 74.169
1239.906, 35.450
1241.122, 55.721
1242.338, 4.016
1243.555, 31.237
1244.771, 60.481
1245.986, 68.719
1247.202, 58.948
1248.417, 115.170
1249.633, 5.385
1250.848, 96.591
1252.063, 6.790
1253.277, 16.979
1254.492, 67.158
1255.706, 40.330
1256.920, 86.493
1258.134, 70.592
1259.348, 37.779
1260.562, 63.908
1261.775, 7.028
1262.988, 42.136
1264.201, 99.235
1265.414, 40.328
1266.627, 46.412
1267.839, 71.489
1269.052, 0.558
1270.264, 136.616
1271.476, 39.667
1272.688, 41.710
1273.899, 6.744
1275.111, 9.756
1276.322, 18.781
1277.533, 9.779
1278.744, 1.767
1279.955, 50.743
1281.165, 34.711
1282.376, 20.670
1283.586, 40.621
1284.796, 2.438
1286.006, 50.479
1287.215, 48.387
1288.425, 113.288
1289.634, 62.182
1290.843, 108.069
1292.052, 73.947
1293.261, 81.819
1294.469, 44.683
1295.678, 110.540
1296.886, 57.389
1298.094, 86.230
1299.302, 31.031
1300.509, 152.857
1301.717, 76.452
1302.924, 80.166
1304.131, 109.971
1305.338, 76.688
1306.545, 24.479
1307.752, 89.262
1308.958, 106.960
1310.164, 87.713
1311.370, 17.475
1312.576, 105.228
1313.782, 42.975
1314.987, 4.285
1316.193, 117.444
1317.398, 98.090
1318.603, 87.697
1319.807, 0.218
1321.012, 118.826
1322.216, 96.513
1323.421, 16.646
1324.625, 101.397
1325.829, 31.812
1327.032, 173.301
1328.236, 154.724
1329.439, 1.618
1330.642, 37.763
1331.845, 124.760
1333.048, 117.192
1334.251, 71.602
1335.453, 49.993
1336.656, 71.231
1337.858, 44.761
1339.060, 48.375
1340.261, 36.791
1341.463, 71.302
1342.664, 57.139
1343.866, 15.190
1345.067, 44.679
1346.267, 66.277
1347.468, 45.766
1348.669, 65.312
1349.869, 106.763
1351.069, 61.135
1352.269, 121.702
1353.469, 99.127
1354.668, 103.640
1355.868, 91.074
1357.067, 55.710
1358.266, 100.170
1359.465, 140.705
1360.664, 93.565
1361.862, 150.724
1363.061, 121.132
1364.259, 148.745
1365.457, 131.341
1366.655, 86.350
1367.852, 128.238
1369.050, 148.666
1370.247, 149.670
1371.444, 70.507
1372.641, 94.643
1373.838, 77.369
1375.035, 58.445
1376.231, 74.203
1377.427, 96.203
1378.623, 110.521
1379.819, 80.807
1381.015, 141.131
1382.211, 186.942
1383.406, 95.477
1384.601, 233.290
1385.796, 175.741
1386.991, 73.326
1388.185, 85.605
1389.380, 140.880
1390.574, 91.706
1391.768, 118.455
1392.962, 108.077
1394.156, 92.261
1395.350, 145.663
1396.543, 86.937
1397.736, 96.854
1398.929, 174.194
1400.122, 97.170
1401.315, 83.027
1402.507, 105.594
1403.700, 143.731
1404.892, 51.731
1406.084, 90.157
1407.276, 114.395
1408.467, 77.688
1409.659, 80.003
1410.850, 109.178
1412.041, 72.405
1413.232, 156.476
1414.423, 88.738
1415.614, 125.987
1416.804, 162.979
1417.994, 152.212
1419.184, 139.138
1420.374, 210.143
1421.564, 99.319
1422.753, 164.805
1423.943, 146.005
1425.132, 47.018
1426.321, 140.199
1427.510, 156.070
1428.698, 134.813
1429.887, 173.125
1431.075, 55.455
1432.263, 185.764
1433.451, 127.016
1434.639, 164.117
1435.827, 197.404
1437.014, 257.690
1438.201, 211.977
1439.388, 249.256
1440.575, 233.544
1441.762, 308.853
1442.949, 304.190
1444.135, 278.563
1445.321, 356.959
1446.507, 233.348
1447.693, 281.739
1448.879, 244.125
1450.064, 253.504
1451.250, 233.876
1452.435, 385.239
1453.620, 307.633
1454.805, 282.042
1455.989, 386.453
1457.174, 200.863
1458.358, 277.273
1459.542, 285.682
1460.726, 291.093
1461.910, 280.514
1463.093, 219.958
1464.277, 232.440
1465.460, 293.944
1466.643, 193.466
1467.826, 305.995
1469.009, 199.537
1470.191, 156.090
1471.373, 198.662
1472.556, 245.269
1473.738, 202.918
1474.919, 150.597
1476.101, 135.306
1477.283, 105.131
1478.464, 78.978
1479.645, 190.855
1480.826, 104.763
1482.007, 176.702
1483.187, 174.675
1484.368, 154.681
1485.548, 145.720
1486.728, 78.795
1487.908, 127.912
1489.088, 99.712
1490.268, 165.281
1491.447, 121.542
1492.626, 134.860
1493.805, 192.241
1494.984, 156.689
1496.163, 64.207
1497.341, 111.801
1498.520, 111.480
1499.698, 220.250
1500.876, 31.111
1502.054, 83.067
1503.232, 21.874
1504.409, 81.298
1505.586, 79.594
1506.763, 120.028
1507.940, 77.614
1509.117, 150.370
1510.294, 26.312
1511.470, 42.464
1512.647, 85.774
1513.823, 98.256
1514.999, 116.840
1516.174, 29.737
1517.350, 94.679
1518.526, 0.952
1519.701, 108.436
1520.876, 119.116
1522.051, 15.941
1523.226, 0.000
##END=



