##NAMES=Muscovite
##RRUFFID=R050188
##IDEAL CHEMISTRY=KAl_2_(Si_3_Al)O_10_(OH)_2_
##LOCALITY=Sapinero, near Blue Mesa Reservoir, Gunnison County, Colorado, USA
##OWNER=RRUFF
##SOURCE=Dave Bunk Minerals
##DESCRIPTION=Black pseudohexagonal crystal, polytype 2M1, associated with quartz
##STATUS=The identification of this mineral has been confirmed by X-ray diffraction and chemical analysis
##URL=rruff.info/R050188
##MEASURED CHEMISTRY=(K_0.91_Na_0.09_)(Al_0.86_Fe^3+^_0.06_Fe^2+^_0.04_Mg_0.03_Ti_0.01_)_2_(Si_0.78_Al_0.22_)_4_O_10_(OH)_2_
##PIN_ID=L00510
##ORIENTATION=Laser parallel to a* (1 0 0). Fiducial mark perpendicular to laser is parallel to -b [0 -1 0]
135.777, 0.000
137.164, 34.838
138.550, 105.547
139.937, 83.833
141.323, 24.512
142.709, 14.769
144.094, 12.182
145.480, 31.913
146.865, 74.829
148.250, 124.420
149.635, 175.248
151.019, 254.601
152.403, 297.755
153.788, 335.039
155.171, 538.875
156.555, 504.776
157.939, 595.327
159.322, 787.180
160.705, 1006.299
162.088, 1196.979
163.470, 1338.039
164.853, 1491.085
166.235, 1615.803
167.617, 1903.937
168.998, 1969.280
170.380, 2287.662
171.761, 2571.941
173.142, 3205.997
174.523, 3802.729
175.904, 4518.051
177.284, 5525.891
178.664, 6669.176
180.044, 8117.843
181.424, 9536.845
182.803, 10890.204
184.183, 12593.570
185.562, 14340.527
186.940, 15486.429
188.319, 16937.959
189.698, 17493.293
191.076, 18254.246
192.454, 18478.857
193.831, 18153.158
195.209, 17605.174
196.586, 16397.922
197.963, 15337.434
199.340, 13955.713
200.717, 12812.783
202.093, 11565.653
203.470, 10334.336
204.846, 9514.846
206.221, 8991.185
207.597, 8588.362
208.972, 7785.383
210.347, 7423.255
211.722, 6988.984
213.097, 6557.575
214.472, 6518.034
215.846, 6170.363
217.220, 5883.569
218.594, 5450.627
219.967, 5029.475
221.341, 4468.149
222.714, 3951.692
224.087, 3643.147
225.460, 3278.542
226.832, 3059.893
228.204, 2766.216
229.577, 2753.760
230.948, 2758.833
232.320, 2869.826
233.692, 3081.486
235.063, 3393.335
236.434, 3769.041
237.805, 4263.800
239.175, 4843.992
240.545, 5780.555
241.916, 6694.688
243.286, 7855.121
244.655, 9319.783
246.025, 11004.623
247.394, 13285.577
248.763, 15760.566
250.132, 19268.588
251.501, 22734.637
252.869, 27383.703
254.237, 31966.787
255.605, 36711.895
256.973, 41614.020
258.340, 44322.148
259.708, 46443.285
261.075, 46333.445
262.442, 44896.605
263.808, 41486.777
265.175, 37514.957
266.541, 32927.129
267.907, 27840.299
269.273, 23845.441
270.639, 19286.555
272.004, 16287.640
273.369, 13678.685
274.734, 11085.698
276.099, 9183.678
277.463, 7791.624
278.828, 6420.533
280.192, 5286.410
281.556, 4607.253
282.919, 3851.063
284.283, 3308.839
285.646, 2748.581
287.009, 2362.289
288.372, 2161.964
289.734, 1745.605
291.097, 1543.213
292.459, 1434.786
293.821, 1207.327
295.183, 1096.834
296.544, 896.308
297.905, 880.749
299.266, 725.156
300.627, 688.002
301.988, 701.321
303.348, 598.980
304.709, 551.251
306.069, 517.820
307.428, 434.091
308.788, 456.608
310.147, 446.609
311.507, 368.906
312.865, 278.461
314.224, 198.244
315.583, 177.840
316.941, 194.389
318.299, 129.708
319.657, 119.166
321.015, 43.748
322.372, 22.461
323.729, 54.611
325.086, 148.504
326.443, 261.238
327.800, 195.672
329.156, 306.858
330.512, 230.908
331.868, 249.233
333.224, 260.934
334.579, 248.306
335.935, 216.100
337.290, 239.662
338.645, 145.689
339.999, 184.053
341.354, 74.588
342.708, 39.774
344.062, 30.125
345.416, 135.846
346.769, 243.114
348.123, 322.920
349.476, 509.552
350.829, 673.278
352.182, 856.151
353.534, 960.907
354.887, 1153.956
356.239, 1343.771
357.591, 1449.271
358.942, 1612.325
360.294, 1876.203
361.645, 1990.160
362.996, 2262.949
364.347, 2423.696
365.698, 2719.399
367.048, 2812.062
368.398, 3036.685
369.748, 3296.267
371.098, 3389.810
372.448, 3634.313
373.797, 3674.780
375.146, 3863.209
376.495, 3963.602
377.844, 3922.959
379.192, 4112.281
380.540, 3951.567
381.889, 3914.821
383.236, 4106.042
384.584, 4007.229
385.932, 4059.585
387.279, 4170.711
388.626, 4335.948
389.973, 4314.013
391.319, 4542.171
392.666, 4696.163
394.012, 5053.166
395.358, 5491.725
396.704, 5724.131
398.049, 6200.317
399.394, 6496.018
400.740, 7071.698
402.084, 7408.054
403.429, 7860.390
404.774, 8321.551
406.118, 8610.695
407.462, 8785.819
408.806, 9120.921
410.150, 9113.057
411.493, 9371.116
412.836, 9101.154
414.179, 8775.170
415.522, 8844.164
416.865, 8370.134
418.207, 7945.080
419.549, 7586.007
420.891, 7293.908
422.233, 6717.788
423.575, 6269.645
424.916, 6093.476
426.257, 5636.286
427.598, 5381.070
428.939, 5080.832
430.279, 4548.571
431.619, 4236.284
432.959, 3952.975
434.299, 3828.643
435.639, 3362.285
436.978, 3150.905
438.318, 2801.502
439.657, 2664.076
440.996, 2450.626
442.334, 2100.152
443.673, 1921.656
445.011, 1761.137
446.349, 1505.595
447.687, 1475.030
449.024, 1335.442
450.361, 1144.832
451.699, 1017.199
453.036, 953.543
454.372, 879.865
455.709, 784.342
457.045, 755.443
458.381, 623.698
459.717, 619.931
461.053, 553.142
462.388, 599.346
463.724, 592.540
465.059, 523.722
466.394, 545.890
467.728, 551.046
469.063, 486.183
470.397, 560.300
471.731, 556.393
473.065, 457.461
474.398, 544.503
475.732, 415.518
477.065, 525.504
478.398, 450.539
479.731, 422.389
481.063, 398.284
482.396, 363.092
483.728, 334.345
485.060, 302.018
486.391, 267.667
487.723, 217.133
489.054, 184.213
490.385, 154.888
491.716, 102.824
493.047, 65.425
494.377, 18.178
495.708, 32.514
497.038, 108.495
498.368, 158.430
499.697, 80.044
501.027, 85.446
502.356, 159.357
503.685, 116.630
505.014, 195.081
506.342, 172.656
507.671, 134.352
508.999, 53.169
510.327, 72.065
511.655, 76.049
512.982, 12.123
514.310, 66.251
515.637, 0.462
516.964, 53.279
518.291, 121.990
519.617, 171.881
520.944, 121.336
522.270, 242.972
523.596, 281.609
524.921, 250.251
526.247, 319.893
527.572, 280.537
528.897, 445.190
530.222, 414.847
531.547, 514.528
532.871, 419.238
534.196, 427.985
535.520, 484.771
536.844, 401.575
538.167, 420.409
539.491, 307.263
540.814, 380.139
542.137, 270.049
543.460, 261.959
544.783, 84.882
546.105, 147.830
547.427, 96.775
548.749, 155.712
550.071, 99.660
551.393, 156.613
552.714, 86.547
554.035, 129.459
555.356, 89.354
556.677, 72.227
557.998, 150.084
559.318, 70.926
560.638, 102.751
561.958, 84.561
563.278, 131.355
564.597, 125.136
565.917, 119.902
567.236, 135.655
568.555, 104.394
569.874, 190.119
571.192, 141.830
572.511, 218.527
573.829, 218.211
575.147, 260.882
576.464, 235.539
577.782, 235.183
579.099, 238.814
580.416, 267.432
581.733, 332.038
583.050, 374.629
584.366, 441.209
585.683, 412.776
586.999, 451.329
588.315, 655.871
589.630, 632.399
590.946, 771.916
592.261, 815.419
593.576, 809.911
594.891, 919.391
596.206, 1057.858
597.520, 1104.314
598.834, 1192.758
600.148, 1268.190
601.462, 1350.610
602.776, 1455.913
604.089, 1531.416
605.402, 1672.801
606.715, 1758.175
608.028, 1869.538
609.341, 2032.890
610.653, 2204.230
611.965, 2219.560
613.277, 2307.878
614.589, 2488.186
615.901, 2702.483
617.212, 2807.770
618.523, 2959.045
619.834, 3107.310
621.145, 3185.564
622.456, 3351.809
623.766, 3496.042
625.076, 3604.265
626.386, 3935.478
627.696, 3802.681
629.006, 4199.873
630.315, 4183.055
631.624, 4308.227
632.933, 4604.389
634.242, 4503.541
635.551, 4635.684
636.859, 4524.815
638.167, 4681.939
639.475, 4585.054
640.783, 4618.137
642.090, 4595.097
643.398, 4487.959
644.705, 4347.729
646.012, 4425.252
647.318, 4410.577
648.625, 4269.800
649.931, 4209.334
651.237, 4215.296
652.543, 4167.890
653.849, 4154.952
655.155, 3980.794
656.460, 4111.109
657.765, 3830.769
659.070, 3877.603
660.375, 3975.088
661.679, 3863.487
662.984, 3880.064
664.288, 3918.090
665.592, 4023.564
666.895, 3976.184
668.199, 4043.666
669.502, 4091.954
670.805, 4447.308
672.108, 4452.323
673.411, 4724.659
674.713, 5074.135
676.016, 5178.289
677.318, 5600.765
678.620, 6015.911
679.921, 6268.488
681.223, 6910.916
682.524, 7415.060
683.825, 8333.121
685.126, 9192.293
686.427, 9946.311
687.727, 11139.019
689.028, 12257.094
690.328, 13831.102
691.628, 15700.354
692.927, 17252.457
694.227, 18731.762
695.526, 21806.119
696.825, 23170.424
698.124, 24716.447
699.423, 25945.936
700.721, 26362.961
702.020, 25942.754
703.318, 25003.994
704.616, 22697.977
705.913, 20980.896
707.211, 19148.285
708.508, 16728.541
709.805, 14265.721
711.102, 12750.049
712.399, 10832.852
713.695, 9629.137
714.992, 8253.309
716.288, 7325.042
717.584, 6621.920
718.879, 5811.690
720.175, 5527.611
721.470, 5043.524
722.765, 4746.432
724.060, 4572.334
725.355, 4244.176
726.649, 4131.067
727.944, 4157.952
729.238, 3960.833
730.532, 4260.707
731.825, 4226.578
733.119, 4305.440
734.412, 4416.300
735.705, 4782.153
736.998, 5052.003
738.291, 5282.848
739.584, 5633.687
740.876, 5936.521
742.168, 6194.351
743.460, 6387.176
744.752, 6629.995
746.043, 6953.811
747.334, 6950.623
748.626, 6858.432
749.916, 7015.232
751.207, 6756.031
752.498, 6799.826
753.788, 6378.617
755.078, 6273.402
756.368, 5968.186
757.658, 5681.963
758.947, 5401.736
760.237, 4856.507
761.526, 4540.275
762.815, 4071.037
764.104, 3876.797
765.392, 3501.553
766.680, 3110.304
767.969, 2877.052
769.257, 2553.798
770.544, 2457.538
771.832, 2131.276
773.119, 2003.010
774.406, 1855.740
775.693, 1645.467
776.980, 1599.191
778.267, 1570.912
779.553, 1489.628
780.839, 1374.342
782.125, 1476.053
783.411, 1321.761
784.697, 1280.465
785.982, 1344.167
787.267, 1280.864
788.552, 1184.559
789.837, 1208.251
791.122, 1192.940
792.406, 1163.626
793.690, 1175.309
794.974, 1143.717
796.258, 1155.667
797.542, 1075.342
798.825, 1015.015
800.108, 922.688
801.391, 890.359
802.674, 831.032
803.957, 769.707
805.239, 771.385
806.522, 605.072
807.804, 564.772
809.085, 564.498
810.367, 423.267
811.649, 388.089
812.930, 339.942
814.211, 253.825
815.492, 253.756
816.772, 200.724
818.053, 213.748
819.333, 183.823
820.613, 216.937
821.893, 218.069
823.173, 150.225
824.452, 219.404
825.732, 137.591
827.011, 102.798
828.290, 135.007
829.568, 70.211
830.847, 26.405
832.125, 77.588
833.403, 73.240
834.681, 86.127
835.959, 65.081
837.236, 79.091
838.514, 96.166
839.791, 77.313
841.068, 151.525
842.345, 172.840
843.621, 203.269
844.898, 206.828
846.174, 124.521
847.450, 175.302
848.726, 128.201
850.001, 143.191
851.277, 186.281
852.552, 50.493
853.827, 106.756
855.102, 154.100
856.376, 46.548
857.651, 29.046
858.925, 89.582
860.199, 83.189
861.473, 79.890
862.746, 54.825
864.020, 58.872
865.293, 171.052
866.566, 20.339
867.839, 90.616
869.112, 140.885
870.384, 137.153
871.656, 187.157
872.928, 202.889
874.200, 232.936
875.472, 235.194
876.744, 254.457
878.015, 253.730
879.286, 326.000
880.557, 278.273
881.828, 374.549
883.098, 338.824
884.369, 405.102
885.639, 387.386
886.909, 437.666
888.178, 410.950
889.448, 502.233
890.717, 526.516
891.987, 556.794
893.256, 593.078
894.524, 600.357
895.793, 681.630
897.061, 747.903
898.330, 722.189
899.598, 863.485
900.865, 968.783
902.133, 933.075
903.401, 1039.373
904.668, 1092.671
905.935, 1156.963
907.202, 1190.253
908.468, 1246.538
909.735, 1232.817
911.001, 1220.092
912.267, 1299.370
913.533, 1201.648
914.799, 1252.925
916.064, 1265.206
917.330, 1202.480
918.595, 1119.747
919.860, 1073.007
921.124, 1017.259
922.389, 956.503
923.653, 915.741
924.918, 868.166
926.182, 865.199
927.445, 800.423
928.709, 808.647
929.972, 805.870
931.236, 754.093
932.499, 712.311
933.761, 715.522
935.024, 702.727
936.286, 843.925
937.549, 776.116
938.811, 782.309
940.073, 705.496
941.334, 737.676
942.596, 792.851
943.857, 810.024
945.118, 794.190
946.379, 803.349
947.640, 893.503
948.900, 895.650
950.161, 989.790
951.421, 1005.926
952.681, 1074.054
953.940, 1085.175
955.200, 1045.289
956.459, 1126.396
957.719, 1183.495
958.978, 1160.587
960.236, 1080.671
961.495, 1150.748
962.753, 1142.819
964.012, 1155.886
965.270, 1184.953
966.527, 1197.012
967.785, 1269.063
969.043, 1227.105
970.300, 1310.139
971.557, 1393.162
972.814, 1399.178
974.071, 1540.185
975.327, 1595.183
976.583, 1656.171
977.840, 1768.157
979.095, 1791.000
980.351, 1919.963
981.607, 1850.643
982.862, 1894.125
984.117, 2071.808
985.372, 1855.175
986.627, 2006.686
987.882, 2024.472
989.136, 2047.336
990.390, 2157.087
991.644, 2161.982
992.898, 2132.180
994.152, 2107.005
995.405, 2098.889
996.659, 2237.523
997.912, 2276.300
999.165, 2326.868
1000.417, 2298.376
1001.670, 2433.930
1002.922, 2313.770
1004.174, 2475.125
1005.426, 2512.943
1006.678, 2648.786
1007.930, 2689.379
1009.181, 2764.071
1010.432, 2823.037
1011.683, 2897.495
1012.934, 3051.088
1014.185, 3047.589
1015.435, 3156.161
1016.685, 3174.193
1017.935, 3337.674
1019.185, 3250.854
1020.435, 3220.630
1021.684, 3327.607
1022.934, 3339.289
1024.183, 3309.004
1025.432, 3346.263
1026.680, 3378.629
1027.929, 3311.487
1029.177, 3246.121
1030.425, 3306.380
1031.673, 3292.501
1032.921, 3276.484
1034.169, 3281.585
1035.416, 3360.554
1036.663, 3436.300
1037.911, 3585.399
1039.157, 3725.389
1040.404, 3905.183
1041.650, 4157.850
1042.897, 4399.938
1044.143, 4696.094
1045.389, 5092.157
1046.634, 5400.562
1047.880, 5758.109
1049.125, 6102.656
1050.371, 6606.702
1051.615, 6879.708
1052.860, 7394.525
1054.105, 7663.723
1055.349, 7761.821
1056.593, 8106.603
1057.837, 8466.765
1059.081, 8482.827
1060.325, 8608.406
1061.568, 8585.071
1062.812, 8680.752
1064.055, 8687.638
1065.298, 8660.863
1066.540, 8614.780
1067.783, 8619.587
1069.025, 8381.296
1070.267, 8268.001
1071.509, 8057.698
1072.751, 7945.521
1073.993, 7757.605
1075.234, 7540.650
1076.475, 7406.350
1077.716, 7161.708
1078.957, 6999.658
1080.198, 6911.828
1081.438, 6585.216
1082.679, 6469.969
1083.919, 6210.885
1085.159, 6119.739
1086.398, 5741.573
1087.638, 5585.148
1088.877, 5227.237
1090.116, 5108.995
1091.355, 4877.181
1092.594, 4611.852
1093.833, 4426.635
1095.071, 4172.580
1096.309, 3972.530
1097.547, 3764.724
1098.785, 3584.132
1100.023, 3374.375
1101.260, 3191.038
1102.498, 3037.742
1103.735, 2942.573
1104.972, 2789.185
1106.208, 2709.847
1107.445, 2572.581
1108.681, 2512.188
1109.918, 2324.870
1111.154, 2338.104
1112.389, 2238.588
1113.625, 2097.065
1114.860, 2042.886
1116.096, 1949.620
1117.331, 1917.356
1118.566, 1813.013
1119.800, 1746.600
1121.035, 1664.709
1122.269, 1784.294
1123.503, 1731.263
1124.737, 1576.896
1125.971, 1405.264
1127.205, 1188.853
1128.438, 1111.532
1129.671, 1011.553
1130.904, 995.450
1132.137, 845.044
1133.370, 819.661
1134.602, 725.298
1135.834, 668.931
1137.066, 630.846
1138.298, 536.537
1139.530, 499.310
1140.762, 391.956
1141.993, 357.507
1143.224, 282.297
1144.455, 249.166
1145.686, 248.077
1146.917, 232.825
1148.147, 219.616
1149.377, 189.516
1150.607, 159.837
1151.837, 116.875
1153.067, 88.698
1154.296, 81.709
1155.526, 49.596
1156.755, 52.564
1157.984, 34.466
1159.213, 14.634
1160.441, 42.773
1161.670, 40.703
1162.898, 29.322
1164.126, 7.782
1165.354, 7.876
1166.581, 10.237
1167.809, 18.223
1169.036, 17.627
1170.263, 32.426
1171.490, 15.449
1172.717, 24.651
1173.943, 41.780
1175.170, 65.054
1176.396, 12.301
1177.622, 38.631
1178.848, 36.007
1180.073, 17.417
1181.299, 34.788
1182.524, 48.216
1183.749, 2.641
1184.974, 41.166
1186.199, 15.480
1187.423, 21.946
1188.648, 0.522
1189.872, 45.006
1191.096, 1.364
1192.320, 13.793
1193.543, 19.905
1194.767, 69.637
1195.990, 53.424
1197.213, 29.193
1198.436, 26.944
1199.659, 40.938
1200.881, 14.861
1202.104, 4.190
1203.326, 7.768
1204.548, 2.818
1205.770, 10.240
1206.991, 3.784
1208.213, 20.829
1209.434, 20.906
1210.655, 8.014
1211.876, 29.146
1213.096, 19.686
1214.317, 367.502
1215.537, 458.305
1216.757, 531.094
1217.977, 407.871
1219.197, 59.634
1220.417, 7.385
1221.636, 9.119
1222.855, 3.160
1224.074, 13.461
1225.293, 6.792
1226.512, 10.148
1227.731, 2.445
1228.949, 69.063
1230.167, 28.643
1231.385, 42.208
1232.603, 45.757
1233.820, 15.710
1235.038, 9.791
1236.255, 60.274
1237.472, 7.740
1238.689, 0.813
1239.906, 50.608
1241.122, 16.013
1242.338, 15.402
1243.555, 60.770
1244.771, 23.124
1245.986, 7.459
1247.202, 71.777
1248.417, 60.082
1249.633, 28.397
1250.848, 79.668
1252.063, 65.911
1253.277, 47.137
1254.492, 76.346
1255.706, 56.569
1256.920, 8.742
1258.134, 3.887
1259.348, 11.989
1260.562, 23.106
1261.775, 36.183
1262.988, 34.246
1264.201, 51.285
1265.414, 66.304
1266.627, 12.307
1267.839, 63.289
1269.052, 16.371
1270.264, 48.314
1271.476, 9.760
1272.688, 55.140
1273.899, 33.024
1275.111, 14.888
1276.322, 18.733
1277.533, 47.557
1278.744, 40.442
1279.955, 39.877
1281.165, 46.001
1282.376, 20.753
1283.586, 40.486
1284.796, 32.201
1286.006, 61.898
1287.215, 93.577
1288.425, 47.238
1289.634, 40.879
1290.843, 43.502
1292.052, 90.107
1293.261, 90.694
1294.469, 72.263
1295.678, 22.815
1296.886, 59.348
1298.094, 136.862
1299.302, 75.359
1300.509, 149.838
1301.717, 97.299
1302.924, 118.743
1304.131, 56.098
1305.338, 67.348
1306.545, 120.692
1307.752, 79.005
1308.958, 92.248
1310.164, 68.378
1311.370, 171.486
1312.576, 81.204
1313.782, 133.521
1314.987, 88.604
1316.193, 72.995
1317.398, 110.334
1318.603, 85.754
1319.807, 112.763
1321.012, 88.906
1322.216, 103.254
1323.421, 104.960
1324.625, 139.785
1325.829, 86.731
1327.032, 90.630
1328.236, 77.555
1329.439, 103.209
1330.642, 35.490
1331.845, 65.340
1333.048, 83.744
1334.251, 57.335
1335.453, 80.210
1336.656, 61.827
1337.858, 88.519
1339.060, 96.911
1340.261, 93.088
1341.463, 66.246
1342.664, 78.891
1343.866, 82.560
1345.067, 114.400
1346.267, 116.844
1347.468, 74.372
1348.669, 74.283
1349.869, 113.717
1351.069, 101.283
1352.269, 153.268
1353.469, 176.153
1354.668, 122.004
1355.868, 76.636
1357.067, 119.987
1358.266, 101.468
1359.465, 100.258
1360.664, 114.081
1361.862, 98.954
1363.061, 127.760
1364.259, 125.931
1365.457, 162.267
1366.655, 143.948
1367.852, 150.650
1369.050, 169.755
1370.247, 127.159
1371.444, 118.333
1372.641, 80.273
1373.838, 95.850
1375.035, 100.267
1376.231, 131.666
1377.427, 95.044
1378.623, 121.596
1379.819, 82.628
1381.015, 86.927
1382.211, 128.752
1383.406, 122.100
1384.601, 118.243
1385.796, 117.607
1386.991, 118.057
1388.185, 112.519
1389.380, 134.603
1390.574, 122.992
1391.768, 91.584
1392.962, 56.038
1394.156, 72.816
1395.350, 88.342
1396.543, 111.323
1397.736, 65.400
1398.929, 51.067
1400.122, 109.806
1401.315, 71.850
1402.507, 127.722
1403.700, 121.775
1404.892, 98.546
1406.084, 53.257
1407.276, 117.611
1408.467, 56.233
1409.659, 69.063
1410.850, 67.565
1412.041, 24.503
1413.232, 66.744
1414.423, 59.551
1415.614, 79.400
1416.804, 95.325
1417.994, 137.738
1419.184, 81.484
1420.374, 92.008
1421.564, 29.693
1422.753, 71.401
1423.943, 69.004
1425.132, 89.704
1426.321, 121.469
1427.510, 90.372
1428.698, 117.143
1429.887, 126.964
1431.075, 101.384
1432.263, 68.063
1433.451, 148.791
1434.639, 97.733
1435.827, 89.658
1437.014, 127.705
1438.201, 107.788
1439.388, 96.848
1440.575, 125.923
1441.762, 171.003
1442.949, 131.113
1444.135, 140.249
1445.321, 159.362
1446.507, 140.451
1447.693, 119.513
1448.879, 128.550
1450.064, 137.610
1451.250, 80.689
1452.435, 137.756
1453.620, 105.809
1454.805, 125.881
1455.989, 126.950
1457.174, 108.030
1458.358, 99.107
1459.542, 136.179
1460.726, 99.237
1461.910, 117.226
1463.093, 67.318
1464.277, 112.343
1465.460, 114.465
1466.643, 134.620
1467.826, 140.781
1469.009, 18.979
1470.191, 115.195
1471.373, 29.140
1472.556, 59.391
1473.738, 40.660
1474.919, 54.955
1476.101, 77.065
1477.283, 62.411
1478.464, 70.781
1479.645, 70.175
1480.826, 27.606
1482.007, 76.068
1483.187, 44.552
1484.368, 57.053
1485.548, 57.575
1486.728, 73.115
1487.908, 56.674
1489.088, 105.259
1490.268, 23.871
1491.447, 79.512
1492.626, 33.185
1493.805, 100.892
1494.984, 58.638
1496.163, 70.429
1497.341, 60.269
1498.520, 31.155
1499.698, 70.661
1500.876, 42.409
1502.054, 33.433
1503.232, 20.521
1504.409, 35.669
1505.586, 5.472
1506.763, 69.783
1507.940, 15.893
1509.117, 52.506
1510.294, 36.336
1511.470, 139.453
1512.647, 105.042
1513.823, 95.039
1514.999, 63.481
1516.174, 60.018
1517.350, 85.410
1518.526, 40.520
1519.701, 63.826
1520.876, 46.683
1522.051, 72.618
1523.226, 88.253
1524.400, 36.537
1525.574, 68.303
1526.749, 0.252
1527.923, 0.000
##END=



