##NAMES=Muscovite
##RRUFFID=R050188
##IDEAL CHEMISTRY=KAl_2_(Si_3_Al)O_10_(OH)_2_
##LOCALITY=Sapinero, near Blue Mesa Reservoir, Gunnison County, Colorado, USA
##OWNER=RRUFF
##SOURCE=Dave Bunk Minerals
##DESCRIPTION=Black pseudohexagonal crystal, polytype 2M1, associated with quartz
##STATUS=The identification of this mineral has been confirmed by X-ray diffraction and chemical analysis
##URL=rruff.info/R050188
##MEASURED CHEMISTRY=(K_0.91_Na_0.09_)(Al_0.86_Fe^3+^_0.06_Fe^2+^_0.04_Mg_0.03_Ti_0.01_)_2_(Si_0.78_Al_0.22_)_4_O_10_(OH)_2_
##PIN_ID=L00384
##ORIENTATION=Laser parallel to b* (0 1 0). Fiducial mark perpendicular to laser is parallel to c [0 0 1]
135.777, 0.000
137.164, 8.690
138.550, 39.459
139.937, 20.861
141.323, 74.063
142.709, 1.012
144.094, 18.130
145.480, 32.856
146.865, 63.634
148.250, 65.372
149.635, 122.638
151.019, 168.884
152.403, 247.618
153.788, 301.412
155.171, 407.041
156.555, 477.759
157.939, 614.727
159.322, 786.561
160.705, 869.089
162.088, 1056.369
163.470, 1283.300
164.853, 1358.688
166.235, 1457.370
167.617, 1695.209
168.998, 1923.087
170.380, 2045.902
171.761, 2374.566
173.142, 2817.001
174.523, 3298.139
175.904, 4406.917
177.284, 5995.284
178.664, 5464.176
180.044, 7491.537
181.424, 7913.320
182.803, 8820.492
184.183, 10104.127
185.562, 11573.874
186.940, 12675.658
188.319, 13627.401
189.698, 14204.318
191.076, 14622.389
192.454, 14808.620
193.831, 14499.003
195.209, 13932.530
196.586, 12808.192
197.963, 12198.985
199.340, 10945.896
200.717, 9934.922
202.093, 8969.056
203.470, 8247.295
204.846, 7457.624
206.221, 7199.045
207.597, 7011.549
208.972, 6364.132
210.347, 6136.786
211.722, 5773.509
213.097, 5452.297
214.472, 5477.144
215.846, 5050.045
217.220, 4807.999
218.594, 4511.961
219.967, 3975.821
221.341, 3620.603
222.714, 3115.325
224.087, 2873.003
225.460, 2534.673
226.832, 2304.363
228.204, 2232.082
229.577, 2113.865
230.948, 2107.319
232.320, 2243.774
233.692, 2408.335
235.063, 2516.916
236.434, 3014.288
237.805, 3500.718
239.175, 4010.011
240.545, 4745.549
241.916, 5717.141
243.286, 6648.003
244.655, 7884.115
246.025, 9686.413
247.394, 11830.802
248.763, 14073.252
250.132, 17711.717
251.501, 20868.191
252.869, 25475.678
254.237, 29864.164
255.605, 34056.672
256.973, 38357.172
258.340, 40872.688
259.708, 42765.207
261.075, 42178.723
262.442, 40641.250
263.808, 37303.797
265.175, 33131.328
266.541, 28740.873
267.907, 24128.420
269.273, 20270.963
270.639, 16521.494
272.004, 13752.019
273.369, 11405.532
274.734, 9383.030
276.099, 7631.520
277.463, 6530.996
278.828, 5455.461
280.192, 4467.914
281.556, 3812.355
282.919, 3292.782
284.283, 2808.195
285.646, 2349.595
287.009, 2012.979
288.372, 1846.351
289.734, 1527.706
291.097, 1309.046
292.459, 1254.371
293.821, 1073.680
295.183, 961.972
296.544, 878.248
297.905, 724.507
299.266, 732.749
300.627, 649.035
301.988, 642.352
303.348, 573.955
304.709, 534.456
306.069, 522.230
307.428, 512.489
308.788, 425.788
310.147, 582.183
311.507, 409.581
312.865, 456.214
314.224, 257.102
315.583, 453.541
316.941, 315.994
318.299, 184.678
319.657, 169.289
321.015, 123.900
322.372, 90.792
323.729, 48.024
325.086, 18.248
326.443, 45.862
327.800, 44.644
329.156, 97.340
330.512, 104.071
331.868, 175.776
333.224, 188.708
334.579, 271.447
335.935, 196.696
337.290, 222.318
338.645, 143.091
339.999, 52.961
341.354, 115.843
342.708, 27.326
344.062, 31.965
345.416, 68.361
346.769, 203.131
348.123, 330.354
349.476, 368.515
350.829, 593.488
352.182, 788.385
353.534, 812.154
354.887, 908.953
356.239, 1140.124
357.591, 1247.198
358.942, 1372.328
360.294, 1506.326
361.645, 1585.130
362.996, 1768.329
364.347, 1905.357
365.698, 2112.933
367.048, 2272.522
368.398, 2443.104
369.748, 2707.680
371.098, 2835.247
372.448, 3097.806
373.797, 3094.357
375.146, 3235.899
376.495, 3403.433
377.844, 3375.956
379.192, 3595.470
380.540, 3468.976
381.889, 3562.470
383.236, 3671.958
384.584, 3622.436
385.932, 3680.905
387.279, 3889.367
388.626, 3978.958
389.973, 4090.405
391.319, 4395.947
392.666, 4611.377
394.012, 4801.795
395.358, 5238.183
396.704, 5504.876
398.049, 5958.081
399.394, 6164.118
400.740, 6702.021
402.084, 6970.854
403.429, 7114.664
404.774, 7495.900
406.118, 8098.243
407.462, 7916.011
408.806, 8063.764
410.150, 8052.500
411.493, 7952.217
412.836, 7918.918
414.179, 7512.601
415.522, 7296.267
416.865, 6897.915
418.207, 6375.545
419.549, 6052.157
420.891, 5782.751
422.233, 5278.327
423.575, 4722.884
424.916, 4636.422
426.257, 4333.942
427.598, 3892.442
428.939, 3674.924
430.279, 3278.387
431.619, 2976.830
432.959, 2797.255
434.299, 2571.660
435.639, 2197.045
436.978, 2121.412
438.318, 1833.759
439.657, 1757.086
440.996, 1560.394
442.334, 1226.682
443.673, 1051.951
445.011, 1023.200
446.349, 865.430
447.687, 742.640
449.024, 718.831
450.361, 588.151
451.699, 405.151
453.036, 378.282
454.372, 369.394
455.709, 178.485
457.045, 272.557
458.381, 171.609
459.717, 190.641
461.053, 271.653
462.388, 119.666
463.724, 182.676
465.059, 210.685
466.394, 93.693
467.728, 282.688
469.063, 237.679
470.397, 207.664
471.731, 218.644
473.065, 169.113
474.398, 156.401
475.732, 114.510
477.065, 127.433
478.398, 123.336
479.731, 153.220
481.063, 92.086
482.396, 55.924
483.728, 79.722
485.060, 42.487
486.391, 30.874
487.723, 35.511
489.054, 33.125
490.385, 31.254
491.716, 34.071
493.047, 129.561
494.377, 57.160
495.708, 119.852
497.038, 166.535
498.368, 138.233
499.697, 235.834
501.027, 61.393
502.356, 198.322
503.685, 131.560
505.014, 40.961
506.342, 74.818
507.671, 113.684
508.999, 96.658
510.327, 109.731
511.655, 60.910
512.982, 59.169
514.310, 44.025
515.637, 15.083
516.964, 1.367
518.291, 15.136
519.617, 67.599
520.944, 89.035
522.270, 147.447
523.596, 238.837
524.921, 232.404
526.247, 394.550
527.572, 281.901
528.897, 291.240
530.222, 379.568
531.547, 398.892
532.871, 352.205
534.196, 255.561
535.520, 353.946
536.844, 301.363
538.167, 363.812
539.491, 223.271
540.814, 306.748
542.137, 235.247
543.460, 257.751
544.783, 176.273
546.105, 195.816
547.427, 102.382
548.749, 179.965
550.071, 110.560
551.393, 149.154
552.714, 201.745
554.035, 141.325
555.356, 63.892
556.677, 163.436
557.998, 163.961
559.318, 208.468
560.638, 212.955
561.958, 186.423
563.278, 228.873
564.597, 216.302
565.917, 228.713
567.236, 250.105
568.555, 187.478
569.874, 264.832
571.192, 312.167
572.511, 328.484
573.829, 279.781
575.147, 365.061
576.464, 357.321
577.782, 417.562
579.099, 334.786
580.416, 425.991
581.733, 438.177
583.050, 386.345
584.366, 561.495
585.683, 478.626
586.999, 511.740
588.315, 664.835
589.630, 643.913
590.946, 696.972
592.261, 809.014
593.576, 726.038
594.891, 829.043
596.206, 857.033
597.520, 1064.003
598.834, 1064.957
600.148, 1135.893
601.462, 1235.812
602.776, 1377.713
604.089, 1448.598
605.402, 1546.465
606.715, 1631.316
608.028, 1773.149
609.341, 1847.989
610.653, 1999.765
611.965, 2020.549
613.277, 2167.315
614.589, 2241.066
615.901, 2436.799
617.212, 2586.518
618.523, 2783.218
619.834, 2784.903
621.145, 2890.443
622.456, 2968.097
623.766, 3328.733
625.076, 3207.725
626.386, 3451.329
627.696, 3280.918
629.006, 3708.490
630.315, 3540.047
631.624, 3738.588
632.933, 3817.069
634.242, 3853.178
635.551, 3761.432
636.859, 3692.600
638.167, 3798.972
639.475, 3736.464
640.783, 3811.783
642.090, 3670.863
643.398, 3608.540
644.705, 3477.642
646.012, 3338.985
647.318, 3370.228
648.625, 3245.735
649.931, 3158.188
651.237, 3134.921
652.543, 3495.506
653.849, 3200.558
655.155, 3148.561
656.460, 2931.933
657.765, 2796.801
659.070, 2813.710
660.375, 2842.250
661.679, 2878.041
662.984, 2807.751
664.288, 2851.110
665.592, 2994.035
666.895, 2910.039
668.199, 3024.234
669.502, 3146.508
670.805, 3475.909
672.108, 3375.280
673.411, 3695.279
674.713, 3970.372
676.016, 4149.407
677.318, 4610.570
678.620, 4938.924
679.921, 5444.473
681.223, 5854.021
682.524, 6347.569
683.825, 7251.136
685.126, 8140.267
686.427, 9023.982
687.727, 10120.098
689.028, 11205.666
690.328, 12786.056
691.628, 14330.274
692.927, 15998.957
694.227, 17411.736
695.526, 20159.279
696.825, 21520.494
698.124, 23009.061
699.423, 24120.527
700.721, 24296.680
702.020, 23891.877
703.318, 22850.377
704.616, 20590.607
705.913, 19031.713
707.211, 17056.746
708.508, 14930.871
709.805, 12626.488
711.102, 11191.221
712.399, 9595.687
713.695, 8488.399
714.992, 7334.002
716.288, 6559.502
717.584, 5827.942
718.879, 5208.374
720.175, 5057.800
721.470, 4611.218
722.765, 4351.632
724.060, 4037.040
725.355, 3875.440
726.649, 3664.836
727.944, 3834.226
729.238, 3541.610
730.532, 3854.989
731.825, 3960.362
733.119, 3851.730
734.412, 4196.092
735.705, 4309.450
736.998, 4555.805
738.291, 4848.152
739.584, 5175.498
740.876, 5383.838
742.168, 5427.172
743.460, 5664.504
744.752, 5883.832
746.043, 6083.155
747.334, 5995.475
748.626, 5866.794
749.916, 5869.107
751.207, 5787.417
752.498, 5713.726
753.788, 5343.030
755.078, 5308.330
756.368, 4928.629
757.658, 4641.926
758.947, 4282.219
760.237, 3946.166
761.526, 3688.799
762.815, 3300.086
764.104, 2972.371
765.392, 2715.653
766.680, 2371.935
767.969, 2294.214
769.257, 1939.492
770.544, 1803.768
771.832, 1630.042
773.119, 1458.316
774.406, 1369.589
775.693, 1230.860
776.980, 1187.132
778.267, 1129.402
779.553, 1066.672
780.839, 960.945
782.125, 998.217
783.411, 882.489
784.697, 848.760
785.982, 925.031
787.267, 936.301
788.552, 803.572
789.837, 876.845
791.122, 787.119
792.406, 886.396
793.690, 875.673
794.974, 806.956
796.258, 818.249
797.542, 793.549
798.825, 739.383
800.108, 710.194
801.391, 668.540
802.674, 574.902
803.957, 594.296
805.239, 591.722
806.522, 428.205
807.804, 500.723
809.085, 424.291
810.367, 372.921
811.649, 329.602
812.930, 339.360
814.211, 310.149
815.492, 297.002
816.772, 287.904
818.053, 341.809
819.333, 323.748
820.613, 359.017
821.893, 428.747
823.173, 386.807
824.452, 451.974
825.732, 411.669
827.011, 482.154
828.290, 384.304
829.568, 388.466
830.847, 315.636
832.125, 285.809
833.403, 145.981
834.681, 89.153
835.959, 71.325
837.236, 92.504
838.514, 21.390
839.791, 30.295
841.068, 52.224
842.345, 27.189
843.621, 231.177
844.898, 180.295
846.174, 187.518
847.450, 188.848
848.726, 105.287
850.001, 131.790
851.277, 153.372
852.552, 88.044
853.827, 130.771
855.102, 147.577
856.376, 152.469
857.651, 134.565
858.925, 114.742
860.199, 67.643
861.473, 51.816
862.746, 28.024
864.020, 14.249
865.293, 4.608
866.566, 11.270
867.839, 36.031
869.112, 58.381
870.384, 106.573
871.656, 114.355
872.928, 143.475
874.200, 175.940
875.472, 164.740
876.744, 179.553
878.015, 174.370
879.286, 274.187
880.557, 277.005
881.828, 305.834
883.098, 273.670
884.369, 296.526
885.639, 337.383
886.909, 381.254
888.178, 429.143
889.448, 440.035
890.717, 457.942
891.987, 535.869
893.256, 584.798
894.524, 654.758
895.793, 688.727
897.061, 728.698
898.330, 740.695
899.598, 828.510
900.865, 990.702
902.133, 1015.716
903.401, 1074.749
904.668, 1200.783
905.935, 1254.831
907.202, 1288.877
908.468, 1364.944
909.735, 1402.015
911.001, 1356.087
912.267, 1362.169
913.533, 1396.271
914.799, 1365.376
916.064, 1379.482
917.330, 1220.590
918.595, 1136.703
919.860, 1157.818
921.124, 1068.950
922.389, 1067.087
923.653, 951.237
924.918, 875.389
926.182, 846.549
927.445, 876.711
928.709, 791.874
929.972, 793.038
931.236, 719.201
932.499, 756.367
933.761, 710.533
935.024, 645.700
936.286, 798.868
937.549, 643.037
938.811, 855.208
940.073, 745.379
941.334, 848.551
942.596, 811.729
943.857, 858.906
945.118, 796.087
946.379, 888.270
947.640, 1028.452
948.900, 1085.636
950.161, 1054.820
951.421, 1022.014
952.681, 1143.216
953.940, 1118.418
955.200, 1098.621
956.459, 1231.824
957.719, 1141.026
958.978, 1127.227
960.236, 1027.426
961.495, 1074.623
962.753, 1103.818
964.012, 1043.012
965.270, 1020.202
966.527, 988.389
967.785, 937.572
969.043, 1036.752
970.300, 1027.929
971.557, 1040.885
972.814, 1213.270
974.071, 1046.433
975.327, 1155.591
976.583, 1126.744
977.840, 1252.893
979.095, 1193.035
980.351, 1237.172
981.607, 1289.304
982.862, 1367.429
984.117, 1438.548
985.372, 1345.661
986.627, 1427.768
987.882, 1466.867
989.136, 1462.942
990.390, 1655.447
991.644, 1547.363
992.898, 1510.870
994.152, 1668.920
995.405, 1668.138
996.659, 1785.525
997.912, 1767.438
999.165, 1873.250
1000.417, 1871.294
1001.670, 2024.662
1002.922, 1992.667
1004.174, 2162.903
1005.426, 2109.318
1006.678, 2152.676
1007.930, 2261.731
1009.181, 2266.913
1010.432, 2440.446
1011.683, 2411.122
1012.934, 2485.871
1014.185, 2573.227
1015.435, 2626.339
1016.685, 2688.726
1017.935, 2749.615
1019.185, 2802.801
1020.435, 2846.953
1021.684, 2931.093
1022.934, 2968.960
1024.183, 2979.498
1025.432, 2962.979
1026.680, 2916.896
1027.929, 2960.508
1029.177, 2787.788
1030.425, 2918.033
1031.673, 2937.548
1032.921, 2774.948
1034.169, 2809.312
1035.416, 3026.795
1036.663, 2981.748
1037.911, 3039.028
1039.157, 3152.533
1040.404, 3358.034
1041.650, 3658.502
1042.897, 3770.027
1044.143, 4107.120
1045.389, 4535.153
1046.634, 4669.535
1047.880, 5049.583
1049.125, 5261.118
1050.371, 5732.596
1051.615, 5978.800
1052.860, 6379.169
1054.105, 6460.663
1055.349, 6674.301
1056.593, 7006.342
1057.837, 7284.638
1059.081, 7265.470
1060.325, 7391.903
1061.568, 7332.714
1062.812, 7356.399
1064.055, 7299.721
1065.298, 7236.093
1066.540, 7210.418
1067.783, 7033.562
1069.025, 7074.047
1070.267, 6790.700
1071.509, 6596.400
1072.751, 6682.617
1073.993, 6272.853
1075.234, 6287.699
1076.475, 6049.912
1077.716, 5881.269
1078.957, 5643.282
1080.198, 5599.205
1081.438, 5407.454
1082.679, 5298.644
1083.919, 4987.849
1085.159, 4918.917
1086.398, 4711.182
1087.638, 4467.447
1088.877, 4312.515
1090.116, 4179.558
1091.355, 4018.708
1092.594, 3914.822
1093.833, 3722.572
1095.071, 3430.609
1096.309, 3492.546
1097.547, 3178.868
1098.785, 3188.120
1100.023, 2930.152
1101.260, 2900.964
1102.498, 2678.827
1103.735, 2825.439
1104.972, 2619.340
1106.208, 2577.132
1107.445, 2511.084
1108.681, 2593.021
1109.918, 2452.825
1111.154, 2423.700
1112.389, 2319.796
1113.625, 2245.516
1114.860, 2196.264
1116.096, 2160.938
1117.331, 2106.807
1118.566, 2073.633
1119.800, 2025.433
1121.035, 1890.063
1122.269, 2088.747
1123.503, 2054.383
1124.737, 1858.928
1125.971, 1640.883
1127.205, 1413.281
1128.438, 1307.074
1129.671, 1222.521
1130.904, 1177.979
1132.137, 1096.637
1133.370, 969.098
1134.602, 889.691
1135.834, 758.026
1137.066, 751.472
1138.298, 588.054
1139.530, 546.377
1140.762, 493.670
1141.993, 403.967
1143.224, 325.454
1144.455, 255.951
1145.686, 237.472
1146.917, 267.930
1148.147, 196.662
1149.377, 199.137
1150.607, 144.637
1151.837, 49.407
1153.067, 107.261
1154.296, 134.957
1155.526, 84.656
1156.755, 159.332
1157.984, 62.977
1159.213, 21.720
1160.441, 6.386
1161.670, 21.535
1162.898, 12.696
1164.126, 1.669
1165.354, 18.053
1166.581, 25.535
1167.809, 77.895
1169.036, 74.613
1170.263, 23.596
1171.490, 0.187
1172.717, 16.375
1173.943, 38.721
1175.170, 0.796
1176.396, 47.975
1177.622, 57.292
1178.848, 30.356
1180.073, 12.099
1181.299, 58.873
1182.524, 9.297
1183.749, 35.500
1184.974, 56.222
1186.199, 8.857
1187.423, 42.981
1188.648, 58.004
1189.872, 7.980
1191.096, 99.122
1192.320, 18.165
1193.543, 28.736
1194.767, 81.505
1195.990, 9.184
1197.213, 8.150
1198.436, 3.518
1199.659, 53.717
1200.881, 13.828
1202.104, 25.650
1203.326, 105.938
1204.548, 51.603
1205.770, 3.800
1206.991, 20.175
1208.213, 11.473
1209.434, 57.093
1210.655, 33.263
1211.876, 26.496
1213.096, 31.730
1214.317, 0.082
1215.537, 15.075
1216.757, 39.790
1217.977, 8.293
1219.197, 32.625
1220.417, 42.383
1221.636, 10.630
1222.855, 44.319
1224.074, 23.246
1225.293, 88.149
1226.512, 108.032
1227.731, 33.896
1228.949, 40.736
1230.167, 37.646
1231.385, 65.441
1232.603, 29.215
1233.820, 28.026
1235.038, 59.754
1236.255, 63.460
1237.472, 1.211
1238.689, 42.883
1239.906, 8.515
1241.122, 56.117
1242.338, 77.697
1243.555, 21.255
1244.771, 24.779
1245.986, 12.728
1247.202, 9.209
1248.417, 83.157
1249.633, 11.563
1250.848, 68.942
1252.063, 92.300
1253.277, 51.635
1254.492, 51.947
1255.706, 81.236
1256.920, 61.504
1258.134, 29.748
1259.348, 92.968
1260.562, 83.295
1261.775, 98.469
1262.988, 49.622
1264.201, 55.752
1265.414, 59.155
1266.627, 96.944
1267.839, 81.007
1269.052, 89.046
1270.264, 108.063
1271.476, 32.056
1272.688, 147.024
1273.899, 45.971
1275.111, 118.895
1276.322, 112.796
1277.533, 61.676
1278.744, 105.534
1279.955, 70.365
1281.165, 129.173
1282.376, 98.960
1283.586, 69.724
1284.796, 130.465
1286.006, 148.185
1287.215, 156.882
1288.425, 90.558
1289.634, 100.211
1290.843, 102.842
1292.052, 127.451
1293.261, 71.040
1294.469, 139.604
1295.678, 146.146
1296.886, 78.668
1298.094, 61.031
1299.302, 104.508
1300.509, 109.962
1301.717, 122.394
1302.924, 153.726
1304.131, 116.094
1305.338, 194.185
1306.545, 176.185
1307.752, 174.061
1308.958, 255.036
1310.164, 201.845
1311.370, 257.771
1312.576, 148.720
1313.782, 141.777
1314.987, 55.881
1316.193, 49.663
1317.398, 124.902
1318.603, 64.604
1319.807, 142.850
1321.012, 194.381
1322.216, 140.223
1323.421, 108.081
1324.625, 150.646
1325.829, 133.307
1327.032, 167.982
1328.236, 100.519
1329.439, 69.565
1330.642, 100.264
1331.845, 74.719
1333.048, 117.156
1334.251, 84.607
1335.453, 126.982
1336.656, 59.768
1337.858, 62.594
1339.060, 139.051
1340.261, 95.823
1341.463, 154.089
1342.664, 113.392
1343.866, 34.951
1345.067, 94.322
1346.267, 156.553
1347.468, 49.619
1348.669, 80.262
1349.869, 170.633
1351.069, 95.449
1352.269, 170.643
1353.469, 53.442
1354.668, 40.348
1355.868, 97.601
1357.067, 57.783
1358.266, 91.995
1359.465, 108.371
1360.664, 107.843
1361.862, 89.677
1363.061, 51.444
1364.259, 83.894
1365.457, 73.095
1366.655, 90.668
1367.852, 70.860
1369.050, 147.893
1370.247, 107.254
1371.444, 95.691
1372.641, 169.789
1373.838, 28.912
1375.035, 95.002
1376.231, 117.201
1377.427, 35.190
1378.623, 129.158
1379.819, 80.321
1381.015, 32.478
1382.211, 42.516
1383.406, 64.720
1384.601, 46.157
1385.796, 151.104
1386.991, 85.986
1388.185, 52.714
1389.380, 133.935
1390.574, 58.231
1391.768, 134.224
1392.962, 44.120
1394.156, 151.674
1395.350, 152.660
1396.543, 110.467
1397.736, 112.078
1398.929, 37.926
1400.122, 149.815
1401.315, 76.409
1402.507, 81.019
1403.700, 1.658
1404.892, 91.257
1406.084, 42.062
1407.276, 170.686
1408.467, 61.631
1409.659, 43.119
1410.850, 77.760
1412.041, 140.241
1413.232, 110.716
1414.423, 146.674
1415.614, 82.362
1416.804, 139.897
1417.994, 157.499
1419.184, 105.081
1420.374, 106.638
1421.564, 71.195
1422.753, 163.908
1423.943, 113.097
1425.132, 151.640
1426.321, 147.073
1427.510, 93.584
1428.698, 97.043
1429.887, 129.315
1431.075, 219.699
1432.263, 177.230
1433.451, 294.542
1434.639, 251.260
1435.827, 248.006
1437.014, 373.470
1438.201, 285.094
1439.388, 291.909
1440.575, 314.745
1441.762, 413.352
1442.949, 308.201
1444.135, 310.082
1445.321, 389.979
1446.507, 312.872
1447.693, 430.833
1448.879, 331.797
1450.064, 332.746
1451.250, 313.514
1452.435, 306.438
1453.620, 289.237
1454.805, 234.009
1455.989, 384.877
1457.174, 303.785
1458.358, 366.708
1459.542, 357.684
1460.726, 294.663
1461.910, 199.646
1463.093, 276.629
1464.277, 275.615
1465.460, 245.608
1466.643, 228.312
1467.826, 211.316
1469.009, 151.326
1470.191, 150.688
1471.373, 195.398
1472.556, 154.469
1473.738, 118.558
1474.919, 188.666
1476.101, 121.820
1477.283, 177.004
1478.464, 25.217
1479.645, 128.470
1480.826, 50.758
1482.007, 145.075
1483.187, 93.426
1484.368, 123.802
1485.548, 71.209
1486.728, 62.639
1487.908, 65.092
1489.088, 47.308
1490.268, 49.042
1491.447, 53.618
1492.626, 43.200
1493.805, 59.819
1494.984, 55.231
1496.163, 47.170
1497.341, 39.918
1498.520, 35.721
1499.698, 30.579
1500.876, 23.739
1502.054, 12.529
1503.232, 3.511
1504.409, 17.615
1505.586, 6.214
1506.763, 22.029
1507.940, 69.350
1509.117, 29.757
1510.294, 69.264
1511.470, 84.746
1512.647, 87.575
1513.823, 101.413
1514.999, 90.201
1516.174, 33.773
1517.350, 87.377
1518.526, 12.588
1519.701, 98.620
1520.876, 6.287
1522.051, 25.500
1523.226, 58.282
1524.400, 0.200
1525.574, 11.215
1526.749, 0.000
##END=



