##NAMES=Natrolite
##RRUFFID=R040112
##IDEAL CHEMISTRY=Na_2_(Si_3_Al_2_)O_10_&#183;2H_2_O
##LOCALITY=Ice River Alkaline Complex, Moose Creek Valley, Yoho National Park, British Columbia, Canada
##OWNER=RRUFF
##SOURCE=National Museums of Canada
##DESCRIPTION=Colorless pseudohexagonal prism
##STATUS=The identification of this mineral has been confirmed by X-ray diffraction and chemical analysis
##URL=rruff.info/R040112
##MEASURED CHEMISTRY=Na_2.00_(Si_3.00_Al_2.00_)O_10_Â·2H_2_O
##PIN_ID=L00109
##ORIENTATION=Laser parallel to -c* (0 0 -1). Fiducial mark perpendicular to laser is parallel to a [1 0 0]
116.672, 0.000
118.066, 134.944
119.461, 328.145
120.855, 307.233
122.249, 47.782
123.643, 279.642
125.036, 70.054
126.430, 471.350
127.823, 481.285
129.216, 815.191
130.608, 897.738
132.001, 422.953
133.393, 818.007
134.785, 663.309
136.176, 1365.355
137.568, 1994.615
138.959, 2980.844
140.350, 4814.693
141.741, 5850.717
143.131, 8298.672
144.521, 8878.565
145.911, 9500.322
147.301, 8763.618
148.691, 7818.168
150.080, 6813.804
151.469, 5591.180
152.858, 5659.919
154.247, 5679.610
155.635, 7129.883
157.024, 9200.605
158.411, 12172.287
159.799, 16925.834
161.187, 21290.404
162.574, 26984.961
163.961, 29239.381
165.348, 29793.664
166.734, 26637.811
168.121, 21152.467
169.507, 18209.119
170.893, 14617.057
172.278, 13635.762
173.664, 11455.776
175.049, 9644.963
176.434, 7623.810
177.819, 6112.141
179.203, 5529.981
180.587, 4677.379
181.971, 5344.885
183.355, 5382.799
184.739, 6072.336
186.122, 6419.473
187.505, 5982.458
188.888, 5506.237
190.271, 4087.584
191.653, 3705.809
193.035, 2763.481
194.417, 2478.621
195.799, 2449.248
197.180, 2346.382
198.562, 2821.928
199.943, 2846.610
201.324, 3802.670
202.704, 4569.464
204.084, 6001.786
205.465, 7695.995
206.844, 8640.663
208.224, 10023.229
209.603, 8635.354
210.983, 7897.368
212.362, 6109.285
213.740, 4691.108
215.119, 3642.841
216.497, 2155.488
217.875, 1906.825
219.253, 1019.532
220.631, 957.574
222.008, 512.993
223.385, 327.782
224.762, 538.763
226.139, 109.232
227.515, 434.208
228.891, 9.040
230.267, 407.331
231.643, 265.844
233.018, 298.419
234.394, 804.903
235.769, 843.227
237.144, 1708.502
238.518, 2178.727
239.893, 3281.895
241.267, 3859.006
242.641, 3526.053
244.014, 3044.903
245.388, 1628.438
246.761, 1266.775
248.134, 578.304
249.507, 374.288
250.879, 404.348
252.252, 61.568
253.624, 304.464
254.996, 28.718
256.367, 121.537
257.739, 79.679
259.110, 34.202
260.481, 349.371
261.852, 100.107
263.222, 616.296
264.592, 421.413
265.962, 920.455
267.332, 1026.391
268.702, 1103.200
270.071, 1614.893
271.440, 1248.473
272.809, 1458.952
274.178, 890.344
275.546, 684.649
276.915, 620.868
278.283, 75.003
279.650, 405.054
281.018, 182.991
282.385, 253.104
283.752, 44.658
285.119, 32.510
286.486, 310.252
287.852, 141.828
289.218, 365.809
290.584, 112.211
291.950, 255.006
293.316, 214.458
294.681, 106.103
296.046, 611.906
297.411, 309.860
298.775, 986.925
300.140, 1116.079
301.504, 1916.303
302.868, 2876.582
304.231, 3634.909
305.595, 5013.264
306.958, 4551.634
308.321, 4190.011
309.684, 2710.381
311.047, 1578.759
312.409, 1227.116
313.771, 411.445
315.133, 578.740
316.495, 72.993
317.856, 52.197
319.217, 175.332
320.578, 168.595
321.939, 186.348
323.299, 438.779
324.660, 12.903
326.020, 102.516
327.380, 201.068
328.739, 105.221
330.099, 216.580
331.458, 203.499
332.817, 56.508
334.176, 69.350
335.534, 286.097
336.892, 115.260
338.251, 348.232
339.608, 152.380
340.966, 236.834
342.323, 10.057
343.681, 79.920
345.037, 245.806
346.394, 22.412
347.751, 494.234
349.107, 219.723
350.463, 687.058
351.819, 764.271
353.174, 807.356
354.530, 1379.327
355.885, 1135.196
357.240, 1927.965
358.594, 1983.638
359.949, 2195.216
361.303, 2303.700
362.657, 1745.079
364.011, 1987.238
365.365, 1039.209
366.718, 1084.992
368.071, 676.608
369.424, 257.139
370.777, 539.575
372.129, 75.068
373.481, 234.155
374.833, 11.707
376.185, 21.684
377.537, 262.218
378.888, 323.962
380.239, 244.658
381.590, 185.844
382.941, 123.371
384.291, 51.264
385.642, 144.059
386.992, 363.333
388.341, 246.483
389.691, 183.444
391.040, 50.798
392.389, 54.524
393.738, 283.841
395.087, 212.891
396.435, 225.169
397.784, 144.847
399.132, 68.001
400.479, 196.768
401.827, 45.467
403.174, 580.080
404.521, 201.637
405.868, 652.127
407.215, 577.553
408.561, 625.849
409.908, 1119.027
411.254, 713.088
412.599, 1210.934
413.945, 837.601
415.290, 1074.620
416.636, 1119.934
417.980, 857.718
419.325, 1437.203
420.670, 1081.046
422.014, 1738.867
423.358, 1733.534
424.702, 2104.032
426.045, 2992.609
427.389, 3190.147
428.732, 4837.645
430.075, 5695.107
431.417, 7562.530
432.760, 9999.918
434.102, 11537.267
435.444, 14034.582
436.786, 13781.858
438.127, 14339.102
439.469, 13756.314
440.810, 12472.051
442.151, 13609.192
443.492, 13321.663
444.832, 15738.429
446.172, 17899.488
447.512, 19461.279
448.852, 21448.143
450.192, 19163.045
451.531, 17339.967
452.870, 13116.550
454.209, 9572.963
455.548, 7589.136
456.887, 5014.550
458.225, 4325.017
459.563, 2941.375
460.901, 2507.852
462.238, 2164.271
463.576, 1482.636
464.913, 1874.088
466.250, 1154.355
467.587, 1533.563
468.923, 1235.714
470.259, 1077.805
471.596, 1397.205
472.931, 827.179
474.267, 1389.095
475.603, 1099.951
476.938, 1178.755
478.273, 1447.202
479.608, 974.941
480.942, 1810.331
482.276, 1197.096
483.611, 2024.399
484.944, 2102.211
486.278, 1932.876
487.612, 3076.150
488.945, 2513.086
490.278, 3575.920
491.611, 3881.492
492.943, 3785.352
494.276, 4990.764
495.608, 4242.434
496.940, 5116.651
498.271, 4801.787
499.603, 4766.139
500.934, 5334.832
502.265, 4318.443
503.596, 5075.807
504.927, 4261.312
506.257, 3994.792
507.587, 4070.996
508.917, 3085.556
510.247, 3838.627
511.577, 2973.154
512.906, 3397.642
514.235, 3592.091
515.564, 3156.502
516.892, 4230.876
518.221, 3915.213
519.549, 5089.514
520.877, 5523.783
522.205, 5988.018
523.533, 7992.219
524.860, 8316.384
526.187, 11210.521
527.514, 13964.624
528.841, 18548.695
530.167, 25121.283
531.493, 30215.275
532.820, 36036.250
534.145, 36598.504
535.471, 32213.301
536.796, 27467.408
538.122, 19739.812
539.447, 16094.804
540.771, 11356.986
542.096, 9270.527
543.420, 7480.663
544.744, 5288.496
546.068, 5474.515
547.392, 3627.439
548.715, 3666.963
550.039, 3258.139
551.362, 2309.898
552.684, 2831.416
554.007, 1603.758
555.329, 1945.312
556.652, 1787.048
557.973, 1062.872
559.295, 1841.193
560.617, 772.571
561.938, 1339.976
563.259, 963.609
564.580, 725.098
565.901, 1348.748
567.221, 346.394
568.541, 996.037
569.861, 619.678
571.181, 483.357
572.501, 957.039
573.820, 46.720
575.139, 914.423
576.458, 298.130
577.777, 421.890
579.095, 905.656
580.414, 141.432
581.732, 1123.222
583.049, 357.020
584.367, 670.829
585.685, 954.646
587.002, 328.470
588.319, 1232.306
589.636, 226.151
590.952, 710.004
592.268, 843.864
593.585, 237.733
594.900, 1261.641
596.216, 165.556
597.532, 879.481
598.847, 983.417
600.162, 337.370
601.477, 1321.340
602.792, 375.386
604.106, 1132.063
605.420, 846.170
606.734, 370.312
608.048, 1164.471
609.361, 1.304
610.675, 764.831
611.988, 479.183
613.301, 13.548
614.614, 797.933
615.926, 127.663
617.238, 856.719
618.550, 381.164
619.862, 115.625
621.174, 860.481
622.485, 85.027
623.797, 793.748
625.108, 218.284
626.418, 252.838
627.729, 967.408
629.039, 137.974
630.349, 1006.623
631.659, 101.235
632.969, 375.869
634.279, 991.127
635.588, 84.162
636.897, 1080.562
638.206, 185.316
639.515, 320.099
640.823, 875.385
642.131, 159.705
643.439, 1005.318
644.747, 130.386
646.055, 435.532
647.362, 910.781
648.669, 253.936
649.976, 1241.367
651.283, 46.702
652.589, 512.103
653.896, 887.546
655.202, 126.983
656.508, 1038.537
657.814, 134.086
659.119, 379.731
660.424, 925.410
661.729, 138.851
663.034, 1036.893
664.339, 252.667
665.643, 598.509
666.947, 875.363
668.251, 101.270
669.555, 1287.204
670.859, 433.168
672.162, 869.161
673.465, 1055.185
674.768, 131.237
676.071, 1317.321
677.373, 284.577
678.676, 690.722
679.978, 966.898
681.280, 173.106
682.581, 1449.349
683.883, 365.622
685.184, 1021.929
686.485, 1298.269
687.786, 514.646
689.087, 1801.060
690.387, 878.240
691.687, 1614.784
692.987, 2031.404
694.287, 1078.104
695.586, 2764.842
696.886, 1612.979
698.185, 2429.919
699.484, 2906.982
700.783, 2234.097
702.081, 3701.273
703.379, 2748.564
704.677, 3245.895
705.975, 3723.363
707.273, 2630.883
708.570, 3748.489
709.868, 2546.188
711.165, 2473.928
712.462, 2801.801
713.758, 1791.879
715.055, 2899.911
716.351, 1978.007
717.647, 2296.149
718.943, 2804.358
720.238, 1838.262
721.533, 3356.555
722.829, 2504.886
724.124, 3013.254
725.418, 3781.661
726.713, 2749.494
728.007, 4047.975
729.301, 2946.495
730.595, 2865.052
731.889, 3253.646
733.182, 1459.541
734.476, 2498.209
735.769, 1356.915
737.061, 1315.707
738.354, 1814.487
739.647, 443.471
740.939, 1662.326
742.231, 791.219
743.523, 751.192
744.814, 1500.159
746.106, 89.164
747.397, 1408.205
748.688, 567.284
749.978, 502.822
751.269, 1381.976
752.559, 51.165
753.849, 1130.393
755.139, 649.657
756.429, 340.384
757.719, 1159.721
759.008, 70.905
760.297, 990.112
761.586, 479.534
762.875, 79.521
764.163, 1249.013
765.451, 51.526
766.739, 1050.756
768.027, 690.335
769.315, 270.451
770.602, 1240.100
771.890, 175.908
773.177, 986.557
774.463, 686.311
775.750, 3.900
777.036, 1295.917
778.323, 96.375
779.609, 801.160
780.894, 871.043
782.180, 30.960
783.465, 1367.664
784.750, 63.282
786.035, 763.304
787.320, 923.360
788.605, 6.549
789.889, 1352.929
791.173, 240.929
792.457, 641.115
793.741, 1071.336
795.024, 1.592
796.307, 1183.759
797.591, 308.751
798.873, 629.101
800.156, 989.485
801.439, 139.902
802.721, 1120.353
804.003, 420.925
805.285, 461.439
806.566, 1081.988
807.848, 82.569
809.129, 1173.183
810.410, 539.990
811.691, 500.672
812.971, 1331.385
814.252, 152.167
815.532, 1322.982
816.812, 809.499
818.092, 250.387
819.371, 1381.309
820.651, 17.740
821.930, 1093.232
823.209, 874.236
824.488, 105.271
825.766, 1406.339
827.045, 237.438
828.323, 828.568
829.601, 999.730
830.878, 19.075
832.156, 1262.139
833.433, 203.384
834.710, 544.678
835.987, 1056.408
837.264, 17.765
838.540, 1079.170
839.817, 340.604
841.093, 362.072
842.369, 1063.572
843.644, 4.897
844.920, 1066.662
846.195, 468.254
847.470, 379.876
848.745, 1051.530
850.020, 16.786
851.294, 1064.917
852.568, 746.650
853.842, 328.411
855.116, 1360.215
856.390, 182.046
857.663, 1083.905
858.936, 915.793
860.209, 87.707
861.482, 1249.650
862.755, 201.620
864.027, 623.616
865.299, 895.645
866.571, 32.303
867.843, 1279.755
869.115, 321.837
870.386, 493.942
871.657, 1196.074
872.928, 101.771
874.199, 1170.356
875.470, 422.515
876.740, 224.693
878.010, 1126.894
879.280, 170.886
880.550, 661.273
881.820, 283.467
883.089, 165.678
884.358, 927.888
885.627, 129.909
886.896, 872.284
888.164, 694.501
889.433, 26.739
890.701, 1268.992
891.969, 21.271
893.236, 443.570
894.504, 1005.862
895.771, 1.823
897.038, 1070.501
898.305, 312.849
899.572, 295.209
900.838, 977.588
902.105, 110.073
903.371, 702.256
904.637, 494.606
905.902, 136.923
907.168, 1059.262
908.433, 8.419
909.698, 523.914
910.963, 656.232
912.228, 14.049
913.492, 898.252
914.757, 10.572
916.021, 462.910
917.285, 605.256
918.548, 224.276
919.812, 958.055
921.075, 10.406
922.338, 302.774
923.601, 745.163
924.864, 192.410
926.126, 759.988
927.388, 402.406
928.650, 54.462
929.912, 1116.918
931.174, 134.886
932.435, 717.585
933.697, 720.075
934.958, 117.415
936.218, 1085.079
937.479, 57.610
938.739, 550.161
940.000, 932.730
941.260, 165.289
942.520, 797.274
943.779, 199.867
945.039, 182.477
946.298, 805.104
947.557, 22.664
948.816, 709.988
950.074, 622.682
951.333, 315.392
952.591, 1338.119
953.849, 260.861
955.107, 1013.622
956.365, 1136.441
957.622, 449.278
958.879, 1702.132
960.136, 905.003
961.393, 1397.892
962.650, 2371.320
963.906, 1664.262
965.162, 3596.104
966.418, 4079.082
967.674, 4402.076
968.930, 6107.084
970.185, 4280.138
971.441, 3933.212
972.696, 3045.324
973.950, 1558.441
975.205, 2121.584
976.459, 924.750
977.714, 1067.939
978.968, 1171.154
980.222, 304.393
981.475, 1078.075
982.729, 590.224
983.982, 283.539
985.235, 950.860
986.488, 14.229
987.740, 897.622
988.993, 684.601
990.245, 168.050
991.497, 1241.793
992.749, 255.300
994.000, 788.837
995.252, 1613.443
996.503, 737.044
997.754, 1890.677
999.005, 1214.630
1000.256, 908.156
1001.506, 1741.376
1002.756, 624.918
1004.006, 1268.491
1005.256, 1065.086
1006.506, 498.719
1007.755, 1442.382
1009.005, 646.066
1010.254, 889.673
1011.502, 1333.765
1012.751, 547.311
1014.000, 1910.865
1015.248, 1186.041
1016.496, 1679.560
1017.744, 2940.919
1018.991, 2394.574
1020.239, 4247.938
1021.486, 5741.994
1022.733, 7085.333
1023.980, 11582.979
1025.227, 13758.383
1026.473, 16351.535
1027.719, 16374.637
1028.965, 12217.640
1030.211, 10100.896
1031.457, 7207.516
1032.702, 4679.812
1033.948, 4637.794
1035.193, 2494.531
1036.438, 2858.557
1037.682, 2452.555
1038.927, 1666.456
1040.171, 2419.463
1041.415, 1503.574
1042.659, 1577.709
1043.903, 2014.988
1045.146, 999.114
1046.390, 1831.708
1047.633, 1365.873
1048.876, 1028.275
1050.118, 2281.913
1051.361, 1061.751
1052.603, 1835.346
1053.845, 2259.539
1055.087, 1571.013
1056.329, 2685.139
1057.571, 2420.177
1058.812, 2394.314
1060.053, 3710.287
1061.294, 3174.391
1062.535, 4446.933
1063.775, 5110.973
1065.016, 4725.039
1066.256, 6256.727
1067.496, 5370.816
1068.736, 5444.928
1069.975, 5769.062
1071.214, 4133.215
1072.454, 4887.390
1073.693, 3921.575
1074.931, 3195.675
1076.170, 3969.778
1077.408, 2383.883
1078.647, 2798.018
1079.885, 2842.166
1081.122, 1506.329
1082.360, 2770.501
1083.597, 2194.699
1084.835, 2398.238
1086.072, 3462.371
1087.308, 2586.480
1088.545, 3810.593
1089.781, 4154.696
1091.018, 3878.800
1092.254, 5042.908
1093.490, 3717.021
1094.725, 3441.089
1095.961, 3605.155
1097.196, 1899.216
1098.431, 2543.273
1099.666, 1937.305
1100.900, 1051.374
1102.135, 2185.439
1103.369, 919.556
1104.603, 1273.695
1105.837, 1557.850
1107.071, 282.161
1108.304, 1306.519
1109.538, 701.053
1110.771, 75.594
1112.004, 940.162
1113.236, 145.206
1114.469, 269.513
1115.701, 804.271
1116.933, 30.786
1118.165, 1084.329
1119.397, 509.726
1120.629, 685.348
1121.860, 1531.189
1123.091, 567.339
1124.322, 1263.586
1125.553, 1089.936
1126.783, 266.360
1128.014, 1402.865
1129.244, 169.458
1130.474, 356.145
1131.704, 1192.926
1132.933, 50.186
1134.163, 786.841
1135.392, 883.992
1136.621, 38.720
1137.850, 1428.713
1139.079, 256.307
1140.307, 524.076
1141.535, 1202.040
1142.763, 10.211
1143.991, 1168.609
1145.219, 617.244
1146.446, 294.016
1147.674, 1274.492
1148.901, 132.388
1150.128, 701.218
1151.354, 1049.072
1152.581, 22.971
1153.807, 1465.066
1155.033, 643.170
1156.259, 418.899
1157.485, 1502.602
1158.710, 279.382
1159.936, 751.693
1161.161, 1344.653
1162.386, 55.643
1163.611, 1488.219
1164.835, 738.709
1166.060, 373.972
1167.284, 1285.531
1168.508, 243.935
1169.732, 761.618
1170.955, 1053.327
1172.179, 34.813
1173.402, 1277.951
1174.625, 588.076
1175.848, 502.682
1177.070, 1416.562
1178.293, 3.222
1179.515, 968.994
1180.737, 0.000
##END=



