##NAMES=Natrolite
##RRUFFID=R060561
##IDEAL CHEMISTRY=Na_2_(Si_3_Al_2_)O_10_&#183;2H_2_O
##LOCALITY=California, USA
##OWNER=RRUFF
##SOURCE=Gemological Institute of America
##DESCRIPTION=White fragment
##STATUS=The identification of this mineral has been confirmed by X-ray diffraction and chemical analysis
##URL=rruff.info/R060561
##MEASURED CHEMISTRY=Na_2.00_(Si_3.00_Al_2.00_)O_10_Â·2H_2_O
##PIN_ID=L00681
##ORIENTATION=Laser parallel to a* (1 0 0). Fiducial mark perpendicular to laser is parallel to -b [0 -1 0]
89.70800, 0.0000000E+00
90.94300, 79.04224
92.17800, 157.6387
93.41300, 217.7903
94.64800, 275.3475
95.88300, 310.0796
97.11800, 160.5270
98.35200, 39.20032
99.58700, 26.72546
100.8210, 66.98523
102.0550, 94.32007
103.2890, 31.43335
104.5220, 154.0316
105.7560, 324.4998
106.9890, 423.4622
108.2230, 583.4729
109.4560, 851.1492
110.6890, 1117.150
111.9210, 1552.162
113.1540, 1865.894
114.3870, 2253.077
115.6190, 2612.468
116.8510, 2798.850
118.0830, 3020.031
119.3150, 3588.833
120.5470, 4211.101
121.7780, 4499.697
123.0100, 4753.491
124.2410, 4860.369
125.4720, 4766.229
126.7030, 4752.012
127.9340, 5267.656
129.1640, 5830.066
130.3950, 6330.154
131.6250, 7424.833
132.8550, 8880.010
134.0850, 10470.59
135.3150, 12309.48
136.5450, 14211.62
137.7750, 15528.94
139.0040, 17188.38
140.2330, 19292.90
141.4620, 21801.46
142.6910, 24394.02
143.9200, 26632.53
145.1490, 27855.97
146.3770, 27849.31
147.6060, 26714.52
148.8340, 24952.58
150.0620, 22657.46
151.2900, 20683.14
152.5170, 18804.60
153.7450, 17785.81
154.9720, 17698.78
156.2000, 17865.46
157.4270, 18226.86
158.6540, 19402.95
159.8810, 20816.72
161.1070, 22569.17
162.3340, 24695.64
163.5600, 26539.45
164.7860, 26853.74
166.0120, 26376.53
167.2380, 24873.91
168.4640, 21833.88
169.6890, 19244.38
170.9150, 16565.36
172.1400, 14756.79
173.3650, 13032.55
174.5900, 12143.53
175.8150, 11133.69
177.0400, 10401.04
178.2640, 9572.620
179.4880, 9021.432
180.7130, 8600.488
181.9370, 8289.800
183.1600, 8129.380
184.3840, 8308.234
185.6080, 8542.369
186.8310, 8632.787
188.0540, 8800.500
189.2770, 8892.504
190.5000, 8721.804
191.7230, 8924.408
192.9460, 9012.312
194.1680, 9524.521
195.3910, 10234.04
196.6130, 11320.85
197.8350, 12735.97
199.0570, 13986.40
200.2780, 15570.13
201.5000, 16720.17
202.7210, 18220.50
203.9420, 19754.14
205.1640, 20947.08
206.3840, 22538.32
207.6050, 23887.86
208.8260, 24349.69
210.0460, 23704.82
211.2670, 21587.24
212.4870, 19022.95
213.7070, 16209.95
214.9270, 13319.25
216.1460, 11089.83
217.3660, 9406.708
218.5850, 7977.871
219.8050, 6849.324
221.0240, 6032.066
222.2430, 5575.100
223.4610, 4893.420
224.6800, 4872.029
225.8980, 4553.925
227.1170, 4470.108
228.3350, 4621.575
229.5530, 4863.326
230.7710, 5385.359
231.9880, 6141.670
233.2060, 7120.682
234.4230, 7873.826
235.6400, 8502.988
236.8570, 9393.388
238.0740, 10333.39
239.2910, 11859.69
240.5080, 13499.79
241.7240, 14655.74
242.9400, 14880.51
244.1570, 13527.83
245.3730, 11544.41
246.5880, 9217.393
247.8040, 7048.191
249.0190, 5426.961
250.2350, 4330.717
251.4500, 3768.859
252.6650, 3277.953
253.8800, 3039.843
255.0950, 3054.181
256.3090, 2907.852
257.5240, 3026.774
258.7380, 3171.170
259.9520, 3393.021
261.1660, 3936.313
262.3800, 4175.029
263.5930, 4599.154
264.8070, 4817.679
266.0200, 5235.588
267.2330, 5711.871
268.4460, 6074.518
269.6590, 6616.517
270.8720, 6936.859
272.0850, 7148.535
273.2970, 6632.537
274.5090, 5859.855
275.7210, 5286.484
276.9330, 4763.414
278.1450, 3430.639
279.3570, 2839.151
280.5680, 2441.945
281.7790, 2332.015
282.9910, 1943.355
284.2020, 1932.960
285.4120, 1843.825
286.6230, 1887.946
287.8340, 1946.498
289.0440, 2072.938
290.2540, 2208.799
291.4640, 2369.900
292.6740, 2638.235
293.8840, 3119.803
295.0940, 3855.596
296.3030, 4820.613
297.5120, 5968.854
298.7210, 7242.310
299.9300, 8485.979
301.1390, 9491.862
302.3480, 10723.95
303.5560, 12079.25
304.7650, 14226.75
305.9730, 15914.44
307.1810, 16527.34
308.3890, 15771.43
309.5970, 13450.70
310.8040, 10525.16
312.0120, 7727.807
313.2190, 5529.629
314.4260, 3713.631
315.6330, 2695.809
316.8400, 2021.162
318.0460, 1675.688
319.2530, 1138.388
320.4590, 1073.257
321.6650, 900.2979
322.8710, 866.5088
324.0770, 922.8896
325.2830, 670.4395
326.4880, 694.1582
327.6940, 769.0430
328.8990, 727.0947
330.1040, 623.3125
331.3090, 577.6943
332.5140, 590.7002
333.7180, 679.9492
334.9230, 686.8408
336.1270, 611.9297
337.3310, 734.1914
338.5350, 685.6113
339.7390, 593.2012
340.9430, 631.9609
342.1460, 633.9424
343.3500, 622.0898
344.5530, 708.4775
345.7560, 785.0791
346.9590, 980.9004
348.1620, 1128.898
349.3640, 1374.092
350.5670, 1499.445
351.7690, 1713.974
352.9710, 1982.689
354.1730, 2126.586
355.3750, 2524.678
356.5760, 2627.967
357.7780, 2855.442
358.9790, 3139.084
360.1800, 3229.891
361.3810, 3077.857
362.5820, 2813.979
363.7830, 2338.248
364.9830, 1846.684
366.1840, 1364.269
367.3840, 1152.994
368.5840, 559.8613
369.7840, 538.8867
370.9840, 318.0625
372.1830, 147.3701
373.3830, 26.19434
374.5820, 271.6377
375.7810, 230.0020
376.9800, 155.2832
378.1790, 299.5264
379.3780, 440.7725
380.5760, 409.1152
381.7750, 297.4219
382.9730, 219.6484
384.1710, 352.7656
385.3690, 402.8203
386.5660, 373.8330
387.7640, 571.7939
388.9610, 402.7842
390.1590, 386.7305
391.3560, 428.6279
392.5530, 382.4951
393.7500, 244.3213
394.9460, 294.0693
396.1430, 189.7617
397.3390, 260.3633
398.5350, 42.90332
399.7310, 113.3066
400.9270, 39.40039
402.1230, 210.2656
403.3180, 188.2900
404.5140, 238.4717
405.7090, 456.8105
406.9040, 537.3027
408.0990, 834.9482
409.2930, 928.7451
410.4880, 1106.691
411.6820, 1453.785
412.8770, 1643.024
414.0710, 1789.409
415.2650, 2234.938
416.4590, 2517.606
417.6520, 2813.416
418.8460, 3511.365
420.0390, 4491.451
421.2320, 5420.674
422.4250, 6653.031
423.6180, 8395.523
424.8110, 10534.15
426.0030, 12821.90
427.1960, 15566.79
428.3880, 18379.80
429.5800, 21619.95
430.7720, 25155.22
431.9640, 28819.62
433.1550, 32366.14
434.3470, 35706.78
435.5380, 38147.55
436.7290, 39515.45
437.9200, 39921.45
439.1110, 39288.60
440.3020, 38223.84
441.4920, 37228.20
442.6820, 36172.69
443.8730, 35752.30
445.0630, 35556.01
446.2530, 35300.85
447.4420, 34762.79
448.6320, 32120.85
449.8210, 28389.02
451.0100, 23786.30
452.2000, 19096.69
453.3880, 14849.19
454.5770, 10848.80
455.7660, 8187.521
456.9540, 6026.463
458.1430, 4599.274
459.3310, 3641.312
460.5190, 2790.451
461.7070, 2315.694
462.8940, 1794.043
464.0820, 1395.493
465.2690, 1227.045
466.4560, 978.6982
467.6430, 797.4512
468.8300, 758.3037
470.0170, 404.2578
471.2040, 530.3174
472.3900, 305.4785
473.5760, 184.7402
474.7620, 377.1025
475.9480, 318.5596
477.1340, 323.3623
478.3200, 295.9404
479.5050, 255.2715
480.6900, 391.1104
481.8750, 465.1943
483.0600, 472.1094
484.2450, 702.0742
485.4300, 508.6572
486.6140, 656.8994
487.7990, 851.0400
488.9830, 1017.033
490.1670, 1285.236
491.3510, 1422.093
492.5350, 1428.473
493.7180, 1735.069
494.9020, 1748.991
496.0850, 1704.155
497.2680, 1766.550
498.4510, 1810.137
499.6340, 1933.244
500.8160, 2028.044
501.9990, 2201.844
503.1810, 2303.309
504.3630, 2605.152
505.5450, 2820.665
506.7270, 3043.975
507.9090, 3431.911
509.0900, 3848.112
510.2720, 4331.990
511.4530, 4663.918
512.6340, 5384.412
513.8150, 5973.980
514.9950, 6448.485
516.1760, 7375.102
517.3560, 8093.447
518.5370, 9465.512
519.7170, 10567.65
520.8970, 11868.66
522.0770, 13525.11
523.2560, 15603.97
524.4360, 17798.94
525.6150, 21135.27
526.7940, 24120.59
527.9730, 26767.57
529.1520, 30297.85
530.3310, 33734.54
531.5090, 37253.42
532.6870, 39776.00
533.8660, 40625.64
535.0440, 39140.39
536.2210, 35437.49
537.3990, 29914.27
538.5770, 24211.74
539.7540, 19040.04
540.9310, 14792.49
542.1080, 11899.17
543.2850, 9307.149
544.4620, 7453.191
545.6390, 6206.288
546.8150, 5017.439
547.9920, 4308.643
549.1680, 3626.903
550.3440, 3300.213
551.5190, 2771.572
552.6950, 2335.981
553.8710, 1922.438
555.0460, 1971.940
556.2210, 1600.490
557.3960, 1468.086
558.5710, 1273.727
559.7460, 1039.410
560.9200, 882.1367
562.0950, 713.9062
563.2690, 891.7158
564.4430, 489.5674
565.6170, 656.4570
566.7910, 546.3867
567.9640, 503.3545
569.1380, 447.3594
570.3110, 480.4023
571.4840, 414.8682
572.6570, 464.5928
573.8300, 355.7412
575.0030, 414.9219
576.1750, 430.1367
577.3470, 440.3828
578.5200, 497.6611
579.6920, 361.9707
580.8630, 330.3086
582.0350, 458.6777
583.2070, 392.0742
584.3780, 598.4971
585.5490, 559.9482
586.7200, 633.4258
587.8910, 618.9287
589.0620, 894.4561
590.2330, 1032.008
591.4030, 1075.582
592.5730, 1301.180
593.7430, 1412.801
594.9130, 1903.441
596.0830, 2047.104
597.2530, 2245.785
598.4220, 2082.485
599.5920, 2210.205
600.7610, 2212.942
601.9300, 1876.697
603.0990, 1750.469
604.2670, 1778.256
605.4360, 1339.057
606.6040, 1199.872
607.7720, 995.7031
608.9400, 804.7002
610.1080, 578.3008
611.2760, 298.3896
612.4440, 332.7002
613.6110, 395.6436
614.7780, 217.5215
615.9450, 191.5342
617.1120, 6.992188
618.2790, 74.07812
619.4460, 28.02930
620.6120, 189.4297
621.7780, 43.33496
622.9450, 23.00781
624.1110, 190.8096
625.2760, 39.12891
626.4420, 275.8926
627.6080, 169.1523
628.7730, 198.3164
629.9380, 26.54004
631.1030, 105.8828
632.2680, 45.57715
633.4330, 21.67285
634.5970, 76.73145
635.7620, 61.93652
636.9260, 110.3486
638.0900, 121.6230
639.2540, 91.36719
640.4180, 7.267578
641.5810, 3.641602
642.7450, 21.23438
643.9080, 43.72070
645.0710, 56.51562
646.2340, 20.35059
647.3970, 56.18848
648.5590, 136.5850
649.7220, 107.7910
650.8840, 1.076172
652.0460, 31.81348
653.2080, 228.7979
654.3700, 308.6191
655.5320, 557.6543
656.6930, 447.0020
657.8550, 276.7129
659.0160, 544.8145
660.1770, 533.2715
661.3380, 498.5449
662.4990, 617.5977
663.6590, 648.9854
664.8200, 607.9717
665.9800, 776.3105
667.1400, 905.0830
668.3000, 777.8359
669.4600, 715.6299
670.6190, 640.7002
671.7790, 753.8242
672.9380, 724.4033
674.0970, 911.4170
675.2560, 855.5029
676.4150, 733.3301
677.5740, 950.6377
678.7320, 984.5127
679.8900, 1034.510
681.0490, 1209.399
682.2070, 1446.288
683.3640, 1466.174
684.5220, 1447.145
685.6800, 1687.229
686.8370, 1885.214
687.9940, 2186.817
689.1510, 2131.531
690.3080, 2635.213
691.4650, 2919.867
692.6220, 3204.486
693.7780, 3757.074
694.9340, 4047.631
696.0900, 4624.152
697.2460, 4953.641
698.4020, 5585.098
699.5580, 5833.521
700.7130, 6708.906
701.8680, 6898.260
703.0240, 7322.578
704.1790, 7422.859
705.3330, 7309.105
706.4880, 7215.318
707.6430, 6954.492
708.7970, 6359.629
709.9510, 5768.730
711.1050, 4956.865
712.2590, 4599.893
713.4130, 4272.881
714.5660, 3933.828
715.7200, 3616.738
716.8730, 3536.611
718.0260, 3589.445
719.1790, 3195.262
720.3320, 3293.016
721.4840, 3409.746
722.6370, 3338.422
723.7890, 3520.055
724.9410, 3422.646
726.0930, 3553.199
727.2450, 3214.707
728.3960, 3259.178
729.5480, 3035.670
730.6990, 2787.055
731.8500, 2269.398
733.0010, 2092.699
734.1520, 1875.955
735.3030, 1478.170
736.4530, 1248.340
737.6040, 1062.467
738.7540, 959.5508
739.9040, 794.5918
741.0540, 801.5879
742.2030, 661.5410
743.3530, 586.4492
744.5020, 598.3125
745.6520, 474.1309
746.8010, 372.9434
747.9490, 298.9180
749.0980, 254.9512
750.2470, 238.8418
751.3950, 269.4102
752.5440, 275.9160
753.6920, 397.4883
754.8400, 328.0859
755.9870, 414.6172
757.1350, 350.2812
758.2820, 216.0098
759.4300, 179.2070
760.5770, 192.1953
761.7240, 330.3887
762.8710, 223.5625
764.0170, 217.4863
765.1640, 136.4883
766.3100, 114.5977
767.4560, 99.98828
768.6020, 99.41406
769.7480, 188.7012
770.8940, 135.0176
772.0400, 191.0449
773.1850, 199.7266
774.3300, 120.7578
775.4750, 50.20898
776.6200, 55.41016
777.7650, 36.70898
778.9090, 70.93945
780.0540, 65.97852
781.1980, 29.75977
782.3420, 49.81250
783.4860, 77.73047
784.6300, 114.8184
785.7740, 117.6738
786.9170, 64.05664
788.0600, 50.42188
789.2030, 12.91406
790.3460, 58.02344
791.4890, 1.095703
792.6320, 115.8535
793.7740, 194.1367
794.9170, 0.2578130
796.0590, 112.0508
797.2010, 187.3555
798.3430, 101.8125
799.4850, 127.6582
800.6260, 49.38672
801.7670, 70.94531
802.9090, 279.4492
804.0500, 180.9160
805.1910, 193.3398
806.3310, 194.7227
807.4720, 166.0605
808.6120, 79.35938
809.7530, 117.6035
810.8930, 12.20117
812.0330, 195.9141
813.1720, 262.9883
814.3120, 164.0215
815.4510, 287.0098
816.5910, 236.9570
817.7300, 312.8633
818.8690, 105.7285
820.0080, 103.5449
821.1460, 223.3086
822.2850, 188.0332
823.4230, 203.7148
824.5610, 114.3516
825.6990, 297.9414
826.8370, 374.4902
827.9750, 334.0020
829.1120, 276.4727
830.2500, 256.9043
831.3870, 257.7148
832.5240, 376.6484
833.6610, 310.9609
834.7980, 346.2363
835.9340, 417.4707
837.0700, 361.6699
838.2070, 365.8281
839.3430, 437.9492
840.4790, 323.0332
841.6140, 292.0801
842.7500, 342.0859
843.8850, 244.0566
845.0210, 251.9395
846.1560, 350.8848
847.2910, 207.7461
848.4260, 306.5684
849.5600, 308.3555
850.6950, 325.1035
851.8290, 221.8184
852.9630, 269.4980
854.0970, 403.1406
855.2310, 207.7461
856.3650, 357.3203
857.4980, 204.8555
858.6310, 252.3574
859.7650, 234.8262
860.8980, 241.2598
862.0310, 272.6582
863.1630, 299.0254
864.2960, 407.3555
865.4280, 179.6562
866.5600, 338.9199
867.6920, 255.1523
868.8240, 304.3535
869.9560, 341.5195
871.0880, 342.6562
872.2190, 270.7598
873.3500, 315.8340
874.4810, 225.8770
875.6120, 294.8848
876.7430, 529.8652
877.8740, 228.8145
879.0040, 259.7344
880.1340, 169.6230
881.2650, 373.4824
882.3950, 155.3105
883.5240, 116.9570
884.6540, 261.9824
885.7830, 66.50391
886.9130, 152.7832
888.0420, 158.4531
889.1710, 15.17383
890.3000, 109.7344
891.4280, 79.82031
892.5570, 94.41797
893.6850, 125.7656
894.8130, 180.7891
895.9420, 205.2852
897.0690, 151.9844
898.1970, 119.1367
899.3250, 5.449219
900.4520, 54.31836
901.5790, 123.0293
902.7060, 31.80469
903.8330, 41.35547
904.9600, 68.59570
906.0870, 4.041016
907.2130, 41.99023
908.3390, 130.2188
909.4650, 38.63086
910.5910, 224.6328
911.7170, 122.4258
912.8430, 96.60938
913.9680, 121.1250
915.0930, 57.46289
916.2180, 2.109375
917.3430, 145.5859
918.4680, 218.9297
919.5930, 84.10352
920.7170, 76.40625
921.8420, 21.94727
922.9660, 3.789063
924.0900, 71.44922
925.2140, 31.60156
926.3370, 77.45898
927.4610, 49.45117
928.5840, 20.80078
929.7070, 15.38477
930.8310, 5.683594
931.9530, 29.62305
933.0760, 37.40430
934.1990, 14.00781
935.3210, 97.92188
936.4430, 69.59180
937.5650, 45.53516
938.6870, 175.1367
939.8090, 87.37109
940.9310, 228.6699
942.0520, 184.9707
943.1730, 330.0801
944.2940, 284.1855
945.4150, 386.8770
946.5360, 549.1895
947.6570, 571.4746
948.7770, 685.0391
949.8970, 705.1465
951.0180, 844.6973
952.1370, 962.1465
953.2570, 1253.686
954.3770, 1362.219
955.4960, 1798.727
956.6160, 2266.113
957.7350, 2618.355
958.8540, 3256.666
959.9730, 3950.344
961.0910, 4891.877
962.2100, 5698.410
963.3280, 6629.941
964.4460, 7786.467
965.5640, 8345.990
966.6820, 9219.512
967.8000, 9716.031
968.9180, 9805.551
970.0350, 9454.066
971.1520, 8331.582
972.2690, 7207.100
973.3860, 5688.615
974.5030, 4517.133
975.6190, 3410.648
976.7360, 2722.166
977.8520, 2050.684
978.9680, 1630.227
980.0840, 1502.771
981.2000, 1240.318
982.3160, 1379.795
983.4310, 1092.344
984.5460, 1321.896
985.6610, 1315.447
986.7760, 1288.004
987.8910, 1435.561
989.0060, 1631.121
990.1200, 1862.664
991.2350, 2135.230
992.3490, 2392.783
993.4630, 2720.357
994.5760, 2985.965
995.6900, 3423.574
996.8040, 3473.191
997.9170, 3232.812
999.0300, 3076.436
1000.143, 2563.998
1001.256, 2300.633
1002.369, 1751.273
1003.481, 1389.918
1004.594, 1229.568
1005.706, 1034.225
1006.818, 804.8887
1007.930, 778.5723
1009.042, 691.2617
1010.153, 793.9590
1011.264, 811.6641
1012.376, 818.3750
1013.487, 768.0938
1014.598, 798.8301
1015.708, 966.5742
1016.819, 1074.285
1017.929, 1391.816
1019.040, 1659.605
1020.150, 2251.777
1021.260, 2766.031
1022.370, 3044.861
1023.479, 3997.582
1024.589, 4299.262
1025.698, 4735.717
1026.807, 4914.316
1027.916, 4516.156
1029.025, 4097.072
1030.133, 3479.010
1031.242, 2837.963
1032.350, 2340.889
1033.458, 2030.885
1034.566, 1819.564
1035.674, 1651.578
1036.782, 1579.266
1037.890, 1477.020
1038.997, 1571.850
1040.104, 1704.201
1041.211, 1751.070
1042.318, 1835.678
1043.425, 1774.744
1044.531, 2051.076
1045.638, 2154.361
1046.744, 2658.662
1047.850, 2536.957
1048.956, 2752.971
1050.061, 3070.996
1051.167, 2973.439
1052.272, 3111.898
1053.378, 2991.846
1054.483, 2894.486
1055.588, 2802.529
1056.692, 2292.055
1057.797, 2383.688
1058.901, 2270.352
1060.006, 2213.031
1061.110, 2382.736
1062.214, 2306.078
1063.318, 2250.549
1064.421, 2386.037
1065.525, 2516.250
1066.628, 2676.277
1067.731, 2749.885
1068.834, 2769.578
1069.937, 3085.402
1071.040, 3237.244
1072.142, 3257.197
1073.244, 3157.059
1074.347, 2805.932
1075.449, 2701.816
1076.550, 2622.713
1077.652, 2515.623
1078.754, 2495.619
1079.855, 2605.502
1080.956, 2501.469
1082.057, 2645.443
1083.158, 2736.432
1084.259, 2775.436
1085.359, 2871.467
1086.460, 2912.506
1087.560, 3019.561
1088.660, 2949.631
1089.760, 3042.711
1090.860, 3145.609
1091.959, 2981.756
1093.059, 2836.889
1094.158, 2587.031
1095.257, 2473.186
1096.356, 2081.348
1097.455, 1846.521
1098.553, 1532.721
1099.652, 1555.928
1100.750, 1314.146
1101.848, 1169.375
1102.946, 805.6152
1104.044, 814.8613
1105.141, 764.1191
1106.239, 553.3848
1107.336, 477.6621
1108.433, 652.9473
1109.530, 432.2422
1110.627, 569.8477
1111.724, 408.1621
1112.820, 486.4824
1113.917, 547.8164
1115.013, 608.1602
1116.109, 534.5098
1117.205, 640.8691
1118.300, 587.2363
1119.396, 551.6230
1120.491, 677.0195
1121.586, 609.4219
1122.681, 716.8379
1123.776, 730.2598
1124.871, 537.7129
1125.965, 618.1777
1127.060, 563.6445
1128.154, 588.1230
1129.248, 623.6094
1130.342, 504.7246
1131.436, 507.6094
1132.529, 243.1211
1133.623, 325.6406
1134.716, 107.1699
1135.809, 161.7070
1136.902, 174.9238
1137.995, 216.7031
1139.087, 227.8242
1140.180, 212.8281
1141.272, 321.9785
1142.364, 203.5684
1143.456, 152.1660
1144.548, 233.7695
1145.639, 266.7070
1146.731, 194.3242
1147.822, 111.9531
1148.913, 166.5820
1150.004, 414.2246
1151.095, 193.0410
1152.186, 196.3008
1153.276, 219.2754
1154.366, 229.8574
1155.457, 438.6016
1156.546, 124.2012
1157.636, 143.8125
1158.726, 81.42773
1159.815, 112.0508
1160.905, 78.23438
1161.994, 72.86719
1163.083, 11.50781
1164.172, 114.1562
1165.261, 110.8125
1166.349, 264.4902
1167.437, 149.8281
1168.526, 46.19922
1169.614, 112.4199
1170.702, 24.04297
1171.789, 157.6758
1172.877, 40.68359
1173.964, 51.02734
1175.051, 1.619141
1176.138, 7.267578
1177.225, 54.41992
1178.312, 44.71680
1179.399, 114.2617
1180.485, 82.96094
1181.571, 19.66602
1182.657, 167.3770
1183.743, 89.91211
1184.829, 1.777344
1185.915, 9.535156
1187.000, 6.152344
1188.085, 151.8379
1189.171, 208.5293
1190.255, 64.22266
1191.340, 171.9180
1192.425, 262.6152
1193.509, 134.3184
1194.594, 12.97852
1195.678, 185.7207
1196.762, 25.42188
1197.846, 135.1309
1198.929, 103.8418
1200.013, 140.5703
1201.096, 286.2988
1202.179, 102.9727
1203.262, 228.7051
1204.345, 19.38477
1205.428, 90.06445
1206.510, 270.7461
1207.593, 143.4258
1208.675, 49.15039
1209.757, 136.8320
1210.839, 231.5156
1211.920, 38.19727
1213.002, 228.8809
1214.083, 169.8086
1215.164, 41.86719
1216.245, 218.5488
1217.326, 205.2344
1218.407, 207.9160
1219.488, 217.5977
1220.568, 6.720703
1221.648, 60.04883
1222.728, 86.09570
1223.808, 180.7305
1224.888, 41.36328
1225.967, 161.9961
1227.047, 181.6270
1228.126, 217.3652
1229.205, 305.9902
1230.284, 301.4297
1231.363, 304.6914
1232.441, 291.0234
1233.520, 267.6445
1234.598, 169.2910
1235.676, 163.9336
1236.754, 246.5742
1237.832, 70.21484
1238.910, 74.85156
1239.987, 85.51367
1241.064, 36.06445
1242.141, 79.64062
1243.218, 77.21289
1244.295, 124.7852
1245.372, 128.2031
1246.448, 158.9375
1247.525, 139.4805
1248.601, 209.9102
1249.677, 213.4668
1250.753, 217.0234
1251.828, 36.57617
1252.904, 188.1250
1253.979, 142.4199
1255.054, 89.03516
1256.129, 356.4453
1257.204, 421.9199
1258.279, 55.39258
1259.353, 131.8633
1260.428, 44.32812
1261.502, 118.7910
1262.576, 229.2520
1263.650, 169.7070
1264.724, 77.16016
1265.797, 186.4824
1266.871, 46.92578
1267.944, 28.63477
1269.017, 220.7734
1270.090, 319.1758
1271.162, 146.5762
1272.235, 201.9688
