##NAMES=Natrolite
##RRUFFID=R040112
##IDEAL CHEMISTRY=Na_2_(Si_3_Al_2_)O_10_&#183;2H_2_O
##LOCALITY=Ice River Alkaline Complex, Moose Creek Valley, Yoho National Park, British Columbia, Canada
##OWNER=RRUFF
##SOURCE=National Museums of Canada
##DESCRIPTION=Colorless pseudohexagonal prism
##STATUS=The identification of this mineral has been confirmed by X-ray diffraction and chemical analysis
##URL=rruff.info/R040112
##MEASURED CHEMISTRY=Na_2.00_(Si_3.00_Al_2.00_)O_10_Â·2H_2_O
##PIN_ID=L00277
##ORIENTATION=Laser parallel to -a* (-1 0 0). Fiducial mark perpendicular to laser is parallel to b [0 1 0]
98.251, 0.000
99.644, 78.300
101.036, 11.368
102.428, 52.921
103.820, 43.289
105.212, 392.995
106.604, 452.060
107.995, 474.510
109.387, 754.290
110.777, 466.175
112.168, 347.225
113.559, 360.686
114.949, 660.912
116.339, 389.387
117.729, 830.688
119.119, 808.712
120.508, 941.029
121.897, 1283.593
123.286, 1575.849
124.675, 1763.348
126.063, 1573.752
127.452, 1170.819
128.840, 911.366
130.228, 761.248
131.615, 894.428
133.003, 1018.807
134.390, 1484.249
135.777, 2049.748
137.164, 3000.332
138.550, 4078.012
139.937, 5798.939
141.323, 7584.608
142.709, 8832.989
144.094, 9811.151
145.480, 8908.368
146.865, 7464.555
148.250, 5299.782
149.635, 3444.130
151.019, 2507.677
152.403, 1865.487
153.788, 1850.623
155.171, 2080.187
156.555, 2995.222
157.939, 4215.718
159.322, 6055.711
160.705, 8665.238
162.088, 10564.329
163.470, 12574.326
164.853, 11613.150
166.235, 10542.339
167.617, 8239.851
168.998, 6387.060
170.380, 4924.254
171.761, 3621.517
173.142, 2968.604
174.523, 2089.452
175.904, 1828.114
177.284, 1358.994
178.664, 1047.596
180.044, 1050.511
181.424, 800.917
182.803, 783.945
184.183, 826.021
185.562, 832.728
186.940, 722.689
188.319, 722.340
189.698, 645.431
191.076, 631.282
192.454, 737.406
193.831, 838.085
195.209, 1037.178
196.586, 1245.027
197.963, 1190.958
199.340, 1472.965
200.717, 1330.042
202.093, 1417.185
203.470, 1447.387
204.846, 1789.643
206.221, 2146.946
207.597, 2254.291
208.972, 2422.672
210.347, 2056.488
211.722, 1893.794
213.097, 1265.773
214.472, 1090.217
215.846, 923.681
217.220, 700.161
218.594, 687.655
219.967, 516.161
221.341, 491.675
222.714, 353.186
224.087, 297.679
225.460, 336.140
226.832, 176.567
228.204, 151.959
229.577, 171.318
230.948, 233.643
232.320, 118.937
233.692, 242.198
235.063, 290.429
236.434, 505.629
237.805, 795.741
239.175, 1100.964
240.545, 1578.544
241.916, 1847.702
243.286, 1749.630
244.655, 1500.674
246.025, 809.207
247.394, 641.731
248.763, 329.839
250.132, 286.475
251.501, 114.079
252.869, 103.534
254.237, 93.966
255.605, 41.625
256.973, 35.762
258.340, 112.885
259.708, 72.597
261.075, 216.429
262.442, 276.478
263.808, 172.057
265.175, 351.675
266.541, 205.467
267.907, 335.408
269.273, 287.167
270.639, 206.792
272.004, 165.307
273.369, 81.739
274.734, 31.813
276.099, 38.375
277.463, 81.386
278.828, 20.200
280.192, 80.044
281.556, 73.917
282.919, 204.807
284.283, 100.713
285.646, 229.619
287.009, 275.518
288.372, 278.402
289.734, 427.268
291.097, 207.109
292.459, 435.920
293.821, 328.701
295.183, 438.450
296.544, 486.165
297.905, 528.845
299.266, 740.488
300.627, 838.096
301.988, 1251.667
303.348, 1753.196
304.709, 2665.668
306.069, 3987.062
307.428, 4448.369
308.788, 4469.587
310.147, 3410.721
311.507, 2291.774
312.865, 1577.753
314.224, 926.658
315.583, 727.495
316.941, 400.266
318.299, 368.978
319.657, 316.627
321.015, 212.220
322.372, 285.755
323.729, 53.235
325.086, 334.658
326.443, 188.031
327.800, 293.349
329.156, 315.616
330.512, 303.833
331.868, 536.008
333.224, 349.140
334.579, 489.230
335.935, 444.277
337.290, 512.284
338.645, 727.250
339.999, 646.162
341.354, 881.964
342.708, 934.610
344.062, 1140.998
345.416, 1055.054
346.769, 1019.733
348.123, 1048.024
349.476, 897.054
350.829, 916.955
352.182, 851.806
353.534, 926.619
354.887, 1184.424
356.239, 1297.217
357.591, 1900.005
358.942, 2147.787
360.294, 2785.562
361.645, 2903.332
362.996, 2551.094
364.347, 2438.851
365.698, 1736.600
367.048, 1338.342
368.398, 970.076
369.748, 678.804
371.098, 625.521
372.448, 342.233
373.797, 346.935
375.146, 94.613
376.495, 116.278
377.844, 168.932
379.192, 41.423
380.540, 96.187
381.889, 52.215
383.236, 20.655
384.584, 20.877
385.932, 37.608
387.279, 64.873
388.626, 71.658
389.973, 170.557
391.319, 106.662
392.666, 5.842
394.012, 146.229
395.358, 36.067
396.704, 181.434
398.049, 46.794
399.394, 252.141
400.740, 192.477
402.084, 249.801
403.429, 467.085
404.774, 479.307
406.118, 755.485
407.462, 997.617
408.806, 1274.741
410.150, 1741.846
411.493, 2148.939
412.836, 2906.024
414.179, 3122.430
415.522, 3248.718
416.865, 3134.901
418.207, 2635.330
419.549, 2410.240
420.891, 1936.288
422.233, 1744.910
423.575, 1464.555
424.916, 1290.485
426.257, 1312.978
427.598, 1194.215
428.939, 1324.658
430.279, 1266.943
431.619, 1562.416
432.959, 1792.751
434.299, 2125.672
435.639, 2843.819
436.978, 3755.074
438.318, 6345.893
439.657, 8781.864
440.996, 12166.186
442.334, 15832.127
443.673, 15327.955
445.011, 14184.750
446.349, 9750.926
447.687, 6897.828
449.024, 5084.807
450.361, 3611.784
451.699, 2768.754
453.036, 2025.545
454.372, 1802.515
455.709, 1329.477
457.045, 1006.446
458.381, 1153.432
459.717, 860.420
461.053, 967.397
462.388, 854.363
463.724, 731.348
465.059, 708.320
466.394, 585.314
467.728, 612.297
469.063, 639.290
470.397, 746.302
471.731, 783.305
473.065, 797.144
474.398, 849.784
475.732, 794.404
477.065, 871.435
478.398, 858.729
479.731, 815.773
481.063, 1072.812
482.396, 1099.567
483.728, 1146.624
485.060, 1122.044
486.391, 1059.104
487.723, 1305.777
489.054, 1082.828
490.385, 1559.890
491.716, 1386.946
493.047, 1473.998
494.377, 1811.045
495.708, 1648.087
497.038, 2085.137
498.368, 2022.185
499.697, 2239.226
501.027, 2596.263
502.356, 2473.298
503.685, 3110.328
505.014, 3067.361
506.342, 3714.392
507.671, 4022.944
508.999, 4049.980
510.327, 4797.022
511.655, 5096.813
512.982, 5653.864
514.310, 6242.352
515.637, 6579.412
516.964, 7306.486
518.291, 6993.566
519.617, 7770.651
520.944, 7727.744
522.270, 7984.840
523.596, 8881.942
524.921, 9059.051
526.247, 11526.162
527.572, 13493.284
528.897, 17480.408
530.222, 23527.547
531.547, 30034.689
532.871, 38401.828
534.196, 41038.984
535.520, 40695.348
536.844, 36281.906
538.167, 27588.750
539.491, 22000.178
540.814, 15646.628
542.137, 11587.485
543.460, 8740.377
544.783, 6575.723
546.105, 5567.661
547.427, 4133.911
548.749, 3653.820
550.071, 3050.791
551.393, 2317.491
552.714, 2232.435
554.035, 1619.350
555.356, 1765.373
556.677, 1442.469
557.998, 1228.714
559.318, 1206.010
560.638, 1123.196
561.958, 1010.509
563.278, 947.830
564.597, 775.160
565.917, 812.500
567.236, 549.849
568.555, 747.206
569.874, 444.572
571.192, 541.949
572.511, 579.335
573.829, 296.732
575.147, 374.145
576.464, 311.567
577.782, 389.031
579.099, 296.516
580.416, 114.057
581.733, 411.646
583.050, 149.319
584.366, 347.148
585.683, 144.995
586.999, 133.033
588.315, 321.079
589.630, 20.760
590.946, 337.604
592.261, 165.947
593.576, 54.361
594.891, 442.825
596.206, 221.324
597.520, 369.966
598.834, 408.516
600.148, 376.042
601.462, 537.412
602.776, 256.029
604.089, 402.032
605.402, 253.137
606.715, 245.617
608.028, 296.336
609.341, 155.922
610.653, 210.022
611.965, 68.686
613.277, 58.035
614.589, 301.254
615.901, 0.061
617.212, 198.433
618.523, 17.132
619.834, 185.854
621.145, 260.967
622.456, 119.687
623.766, 345.690
625.076, 354.423
626.386, 447.559
627.696, 482.711
629.006, 311.479
630.315, 470.565
631.624, 239.347
632.933, 259.918
634.242, 180.004
635.551, 21.154
636.859, 174.236
638.167, 73.036
639.475, 91.917
640.783, 47.743
642.090, 23.444
643.398, 349.547
644.705, 158.372
646.012, 237.203
647.318, 289.386
648.625, 228.223
649.931, 487.063
651.237, 125.908
652.543, 204.755
653.849, 315.810
655.155, 4.663
656.460, 203.520
657.765, 162.378
659.070, 91.239
660.375, 220.104
661.679, 18.973
662.984, 107.842
664.288, 53.284
665.592, 45.576
666.895, 34.438
668.199, 76.696
669.502, 172.146
670.805, 49.009
672.108, 9.823
673.411, 130.115
674.713, 58.952
676.016, 207.790
677.318, 6.632
678.620, 155.476
679.921, 184.320
681.223, 43.167
682.524, 322.016
683.825, 220.876
685.126, 199.729
686.427, 529.708
687.727, 368.564
689.028, 697.422
690.328, 536.281
691.628, 765.141
692.927, 864.006
694.227, 722.876
695.526, 1141.747
696.825, 1050.647
698.124, 1379.552
699.423, 1408.485
700.721, 1387.441
702.020, 1836.408
703.318, 1705.398
704.616, 1794.396
705.913, 1753.426
707.211, 1542.459
708.508, 1711.495
709.805, 1250.543
711.102, 1179.594
712.399, 1138.650
713.695, 827.709
714.992, 906.771
716.288, 735.836
717.584, 924.900
718.879, 803.966
720.175, 753.031
721.470, 952.096
722.765, 781.161
724.060, 990.226
725.355, 1039.291
726.649, 1258.356
727.944, 1487.422
729.238, 996.486
730.532, 745.550
731.825, 744.614
733.119, 503.678
734.412, 662.740
735.705, 251.802
736.998, 410.862
738.291, 239.921
739.584, 18.979
740.876, 258.034
742.168, 17.086
743.460, 226.133
744.752, 105.177
746.043, 14.048
747.334, 123.082
748.626, 52.112
749.916, 91.137
751.207, 150.156
752.498, 19.169
753.788, 148.177
755.078, 132.821
756.368, 33.904
757.658, 44.980
758.947, 106.141
760.237, 27.333
761.526, 48.557
762.815, 19.820
764.104, 1.109
765.392, 72.417
766.680, 76.220
767.969, 4.852
769.257, 56.533
770.544, 122.035
771.832, 139.431
773.119, 149.040
774.406, 57.503
775.693, 84.041
776.980, 194.352
778.267, 97.263
779.553, 71.052
780.839, 50.640
782.125, 82.380
783.411, 109.817
784.697, 141.992
785.982, 156.728
787.267, 5.186
788.552, 2.874
789.837, 60.914
791.122, 81.325
792.406, 156.641
793.690, 54.600
794.974, 87.450
796.258, 360.431
797.542, 42.046
798.825, 175.781
800.108, 223.603
801.391, 28.584
802.674, 169.189
803.957, 166.957
805.239, 154.716
806.522, 182.467
807.804, 9.790
809.085, 267.925
810.367, 115.629
811.649, 163.328
812.930, 261.021
814.211, 128.705
815.492, 336.382
816.772, 194.051
818.053, 251.713
819.333, 247.847
820.613, 295.493
821.893, 343.133
823.173, 98.020
824.452, 115.644
825.732, 311.831
827.011, 0.560
828.290, 307.027
829.568, 224.608
830.847, 102.182
832.125, 309.749
833.403, 187.310
834.681, 154.883
835.959, 312.449
837.236, 70.009
838.514, 297.561
839.791, 5.106
841.068, 292.632
842.345, 300.151
843.621, 197.664
844.898, 345.176
846.174, 272.682
847.450, 240.182
848.726, 497.673
850.001, 225.159
851.277, 332.657
852.552, 330.148
853.827, 317.633
855.102, 665.112
856.376, 252.585
857.651, 650.052
858.925, 607.524
860.199, 424.991
861.473, 782.449
862.746, 399.901
864.020, 707.345
865.293, 574.783
866.566, 282.215
867.839, 579.638
869.112, 377.056
870.384, 384.466
871.656, 531.871
872.928, 259.270
874.200, 466.660
875.472, 134.046
876.744, 541.426
878.015, 458.799
879.286, 306.181
880.557, 473.554
881.828, 360.923
883.098, 178.285
884.369, 395.641
885.639, 302.989
886.909, 460.333
888.178, 277.669
889.448, 294.998
890.717, 422.322
891.987, 149.645
893.256, 196.906
894.524, 204.218
895.793, 191.447
897.061, 398.744
898.330, 276.035
899.598, 283.221
900.865, 390.499
902.133, 287.780
903.401, 415.057
904.668, 282.325
905.935, 299.493
907.202, 346.762
908.468, 155.069
909.735, 299.541
911.001, 286.773
912.267, 206.627
913.533, 401.384
914.799, 324.771
916.064, 249.921
917.330, 376.208
918.595, 67.982
919.860, 275.198
921.124, 141.732
922.389, 184.399
923.653, 481.600
924.918, 198.997
926.182, 366.193
927.445, 243.370
928.709, 94.154
929.972, 581.338
931.236, 81.235
932.499, 358.409
933.761, 341.181
935.024, 78.063
936.286, 529.060
937.549, 24.137
938.811, 262.974
940.073, 298.299
941.334, 224.114
942.596, 441.178
943.857, 91.696
945.118, 198.809
946.379, 205.846
947.640, 235.945
948.900, 253.062
950.161, 286.017
951.421, 213.138
952.681, 410.263
953.940, 204.042
955.200, 321.172
956.459, 388.305
957.719, 125.440
958.978, 332.579
960.236, 227.518
961.495, 404.662
962.753, 551.811
964.012, 338.963
965.270, 576.119
966.527, 333.279
967.785, 260.441
969.043, 547.608
970.300, 214.781
971.557, 711.964
972.814, 629.150
974.071, 386.342
975.327, 983.551
976.583, 570.764
977.840, 697.989
979.095, 973.760
980.351, 430.994
981.607, 748.233
982.862, 425.477
984.117, 172.725
985.372, 684.783
986.627, 242.043
987.882, 419.308
989.136, 486.567
990.390, 213.842
991.644, 709.998
992.898, 257.284
994.152, 524.576
995.405, 503.277
996.659, 300.582
997.912, 688.071
999.165, 475.390
1000.417, 542.713
1001.670, 944.562
1002.922, 581.898
1004.174, 1129.241
1005.426, 877.094
1006.678, 624.451
1007.930, 781.816
1009.181, 572.521
1010.432, 779.901
1011.683, 807.290
1012.934, 604.687
1014.185, 772.092
1015.435, 669.555
1016.685, 586.979
1017.935, 794.692
1019.185, 782.138
1020.435, 859.591
1021.684, 947.402
1022.934, 884.877
1024.183, 1112.361
1025.432, 740.300
1026.680, 1147.808
1027.929, 1115.325
1029.177, 1186.472
1030.425, 1474.014
1031.673, 1421.567
1032.921, 1689.133
1034.169, 2396.712
1035.416, 2694.304
1036.663, 3951.846
1037.911, 5249.402
1039.157, 6136.968
1040.404, 6341.498
1041.650, 6803.482
1042.897, 5741.062
1044.143, 4458.655
1045.389, 3076.191
1046.634, 2473.729
1047.880, 1891.277
1049.125, 1408.778
1050.371, 1356.288
1051.615, 1045.901
1052.860, 1113.422
1054.105, 1040.950
1055.349, 681.147
1056.593, 898.673
1057.837, 516.204
1059.081, 773.697
1060.325, 931.202
1061.568, 758.978
1062.812, 616.514
1064.055, 804.060
1065.298, 551.579
1066.540, 869.106
1067.783, 476.634
1069.025, 674.185
1070.267, 731.651
1071.509, 569.001
1072.751, 806.346
1073.993, 633.672
1075.234, 701.807
1076.475, 1179.103
1077.716, 726.363
1078.957, 973.762
1080.198, 1110.984
1081.438, 1028.122
1082.679, 1275.213
1083.919, 1062.236
1085.159, 1185.232
1086.398, 1152.206
1087.638, 879.410
1088.877, 887.275
1090.116, 845.190
1091.355, 553.146
1092.594, 761.180
1093.833, 449.268
1095.071, 457.386
1096.309, 545.536
1097.547, 173.702
1098.785, 741.908
1100.023, 230.132
1101.260, 378.372
1102.498, 636.631
1103.735, 124.908
1104.972, 543.203
1106.208, 281.518
1107.445, 19.859
1108.681, 308.228
1109.918, 286.615
1111.154, 314.974
1112.389, 403.351
1113.625, 91.755
1114.860, 360.187
1116.096, 208.622
1117.331, 97.077
1118.566, 485.528
1119.800, 203.976
1121.035, 232.437
1122.269, 640.897
1123.503, 319.358
1124.737, 537.839
1125.971, 626.340
1127.205, 244.861
1128.438, 393.399
1129.671, 111.955
1130.904, 300.527
1132.137, 439.098
1133.370, 82.335
1134.602, 466.252
1135.834, 394.860
1137.066, 63.489
1138.298, 272.133
1139.530, 240.787
1140.762, 169.467
1141.993, 418.171
1143.224, 23.112
1144.455, 295.616
1145.686, 14.334
1146.917, 113.080
1148.147, 161.853
1149.377, 69.349
1150.607, 299.481
1151.837, 108.344
1153.067, 2.761
1154.296, 346.175
1155.526, 125.142
1156.755, 45.846
1157.984, 463.214
1159.213, 192.330
1160.441, 121.580
1161.670, 200.895
1162.898, 70.246
1164.126, 140.426
1165.354, 29.066
1166.581, 108.531
1167.809, 278.035
1169.036, 27.572
1170.263, 227.150
1171.490, 216.768
1172.717, 26.422
1173.943, 416.117
1175.170, 125.854
1176.396, 34.367
1177.622, 415.457
1178.848, 225.328
1180.073, 285.248
1181.299, 305.219
1182.524, 135.244
1183.749, 461.148
1184.974, 120.928
1186.199, 170.748
1187.423, 470.615
1188.648, 5.936
1189.872, 225.162
1191.096, 245.016
1192.320, 158.785
1193.543, 336.377
1194.767, 155.762
1195.990, 122.092
1197.213, 371.027
1198.436, 10.295
1199.659, 377.295
1200.881, 225.973
1202.104, 17.074
1203.326, 579.156
1204.548, 277.303
1205.770, 286.062
1206.991, 322.904
1208.213, 49.395
1209.434, 206.227
1210.655, 272.680
1211.876, 139.682
1213.096, 425.459
1214.317, 141.365
1215.537, 127.676
1216.757, 355.053
1217.977, 113.562
1219.197, 204.793
1220.417, 336.570
1221.636, 6.193
1222.855, 323.135
1224.074, 251.211
1225.293, 8.117
1226.512, 358.828
1227.731, 98.018
1228.949, 323.375
1230.167, 108.779
1231.385, 81.465
1232.603, 0.000
##END=



