##NAMES=Natrolite
##RRUFFID=R040102
##IDEAL CHEMISTRY=Na_2_(Si_3_Al_2_)O_10_&#183;2H_2_O
##LOCALITY=Ross' Quarry, Northland, New Zealand
##OWNER=RRUFF
##SOURCE=University of Arizona Mineral Museum
##DESCRIPTION=Mass of colorless acicular crystals
##STATUS=The identification of this mineral has been confirmed by X-ray diffraction and chemical analysis
##URL=rruff.info/R040102
##MEASURED CHEMISTRY=(Na_0.92_Ca_0.02_)_2_(Si_3.03_Al_1.99_)O_10_Â·2H_2_O
##PIN_ID=S00542
##ORIENTATION=Laser parallel to b* (0 1 0). Fiducial mark perpendicular to laser is parallel to -c [0 0 -1]
99.644, 0.000
101.036, 36.701
102.428, 412.035
103.820, 145.984
105.212, 144.012
106.604, 465.746
107.995, 758.256
109.387, 1553.297
110.777, 2446.680
112.168, 2405.969
113.559, 3687.428
114.949, 4496.881
116.339, 4272.836
117.729, 3754.969
119.119, 6373.342
120.508, 8110.070
121.897, 9413.828
123.286, 8715.902
124.675, 6492.211
126.063, 5167.270
127.452, 4328.787
128.840, 3246.912
130.228, 2912.406
131.615, 2581.215
133.003, 2879.133
134.390, 2408.174
135.777, 2470.146
137.164, 2973.674
138.550, 3009.273
139.937, 4035.387
141.323, 4012.869
142.709, 3418.957
144.094, 3559.994
145.480, 3049.029
146.865, 2247.297
148.250, 1835.703
149.635, 1378.248
151.019, 1207.998
152.403, 1427.865
153.788, 1813.807
155.171, 2323.287
156.555, 3249.020
157.939, 4015.027
159.322, 4912.598
160.705, 5481.207
162.088, 5888.383
163.470, 5807.699
164.853, 5045.891
166.235, 4566.988
167.617, 3842.039
168.998, 3391.998
170.380, 2709.543
171.761, 2324.773
173.142, 1729.503
174.523, 1788.864
175.904, 1866.811
177.284, 1644.168
178.664, 1760.966
180.044, 2104.796
181.424, 2427.195
182.803, 2265.445
184.183, 2147.803
185.562, 2094.959
186.940, 1319.240
188.319, 1140.142
189.698, 1132.577
191.076, 737.671
192.454, 793.887
193.831, 977.693
195.209, 897.264
196.586, 1094.676
197.963, 997.584
199.340, 1165.522
200.717, 1486.157
202.093, 1667.345
203.470, 1973.299
204.846, 2010.604
206.221, 1816.030
207.597, 1886.341
208.972, 1477.823
210.347, 1388.196
211.722, 1454.769
213.097, 1256.913
214.472, 1433.207
215.846, 1384.395
217.220, 1163.544
218.594, 806.738
219.967, 741.782
221.341, 566.927
222.714, 361.178
224.087, 103.695
225.460, 115.174
226.832, 206.728
228.204, 162.313
229.577, 241.716
230.948, 192.297
232.320, 191.566
233.692, 68.521
235.063, 36.748
236.434, 383.047
237.805, 868.341
239.175, 973.670
240.545, 908.769
241.916, 893.731
243.286, 487.711
244.655, 118.585
246.025, 1.917
247.394, 334.161
248.763, 459.097
250.132, 537.029
251.501, 558.377
252.869, 585.792
254.237, 529.149
255.605, 487.236
256.973, 568.449
258.340, 424.957
259.708, 391.949
261.075, 408.101
262.442, 247.750
263.808, 27.454
265.175, 2.725
266.541, 299.718
267.907, 467.386
269.273, 575.220
270.639, 362.914
272.004, 460.248
273.369, 567.076
274.734, 533.294
276.099, 628.809
277.463, 544.549
278.828, 543.451
280.192, 683.474
281.556, 756.589
282.919, 715.771
284.283, 646.982
285.646, 730.185
287.009, 762.348
288.372, 833.430
289.734, 930.416
291.097, 962.046
292.459, 933.128
293.821, 1067.881
295.183, 1126.581
296.544, 1196.213
297.905, 1420.740
299.266, 1661.159
300.627, 1925.504
301.988, 2299.739
303.348, 2665.064
304.709, 2828.829
306.069, 2921.383
307.428, 2882.729
308.788, 2662.761
310.147, 2308.438
311.507, 1960.800
312.865, 1708.925
314.224, 1729.875
315.583, 1532.789
316.941, 1624.748
318.299, 1588.765
319.657, 1637.825
321.015, 1853.944
322.372, 1877.165
323.729, 2093.439
325.086, 2258.723
326.443, 2426.845
327.800, 2798.411
329.156, 2994.437
330.512, 2993.996
331.868, 3170.364
333.224, 3071.968
334.579, 2854.894
335.935, 2593.104
337.290, 2584.194
338.645, 2415.259
339.999, 2403.131
341.354, 2420.622
342.708, 2422.310
344.062, 2377.479
345.416, 2415.282
346.769, 2506.455
348.123, 2487.549
349.476, 2491.869
350.829, 2610.712
352.182, 2652.576
353.534, 2794.880
354.887, 2997.711
356.239, 3140.830
357.591, 3148.513
358.942, 3156.111
360.294, 3182.960
361.645, 2983.619
362.996, 2879.327
364.347, 2750.096
365.698, 2473.306
367.048, 2362.497
368.398, 2233.536
369.748, 2061.414
371.098, 2127.217
372.448, 2145.938
373.797, 2029.911
375.146, 1939.808
376.495, 2011.055
377.844, 1919.207
379.192, 1857.860
380.540, 1816.481
381.889, 1754.816
383.236, 1760.056
384.584, 1756.822
385.932, 1900.688
387.279, 1965.124
388.626, 1893.478
389.973, 1829.917
391.319, 1806.999
392.666, 1807.969
394.012, 1851.919
395.358, 1865.794
396.704, 1748.261
398.049, 1649.107
399.394, 1610.494
400.740, 1647.840
402.084, 1773.835
403.429, 1819.059
404.774, 1943.931
406.118, 2094.119
407.462, 2130.110
408.806, 2234.654
410.150, 2310.270
411.493, 2298.021
412.836, 2309.859
414.179, 2263.346
415.522, 2267.109
416.865, 2239.438
418.207, 2083.426
419.549, 1963.371
420.891, 1964.408
422.233, 1997.633
423.575, 2103.987
424.916, 1988.573
426.257, 2226.571
427.598, 2271.743
428.939, 2719.366
430.279, 2932.136
431.619, 3463.943
432.959, 4056.469
434.299, 4849.682
435.639, 6013.685
436.978, 7446.812
438.318, 8740.683
439.657, 10113.047
440.996, 10785.105
442.334, 10508.240
443.673, 9821.562
445.011, 8474.361
446.349, 7156.309
447.687, 6118.405
449.024, 5050.499
450.361, 4162.781
451.699, 3445.809
453.036, 2978.684
454.372, 2514.320
455.709, 2103.413
457.045, 1974.725
458.381, 1849.656
459.717, 1592.413
461.053, 1588.188
462.388, 1409.615
463.724, 1325.471
465.059, 1402.542
466.394, 1383.107
467.728, 1445.381
469.063, 1455.129
470.397, 1416.506
471.731, 1499.265
473.065, 1386.739
474.398, 1530.559
475.732, 1596.742
477.065, 1670.373
478.398, 1644.383
479.731, 1729.527
481.063, 1659.724
482.396, 1739.651
483.728, 1713.098
485.060, 1957.688
486.391, 1866.758
487.723, 1956.390
489.054, 2014.896
490.385, 1937.554
491.716, 1866.869
493.047, 2062.417
494.377, 1882.577
495.708, 1903.938
497.038, 1988.881
498.368, 1929.279
499.697, 1947.843
501.027, 2139.494
502.356, 2098.369
503.685, 2229.381
505.014, 2317.566
506.342, 2500.563
507.671, 2702.278
508.999, 2793.878
510.327, 2895.261
511.655, 3137.176
512.982, 3259.382
514.310, 3442.064
515.637, 3645.780
516.964, 3979.441
518.291, 4093.420
519.617, 4437.225
520.944, 4951.188
522.270, 5264.301
523.596, 5857.004
524.921, 7268.892
526.247, 8609.802
527.572, 10640.038
528.897, 12919.705
530.222, 15368.630
531.547, 16917.811
532.871, 17517.045
534.196, 16415.785
535.520, 14784.133
536.844, 12092.778
538.167, 9991.024
539.491, 7849.009
540.814, 6316.824
542.137, 5024.409
543.460, 4212.048
544.783, 3459.720
546.105, 2808.074
547.427, 2656.845
548.749, 2149.566
550.071, 1958.320
551.393, 1704.251
552.714, 1599.503
554.035, 1499.229
555.356, 1447.302
556.677, 1149.112
557.998, 1324.681
559.318, 1095.169
560.638, 1065.850
561.958, 1095.092
563.278, 914.561
564.597, 993.588
565.917, 954.316
567.236, 854.337
568.555, 835.993
569.874, 799.334
571.192, 821.051
572.511, 691.288
573.829, 824.766
575.147, 810.475
576.464, 721.397
577.782, 682.524
579.099, 632.327
580.416, 579.543
581.733, 528.063
583.050, 497.307
584.366, 444.243
585.683, 405.716
586.999, 323.456
588.315, 316.211
589.630, 280.106
590.946, 265.533
592.261, 332.823
593.576, 359.718
594.891, 452.780
596.206, 341.663
597.520, 412.766
598.834, 295.670
600.148, 360.072
601.462, 361.096
602.776, 262.801
604.089, 200.962
605.402, 260.712
606.715, 224.869
608.028, 222.782
609.341, 147.246
610.653, 151.655
611.965, 58.843
613.277, 131.798
614.589, 105.837
615.901, 8.114
617.212, 11.118
618.523, 24.620
619.834, 13.094
621.145, 28.397
622.456, 26.894
623.766, 32.590
625.076, 2.659
626.386, 19.178
627.696, 62.179
629.006, 31.179
630.315, 23.506
631.624, 11.567
632.933, 33.789
634.242, 3.373
635.551, 16.781
636.859, 57.312
638.167, 35.459
639.475, 23.620
640.783, 33.281
642.090, 14.251
643.398, 13.288
644.705, 5.307
646.012, 33.330
647.318, 57.381
648.625, 33.799
649.931, 76.800
651.237, 73.640
652.543, 12.347
653.849, 50.990
655.155, 26.792
656.460, 27.499
657.765, 74.851
659.070, 13.287
660.375, 10.163
661.679, 94.225
662.984, 66.809
664.288, 42.633
665.592, 47.713
666.895, 87.050
668.199, 69.314
669.502, 36.255
670.805, 60.467
672.108, 22.037
673.411, 182.395
674.713, 113.638
676.016, 159.719
677.318, 117.705
678.620, 146.113
679.921, 138.520
681.223, 216.071
682.524, 159.503
683.825, 237.027
685.126, 211.361
686.427, 355.518
687.727, 310.160
689.028, 457.309
690.328, 456.352
691.628, 501.597
692.927, 452.711
694.227, 676.963
695.526, 722.257
696.825, 721.676
698.124, 832.061
699.423, 916.392
700.721, 809.716
702.020, 912.189
703.318, 957.097
704.616, 848.622
705.913, 811.078
707.211, 697.233
708.508, 807.598
709.805, 638.860
711.102, 739.065
712.399, 596.437
713.695, 565.669
714.992, 604.916
716.288, 544.505
717.584, 651.036
718.879, 605.516
720.175, 669.821
721.470, 600.335
722.765, 683.646
724.060, 674.834
725.355, 553.483
726.649, 626.796
727.944, 524.629
729.238, 467.210
730.532, 600.752
731.825, 278.197
733.119, 373.722
734.412, 209.290
735.705, 139.814
736.998, 205.483
738.291, 91.910
739.584, 1.541
740.876, 86.271
742.168, 39.615
743.460, 41.805
744.752, 12.001
746.043, 37.087
747.334, 3.432
748.626, 20.216
749.916, 8.554
751.207, 48.525
752.498, 9.562
753.788, 40.108
755.078, 0.892
756.368, 37.773
757.658, 31.404
758.947, 16.848
760.237, 52.557
761.526, 25.933
762.815, 89.601
764.104, 63.734
765.392, 10.981
766.680, 9.972
767.969, 48.545
769.257, 83.460
770.544, 30.449
771.832, 24.270
773.119, 38.553
774.406, 54.456
775.693, 9.737
776.980, 65.480
778.267, 61.739
779.553, 123.037
780.839, 71.122
782.125, 40.179
783.411, 39.212
784.697, 3.302
785.982, 58.885
787.267, 14.842
788.552, 18.988
789.837, 51.373
791.122, 70.098
792.406, 61.886
793.690, 14.432
794.974, 106.839
796.258, 39.943
797.542, 12.453
798.825, 47.180
800.108, 37.080
801.391, 25.201
802.674, 61.964
803.957, 13.732
805.239, 15.126
806.522, 19.747
807.804, 27.328
809.085, 8.460
810.367, 43.078
811.649, 10.583
812.930, 38.798
814.211, 12.268
815.492, 43.410
816.772, 119.611
818.053, 68.055
819.333, 47.062
820.613, 49.009
821.893, 19.115
823.173, 4.098
824.452, 0.119
825.732, 24.265
827.011, 19.634
828.290, 1.604
829.568, 103.508
830.847, 33.583
832.125, 55.450
833.403, 1.410
834.681, 0.476
835.959, 52.630
837.236, 23.192
838.514, 29.154
839.791, 102.074
841.068, 23.963
842.345, 113.808
843.621, 143.624
844.898, 100.410
846.174, 137.166
847.450, 109.473
848.726, 104.649
850.001, 82.248
851.277, 94.878
852.552, 113.477
853.827, 121.044
855.102, 91.580
856.376, 65.084
857.651, 89.550
858.925, 109.993
860.199, 202.405
861.473, 140.790
862.746, 169.487
864.020, 186.468
865.293, 149.763
866.566, 236.041
867.839, 245.290
869.112, 108.524
870.384, 125.726
871.656, 140.895
872.928, 185.045
874.200, 137.167
875.472, 213.256
876.744, 74.312
878.015, 58.331
879.286, 195.305
880.557, 53.248
881.828, 74.144
883.098, 91.019
884.369, 148.857
885.639, 127.662
886.909, 114.435
888.178, 65.170
889.448, 103.723
890.717, 138.383
891.987, 111.666
893.256, 93.362
894.524, 143.553
895.793, 120.516
897.061, 116.452
898.330, 15.229
899.598, 202.439
900.865, 67.779
902.133, 23.496
903.401, 215.020
904.668, 75.723
905.935, 108.191
907.202, 119.851
908.468, 174.007
909.735, 222.529
911.001, 221.357
912.267, 175.717
913.533, 216.486
914.799, 109.843
916.064, 109.438
917.330, 84.470
918.595, 153.544
919.860, 78.829
921.124, 125.332
922.389, 109.742
923.653, 211.900
924.918, 91.316
926.182, 145.452
927.445, 116.300
928.709, 189.971
929.972, 210.126
931.236, 129.405
932.499, 165.392
933.761, 194.070
935.024, 56.231
936.286, 331.361
937.549, 152.152
938.811, 211.169
940.073, 206.605
941.334, 265.514
942.596, 97.731
943.857, 155.699
945.118, 146.612
946.379, 330.507
947.640, 244.455
948.900, 357.963
950.161, 272.955
951.421, 324.955
952.681, 350.595
953.940, 354.629
955.200, 454.402
956.459, 511.957
957.719, 618.519
958.978, 735.579
960.236, 855.802
961.495, 1054.438
962.753, 1154.984
964.012, 1344.463
965.270, 1274.850
966.527, 1323.113
967.785, 1253.532
969.043, 994.367
970.300, 1024.980
971.557, 775.411
972.814, 875.848
974.071, 725.354
975.327, 784.174
976.583, 742.714
977.840, 709.886
979.095, 677.253
980.351, 542.721
981.607, 546.335
982.862, 403.028
984.117, 459.284
985.372, 481.528
986.627, 431.617
987.882, 414.818
989.136, 416.923
990.390, 464.216
991.644, 536.691
992.898, 515.846
994.152, 626.817
995.405, 767.420
996.659, 798.113
997.912, 718.835
999.165, 779.251
1000.417, 689.840
1001.670, 910.355
1002.922, 821.080
1004.174, 1181.496
1005.426, 1058.397
1006.678, 872.604
1007.930, 932.433
1009.181, 825.286
1010.432, 765.873
1011.683, 687.376
1012.934, 767.897
1014.185, 679.003
1015.435, 769.774
1016.685, 653.945
1017.935, 704.930
1019.185, 669.253
1020.435, 719.689
1021.684, 850.389
1022.934, 783.910
1024.183, 985.308
1025.432, 915.647
1026.680, 976.056
1027.929, 1145.748
1029.177, 1145.095
1030.425, 1195.456
1031.673, 1434.297
1032.921, 1688.340
1034.169, 1928.076
1035.416, 2458.416
1036.663, 2738.823
1037.911, 3258.830
1039.157, 3288.150
1040.404, 3268.137
1041.650, 2758.221
1042.897, 2338.882
1044.143, 1998.951
1045.389, 1569.079
1046.634, 1478.997
1047.880, 1408.869
1049.125, 1175.869
1050.371, 956.244
1051.615, 935.329
1052.860, 793.258
1054.105, 875.972
1055.349, 726.691
1056.593, 666.679
1057.837, 607.000
1059.081, 667.449
1060.325, 687.592
1061.568, 657.946
1062.812, 658.833
1064.055, 589.758
1065.298, 609.278
1066.540, 614.250
1067.783, 639.806
1069.025, 660.273
1070.267, 719.499
1071.509, 740.129
1072.751, 770.313
1073.993, 730.610
1075.234, 760.151
1076.475, 770.401
1077.716, 850.346
1078.957, 853.580
1080.198, 890.846
1081.438, 891.123
1082.679, 951.668
1083.919, 962.104
1085.159, 992.072
1086.398, 982.080
1087.638, 1022.693
1088.877, 953.760
1090.116, 904.456
1091.355, 774.705
1092.594, 876.597
1093.833, 777.147
1095.071, 557.445
1096.309, 628.086
1097.547, 608.461
1098.785, 518.934
1100.023, 489.575
1101.260, 472.000
1102.498, 440.740
1103.735, 461.003
1104.972, 452.249
1106.208, 462.645
1107.445, 472.911
1108.681, 343.309
1109.918, 483.571
1111.154, 243.833
1112.389, 424.086
1113.625, 394.333
1114.860, 264.572
1116.096, 334.812
1117.331, 345.418
1118.566, 325.647
1119.800, 339.560
1121.035, 216.990
1122.269, 287.948
1123.503, 228.137
1124.737, 158.322
1125.971, 228.698
1127.205, 228.889
1128.438, 159.459
1129.671, 179.913
1130.904, 170.612
1132.137, 90.676
1133.370, 191.396
1134.602, 121.562
1135.834, 132.084
1137.066, 232.263
1138.298, 92.896
1139.530, 223.636
1140.762, 53.793
1141.993, 4.830
1143.224, 105.346
1144.455, 25.694
1145.686, 54.620
1146.917, 107.660
1148.147, 48.695
1149.377, 39.124
1150.607, 11.887
1151.837, 89.392
1153.067, 49.999
1154.296, 40.131
1155.526, 101.215
1156.755, 38.784
1157.984, 31.182
1159.213, 8.367
1160.441, 71.739
1161.670, 1.931
1162.898, 51.826
1164.126, 57.907
1165.354, 11.924
1166.581, 58.264
1167.809, 41.811
1169.036, 11.800
1170.263, 48.381
1171.490, 8.588
1172.717, 81.322
1173.943, 141.356
1175.170, 71.267
1176.396, 40.887
1177.622, 160.495
1178.848, 110.282
1180.073, 70.134
1181.299, 149.624
1182.524, 69.145
1183.749, 28.647
1184.974, 108.571
1186.199, 38.042
1187.423, 77.594
1188.648, 109.362
1189.872, 0.279
1191.096, 19.126
1192.320, 98.841
1193.543, 138.212
1194.767, 127.621
1195.990, 137.642
1197.213, 77.262
1198.436, 76.944
1199.659, 16.548
1200.881, 34.008
1202.104, 18.913
1203.326, 64.706
1204.548, 24.372
1205.770, 43.659
1206.991, 122.832
1208.213, 72.492
1209.434, 1.818
1210.655, 0.929
1211.876, 4.943
1213.096, 204.006
1214.317, 53.314
1215.537, 32.542
1216.757, 191.598
1217.977, 11.367
1219.197, 50.633
1220.417, 89.582
1221.636, 139.668
1222.855, 78.581
1224.074, 127.802
1225.293, 113.559
1226.512, 138.732
1227.731, 99.296
1228.949, 68.601
1230.167, 97.651
1231.385, 81.585
1232.603, 143.322
1233.820, 72.202
1235.038, 28.343
1236.255, 67.209
1237.472, 205.864
1238.689, 4.385
1239.906, 104.223
1241.122, 162.866
1242.338, 81.442
1243.555, 150.000
1244.771, 129.103
1245.986, 87.624
1247.202, 186.129
1248.417, 45.939
1249.633, 204.412
1250.848, 22.868
1252.063, 154.724
1253.277, 201.846
1254.492, 155.766
1255.706, 230.521
1256.920, 258.880
1258.134, 275.049
1259.348, 225.540
1260.562, 283.842
1261.775, 222.164
1262.988, 100.463
1264.201, 188.750
1265.414, 97.158
1266.627, 65.357
1267.839, 43.637
1269.052, 272.717
1270.264, 250.837
1271.476, 148.935
1272.688, 307.290
1273.899, 105.348
1275.111, 133.577
1276.322, 311.594
1277.533, 99.591
1278.744, 68.356
1279.955, 216.311
1281.165, 114.618
1282.376, 302.532
1283.586, 90.427
1284.796, 68.482
1286.006, 256.315
1287.215, 43.965
1288.425, 111.524
1289.634, 149.288
1290.843, 16.739
1292.052, 124.474
1293.261, 42.164
1294.469, 119.627
1295.678, 197.240
1296.886, 174.416
1298.094, 72.249
1299.302, 179.585
1300.509, 36.850
1301.717, 245.705
1302.924, 230.532
1304.131, 87.573
1305.338, 164.226
1306.545, 141.324
1307.752, 307.896
1308.958, 114.772
1310.164, 248.047
1311.370, 264.647
1312.576, 127.846
1313.782, 144.561
1314.987, 181.033
1316.193, 174.709
1317.398, 140.617
1318.603, 107.338
1319.807, 133.708
1321.012, 200.779
1322.216, 207.243
1323.421, 153.983
1324.625, 240.676
1325.829, 142.691
1327.032, 219.335
1328.236, 235.752
1329.439, 91.970
1330.642, 198.479
1331.845, 174.658
1333.048, 9.032
1334.251, 37.361
1335.453, 253.213
1336.656, 119.103
1337.858, 295.339
1339.060, 141.642
1340.261, 47.905
1341.463, 264.364
1342.664, 110.335
1343.866, 126.266
1345.067, 161.829
1346.267, 145.342
1347.468, 189.719
1348.669, 85.684
1349.869, 171.210
1351.069, 196.912
1352.269, 72.813
1353.469, 148.470
1354.668, 223.546
1355.868, 51.428
1357.067, 243.570
1358.266, 129.335
1359.465, 144.717
1360.664, 179.979
1361.862, 46.386
1363.061, 121.324
1364.259, 246.576
1365.457, 21.957
1366.655, 327.526
1367.852, 112.848
1369.050, 161.693
1370.247, 13.590
1371.444, 0.535
1372.641, 75.645
1373.838, 130.598
1375.035, 54.006
1376.231, 19.331
1377.427, 155.469
1378.623, 90.296
1379.819, 143.261
1381.015, 189.922
1382.211, 24.891
1383.406, 271.444
1384.601, 178.099
1385.796, 224.656
1386.991, 320.897
1388.185, 66.570
1389.380, 213.239
1390.574, 330.009
1391.768, 16.750
1392.962, 193.460
1394.156, 239.709
1395.350, 24.699
1396.543, 261.027
1397.736, 137.360
1398.929, 103.439
1400.122, 249.612
1401.315, 194.919
1402.507, 200.889
1403.700, 216.689
1404.892, 185.421
1406.084, 184.837
1407.276, 181.224
1408.467, 145.797
1409.659, 191.434
1410.850, 166.626
1412.041, 41.138
1413.232, 357.143
1414.423, 212.242
1415.614, 127.840
1416.804, 333.276
1417.994, 148.833
1419.184, 254.355
1420.374, 199.861
1421.564, 54.899
1422.753, 350.850
1423.943, 106.497
1425.132, 292.131
1426.321, 307.426
1427.510, 153.212
1428.698, 204.164
1429.887, 269.507
1431.075, 134.973
1432.263, 359.546
1433.451, 284.271
1434.639, 149.479
1435.827, 374.516
1437.014, 400.159
1438.201, 144.779
1439.388, 232.100
1440.575, 117.327
1441.762, 392.570
1442.949, 266.318
1444.135, 19.861
1445.321, 424.877
1446.507, 245.646
1447.693, 106.617
1448.879, 431.224
1450.064, 259.993
1451.250, 149.542
1452.435, 311.851
1453.620, 136.243
1454.805, 290.668
1455.989, 353.814
1457.174, 175.172
1458.358, 279.276
1459.542, 345.521
1460.726, 157.907
1461.910, 311.593
1463.093, 285.191
1464.277, 198.517
1465.460, 251.354
1466.643, 184.414
1467.826, 275.234
1469.009, 377.630
1470.191, 170.114
1471.373, 312.988
1472.556, 353.456
1473.738, 164.896
1474.919, 386.701
1476.101, 248.996
1477.283, 60.330
1478.464, 411.658
1479.645, 113.410
1480.826, 224.328
1482.007, 324.783
1483.187, 41.091
1484.368, 292.457
1485.548, 163.270
1486.728, 205.509
1487.908, 327.824
1489.088, 290.109
1490.268, 42.372
1491.447, 274.831
1492.626, 67.208
1493.805, 229.499
1494.984, 251.768
1496.163, 124.048
1497.341, 186.327
1498.520, 218.697
1499.698, 99.663
1500.876, 132.076
1502.054, 164.641
1503.232, 4.242
1504.409, 208.901
1505.586, 162.145
1506.763, 143.452
1507.940, 85.686
1509.117, 79.037
1510.294, 232.547
1511.470, 236.410
1512.647, 10.981
1513.823, 261.800
1514.999, 124.388
1516.174, 35.625
1517.350, 132.433
1518.526, 194.160
1519.701, 78.580
1520.876, 0.000
##END=



