##NAMES=Natrolite
##RRUFFID=R040112
##IDEAL CHEMISTRY=Na_2_(Si_3_Al_2_)O_10_&#183;2H_2_O
##LOCALITY=Ice River Alkaline Complex, Moose Creek Valley, Yoho National Park, British Columbia, Canada
##OWNER=RRUFF
##SOURCE=National Museums of Canada
##DESCRIPTION=Colorless pseudohexagonal prism
##STATUS=The identification of this mineral has been confirmed by X-ray diffraction and chemical analysis
##URL=rruff.info/R040112
##MEASURED CHEMISTRY=Na_2.00_(Si_3.00_Al_2.00_)O_10_Â·2H_2_O
##PIN_ID=L00214
##ORIENTATION=Laser parallel to -b* (0 -1 0). Fiducial mark perpendicular to laser is parallel to c [0 0 1]
52.937, 0.000
54.335, 64.462
55.734, 117.595
57.132, 87.737
58.530, 139.563
59.927, 97.104
61.325, 169.964
62.722, 153.706
64.119, 132.138
65.515, 145.623
66.912, 147.584
68.308, 152.418
69.704, 178.917
71.100, 164.867
72.496, 166.748
73.891, 138.335
75.287, 97.621
76.682, 45.308
78.076, 4.618
79.471, 13.180
80.865, 5.599
82.260, 20.304
83.653, 21.912
85.047, 5.756
86.441, 28.318
87.834, 28.152
89.227, 39.245
90.620, 46.865
92.013, 94.692
93.405, 140.713
94.797, 144.941
96.189, 184.408
97.581, 246.129
98.973, 333.090
100.364, 425.268
101.755, 578.635
103.146, 890.166
104.537, 1419.839
105.927, 1854.643
107.318, 2079.566
108.708, 1892.600
110.098, 3462.740
111.487, 2609.607
112.877, 2928.306
114.266, 2017.723
115.655, 1756.222
117.044, 2024.799
118.432, 2425.452
119.821, 3195.176
121.209, 3635.969
122.597, 3483.872
123.984, 3157.835
125.372, 2786.920
126.759, 2867.070
128.146, 2904.272
129.533, 3532.522
130.920, 4378.821
132.306, 5737.165
133.692, 7613.572
135.078, 10365.306
136.464, 13823.511
137.850, 17022.064
139.235, 20550.902
140.620, 21770.010
142.005, 20959.244
143.390, 18088.498
144.774, 13617.710
146.159, 9636.873
147.543, 6725.982
148.927, 5467.014
150.310, 4861.944
151.694, 5140.776
153.077, 6061.530
154.460, 7548.207
155.843, 10028.865
157.226, 12867.515
158.608, 16036.162
159.990, 18094.811
161.372, 18333.459
162.754, 16752.104
164.135, 13400.762
165.517, 10739.421
166.898, 7876.084
168.279, 6023.753
169.659, 4719.432
171.040, 3623.117
172.420, 3141.811
173.800, 2598.513
175.180, 2319.225
176.560, 1860.947
177.939, 1758.679
179.318, 1622.422
180.697, 1524.175
182.076, 1599.939
183.455, 1557.714
184.833, 1631.500
186.211, 1608.298
187.589, 1811.106
188.967, 2122.534
190.344, 2467.506
191.722, 3050.332
193.099, 3700.170
194.475, 4432.021
195.852, 5172.938
197.229, 5762.592
198.605, 6788.453
199.981, 8223.328
201.357, 10542.217
202.732, 12991.117
204.108, 15670.033
205.483, 16218.961
206.858, 15497.903
208.233, 13056.856
209.607, 9795.824
210.981, 7427.808
212.356, 5458.803
213.730, 4281.274
215.103, 3296.899
216.477, 2664.784
217.850, 2332.536
219.223, 1835.780
220.596, 1649.256
221.969, 1372.682
223.341, 1275.834
224.713, 1217.973
226.085, 1189.214
227.457, 1241.639
228.829, 1351.950
230.200, 1657.501
231.571, 2076.535
232.942, 2914.538
234.313, 4170.655
235.684, 6189.655
237.054, 8587.461
238.424, 10885.334
239.794, 12243.174
241.164, 11000.801
242.533, 8084.995
243.902, 5318.787
245.272, 3242.302
246.640, 2232.182
248.009, 1551.733
249.378, 1210.411
250.746, 987.807
252.114, 792.508
253.482, 764.418
254.849, 682.514
256.217, 724.752
257.584, 801.292
258.951, 901.076
260.318, 1065.929
261.684, 1337.831
263.051, 1772.758
264.417, 2252.708
265.783, 3052.682
267.148, 3858.679
268.514, 4626.697
269.879, 4916.736
271.244, 4650.796
272.609, 3973.875
273.974, 2721.973
275.338, 1960.090
276.703, 1397.226
278.067, 994.380
279.431, 822.551
280.794, 604.739
282.158, 538.945
283.521, 517.167
284.884, 514.405
286.247, 533.660
287.609, 567.930
288.972, 628.216
290.334, 673.517
291.696, 810.833
293.058, 927.163
294.419, 1163.508
295.781, 1548.867
297.142, 2127.241
298.503, 3068.628
299.864, 4409.030
301.224, 6818.440
302.584, 9523.860
303.945, 12553.291
305.304, 14232.726
306.664, 12562.167
308.024, 9511.617
309.383, 5869.074
310.742, 3657.540
312.101, 2248.012
313.460, 1446.494
314.818, 921.985
316.176, 557.485
317.534, 418.997
318.892, 280.520
320.250, 133.052
321.607, 97.595
322.964, 24.149
324.321, 65.713
325.678, 25.712
327.035, 47.866
328.391, 82.455
329.747, 83.054
331.103, 125.664
332.459, 55.285
333.815, 20.917
335.170, 10.560
336.525, 31.787
337.880, 11.867
339.235, 9.468
340.589, 87.203
341.944, 87.885
343.298, 179.578
344.652, 224.282
346.005, 251.996
347.359, 342.721
348.712, 351.457
350.065, 520.204
351.418, 639.962
352.771, 876.729
354.123, 1183.499
355.475, 1508.279
356.828, 2011.070
358.179, 2150.873
359.531, 2224.673
360.882, 2046.479
362.234, 1618.297
363.585, 1258.124
364.936, 728.963
366.286, 556.812
367.637, 346.672
368.987, 152.543
370.337, 91.425
371.687, 23.683
373.036, 75.380
374.386, 57.903
375.735, 124.022
377.084, 111.171
378.432, 124.375
379.781, 96.664
381.129, 131.025
382.478, 122.453
383.825, 141.945
385.173, 110.507
386.521, 99.123
387.868, 153.786
389.215, 82.521
390.562, 85.291
391.909, 21.096
393.255, 5.097
394.602, 26.701
395.948, 99.499
397.294, 68.715
398.639, 205.947
399.985, 239.197
401.330, 311.464
402.675, 466.748
404.020, 539.050
405.365, 764.372
406.709, 945.720
408.054, 1175.095
409.398, 1372.493
410.742, 1500.917
412.085, 1651.369
413.429, 1576.840
414.772, 1540.338
416.115, 1411.862
417.458, 1332.403
418.800, 1445.959
420.143, 1388.531
421.485, 1677.115
422.827, 1868.714
424.169, 2173.325
425.511, 2733.949
426.852, 3219.587
428.193, 4046.238
429.534, 5064.901
430.875, 6654.576
432.216, 8953.266
433.556, 12772.968
434.896, 18322.682
436.236, 26652.408
437.576, 38762.141
438.916, 49401.906
440.255, 56851.676
441.594, 54871.457
442.933, 42791.266
444.272, 31441.078
445.611, 20920.922
446.949, 14300.793
448.287, 10110.685
449.625, 7030.611
450.963, 5572.549
452.300, 4093.532
453.638, 3349.534
454.975, 2594.572
456.312, 2098.648
457.649, 1729.746
458.985, 1426.884
460.321, 1247.048
461.658, 985.239
462.994, 837.471
464.329, 763.719
465.665, 606.005
467.000, 591.322
468.335, 462.657
469.670, 427.031
471.005, 407.670
472.340, 326.097
473.674, 388.621
475.008, 250.089
476.342, 289.593
477.676, 251.510
479.009, 267.062
480.342, 301.636
481.676, 245.224
483.009, 310.839
484.341, 312.466
485.674, 309.108
487.006, 416.309
488.338, 381.976
489.670, 480.663
491.002, 441.362
492.333, 557.072
493.665, 638.795
494.996, 657.529
496.327, 812.274
497.657, 826.252
498.988, 1019.018
500.318, 1188.099
501.648, 1260.887
502.978, 1554.687
504.308, 1720.497
505.637, 2055.318
506.967, 2316.150
508.296, 2676.993
509.625, 3074.846
510.953, 3382.710
512.282, 4044.583
513.610, 4353.467
514.938, 4723.363
516.266, 5259.267
517.594, 5396.182
518.921, 5840.107
520.249, 5885.042
521.576, 6412.987
522.903, 7204.941
524.229, 8002.906
525.556, 10010.881
526.882, 12411.866
528.208, 16582.857
529.534, 21083.865
530.860, 25064.877
532.185, 28084.477
533.511, 26341.244
534.836, 22729.061
536.161, 17862.803
537.485, 13327.368
538.810, 10381.115
540.134, 7521.625
541.458, 6026.000
542.782, 4628.937
544.106, 3591.679
545.429, 3037.423
546.753, 2368.915
548.076, 2033.010
549.399, 1648.614
550.721, 1366.083
552.044, 1266.065
553.366, 958.191
554.688, 947.955
556.010, 764.196
557.332, 682.451
558.653, 673.721
559.975, 513.004
561.296, 593.301
562.617, 422.611
563.937, 440.934
565.258, 466.272
566.578, 322.622
567.898, 389.986
569.218, 340.362
570.538, 368.752
571.858, 368.154
573.177, 308.568
574.496, 401.995
575.815, 305.434
577.134, 317.885
578.452, 352.349
579.771, 315.824
581.089, 419.311
582.407, 368.810
583.724, 508.321
585.042, 515.843
586.359, 675.376
587.676, 813.921
588.993, 928.476
590.310, 1266.044
591.627, 1510.623
592.943, 1733.212
594.259, 2033.860
595.575, 2041.472
596.891, 2241.982
598.206, 1981.615
599.522, 1631.310
600.837, 1426.757
602.152, 970.871
603.467, 869.418
604.781, 674.285
606.096, 438.894
607.410, 406.045
608.724, 227.886
610.038, 269.220
611.351, 150.517
612.665, 117.449
613.978, 195.131
615.291, 68.170
616.604, 103.351
617.916, 53.144
619.229, 8.002
620.541, 74.755
621.853, 26.208
623.165, 66.158
624.476, 22.108
625.788, 28.181
627.099, 45.411
628.410, 15.599
629.721, 71.596
631.032, 4.588
632.342, 34.805
633.652, 87.233
634.962, 19.635
636.272, 52.456
637.582, 61.808
638.891, 74.945
640.201, 146.410
641.510, 69.231
642.818, 188.956
644.127, 131.134
645.436, 176.018
646.744, 221.739
648.052, 185.594
649.360, 276.626
650.668, 274.726
651.975, 304.549
653.282, 338.372
654.590, 239.195
655.896, 344.036
657.203, 282.899
658.510, 303.734
659.816, 336.656
661.122, 262.488
662.428, 349.318
663.734, 238.282
665.039, 320.111
666.345, 339.937
667.650, 276.762
668.955, 357.585
670.260, 312.409
671.564, 381.228
672.869, 373.045
674.173, 363.860
675.477, 510.673
676.781, 478.483
678.084, 531.291
679.388, 622.096
680.691, 622.899
681.994, 789.699
683.297, 788.496
684.599, 935.290
685.902, 1067.082
687.204, 1113.870
688.506, 1453.655
689.808, 1555.444
691.109, 1761.249
692.411, 2095.741
693.712, 2372.481
695.013, 2835.786
696.314, 3123.688
697.615, 3691.611
698.915, 4116.563
700.216, 4305.545
701.516, 4535.560
702.816, 4513.600
704.115, 4344.660
705.415, 3931.755
706.714, 3455.868
708.013, 3147.998
709.312, 2602.129
710.611, 2384.257
711.910, 2217.387
713.208, 1942.512
714.506, 1998.632
715.804, 1684.747
717.102, 1738.855
718.399, 1802.958
719.697, 1737.055
720.994, 2051.146
722.291, 1942.231
723.588, 2162.309
724.884, 2208.382
726.181, 2121.448
727.477, 2171.507
728.773, 1745.560
730.069, 1609.606
731.365, 1347.645
732.660, 1028.777
733.955, 883.802
735.250, 627.820
736.545, 546.870
737.840, 443.873
739.134, 284.868
740.429, 295.856
741.723, 201.836
743.017, 145.825
744.310, 172.789
745.604, 48.908
746.897, 125.876
748.190, 80.815
749.483, 30.770
750.776, 74.692
752.069, 1.334
753.361, 63.664
754.653, 34.550
755.945, 14.306
757.237, 8.545
758.529, 30.619
759.820, 18.846
761.111, 30.076
762.402, 54.033
763.693, 27.652
764.984, 103.674
766.274, 7.000
767.564, 64.426
768.854, 75.908
770.144, 17.452
771.434, 83.027
772.724, 28.668
774.013, 29.347
775.302, 91.064
776.591, 11.148
777.880, 77.656
779.168, 45.526
780.456, 0.558
781.745, 81.381
783.033, 32.613
784.320, 80.657
785.608, 10.741
786.895, 3.931
788.183, 68.070
789.470, 25.730
790.756, 62.883
792.043, 19.153
793.329, 25.543
794.616, 36.774
795.902, 69.865
797.188, 7.494
798.473, 24.102
799.759, 57.697
801.044, 8.720
802.329, 64.834
803.614, 33.378
804.899, 28.908
806.183, 126.425
807.467, 93.932
808.752, 112.798
810.036, 70.913
811.319, 65.387
812.603, 147.850
813.886, 52.303
815.169, 122.744
816.452, 108.174
817.735, 41.594
819.018, 167.002
820.300, 88.399
821.583, 141.785
822.865, 132.161
824.146, 73.526
825.428, 167.880
826.710, 83.224
827.991, 122.557
829.272, 164.879
830.553, 81.192
831.834, 162.494
833.114, 110.785
834.394, 123.066
835.675, 194.336
836.955, 95.596
838.234, 199.845
839.514, 98.084
840.793, 128.312
842.073, 195.530
843.352, 130.737
844.630, 201.937
845.909, 97.126
847.187, 109.305
848.466, 207.472
849.744, 73.630
851.022, 183.776
852.299, 103.911
853.577, 91.035
854.854, 204.147
856.131, 107.248
857.408, 189.338
858.685, 155.416
859.961, 107.482
861.238, 216.536
862.514, 122.579
863.790, 171.609
865.066, 177.631
866.341, 103.641
867.617, 224.642
868.892, 179.631
870.167, 155.609
871.442, 230.575
872.717, 113.530
873.991, 194.472
875.265, 130.406
876.540, 97.328
877.813, 196.238
879.087, 76.137
880.361, 161.024
881.634, 99.900
882.907, 76.765
884.180, 159.619
885.453, 44.461
886.726, 121.291
887.998, 127.109
889.270, 57.917
890.542, 138.714
891.814, 74.501
893.086, 92.277
894.357, 130.042
895.628, 61.797
896.900, 135.541
898.170, 28.274
899.441, 59.997
900.712, 107.710
901.982, 58.419
903.252, 109.070
904.522, 48.758
905.792, 37.549
907.062, 131.218
908.331, 15.823
909.600, 72.677
910.869, 61.862
912.138, 4.382
913.407, 136.048
914.675, 4.737
915.944, 61.883
917.212, 100.337
918.480, 20.299
919.747, 120.296
921.015, 34.659
922.282, 50.274
923.549, 124.531
924.816, 19.647
926.083, 90.153
927.350, 70.594
928.616, 25.140
929.882, 120.985
931.148, 31.333
932.414, 95.685
933.680, 126.914
934.945, 109.984
936.211, 219.302
937.476, 168.413
938.741, 151.901
940.005, 293.811
941.270, 193.685
942.534, 334.853
943.799, 275.059
945.063, 378.004
946.326, 432.161
947.590, 395.989
948.853, 592.461
950.117, 668.028
951.380, 750.140
952.643, 1096.555
953.905, 1207.131
955.168, 1616.572
956.430, 2191.843
957.692, 2692.043
958.954, 3839.520
960.216, 4871.995
961.478, 6581.470
962.739, 8388.938
964.000, 8928.379
965.261, 9377.851
966.522, 7888.247
967.783, 6158.728
969.043, 4801.208
970.303, 3491.555
971.563, 2785.036
972.823, 2266.519
974.083, 1733.003
975.343, 1616.486
976.602, 1131.970
977.861, 975.457
979.120, 842.944
980.379, 636.432
981.638, 668.037
982.896, 556.525
984.154, 459.013
985.412, 558.502
986.670, 402.996
987.928, 531.490
989.185, 547.992
990.443, 564.487
991.700, 807.983
992.957, 877.479
994.214, 1276.977
995.470, 1679.043
996.727, 1868.544
997.983, 1868.194
999.239, 1986.571
1000.495, 1523.082
1001.750, 1141.593
1003.006, 761.106
1004.261, 616.621
1005.516, 534.136
1006.771, 346.653
1008.026, 423.171
1009.280, 260.690
1010.535, 273.220
1011.789, 315.751
1013.043, 173.284
1014.297, 299.820
1015.550, 216.008
1016.804, 208.548
1018.057, 312.635
1019.310, 204.342
1020.563, 313.899
1021.816, 348.457
1023.068, 313.018
1024.321, 438.581
1025.573, 371.622
1026.825, 533.189
1028.077, 680.763
1029.328, 578.340
1030.580, 969.921
1031.831, 1135.509
1033.082, 1464.095
1034.333, 2177.685
1035.584, 2799.276
1036.834, 4014.771
1038.085, 5046.372
1039.335, 5234.979
1040.585, 5156.545
1041.834, 4016.547
1043.084, 3059.161
1044.334, 2384.787
1045.583, 1656.505
1046.832, 1385.120
1048.081, 1127.754
1049.329, 862.744
1050.578, 883.365
1051.826, 688.693
1053.074, 647.319
1054.322, 689.972
1055.570, 528.096
1056.818, 603.657
1058.065, 466.326
1059.312, 447.731
1060.559, 542.415
1061.806, 378.815
1063.053, 528.550
1064.299, 541.271
1065.546, 454.782
1066.792, 682.543
1068.038, 549.321
1069.284, 662.059
1070.529, 826.884
1071.775, 765.372
1073.020, 1019.275
1074.265, 1076.178
1075.510, 1237.012
1076.754, 1561.964
1077.999, 1633.934
1079.243, 1873.012
1080.487, 2179.022
1081.731, 2113.377
1082.975, 2291.440
1084.219, 2083.514
1085.462, 1931.406
1086.705, 1800.516
1087.948, 1397.658
1089.191, 1404.828
1090.434, 1101.004
1091.676, 927.207
1092.919, 946.416
1094.161, 722.651
1095.403, 641.910
1096.645, 638.174
1097.886, 400.458
1099.128, 470.821
1100.369, 373.118
1101.610, 276.808
1102.851, 375.114
1104.091, 231.433
1105.332, 300.647
1106.572, 230.973
1107.812, 159.304
1109.052, 256.718
1110.292, 154.055
1111.532, 134.854
1112.771, 237.198
1114.010, 100.545
1115.249, 127.929
1116.488, 183.282
1117.727, 17.639
1118.966, 157.063
1120.204, 57.427
1121.442, 79.591
1122.680, 158.964
1123.918, 27.341
1125.155, 74.677
1126.393, 81.059
1127.630, 23.444
1128.867, 145.964
1130.104, 9.646
1131.341, 29.823
1132.577, 71.330
1133.814, 15.726
1135.050, 95.145
1136.286, 51.565
1137.522, 0.031
1138.757, 138.494
1139.993, 5.902
1141.228, 66.313
1142.463, 91.801
1143.698, 25.784
1144.933, 85.156
1146.167, 15.593
1147.402, 1.992
1148.636, 83.146
1149.870, 28.567
1151.104, 25.989
1152.338, 93.485
1153.571, 15.911
1154.804, 110.339
1156.037, 44.813
1157.270, 26.244
1158.503, 126.756
1159.736, 11.190
1160.968, 34.625
1162.200, 84.556
1163.432, 25.006
1164.664, 92.509
1165.896, 21.922
1167.127, 9.492
1168.359, 101.578
1169.590, 7.007
1170.821, 72.438
1172.052, 84.061
1173.282, 18.507
1174.513, 90.921
1175.743, 19.520
1176.973, 4.948
1178.203, 114.948
1179.433, 0.474
1180.662, 61.903
1181.892, 56.592
1183.121, 4.021
1184.350, 119.451
1185.579, 41.228
1186.807, 25.658
1188.036, 109.087
1189.264, 13.297
1190.492, 68.128
1191.720, 92.705
1192.948, 3.871
1194.176, 127.551
1195.403, 34.199
1196.630, 14.380
1197.857, 113.037
1199.084, 34.854
1200.311, 74.546
1201.537, 93.010
1202.764, 13.503
1203.990, 95.889
1205.216, 29.581
1206.442, 15.971
1207.667, 87.362
1208.893, 16.068
1210.118, 98.314
1211.343, 96.698
1212.568, 0.758
1213.793, 141.624
1215.017, 50.764
1216.242, 43.151
1217.466, 114.528
1218.690, 11.332
1219.914, 14.034
1221.137, 103.397
1222.361, 15.186
1223.584, 85.163
1224.807, 40.510
1226.030, 2.858
1227.253, 128.197
1228.476, 20.345
1229.698, 46.975
1230.920, 125.292
1232.142, 27.021
1233.364, 89.272
1234.586, 57.585
1235.808, 27.089
1237.029, 175.373
1238.250, 30.748
1239.471, 73.023
1240.692, 127.292
1241.913, 42.468
1243.133, 109.734
1244.353, 58.997
1245.574, 17.709
1246.794, 145.957
1248.013, 0.202
1249.233, 50.502
1250.452, 107.737
1251.672, 22.989
1252.891, 167.223
1254.110, 114.527
1255.328, 21.728
1256.547, 159.922
1257.765, 1.113
1258.983, 49.389
1260.201, 139.570
1261.419, 23.258
1262.637, 98.932
1263.854, 84.088
1265.072, 30.303
1266.289, 159.448
1267.506, 2.412
1268.723, 63.731
1269.939, 146.850
1271.156, 4.034
1272.372, 88.209
1273.588, 111.300
1274.804, 19.384
1276.020, 128.462
1277.235, 33.418
1278.451, 25.472
1279.666, 117.518
1280.881, 3.440
1282.096, 49.713
1283.310, 74.729
1284.525, 26.730
1285.739, 87.884
1286.953, 108.874
1288.167, 38.858
1289.381, 165.821
1290.595, 6.210
1291.808, 52.159
1293.022, 112.097
1294.235, 12.993
1295.448, 135.389
1296.660, 129.299
1297.873, 43.201
1299.085, 185.193
1300.298, 62.082
1301.510, 50.945
1302.722, 157.789
1303.933, 17.375
1305.145, 85.502
1306.356, 66.316
1307.567, 10.123
1308.778, 155.985
1309.989, 44.123
1311.200, 31.885
1312.410, 185.185
1313.621, 26.230
1314.831, 81.482
1316.041, 130.181
1317.250, 23.873
1318.460, 123.621
1319.670, 97.820
1320.879, 2.514
1322.088, 178.139
1323.297, 8.782
1324.506, 43.414
1325.714, 140.042
1326.922, 19.656
1328.131, 125.249
1329.339, 82.831
1330.547, 4.595
1331.754, 140.963
1332.962, 80.513
1334.169, 28.051
1335.376, 161.190
1336.583, 17.292
1337.790, 91.207
1338.997, 126.607
1340.203, 24.088
1341.410, 205.552
1342.616, 107.490
1343.822, 6.934
1345.028, 177.729
1346.233, 53.151
1347.439, 47.562
1348.644, 159.491
1349.849, 17.883
1351.054, 88.264
1352.259, 134.662
1353.463, 29.025
1354.668, 147.671
1355.872, 77.016
1357.076, 31.353
1358.280, 182.601
1359.483, 28.078
1360.687, 67.224
1361.890, 157.544
1363.094, 12.169
1364.297, 158.474
1365.499, 117.841
1366.702, 56.100
1367.905, 200.452
1369.107, 78.741
1370.309, 67.981
1371.511, 208.141
1372.713, 40.374
1373.914, 82.287
1375.116, 145.512
1376.317, 13.728
1377.518, 140.151
1378.719, 62.760
1379.920, 21.032
1381.121, 139.162
1382.321, 45.592
1383.521, 101.665
1384.721, 175.384
1385.921, 15.772
1387.121, 138.054
1388.321, 159.791
1389.520, 11.192
1390.719, 173.007
1391.918, 73.769
1393.117, 55.437
1394.316, 204.687
1395.514, 56.215
1396.713, 83.911
1397.911, 189.526
1399.109, 46.308
1400.307, 201.879
1401.505, 90.503
1402.702, 46.964
1403.899, 178.346
1405.097, 112.745
1406.294, 61.289
1407.490, 229.701
1408.687, 54.152
1409.884, 71.044
1411.080, 183.534
1412.276, 3.090
1413.472, 169.291
1414.668, 135.749
1415.863, 36.139
1417.059, 203.888
1418.254, 93.637
1419.449, 96.910
1420.644, 241.106
1421.839, 63.910
1423.033, 126.966
1424.228, 165.274
1425.422, 32.938
1426.616, 197.265
1427.810, 155.144
1429.004, 27.379
1430.197, 209.627
1431.391, 80.541
1432.584, 69.488
1433.777, 187.620
1434.970, 64.393
1436.163, 79.423
1437.355, 165.433
1438.548, 1.395
1439.740, 147.005
1440.932, 155.786
1442.124, 35.864
1443.315, 241.660
1444.507, 74.955
1445.698, 71.850
1446.889, 231.780
1448.080, 38.603
1449.271, 124.512
1450.462, 182.193
1451.652, 36.106
1452.843, 189.308
1454.033, 142.859
1455.223, 25.486
1456.413, 223.285
1457.602, 78.156
1458.792, 79.881
1459.981, 214.531
1461.170, 27.018
1462.359, 125.523
1463.548, 206.895
1464.737, 43.459
1465.925, 174.772
1467.113, 160.202
1468.302, 38.508
1469.490, 286.934
1470.677, 97.797
1471.865, 72.770
1473.052, 233.104
1474.240, 72.401
1475.427, 89.732
1476.614, 189.682
1477.800, 40.982
1478.987, 122.818
1480.173, 164.113
1481.360, 54.408
1482.546, 189.694
1483.732, 114.423
1484.917, 38.276
1486.103, 202.461
1487.288, 20.761
1488.474, 50.820
1489.659, 207.792
1490.844, 17.049
1492.028, 113.974
1493.213, 168.379
