##NAMES=Natrolite
##RRUFFID=R060561
##IDEAL CHEMISTRY=Na_2_(Si_3_Al_2_)O_10_&#183;2H_2_O
##LOCALITY=California, USA
##OWNER=RRUFF
##SOURCE=Gemological Institute of America
##DESCRIPTION=White fragment
##STATUS=The identification of this mineral has been confirmed by X-ray diffraction and chemical analysis
##URL=rruff.info/R060561
##MEASURED CHEMISTRY=Na_2.00_(Si_3.00_Al_2.00_)O_10_Â·2H_2_O
##PIN_ID=L00681
##ORIENTATION=Laser parallel to a* (1 0 0). Fiducial mark perpendicular to laser is parallel to -b [0 -1 0]
94.64800, 0.0000000E+00
95.88300, 115.4856
97.11800, 194.7249
98.35200, 293.4354
99.58700, 183.2736
100.8210, 32.71350
102.0550, 103.6793
103.2890, 69.63513
104.5220, 0.6250000
105.7560, 895.2568
106.9890, 533.2478
108.2230, 600.8499
109.4560, 892.7913
110.6890, 1549.990
111.9210, 2282.522
113.1540, 3125.603
114.3870, 4031.583
115.6190, 4630.894
116.8510, 4735.017
118.0830, 5091.480
119.3150, 6362.858
120.5470, 7810.773
121.7780, 9581.886
123.0100, 10763.90
124.2410, 10516.53
125.4720, 9312.558
126.7030, 7897.765
127.9340, 7015.952
129.1640, 6736.948
130.3950, 6609.605
131.6250, 6669.880
132.8550, 7393.695
134.0850, 8445.895
135.3150, 9465.343
136.5450, 10571.90
137.7750, 11253.43
139.0040, 11652.78
140.2330, 12520.85
141.4620, 13726.53
142.6910, 15182.73
143.9200, 16647.38
145.1490, 17609.43
146.3770, 18133.78
147.6060, 17601.41
148.8340, 16268.24
150.0620, 15174.25
151.2900, 14013.38
152.5170, 13743.59
153.7450, 14282.85
154.9720, 15355.13
156.2000, 16725.39
157.4270, 17899.59
158.6540, 19925.73
159.8810, 22331.76
161.1070, 25281.66
162.3340, 28370.41
163.5600, 31383.99
164.7860, 32930.38
166.0120, 32475.94
167.2380, 30419.40
168.4640, 26988.55
169.6890, 23374.40
170.9150, 20580.79
172.1400, 18665.74
173.3650, 17287.37
174.5900, 16172.71
175.8150, 15324.50
177.0400, 13742.66
178.2640, 12572.00
179.4880, 11716.50
180.7130, 11257.19
181.9370, 10980.09
183.1600, 11064.24
184.3840, 11391.65
185.6080, 11923.33
186.8310, 11808.30
188.0540, 11720.56
189.2770, 10998.12
190.5000, 9985.999
191.7230, 9284.190
192.9460, 8287.701
194.1680, 7801.538
195.3910, 7711.699
196.6130, 8002.191
197.8350, 8351.012
199.0570, 8726.165
200.2780, 9401.647
201.5000, 10114.46
202.7210, 10610.60
203.9420, 11118.07
205.1640, 11709.87
206.3840, 12345.99
207.6050, 13199.43
208.8260, 13477.19
210.0460, 13165.27
211.2670, 12217.67
212.4870, 11044.38
213.7070, 9879.396
214.9270, 8789.721
216.1460, 7722.349
217.3660, 7105.285
218.5850, 6444.525
219.8050, 5939.066
221.0240, 5255.906
222.2430, 4923.047
223.4610, 4414.482
224.6800, 3966.212
225.8980, 3649.232
227.1170, 3181.546
228.3350, 3108.145
229.5530, 2673.029
230.7710, 3014.197
231.9880, 3159.647
233.2060, 3466.376
234.4230, 3636.501
235.6400, 3874.975
236.8570, 4099.244
238.0740, 4556.561
239.2910, 5022.482
240.5080, 5739.311
241.7240, 6220.865
242.9400, 6409.899
244.1570, 5678.258
245.3730, 4882.645
246.5880, 3938.561
247.8040, 2976.014
249.0190, 2614.771
250.2350, 2242.958
251.4500, 1845.834
252.6650, 1770.551
253.8800, 1841.337
255.0950, 1727.010
256.3090, 1647.660
257.5240, 1657.605
258.7380, 1841.020
259.9520, 1843.955
261.1660, 2181.401
262.3800, 2292.447
263.5930, 2425.064
264.8070, 2632.229
266.0200, 2669.916
267.2330, 3085.104
268.4460, 3345.775
269.6590, 3488.908
270.8720, 3661.487
272.0850, 3814.497
273.2970, 3701.922
274.5090, 3524.747
275.7210, 3426.961
276.9330, 3076.551
278.1450, 2729.503
279.3570, 2479.807
280.5680, 2057.451
281.7790, 1726.425
282.9910, 1463.721
284.2020, 1557.326
285.4120, 1394.235
286.6230, 1459.439
287.8340, 1497.931
289.0440, 1643.703
290.2540, 1745.750
291.4640, 1603.065
292.6740, 1545.641
293.8840, 1728.475
295.0940, 2041.558
296.3030, 2248.888
297.5120, 2875.457
298.7210, 3323.383
299.9300, 3743.947
301.1390, 4198.331
302.3480, 4690.346
303.5560, 5005.748
304.7650, 5924.666
305.9730, 6562.791
307.1810, 6901.123
308.3890, 6388.658
309.5970, 5090.391
310.8040, 4109.319
312.0120, 2820.437
313.2190, 2042.733
314.4260, 1385.205
315.6330, 1094.848
316.8400, 755.6572
318.0460, 763.6357
319.2530, 710.7754
320.4590, 741.0762
321.6650, 882.5361
322.8710, 935.1533
324.0770, 1103.928
325.2830, 1187.856
326.4880, 1157.942
327.6940, 1295.186
328.8990, 1445.585
330.1040, 1518.139
331.3090, 1983.860
332.5140, 1842.734
333.7180, 1689.766
334.9230, 1488.962
336.1270, 1161.317
337.3310, 976.8975
338.5350, 922.6504
339.7390, 802.5859
340.9430, 684.6758
342.1460, 671.9102
343.3500, 536.3086
344.5530, 513.8516
345.7560, 759.5684
346.9590, 882.4424
348.1620, 943.4863
349.3640, 1074.672
350.5670, 1463.998
351.7690, 1714.480
352.9710, 1915.114
354.1730, 2182.885
355.3750, 2268.803
356.5760, 2751.850
357.7780, 3022.025
358.9790, 3021.388
360.1800, 3266.885
361.3810, 3162.508
362.5820, 2827.306
363.7830, 2566.228
364.9830, 2001.293
366.1840, 1577.480
367.3840, 1057.800
368.5840, 896.2598
369.7840, 489.8408
370.9840, 182.5371
372.1830, 17.34570
373.3830, 22.27246
374.5820, 231.6943
375.7810, 178.5820
376.9800, 135.4014
378.1790, 346.1406
379.3780, 500.8535
380.5760, 310.6240
381.7750, 361.4316
382.9730, 456.3975
384.1710, 386.5059
385.3690, 462.7812
386.5660, 535.0635
387.7640, 445.3828
388.9610, 377.7002
390.1590, 480.9863
391.3560, 424.2900
392.5530, 413.5918
393.7500, 503.8760
394.9460, 442.2041
396.1430, 416.5635
397.3390, 317.9492
398.5350, 193.3262
399.7310, 173.6465
400.9270, 161.9043
402.1230, 1.896484
403.3180, 69.81738
404.5140, 261.8770
405.7090, 353.0791
406.9040, 345.4229
408.0990, 658.9033
409.2930, 829.5195
410.4880, 1047.269
411.6820, 1248.150
412.8770, 1440.158
414.0710, 1358.294
415.2650, 1339.554
416.4590, 1542.936
417.6520, 1486.438
418.8460, 1735.060
420.0390, 2183.797
421.2320, 2597.652
422.4250, 3117.618
423.6180, 3831.698
424.8110, 4599.888
426.0030, 5900.188
427.1960, 7200.596
428.3880, 8521.108
429.5800, 9839.727
430.7720, 11542.45
431.9640, 13392.27
433.1550, 15182.20
434.3470, 16729.22
435.5380, 18178.34
436.7290, 19273.56
437.9200, 19760.88
439.1110, 20073.29
440.3020, 20444.80
441.4920, 20824.40
442.6820, 21004.09
443.8730, 21674.87
445.0630, 22385.75
446.2530, 23018.70
447.4420, 23007.75
448.6320, 21828.89
449.8210, 19378.11
451.0100, 16249.42
452.2000, 12924.80
453.3880, 9872.275
454.5770, 7457.829
455.7660, 5519.464
456.9540, 4019.181
458.1430, 3005.978
459.3310, 2372.852
460.5190, 2070.805
461.7070, 1418.836
462.8940, 1248.941
464.0820, 1073.123
465.2690, 1050.380
466.4560, 725.7119
467.6430, 732.1172
468.8300, 793.5957
470.0170, 774.6152
471.2040, 822.7461
472.3900, 731.4473
473.5760, 922.5547
474.7620, 902.5693
475.9480, 1186.062
477.1340, 1182.011
478.3200, 1421.757
479.5050, 1428.765
480.6900, 1927.544
481.8750, 2084.770
483.0600, 2426.287
484.2450, 2856.381
485.4300, 3304.086
486.6140, 3806.163
487.7990, 4161.475
488.9830, 4623.068
490.1670, 4956.295
491.3510, 5490.926
492.5350, 5694.758
493.7180, 6024.250
494.9020, 6479.623
496.0850, 6034.504
497.2680, 5720.256
498.4510, 5285.170
499.6340, 5315.297
500.8160, 4922.165
501.9990, 4836.221
503.1810, 4746.145
504.3630, 4459.107
505.5450, 4234.983
506.7270, 4286.199
507.9090, 4410.758
509.0900, 4607.747
510.2720, 4922.569
511.4530, 4955.047
512.6340, 5268.286
513.8150, 5593.742
514.9950, 6023.475
516.1760, 6611.042
517.3560, 7297.092
518.5370, 7986.832
519.7170, 8996.613
520.8970, 10299.42
522.0770, 11808.38
523.2560, 14047.58
524.4360, 16631.22
525.6150, 20063.96
526.7940, 23368.07
527.9730, 26789.21
529.1520, 30668.62
530.3310, 34735.41
531.5090, 39180.48
532.6870, 42328.25
533.8660, 44042.79
535.0440, 42249.76
536.2210, 38193.10
537.3990, 32352.44
538.5770, 25616.98
539.7540, 20382.39
540.9310, 15842.78
542.1080, 12180.03
543.2850, 9952.768
544.4620, 8087.781
545.6390, 6550.977
546.8150, 5596.334
547.9920, 4745.732
549.1680, 4022.172
550.3440, 3303.648
551.5190, 2885.164
552.6950, 2712.717
553.8710, 2165.309
555.0460, 1914.938
556.2210, 1662.603
557.3960, 1249.305
558.5710, 1210.041
559.7460, 1298.810
560.9200, 999.6104
562.0950, 823.4414
563.2690, 932.3037
564.4430, 587.1953
565.6170, 576.1182
566.7910, 610.0664
567.9640, 591.0439
569.1380, 507.0488
570.3110, 356.0850
571.4840, 497.1455
572.6570, 561.2324
573.8300, 477.3418
575.0030, 359.4766
576.1750, 286.6348
577.3470, 465.8174
578.5200, 393.0225
579.6920, 302.2480
580.8630, 379.4941
582.0350, 446.7598
583.2070, 312.7568
584.3780, 420.8604
585.5490, 487.9727
586.7200, 516.2139
587.8910, 392.9639
589.0620, 462.4297
590.2330, 452.8906
591.4030, 438.8770
592.5730, 531.8281
593.7430, 424.0820
594.9130, 512.7793
596.0830, 521.2910
597.2530, 564.6504
598.4220, 528.5176
599.5920, 515.2832
600.7610, 579.0117
601.9300, 598.1582
603.0990, 547.9473
604.2670, 689.8516
605.4360, 382.3965
606.6040, 361.9551
607.7720, 270.5215
608.9400, 172.1953
610.1080, 79.68945
611.2760, 78.36523
612.4440, 232.0820
613.6110, 4.068359
614.7780, 107.1172
615.9450, 37.26758
617.1120, 4.269531
618.2790, 9.390625
619.4460, 257.6641
620.6120, 42.56055
621.7780, 103.0391
622.9450, 22.49805
624.1110, 86.66797
625.2760, 34.69727
626.4420, 51.83203
627.6080, 74.36914
628.7730, 25.62109
629.9380, 70.10742
631.1030, 40.55664
632.2680, 35.50000
633.4330, 34.39453
634.5970, 14.13672
635.7620, 46.22656
636.9260, 16.93750
638.0900, 102.9395
639.2540, 99.92188
640.4180, 180.5059
641.5810, 29.13867
642.7450, 72.80273
643.9080, 142.5742
645.0710, 85.05664
646.2340, 23.48438
647.3970, 56.91992
648.5590, 16.76562
649.7220, 31.98242
650.8840, 65.93945
652.0460, 78.35352
653.2080, 142.1484
654.3700, 26.81055
655.5320, 132.7852
656.6930, 8.320313
657.8550, 191.3477
659.0160, 86.54883
660.1770, 327.2871
661.3380, 330.0957
662.4990, 246.3457
663.6590, 353.8477
664.8200, 232.8965
665.9800, 378.5156
667.1400, 304.2129
668.3000, 253.4453
669.4600, 348.3965
670.6190, 345.6172
671.7790, 447.6172
672.9380, 217.8066
674.0970, 464.9590
675.2560, 442.3516
676.4150, 555.9590
677.5740, 549.2812
678.7320, 554.4922
679.8900, 503.0449
681.0490, 779.6992
682.2070, 835.0059
683.3640, 792.1406
684.5220, 807.6699
685.6800, 967.1699
686.8370, 1159.723
687.9940, 1309.004
689.1510, 1541.201
690.3080, 1553.566
691.4650, 1932.705
692.6220, 1890.609
693.7780, 2251.205
694.9340, 2437.252
696.0900, 2681.480
697.2460, 2834.465
698.4020, 3233.414
699.5580, 3420.332
700.7130, 3555.219
701.8680, 3928.184
703.0240, 3884.002
704.1790, 4020.051
705.3330, 4081.918
706.4880, 3896.633
707.6430, 3681.316
708.7970, 3729.305
709.9510, 3495.914
711.1050, 3228.490
712.2590, 2884.029
713.4130, 2915.531
714.5660, 2802.232
715.7200, 2485.221
716.8730, 2854.613
718.0260, 2638.969
719.1790, 2673.506
720.3320, 2710.785
721.4840, 3159.029
722.6370, 3178.234
723.7890, 3202.400
724.9410, 3194.262
726.0930, 3326.352
727.2450, 3115.467
728.3960, 3008.480
729.5480, 2777.449
730.6990, 2807.383
731.8500, 2319.275
733.0010, 2115.129
734.1520, 1769.943
735.3030, 1664.715
736.4530, 1424.836
737.6040, 1038.525
738.7540, 858.1777
739.9040, 786.7871
741.0540, 721.3555
742.2030, 582.8828
743.3530, 569.3691
744.5020, 404.4355
745.6520, 349.8398
746.8010, 323.0762
747.9490, 207.3926
749.0980, 327.1953
750.2470, 185.9160
751.3950, 289.0879
752.5440, 240.5898
753.6920, 0.7187500
754.8400, 158.3320
755.9870, 241.8145
757.1350, 258.0059
758.2820, 11.62109
759.4300, 80.15820
760.5770, 28.56445
761.7240, 21.46875
762.8710, 124.1504
764.0170, 93.83594
765.1640, 47.69141
766.3100, 41.28711
767.4560, 102.2559
768.6020, 168.7363
769.7480, 132.1113
770.8940, 68.16992
772.0400, 94.32812
773.1850, 29.78711
774.3300, 53.53906
775.4750, 45.77734
776.6200, 105.1445
777.7650, 51.31250
778.9090, 74.14453
780.0540, 98.71289
781.1980, 37.70312
782.3420, 64.68945
783.4860, 93.55273
784.6300, 28.22461
785.7740, 144.5527
786.9170, 90.89062
788.0600, 37.95508
789.2030, 64.35938
790.3460, 46.00195
791.4890, 132.3965
792.6320, 89.39453
793.7740, 65.37109
794.9170, 116.6016
796.0590, 119.8867
797.2010, 120.9004
798.3430, 41.29297
799.4850, 79.63477
800.6260, 66.93164
801.7670, 109.1816
802.9090, 67.38672
804.0500, 181.5430
805.1910, 14.33984
806.3310, 160.7090
807.4720, 130.7168
808.6120, 10.68164
809.7530, 154.5840
810.8930, 24.56641
812.0330, 140.2188
813.1720, 123.9609
814.3120, 192.6562
815.4510, 251.3125
816.5910, 164.9277
817.7300, 145.5000
818.8690, 300.0273
820.0080, 94.51758
821.1460, 177.9570
822.2850, 178.3535
823.4230, 157.7051
824.5610, 215.0176
825.6990, 235.2891
826.8370, 178.5176
827.9750, 407.7051
829.1120, 90.85352
830.2500, 111.9531
831.3870, 294.0098
832.5240, 55.02734
833.6610, 225.9941
834.7980, 314.9219
835.9340, 269.8105
837.0700, 212.6602
838.2070, 184.4727
839.3430, 503.2441
840.4790, 145.9785
841.6140, 178.6719
842.7500, 280.3242
843.8850, 251.9414
845.0210, 34.51953
846.1560, 312.0508
847.2910, 206.5430
848.4260, 306.0000
849.5600, 342.4199
850.6950, 138.8047
851.8290, 92.15234
852.9630, 360.4551
854.0970, 339.7266
855.2310, 135.9609
856.3650, 377.1582
857.4980, 244.3203
858.6310, 276.4492
859.7650, 257.5410
860.8980, 65.59961
862.0310, 397.6172
863.1630, 159.6016
864.2960, 219.5508
865.4280, 470.4668
866.5600, 404.3535
867.6920, 234.2031
868.8240, 255.0234
869.9560, 236.8086
871.0880, 263.5625
872.2190, 91.28711
873.3500, 403.9727
874.4810, 472.6289
875.6120, 276.2559
876.7430, 170.8496
877.8740, 378.4121
879.0040, 350.9473
880.1340, 10.54883
881.2650, 223.9121
882.3950, 24.33984
883.5240, 146.6348
884.6540, 201.0957
885.7830, 184.3535
886.9130, 275.5430
888.0420, 29.57617
889.1710, 181.2324
890.3000, 5.103516
891.4280, 190.6738
892.5570, 83.29102
893.6850, 188.0449
894.8130, 288.5352
895.9420, 188.5586
897.0690, 16.50000
898.1970, 128.7695
899.3250, 97.54883
900.4520, 149.4062
901.5790, 17.96094
902.7060, 148.5039
903.8330, 211.2324
904.9600, 112.7500
906.0870, 3.048828
907.2130, 199.9531
908.3390, 10.74609
909.4650, 75.57617
910.5910, 109.5781
911.7170, 99.64062
912.8430, 158.5703
913.9680, 115.1270
915.0930, 44.00586
916.2180, 122.0781
917.3430, 112.8418
918.4680, 10.87500
919.5930, 150.2305
920.7170, 161.3359
921.8420, 53.03320
922.9660, 283.1406
924.0900, 22.58984
925.2140, 231.5078
926.3370, 37.01172
927.4610, 44.38477
928.5840, 4.863281
929.7070, 78.16602
930.8310, 35.68945
931.9530, 211.3066
933.0760, 62.14844
934.1990, 100.5723
935.3210, 138.6348
936.4430, 272.4805
937.5650, 101.8262
938.6870, 19.66992
939.8090, 97.49414
940.9310, 294.8535
942.0520, 33.58008
943.1730, 349.1074
944.2940, 157.9121
945.4150, 460.6035
946.5360, 402.3984
947.6570, 424.0176
948.7770, 366.5039
949.8970, 272.3516
951.0180, 482.3711
952.1370, 592.0996
953.2570, 699.7461
954.3770, 851.7539
955.4960, 952.9512
956.6160, 1193.736
957.7350, 1365.521
958.8540, 1686.225
959.9730, 2125.168
961.0910, 3378.160
962.2100, 2970.959
963.3280, 3245.947
964.4460, 3847.154
965.5640, 4403.637
966.6820, 4703.637
967.8000, 5112.422
968.9180, 5136.426
970.0350, 5113.426
971.1520, 5302.426
972.2690, 3642.426
973.3860, 3074.312
974.5030, 2435.314
975.6190, 2103.057
976.7360, 1645.941
977.8520, 1459.971
978.9680, 1269.998
980.0840, 1212.688
981.2000, 987.7227
982.3160, 1164.760
983.4310, 1253.801
984.5460, 1184.844
985.6610, 1307.656
986.7760, 1439.191
987.8910, 1661.285
989.0060, 1861.387
990.1200, 1876.273
991.2350, 1992.383
992.3490, 2020.498
993.4630, 2153.617
994.5760, 2179.746
995.6900, 2266.143
996.8040, 2397.281
997.9170, 2225.363
999.0300, 2238.521
1000.143, 1989.686
1001.256, 2078.867
1002.369, 1610.057
1003.481, 1593.254
1004.594, 1473.459
1005.706, 1738.688
1006.818, 1572.537
1007.930, 1737.783
1009.042, 1935.039
1010.153, 1697.303
1011.264, 1778.576
1012.376, 1994.855
1013.487, 2022.146
1014.598, 2239.824
1015.708, 2486.137
1016.819, 3074.576
1017.929, 3588.891
1019.040, 4437.703
1020.150, 5321.283
1021.260, 6948.918
1022.370, 8127.590
1023.479, 9724.012
1024.589, 10970.32
1025.698, 11931.79
1026.807, 12260.14
1027.916, 11571.64
1029.025, 9786.184
1030.133, 8179.746
1031.242, 6774.773
1032.350, 5325.248
1033.458, 4690.316
1034.566, 3597.037
1035.674, 3241.410
1036.782, 3155.178
1037.890, 2793.965
1038.997, 2855.768
1040.104, 2533.053
1041.211, 2710.926
1042.318, 2755.738
1043.425, 2883.473
1044.531, 3162.420
1045.638, 2970.389
1046.744, 3297.416
1047.850, 3528.291
1048.956, 3825.434
1050.061, 3639.594
1051.167, 3993.115
1052.272, 4163.443
1053.378, 3780.699
1054.483, 3405.795
1055.588, 3178.643
1056.692, 3148.949
1057.797, 2728.279
1058.901, 2648.625
1060.006, 2483.008
1061.110, 2467.418
1062.214, 2322.832
1063.318, 2384.291
1064.421, 2484.668
1065.525, 2649.170
1066.628, 2796.715
1067.731, 2818.281
1068.834, 3285.865
1069.937, 3450.469
1071.040, 3341.090
1072.142, 3352.729
1073.244, 3365.381
1074.347, 3113.062
1075.449, 3021.762
1076.550, 2982.473
1077.652, 2867.584
1078.754, 2698.336
1079.855, 2778.121
1080.956, 2787.920
1082.057, 2900.736
1083.158, 3029.566
1084.259, 2946.410
1085.359, 3236.270
1086.460, 3601.143
1087.560, 3783.031
1088.660, 3842.938
1089.760, 3994.857
1090.860, 4156.791
1091.959, 4124.740
1093.059, 3930.705
1094.158, 3898.686
1095.257, 3339.678
1096.356, 2884.484
1097.455, 2250.930
1098.553, 1915.969
1099.652, 1585.021
1100.750, 1508.096
1101.848, 1317.180
1102.946, 1231.281
1104.044, 1196.396
1105.141, 917.5215
1106.239, 821.6641
1107.336, 750.8184
1108.433, 836.9883
1109.530, 517.4570
1110.627, 713.6562
1111.724, 820.8672
1112.820, 812.0957
1113.917, 588.3418
1115.013, 576.6016
1116.109, 633.8711
1117.205, 557.1562
1118.300, 630.8633
1119.396, 809.1992
1120.491, 746.5469
1121.586, 684.9082
1122.681, 765.3184
1123.776, 474.7070
1124.871, 508.1309
1125.965, 622.5449
1127.060, 717.9727
1128.154, 625.4160
1129.248, 415.8984
1130.342, 449.3652
1131.436, 341.9668
1132.529, 415.9355
1133.623, 307.4395
1134.716, 182.9551
1135.809, 251.4863
1136.902, 169.1016
1137.995, 220.6562
1139.087, 475.2246
1140.180, 25.80469
1141.272, 289.3965
1142.364, 245.0000
1143.456, 76.61328
1144.548, 278.2402
1145.639, 129.8789
1146.731, 220.5371
1147.822, 193.2070
1148.913, 59.10742
1150.004, 18.42773
1151.095, 9.742188
1152.186, 11.04492
1153.276, 119.6562
1154.366, 63.17969
1155.457, 23.94141
1156.546, 285.7227
1157.636, 2.527344
1158.726, 218.3418
1159.815, 99.16992
1160.905, 61.00586
1161.994, 168.2324
1163.083, 23.91016
1164.172, 116.0527
1165.261, 48.77148
1166.349, 191.5996
1167.437, 147.4434
1168.526, 91.29492
1169.614, 168.1523
1170.702, 55.02148
1171.789, 36.92773
1172.877, 157.1816
1173.964, 2.644531
1175.051, 140.4922
1176.138, 26.40234
1177.225, 90.26953
1178.312, 63.05078
1179.399, 66.82617
1180.485, 238.7129
1181.571, 70.60547
1182.657, 4.076172
1183.743, 216.1406
1184.829, 15.92773
1185.915, 61.00195
1187.000, 165.9453
1188.085, 66.89453
1189.171, 32.84961
1190.255, 54.80664
1191.340, 93.77344
1192.425, 100.7500
1193.509, 150.7324
1194.594, 15.27539
1195.678, 134.2910
1196.762, 270.6738
1197.846, 142.6445
1198.929, 50.61914
1200.013, 248.5977
1201.096, 218.5840
1202.179, 100.5742
1203.262, 392.5684
1204.345, 146.5664
1205.428, 131.5703
1206.510, 307.5781
1207.593, 0.5898440
1208.675, 406.6016
1209.757, 91.61719
1210.839, 34.63672
1211.920, 159.6602
1213.002, 89.68555
1214.083, 232.9512
1215.164, 50.98633
1216.245, 242.0254
1217.326, 125.0664
1218.407, 165.1113
1219.488, 55.16211
1220.568, 236.2129
1221.648, 236.2676
1222.728, 91.32422
1223.808, 102.3867
1224.888, 226.4492
1225.967, 41.48242
1227.047, 4.560547
1228.126, 65.59961
1229.205, 273.6445
1230.284, 325.6914
1231.363, 133.7383
1232.441, 115.7910
1233.520, 177.8418
1234.598, 352.8984
1235.676, 104.9570
1236.754, 111.0176
1237.832, 243.0762
1238.910, 61.85938
1239.987, 89.16797
1241.064, 171.1953
1242.141, 45.22656
1243.218, 258.2578
1244.295, 248.2891
1245.372, 271.3242
1246.448, 29.35938
1247.525, 137.8438
1248.601, 398.1113
1249.677, 155.0684
1250.753, 143.0273
1251.828, 29.98242
1252.904, 245.9395
1253.979, 31.31641
1255.054, 153.0625
1256.129, 215.2012
1257.204, 220.9414
1258.279, 1.339844
1259.353, 72.70703
1260.428, 27.46484
1261.502, 22.55859
1262.576, 89.73633
1263.650, 143.4336
1264.724, 275.3730
1265.797, 47.68945
1266.871, 214.2129
1267.944, 263.1133
1269.017, 84.01367
1270.090, 122.9160
1271.162, 130.8164
1272.235, 264.7168
1273.307, 66.61523
1274.380, 103.5703
1275.452, 274.4668
1276.524, 194.3652
