##NAMES=Natrolite
##RRUFFID=R060561
##IDEAL CHEMISTRY=Na_2_(Si_3_Al_2_)O_10_&#183;2H_2_O
##LOCALITY=California, USA
##OWNER=RRUFF
##SOURCE=Gemological Institute of America
##DESCRIPTION=White fragment
##STATUS=The identification of this mineral has been confirmed by X-ray diffraction and chemical analysis
##URL=rruff.info/R060561
##MEASURED CHEMISTRY=Na_2.00_(Si_3.00_Al_2.00_)O_10_Â·2H_2_O
##PIN_ID=L00669
##ORIENTATION=Laser parallel to c* (0 0 1). Fiducial mark perpendicular to laser is parallel to a [1 0 0]
92.17800, 0.0000000E+00
93.41300, 121.0977
94.64800, 217.3108
95.88300, 344.3552
97.11800, 316.0065
98.35200, 104.5988
99.58700, 15.13904
100.8210, 84.90857
102.0550, 74.50146
103.2890, 22.56384
104.5220, 115.4507
105.7560, 858.2698
106.9890, 644.7886
108.2230, 904.0552
109.4560, 1352.250
110.6890, 2009.664
111.9210, 2671.702
113.1540, 3395.833
114.3870, 4065.578
115.6190, 4576.499
116.8510, 5138.201
118.0830, 5167.330
119.3150, 6429.566
120.5470, 7731.632
121.7780, 9275.278
123.0100, 9917.276
124.2410, 9100.430
125.4720, 7591.557
126.7030, 6613.494
127.9340, 6188.095
129.1640, 6162.280
130.3950, 6692.957
131.6250, 7776.971
132.8550, 11141.20
134.0850, 8828.526
135.3150, 10065.83
136.5450, 11034.96
137.7750, 12266.83
139.0040, 13908.33
140.2330, 16006.38
141.4620, 18289.91
142.6910, 21112.85
143.9200, 23682.15
145.1490, 26020.74
146.3770, 26584.59
147.6060, 25242.66
148.8340, 23498.88
150.0620, 20720.25
151.2900, 18219.71
152.5170, 16302.23
153.7450, 15222.79
154.9720, 14714.36
156.2000, 15192.91
157.4270, 15958.42
158.6540, 17208.85
159.8810, 19514.20
161.1070, 22200.44
162.3340, 24826.54
163.5600, 27513.52
164.7860, 28840.04
166.0120, 28494.26
167.2380, 26732.83
168.4640, 24174.07
169.6890, 21518.89
170.9150, 19301.33
172.1400, 17721.53
173.3650, 16634.30
174.5900, 15598.68
175.8150, 14689.48
177.0400, 13462.50
178.2640, 12268.76
179.4880, 11614.28
180.7130, 10854.09
181.9370, 10654.21
183.1600, 10682.64
184.3840, 11030.40
185.6080, 11786.51
186.8310, 11890.97
188.0540, 11990.79
189.2770, 11719.97
190.5000, 11286.52
191.7230, 10681.45
192.9460, 10306.75
194.1680, 10006.44
195.3910, 9937.497
196.6130, 10330.94
197.8350, 11249.77
199.0570, 11907.97
200.2780, 12887.56
201.5000, 14409.53
202.7210, 15388.87
203.9420, 16509.60
205.1640, 17466.70
206.3840, 19500.17
207.6050, 21302.01
208.8260, 21739.21
210.0460, 21183.79
211.2670, 19751.74
212.4870, 17618.08
213.7070, 15138.78
214.9270, 12982.83
216.1460, 10930.25
217.3660, 9408.025
218.5850, 7997.153
219.8050, 6863.635
221.0240, 6375.471
222.2430, 5416.654
223.4610, 5215.186
224.6800, 4517.065
225.8980, 4542.289
227.1170, 4116.854
228.3350, 3894.757
229.5530, 4205.998
230.7710, 4315.572
231.9880, 4693.479
233.2060, 5102.717
234.4230, 5799.796
235.6400, 6113.299
236.8570, 6992.430
238.0740, 7813.674
239.2910, 9151.562
240.5080, 10601.51
241.7240, 11712.99
242.9400, 12180.28
244.1570, 11264.70
245.3730, 9488.769
246.5880, 7522.117
247.8040, 5966.489
249.0190, 4905.990
250.2350, 3880.623
251.4500, 3337.645
252.6650, 2911.052
253.8800, 2999.088
255.0950, 2681.614
256.3090, 2500.344
257.5240, 2609.107
258.7380, 2815.474
259.9520, 2897.985
261.1660, 3149.102
262.3800, 3256.798
263.5930, 3776.054
264.8070, 3938.876
266.0200, 4434.139
267.2330, 4867.408
268.4460, 5096.264
269.6590, 5857.023
270.8720, 6034.238
272.0850, 5849.895
273.2970, 5909.973
274.5090, 5268.465
275.7210, 4531.361
276.9330, 3959.648
278.1450, 3282.314
279.3570, 2947.350
280.5680, 2257.746
281.7790, 2126.492
282.9910, 1936.581
284.2020, 1918.008
285.4120, 1791.760
286.6230, 1878.834
287.8340, 1840.223
289.0440, 1933.919
290.2540, 2074.917
291.4640, 2143.213
292.6740, 2195.799
293.8840, 2421.671
295.0940, 2843.823
296.3030, 3367.251
297.5120, 3984.949
298.7210, 4823.914
299.9300, 5946.143
301.1390, 6658.625
302.3480, 7983.362
303.5560, 9496.352
304.7650, 11664.58
305.9730, 13168.06
307.1810, 13617.77
308.3890, 12939.71
309.5970, 10978.89
310.8040, 8470.282
312.0120, 6295.896
313.2190, 4360.725
314.4260, 2782.854
315.6330, 2054.124
316.8400, 1497.180
318.0460, 1115.583
319.2530, 731.5547
320.4590, 886.8086
321.6650, 985.3203
322.8710, 1068.779
324.0770, 1010.436
325.2830, 951.2881
326.4880, 1072.334
327.6940, 1194.919
328.8990, 1339.643
330.1040, 1486.168
331.3090, 1724.433
332.5140, 1659.484
333.7180, 1729.771
334.9230, 1422.280
336.1270, 1050.033
337.3310, 1060.011
338.5350, 774.2090
339.7390, 659.6133
340.9430, 661.2148
342.1460, 423.0107
343.3500, 362.0176
344.5530, 463.2246
345.7560, 667.6348
346.9590, 578.2490
348.1620, 764.0508
349.3640, 1057.058
350.5670, 1050.255
351.7690, 1304.638
352.9710, 1618.201
354.1730, 1909.947
355.3750, 2085.875
356.5760, 2386.976
357.7780, 2610.246
358.9790, 2767.688
360.1800, 3071.298
361.3810, 3021.088
362.5820, 2825.050
363.7830, 2103.178
364.9830, 1835.472
366.1840, 1303.948
367.3840, 1105.598
368.5840, 654.4082
369.7840, 473.3701
370.9840, 143.5010
372.1830, 32.82520
373.3830, 590.2969
374.5820, 5.089844
375.7810, 245.3398
376.9800, 311.4922
378.1790, 423.5664
379.3780, 313.5918
380.5760, 534.6426
381.7750, 325.8018
382.9730, 472.0547
384.1710, 63.26074
385.3690, 433.2666
386.5660, 542.2109
387.7640, 436.1338
388.9610, 460.9932
390.1590, 529.7979
391.3560, 448.5762
392.5530, 439.3008
393.7500, 551.9824
394.9460, 344.6826
396.1430, 310.3232
397.3390, 238.8955
398.5350, 404.3770
399.7310, 123.8369
400.9270, 222.1689
402.1230, 27.58301
403.3180, 124.5049
404.5140, 231.6074
405.7090, 360.8867
406.9040, 650.3408
408.0990, 712.9678
409.2930, 800.7646
410.4880, 1026.729
411.6820, 1383.858
412.8770, 1456.152
414.0710, 1602.605
415.2650, 1732.220
416.4590, 1929.990
417.6520, 1934.916
418.8460, 2887.995
420.0390, 3088.227
421.2320, 3781.607
422.4250, 4808.137
423.6180, 5808.812
424.8110, 7283.635
426.0030, 8827.599
427.1960, 10952.71
428.3880, 13441.96
429.5800, 15853.34
430.7720, 19038.86
431.9640, 22112.53
433.1550, 25375.33
434.3470, 28258.26
435.5380, 30111.32
436.7290, 30819.51
437.9200, 30379.83
439.1110, 29378.28
440.3020, 28278.87
441.4920, 27192.57
442.6820, 26827.40
443.8730, 26628.35
445.0630, 26756.43
446.2530, 26832.63
447.4420, 26858.95
448.6320, 25814.39
449.8210, 23414.95
451.0100, 19931.62
452.2000, 16334.41
453.3880, 12443.32
454.5770, 9512.338
455.7660, 6939.473
456.9540, 5211.719
458.1430, 3805.074
459.3310, 2939.541
460.5190, 2180.117
461.7070, 1513.803
462.8940, 1163.596
464.0820, 939.4941
465.2690, 675.4980
466.4560, 664.6074
467.6430, 330.8203
468.8300, 348.1387
470.0170, 153.5586
471.2040, 159.0762
472.3900, 129.5371
473.5760, 155.5742
474.7620, 444.0273
475.9480, 440.0156
477.1340, 251.6719
478.3200, 478.6504
479.5050, 370.9609
480.6900, 572.8262
481.8750, 852.6758
483.0600, 993.8223
484.2450, 998.5684
485.4300, 1343.928
486.6140, 1742.266
487.7990, 1772.311
488.9830, 2018.109
490.1670, 2303.996
491.3510, 2664.809
492.5350, 2949.592
493.7180, 3321.193
494.9020, 3390.650
496.0850, 3382.000
497.2680, 3326.793
498.4510, 2926.092
499.6340, 3165.113
500.8160, 3009.971
501.9990, 3128.197
503.1810, 3076.195
504.3630, 3166.561
505.5450, 3192.230
506.7270, 3225.855
507.9090, 3664.062
509.0900, 3908.275
510.2720, 4362.223
511.4530, 4432.258
512.6340, 4877.922
513.8150, 5502.176
514.9950, 6067.359
516.1760, 6416.961
517.3560, 7095.984
518.5370, 7758.447
519.7170, 8595.727
520.8970, 9789.768
522.0770, 10784.78
523.2560, 12307.51
524.4360, 14507.77
525.6150, 16848.21
526.7940, 19226.20
527.9730, 22771.25
529.1520, 26160.12
530.3310, 30088.88
531.5090, 34117.43
532.6870, 37449.61
533.8660, 38467.61
535.0440, 37096.96
536.2210, 33213.77
537.3990, 27917.35
538.5770, 22337.46
539.7540, 17836.83
540.9310, 14117.53
542.1080, 10822.81
543.2850, 8757.805
544.4620, 8051.918
545.6390, 5827.576
546.8150, 4965.289
547.9920, 3875.055
549.1680, 3566.873
550.3440, 3061.740
551.5190, 2430.660
552.6950, 2382.629
553.8710, 1793.645
555.0460, 1501.709
556.2210, 1482.822
557.3960, 1484.979
558.5710, 1091.180
559.7460, 1009.424
560.9200, 900.7109
562.0950, 736.0410
563.2690, 578.4102
564.4430, 614.8203
565.6170, 506.2695
566.7910, 552.7559
567.9640, 409.2773
569.1380, 423.8398
570.3110, 395.4355
571.4840, 439.0664
572.6570, 520.7305
573.8300, 459.4277
575.0030, 337.1543
576.1750, 276.9160
577.3470, 356.7051
578.5200, 434.5254
579.6920, 284.3750
580.8630, 375.2520
582.0350, 704.1562
583.2070, 447.0859
584.3780, 436.0391
585.5490, 417.0215
586.7200, 488.0234
587.8910, 428.0508
589.0620, 447.0996
590.2330, 453.1699
591.4030, 754.2598
592.5730, 707.3691
593.7430, 799.5000
594.9130, 961.6484
596.0830, 1043.812
597.2530, 1139.996
598.4220, 1273.195
599.5920, 1367.416
600.7610, 1592.652
601.9300, 1329.902
603.0990, 1268.168
604.2670, 1023.445
605.4360, 1018.734
606.6040, 794.0332
607.7720, 652.1250
608.9400, 531.7871
610.1080, 408.0859
611.2760, 282.1426
612.4440, 82.98438
613.6110, 27.66602
614.7780, 55.00000
615.9450, 117.6562
617.1120, 90.91016
618.2790, 167.7559
619.4460, 98.47070
620.6120, 88.19141
621.7780, 30.66016
622.9450, 2.783203
624.1110, 12.29102
625.2760, 69.73242
626.4420, 29.64453
627.6080, 40.55469
628.7730, 51.64453
629.9380, 4.111328
631.1030, 65.69531
632.2680, 5.255859
633.4330, 0.8691410
634.5970, 29.41211
635.7620, 12.86914
636.9260, 6.841797
638.0900, 53.35742
639.2540, 72.87109
640.4180, 44.19336
641.5810, 73.85742
642.7450, 1.160156
643.9080, 13.85156
645.0710, 65.18945
646.2340, 35.73633
647.3970, 30.89062
648.5590, 10.01953
649.7220, 71.04102
650.8840, 122.0293
652.0460, 7.468750
653.2080, 102.7773
654.3700, 137.2500
655.5320, 193.4629
656.6930, 209.9199
657.8550, 204.4062
659.0160, 267.3203
660.1770, 450.9941
661.3380, 1018.951
662.4990, 740.4121
663.6590, 333.0000
664.8200, 536.8047
665.9800, 641.6191
667.1400, 430.8594
668.3000, 470.2402
669.4600, 458.5469
670.6190, 674.7852
671.7790, 750.9980
672.9380, 728.4102
674.0970, 697.8887
675.2560, 714.3398
676.4150, 813.6738
677.5740, 774.0469
678.7320, 825.1992
679.8900, 830.7207
681.0490, 1055.414
682.2070, 1069.885
683.3640, 1304.408
684.5220, 1202.289
685.6800, 1383.711
686.8370, 1449.096
687.9940, 1698.486
689.1510, 1856.797
690.3080, 2198.129
691.4650, 2327.363
692.6220, 2583.926
693.7780, 2517.387
694.9340, 3197.504
696.0900, 3456.580
697.2460, 3905.617
698.4020, 4319.613
699.5580, 4636.703
700.7130, 4799.824
701.8680, 5586.072
703.0240, 6012.580
704.1790, 6079.953
705.3330, 6500.025
706.4880, 6101.723
707.6430, 5967.588
708.7970, 5575.195
709.9510, 5076.760
711.1050, 4534.281
712.2590, 4010.756
713.4130, 3608.207
714.5660, 3261.691
715.7200, 3136.027
716.8730, 2963.316
718.0260, 2857.559
719.1790, 3031.752
720.3320, 2730.898
721.4840, 2989.000
722.6370, 3002.051
723.7890, 3147.053
724.9410, 3177.008
726.0930, 3071.910
727.2450, 3234.766
728.3960, 3105.572
729.5480, 2849.328
730.6990, 2909.035
731.8500, 2698.689
733.0010, 2021.293
734.1520, 1635.846
735.3030, 1210.350
736.4530, 1257.801
737.6040, 1069.680
738.7540, 842.4395
739.9040, 701.7344
741.0540, 590.3672
742.2030, 601.0781
743.3530, 588.6230
744.5020, 554.4102
745.6520, 427.5098
746.8010, 424.5781
747.9490, 375.7598
749.0980, 325.6367
750.2470, 345.4844
751.3950, 241.9746
752.5440, 265.5957
753.6920, 234.3945
754.8400, 223.6074
755.9870, 167.0352
757.1350, 123.1465
758.2820, 134.1133
759.4300, 121.6465
760.5770, 70.85938
761.7240, 79.76562
762.8710, 10.35742
764.0170, 14.84375
765.1640, 23.74414
766.3100, 17.10938
767.4560, 9.5702998E-02
768.6020, 0.8671880
769.7480, 97.94922
770.8940, 25.92969
772.0400, 23.09570
773.1850, 90.10156
774.3300, 17.31641
775.4750, 72.06836
776.6200, 77.11523
777.7650, 11.16211
778.9090, 25.37695
780.0540, 1.042969
781.1980, 140.1211
782.3420, 98.41992
783.4860, 197.5273
784.6300, 90.59375
785.7740, 66.76953
786.9170, 118.8320
788.0600, 127.0781
789.2030, 121.7344
790.3460, 17.73828
791.4890, 103.6562
792.6320, 0.8730470
793.7740, 314.1738
794.9170, 156.2598
796.0590, 122.2852
797.2010, 144.5938
798.3430, 64.84766
799.4850, 172.3828
800.6260, 165.5137
801.7670, 312.5840
802.9090, 331.6055
804.0500, 219.6699
805.1910, 203.5898
806.3310, 235.4590
807.4720, 264.2754
808.6120, 75.03906
809.7530, 254.7363
810.8930, 252.3789
812.0330, 271.9688
813.1720, 360.5254
814.3120, 323.0117
815.4510, 176.4453
816.5910, 293.8223
817.7300, 263.1445
818.8690, 367.4141
820.0080, 152.6309
821.1460, 211.7871
822.2850, 316.8867
823.4230, 316.9355
824.5610, 299.9336
825.6990, 357.8789
826.8370, 293.7734
827.9750, 318.6133
829.1120, 217.4062
830.2500, 231.1426
831.3870, 363.8281
832.5240, 477.4590
833.6610, 338.0430
834.7980, 303.5742
835.9340, 265.0586
837.0700, 251.4922
838.2070, 297.8711
839.3430, 340.2051
840.4790, 340.4902
841.6140, 324.7246
842.7500, 295.9102
843.8850, 237.0488
845.0210, 373.1348
846.1560, 298.1758
847.2910, 295.1680
848.4260, 428.1133
849.5600, 274.0098
850.6950, 252.8613
851.8290, 399.6621
852.9630, 317.4199
854.0970, 338.1289
855.2310, 298.7930
856.3650, 346.4102
857.4980, 835.9805
858.6310, 405.5059
859.7650, 402.9902
860.8980, 559.4258
862.0310, 397.8184
863.1630, 428.1641
864.2960, 433.4668
865.4280, 264.7246
866.5600, 367.9395
867.6920, 502.1113
868.8240, 367.2402
869.9560, 443.3262
871.0880, 333.3711
872.2190, 302.3750
873.3500, 70.33398
874.4810, 184.2402
875.6120, 481.1016
876.7430, 497.9238
877.8740, 429.7031
879.0040, 372.4414
880.1340, 343.1426
881.2650, 359.7988
882.3950, 226.4023
883.5240, 84.93945
884.6540, 321.2148
885.7830, 411.0703
886.9130, 85.03906
888.0420, 34.95312
889.1710, 124.2461
890.3000, 367.1582
891.4280, 189.0508
892.5570, 272.3242
893.6850, 262.1543
894.8130, 34.28125
895.9420, 74.32812
897.0690, 105.4102
898.1970, 225.6914
899.3250, 229.9082
900.4520, 51.03906
901.5790, 207.1680
902.7060, 14.58594
903.8330, 136.8574
904.9600, 75.33008
906.0870, 314.8984
907.2130, 259.0664
908.3390, 94.48047
909.4650, 87.71289
910.5910, 286.5977
911.7170, 63.11133
912.8430, 249.3320
913.9680, 57.16016
915.0930, 156.2734
916.2180, 34.38086
917.3430, 201.3359
918.4680, 18.28906
919.5930, 100.1680
920.7170, 94.56250
921.8420, 52.51562
922.9660, 153.6602
924.0900, 122.8457
925.2140, 146.4492
926.3370, 89.36523
927.4610, 143.9180
928.5840, 102.2402
929.7070, 297.7227
930.8310, 105.1797
931.9530, 211.6543
933.0760, 53.38281
934.1990, 4.134766
935.3210, 212.8574
936.4430, 147.7832
937.5650, 83.51562
938.6870, 13.28125
939.8090, 256.5977
940.9310, 143.8145
942.0520, 47.18945
943.1730, 410.6758
944.2940, 275.2305
945.4150, 200.6543
946.5360, 388.0547
947.6570, 9.529297
948.7770, 478.1875
949.8970, 253.3359
951.0180, 298.4121
952.1370, 374.8203
953.2570, 483.2129
954.3770, 553.0332
955.4960, 799.4043
956.6160, 1053.418
957.7350, 1361.236
958.8540, 1792.826
959.9730, 2154.523
961.0910, 3130.186
962.2100, 3835.668
963.3280, 4768.199
964.4460, 5528.361
965.5640, 6719.574
966.6820, 7425.111
967.8000, 8119.643
968.9180, 8219.170
970.0350, 7718.684
971.1520, 6509.061
972.2690, 5762.377
973.3860, 4342.887
974.5030, 3405.391
975.6190, 2526.891
976.7360, 1972.381
977.8520, 1545.871
978.9680, 1017.148
980.0840, 1199.629
981.2000, 1077.436
982.3160, 949.5176
983.4310, 862.5762
984.5460, 817.7812
985.6610, 744.1699
986.7760, 858.5508
987.8910, 989.8184
989.0060, 1184.895
990.1200, 1513.611
991.2350, 1782.869
992.3490, 2049.596
993.4630, 2503.049
994.5760, 2561.512
995.6900, 2913.975
996.8040, 3076.436
997.9170, 2943.896
999.0300, 2764.373
1000.143, 2424.887
1001.256, 2860.400
1002.369, 1622.916
1003.481, 1234.432
1004.594, 1038.180
1005.706, 922.1895
1006.818, 827.9160
1007.930, 755.2266
1009.042, 635.7891
1010.153, 685.5156
1011.264, 732.9531
1012.376, 825.1660
1013.487, 1032.029
1014.598, 1160.037
1015.708, 1459.160
1016.819, 1755.154
1017.929, 2119.045
1019.040, 2373.158
1020.150, 3066.721
1021.260, 3998.186
1022.370, 5279.318
1023.479, 5989.176
1024.589, 7246.773
1025.698, 7976.236
1026.807, 8007.865
1027.916, 7337.424
1029.025, 6458.648
1030.133, 5286.322
1031.242, 3863.309
1032.350, 3140.035
1033.458, 2670.779
1034.566, 2274.537
1035.674, 1792.236
1036.782, 1891.145
1037.890, 1784.066
1038.997, 1665.348
1040.104, 1574.379
1041.211, 1763.443
1042.318, 1797.234
1043.425, 2110.920
1044.531, 2128.096
1045.638, 2271.156
1046.744, 2618.430
1047.850, 2699.275
1048.956, 3093.602
1050.061, 2958.527
1051.167, 2872.900
1052.272, 2871.191
1053.378, 2640.281
1054.483, 2771.549
1055.588, 2470.871
1056.692, 2635.537
1057.797, 2611.494
1058.901, 2390.035
1060.006, 2507.605
1061.110, 2551.340
1062.214, 2472.945
1063.318, 2486.605
1064.421, 2626.232
1065.525, 3136.869
1066.628, 3173.521
1067.731, 3163.838
1068.834, 3511.518
1069.937, 3973.227
1071.040, 3759.939
1072.142, 3729.572
1073.244, 3717.533
1074.347, 3660.143
1075.449, 4078.895
1076.550, 2846.654
1077.652, 2797.498
1078.754, 2448.283
1079.855, 2391.078
1080.956, 2568.857
1082.057, 2334.674
1083.158, 2559.545
1084.259, 2644.432
1085.359, 2418.324
1086.460, 2949.227
1087.560, 3216.627
1088.660, 3397.600
1089.760, 3674.584
1090.860, 3908.590
1091.959, 3957.652
1093.059, 3693.670
1094.158, 3574.695
1095.257, 3025.729
1096.356, 2778.088
1097.455, 2421.137
1098.553, 1821.215
1099.652, 1571.281
1100.750, 1483.355
1101.848, 1236.438
1102.946, 813.5234
1104.044, 1048.617
1105.141, 618.0898
1106.239, 834.1992
1107.336, 668.3145
1108.433, 556.4375
1109.530, 865.5684
1110.627, 688.7188
1111.724, 684.8789
1112.820, 447.0469
1113.917, 483.2207
1115.013, 639.4023
1116.109, 610.5879
1117.205, 480.7812
1118.300, 878.9805
1119.396, 733.1875
1120.491, 510.4023
1121.586, 423.6211
1122.681, 647.7617
1123.776, 444.9980
1124.871, 267.2422
1125.965, 323.4277
1127.060, 528.6816
1128.154, 381.9434
1129.248, 466.2090
1130.342, 414.4277
1131.436, 294.6484
1132.529, 364.9336
1133.623, 231.4492
1134.716, 92.74023
1135.809, 359.0371
1136.902, 36.34180
1137.995, 92.65039
1139.087, 129.9609
1140.180, 170.2871
1141.272, 120.6152
1142.364, 77.95117
1143.456, 212.2871
1144.548, 121.6289
1145.639, 173.9746
1146.731, 16.67383
1147.822, 77.67773
1148.913, 239.0312
1150.004, 6.394531
1151.095, 5.761719
1152.186, 230.1328
1153.276, 82.51172
1154.366, 226.9102
1155.457, 198.3145
1156.546, 76.77734
1157.636, 145.1895
1158.726, 33.39648
1159.815, 171.0234
1160.905, 201.4551
1161.994, 114.9492
1163.083, 1.392578
1164.172, 29.83789
1165.261, 7.568359
1166.349, 88.45898
1167.437, 5.996094
1168.526, 137.9922
1169.614, 165.4102
1170.702, 117.9961
1171.789, 158.4062
1172.877, 83.81445
1173.964, 124.7793
1175.051, 246.5703
1176.138, 29.08203
1177.225, 98.34961
1178.312, 3.316406
1179.399, 61.02344
1180.485, 135.4219
1181.571, 61.87500
1182.657, 221.4395
1183.743, 52.22070
1184.829, 442.1816
1185.915, 136.5078
1187.000, 12.57422
1188.085, 118.7715
1189.171, 106.1367
1190.255, 83.50000
1191.340, 20.14258
1192.425, 25.23242
1193.509, 117.5723
1194.594, 241.9746
1195.678, 190.3730
1196.762, 140.7656
1197.846, 210.1543
1198.929, 150.5410
1200.013, 58.37109
1201.096, 145.7441
1202.179, 172.1152
1203.262, 5.675781
1204.345, 57.96680
1205.428, 177.3477
1206.510, 178.6562
1207.593, 24.95898
1208.675, 225.2539
1209.757, 369.5430
1210.839, 156.8262
1211.920, 150.4902
1213.002, 335.5840
1214.083, 91.84375
1215.164, 279.0957
1216.245, 125.3418
1217.326, 1.535156
1218.407, 312.1133
1219.488, 228.3203
1220.568, 72.51562
1221.648, 65.95508
1222.728, 207.1328
1223.808, 302.3027
1224.888, 387.4609
1225.967, 30.61133
1227.047, 138.7480
1228.126, 68.12500
1229.205, 138.9414
1230.284, 167.1152
1231.363, 128.1621
1232.441, 164.1973
1233.520, 245.2227
1234.598, 6.763672
1235.676, 213.2207
1236.754, 142.1934
1237.832, 259.1562
1238.910, 169.1094
1239.987, 128.5996
1241.064, 173.5312
1242.141, 145.4512
1243.218, 226.3613
1244.295, 402.2578
1245.372, 107.1426
1246.448, 325.0156
1247.525, 230.8789
1248.601, 244.7324
1249.677, 219.5703
1250.753, 244.3984
1251.828, 31.21484
1252.904, 158.9805
1253.979, 282.7637
1255.054, 11.53320
1256.129, 245.2734
1257.204, 230.0000
1258.279, 345.7148
1259.353, 19.56641
1260.428, 82.91406
1261.502, 421.6582
1262.576, 66.21875
1263.650, 235.7617
1264.724, 122.2949
1265.797, 352.8105
1266.871, 132.3164
1267.944, 418.8086
1269.017, 281.2871
1270.090, 158.7520
1271.162, 209.2031
1272.235, 277.6426
1273.307, 279.0664
