##NAMES=Natrolite
##RRUFFID=R040102
##IDEAL CHEMISTRY=Na_2_(Si_3_Al_2_)O_10_&#183;2H_2_O
##LOCALITY=Ross' Quarry, Northland, New Zealand
##OWNER=RRUFF
##SOURCE=University of Arizona Mineral Museum
##DESCRIPTION=Mass of colorless acicular crystals
##STATUS=The identification of this mineral has been confirmed by X-ray diffraction and chemical analysis
##URL=rruff.info/R040102
##MEASURED CHEMISTRY=(Na_0.92_Ca_0.02_)_2_(Si_3.03_Al_1.99_)O_10_Â·2H_2_O
##PIN_ID=M00475
##ORIENTATION=Laser parallel to -a* (-1 0 0). Fiducial mark perpendicular to laser is parallel to b [0 1 0]
86.130, 0.000
87.519, 64.664
88.907, 101.225
90.296, 32.901
91.684, 31.758
93.072, 171.945
94.460, 202.149
95.848, 229.823
97.236, 312.076
98.623, 324.706
100.010, 371.787
101.397, 469.469
102.784, 450.017
104.171, 344.812
105.557, 458.332
106.943, 684.166
108.329, 1006.424
109.715, 1125.252
111.100, 942.208
112.486, 963.036
113.871, 1153.396
115.256, 1355.979
116.641, 1598.578
118.025, 1778.055
119.410, 1939.245
120.794, 2105.004
122.178, 2364.220
123.562, 2691.810
124.945, 2940.736
126.329, 2828.960
127.712, 2631.639
129.095, 2647.784
130.478, 2662.955
131.860, 2799.169
133.243, 2964.908
134.625, 3133.209
136.007, 3334.858
137.389, 3986.093
138.770, 4552.932
140.152, 5368.200
141.533, 6072.929
142.914, 6447.159
144.295, 6830.937
145.675, 6824.555
147.056, 6488.425
148.436, 5892.020
149.816, 5815.239
151.196, 6288.067
152.575, 7190.299
153.955, 8642.636
155.334, 10574.413
156.713, 12925.871
158.092, 15937.028
159.471, 18637.955
160.849, 21798.883
162.227, 23519.914
163.606, 24670.951
164.983, 23511.844
166.361, 20872.486
167.739, 18423.082
169.116, 15554.447
170.493, 13301.954
171.870, 11724.671
173.247, 10992.660
174.623, 10000.253
175.999, 9025.632
177.375, 8119.399
178.751, 7185.031
180.127, 6499.957
181.503, 6055.319
182.878, 5919.857
184.253, 5992.085
185.628, 6062.252
187.003, 6164.557
188.377, 5968.524
189.751, 5504.899
191.126, 4780.195
192.500, 4305.318
193.873, 3947.477
195.247, 3640.662
196.620, 3890.872
197.993, 4041.104
199.366, 4700.352
200.739, 5199.611
202.112, 6124.642
203.484, 6973.340
204.856, 7889.310
206.228, 8621.535
207.600, 8742.343
208.972, 8228.782
210.343, 7153.718
211.714, 5938.422
213.085, 4768.349
214.456, 3792.110
215.827, 3013.856
217.197, 2213.479
218.567, 1849.064
219.937, 1461.610
221.307, 1000.115
222.677, 806.577
224.046, 523.999
225.416, 526.378
226.785, 285.717
228.154, 313.014
229.522, 197.266
230.891, 159.724
232.259, 234.678
233.627, 247.062
234.995, 445.541
236.363, 640.591
237.730, 835.400
239.098, 1121.039
240.465, 1300.215
241.832, 1294.518
243.198, 1408.609
244.565, 1099.094
245.931, 738.790
247.297, 422.917
248.663, 170.002
250.029, 17.044
251.395, 46.165
252.760, 187.321
254.125, 230.640
255.490, 268.583
256.855, 295.125
258.220, 270.417
259.584, 272.514
260.948, 216.460
262.312, 168.281
263.676, 67.995
265.040, 46.602
266.403, 34.120
267.766, 60.435
269.129, 170.062
270.492, 182.751
271.855, 242.596
273.217, 249.269
274.580, 271.073
275.942, 183.894
277.304, 152.720
278.665, 43.458
280.027, 6.667
281.388, 74.903
282.749, 58.190
284.110, 3.527
285.471, 106.904
286.831, 73.350
288.192, 13.858
289.552, 13.583
290.912, 90.980
292.272, 141.337
293.631, 187.642
294.990, 193.875
296.350, 313.032
297.709, 507.117
299.067, 727.138
300.426, 1095.086
301.784, 1513.958
303.143, 1992.764
304.501, 2389.497
305.859, 2846.163
307.216, 3149.761
308.574, 2714.308
309.931, 2221.788
311.288, 1552.203
312.645, 1030.561
314.002, 617.854
315.358, 394.084
316.714, 197.257
318.070, 76.367
319.426, 66.421
320.782, 22.410
322.138, 17.668
323.493, 28.826
324.848, 42.067
326.203, 50.604
327.558, 29.213
328.912, 127.755
330.267, 148.238
331.621, 230.663
332.975, 259.979
334.329, 221.991
335.682, 310.635
337.036, 316.932
338.389, 356.969
339.742, 342.881
341.095, 361.719
342.448, 445.534
343.800, 341.319
345.152, 529.071
346.504, 520.748
347.856, 603.313
349.208, 696.777
350.560, 726.088
351.911, 906.323
353.262, 991.521
354.613, 1187.685
355.964, 1403.822
357.314, 1589.930
358.665, 1856.010
360.015, 1867.061
361.365, 2004.083
362.715, 1809.077
364.064, 1804.042
365.414, 1475.522
366.763, 990.856
368.112, 786.655
369.461, 529.344
370.809, 372.972
372.158, 237.561
373.506, 227.116
374.854, 155.636
376.202, 47.124
377.550, 82.574
378.897, 4.012
380.245, 9.352
381.592, 0.670
382.939, 8.060
384.285, 8.840
385.632, 11.330
386.978, 38.455
388.324, 9.541
389.670, 1.582
391.016, 31.577
392.362, 43.531
393.707, 106.443
395.053, 39.306
396.398, 186.099
397.742, 167.818
399.087, 179.459
400.432, 253.040
401.776, 266.554
403.120, 333.016
404.464, 403.437
405.808, 515.828
407.151, 671.192
408.494, 752.531
409.838, 904.848
411.180, 1049.029
412.523, 1101.255
413.866, 1189.848
415.208, 1122.552
416.550, 1159.515
417.892, 959.139
419.234, 1010.050
420.576, 1138.458
421.917, 1162.671
423.259, 1380.335
424.600, 1409.953
425.941, 1733.788
427.281, 1939.887
428.622, 2373.686
429.962, 2995.820
431.302, 3686.446
432.642, 4815.078
433.982, 6361.863
435.321, 8240.610
436.661, 11329.324
438.000, 14187.768
439.339, 18276.033
440.678, 21919.385
442.016, 24364.943
443.355, 24826.121
444.693, 23008.240
446.031, 19673.691
447.369, 16222.553
448.707, 13133.425
450.044, 10537.930
451.381, 8254.013
452.718, 6831.437
454.055, 5219.130
455.392, 4345.972
456.729, 3691.806
458.065, 2975.980
459.401, 2767.560
460.737, 2438.665
462.073, 2211.938
463.409, 1992.609
464.744, 2075.632
466.079, 1910.208
467.414, 1854.270
468.749, 1907.649
470.084, 1806.562
471.418, 2020.619
472.753, 2119.656
474.087, 2132.514
475.421, 2453.473
476.754, 2639.295
478.088, 3126.650
479.421, 3277.988
480.754, 3829.081
482.087, 4127.939
483.420, 4171.225
484.753, 4613.885
486.085, 4549.752
487.417, 4494.237
488.750, 4458.666
490.081, 4203.515
491.413, 4182.421
492.745, 3863.714
494.076, 3673.014
495.407, 3568.262
496.738, 3180.688
498.069, 3043.233
499.399, 2786.008
500.730, 2571.460
502.060, 2508.189
503.390, 2444.807
504.720, 2443.484
506.049, 2415.149
507.379, 2509.602
508.708, 2625.129
510.037, 2739.781
511.366, 2943.210
512.694, 3027.703
514.023, 3382.099
515.351, 3650.483
516.679, 3937.852
518.007, 4413.207
519.335, 4738.557
520.663, 5449.894
521.990, 6127.217
523.317, 7204.526
524.644, 8561.820
525.971, 10499.100
527.298, 13236.366
528.624, 16663.621
529.951, 21450.861
531.277, 25618.086
532.603, 29544.775
533.928, 32401.393
535.254, 30787.643
536.579, 28272.359
537.904, 23277.834
539.229, 18450.082
540.554, 14573.153
541.879, 11295.686
543.203, 8857.671
544.527, 6879.602
545.851, 5672.774
547.175, 4675.161
548.499, 3840.228
549.822, 3216.808
551.146, 2748.936
552.469, 2394.480
553.792, 2137.168
555.115, 1723.571
556.437, 1539.825
557.759, 1374.994
559.082, 1183.204
560.404, 1192.713
561.725, 1034.799
563.047, 961.038
564.369, 867.038
565.690, 805.965
567.011, 741.884
568.332, 672.793
569.653, 623.694
570.973, 601.588
572.293, 511.479
573.614, 566.395
574.934, 526.359
576.253, 550.389
577.573, 436.488
578.892, 594.667
580.212, 517.920
581.531, 517.245
582.850, 645.641
584.168, 563.084
585.487, 586.551
586.805, 619.033
588.123, 537.527
589.441, 652.042
590.759, 621.551
592.077, 608.053
593.394, 703.551
594.711, 711.042
596.028, 696.526
597.345, 684.004
598.662, 744.479
599.978, 630.970
601.295, 612.468
602.611, 479.044
603.927, 439.593
605.242, 459.150
606.558, 336.743
607.873, 168.457
609.189, 250.087
610.504, 131.724
611.818, 193.418
613.133, 41.046
614.448, 27.822
615.762, 28.605
617.076, 50.782
618.390, 35.037
619.704, 3.142
621.017, 54.451
622.330, 51.316
623.644, 22.924
624.957, 11.542
626.269, 92.665
627.582, 43.254
628.895, 1.498
630.207, 64.596
631.519, 53.791
632.831, 9.846
634.143, 34.290
635.454, 18.724
636.765, 58.201
638.077, 60.807
639.388, 32.245
640.698, 82.109
642.009, 32.189
643.320, 7.220
644.630, 25.641
645.940, 16.562
647.250, 4.201
648.560, 23.099
649.869, 23.882
651.178, 52.256
652.488, 20.052
653.797, 59.809
655.105, 32.880
656.414, 11.521
657.722, 97.280
659.031, 47.979
660.339, 44.770
661.647, 17.302
662.954, 32.685
664.262, 103.111
665.569, 62.057
666.876, 28.549
668.183, 82.072
669.490, 64.255
670.797, 139.123
672.103, 128.375
673.410, 141.971
674.716, 181.536
676.022, 124.911
677.327, 220.555
678.633, 167.513
679.938, 230.901
681.243, 286.700
682.548, 310.131
683.853, 475.709
685.158, 412.710
686.462, 573.134
687.766, 537.422
689.071, 651.748
690.374, 803.030
691.678, 890.480
692.982, 1061.850
694.285, 1076.148
695.588, 1208.474
696.891, 1422.715
698.194, 1451.965
699.497, 1599.335
700.799, 1742.588
702.101, 1813.031
703.404, 2034.222
704.705, 2034.521
706.007, 2034.091
707.309, 2093.510
708.610, 1846.698
709.911, 1987.887
711.212, 1847.093
712.513, 1732.436
713.814, 1702.617
715.114, 1776.001
716.415, 1656.296
717.715, 1557.712
719.015, 1788.125
720.314, 1824.555
721.614, 1837.028
722.913, 1921.343
724.213, 2074.448
725.512, 2098.979
726.810, 2297.062
728.109, 2218.603
729.408, 2098.182
730.706, 2031.252
732.004, 1791.763
733.302, 1574.821
734.600, 1308.133
735.897, 1190.309
737.195, 991.448
738.492, 800.360
739.789, 684.593
741.086, 554.425
742.383, 521.680
743.679, 409.698
744.975, 345.686
746.272, 395.762
747.568, 312.897
748.863, 281.422
750.159, 275.569
751.454, 258.851
752.750, 334.739
754.045, 138.950
755.340, 223.001
756.634, 248.770
757.929, 114.943
759.223, 247.986
760.518, 158.974
761.812, 139.728
763.105, 106.417
764.399, 170.114
765.692, 182.029
766.986, 115.667
768.279, 137.287
769.572, 95.023
770.865, 92.600
772.157, 149.453
773.450, 77.559
774.742, 13.701
776.034, 105.604
777.326, 81.617
778.617, 82.076
779.909, 9.069
781.200, 70.243
782.491, 28.190
783.782, 39.445
785.073, 28.776
786.364, 43.095
787.654, 13.148
788.944, 28.242
790.234, 37.576
791.524, 22.527
792.814, 86.468
794.104, 69.430
795.393, 3.409
796.682, 71.645
797.971, 12.114
799.260, 9.744
800.549, 39.393
801.837, 51.697
803.125, 18.206
804.414, 8.772
805.701, 54.684
806.989, 37.904
808.277, 45.337
809.564, 9.916
810.851, 69.355
812.139, 38.686
813.425, 50.755
814.712, 30.527
815.999, 49.117
817.285, 113.056
818.571, 100.273
819.857, 24.333
821.143, 79.939
822.429, 17.948
823.714, 3.343
824.999, 10.531
826.284, 1.780
827.569, 43.002
828.854, 48.204
830.139, 32.614
831.423, 24.478
832.707, 6.174
833.991, 80.734
835.275, 9.809
836.559, 65.861
837.842, 27.895
839.126, 3.909
840.409, 59.897
841.692, 89.866
842.975, 78.492
844.257, 86.752
845.540, 44.669
846.822, 62.185
848.104, 79.444
849.386, 72.304
850.668, 95.146
851.949, 94.970
853.231, 68.777
854.512, 99.568
855.793, 57.340
857.074, 119.093
858.355, 93.832
859.635, 30.553
860.915, 69.254
862.196, 134.938
863.476, 243.605
864.755, 119.255
866.035, 86.896
867.314, 123.519
868.594, 73.138
869.873, 92.738
871.152, 61.321
872.430, 59.887
873.709, 53.434
874.987, 39.964
876.266, 75.475
877.544, 127.967
878.822, 18.443
880.099, 138.899
881.377, 11.339
882.654, 26.238
883.931, 117.145
885.208, 10.512
886.485, 113.866
887.762, 50.204
889.038, 79.523
890.315, 84.823
891.591, 33.893
892.867, 55.353
894.142, 1.419
895.418, 42.797
896.693, 95.997
897.969, 84.821
899.244, 74.292
900.519, 56.389
901.793, 1.466
903.068, 45.530
904.342, 9.578
905.616, 99.616
906.890, 18.640
908.164, 52.644
909.438, 121.637
910.711, 15.614
911.985, 42.522
913.258, 51.463
914.531, 103.386
915.804, 139.294
917.076, 108.094
918.349, 51.973
919.621, 120.836
920.893, 117.621
922.165, 81.453
923.437, 164.117
924.708, 42.752
925.980, 136.535
927.251, 62.083
928.522, 168.607
929.793, 72.240
931.064, 123.775
932.334, 133.295
933.604, 142.085
934.875, 112.528
936.145, 185.808
937.414, 87.743
938.684, 204.994
939.954, 141.733
941.223, 203.783
942.492, 260.003
943.761, 156.050
945.030, 228.017
946.298, 313.029
947.567, 204.090
948.835, 309.733
950.103, 174.657
951.371, 415.639
952.639, 330.523
953.906, 386.455
955.174, 454.694
956.441, 459.785
957.708, 567.623
958.975, 725.560
960.242, 814.706
961.508, 823.874
962.775, 1067.708
964.041, 1320.957
965.307, 1617.066
966.573, 1684.173
967.838, 1820.256
969.104, 1708.536
970.369, 1583.947
971.634, 1652.295
972.899, 1467.104
974.164, 1325.353
975.429, 1481.552
976.693, 1321.072
977.957, 1357.891
979.222, 1417.305
980.486, 1254.357
981.749, 1111.425
983.013, 1123.664
984.276, 932.619
985.540, 947.241
986.803, 761.418
988.066, 718.165
989.328, 713.519
990.591, 654.465
991.853, 680.974
993.115, 691.040
994.377, 744.415
995.639, 907.620
996.901, 818.779
998.163, 1080.779
999.424, 1139.845
1000.685, 1140.984
1001.946, 1203.262
1003.207, 1073.571
1004.468, 1064.766
1005.728, 1128.255
1006.988, 996.458
1008.248, 1160.479
1009.508, 996.490
1010.768, 1008.649
1012.028, 1022.676
1013.287, 1047.986
1014.547, 1065.335
1015.806, 953.889
1017.065, 1106.790
1018.323, 1008.900
1019.582, 968.372
1020.840, 1213.410
1022.099, 1191.923
1023.357, 1253.265
1024.615, 1352.242
1025.872, 1505.945
1027.130, 1648.814
1028.387, 1903.924
1029.645, 1957.539
1030.902, 2253.298
1032.159, 2543.782
1033.415, 2950.286
1034.672, 3671.947
1035.928, 4345.419
1037.184, 5419.937
1038.440, 6823.273
1039.696, 7786.264
1040.952, 9379.228
1042.208, 9622.521
1043.463, 9263.901
1044.718, 8366.763
1045.973, 6672.543
1047.228, 5705.561
1048.483, 4428.826
1049.737, 3765.993
1050.991, 3077.943
1052.245, 2626.769
1053.499, 2438.525
1054.753, 2070.656
1056.007, 1949.924
1057.260, 1948.325
1058.514, 1705.078
1059.767, 1693.638
1061.020, 1591.703
1062.273, 1511.444
1063.525, 1468.412
1064.778, 1449.730
1066.030, 1506.807
1067.282, 1462.178
1068.534, 1518.488
1069.786, 1509.639
1071.037, 1739.646
1072.289, 1634.730
1073.540, 1789.856
1074.791, 1958.844
1076.042, 2006.534
1077.293, 2263.832
1078.543, 2118.879
1079.794, 2267.258
1081.044, 2501.923
1082.294, 2327.878
1083.544, 2560.148
1084.793, 2596.147
1086.043, 2634.472
1087.292, 2846.665
1088.542, 2806.084
1089.791, 2894.178
1091.040, 2865.802
1092.288, 2940.779
1093.537, 3041.212
1094.785, 3011.325
1096.033, 2683.583
1097.281, 2668.017
1098.529, 2276.140
1099.777, 1980.534
1101.024, 1806.678
1102.272, 1487.121
1103.519, 1381.501
1104.766, 1139.829
1106.013, 1038.349
1107.259, 1016.069
1108.506, 675.511
1109.752, 742.249
1110.998, 991.473
1112.244, 776.628
1113.490, 649.909
1114.736, 442.885
1115.981, 440.853
1117.227, 513.670
1118.472, 362.798
1119.717, 393.221
1120.962, 367.197
1122.206, 211.149
1123.451, 390.604
1124.695, 282.745
1125.939, 217.840
1127.183, 309.149
1128.427, 133.127
1129.671, 152.269
1130.914, 226.952
1132.157, 130.013
1133.400, 160.790
1134.643, 81.993
1135.886, 175.422
1137.129, 173.533
1138.371, 15.960
1139.613, 206.098
1140.856, 139.605
1142.098, 130.469
1143.339, 37.241
1144.581, 65.391
1145.822, 145.391
1147.064, 152.867
1148.305, 107.633
1149.546, 121.779
1150.786, 55.618
1152.027, 69.345
1153.267, 153.351
1154.508, 0.412
1155.748, 113.119
1156.988, 99.115
1158.227, 14.771
1159.467, 140.890
1160.706, 71.293
1161.946, 41.109
1163.185, 87.720
1164.424, 37.576
1165.663, 32.562
1166.901, 142.598
1168.140, 56.658
1169.378, 154.010
1170.616, 13.149
1171.854, 21.798
1173.091, 107.143
1174.329, 12.958
1175.566, 136.516
1176.804, 88.238
1178.041, 14.144
1179.278, 155.465
1180.514, 45.650
1181.751, 11.901
1182.987, 145.401
1184.224, 40.417
1185.460, 30.346
1186.696, 66.860
1187.931, 85.047
1189.167, 120.216
1190.402, 44.803
1191.638, 18.905
1192.873, 116.256
1194.108, 56.000
1195.342, 65.631
1196.577, 58.684
1197.811, 84.126
1199.046, 110.514
1200.280, 122.396
1201.514, 35.226
1202.747, 36.727
1203.981, 36.648
1205.214, 36.245
1206.447, 109.113
1207.681, 19.720
1208.913, 171.096
1210.146, 115.209
1211.379, 89.694
1212.611, 104.451
1213.843, 31.360
1215.075, 62.309
1216.307, 68.999
1217.539, 50.126
1218.771, 151.771
1220.002, 125.576
1221.233, 83.163
1222.464, 170.745
1223.695, 213.068
1224.926, 70.792
1226.157, 79.313
1227.387, 51.024
1228.617, 16.589
1229.847, 187.865
1231.077, 75.367
1232.307, 140.761
1233.537, 61.355
1234.766, 100.542
1235.995, 141.866
1237.224, 142.237
1238.453, 125.178
1239.682, 188.434
1240.911, 53.567
1242.139, 131.773
1243.367, 97.956
1244.595, 61.493
1245.823, 139.631
1247.051, 73.751
1248.279, 138.194
1249.506, 65.275
1250.733, 79.407
1251.961, 93.637
1253.187, 46.653
1254.414, 22.376
1255.641, 63.051
1256.867, 22.282
1258.094, 116.539
1259.320, 131.434
1260.546, 100.535
1261.771, 203.658
1262.997, 185.487
1264.222, 21.706
1265.448, 134.067
1266.673, 65.801
1267.898, 170.509
1269.123, 212.196
1270.347, 0.835
1271.572, 127.868
1272.796, 138.429
1274.020, 85.963
1275.244, 163.886
1276.468, 123.358
1277.692, 27.067
1278.915, 138.483
1280.138, 20.868
1281.361, 103.223
1282.584, 52.549
1283.807, 120.848
1285.030, 51.120
1286.252, 24.897
1287.475, 39.302
1288.697, 170.473
1289.919, 19.623
1291.141, 96.813
1292.362, 129.837
1293.584, 62.097
1294.805, 195.921
1296.026, 9.091
1297.247, 20.139
1298.468, 228.580
1299.689, 110.286
1300.909, 94.073
1302.130, 19.414
1303.350, 102.134
1304.570, 71.155
1305.790, 174.083
1307.010, 14.281
1308.229, 130.296
1309.448, 20.606
1310.668, 113.070
1311.887, 107.355
1313.106, 4.131
1314.324, 123.514
1315.543, 128.828
1316.761, 39.128
1317.979, 124.999
1319.198, 22.876
1320.415, 61.074
1321.633, 152.483
1322.851, 89.627
1324.068, 53.646
1325.285, 190.318
1326.502, 0.631
1327.719, 137.096
1328.936, 166.294
1330.153, 34.253
1331.369, 399.855
1332.585, 340.927
1333.801, 517.576
1335.017, 363.269
1336.233, 69.073
1337.449, 134.535
1338.664, 161.090
1339.880, 41.787
1341.095, 46.916
1342.310, 164.331
1343.524, 65.686
1344.739, 80.113
1345.954, 23.608
1347.168, 75.130
1348.382, 176.273
1349.596, 79.632
1350.810, 163.140
1352.023, 166.118
1353.237, 58.628
1354.450, 216.927
1355.663, 85.210
1356.877, 1.638
1358.089, 170.369
1359.302, 118.412
1360.515, 103.121
1361.727, 184.932
1362.939, 54.745
1364.151, 184.451
1365.363, 114.621
1366.575, 14.593
1367.786, 264.357
1368.998, 26.337
1370.209, 114.289
1371.420, 336.894
1372.631, 105.512
1373.842, 17.988
1375.052, 150.038
1376.263, 10.882
1377.473, 177.382
1378.683, 99.131
1379.893, 51.536
1381.103, 196.900
1382.312, 7.347
1383.522, 16.809
1384.731, 172.607
1385.940, 17.158
1387.149, 151.191
1388.358, 173.518
1389.566, 58.694
1390.775, 258.485
1391.983, 153.271
1393.191, 65.717
1394.399, 316.087
1395.607, 130.047
1396.815, 101.167
1398.022, 186.760
1399.230, 27.797
1400.437, 203.553
1401.644, 273.989
1402.851, 63.237
1404.058, 207.697
1405.264, 91.032
1406.470, 79.678
1407.677, 294.218
1408.883, 195.907
1410.089, 206.606
1411.294, 201.540
1412.500, 153.879
1413.705, 265.682
1414.911, 324.198
1416.116, 37.793
1417.321, 268.649
1418.525, 158.097
1419.730, 41.231
1420.934, 343.731
1422.139, 61.158
1423.343, 178.358
1424.547, 330.838
1425.751, 722.573
1426.954, 490.469
1428.158, 855.928
1429.361, 211.456
1430.564, 191.597
1431.767, 240.025
1432.970, 220.627
1434.173, 337.294
1435.375, 55.295
1436.578, 224.603
1437.780, 291.375
1438.982, 127.284
1440.184, 243.917
1441.385, 184.814
1442.587, 102.726
1443.788, 365.563
1444.990, 204.297
1446.191, 128.695
1447.392, 301.162
1448.592, 24.502
1449.793, 100.277
1450.993, 401.613
1452.194, 62.936
1453.394, 284.489
1454.594, 287.715
1455.794, 70.582
1456.993, 212.873
1458.193, 210.558
1459.392, 22.930
1460.591, 368.578
1461.790, 85.182
1462.989, 187.463
1464.188, 375.948
1465.386, 127.493
1466.585, 244.942
1467.783, 341.881
1468.981, 83.983
1470.179, 341.610
1471.377, 257.271
1472.574, 136.887
1473.771, 348.459
1474.969, 263.029
1476.166, 188.670
1477.363, 393.212
1478.560, 218.076
1479.756, 243.590
1480.953, 329.051
1482.149, 174.469
1483.345, 369.824
1484.541, 314.324
1485.737, 59.478
1486.932, 294.566
1488.128, 239.680
1489.323, 14.917
1490.518, 510.479
1491.714, 134.668
1492.908, 89.531
1494.103, 404.739
1495.298, 69.835
1496.492, 264.692
1497.686, 470.396
1498.880, 106.076
1500.074, 431.784
1501.268, 247.511
1502.462, 133.288
1503.655, 349.070
1504.848, 94.903
1506.041, 100.811
1507.234, 396.762
1508.427, 2.753
1509.620, 138.846
1510.812, 365.032
1512.005, 15.451
1513.197, 240.588
1514.389, 296.730
1515.581, 52.988
1516.772, 509.304
1517.964, 5.680
1519.155, 102.118
1520.346, 288.611
