##NAMES=Natrolite
##RRUFFID=R040112
##IDEAL CHEMISTRY=Na_2_(Si_3_Al_2_)O_10_&#183;2H_2_O
##LOCALITY=Ice River Alkaline Complex, Moose Creek Valley, Yoho National Park, British Columbia, Canada
##OWNER=RRUFF
##SOURCE=National Museums of Canada
##DESCRIPTION=Colorless pseudohexagonal prism
##STATUS=The identification of this mineral has been confirmed by X-ray diffraction and chemical analysis
##URL=rruff.info/R040112
##MEASURED CHEMISTRY=Na_2.00_(Si_3.00_Al_2.00_)O_10_Â·2H_2_O
##PIN_ID=L00214
##ORIENTATION=Laser parallel to -b* (0 -1 0). Fiducial mark perpendicular to laser is parallel to c [0 0 1]
52.937, 0.000
54.335, 58.094
55.734, 21.503
57.132, 60.927
58.530, 78.318
59.927, 73.614
61.325, 42.313
62.722, 60.847
64.119, 53.302
65.515, 54.044
66.912, 73.553
68.308, 80.071
69.704, 78.968
71.100, 86.481
72.496, 63.932
73.891, 56.040
75.287, 42.313
76.682, 10.755
78.076, 1.365
79.471, 1.858
80.865, 8.918
82.260, 7.031
83.653, 7.844
85.047, 2.237
86.441, 5.758
87.834, 7.167
89.227, 10.471
90.620, 27.321
92.013, 36.204
93.405, 64.172
94.797, 106.229
96.189, 135.400
97.581, 139.701
98.973, 189.133
100.364, 268.682
101.755, 301.334
103.146, 393.074
104.537, 601.913
105.927, 871.860
107.318, 1155.877
108.708, 1383.947
110.098, 1861.898
111.487, 1803.012
112.877, 2572.438
114.266, 1813.686
115.655, 1501.972
117.044, 1597.293
118.432, 2010.648
119.821, 2630.035
121.209, 2843.452
122.597, 2500.900
123.984, 1937.375
125.372, 1522.877
126.759, 1346.405
128.146, 1232.958
129.533, 1386.536
130.920, 1616.137
132.306, 2116.762
133.692, 2790.408
135.078, 3825.132
136.464, 5153.166
137.850, 6446.450
139.235, 8160.952
140.620, 9132.667
142.005, 9081.526
143.390, 8296.407
144.774, 6455.269
146.159, 4687.096
147.543, 3316.890
148.927, 2773.642
150.310, 2476.341
151.694, 2629.988
153.077, 3215.597
154.460, 4152.171
155.843, 5700.951
157.226, 7721.603
158.608, 10047.481
159.990, 11545.985
161.372, 12214.486
162.754, 11672.981
164.135, 9581.474
165.517, 7925.961
166.898, 5940.448
168.279, 4738.931
169.659, 3758.415
171.040, 3047.897
172.420, 2565.379
173.800, 2110.862
175.180, 1937.346
176.560, 1628.832
177.939, 1449.320
179.318, 1347.810
180.697, 1267.303
182.076, 1211.799
183.455, 1079.298
184.833, 983.800
186.211, 875.306
187.589, 888.815
188.967, 880.328
190.344, 922.845
191.722, 1049.367
193.099, 1183.892
194.475, 1404.423
195.852, 1458.958
197.229, 1528.499
198.605, 1483.045
199.981, 1474.597
201.357, 1637.154
202.732, 1912.718
204.108, 2261.288
205.483, 2361.864
206.858, 2339.448
208.233, 2109.038
209.607, 1673.636
210.981, 1388.240
212.356, 1144.853
213.730, 1044.473
215.103, 886.101
216.477, 740.462
217.850, 668.727
219.223, 555.244
220.596, 489.595
221.969, 387.210
223.341, 381.326
224.713, 331.707
226.085, 283.707
227.457, 297.253
228.829, 298.988
230.200, 328.703
231.571, 376.727
232.942, 514.907
234.313, 709.127
235.684, 1009.281
237.054, 1352.400
238.424, 1687.464
239.794, 1872.538
241.164, 1629.554
242.533, 1189.229
243.902, 802.672
245.272, 473.043
246.640, 330.094
248.009, 171.380
249.378, 144.728
250.746, 61.536
252.114, 56.228
253.482, 25.932
254.849, 16.527
256.217, 24.907
257.584, 6.646
258.951, 7.872
260.318, 22.404
261.684, 11.950
263.051, 3.510
264.417, 34.081
265.783, 52.666
267.148, 69.263
268.514, 62.872
269.879, 106.492
271.244, 89.124
272.609, 103.767
273.974, 78.420
275.338, 89.083
276.703, 99.758
278.067, 72.442
279.431, 127.136
280.794, 137.841
282.158, 182.555
283.521, 231.280
284.884, 267.014
286.247, 273.758
287.609, 324.512
288.972, 351.276
290.334, 322.050
291.696, 383.833
293.058, 419.627
294.419, 503.430
295.781, 637.243
297.142, 758.065
298.503, 1127.898
299.864, 1483.741
301.224, 2190.591
302.584, 3050.449
303.945, 3902.314
305.304, 4333.184
306.664, 3845.059
308.024, 2906.938
309.383, 1787.823
310.742, 1141.713
312.101, 725.609
313.460, 414.511
314.818, 326.419
316.176, 211.333
317.534, 172.254
318.892, 125.182
320.250, 142.111
321.607, 152.045
322.964, 166.983
324.321, 236.929
325.678, 252.882
327.035, 356.844
328.391, 431.812
329.747, 512.789
331.103, 554.773
332.459, 556.765
333.815, 609.766
335.170, 602.774
336.525, 700.791
337.880, 823.815
339.235, 855.848
340.589, 976.889
341.944, 964.938
343.298, 1036.996
344.652, 892.062
346.005, 852.136
347.359, 838.219
348.712, 791.310
350.065, 844.410
351.418, 958.518
352.771, 1174.635
354.123, 1485.761
355.475, 1892.895
356.828, 2325.037
358.179, 2552.189
359.531, 2657.349
360.882, 2391.518
362.234, 1900.695
363.585, 1504.882
364.936, 984.077
366.286, 751.281
367.637, 480.494
368.987, 333.716
370.337, 196.946
371.687, 80.186
373.036, 64.434
374.386, 23.692
375.735, 45.042
377.084, 56.779
378.432, 73.521
379.781, 97.300
381.129, 122.137
382.478, 105.031
383.825, 110.973
385.173, 104.964
386.521, 95.000
387.868, 123.077
389.215, 102.207
390.562, 90.380
391.909, 57.588
393.255, 8.815
394.602, 15.038
395.948, 67.741
397.294, 57.531
398.639, 168.334
399.985, 243.149
401.330, 335.977
402.675, 483.818
404.020, 690.671
405.365, 1048.540
406.709, 1363.423
408.054, 1925.323
409.398, 2299.240
410.742, 2733.174
412.085, 3008.124
413.429, 2951.088
414.772, 2855.068
416.115, 2399.062
417.458, 1991.073
418.800, 1766.095
420.143, 1483.363
421.485, 1349.330
422.827, 1246.387
424.169, 1241.456
425.511, 1226.306
426.852, 1319.397
428.193, 1475.501
429.534, 1618.616
430.875, 1968.743
432.216, 2444.882
433.556, 3375.032
434.896, 4792.194
436.236, 6697.375
437.576, 9749.567
438.916, 12528.777
440.255, 14777.999
441.594, 14397.240
442.933, 11676.501
444.272, 8835.783
445.611, 6097.090
446.949, 4405.428
448.287, 3273.791
449.625, 2451.184
450.963, 2080.601
452.300, 1602.047
453.638, 1383.512
454.975, 1179.007
456.312, 1132.528
457.649, 1029.071
458.985, 885.646
460.321, 897.240
461.658, 830.853
462.994, 808.484
464.329, 828.132
465.665, 748.807
467.000, 793.501
468.335, 726.217
469.670, 829.957
471.005, 818.711
472.340, 856.482
473.674, 906.265
475.008, 903.068
476.342, 980.888
477.676, 1031.720
479.009, 1100.567
480.342, 1177.426
481.676, 1202.298
483.009, 1294.181
484.341, 1281.075
485.674, 1352.982
487.006, 1433.901
488.338, 1517.832
489.670, 1638.774
491.002, 1669.729
492.333, 1884.694
493.665, 1952.672
494.996, 2060.662
496.327, 2318.664
497.657, 2453.677
498.988, 2737.702
500.318, 2920.739
501.648, 3251.787
502.978, 3534.847
504.308, 3764.919
505.637, 4254.004
506.967, 4537.098
508.296, 5097.205
509.625, 5621.322
510.953, 5870.452
512.282, 6700.593
513.610, 6814.747
514.938, 7218.911
516.266, 7569.087
517.594, 7648.273
518.921, 8184.472
520.249, 8292.681
521.576, 9196.903
522.903, 10427.134
524.229, 12397.379
525.556, 15657.634
526.882, 19717.900
528.208, 26878.180
529.534, 33088.465
530.860, 39038.754
532.185, 42539.070
533.511, 38939.402
534.836, 33259.734
536.161, 25327.553
537.485, 18344.750
538.810, 13980.980
540.134, 10105.821
541.458, 7977.126
542.782, 6032.528
544.106, 4910.584
545.429, 4109.046
546.753, 3269.155
548.076, 2932.542
549.399, 2334.274
550.721, 2165.746
552.044, 1906.154
553.366, 1598.102
554.688, 1521.790
556.010, 1291.328
557.332, 1222.882
558.653, 1112.449
559.975, 950.032
561.296, 1001.628
562.617, 831.238
563.937, 832.863
565.258, 740.502
566.578, 739.155
567.898, 683.822
569.218, 579.503
570.538, 563.197
571.858, 569.905
573.177, 496.627
574.496, 498.363
575.815, 409.112
577.134, 392.874
578.452, 341.650
579.771, 310.443
581.089, 369.250
582.407, 244.071
583.724, 290.906
585.042, 196.757
586.359, 226.621
587.676, 272.498
588.993, 232.388
590.310, 287.292
591.627, 300.209
592.943, 367.138
594.259, 408.395
595.575, 406.538
596.891, 430.150
598.206, 455.764
599.522, 407.694
600.837, 383.348
602.152, 337.693
603.467, 321.847
604.781, 256.815
606.096, 235.159
607.410, 222.419
608.724, 222.241
610.038, 202.028
611.351, 187.681
612.665, 178.929
613.978, 166.089
615.291, 154.698
616.604, 155.539
617.916, 147.064
619.229, 155.976
620.541, 181.389
621.853, 131.561
623.165, 133.116
624.476, 100.104
625.788, 130.415
627.099, 126.240
628.410, 103.030
629.721, 134.234
631.032, 58.480
632.342, 94.513
633.652, 82.936
634.962, 61.200
636.272, 87.988
637.582, 34.300
638.891, 54.581
640.201, 52.869
641.510, 21.162
642.818, 50.460
644.127, 16.765
645.436, 34.074
646.744, 32.389
648.052, 9.709
649.360, 20.033
650.668, 15.363
651.975, 14.697
653.282, 23.037
654.590, 11.380
655.896, 23.728
657.203, 13.081
658.510, 49.438
659.816, 46.799
661.122, 20.164
662.428, 85.534
663.734, 34.907
665.039, 79.284
666.345, 35.665
667.650, 64.050
668.955, 114.438
670.260, 92.830
671.564, 143.225
672.869, 141.624
674.173, 148.025
675.477, 221.430
676.781, 229.838
678.084, 290.249
679.388, 290.663
680.691, 335.080
681.994, 403.499
683.297, 429.921
684.599, 512.345
685.902, 581.772
687.204, 656.201
688.506, 760.632
689.808, 854.066
691.109, 950.502
692.411, 1071.939
693.712, 1115.390
695.013, 1261.858
696.314, 1367.346
697.615, 1530.860
698.915, 1618.408
700.216, 1770.983
701.516, 1801.588
702.816, 1766.220
704.115, 1720.878
705.415, 1613.568
706.714, 1410.284
708.013, 1331.023
709.312, 1115.778
710.611, 1065.536
711.910, 956.300
713.208, 941.063
714.506, 878.827
715.804, 847.269
717.102, 794.355
718.399, 836.119
719.697, 862.883
720.994, 921.646
722.291, 904.409
723.588, 990.172
724.884, 955.933
726.181, 970.694
727.477, 921.454
728.773, 741.213
730.069, 701.970
731.365, 568.727
732.660, 410.482
733.955, 371.236
735.250, 221.007
736.545, 214.757
737.840, 154.544
739.134, 95.652
740.429, 107.396
741.723, 47.141
743.017, 67.042
744.310, 45.975
745.604, 17.739
746.897, 46.563
748.190, 8.323
749.483, 17.693
750.776, 1.073
752.069, 9.083
753.361, 2.333
754.653, 9.755
755.945, 20.569
757.237, 30.918
758.529, 43.169
759.820, 55.530
761.111, 44.973
762.402, 58.893
763.693, 35.410
764.984, 49.864
766.274, 15.330
767.564, 58.762
768.854, 39.886
770.144, 22.505
771.434, 62.967
772.724, 9.691
774.013, 15.425
775.302, 7.055
776.591, 2.815
777.880, 40.251
779.168, 14.734
780.456, 19.499
781.745, 27.340
783.033, 6.008
784.320, 0.446
785.608, 33.372
786.895, 12.589
788.183, 2.571
789.470, 34.429
790.756, 9.423
792.043, 28.406
793.329, 55.383
794.616, 48.353
795.902, 80.363
797.188, 57.321
798.473, 70.358
799.759, 109.304
801.044, 83.244
802.329, 102.177
803.614, 105.104
804.899, 140.024
806.183, 116.938
807.467, 117.846
808.752, 131.747
810.036, 128.641
811.319, 116.529
812.603, 133.410
813.886, 124.285
815.169, 152.152
816.452, 135.013
817.735, 130.867
819.018, 160.715
820.300, 125.555
821.583, 135.388
822.865, 122.214
824.146, 128.034
825.428, 129.846
826.710, 100.651
827.991, 93.449
829.272, 79.240
830.553, 75.866
831.834, 119.801
833.114, 84.570
834.394, 106.332
835.675, 123.086
836.955, 86.834
838.234, 106.573
839.514, 70.306
840.793, 99.031
842.073, 100.749
843.352, 76.459
844.630, 134.161
845.909, 99.856
847.187, 104.544
848.466, 105.224
849.744, 107.896
851.022, 109.835
852.299, 88.217
853.577, 104.865
854.854, 108.505
856.131, 89.136
857.408, 128.759
858.685, 112.373
859.961, 108.980
861.238, 135.578
862.514, 90.167
863.790, 119.747
865.066, 131.320
866.341, 135.883
867.617, 123.438
868.892, 113.983
870.167, 137.519
871.442, 136.045
872.717, 134.563
873.991, 157.071
875.265, 123.570
876.540, 125.059
877.813, 120.539
879.087, 149.010
880.361, 109.472
881.634, 102.924
882.907, 69.368
884.180, 96.801
885.453, 80.226
886.726, 78.641
887.998, 61.047
889.270, 78.444
890.542, 56.831
891.814, 30.208
893.086, 67.573
894.357, 65.929
895.628, 42.276
896.900, 39.611
898.170, 59.940
899.441, 49.259
900.712, 59.568
901.982, 35.869
903.252, 52.845
904.522, 42.939
905.792, 51.374
907.062, 64.194
908.331, 25.508
909.600, 69.099
910.869, 39.004
912.138, 47.100
913.407, 61.385
914.675, 10.297
915.944, 63.293
917.212, 3.270
918.480, 21.199
919.747, 15.804
921.015, 30.348
922.282, 19.570
923.549, 4.552
924.816, 20.965
926.083, 17.697
927.350, 2.044
928.616, 11.891
929.882, 3.019
931.148, 4.312
932.414, 0.036
933.680, 1.919
934.945, 5.640
936.211, 9.164
937.476, 14.102
938.741, 19.916
940.005, 9.158
941.270, 14.010
942.534, 51.027
943.799, 25.748
945.063, 46.493
946.326, 8.497
947.590, 0.504
948.853, 6.490
950.117, 2.521
951.380, 32.464
952.643, 29.444
953.905, 46.420
955.168, 59.392
956.430, 58.359
957.692, 64.323
958.954, 121.282
960.216, 141.238
961.478, 187.190
962.739, 233.137
964.000, 250.081
965.261, 306.021
966.522, 248.957
967.783, 247.889
969.043, 282.818
970.303, 310.742
971.563, 383.663
972.823, 431.580
974.083, 569.493
975.343, 664.404
976.602, 622.310
977.861, 611.212
979.120, 528.111
980.379, 404.007
981.638, 403.899
982.896, 307.787
984.154, 238.672
985.412, 249.553
986.670, 171.432
987.928, 201.307
989.185, 194.178
990.443, 167.047
991.700, 192.915
992.957, 167.781
994.214, 162.643
995.470, 213.503
996.727, 211.359
997.983, 254.213
999.239, 258.063
1000.495, 261.910
1001.750, 261.755
1003.006, 227.597
1004.261, 239.436
1005.516, 215.272
1006.771, 223.977
1008.026, 233.709
1009.280, 249.773
1010.535, 258.859
1011.789, 282.755
1013.043, 288.581
1014.297, 290.404
1015.550, 288.720
1016.804, 339.543
1018.057, 330.363
1019.310, 365.180
1020.563, 423.002
1021.816, 483.822
1023.068, 525.640
1024.321, 598.457
1025.573, 630.271
1026.825, 795.084
1028.077, 880.897
1029.328, 1079.709
1030.580, 1772.524
1031.831, 1618.337
1033.082, 2102.147
1034.333, 2849.956
1035.584, 3782.764
1036.834, 5268.571
1038.085, 6416.377
1039.335, 6815.164
1040.585, 6512.968
1041.834, 4941.733
1043.084, 3703.174
1044.334, 2792.997
1045.583, 1967.799
1046.832, 1555.441
1048.081, 1214.921
1049.329, 983.693
1050.578, 846.403
1051.826, 691.697
1053.074, 630.240
1054.322, 532.991
1055.570, 476.657
1056.818, 419.409
1058.065, 357.217
1059.312, 343.626
1060.559, 368.448
1061.806, 300.157
1063.053, 338.958
1064.299, 338.818
1065.546, 311.137
1066.792, 366.029
1068.038, 302.842
1069.284, 370.669
1070.529, 401.427
1071.775, 421.855
1073.020, 483.759
1074.265, 491.662
1075.510, 553.650
1076.754, 624.644
1077.999, 668.496
1079.243, 814.489
1080.487, 837.125
1081.731, 819.257
1082.975, 882.195
1084.219, 769.195
1085.462, 745.989
1086.705, 661.577
1087.948, 523.892
1089.191, 511.057
1090.434, 437.145
1091.676, 382.140
1092.919, 331.233
1094.161, 296.329
1095.403, 269.425
1096.645, 242.581
1097.886, 232.633
1099.128, 209.786
1100.369, 179.798
1101.610, 189.894
1102.851, 172.991
1104.091, 153.087
1105.332, 150.253
1106.572, 123.350
1107.812, 144.471
1109.052, 138.615
1110.292, 105.713
1111.532, 135.871
1112.771, 140.983
1114.010, 91.113
1115.249, 124.219
1116.488, 117.327
1117.727, 96.485
1118.966, 83.583
1120.204, 82.682
1121.442, 99.864
1122.680, 79.962
1123.918, 41.089
1125.155, 66.187
1126.393, 63.299
1127.630, 52.398
1128.867, 86.503
1130.104, 49.614
1131.341, 77.714
1132.577, 49.827
1133.814, 40.929
1135.050, 46.088
1136.286, 60.188
1137.522, 65.299
1138.757, 64.406
1139.993, 39.283
1141.228, 35.475
1142.463, 32.645
1143.698, 33.746
1144.933, 32.848
1146.167, 34.298
1147.402, 36.089
1148.636, 29.231
1149.870, 35.332
1151.104, 13.464
1152.338, 7.653
1153.571, 6.809
1154.804, 29.409
1156.037, 6.622
1157.270, 48.723
1158.503, 10.506
1159.736, 4.376
1160.968, 24.722
1162.200, 14.866
1163.432, 16.009
1164.664, 43.982
1165.896, 2.084
1167.127, 42.212
1168.359, 36.948
1169.590, 9.134
1170.821, 12.224
1172.052, 15.583
1173.282, 13.721
1174.513, 36.865
1175.743, 5.715
1176.973, 22.804
1178.203, 42.072
1179.433, 9.186
1180.662, 14.302
1181.892, 27.456
1183.121, 9.562
1184.350, 31.122
1185.579, 13.472
1186.807, 12.557
1188.036, 39.641
1189.264, 45.292
1190.492, 59.375
1191.720, 3.578
1192.948, 19.760
1194.176, 43.919
1195.403, 17.885
1196.630, 23.276
1197.857, 40.809
1199.084, 11.862
1200.311, 40.207
1201.537, 19.351
1202.764, 23.419
1203.990, 58.528
1205.216, 32.613
1206.442, 35.695
1207.667, 39.762
1208.893, 23.833
1210.118, 26.898
1211.343, 45.982
1212.568, 41.131
1213.793, 28.256
1215.017, 32.404
1216.242, 6.586
1217.466, 38.704
1218.690, 18.416
1219.914, 24.493
1221.137, 3.329
1222.361, 10.111
1223.584, 8.179
1224.807, 73.244
1226.030, 9.426
1227.253, 48.575
1228.476, 8.215
1229.698, 31.367
1230.920, 27.507
1232.142, 40.960
1233.364, 23.081
1234.586, 16.133
1235.808, 32.624
1237.029, 77.408
1238.250, 13.550
1239.471, 31.526
1240.692, 44.542
1241.913, 23.738
1243.133, 5.749
1244.353, 21.759
1245.574, 6.842
1246.794, 22.848
1248.013, 21.854
1249.233, 39.892
1250.452, 30.894
1251.672, 4.894
1252.891, 37.892
1254.110, 15.889
1255.328, 10.940
1256.547, 21.970
1257.765, 7.961
1258.983, 19.003
1260.201, 15.224
1261.419, 20.975
1262.637, 20.967
1263.854, 8.948
1265.072, 29.945
1266.289, 28.918
1267.506, 4.889
1268.723, 34.857
1269.939, 17.823
1271.156, 28.787
1272.372, 21.768
1273.588, 25.724
1274.804, 24.083
1276.020, 22.621
1277.235, 28.561
1278.451, 22.547
1279.666, 25.681
1280.881, 12.444
1282.096, 27.465
1283.310, 24.443
1284.525, 25.344
1285.739, 7.721
1286.953, 7.168
1288.167, 11.053
1289.381, 33.931
1290.595, 40.799
1291.808, 18.663
1293.022, 37.374
1294.235, 18.375
1295.448, 40.224
1296.660, 21.069
1297.873, 8.939
1299.085, 15.777
1300.298, 2.388
1301.510, 6.451
1302.722, 43.275
1303.933, 4.910
1305.145, 21.642
1306.356, 34.376
1307.567, 18.173
1308.778, 22.965
1309.989, 8.755
1311.200, 27.009
1312.410, 20.767
1313.621, 20.478
1314.831, 9.266
1316.041, 33.003
1317.250, 1.737
1318.460, 18.466
1319.670, 17.190
1320.879, 6.091
1322.088, 34.620
1323.297, 12.673
1324.506, 24.024
1325.714, 23.716
1326.922, 14.404
1328.131, 26.086
1329.339, 1.237
1330.547, 2.434
1331.754, 35.129
1332.962, 38.789
1334.169, 2.558
1335.376, 43.087
1336.583, 11.274
1337.790, 10.343
1338.997, 12.967
1340.203, 8.586
1341.410, 11.327
1342.616, 1.064
1343.822, 2.538
1345.028, 52.611
1346.233, 12.202
1347.439, 35.788
1348.644, 20.440
1349.849, 26.017
1351.054, 26.589
1352.259, 32.157
1353.463, 29.125
1354.668, 33.281
1355.872, 25.837
1357.076, 11.388
1358.280, 15.935
1359.483, 11.496
1360.687, 8.034
1361.890, 17.542
1363.094, 3.929
1364.297, 29.616
1365.499, 9.135
1366.702, 0.479
1367.905, 46.971
1369.107, 34.450
1370.309, 7.950
1371.511, 11.441
1372.713, 5.934
1373.914, 18.045
1375.116, 11.434
1376.317, 0.092
1377.518, 13.378
1378.719, 33.845
1379.920, 4.300
1381.121, 38.675
1382.321, 25.155
1383.521, 13.712
1384.721, 36.172
1385.921, 2.734
1387.121, 28.079
1388.321, 27.804
1389.520, 10.526
1390.719, 50.299
1391.918, 32.996
1393.117, 19.733
1394.316, 57.440
1395.514, 35.111
1396.713, 34.811
1397.911, 33.474
1399.109, 15.207
1400.307, 19.649
1401.505, 29.532
1402.702, 16.232
1403.899, 35.921
1405.097, 34.609
1406.294, 27.237
1407.490, 48.916
1408.687, 23.679
1409.884, 47.160
1411.080, 44.823
1412.276, 35.433
1413.472, 40.035
1414.668, 36.535
1415.863, 23.482
1417.059, 36.968
1418.254, 43.693
1419.449, 38.242
1420.644, 40.641
1421.839, 16.172
1423.033, 13.562
1424.228, 43.632
1425.422, 6.041
1426.616, 9.531
1427.810, 25.369
1429.004, 14.733
1430.197, 60.518
1431.391, 24.613
1432.584, 47.248
1433.777, 24.039
1434.970, 27.201
1436.163, 28.319
1437.355, 31.636
1438.548, 31.922
1439.740, 45.255
1440.932, 12.592
1442.124, 27.968
1443.315, 52.314
1444.507, 16.441
1445.698, 33.462
1446.889, 75.607
1448.080, 39.742
1449.271, 33.406
1450.462, 53.497
1451.652, 31.361
1452.843, 69.667
1454.033, 31.017
1455.223, 24.865
1456.413, 51.071
1457.602, 50.195
1458.792, 40.055
1459.981, 76.103
1461.170, 12.281
1462.359, 20.366
1463.548, 71.502
1464.737, 30.493
1465.925, 50.497
1467.113, 27.438
1468.302, 20.452
1469.490, 74.418
1470.677, 32.419
1471.865, 41.392
1473.052, 46.290
1474.240, 2.233
1475.427, 43.171
1476.614, 49.856
1477.800, 20.524
1478.987, 26.299
1480.173, 7.158
1481.360, 25.119
1482.546, 43.112
1483.732, 53.107
1484.917, 45.726
1486.103, 17.974
1487.288, 24.881
1488.474, 28.832
1489.659, 33.792
1490.844, 2.247
1492.028, 24.810
1493.213, 65.882
1494.397, 6.951
1495.582, 23.018
1496.766, 14.082
1497.950, 33.146
1499.133, 14.215
1500.317, 20.289
1501.500, 0.369
1502.683, 28.296
1503.866, 7.410
1505.049, 43.531
1506.232, 0.308
1507.415, 15.868
1508.597, 23.070
1509.779, 5.300
1510.961, 4.013
1512.143, 16.253
1513.325, 0.512
1514.506, 4.796
1515.688, 22.912
1516.869, 12.254
