##NAMES=Natrolite
##RRUFFID=R060561
##IDEAL CHEMISTRY=Na_2_(Si_3_Al_2_)O_10_&#183;2H_2_O
##LOCALITY=California, USA
##OWNER=RRUFF
##SOURCE=Gemological Institute of America
##DESCRIPTION=White fragment
##STATUS=The identification of this mineral has been confirmed by X-ray diffraction and chemical analysis
##URL=rruff.info/R060561
##MEASURED CHEMISTRY=Na_2.00_(Si_3.00_Al_2.00_)O_10_Â·2H_2_O
##PIN_ID=L00568
##ORIENTATION=Laser parallel to b* (0 1 0). Fiducial mark perpendicular to laser is parallel to c [0 0 1]
97.11800, 0.0000000E+00
98.35200, 118.9393
99.58700, 210.7061
100.8210, 98.37244
102.0550, 21.96558
103.2890, 76.62939
104.5220, 60.25806
105.7560, 435.2578
106.9890, 1249.624
108.2230, 4744.180
109.4560, 9275.168
110.6890, 4917.140
111.9210, 1103.911
113.1540, 908.4846
114.3870, 901.0356
115.6190, 1037.869
116.8510, 1038.412
118.0830, 2431.155
119.3150, 1449.636
120.5470, 7458.444
121.7780, 3645.216
123.0100, 2966.634
124.2410, 3156.417
125.4720, 3195.320
126.7030, 3205.121
127.9340, 3323.627
129.1640, 3816.668
130.3950, 4409.095
131.6250, 4895.766
132.8550, 5910.579
134.0850, 6869.491
135.3150, 8023.396
136.5450, 9461.145
137.7750, 11265.61
139.0040, 12964.66
140.2330, 14964.19
141.4620, 16941.11
142.6910, 18570.32
143.9200, 18705.78
145.1490, 17699.40
146.3770, 15531.14
147.6060, 12698.96
148.8340, 10586.80
150.0620, 8736.630
151.2900, 8013.400
152.5170, 7736.090
153.7450, 7886.661
154.9720, 8442.084
156.2000, 9189.337
157.4270, 10220.40
158.6540, 12008.25
159.8810, 13621.88
161.1070, 15879.27
162.3340, 17608.42
163.5600, 18291.27
164.7860, 17678.81
166.0120, 15917.04
167.2380, 13787.08
168.4640, 11462.30
169.6890, 9676.716
170.9150, 8089.267
172.1400, 6855.008
173.3650, 6092.984
174.5900, 5381.225
175.8150, 4879.818
177.0400, 4656.620
178.2640, 4266.632
179.4880, 4040.782
180.7130, 3866.098
181.9370, 3873.605
183.1600, 3838.326
184.3840, 3728.274
185.6080, 3838.467
186.8310, 4055.913
188.0540, 4070.622
189.2770, 4177.603
190.5000, 4300.858
191.7230, 4592.398
192.9460, 5061.222
194.1680, 5433.333
195.3910, 6224.734
196.6130, 7071.425
197.8350, 7898.407
199.0570, 8435.682
200.2780, 9189.248
201.5000, 10035.10
202.7210, 10857.25
203.9420, 11986.68
205.1640, 13373.40
206.3840, 14653.40
207.6050, 15563.68
208.8260, 15613.25
210.0460, 14234.09
211.2670, 12183.20
212.4870, 10309.59
213.7070, 8358.240
214.9270, 6861.206
216.1460, 5603.523
217.3660, 4908.254
218.5850, 4065.411
219.8050, 3602.957
221.0240, 3295.835
222.2430, 2964.970
223.4610, 2764.456
224.6800, 2732.179
225.8980, 2391.135
227.1170, 2583.320
228.3350, 2574.732
229.5530, 2636.372
230.7710, 2878.234
231.9880, 3200.318
233.2060, 3592.622
234.4230, 4147.141
235.6400, 4802.527
236.8570, 5330.227
238.0740, 6661.587
239.2910, 8290.099
240.5080, 9914.725
241.7240, 11266.99
242.9400, 11239.88
244.1570, 10025.47
245.3730, 7857.945
246.5880, 5900.858
247.8040, 4464.501
249.0190, 3458.958
250.2350, 2771.925
251.4500, 2313.223
252.6650, 1925.900
253.8800, 1893.182
255.0950, 1608.977
256.3090, 1674.912
257.5240, 1693.683
258.7380, 1691.357
259.9520, 1796.620
261.1660, 1913.437
262.3800, 2167.779
263.5930, 2393.620
264.8070, 2356.933
266.0200, 2684.696
267.2330, 3083.889
268.4460, 3535.493
269.6590, 4166.491
270.8720, 4747.867
272.0850, 4630.605
273.2970, 4798.693
274.5090, 4336.121
275.7210, 3446.870
276.9330, 2921.935
278.1450, 2229.303
279.3570, 1978.964
280.5680, 1478.909
281.7790, 1280.128
282.9910, 1223.613
284.2020, 1067.356
285.4120, 1070.351
286.6230, 967.5938
287.8340, 932.0752
289.0440, 979.7891
290.2540, 1153.729
291.4640, 1221.891
292.6740, 1206.274
293.8840, 1418.870
295.0940, 1673.674
296.3030, 2078.679
297.5120, 2368.882
298.7210, 2947.278
299.9300, 3586.864
301.1390, 4209.635
302.3480, 5286.589
303.5560, 6541.721
304.7650, 8373.027
305.9730, 10106.50
307.1810, 11318.15
308.3890, 11532.96
309.5970, 9991.935
310.8040, 7717.064
312.0120, 5576.351
313.2190, 3904.789
314.4260, 2638.374
315.6330, 1716.100
316.8400, 1252.962
318.0460, 918.9590
319.2530, 722.0908
320.4590, 570.3564
321.6650, 472.7549
322.8710, 304.2842
324.0770, 253.9443
325.2830, 166.7344
326.4880, 178.6543
327.6940, 120.7051
328.8990, 266.8838
330.1040, 146.3613
331.3090, 276.6641
332.5140, 196.0117
333.7180, 229.5400
334.9230, 190.2549
336.1270, 137.7715
337.3310, 131.7871
338.5350, 262.9287
339.7390, 174.1230
340.9430, 75.97461
342.1460, 197.2607
343.3500, 190.1240
344.5530, 326.0449
345.7560, 207.2666
346.9590, 429.8789
348.1620, 327.5674
349.3640, 422.8545
350.5670, 591.2949
351.7690, 674.8438
352.9710, 727.4971
354.1730, 989.2598
355.3750, 1017.130
356.5760, 1182.111
357.7780, 1409.225
358.9790, 1564.457
360.1800, 1776.790
361.3810, 1821.224
362.5820, 1853.752
363.7830, 1541.370
364.9830, 1142.078
366.1840, 982.8740
367.3840, 650.7578
368.5840, 436.7266
369.7840, 291.7803
370.9840, 3.916992
372.1830, 90.86328
373.3830, 18.42383
374.5820, 236.2070
375.7810, 155.7979
376.9800, 236.3340
378.1790, 319.8330
379.3780, 197.3105
380.5760, 179.7617
381.7750, 156.2100
382.9730, 255.6777
384.1710, 239.2070
385.3690, 386.7637
386.5660, 260.4121
387.7640, 219.1592
388.9610, 203.8330
390.1590, 283.4238
391.3560, 234.9658
392.5530, 309.4404
393.7500, 230.8779
394.9460, 208.2539
396.1430, 194.5752
397.3390, 292.8428
398.5350, 14.90039
399.7310, 51.23535
400.9270, 101.2764
402.1230, 123.7568
403.3180, 132.9072
404.5140, 119.1729
405.7090, 277.5498
406.9040, 356.0361
408.0990, 640.6299
409.2930, 718.3301
410.4880, 808.1328
411.6820, 969.0361
412.8770, 1182.038
414.0710, 1158.139
415.2650, 1228.335
416.4590, 1223.624
417.6520, 1184.007
418.8460, 1118.480
420.0390, 1230.043
421.2320, 1216.693
422.4250, 1419.431
423.6180, 1475.254
424.8110, 1827.159
426.0030, 2298.148
427.1960, 2734.221
428.3880, 3460.371
429.5800, 4409.789
430.7720, 5649.098
431.9640, 7298.483
433.1550, 9444.153
434.3470, 12042.69
435.5380, 15223.67
436.7290, 18982.56
437.9200, 23637.53
439.1110, 29790.35
440.3020, 36398.25
441.4920, 42822.21
442.6820, 46384.24
443.8730, 44723.34
445.0630, 39077.52
446.2530, 31337.74
447.4420, 23878.04
448.6320, 17542.40
449.8210, 13026.82
451.0100, 9427.310
452.2000, 7136.854
453.3880, 5410.463
454.5770, 4059.131
455.7660, 3334.858
456.9540, 2659.645
458.1430, 2172.488
459.3310, 1892.393
460.5190, 1414.352
461.7070, 1157.366
462.8940, 831.4375
464.0820, 745.5635
465.2690, 526.7441
466.4560, 403.9805
467.6430, 488.2734
468.8300, 451.6211
470.0170, 232.2295
471.2040, 286.7725
472.3900, 72.14453
473.5760, 55.53613
474.7620, 34.82031
475.9480, 13.42773
477.1340, 46.29297
478.3200, 38.40332
479.5050, 44.33398
480.6900, 42.99414
481.8750, 0.5302730
483.0600, 9.996094
484.2450, 49.60840
485.4300, 94.00781
486.6140, 189.6143
487.7990, 176.7480
488.9830, 80.14746
490.1670, 180.1777
491.3510, 331.3926
492.5350, 246.2090
493.7180, 379.9912
494.9020, 330.2617
496.0850, 517.5771
497.2680, 687.2939
498.4510, 525.6074
499.6340, 749.5586
500.8160, 793.0459
501.9990, 955.4258
503.1810, 956.9717
504.3630, 1391.340
505.5450, 1528.684
506.7270, 2524.075
507.9090, 2062.504
509.0900, 2188.980
510.2720, 2530.512
511.4530, 2686.092
512.6340, 3091.729
513.8150, 3504.324
514.9950, 4373.588
516.1760, 4354.521
517.3560, 4395.889
518.5370, 4788.565
519.7170, 5401.719
520.8970, 5531.928
522.0770, 6137.651
523.2560, 6669.047
524.4360, 7613.342
525.6150, 8626.948
526.7940, 9915.607
527.9730, 11692.89
529.1520, 13534.20
530.3310, 16244.32
531.5090, 19173.70
532.6870, 22430.82
533.8660, 24185.97
535.0440, 24544.52
536.2210, 22509.75
537.3990, 19395.94
538.5770, 16321.69
539.7540, 12838.72
540.9310, 9872.024
542.1080, 7621.941
543.2850, 6084.719
544.4620, 4911.246
545.6390, 3771.805
546.8150, 3192.389
547.9920, 2546.000
549.1680, 2132.639
550.3440, 1718.301
551.5190, 1359.987
552.6950, 1387.696
553.8710, 1046.430
555.0460, 925.1865
556.2210, 711.9658
557.3960, 657.7656
558.5710, 450.5869
559.7460, 567.4277
560.9200, 305.2891
562.0950, 341.1729
563.2690, 438.0732
564.4430, 459.9932
565.6170, 338.9307
566.7910, 284.8867
567.9640, 290.8584
569.1380, 202.8467
570.3110, 72.85059
571.4840, 174.8584
572.6570, 174.8809
573.8300, 135.9189
575.0030, 231.9697
576.1750, 70.03320
577.3470, 140.0967
578.5200, 139.1719
579.6920, 222.2559
580.8630, 296.3516
582.0350, 207.4600
583.2070, 292.5791
584.3780, 318.7090
585.5490, 460.8496
586.7200, 502.0000
587.8910, 425.1602
589.0620, 625.3291
590.2330, 742.5088
591.4030, 875.6963
592.5730, 1077.890
593.7430, 1413.094
594.9130, 1458.303
596.0830, 1583.520
597.2530, 1830.743
598.4220, 1799.973
599.5920, 1755.209
600.7610, 1649.450
601.9300, 1474.697
603.0990, 1060.949
604.2670, 889.2061
605.4360, 586.8340
606.6040, 552.2285
607.7720, 375.3535
608.9400, 415.4639
610.1080, 158.4961
611.2760, 175.7432
612.4440, 105.7783
613.6110, 112.4023
614.7780, 274.0186
615.9450, 60.06445
617.1120, 127.6650
618.2790, 148.0771
619.4460, 75.41016
620.6120, 100.1787
621.7780, 161.8887
622.9450, 175.1826
624.1110, 261.4570
625.2760, 203.0098
626.4420, 130.7031
627.6080, 91.15332
628.7730, 77.87500
629.9380, 155.4082
631.1030, 88.46289
632.2680, 140.5801
633.4330, 60.34180
634.5970, 96.64648
635.7620, 47.72461
636.9260, 33.59961
638.0900, 16.15723
639.2540, 78.84375
640.4180, 18.97461
641.5810, 58.80957
642.7450, 52.53223
643.9080, 147.5684
645.0710, 242.3936
646.2340, 175.6807
647.3970, 251.5664
648.5590, 267.0166
649.7220, 394.4014
650.8840, 326.8877
652.0460, 230.2559
653.2080, 331.0439
654.3700, 255.9951
655.5320, 151.9746
656.6930, 321.9678
657.8550, 426.0449
659.0160, 395.5293
660.1770, 384.9229
661.3380, 281.9775
662.4990, 185.9434
663.6590, 207.9834
664.8200, 96.26953
665.9800, 152.4482
667.1400, 196.3711
668.3000, 342.7676
669.4600, 324.6523
670.6190, 110.8398
671.7790, 168.6748
672.9380, 341.7822
674.0970, 282.2100
675.2560, 274.1611
676.4150, 370.6279
677.5740, 387.3154
678.7320, 410.4980
679.8900, 422.3750
681.0490, 489.7930
682.2070, 616.4248
683.3640, 656.7334
684.5220, 840.2402
685.6800, 681.6670
686.8370, 875.5195
687.9940, 1010.760
689.1510, 1285.985
690.3080, 1266.192
691.4650, 1345.382
692.6220, 1681.554
693.7780, 1936.091
694.9340, 2034.301
696.0900, 2444.419
697.2460, 2825.518
698.4020, 3028.598
699.5580, 3304.658
700.7130, 3373.069
701.8680, 3703.092
703.0240, 3986.094
704.1790, 3796.077
705.3330, 3857.043
706.4880, 3675.985
707.6430, 3335.909
708.7970, 2979.812
709.9510, 2834.507
711.1050, 2595.371
712.2590, 2415.350
713.4130, 1999.963
714.5660, 2032.764
715.7200, 1888.168
716.8730, 1802.727
718.0260, 1794.249
719.1790, 1604.966
720.3320, 1780.661
721.4840, 1681.336
722.6370, 1820.987
723.7890, 1834.619
724.9410, 1785.229
726.0930, 1896.816
727.2450, 1908.382
728.3960, 2047.926
729.5480, 1820.447
730.6990, 1697.947
731.8500, 1506.422
733.0010, 1085.877
734.1520, 1008.309
735.3030, 974.7178
736.4530, 721.1035
737.6040, 585.4678
738.7540, 364.8076
739.9040, 431.1250
741.0540, 342.4199
742.2030, 320.6914
743.3530, 183.9395
744.5020, 216.1621
745.6520, 130.3574
746.8010, 131.7422
747.9490, 138.8770
749.0980, 51.77930
750.2470, 17.76465
751.3950, 166.7627
752.5440, 99.87793
753.6920, 22.85645
754.8400, 37.95898
755.9870, 43.37891
757.1350, 148.1299
758.2820, 75.83398
759.4300, 79.10938
760.5770, 47.03906
761.7240, 75.95605
762.8710, 107.8662
764.0170, 14.76074
765.1640, 0.2089840
766.3100, 235.0996
767.4560, 114.6611
768.6020, 136.2373
769.7480, 103.9385
770.8940, 89.52441
772.0400, 13.83984
773.1850, 122.6943
774.3300, 88.37793
775.4750, 119.0605
776.6200, 107.8428
777.7650, 4.590820
778.9090, 68.49121
780.0540, 4.508789
781.1980, 100.6367
782.3420, 97.49609
783.4860, 25.43164
784.6300, 52.52246
785.7740, 28.55371
786.9170, 59.68457
788.0600, 29.74414
789.2030, 76.00195
790.3460, 57.04883
791.4890, 43.13770
792.6320, 144.7383
793.7740, 21.64844
794.9170, 32.87891
796.0590, 90.45801
797.2010, 19.47461
798.3430, 2.093750
799.4850, 54.29492
800.6260, 175.6426
801.7670, 29.97754
802.9090, 39.44629
804.0500, 243.5059
805.1910, 27.75098
806.3310, 73.96191
807.4720, 184.1416
808.6120, 83.66113
809.7530, 220.6895
810.8930, 146.7939
812.0330, 14.12500
813.1720, 34.90723
814.3120, 118.9053
815.4510, 61.87598
816.5910, 102.8154
817.7300, 184.7266
818.8690, 132.6143
820.0080, 316.4746
821.1460, 159.3125
822.2850, 173.1260
823.4230, 93.91406
824.5610, 222.6738
825.6990, 694.4102
826.8370, 449.1250
827.9750, 352.8174
829.1120, 234.4854
830.2500, 113.1309
831.3870, 185.7529
832.5240, 236.3496
833.6610, 355.9248
834.7980, 245.4785
835.9340, 277.0088
837.0700, 111.5186
838.2070, 221.0039
839.3430, 255.4658
840.4790, 247.9072
841.6140, 316.3281
842.7500, 319.7266
843.8850, 438.1035
845.0210, 316.4600
846.1560, 379.7959
847.2910, 206.1172
848.4260, 157.4180
849.5600, 296.6973
850.6950, 280.9561
851.8290, 394.1963
852.9630, 386.4219
854.0970, 466.6309
855.2310, 224.8184
856.3650, 521.9883
857.4980, 299.1377
858.6310, 559.2686
859.7650, 551.3789
860.8980, 431.4707
862.0310, 483.5439
863.1630, 460.5977
864.2960, 506.6328
865.4280, 421.6494
866.5600, 419.6475
867.6920, 424.6279
868.8240, 355.5898
869.9560, 232.5420
871.0880, 271.4766
872.2190, 312.3926
873.3500, 303.2920
874.4810, 344.1729
875.6120, 246.0371
876.7430, 249.8848
877.8740, 478.7139
879.0040, 345.5273
880.1340, 345.9561
881.2650, 258.6055
882.3950, 102.5117
883.5240, 253.4180
884.6540, 288.3877
885.7830, 347.1299
886.9130, 337.0742
888.0420, 262.2432
889.1710, 156.7061
890.3000, 121.8174
891.4280, 207.3027
892.5570, 228.9111
893.6850, 232.9219
894.8130, 163.1064
895.9420, 243.3291
897.0690, 202.0215
898.1970, 172.1797
899.3250, 190.7324
900.4520, 65.66797
901.5790, 149.8848
902.7060, 65.38086
903.8330, 227.0859
904.9600, 111.4062
906.0870, 118.1357
907.2130, 141.8398
908.3390, 100.1406
909.4650, 185.6533
910.5910, 95.35156
911.7170, 169.3447
912.8430, 160.8711
913.9680, 128.4775
915.0930, 88.13477
916.2180, 87.83789
917.3430, 29.23145
918.4680, 39.82129
919.5930, 143.9326
920.7170, 66.43359
921.8420, 65.35645
922.9660, 4.330078
924.0900, 65.18652
925.2140, 78.85449
926.3370, 21.32910
927.4610, 200.0166
928.5840, 9.648438
929.7070, 87.66016
930.8310, 95.08691
931.9530, 85.24512
933.0760, 160.6992
934.1990, 58.02930
935.3210, 94.47949
936.4430, 130.8711
937.5650, 77.02832
938.6870, 149.3193
939.8090, 316.8955
940.9310, 56.05664
942.0520, 215.7666
943.1730, 198.1982
944.2940, 185.0029
945.4150, 263.5742
946.5360, 450.8555
947.6570, 338.6602
948.7770, 440.9775
949.8970, 600.1025
951.0180, 633.7568
952.1370, 734.7637
953.2570, 914.2178
954.3770, 1044.456
955.4960, 1439.024
956.6160, 1854.383
957.7350, 2112.801
958.8540, 2612.779
959.9730, 3496.352
961.0910, 4284.924
962.2100, 4981.498
963.3280, 6121.072
964.4460, 6845.647
965.5640, 7495.842
966.6820, 7391.344
967.8000, 6730.932
968.9180, 5615.521
970.0350, 4652.112
971.1520, 3721.706
972.2690, 2894.934
973.3860, 2506.533
974.5030, 1774.133
975.6190, 1563.737
976.7360, 1210.344
977.8520, 1131.953
978.9680, 784.5654
980.0840, 923.1807
981.2000, 571.7998
982.3160, 495.4219
983.4310, 447.9189
984.5460, 448.5703
985.6610, 551.2266
986.7760, 435.8877
987.8910, 423.5518
989.0060, 507.2207
990.1200, 580.8926
991.2350, 516.5713
992.3490, 762.2539
993.4630, 872.9404
994.5760, 1093.632
995.6900, 1251.330
996.8040, 1485.031
997.9170, 1763.738
999.0300, 2021.452
1000.143, 1797.171
1001.256, 1619.895
1002.369, 1587.625
1003.481, 1021.160
1004.594, 649.9014
1005.706, 741.6504
1006.818, 459.4043
1007.930, 355.1650
1009.042, 401.9336
1010.153, 205.7080
1011.264, 258.4893
1012.376, 423.2764
1013.487, 139.0713
1014.598, 247.8760
1015.708, 303.6895
1016.819, 330.2969
1017.929, 469.1309
1019.040, 325.9775
1020.150, 325.5830
1021.260, 455.4658
1022.370, 385.3584
1023.479, 501.1104
1024.589, 586.3047
1025.698, 322.8672
1026.807, 461.2510
1027.916, 470.2207
1029.025, 628.2061
1030.133, 779.0059
1031.242, 888.0215
1032.350, 992.5977
1033.458, 1413.641
1034.566, 1612.478
1035.674, 2135.608
1036.782, 2621.498
1037.890, 3348.605
1038.997, 3664.770
1040.104, 4028.947
1041.211, 3936.137
1042.318, 3624.352
1043.425, 3300.616
1044.531, 2515.896
1045.638, 1893.187
1046.744, 1831.523
1047.850, 1234.430
1048.956, 1130.607
1050.061, 1031.633
1051.167, 925.5615
1052.272, 784.6094
1053.378, 713.6250
1054.483, 629.5449
1055.588, 555.1836
1056.692, 524.3906
1057.797, 443.6377
1058.901, 433.3301
1060.006, 409.6924
1061.110, 412.7764
1062.214, 398.6650
1063.318, 402.7432
1064.421, 437.5195
1065.525, 470.3125
1066.628, 496.1357
1067.731, 561.8945
1068.834, 586.9551
1069.937, 665.4277
1071.040, 773.0039
1072.142, 852.5566
1073.244, 969.2568
1074.347, 1207.256
1075.449, 1105.103
1076.550, 1467.961
1077.652, 1425.831
1078.754, 1422.716
1079.855, 1901.611
1080.956, 1901.948
1082.057, 2086.990
1083.158, 2194.022
1084.259, 2224.864
1085.359, 2142.921
1086.460, 2054.190
1087.560, 1876.019
1088.660, 1631.705
1089.760, 1353.997
1090.860, 1168.070
1091.959, 1276.104
1093.059, 970.1484
1094.158, 813.2012
1095.257, 754.2637
1096.356, 864.3350
1097.455, 473.4980
1098.553, 535.5898
1099.652, 445.2529
1100.750, 401.3633
1101.848, 438.4824
1102.946, 453.6104
1104.044, 250.7480
1105.141, 290.8965
1106.239, 307.0537
1107.336, 117.2217
1108.433, 5.396484
1109.530, 138.5811
1110.627, 15.77539
1111.724, 387.9785
1112.820, 179.1914
1113.917, 40.41211
1115.013, 256.0898
1116.109, 186.0137
1117.205, 162.2617
1118.300, 138.5195
1119.396, 155.7871
1120.491, 123.0703
1121.586, 213.3613
1122.681, 180.6621
1123.776, 53.96875
1124.871, 114.2871
1125.965, 209.6133
1127.060, 36.94922
1128.154, 42.30078
1129.248, 55.66211
1130.342, 130.0312
1131.436, 146.4102
1132.529, 358.8047
1133.623, 66.20703
1134.716, 47.38086
1135.809, 99.02148
1136.902, 53.43555
1137.995, 45.85742
1139.087, 47.28711
1140.180, 32.72656
1141.272, 46.17383
1142.364, 119.6309
1143.456, 19.09570
1144.548, 141.5684
1145.639, 77.33008
1146.731, 104.8203
1147.822, 105.3203
1148.913, 129.8359
1150.004, 59.36133
1151.095, 19.10352
1152.186, 37.43164
1153.276, 30.98633
1154.366, 42.44922
1155.457, 7.894531
1156.546, 55.33594
1157.636, 85.79297
1158.726, 252.7246
1159.815, 120.2598
1160.905, 18.20117
1161.994, 89.34180
1163.083, 34.10938
1164.172, 18.43359
1165.261, 98.98438
1166.349, 22.45508
1167.437, 85.10352
1168.526, 173.6719
1169.614, 107.2461
1170.702, 127.8301
1171.789, 141.4199
1172.877, 31.01758
1173.964, 109.6211
1175.051, 221.2441
1176.138, 8.861328
1177.225, 54.48633
1178.312, 195.1172
1179.399, 94.75586
1180.485, 108.5996
1181.571, 292.9980
1182.657, 223.6016
1183.743, 1.212891
1184.829, 162.8262
1185.915, 95.44727
1187.000, 86.07422
1188.085, 46.70508
1189.171, 33.65625
1190.255, 26.98047
1191.340, 79.37305
1192.425, 10.76367
1193.509, 9.154297
1194.594, 100.4551
1195.678, 15.08398
1196.762, 6.273438
1197.846, 44.62891
1198.929, 117.9941
1200.013, 73.62500
1201.096, 62.25977
1202.179, 70.89844
1203.262, 107.5430
1204.345, 3.808594
1205.428, 44.83984
1206.510, 71.49414
1207.593, 222.1523
1208.675, 19.13477
1209.757, 70.80078
1210.839, 77.47266
1211.920, 192.1484
1213.002, 54.82812
1214.083, 14.48633
1215.164, 75.19141
1216.245, 134.8750
1217.326, 257.5605
1218.407, 1.494141
1219.488, 54.19531
1220.568, 238.8867
1221.648, 249.5840
1222.728, 124.2871
1223.808, 54.99023
1224.888, 127.7012
1225.967, 61.41406
1227.047, 14.13281
1228.126, 121.8516
1229.205, 19.42383
1230.284, 98.28906
1231.363, 71.00586
1232.441, 175.7266
1233.520, 89.44922
1234.598, 122.1777
1235.676, 208.9102
1236.754, 82.64648
1237.832, 63.38281
1238.910, 78.12500
1239.987, 204.8711
1241.064, 171.6191
1242.141, 105.3711
1243.218, 233.1270
1244.295, 15.11523
1245.372, 53.36523
1246.448, 214.3535
1247.525, 163.0762
1248.601, 103.8027
1249.677, 120.8809
1250.753, 152.6152
1251.828, 166.3516
1252.904, 174.1074
1253.979, 60.86914
1255.054, 65.63477
1256.129, 48.40234
1257.204, 130.8848
1258.279, 185.6582
1259.353, 181.4336
1260.428, 219.2148
1261.502, 245.3945
1262.576, 138.1797
1263.650, 196.9668
1264.724, 104.9590
1265.797, 275.7520
1266.871, 203.5488
1267.944, 184.3457
1269.017, 240.1484
1270.090, 385.9512
1271.162, 210.7598
1272.235, 273.5684
1273.307, 105.3828
1274.380, 14.19727
1275.452, 276.0117
1276.524, 216.8301
1277.595, 194.1602
1278.667, 313.3203
