##NAMES=Natrolite
##RRUFFID=R040102
##IDEAL CHEMISTRY=Na_2_(Si_3_Al_2_)O_10_&#183;2H_2_O
##LOCALITY=Ross' Quarry, Northland, New Zealand
##OWNER=RRUFF
##SOURCE=University of Arizona Mineral Museum
##DESCRIPTION=Mass of colorless acicular crystals
##STATUS=The identification of this mineral has been confirmed by X-ray diffraction and chemical analysis
##URL=rruff.info/R040102
##MEASURED CHEMISTRY=(Na_0.92_Ca_0.02_)_2_(Si_3.03_Al_1.99_)O_10_Â·2H_2_O
##PIN_ID=S00341
##ORIENTATION=Laser parallel to -c* (0 0 -1). Fiducial mark perpendicular to laser is parallel to a [1 0 0]
124.675, 0.000
126.063, 4.879
127.452, 93.059
128.840, 72.806
130.228, 34.724
131.615, 137.143
133.003, 202.764
134.390, 286.528
135.777, 418.956
137.164, 526.583
138.550, 673.283
139.937, 829.948
141.323, 931.279
142.709, 1016.934
144.094, 1078.438
145.480, 1084.237
146.865, 1128.896
148.250, 1051.352
149.635, 1038.432
151.019, 950.055
152.403, 926.104
153.788, 1086.433
155.171, 1290.964
156.555, 1483.092
157.939, 1870.108
159.322, 2318.378
160.705, 2583.754
162.088, 2836.824
163.470, 2779.978
164.853, 2553.289
166.235, 2467.292
167.617, 2119.433
168.998, 1879.200
170.380, 1672.491
171.761, 1474.365
173.142, 1398.161
174.523, 1148.308
175.904, 1158.107
177.284, 897.434
178.664, 867.033
180.044, 862.069
181.424, 824.858
182.803, 800.352
184.183, 824.558
185.562, 882.988
186.940, 725.777
188.319, 688.864
189.698, 601.410
191.076, 487.550
192.454, 549.303
193.831, 536.799
195.209, 487.408
196.586, 475.565
197.963, 548.341
199.340, 710.762
200.717, 707.987
202.093, 802.166
203.470, 999.723
204.846, 994.740
206.221, 1046.067
207.597, 944.084
208.972, 934.026
210.347, 923.319
211.722, 668.586
213.097, 567.321
214.472, 553.073
215.846, 388.844
217.220, 310.636
218.594, 310.578
219.967, 285.150
221.341, 106.883
222.714, 228.323
224.087, 82.370
225.460, 112.982
226.832, 101.346
228.204, 39.660
229.577, 122.572
230.948, 86.703
232.320, 96.562
233.692, 147.445
235.063, 231.930
236.434, 258.824
237.805, 373.887
239.175, 373.163
240.545, 390.330
241.916, 360.485
243.286, 245.622
244.655, 221.812
246.025, 74.036
247.394, 19.276
248.763, 4.663
250.132, 17.231
251.501, 12.267
252.869, 3.311
254.237, 47.003
255.605, 0.289
256.973, 41.882
258.340, 26.539
259.708, 15.292
261.075, 81.811
262.442, 93.651
263.808, 70.759
265.175, 17.967
266.541, 9.884
267.907, 107.571
269.273, 204.293
270.639, 74.929
272.004, 136.884
273.369, 114.156
274.734, 39.669
276.099, 78.063
277.463, 27.317
278.828, 74.260
280.192, 15.812
281.556, 2.335
282.919, 44.209
284.283, 53.142
285.646, 55.457
287.009, 42.191
288.372, 69.029
289.734, 15.487
291.097, 47.814
292.459, 40.739
293.821, 32.080
295.183, 5.736
296.544, 95.674
297.905, 168.706
299.266, 174.812
300.627, 313.970
301.988, 348.185
303.348, 420.427
304.709, 460.708
306.069, 411.999
307.428, 332.291
308.788, 300.577
310.147, 160.852
311.507, 51.108
312.865, 49.657
314.224, 88.531
315.583, 36.698
316.941, 10.832
318.299, 18.934
319.657, 41.000
321.015, 30.989
322.372, 51.037
323.729, 32.865
325.086, 65.715
326.443, 32.512
327.800, 108.256
329.156, 62.944
330.512, 63.576
331.868, 107.148
333.224, 81.691
334.579, 131.179
335.935, 43.626
337.290, 113.019
338.645, 6.357
339.999, 33.636
341.354, 54.868
342.708, 58.046
344.062, 56.199
345.416, 163.299
346.769, 47.353
348.123, 168.357
349.476, 157.313
350.829, 306.192
352.182, 222.006
353.534, 301.727
354.887, 323.354
356.239, 336.895
357.591, 295.261
358.942, 282.519
360.294, 373.734
361.645, 234.913
362.996, 285.057
364.347, 355.132
365.698, 228.143
367.048, 215.107
368.398, 178.964
369.748, 140.717
371.098, 82.375
372.448, 85.968
373.797, 78.494
375.146, 69.989
376.495, 165.455
377.844, 106.892
379.192, 49.702
380.540, 71.651
381.889, 19.032
383.236, 45.201
384.584, 143.388
385.932, 3.494
387.279, 80.448
388.626, 120.423
389.973, 69.358
391.319, 26.993
392.666, 107.850
394.012, 10.405
395.358, 109.312
396.704, 80.032
398.049, 93.087
399.394, 49.729
400.740, 79.896
402.084, 139.495
403.429, 50.493
404.774, 178.928
406.118, 232.173
407.462, 275.020
408.806, 167.659
410.150, 198.699
411.493, 220.530
412.836, 193.047
414.179, 234.492
415.522, 206.531
416.865, 135.549
418.207, 297.627
419.549, 196.284
420.891, 366.497
422.233, 196.994
423.575, 313.119
424.916, 378.678
426.257, 485.931
427.598, 575.963
428.939, 817.676
430.279, 979.865
431.619, 1192.003
432.959, 1433.887
434.299, 1615.796
435.639, 1937.349
436.978, 1925.439
438.318, 2016.793
439.657, 2255.617
440.996, 2066.907
442.334, 2207.877
443.673, 2328.510
445.011, 2376.202
446.349, 2393.318
447.687, 2340.274
449.024, 1968.061
450.361, 1954.138
451.699, 1463.545
453.036, 1244.592
454.372, 952.912
455.709, 741.869
457.045, 682.777
458.381, 614.002
459.717, 456.033
461.053, 457.665
462.388, 363.323
463.724, 355.031
465.059, 302.084
466.394, 323.867
467.728, 355.550
469.063, 337.457
470.397, 459.255
471.731, 390.602
473.065, 431.999
474.398, 548.917
475.732, 531.279
477.065, 652.476
478.398, 703.759
479.731, 834.467
481.063, 891.394
482.396, 988.634
483.728, 918.983
485.060, 1279.799
486.391, 1170.673
487.723, 1201.321
489.054, 1452.059
490.385, 1242.284
491.716, 1202.563
493.047, 1409.737
494.377, 1229.948
495.708, 1223.166
497.038, 1313.168
498.368, 1053.881
499.697, 932.766
501.027, 875.479
502.356, 875.399
503.685, 841.248
505.014, 850.821
506.342, 843.322
507.671, 721.636
508.999, 821.600
510.327, 722.074
511.655, 652.646
512.982, 783.214
514.310, 783.705
515.637, 804.387
516.964, 734.546
518.291, 766.330
519.617, 916.496
520.944, 1086.687
522.270, 1057.015
523.596, 1317.129
524.921, 1766.681
526.247, 1956.684
527.572, 2576.035
528.897, 3215.542
530.222, 3704.512
531.547, 4063.202
532.871, 4071.871
534.196, 3550.542
535.520, 3209.026
536.844, 2557.916
538.167, 2156.524
539.491, 1599.775
540.814, 1268.130
542.137, 1033.227
543.460, 871.213
544.783, 699.798
546.105, 515.756
547.427, 594.008
548.749, 442.395
550.071, 440.480
551.393, 307.791
552.714, 366.020
554.035, 311.333
555.356, 339.499
556.677, 147.502
557.998, 245.528
559.318, 103.162
560.638, 231.050
561.958, 129.161
563.278, 16.697
564.597, 54.895
565.917, 143.274
567.236, 141.785
568.555, 129.820
569.874, 148.719
571.192, 86.175
572.511, 104.255
573.829, 132.457
575.147, 70.520
576.464, 28.495
577.782, 196.781
579.099, 44.895
580.416, 133.771
581.733, 151.908
583.050, 100.193
584.366, 28.712
585.683, 147.098
586.999, 105.951
588.315, 104.547
589.630, 153.553
590.946, 132.963
592.261, 181.670
593.576, 270.411
594.891, 309.488
596.206, 387.862
597.520, 286.399
598.834, 375.111
600.148, 394.364
601.462, 252.690
602.776, 301.185
604.089, 279.438
605.402, 348.472
606.715, 236.878
608.028, 261.182
609.341, 283.939
610.653, 222.694
611.965, 110.819
613.277, 81.056
614.589, 159.235
615.901, 197.812
617.212, 66.850
618.523, 154.994
619.834, 55.868
621.145, 122.650
622.456, 79.046
623.766, 89.166
625.076, 110.056
626.386, 48.188
627.696, 65.772
629.006, 143.073
630.315, 10.895
631.624, 88.752
632.933, 14.047
634.242, 4.984
635.551, 8.922
636.859, 48.379
638.167, 125.719
639.475, 183.281
640.783, 58.808
642.090, 18.208
643.398, 45.766
644.705, 33.528
646.012, 100.619
647.318, 168.504
648.625, 145.242
649.931, 98.058
651.237, 158.598
652.543, 34.836
653.849, 131.712
655.155, 38.173
656.460, 124.589
657.765, 39.029
659.070, 127.287
660.375, 86.437
661.679, 189.749
662.984, 15.897
664.288, 32.000
665.592, 188.059
666.895, 44.584
668.199, 91.150
669.502, 67.798
670.805, 94.401
672.108, 40.502
673.411, 157.227
674.713, 16.384
676.016, 139.743
677.318, 126.455
678.620, 72.414
679.921, 129.227
681.223, 295.603
682.524, 126.432
683.825, 262.895
685.126, 179.234
686.427, 305.499
687.727, 261.469
689.028, 357.237
690.328, 242.634
691.628, 467.857
692.927, 263.728
694.227, 489.520
695.526, 465.568
696.825, 471.730
698.124, 487.104
699.423, 592.795
700.721, 468.115
702.020, 753.821
703.318, 799.334
704.616, 764.647
705.913, 769.524
707.211, 904.367
708.508, 870.001
709.805, 725.477
711.102, 820.230
712.399, 485.441
713.695, 500.117
714.992, 484.886
716.288, 359.146
717.584, 454.369
718.879, 339.091
720.175, 403.188
721.470, 407.745
722.765, 391.768
724.060, 366.411
725.355, 332.085
726.649, 266.398
727.944, 261.127
729.238, 315.271
730.532, 331.599
731.825, 215.744
733.119, 349.809
734.412, 234.584
735.705, 118.815
736.998, 226.066
738.291, 263.347
739.584, 213.914
740.876, 251.006
742.168, 134.146
743.460, 188.295
744.752, 81.690
746.043, 8.414
747.334, 142.561
748.626, 126.415
749.916, 42.669
751.207, 206.474
752.498, 160.537
753.788, 115.026
755.078, 8.726
756.368, 192.427
757.658, 146.512
758.947, 200.227
760.237, 14.033
761.526, 157.551
762.815, 60.812
764.104, 184.593
765.392, 74.479
766.680, 217.696
767.969, 9.004
769.257, 193.237
770.544, 102.252
771.832, 14.700
773.119, 187.271
774.406, 10.010
775.693, 68.775
776.980, 111.256
778.267, 108.116
779.553, 24.269
780.839, 118.711
782.125, 240.667
783.411, 323.042
784.697, 165.080
785.982, 147.283
787.267, 349.069
788.552, 160.103
789.837, 231.683
791.122, 242.883
792.406, 225.000
793.690, 167.367
794.974, 78.814
796.258, 276.457
797.542, 137.049
798.825, 78.410
800.108, 229.436
801.391, 30.629
802.674, 312.447
803.957, 333.932
805.239, 278.088
806.522, 339.529
807.804, 277.480
809.085, 458.117
810.367, 478.320
811.649, 498.840
812.930, 596.350
814.211, 597.861
815.492, 461.242
816.772, 531.857
818.053, 351.703
819.333, 297.719
820.613, 162.049
821.893, 141.881
823.173, 112.533
824.452, 112.727
825.732, 223.127
827.011, 63.277
828.290, 133.684
829.568, 182.654
830.847, 32.861
832.125, 203.000
833.403, 2.537
834.681, 82.254
835.959, 67.410
837.236, 42.162
838.514, 62.799
839.791, 71.117
841.068, 132.562
842.345, 172.514
843.621, 252.422
844.898, 312.461
846.174, 122.307
847.450, 132.107
848.726, 62.010
850.001, 32.016
851.277, 211.873
852.552, 131.793
853.827, 211.703
855.102, 111.582
856.376, 151.521
857.651, 191.359
858.925, 371.258
860.199, 321.432
861.473, 91.383
862.746, 120.895
864.020, 400.801
865.293, 170.232
866.566, 199.477
867.839, 258.568
869.112, 237.623
870.384, 126.637
871.656, 135.604
872.928, 164.523
874.200, 83.402
875.472, 362.234
876.744, 131.025
878.015, 10.227
879.286, 198.467
880.557, 27.115
881.828, 175.695
883.098, 25.744
884.369, 122.752
885.639, 90.986
886.909, 79.395
888.178, 47.609
889.448, 44.701
890.717, 44.758
891.987, 59.436
893.256, 70.701
894.524, 17.178
895.793, 64.516
897.061, 232.029
898.330, 40.943
899.598, 55.592
900.865, 162.744
902.133, 30.209
903.401, 206.410
904.668, 133.670
905.935, 20.686
907.202, 197.455
908.468, 183.609
909.735, 80.613
911.001, 157.369
912.267, 124.307
913.533, 180.402
914.799, 227.068
916.064, 93.285
917.330, 100.029
918.595, 186.068
919.860, 42.719
921.124, 247.188
922.389, 96.361
923.653, 289.594
924.918, 115.004
926.182, 151.230
927.445, 116.375
928.709, 152.037
929.972, 197.906
931.236, 86.314
932.499, 3.322
933.761, 142.342
935.024, 48.467
936.286, 194.793
937.549, 10.512
938.811, 176.109
940.073, 52.303
941.334, 117.877
942.596, 63.705
943.857, 9.541
945.118, 15.252
946.379, 280.670
947.640, 115.961
948.900, 332.318
950.161, 127.760
951.421, 183.500
952.681, 199.703
953.940, 104.699
955.200, 150.969
956.459, 277.283
957.719, 153.305
958.978, 319.855
960.236, 395.580
961.495, 641.984
962.753, 398.434
964.012, 623.871
965.270, 380.340
966.527, 586.270
967.785, 862.229
969.043, 438.232
970.300, 553.613
971.557, 370.090
972.814, 365.938
974.071, 140.703
975.327, 216.182
976.583, 181.168
977.840, 177.076
979.095, 221.859
980.351, 157.359
981.607, 229.805
982.862, 225.225
984.117, 305.057
985.372, 310.340
986.627, 275.326
987.882, 429.930
989.136, 174.717
990.390, 342.326
991.644, 296.584
992.898, 332.066
994.152, 497.426
995.405, 251.912
996.659, 383.643
997.912, 367.686
999.165, 283.129
1000.417, 247.670
1001.670, 272.400
1002.922, 247.355
1004.174, 239.262
1005.426, 237.645
1006.678, 212.211
1007.930, 227.010
1009.181, 202.146
1010.432, 127.104
1011.683, 173.273
1012.934, 267.043
1014.185, 161.490
1015.435, 266.727
1016.685, 301.596
1017.935, 385.842
1019.185, 451.814
1020.435, 476.207
1021.684, 740.395
1022.934, 823.391
1024.183, 1167.797
1025.432, 1081.707
1026.680, 935.738
1027.929, 1050.080
1029.177, 633.393
1030.425, 886.547
1031.673, 700.414
1032.921, 614.453
1034.169, 525.713
1035.416, 570.211
1036.663, 563.156
1037.911, 576.303
1039.157, 410.377
1040.404, 769.846
1041.650, 410.336
1042.897, 489.752
1044.143, 548.654
1045.389, 411.199
1046.634, 613.246
1047.880, 517.061
1049.125, 378.396
1050.371, 500.420
1051.615, 454.355
1052.860, 524.963
1054.105, 658.029
1055.349, 540.055
1056.593, 651.664
1057.837, 454.783
1059.081, 537.449
1060.325, 689.113
1061.568, 512.732
1062.812, 655.188
1064.055, 708.312
1065.298, 711.018
1066.540, 672.514
1067.783, 528.732
1069.025, 551.051
1070.267, 722.152
1071.509, 584.441
1072.751, 670.631
1073.993, 542.625
1075.234, 465.512
1076.475, 366.828
1077.716, 458.174
1078.957, 330.574
1080.198, 432.000
1081.438, 538.018
1082.679, 359.039
1083.919, 480.666
1085.159, 402.049
1086.398, 633.230
1087.638, 674.281
1088.877, 396.564
1090.116, 637.844
1091.355, 468.510
1092.594, 730.424
1093.833, 580.523
1095.071, 390.684
1096.309, 291.807
1097.547, 232.434
1098.785, 304.789
1100.023, 165.127
1101.260, 195.926
1102.498, 277.188
1103.735, 227.215
1104.972, 209.658
1106.208, 264.529
1107.445, 140.314
1108.681, 322.039
1109.918, 162.561
1111.154, 143.014
1112.389, 414.584
1113.625, 124.908
1114.860, 245.166
1116.096, 235.363
1117.331, 216.424
1118.566, 356.754
1119.800, 86.750
1121.035, 107.576
1122.269, 338.381
1123.503, 128.336
1124.737, 238.115
1125.971, 118.018
1127.205, 217.629
1128.438, 107.783
1129.671, 287.268
1130.904, 43.426
1132.137, 137.623
1133.370, 1.988
1134.602, 137.965
1135.834, 71.730
1137.066, 127.338
1138.298, 49.219
1139.530, 270.832
1140.762, 30.180
1141.993, 111.393
1143.224, 391.381
1144.455, 96.512
1145.686, 353.342
1146.917, 22.133
1148.147, 170.236
1149.377, 120.303
1150.607, 169.875
1151.837, 187.102
1153.067, 28.119
1154.296, 168.521
1155.526, 152.414
1156.755, 99.832
1157.984, 228.162
1159.213, 2.740
1160.441, 295.328
1161.670, 155.477
1162.898, 123.113
1164.126, 101.988
1165.354, 269.863
1166.581, 2.340
1167.809, 260.096
1169.036, 187.965
1170.263, 476.918
1171.490, 155.414
1172.717, 182.723
1173.943, 352.016
1175.170, 132.371
1176.396, 98.904
1177.622, 471.787
1178.848, 119.330
1180.073, 216.768
1181.299, 381.250
1182.524, 67.400
1183.749, 374.963
1184.974, 320.492
1186.199, 76.834
1187.423, 504.301
1188.648, 252.166
1189.872, 278.766
1191.096, 226.922
1192.320, 343.559
1193.543, 498.732
1194.767, 237.455
1195.990, 83.873
1197.213, 469.777
1198.436, 122.771
1199.659, 378.637
1200.881, 356.307
1202.104, 521.729
1203.326, 496.756
1204.548, 303.492
1205.770, 388.529
1206.991, 513.506
1208.213, 126.814
1209.434, 361.297
1210.655, 246.137
1211.876, 401.562
1213.096, 545.314
1214.317, 336.639
1215.537, 431.145
1216.757, 684.838
1217.977, 479.607
1219.197, 373.816
1220.417, 617.492
1221.636, 172.072
1222.855, 695.152
1224.074, 519.918
1225.293, 316.965
1226.512, 611.039
1227.731, 535.758
1228.949, 439.900
1230.167, 453.240
1231.385, 406.820
1232.603, 660.684
1233.820, 423.957
1235.038, 291.486
1236.255, 393.625
1237.472, 737.176
1238.689, 229.871
1239.906, 731.801
1241.122, 575.074
1242.338, 606.867
1243.555, 538.297
1244.771, 290.135
1245.986, 591.461
1247.202, 522.449
1248.417, 414.436
1249.633, 855.416
1250.848, 116.133
1252.063, 737.553
1253.277, 638.232
1254.492, 330.383
1255.706, 691.486
1256.920, 651.578
1258.134, 321.998
1259.348, 662.719
1260.562, 653.191
1261.775, 643.693
1262.988, 383.461
1264.201, 543.559
1265.414, 633.600
1266.627, 392.414
1267.839, 381.730
1269.052, 409.463
1270.264, 510.031
1271.476, 429.049
1272.688, 477.406
1273.899, 376.090
1275.111, 454.416
1276.322, 553.166
1277.533, 148.859
1278.744, 327.332
1279.955, 414.385
1281.165, 284.488
1282.376, 587.805
1283.586, 5.070
1284.796, 310.389
1286.006, 447.994
1287.215, 114.787
1288.425, 271.906
1289.634, 29.557
1290.843, 249.938
1292.052, 487.193
1293.261, 77.066
1294.469, 129.078
1295.678, 194.910
1296.886, 220.771
1298.094, 266.545
1299.302, 61.512
1300.509, 23.010
1301.717, 562.258
1302.924, 297.092
1304.131, 102.340
1305.338, 286.215
1306.545, 51.508
1307.752, 336.057
1308.958, 109.643
1310.164, 374.381
1311.370, 398.998
1312.576, 8.016
1313.782, 336.309
1314.987, 120.221
1316.193, 165.201
1317.398, 408.727
1318.603, 62.254
1319.807, 143.637
1321.012, 529.324
1322.216, 27.965
1323.421, 246.160
1324.625, 248.688
1325.829, 58.492
1327.032, 514.855
1328.236, 166.688
1329.439, 80.230
1330.642, 402.422
1331.845, 143.855
1333.048, 87.043
1334.251, 279.047
1335.453, 51.055
1336.656, 232.723
1337.858, 624.793
1339.060, 17.391
1340.261, 218.770
1341.463, 319.312
1342.664, 58.543
1343.866, 281.992
1345.067, 33.504
1346.267, 344.805
1347.468, 416.707
1348.669, 78.406
1349.869, 369.195
1351.069, 360.242
1352.269, 78.281
1353.469, 431.426
1354.668, 322.031
1355.868, 117.941
1357.067, 782.578
1358.266, 56.383
1359.465, 313.652
1360.664, 484.012
1361.862, 204.871
1363.061, 315.293
1364.259, 425.754
1365.457, 186.426
1366.655, 655.375
1367.852, 126.301
1369.050, 163.387
1370.247, 195.941
1371.444, 96.562
1372.641, 156.707
1373.838, 327.289
1375.035, 247.027
1376.231, 156.535
1377.427, 278.926
1378.623, 24.410
1379.819, 779.039
1381.015, 152.906
1382.211, 338.098
1383.406, 953.012
1384.601, 166.684
1385.796, 890.461
1386.991, 562.840
1388.185, 327.512
1389.380, 630.828
1390.574, 423.965
1391.768, 198.270
1392.962, 791.422
1394.156, 495.191
1395.350, 287.062
1396.543, 879.484
1397.736, 81.711
1398.929, 413.434
1400.122, 474.211
1401.315, 355.262
1402.507, 656.844
1403.700, 272.430
1404.892, 339.352
1406.084, 885.730
1407.276, 356.078
1408.467, 513.293
1409.659, 561.547
1410.850, 338.312
1412.041, 511.707
1413.232, 628.910
1414.423, 625.039
1415.614, 699.242
1416.804, 705.746
1417.994, 380.828
1419.184, 616.445
1420.374, 502.598
1421.564, 263.367
1422.753, 802.453
1423.943, 11.496
1425.132, 855.828
1426.321, 640.234
1427.510, 153.621
1428.698, 517.215
1429.887, 204.723
1431.075, 356.305
1432.263, 1061.035
1433.451, 423.457
1434.639, 700.152
1435.827, 803.926
1437.014, 585.844
1438.201, 672.000
1439.388, 640.180
1440.575, 353.035
1441.762, 1118.004
1442.949, 833.250
1444.135, 468.125
1445.321, 1365.520
1446.507, 575.934
1447.693, 788.113
1448.879, 1409.410
1450.064, 812.953
1451.250, 1055.637
1452.435, 949.543
1453.620, 681.578
1454.805, 1294.660
1455.989, 878.258
1457.174, 659.359
1458.358, 1290.824
1459.542, 809.172
1460.726, 970.828
1461.910, 1151.754
1463.093, 690.266
1464.277, 981.027
1465.460, 982.973
1466.643, 533.352
1467.826, 954.887
1469.009, 836.449
1470.191, 617.227
1471.373, 1226.773
1472.556, 520.848
1473.738, 652.250
1474.919, 1200.727
1476.101, 369.395
1477.283, 300.633
1478.464, 971.664
1479.645, 142.840
1480.826, 794.473
1482.007, 466.078
1483.187, 347.914
1484.368, 830.184
1485.548, 322.645
1486.728, 745.230
1487.908, 777.797
1489.088, 300.336
1490.268, 273.027
1491.447, 795.867
1492.626, 228.977
1493.805, 372.242
1494.984, 385.684
1496.163, 289.383
1497.341, 693.750
1498.520, 168.652
1499.698, 304.023
1500.876, 379.711
1502.054, 156.047
1503.232, 222.918
1504.409, 470.371
1505.586, 1.461
1506.763, 377.547
1507.940, 237.547
1509.117, 58.711
1510.294, 611.180
1511.470, 245.199
1512.647, 121.090
1513.823, 817.445
1514.999, 16.766
1516.174, 535.016
1517.350, 335.820
1518.526, 2.223
1519.701, 0.000
##END=



