##NAMES=Natrolite
##RRUFFID=R060561
##IDEAL CHEMISTRY=Na_2_(Si_3_Al_2_)O_10_&#183;2H_2_O
##LOCALITY=California, USA
##OWNER=RRUFF
##SOURCE=Gemological Institute of America
##DESCRIPTION=White fragment
##STATUS=The identification of this mineral has been confirmed by X-ray diffraction and chemical analysis
##URL=rruff.info/R060561
##MEASURED CHEMISTRY=Na_2.00_(Si_3.00_Al_2.00_)O_10_Â·2H_2_O
##PIN_ID=L00568
##ORIENTATION=Laser parallel to b* (0 1 0). Fiducial mark perpendicular to laser is parallel to c [0 0 1]
92.17800, 0.0000000E+00
93.41300, 64.85596
94.64800, 126.0388
95.88300, 173.6904
97.11800, 55.09692
98.35200, 9.124146
99.58700, 70.49115
100.8210, 8.708374
102.0550, 214.7345
103.2890, 1011.600
104.5220, 2079.863
105.7560, 5471.659
106.9890, 13739.26
108.2230, 26284.04
109.4560, 23116.49
110.6890, 7072.142
111.9210, 3316.636
113.1540, 2419.658
114.3870, 2340.922
115.6190, 2199.162
116.8510, 2018.142
118.0830, 2337.646
119.3150, 2523.485
120.5470, 2903.487
121.7780, 3499.503
123.0100, 3523.395
124.2410, 3246.042
125.4720, 2889.336
126.7030, 2670.176
127.9340, 2786.475
129.1640, 3086.208
130.3950, 5007.354
131.6250, 4177.845
132.8550, 4741.614
134.0850, 5345.581
135.3150, 5980.652
136.5450, 6601.750
137.7750, 7365.805
139.0040, 8184.760
140.2330, 9403.562
141.4620, 10395.17
142.6910, 11241.53
143.9200, 11627.63
145.1490, 11079.41
146.3770, 9745.859
147.6060, 8462.941
148.8340, 7326.638
150.0620, 6809.921
151.2900, 6471.770
152.5170, 6648.168
153.7450, 7153.090
154.9720, 7818.527
156.2000, 8701.452
157.4270, 9804.860
158.6540, 11133.73
159.8810, 13049.05
161.1070, 15103.81
162.3340, 16586.00
163.5600, 16999.67
164.7860, 16164.40
166.0120, 14480.39
167.2380, 12434.87
168.4640, 10235.78
169.6890, 8689.187
170.9150, 7169.051
172.1400, 6086.304
173.3650, 5341.893
174.5900, 4676.586
175.8150, 4315.316
177.0400, 3785.108
178.2640, 3482.976
179.4880, 3223.936
180.7130, 3124.001
181.9370, 2906.179
183.1600, 2745.480
184.3840, 2661.913
185.6080, 2671.481
186.8310, 2580.191
188.0540, 2491.048
189.2770, 2532.054
190.5000, 2575.212
191.7230, 2588.525
192.9460, 2690.995
194.1680, 2807.622
195.3910, 3099.408
196.6130, 3542.353
197.8350, 4063.458
199.0570, 3640.724
200.2780, 3627.149
201.5000, 3745.734
202.7210, 3691.479
203.9420, 3472.383
205.1640, 3586.443
206.3840, 3756.659
207.6050, 3779.030
208.8260, 3662.555
210.0460, 3390.232
211.2670, 3131.061
212.4870, 2735.037
213.7070, 2423.164
214.9270, 2097.438
216.1460, 1905.859
217.3660, 1819.424
218.5850, 1670.135
219.8050, 1462.987
221.0240, 1337.980
222.2430, 1261.115
223.4610, 1168.389
224.6800, 1163.802
225.8980, 1056.352
227.1170, 1022.038
228.3350, 982.8604
229.5530, 1050.816
230.7710, 1083.905
231.9880, 1251.125
233.2060, 1329.475
234.4230, 1503.662
235.6400, 1515.238
236.8570, 1737.387
238.0740, 2030.369
239.2910, 2365.666
240.5080, 2640.820
241.7240, 2869.061
242.9400, 2717.418
244.1570, 2108.062
245.3730, 1782.616
246.5880, 1335.397
247.8040, 1089.898
249.0190, 901.9663
250.2350, 743.0376
251.4500, 650.6289
252.6650, 533.8359
253.8800, 539.1313
255.0950, 570.5820
256.3090, 502.0210
257.5240, 456.8169
258.7380, 513.9521
259.9520, 370.4097
261.1660, 472.1733
262.3800, 446.2290
263.5930, 378.5645
264.8070, 412.1675
266.0200, 409.0264
267.2330, 412.1318
268.4460, 385.4741
269.6590, 425.0444
270.8720, 442.8340
272.0850, 461.8359
273.2970, 482.0425
274.5090, 412.4468
275.7210, 396.0420
276.9330, 429.8223
278.1450, 402.7808
279.3570, 530.9121
280.5680, 444.2104
281.7790, 469.6709
282.9910, 441.2891
284.2020, 550.0596
285.4120, 519.9790
286.6230, 597.0439
287.8340, 701.2500
289.0440, 617.5942
290.2540, 802.0728
291.4640, 811.6831
292.6740, 830.4219
293.8840, 1066.287
295.0940, 1696.274
296.3030, 1477.383
297.5120, 1699.608
298.7210, 2094.950
299.9300, 2243.405
301.1390, 2642.970
302.3480, 3062.643
303.5560, 3629.423
304.7650, 4324.317
305.9730, 5013.310
307.1810, 5375.405
308.3890, 4916.598
309.5970, 4003.889
310.8040, 2971.271
312.0120, 2271.737
313.2190, 1581.290
314.4260, 1059.925
315.6330, 699.6392
316.8400, 646.4326
318.0460, 324.3027
319.2530, 315.2480
320.4590, 364.2690
321.6650, 375.3647
322.8710, 434.5352
324.0770, 285.7798
325.2830, 415.1001
326.4880, 457.4937
327.6940, 485.9604
328.8990, 526.5015
330.1040, 658.1147
331.3090, 798.8101
332.5140, 946.5771
333.7180, 864.4160
334.9230, 966.3257
336.1270, 1004.306
337.3310, 1003.355
338.5350, 1260.474
339.7390, 1198.662
340.9430, 1306.917
342.1460, 1421.241
343.3500, 1441.630
344.5530, 1645.087
345.7560, 1683.610
346.9590, 1519.198
348.1620, 1528.851
349.3640, 1556.568
350.5670, 1572.362
351.7690, 1829.220
352.9710, 2023.154
354.1730, 2195.171
355.3750, 2414.256
356.5760, 2624.402
357.7780, 2882.608
358.9790, 3107.875
360.1800, 3446.212
361.3810, 3369.607
362.5820, 3088.065
363.7830, 2657.578
364.9830, 2120.150
366.1840, 1586.779
367.3840, 1116.462
368.5840, 827.2021
369.7840, 447.9961
370.9840, 363.8550
372.1830, 155.7686
373.3830, 8.264160
374.5820, 83.25244
375.7810, 196.2109
376.9800, 188.1641
378.1790, 211.0786
379.3780, 279.0220
380.5760, 282.0605
381.7750, 338.1904
382.9730, 419.4951
384.1710, 233.8555
385.3690, 370.1943
386.5660, 282.6040
387.7640, 302.0303
388.9610, 384.4951
390.1590, 288.0396
391.3560, 278.6196
392.5530, 312.2451
393.7500, 205.9365
394.9460, 145.6475
396.1430, 227.3564
397.3390, 80.10107
398.5350, 12.17969
399.7310, 139.5200
400.9270, 227.9370
402.1230, 492.4297
403.3180, 755.9966
404.5140, 1073.636
405.7090, 1261.348
406.9040, 1688.128
408.0990, 1983.979
409.2930, 2483.896
410.4880, 2845.882
411.6820, 3302.931
412.8770, 3491.045
414.0710, 3790.222
415.2650, 3699.462
416.4590, 3597.764
417.6520, 3242.126
418.8460, 2787.548
420.0390, 2540.029
421.2320, 2159.569
422.4250, 1955.166
423.6180, 1865.820
424.8110, 1848.529
426.0030, 1876.294
427.1960, 2138.114
428.3880, 2320.988
429.5800, 2768.915
430.7720, 3611.896
431.9640, 4387.928
433.1550, 5303.012
434.3470, 6564.148
435.5380, 7915.334
436.7290, 9095.569
437.9200, 10856.86
439.1110, 13021.19
440.3020, 15400.57
441.4920, 17693.01
442.6820, 18232.49
443.8730, 17246.01
445.0630, 14554.58
446.2530, 11765.20
447.4420, 9087.999
448.6320, 6924.710
449.8210, 5383.464
451.0100, 4085.263
452.2000, 3215.104
453.3880, 2602.992
454.5770, 2176.921
455.7660, 1830.893
456.9540, 1644.908
458.1430, 1338.965
459.3310, 1259.064
460.5190, 1064.204
461.7070, 1133.386
462.8940, 1087.609
464.0820, 941.8740
465.2690, 911.1787
466.4560, 826.5298
467.6430, 902.9204
468.8300, 918.3535
470.0170, 878.8311
471.2040, 884.3564
472.3900, 967.9443
473.5760, 1002.474
474.7620, 1168.164
475.9480, 1150.906
477.1340, 1133.696
478.3200, 1251.542
479.5050, 1417.427
480.6900, 1287.350
481.8750, 1511.352
483.0600, 1498.400
484.2450, 1551.512
485.4300, 1750.694
486.6140, 1746.926
487.7990, 1912.207
488.9830, 2205.535
490.1670, 2064.900
491.3510, 2273.309
492.5350, 2321.633
493.7180, 2464.136
494.9020, 2815.706
496.0850, 2922.554
497.2680, 3185.626
498.4510, 3489.294
499.6340, 3820.029
500.8160, 4141.801
501.9990, 4538.022
503.1810, 4840.940
504.3630, 5220.131
505.5450, 5779.055
506.7270, 6203.036
507.9090, 6741.033
509.0900, 7426.068
510.2720, 7826.138
511.4530, 8346.238
512.6340, 9067.230
513.8150, 9531.730
514.9950, 10380.92
516.1760, 10843.03
517.3560, 11600.86
518.5370, 12255.16
519.7170, 13140.12
520.8970, 15156.91
522.0770, 16418.61
523.2560, 18648.54
524.4360, 21658.13
525.6150, 25269.14
526.7940, 29156.08
527.9730, 33442.91
529.1520, 38185.18
530.3310, 43616.80
531.5090, 49607.68
532.6870, 53880.50
533.8660, 55940.79
535.0440, 53302.19
536.2210, 47549.14
537.3990, 39346.09
538.5770, 31374.90
539.7540, 24445.08
540.9310, 18719.55
542.1080, 14157.44
543.2850, 11149.35
544.4620, 8900.301
545.6390, 7207.285
546.8150, 5880.294
547.9920, 4919.338
549.1680, 3984.410
550.3440, 3402.513
551.5190, 2940.645
552.6950, 2742.807
553.8710, 2282.997
555.0460, 2103.216
556.2210, 1795.462
557.3960, 1639.736
558.5710, 1452.038
559.7460, 1390.367
560.9200, 1056.722
562.0950, 1085.104
563.2690, 1001.511
564.4430, 906.9448
565.6170, 783.4043
566.7910, 814.8882
567.9640, 566.3965
569.1380, 669.9292
570.3110, 586.4863
571.4840, 524.0674
572.6570, 508.6714
573.8300, 344.2988
575.0030, 453.9487
576.1750, 415.6211
577.3470, 187.3164
578.5200, 232.0327
579.6920, 290.7715
580.8630, 194.5312
582.0350, 197.3115
583.2070, 200.1133
584.3780, 109.9346
585.5490, 100.7769
586.7200, 182.6382
587.8910, 14.47998
589.0620, 130.4067
590.2330, 130.3120
591.4030, 170.2363
592.5730, 195.1792
593.7430, 192.1396
594.9130, 343.1182
596.0830, 374.1147
597.2530, 283.1279
598.4220, 416.1572
599.5920, 441.2041
600.7610, 326.2681
601.9300, 352.3472
603.0990, 310.7241
604.2670, 213.8350
605.4360, 277.9619
606.6040, 200.4502
607.7720, 64.63721
608.9400, 74.50293
610.1080, 61.86572
611.2760, 49.04688
612.4440, 141.6846
613.6110, 28.58301
614.7780, 106.9019
615.9450, 27.54590
617.1120, 91.18555
618.2790, 243.4727
619.4460, 72.28711
620.6120, 150.1992
621.7780, 237.1401
622.9450, 141.0483
624.1110, 322.5088
625.2760, 243.2178
626.4420, 170.7725
627.6080, 150.4419
628.7730, 89.49365
629.9380, 97.55957
631.1030, 97.16406
632.2680, 33.91309
633.4330, 48.12549
634.5970, 37.10791
635.7620, 59.77637
636.9260, 7.679199
638.0900, 46.94531
639.2540, 122.4102
640.4180, 63.32129
641.5810, 21.95068
642.7450, 37.11914
643.9080, 23.11133
645.0710, 115.2124
646.2340, 41.67480
647.3970, 174.9331
648.5590, 81.10986
649.7220, 134.3530
650.8840, 72.77051
652.0460, 12.51318
653.2080, 22.32373
654.3700, 57.91797
655.5320, 63.57031
656.6930, 45.73096
657.8550, 50.66260
659.0160, 106.6313
660.1770, 19.68018
661.3380, 28.96533
662.4990, 139.0967
663.6590, 57.28369
664.8200, 133.1362
665.9800, 100.6626
667.1400, 31.80811
668.3000, 30.58057
669.4600, 19.00781
670.6190, 31.66455
671.7790, 184.4102
672.9380, 58.22314
674.0970, 138.0996
675.2560, 74.04785
676.4150, 167.0439
677.5740, 192.2754
678.7320, 314.3594
679.8900, 291.4639
681.0490, 354.5713
682.2070, 392.6714
683.3640, 587.7632
684.5220, 592.8481
685.6800, 675.9248
686.8370, 819.9927
687.9940, 916.0522
689.1510, 931.1030
690.3080, 1122.146
691.4650, 1116.178
692.6220, 1456.201
693.7780, 1491.215
694.9340, 1507.219
696.0900, 1767.212
697.2460, 1959.195
698.4020, 2062.167
699.5580, 2262.128
700.7130, 2271.079
701.8680, 2382.999
703.0240, 2427.215
704.1790, 2404.867
705.3330, 2254.037
706.4880, 2164.213
707.6430, 1985.743
708.7970, 1909.401
709.9510, 1681.255
711.1050, 1533.096
712.2590, 1494.923
713.4130, 1341.737
714.5660, 1271.538
715.7200, 1276.324
716.8730, 1125.097
718.0260, 1154.602
719.1790, 1258.490
720.3320, 1326.797
721.4840, 1360.683
722.6370, 1298.151
723.7890, 1328.797
724.9410, 1302.952
726.0930, 1261.681
727.2450, 1265.229
728.3960, 1146.435
729.5480, 1122.854
730.6990, 1042.201
731.8500, 967.8032
733.0010, 740.2012
734.1520, 445.7417
735.3030, 540.2656
736.4530, 380.7720
737.6040, 312.2622
738.7540, 272.7344
739.9040, 195.1895
741.0540, 115.6270
742.2030, 244.0439
743.3530, 213.4424
744.5020, 38.82324
745.6520, 162.1743
746.8010, 81.50586
747.9490, 49.81299
749.0980, 17.09033
750.2470, 41.66797
751.3950, 35.50586
752.5440, 23.25000
753.6920, 9.166016
754.8400, 7.867188
755.9870, 18.14062
757.1350, 99.79541
758.2820, 93.70654
759.4300, 106.4072
760.5770, 6.375488
761.7240, 49.88574
762.8710, 85.22119
764.0170, 2.649902
765.1640, 4.032227
766.3100, 6.439941
767.4560, 91.86572
768.6020, 17.26514
769.7480, 38.37646
770.8940, 92.05518
772.0400, 45.31787
773.1850, 21.51562
774.3300, 1.439453
775.4750, 9.313477
776.6200, 84.34424
777.7650, 32.66602
778.9090, 24.32568
780.0540, 76.19141
781.1980, 28.26660
782.3420, 73.82178
783.4860, 142.6460
784.6300, 1.578613
785.7740, 25.51416
786.9170, 23.69824
788.0600, 162.8364
789.2030, 120.5239
790.3460, 102.2920
791.4890, 55.22266
792.6320, 52.81641
793.7740, 81.52783
794.9170, 101.1104
796.0590, 133.5933
797.2010, 223.7607
798.3430, 231.7954
799.4850, 114.4727
800.6260, 203.7451
801.7670, 164.1138
802.9090, 259.5264
804.0500, 334.2417
805.1910, 166.5220
806.3310, 191.8428
807.4720, 259.5889
808.6120, 262.4971
809.7530, 348.9189
810.8930, 278.2104
812.0330, 238.4541
813.1720, 254.5952
814.3120, 132.7129
815.4510, 191.8037
816.5910, 252.8706
817.7300, 358.9131
818.8690, 184.9302
820.0080, 365.9233
821.1460, 206.8916
822.2850, 203.8350
823.4230, 251.7544
824.5610, 298.6489
825.6990, 340.5195
826.8370, 349.3652
827.9750, 216.1865
829.1120, 326.9834
830.2500, 340.7554
831.3870, 290.5034
832.5240, 211.2271
833.6610, 375.9268
834.7980, 286.6021
835.9340, 312.2529
837.0700, 408.8799
838.2070, 266.4829
839.3430, 430.0615
840.4790, 403.6162
841.6140, 264.1470
842.7500, 341.6538
843.8850, 339.1362
845.0210, 301.5957
846.1560, 429.0303
847.2910, 407.4419
848.4260, 407.8306
849.5600, 360.1943
850.6950, 244.5347
851.8290, 501.8525
852.9630, 458.1460
854.0970, 440.4165
855.2310, 480.6641
856.3650, 462.8877
857.4980, 395.0884
858.6310, 583.2656
859.7650, 666.4199
860.8980, 414.5518
862.0310, 633.6606
863.1630, 552.7461
864.2960, 464.8164
865.4280, 435.8633
866.5600, 467.8882
867.6920, 410.8901
868.8240, 581.8701
869.9560, 429.8281
871.0880, 407.7637
872.2190, 371.6777
873.3500, 453.5693
874.4810, 420.4390
875.6120, 321.2861
876.7430, 314.1113
877.8740, 327.6338
879.0040, 384.4160
880.1340, 395.1787
881.2650, 491.5728
882.3950, 296.2622
883.5240, 275.2651
884.6540, 294.7646
885.7830, 275.4390
886.9130, 178.6514
888.0420, 299.7617
889.1710, 206.1016
890.3000, 188.2759
891.4280, 231.4453
892.5570, 179.9692
893.6850, 177.9600
894.8130, 178.8452
895.9420, 287.6938
897.0690, 161.5713
898.1970, 150.8882
899.3250, 173.9521
900.4520, 89.16064
901.5790, 167.2451
902.7060, 140.9375
903.8330, 170.6099
904.9600, 172.7344
906.0870, 152.5293
907.2130, 138.1855
908.3390, 163.1035
909.4650, 147.4316
910.5910, 52.96338
911.7170, 42.95410
912.8430, 84.09180
913.9680, 71.77295
915.0930, 110.6284
916.2180, 27.11816
917.3430, 89.67383
918.4680, 83.10742
919.5930, 143.1680
920.7170, 58.57031
921.8420, 0.2519530
922.9660, 1.014648
924.0900, 38.96289
925.2140, 78.76855
926.3370, 65.64160
927.4610, 55.16016
928.5840, 19.89160
929.7070, 41.88965
930.8310, 70.56543
931.9530, 42.28125
933.0760, 87.38965
934.1990, 42.50781
935.3210, 17.11035
936.4430, 173.2266
937.5650, 69.21094
938.6870, 32.65137
939.8090, 7.496094
940.9310, 87.57520
942.0520, 22.28223
943.1730, 22.15332
944.2940, 3.961914
945.4150, 16.06836
946.5360, 25.38086
947.6570, 82.46484
948.7770, 117.6387
949.8970, 131.8926
951.0180, 63.59180
952.1370, 102.1240
953.2570, 97.85547
954.3770, 91.82031
955.4960, 145.3896
956.6160, 89.09961
957.7350, 141.7100
958.8540, 150.8359
959.9730, 179.8545
961.0910, 165.7646
962.2100, 164.9893
963.3280, 207.2998
964.4460, 225.7373
965.5640, 206.6631
966.6820, 236.8994
967.8000, 179.0186
968.9180, 198.4512
970.0350, 251.2266
971.1520, 234.2812
972.2690, 265.2666
973.3860, 277.9922
974.5030, 207.7412
975.6190, 281.7695
976.7360, 293.4014
977.8520, 240.9443
978.9680, 310.0146
980.0840, 266.3818
981.2000, 262.9717
982.3160, 289.8311
983.4310, 285.1172
984.5460, 330.1543
985.6610, 327.2568
986.7760, 320.0723
987.8910, 331.5742
989.0060, 290.1133
990.1200, 346.8896
991.2350, 336.5605
992.3490, 359.5791
993.4630, 390.1562
994.5760, 362.8193
995.6900, 396.7900
996.8040, 335.7012
997.9170, 354.1367
999.0300, 364.0049
1000.143, 424.7109
1001.256, 364.0674
1002.369, 380.2871
1003.481, 429.3516
1004.594, 432.5029
1005.706, 454.7881
1006.818, 420.3906
1007.930, 439.2402
1009.042, 443.4121
1010.153, 498.2910
1011.264, 493.1006
1012.376, 490.0059
1013.487, 475.3320
1014.598, 467.2373
1015.708, 496.1494
1016.819, 635.0615
1017.929, 651.9766
1019.040, 757.8984
1020.150, 674.3496
1021.260, 844.3047
1022.370, 933.2676
1023.479, 891.2510
1024.589, 993.2510
1025.698, 1638.438
1026.807, 1201.130
1027.916, 1508.165
1029.025, 1692.205
1030.133, 2020.924
1031.242, 2680.141
1032.350, 3317.955
1033.458, 3934.227
1034.566, 4467.709
1035.674, 5843.203
1036.782, 6372.207
1037.890, 7140.423
1038.997, 7863.648
1040.104, 8129.902
1041.211, 7535.161
1042.318, 6664.430
1043.425, 5253.707
1044.531, 4279.730
1045.638, 3286.796
1046.744, 2674.141
1047.850, 2112.986
1048.956, 1718.363
1050.061, 1315.496
1051.167, 1153.890
1052.272, 1104.288
1053.378, 978.8857
1054.483, 974.9658
1055.588, 692.9297
1056.692, 599.4463
1057.797, 716.8604
1058.901, 399.3115
1060.006, 398.1006
1061.110, 474.5449
1062.214, 510.8486
1063.318, 423.9756
1064.421, 499.4658
1065.525, 459.9072
1066.628, 546.4062
1067.731, 520.8408
1068.834, 579.2012
1069.937, 549.7129
1071.040, 653.2295
1072.142, 716.3174
1073.244, 768.6387
1074.347, 881.1650
1075.449, 984.7617
1076.550, 943.2178
1077.652, 1194.547
1078.754, 1128.215
1079.855, 1243.776
1080.956, 1371.344
1082.057, 1329.928
1083.158, 1256.517
1084.259, 1243.107
1085.359, 1190.126
1086.460, 1136.726
1087.560, 1042.337
1088.660, 765.9443
1089.760, 703.5547
1090.860, 765.1699
1091.959, 632.7881
1093.059, 702.4111
1094.158, 576.0371
1095.257, 355.6660
1096.356, 425.2998
1097.455, 456.9375
1098.553, 368.5801
1099.652, 452.3389
1100.750, 441.0010
1101.848, 359.6660
1102.946, 472.3359
1104.044, 432.0107
1105.141, 315.6895
1106.239, 280.3721
1107.336, 447.0596
1108.433, 240.7510
1109.530, 395.4473
1110.627, 354.1484
1111.724, 314.8525
1112.820, 297.5615
1113.917, 420.2764
1115.013, 274.9941
1116.109, 255.7178
1117.205, 441.4463
1118.300, 215.1797
1119.396, 391.9219
1120.491, 266.6631
1121.586, 254.4102
1122.681, 234.1621
1123.776, 164.9346
1124.871, 127.7100
1125.965, 18.49023
1127.060, 220.2764
1128.154, 278.0664
1129.248, 188.8613
1130.342, 178.6621
1131.436, 94.46875
1132.529, 207.2793
1133.623, 52.09375
1134.716, 4.085938
1135.809, 87.73730
1136.902, 131.5664
1137.995, 184.3984
1139.087, 84.23633
1140.180, 127.0811
1141.272, 17.92969
1142.364, 222.7832
1143.456, 69.64160
1144.548, 11.49512
1145.639, 23.36914
1146.731, 161.2383
1147.822, 7.113281
1148.913, 34.99316
1150.004, 110.8789
1151.095, 13.23242
1152.186, 28.65820
1153.276, 74.55273
1154.366, 9.452148
1155.457, 43.35742
1156.546, 44.73242
1157.636, 15.83789
1158.726, 92.05469
1159.815, 14.95215
1160.905, 30.14453
1161.994, 154.7500
1163.083, 20.35059
1164.172, 64.54395
1165.261, 48.44336
1166.349, 8.347656
1167.437, 17.74512
1168.526, 162.1592
1169.614, 82.06836
1170.702, 8.980469
1171.789, 161.8965
1172.877, 15.81543
1173.964, 36.73926
1175.051, 19.33398
1176.138, 128.5908
1177.225, 80.51855
1178.312, 10.54980
1179.399, 15.37988
1180.485, 107.3125
1181.571, 84.25098
1182.657, 86.19238
1183.743, 41.86230
1184.829, 58.06543
1185.915, 61.01172
1187.000, 10.03516
1188.085, 31.91602
1189.171, 54.88086
1190.255, 24.84961
1191.340, 128.8359
1192.425, 53.82617
1193.509, 33.17871
1194.594, 57.81250
1195.678, 171.8057
1196.762, 28.80371
1197.846, 17.80371
1198.929, 50.81641
1200.013, 33.83398
1201.096, 23.85449
1202.179, 61.87695
1203.262, 6.909180
1204.345, 36.94629
1205.428, 118.0342
1206.510, 14.91992
1207.593, 30.12695
1208.675, 85.86914
1209.757, 17.86035
1210.839, 196.1416
1211.920, 36.00098
1213.002, 153.0078
1214.083, 184.0166
1215.164, 70.97266
1216.245, 26.00293
1217.326, 9.981445
1218.407, 24.96191
1219.488, 75.94434
1220.568, 167.9297
1221.648, 112.9160
1222.728, 24.90625
1223.808, 20.89844
1224.888, 58.89355
1225.967, 22.89160
1227.047, 23.89258
1228.126, 15.89355
1229.205, 7.565430
1230.284, 181.5713
1231.363, 47.57910
1232.441, 103.5889
1233.520, 139.6006
1234.598, 131.6143
1235.676, 81.63086
1236.754, 14.64941
1237.832, 78.66992
1238.910, 77.69336
1239.987, 115.7188
1241.064, 200.7471
1242.141, 110.7773
1243.218, 156.8086
1244.295, 210.8428
1245.372, 64.96875
1246.448, 115.0068
1247.525, 107.0469
1248.601, 14.08984
1249.677, 27.13379
1250.753, 192.1797
1251.828, 112.2285
1252.904, 218.6943
1253.979, 51.75000
1255.054, 33.80762
1256.129, 262.8672
1257.204, 224.9287
1258.279, 103.9922
1259.353, 39.05762
1260.428, 146.1240
1261.502, 66.19336
1262.576, 148.2656
1263.650, 226.3398
1264.724, 126.2852
1265.797, 83.57324
1266.871, 136.0234
1267.944, 166.5850
1269.017, 176.4385
1270.090, 103.5234
1271.162, 137.4814
1272.235, 128.6104
1273.307, 117.9932
1274.380, 166.5908
