##NAMES=Natrolite
##RRUFFID=R040102
##IDEAL CHEMISTRY=Na_2_(Si_3_Al_2_)O_10_&#183;2H_2_O
##LOCALITY=Ross' Quarry, Northland, New Zealand
##OWNER=RRUFF
##SOURCE=University of Arizona Mineral Museum
##DESCRIPTION=Mass of colorless acicular crystals
##STATUS=The identification of this mineral has been confirmed by X-ray diffraction and chemical analysis
##URL=rruff.info/R040102
##MEASURED CHEMISTRY=(Na_0.92_Ca_0.02_)_2_(Si_3.03_Al_1.99_)O_10_Â·2H_2_O
##PIN_ID=M00475
##ORIENTATION=Laser parallel to -a* (-1 0 0). Fiducial mark perpendicular to laser is parallel to b [0 1 0]
87.519, 0.000
88.907, 103.484
90.296, 3.381
91.684, 18.537
93.072, 151.903
94.460, 217.471
95.848, 240.454
97.236, 301.102
98.623, 402.542
100.010, 379.639
101.397, 459.331
102.784, 523.620
104.171, 541.663
105.557, 726.781
106.943, 1042.685
108.329, 1546.118
109.715, 1792.492
111.100, 1985.627
112.486, 2571.858
113.871, 3410.688
115.256, 4258.729
116.641, 4814.686
118.025, 5086.362
119.410, 5558.583
120.794, 6391.198
122.178, 8084.093
123.562, 9397.463
124.945, 9672.874
126.329, 8478.803
127.712, 6734.894
129.095, 5284.501
130.478, 4209.747
131.860, 3578.567
133.243, 3224.113
134.625, 3294.485
136.007, 3393.729
137.389, 3824.072
138.770, 4110.665
140.152, 4425.469
141.533, 4910.495
142.914, 5100.771
144.295, 5360.358
145.675, 5267.736
147.056, 5208.327
148.436, 4740.672
149.816, 4175.463
151.196, 3611.733
152.575, 3385.512
153.955, 3707.824
155.334, 4555.697
156.713, 4884.148
158.092, 5931.846
159.471, 6798.989
160.849, 8251.954
162.227, 9123.789
163.606, 9659.839
164.983, 9312.765
166.361, 8356.229
167.739, 7307.099
169.116, 6037.911
170.493, 5117.770
171.870, 4404.060
173.247, 4014.449
174.623, 3719.760
175.999, 3426.709
177.375, 3012.310
178.751, 2712.180
180.127, 2639.613
181.503, 2495.874
182.878, 2491.226
184.253, 2641.662
185.628, 2666.230
187.003, 2847.246
188.377, 2651.470
189.751, 2382.344
191.126, 1917.671
192.500, 1636.294
193.873, 1406.687
195.247, 1215.401
196.620, 1374.149
197.993, 1356.925
199.366, 1582.723
200.739, 1671.571
202.112, 1994.814
203.484, 2266.615
204.856, 2644.612
206.228, 2922.436
207.600, 2951.437
208.972, 2858.991
210.343, 2805.534
211.714, 2599.938
213.085, 1715.540
214.456, 2058.974
215.827, 1644.353
217.197, 1252.676
218.567, 1290.945
219.937, 1198.160
221.307, 1100.319
222.677, 982.424
224.046, 798.476
225.416, 659.472
226.785, 399.415
228.154, 216.304
229.522, 136.440
230.891, 23.367
232.259, 21.996
233.627, 75.448
234.995, 41.720
236.363, 53.883
237.730, 102.058
239.098, 192.383
240.465, 327.780
241.832, 324.107
243.198, 327.461
244.565, 240.267
245.931, 67.245
247.297, 63.889
248.663, 123.225
250.029, 231.111
251.395, 242.252
252.760, 341.087
254.125, 316.231
255.490, 246.724
256.855, 268.330
258.220, 235.336
259.584, 263.110
260.948, 139.720
262.312, 132.183
263.676, 40.535
265.040, 26.214
266.403, 12.946
267.766, 80.952
269.129, 168.903
270.492, 308.896
271.855, 375.919
273.217, 414.959
274.580, 506.002
275.942, 494.035
277.304, 522.046
278.665, 427.030
280.027, 429.978
281.388, 261.886
282.749, 186.748
284.110, 97.559
285.471, 129.314
286.831, 157.012
288.192, 130.651
289.552, 196.221
290.912, 242.720
292.272, 244.148
293.631, 289.490
294.990, 324.726
296.350, 329.855
297.709, 303.867
299.067, 400.771
300.426, 481.570
301.784, 603.269
303.143, 797.872
304.501, 977.381
305.859, 1281.804
307.216, 1371.137
308.574, 1237.383
309.931, 1001.543
311.288, 681.623
312.645, 427.619
314.002, 225.537
315.358, 141.373
316.714, 87.128
318.070, 69.799
319.426, 53.390
320.782, 69.125
322.138, 134.317
323.493, 167.606
324.848, 263.691
326.203, 389.580
327.558, 527.397
328.912, 705.154
330.267, 757.854
331.621, 959.412
332.975, 1110.664
334.329, 985.494
335.682, 917.924
337.036, 781.998
338.389, 601.773
339.742, 568.373
341.095, 499.884
342.448, 478.353
343.800, 460.792
345.152, 518.202
346.504, 546.583
347.856, 507.935
349.208, 586.247
350.560, 609.513
351.911, 757.731
353.262, 765.909
354.613, 879.048
355.964, 951.151
357.314, 1124.219
358.665, 1155.254
360.015, 1163.256
361.365, 1215.226
362.715, 1076.162
364.064, 955.063
365.414, 845.917
366.763, 582.705
368.112, 510.422
369.461, 391.088
370.809, 357.713
372.158, 252.304
373.506, 243.858
374.854, 149.375
376.202, 112.853
377.550, 128.290
378.897, 5.687
380.245, 80.029
381.592, 72.328
382.939, 38.584
384.285, 97.792
385.632, 4.961
386.978, 28.075
388.324, 53.141
389.670, 28.162
391.016, 81.859
392.362, 4.177
393.707, 43.187
395.053, 86.235
396.398, 58.879
397.742, 77.507
399.087, 58.291
400.432, 157.892
401.776, 119.908
403.120, 203.325
404.464, 255.673
405.808, 307.972
407.151, 485.914
408.494, 527.741
409.838, 648.366
411.180, 825.259
412.523, 838.375
413.866, 874.793
415.208, 872.976
416.550, 854.869
417.892, 772.787
419.234, 790.493
420.576, 745.218
421.917, 678.139
423.259, 832.738
424.600, 801.738
425.941, 876.413
427.281, 1034.872
428.622, 1173.111
429.962, 1457.431
431.302, 1744.349
432.642, 2060.797
433.982, 2799.354
435.321, 3459.869
436.661, 4681.343
438.000, 5728.776
439.339, 7425.165
440.678, 8804.516
442.016, 9883.822
443.355, 10232.641
444.693, 9571.089
446.031, 8298.788
447.369, 6886.718
448.707, 5641.820
450.044, 4523.641
451.381, 3593.337
452.718, 2861.377
454.055, 2182.695
455.392, 1788.450
456.729, 1471.387
458.065, 1122.928
459.401, 1097.603
460.737, 868.407
462.073, 770.719
463.409, 733.299
464.744, 640.405
466.079, 664.796
467.414, 572.495
468.749, 661.207
470.084, 627.864
471.418, 669.254
472.753, 734.857
474.087, 717.730
475.421, 874.417
476.754, 916.015
478.088, 1011.075
479.421, 1204.171
480.754, 1283.391
482.087, 1382.390
483.420, 1391.324
484.753, 1466.265
486.085, 1549.145
487.417, 1527.074
488.750, 1593.349
490.081, 1561.333
491.413, 1583.795
492.745, 1568.551
494.076, 1491.736
495.407, 1500.928
496.738, 1370.177
498.069, 1408.364
499.399, 1352.057
500.730, 1305.074
502.060, 1334.664
503.390, 1383.776
504.720, 1474.771
506.049, 1495.938
507.379, 1578.057
508.708, 1739.200
510.037, 1818.936
511.366, 1981.846
512.694, 2081.937
514.023, 2335.898
515.351, 2430.753
516.679, 2731.630
518.007, 3033.365
519.335, 3075.306
520.663, 3427.015
521.990, 3881.708
523.317, 4425.382
524.644, 5158.042
525.971, 6189.689
527.298, 7761.320
528.624, 9578.941
529.951, 12006.281
531.277, 14303.472
532.603, 16410.229
533.928, 18086.934
535.254, 17033.033
536.579, 15628.759
537.904, 12884.660
539.229, 10017.142
540.554, 7912.368
541.879, 6095.437
543.203, 4823.555
544.527, 3819.062
545.851, 3051.529
547.175, 2629.227
548.499, 2103.833
549.822, 1753.543
551.146, 1542.776
552.469, 1255.220
553.792, 1153.622
555.115, 914.061
556.437, 892.144
557.759, 861.651
559.082, 668.942
560.404, 668.302
561.725, 585.339
563.047, 494.906
564.369, 427.683
565.690, 443.670
567.011, 394.091
568.332, 347.506
569.653, 403.946
570.973, 370.423
572.293, 344.968
573.614, 332.582
574.934, 301.290
576.253, 340.088
577.573, 288.956
578.892, 232.900
580.212, 286.922
581.531, 214.018
582.850, 217.158
584.168, 230.340
585.487, 230.538
586.805, 199.737
588.123, 148.946
589.441, 167.209
590.759, 185.350
592.077, 172.831
593.394, 214.010
594.711, 202.313
596.028, 287.485
597.345, 324.634
598.662, 290.272
599.978, 210.077
601.295, 202.397
602.611, 218.716
603.927, 140.849
605.242, 255.997
606.558, 112.311
607.873, 87.406
609.189, 130.780
610.504, 10.865
611.818, 67.209
613.133, 6.384
614.448, 70.980
615.762, 43.448
617.076, 43.454
618.390, 27.833
619.704, 19.941
621.017, 30.613
622.330, 14.294
623.644, 54.993
624.957, 18.395
626.269, 6.724
627.582, 11.980
628.895, 29.479
630.207, 12.759
631.519, 13.960
632.831, 7.948
634.143, 23.853
635.454, 49.599
636.765, 44.276
638.077, 29.544
639.388, 11.642
640.698, 6.592
642.009, 23.378
643.320, 5.651
644.630, 27.228
645.940, 30.781
647.250, 48.228
648.560, 5.181
649.869, 43.602
651.178, 26.437
652.488, 24.425
653.797, 5.403
655.105, 17.735
656.414, 16.344
657.722, 48.627
659.031, 13.458
660.339, 20.587
661.647, 44.947
662.954, 4.664
664.262, 11.456
665.569, 3.608
666.876, 18.490
668.183, 50.457
669.490, 3.750
670.797, 30.607
672.103, 51.197
673.410, 42.619
674.716, 100.925
676.022, 27.504
677.327, 182.122
678.633, 205.879
679.938, 139.737
681.243, 208.265
682.548, 207.697
683.853, 247.152
685.158, 272.099
686.462, 334.692
687.766, 349.999
689.071, 422.665
690.374, 440.062
691.678, 479.730
692.982, 548.792
694.285, 636.333
695.588, 630.939
696.891, 689.640
698.194, 746.256
699.497, 872.965
700.799, 916.478
702.101, 889.251
703.404, 1018.834
704.705, 983.330
706.007, 953.935
707.309, 1059.352
708.610, 898.056
709.911, 963.154
711.212, 855.737
712.513, 821.546
713.814, 840.032
715.114, 804.711
716.415, 839.199
717.715, 805.638
719.015, 831.376
720.314, 862.905
721.614, 872.588
722.913, 969.110
724.213, 929.632
725.512, 967.711
726.810, 985.052
728.109, 944.601
729.408, 982.213
730.706, 872.029
732.004, 762.062
733.302, 654.504
734.600, 580.763
735.897, 479.496
737.195, 385.829
738.492, 295.255
739.789, 325.757
741.086, 203.938
742.383, 242.351
743.679, 188.616
744.975, 133.115
746.272, 195.449
747.568, 44.574
748.863, 128.026
750.159, 83.087
751.454, 112.403
752.750, 164.570
754.045, 74.942
755.340, 127.274
756.634, 69.294
757.929, 68.489
759.223, 111.699
760.518, 107.621
761.812, 67.522
763.105, 135.693
764.399, 51.560
765.692, 147.736
766.986, 56.413
768.279, 40.592
769.572, 39.163
770.865, 24.548
772.157, 102.613
773.450, 52.052
774.742, 64.761
776.034, 36.863
777.326, 34.771
778.617, 35.972
779.909, 16.828
781.200, 20.320
782.491, 35.744
783.782, 24.831
785.073, 33.804
786.364, 21.164
787.654, 2.180
788.944, 36.592
790.234, 7.715
791.524, 52.694
792.814, 62.391
794.104, 30.163
795.393, 68.644
796.682, 80.454
797.971, 85.584
799.260, 12.384
800.549, 69.524
801.837, 71.435
803.125, 50.781
804.414, 5.505
805.701, 42.885
806.989, 36.210
808.277, 52.629
809.564, 9.630
810.851, 61.125
812.139, 45.335
813.425, 19.819
814.712, 21.406
815.999, 7.070
817.285, 33.189
818.571, 74.330
819.857, 8.143
821.143, 42.316
822.429, 27.145
823.714, 6.760
824.999, 43.155
826.284, 104.644
827.569, 3.200
828.854, 12.307
830.139, 32.716
831.423, 87.621
832.707, 52.151
833.991, 25.663
835.275, 0.155
836.559, 1.620
837.842, 1.059
839.126, 7.527
840.409, 76.856
841.692, 3.222
842.975, 83.437
844.257, 120.834
845.540, 51.910
846.822, 8.292
848.104, 79.473
849.386, 35.364
850.668, 42.755
851.949, 62.855
853.231, 37.062
854.512, 87.976
855.793, 24.997
857.074, 72.999
858.355, 94.989
859.635, 68.961
860.915, 144.917
862.196, 45.856
863.476, 6.777
864.755, 77.676
866.035, 22.560
867.314, 99.423
868.594, 52.271
869.873, 97.101
871.152, 106.913
872.430, 33.710
873.709, 81.489
874.987, 42.251
876.266, 77.995
877.544, 74.721
878.822, 3.446
880.099, 182.147
881.377, 58.833
882.654, 40.525
883.931, 107.198
885.208, 52.856
886.485, 70.499
887.762, 118.122
889.038, 27.266
890.315, 85.308
891.591, 58.866
892.867, 36.409
894.142, 113.934
895.418, 49.458
896.693, 80.966
897.969, 20.458
899.244, 55.933
900.519, 101.391
901.793, 18.542
903.068, 109.969
904.342, 42.248
905.616, 73.631
906.890, 20.012
908.164, 25.202
909.438, 95.548
910.711, 48.679
911.985, 40.787
913.258, 105.061
914.531, 110.300
915.804, 36.357
917.076, 108.612
918.349, 25.568
919.621, 178.792
920.893, 15.736
922.165, 84.595
923.437, 115.435
924.708, 24.215
925.980, 99.306
927.251, 84.181
928.522, 108.093
929.793, 70.878
931.064, 100.646
932.334, 111.404
933.604, 189.049
934.875, 131.731
936.145, 165.463
937.414, 96.888
938.684, 160.590
939.954, 131.227
941.223, 68.215
942.492, 153.893
943.761, 133.300
945.030, 270.022
946.298, 192.035
947.567, 95.047
948.835, 229.812
950.103, 171.643
951.371, 242.458
952.639, 255.802
953.906, 178.538
955.174, 319.270
956.441, 294.917
957.708, 304.013
958.975, 436.621
960.242, 394.261
961.508, 376.890
962.775, 523.144
964.041, 587.788
965.307, 682.359
966.573, 741.968
967.838, 758.424
969.104, 815.546
970.369, 664.291
971.634, 752.940
972.899, 727.210
974.164, 571.713
975.429, 750.149
976.693, 633.218
977.957, 675.704
979.222, 726.437
980.486, 556.317
981.749, 608.295
983.013, 645.981
984.276, 532.610
985.540, 548.082
986.803, 518.437
988.066, 583.102
989.328, 557.465
990.591, 503.559
991.853, 574.768
993.115, 518.312
994.377, 582.127
995.639, 597.791
996.901, 574.541
998.163, 695.957
999.424, 701.262
1000.685, 695.804
1001.946, 836.274
1003.207, 795.727
1004.468, 883.185
1005.728, 984.885
1006.988, 923.438
1008.248, 1121.792
1009.508, 1002.672
1010.768, 1046.235
1012.028, 1033.725
1013.287, 959.776
1014.547, 1018.164
1015.806, 945.499
1017.065, 913.279
1018.323, 854.606
1019.582, 807.605
1020.840, 934.006
1022.099, 868.775
1023.357, 912.745
1024.615, 896.069
1025.872, 954.893
1027.130, 1014.315
1028.387, 1181.929
1029.645, 1113.113
1030.902, 1364.029
1032.159, 1441.797
1033.415, 1618.681
1034.672, 1879.002
1035.928, 2080.183
1037.184, 2560.617
1038.440, 3107.036
1039.696, 3532.509
1040.952, 4376.603
1042.208, 4460.474
1043.463, 4306.327
1044.718, 3874.580
1045.973, 3206.624
1047.228, 2738.440
1048.483, 2174.860
1049.737, 1849.609
1050.991, 1579.982
1052.245, 1306.820
1053.499, 1290.519
1054.753, 1163.378
1056.007, 1039.911
1057.260, 1030.460
1058.514, 930.601
1059.767, 884.200
1061.020, 962.644
1062.273, 816.911
1063.525, 829.694
1064.778, 877.158
1066.030, 825.101
1067.282, 842.497
1068.534, 819.014
1069.786, 893.562
1071.037, 886.375
1072.289, 790.133
1073.540, 925.904
1074.791, 976.327
1076.042, 1008.871
1077.293, 1160.703
1078.543, 1056.026
1079.794, 1080.808
1081.044, 1246.257
1082.294, 1165.633
1083.544, 1217.647
1084.793, 1305.326
1086.043, 1251.983
1087.292, 1322.724
1088.542, 1260.094
1089.791, 1325.790
1091.040, 1411.665
1092.288, 1234.903
1093.537, 1419.640
1094.785, 1404.993
1096.033, 1243.538
1097.281, 1274.375
1098.529, 1146.735
1099.777, 912.549
1101.024, 928.091
1102.272, 753.762
1103.519, 778.694
1104.766, 641.039
1106.013, 583.572
1107.259, 702.597
1108.506, 437.925
1109.752, 500.853
1110.998, 519.180
1112.244, 379.532
1113.490, 378.428
1114.736, 357.733
1115.981, 389.376
1117.227, 391.952
1118.472, 309.583
1119.717, 336.303
1120.962, 306.713
1122.206, 253.209
1123.451, 339.641
1124.695, 271.195
1125.939, 247.447
1127.183, 277.050
1128.427, 235.285
1129.671, 221.804
1130.914, 288.413
1132.157, 77.625
1133.400, 211.578
1134.643, 187.134
1135.886, 180.890
1137.129, 247.408
1138.371, 198.592
1139.613, 180.678
1140.856, 181.854
1142.098, 111.010
1143.339, 140.869
1144.581, 30.526
1145.822, 70.914
1147.064, 167.786
1148.305, 15.925
1149.546, 87.209
1150.786, 110.093
1152.027, 76.208
1153.267, 124.868
1154.508, 13.614
1155.748, 194.062
1156.988, 79.585
1158.227, 31.052
1159.467, 123.980
1160.706, 116.912
1161.946, 17.917
1163.185, 158.234
1164.424, 31.121
1165.663, 47.281
1166.901, 105.647
1168.140, 20.748
1169.378, 171.659
1170.616, 72.279
1171.854, 33.334
1173.091, 156.364
1174.329, 48.414
1175.566, 104.240
1176.804, 93.586
1178.041, 57.174
1179.278, 119.572
1180.514, 89.542
1181.751, 84.743
1182.987, 123.126
1184.224, 2.730
1185.460, 108.882
1186.696, 182.950
1187.931, 9.237
1189.167, 162.314
1190.402, 36.600
1191.638, 14.124
1192.873, 178.625
1194.108, 49.890
1195.342, 9.617
1196.577, 140.467
1197.811, 3.020
1199.046, 126.395
1200.280, 60.336
1201.514, 10.127
1202.747, 59.439
1203.981, 75.177
1205.214, 101.690
1206.447, 151.048
1207.681, 39.879
1208.913, 148.089
1210.146, 140.283
1211.379, 9.508
1212.611, 210.659
1213.843, 32.518
1215.075, 94.249
1216.307, 132.334
1217.539, 46.972
1218.771, 145.014
1220.002, 140.037
1221.233, 53.083
1222.464, 191.063
1223.695, 45.277
1224.926, 50.300
1226.157, 174.213
1227.387, 63.458
1228.617, 110.830
1229.847, 204.676
1231.077, 12.619
1232.307, 83.625
1233.537, 87.789
1234.766, 75.337
1235.995, 171.065
1237.224, 86.329
1238.453, 42.509
1239.682, 217.167
1240.911, 74.625
1242.139, 185.238
1243.367, 118.830
1244.595, 52.831
1245.823, 173.373
1247.051, 57.897
1248.279, 127.589
1249.506, 95.078
1250.733, 31.816
1251.961, 181.283
1253.187, 123.715
1254.414, 21.064
1255.641, 289.456
1256.867, 31.827
1258.094, 188.837
1259.320, 166.166
1260.546, 36.562
1261.771, 218.035
1262.997, 93.306
1264.222, 109.625
1265.448, 94.871
1266.673, 72.059
1267.898, 147.450
1269.123, 125.189
1270.347, 5.698
1271.572, 109.218
1272.796, 181.248
1274.020, 94.439
1275.244, 238.539
1276.468, 110.500
1277.692, 87.467
1278.915, 202.314
1280.138, 25.123
1281.361, 98.210
1282.584, 48.105
1283.807, 102.813
1285.030, 179.741
1286.252, 36.600
1287.475, 12.174
1288.697, 236.752
1289.919, 30.307
1291.141, 60.007
1292.362, 127.271
1293.584, 1.320
1294.805, 199.171
1296.026, 23.740
1297.247, 33.408
1298.468, 243.095
1299.689, 52.284
1300.909, 39.518
1302.130, 99.386
1303.350, 78.565
1304.570, 113.910
1305.790, 187.624
1307.010, 131.300
1308.229, 220.990
1309.448, 10.400
1310.668, 17.545
1311.887, 138.768
1313.106, 27.612
1314.324, 145.163
1315.543, 191.795
1316.761, 32.542
1317.979, 144.182
1319.198, 39.479
1320.415, 137.166
1321.633, 191.536
1322.851, 58.050
1324.068, 79.471
1325.285, 197.981
1326.502, 6.444
1327.719, 220.741
1328.936, 126.667
1330.153, 0.958
1331.369, 201.801
1332.585, 65.041
1333.801, 12.669
1335.017, 286.699
1336.233, 22.925
1337.449, 207.716
1338.664, 308.380
1339.880, 347.515
1341.095, 157.130
1342.310, 69.687
1343.524, 45.262
1344.739, 240.173
1345.954, 38.096
1347.168, 63.713
1348.382, 238.086
1349.596, 18.362
1350.810, 114.206
1352.023, 146.019
1353.237, 35.811
1354.450, 223.131
1355.663, 185.481
1356.877, 159.165
1358.089, 215.270
1359.302, 19.917
1360.515, 32.054
1361.727, 229.421
1362.939, 5.078
1364.151, 250.031
1365.363, 198.728
1366.575, 12.823
1367.786, 268.226
1368.998, 107.925
1370.209, 147.895
1371.420, 360.863
1372.631, 83.247
1373.842, 47.201
1375.052, 170.331
1376.263, 138.637
1377.473, 117.287
1378.683, 73.450
1379.893, 57.493
1381.103, 209.344
1382.312, 37.748
1383.522, 46.603
1384.731, 194.265
1385.940, 9.795
1387.149, 172.516
1388.358, 202.607
1389.566, 63.595
1390.775, 270.735
1391.983, 475.077
1393.191, 121.357
1394.399, 267.498
1395.607, 101.270
1396.815, 161.277
1398.022, 253.839
1399.230, 11.213
1400.437, 248.644
1401.644, 278.285
1402.851, 28.350
1404.058, 343.158
1405.264, 146.119
1406.470, 123.111
1407.677, 387.954
1408.883, 149.959
1410.089, 162.129
1411.294, 296.717
1412.500, 108.609
1413.705, 295.181
1414.911, 374.804
1416.116, 51.919
1417.321, 340.175
1418.525, 111.467
1419.730, 127.203
1420.934, 431.539
1422.139, 125.562
1423.343, 209.899
1424.547, 325.619
1425.751, 65.760
1426.954, 104.891
1428.158, 178.276
1429.361, 74.741
1430.564, 279.301
1431.767, 93.730
1432.970, 161.463
1434.173, 396.909
1435.375, 83.763
1436.578, 145.707
1437.780, 307.703
1438.982, 112.960
1440.184, 266.618
1441.385, 240.893
1442.587, 66.916
1443.788, 337.132
1444.990, 201.911
1446.191, 129.521
1447.392, 337.992
1448.592, 52.581
1449.793, 258.514
1450.993, 378.533
1452.194, 43.546
1453.394, 312.821
1454.594, 378.682
1455.794, 6.183
1456.993, 319.042
1458.193, 206.303
1459.392, 40.402
1460.591, 453.861
1461.790, 72.849
1462.989, 153.938
1464.188, 436.436
1465.386, 81.664
1466.585, 251.317
1467.783, 403.754
1468.981, 14.240
1470.179, 405.912
1471.377, 302.735
1472.574, 187.675
1473.771, 457.272
1474.969, 244.349
1476.166, 91.353
1477.363, 467.650
1478.560, 155.533
1479.756, 255.794
1480.953, 284.841
1482.149, 120.444
1483.345, 442.205
1484.541, 226.400
1485.737, 83.061
1486.932, 423.003
1488.128, 284.216
1489.323, 78.790
1490.518, 491.979
1491.714, 164.238
1492.908, 197.428
1494.103, 391.603
1495.298, 30.377
1496.492, 169.527
1497.686, 398.873
1498.880, 16.275
1500.074, 414.734
1501.268, 236.041
1502.462, 69.259
1503.655, 356.600
1504.848, 85.979
1506.041, 141.440
1507.234, 404.951
1508.427, 21.549
1509.620, 254.214
1510.812, 444.951
1512.005, 11.759
1513.197, 345.667
1514.389, 316.706
1515.581, 94.706
1516.772, 515.078
1517.964, 168.331
1519.155, 199.965
1520.346, 312.780
1521.538, 32.493
1522.728, 60.500
1523.919, 463.188
1525.110, 41.241
1526.300, 218.311
1527.490, 365.759
1528.681, 24.839
1529.871, 353.489
1531.060, 189.648
1532.250, 0.968
1533.439, 0.000
