##NAMES=Natrolite
##RRUFFID=R040102
##IDEAL CHEMISTRY=Na_2_(Si_3_Al_2_)O_10_&#183;2H_2_O
##LOCALITY=Ross' Quarry, Northland, New Zealand
##OWNER=RRUFF
##SOURCE=University of Arizona Mineral Museum
##DESCRIPTION=Mass of colorless acicular crystals
##STATUS=The identification of this mineral has been confirmed by X-ray diffraction and chemical analysis
##URL=rruff.info/R040102
##MEASURED CHEMISTRY=(Na_0.92_Ca_0.02_)_2_(Si_3.03_Al_1.99_)O_10_Â·2H_2_O
##PIN_ID=M00475
##ORIENTATION=Laser parallel to -a* (-1 0 0). Fiducial mark perpendicular to laser is parallel to b [0 1 0]
88.907, 0.000
90.296, 15.929
91.684, 14.568
93.072, 172.861
94.460, 144.603
95.848, 199.735
97.236, 283.938
98.623, 324.178
100.010, 355.349
101.397, 522.169
102.784, 532.618
104.171, 548.690
105.557, 691.501
106.943, 927.432
108.329, 945.696
109.715, 1268.998
111.100, 1124.465
112.486, 1242.585
113.871, 1382.989
115.256, 1863.148
116.641, 2037.583
118.025, 2269.926
119.410, 2469.908
120.794, 2454.321
122.178, 2509.028
123.562, 2645.361
124.945, 2765.985
126.329, 2571.126
127.712, 2090.973
129.095, 2113.623
130.478, 1926.702
131.860, 2098.822
133.243, 2304.759
134.625, 2781.262
136.007, 3357.264
137.389, 4108.043
138.770, 5062.002
140.152, 5878.925
141.533, 7034.695
142.914, 7569.342
144.295, 7972.960
145.675, 7735.625
147.056, 6517.433
148.436, 5318.507
149.816, 4231.844
151.196, 3662.457
152.575, 3314.391
153.955, 3498.685
155.334, 3892.507
156.713, 4523.419
158.092, 5665.835
159.471, 6585.110
160.849, 8011.058
162.227, 9052.760
163.606, 9717.351
164.983, 9630.874
166.361, 8574.116
167.739, 7417.030
169.116, 5966.243
170.493, 4971.031
171.870, 3936.897
173.247, 3464.958
174.623, 2831.623
175.999, 2535.213
177.375, 2214.248
178.751, 1929.636
180.127, 1797.431
181.503, 1570.957
182.878, 1451.894
184.253, 1335.365
185.628, 1202.141
187.003, 1238.697
188.377, 1158.027
189.751, 1149.576
191.126, 1123.586
192.500, 1131.283
193.873, 1156.962
195.247, 1151.703
196.620, 1436.496
197.993, 1450.333
199.366, 1457.206
200.739, 1416.109
202.112, 1462.034
203.484, 1569.030
204.856, 1574.164
206.228, 1765.098
207.600, 1718.303
208.972, 1669.999
210.343, 1377.877
211.714, 1162.745
213.085, 972.594
214.456, 739.410
215.827, 635.180
217.197, 524.895
218.567, 486.548
219.937, 417.135
221.307, 260.656
222.677, 257.109
224.046, 142.496
225.416, 88.817
226.785, 6.075
228.154, 31.269
229.522, 32.398
230.891, 26.533
232.259, 28.896
233.627, 32.052
234.995, 251.566
236.363, 282.019
237.730, 535.024
239.098, 700.426
240.465, 890.961
241.832, 851.109
243.198, 925.825
244.565, 627.637
245.931, 412.664
247.297, 179.541
248.663, 39.342
250.029, 123.905
251.395, 79.219
252.760, 200.739
254.125, 236.034
255.490, 210.087
256.855, 282.228
258.220, 176.689
259.584, 215.842
260.948, 192.783
262.312, 188.571
263.676, 181.777
265.040, 156.525
266.403, 145.444
267.766, 111.002
269.129, 92.558
270.492, 69.127
271.855, 57.717
273.217, 61.339
274.580, 23.006
275.942, 75.722
277.304, 8.488
278.665, 31.367
280.027, 25.696
281.388, 47.683
282.749, 33.594
284.110, 100.423
285.471, 22.174
286.831, 169.834
288.192, 208.417
289.552, 146.914
290.912, 240.320
292.272, 290.640
293.631, 369.875
294.990, 372.015
296.350, 548.043
297.709, 623.949
299.067, 735.723
300.426, 1049.365
301.784, 1349.873
303.143, 1744.253
304.501, 2117.508
305.859, 2484.643
307.216, 2724.663
308.574, 2483.572
309.931, 2061.373
311.288, 1485.072
312.645, 1022.669
314.002, 751.169
315.358, 531.576
316.714, 475.891
318.070, 298.116
319.426, 307.250
320.782, 329.280
322.138, 308.161
323.493, 351.896
324.848, 408.458
326.203, 413.919
327.558, 433.309
328.912, 568.629
330.267, 628.883
331.621, 645.075
332.975, 742.191
334.329, 756.058
335.682, 842.564
337.036, 812.698
338.389, 980.517
339.742, 1079.035
341.095, 1138.272
342.448, 1306.280
343.800, 1293.103
345.152, 1407.760
346.504, 1449.268
347.856, 1497.657
349.208, 1621.973
350.560, 1544.222
351.911, 1716.405
353.262, 1740.549
354.613, 1859.656
355.964, 1990.731
357.314, 2172.781
358.665, 2398.802
360.015, 2383.796
361.365, 2485.762
362.715, 2193.700
364.064, 1935.610
365.414, 1646.492
366.763, 1177.344
368.112, 992.159
369.461, 755.936
370.809, 613.680
372.158, 461.392
373.506, 386.074
374.854, 359.727
376.202, 154.350
377.550, 260.938
378.897, 150.494
380.245, 113.017
381.592, 159.503
382.939, 115.956
384.285, 91.913
385.632, 80.819
386.978, 87.057
388.324, 97.798
389.670, 106.517
391.016, 139.031
392.362, 148.341
393.707, 156.294
395.053, 186.441
396.398, 192.675
397.742, 248.167
399.087, 236.902
400.432, 357.881
401.776, 416.815
403.120, 466.709
404.464, 622.568
405.808, 717.396
407.151, 988.195
408.494, 1134.970
409.838, 1438.916
411.180, 1729.198
412.523, 1951.865
413.866, 2273.343
415.208, 2284.205
416.550, 2390.817
417.892, 2088.047
419.234, 1960.719
420.576, 1828.958
421.917, 1564.669
423.259, 1616.752
424.600, 1477.017
425.941, 1485.621
427.281, 1461.719
428.622, 1646.418
429.962, 1885.186
431.302, 2070.016
432.642, 2514.218
433.982, 3113.042
435.321, 3659.539
436.661, 4915.343
438.000, 5803.741
439.339, 7497.325
440.678, 8988.311
442.016, 10092.595
443.355, 10297.598
444.693, 9502.027
446.031, 8257.946
447.369, 6711.700
448.707, 5610.210
450.044, 4620.988
451.381, 3514.221
452.718, 2980.056
454.055, 2321.063
455.392, 1945.491
456.729, 1631.766
458.065, 1298.375
459.401, 1279.963
460.737, 1107.532
462.073, 988.082
463.409, 974.604
464.744, 952.106
466.079, 865.708
467.414, 782.158
468.749, 842.583
470.084, 737.982
471.418, 855.376
472.753, 900.747
474.087, 794.104
475.421, 879.446
476.754, 935.763
478.088, 995.033
479.421, 1057.033
480.754, 1066.552
482.087, 1273.227
483.420, 1259.697
484.753, 1515.333
486.085, 1404.899
487.417, 1468.497
488.750, 1618.411
490.081, 1626.688
491.413, 1742.632
492.745, 1839.198
494.076, 1999.748
495.407, 1983.352
496.738, 2126.442
498.069, 2339.419
499.399, 2450.960
500.730, 2463.983
502.060, 2700.262
503.390, 2819.353
504.720, 3188.349
506.049, 3274.749
507.379, 3577.728
508.708, 3838.682
510.037, 4228.738
511.366, 4544.694
512.694, 4745.655
514.023, 5215.597
515.351, 5507.547
516.679, 5777.488
518.007, 6454.423
519.335, 6821.350
520.663, 7298.270
521.990, 8065.184
523.317, 9262.091
524.644, 10568.992
525.971, 12755.884
527.298, 15802.771
528.624, 19369.654
529.951, 24656.531
531.277, 28973.402
532.603, 33450.262
533.928, 36296.812
535.254, 34203.242
536.579, 30618.605
537.904, 24804.633
539.229, 18899.980
540.554, 14654.951
541.879, 11160.389
543.203, 8725.424
544.527, 6770.163
545.851, 5433.732
547.175, 4508.429
548.499, 3605.304
549.822, 3116.347
551.146, 2613.745
552.469, 2291.252
553.792, 1992.898
555.115, 1721.792
556.437, 1541.735
557.759, 1381.915
559.082, 1194.054
560.404, 1101.409
561.725, 999.602
563.047, 925.524
564.369, 946.443
565.690, 866.361
567.011, 735.276
568.332, 600.190
569.653, 604.108
570.973, 599.036
572.293, 533.015
573.614, 601.035
574.934, 475.125
576.253, 519.298
577.573, 341.544
578.892, 437.890
580.212, 258.301
581.531, 277.788
582.850, 313.346
584.168, 282.974
585.487, 226.669
586.805, 224.427
588.123, 154.244
589.441, 223.590
590.759, 119.504
592.077, 168.139
593.394, 257.267
594.711, 160.511
596.028, 220.749
597.345, 245.146
598.662, 281.552
599.978, 249.035
601.295, 225.562
602.611, 273.131
603.927, 148.724
605.242, 201.569
606.558, 163.282
607.873, 63.711
609.189, 213.457
610.504, 67.018
611.818, 87.438
613.133, 12.670
614.448, 27.297
615.762, 68.752
617.076, 2.242
618.390, 105.402
619.704, 10.541
621.017, 84.058
622.330, 91.800
623.644, 9.736
624.957, 15.269
626.269, 5.193
627.582, 52.806
628.895, 43.155
630.207, 38.997
631.519, 108.605
632.831, 10.708
634.143, 21.065
635.454, 57.067
636.765, 22.422
638.077, 60.857
639.388, 0.881
640.698, 39.470
642.009, 68.109
643.320, 54.117
644.630, 27.806
645.940, 39.915
647.250, 1.783
648.560, 28.804
649.869, 107.664
651.178, 16.411
652.488, 18.773
653.797, 58.539
655.105, 31.017
656.414, 45.813
657.722, 51.507
659.031, 39.179
660.339, 6.992
661.647, 46.472
662.954, 13.227
664.262, 46.010
665.569, 30.480
666.876, 7.664
668.183, 64.118
669.490, 30.448
670.797, 83.974
672.103, 101.009
673.410, 79.221
674.716, 164.340
676.022, 80.457
677.327, 124.571
678.633, 155.682
679.938, 239.013
681.243, 244.117
682.548, 304.219
683.853, 347.520
685.158, 359.730
686.462, 484.161
687.766, 519.440
689.071, 541.652
690.374, 610.964
691.678, 692.829
692.982, 730.107
694.285, 807.465
695.588, 944.823
696.891, 990.904
698.194, 1021.110
699.497, 1091.198
700.799, 1276.289
702.101, 1274.385
703.404, 1423.486
704.705, 1369.592
706.007, 1370.702
707.309, 1429.815
708.610, 1162.930
709.911, 1285.045
711.212, 1163.161
712.513, 1130.457
713.814, 962.570
715.114, 905.919
716.415, 839.028
717.715, 754.132
719.015, 675.230
720.314, 785.322
721.614, 729.635
722.913, 808.716
724.213, 770.832
725.512, 716.691
726.810, 865.753
728.109, 689.170
729.408, 744.412
730.706, 647.454
732.004, 575.053
733.302, 431.079
734.600, 342.894
735.897, 317.904
737.195, 243.057
738.492, 194.618
739.789, 236.799
741.086, 108.310
742.383, 103.071
743.679, 86.127
744.975, 2.419
746.272, 132.526
747.568, 1.447
748.863, 53.670
750.159, 35.825
751.454, 48.553
752.750, 21.799
754.045, 32.201
755.340, 32.664
756.634, 26.920
757.929, 21.466
759.223, 20.194
760.518, 7.944
761.812, 8.327
763.105, 2.625
764.399, 40.709
765.692, 43.497
766.986, 0.639
768.279, 11.060
769.572, 25.906
770.865, 81.009
772.157, 73.773
773.450, 58.593
774.742, 25.983
776.034, 69.614
777.326, 18.919
778.617, 83.567
779.909, 12.848
781.200, 15.414
782.491, 49.943
783.782, 58.849
785.073, 19.299
786.364, 30.511
787.654, 6.220
788.944, 112.981
790.234, 35.925
791.524, 77.312
792.814, 24.226
794.104, 9.696
795.393, 117.030
796.682, 13.090
797.971, 14.983
799.260, 150.201
800.549, 26.245
801.837, 132.010
803.125, 3.370
804.414, 11.537
805.701, 119.781
806.989, 26.005
808.277, 157.138
809.564, 45.750
810.851, 141.443
812.139, 86.539
813.425, 1.123
814.712, 148.417
815.999, 43.873
817.285, 86.394
818.571, 100.484
819.857, 34.970
821.143, 161.453
822.429, 44.810
823.714, 49.240
824.999, 48.641
826.284, 27.967
827.569, 98.382
828.854, 218.715
830.139, 211.030
831.423, 164.329
832.707, 215.668
833.991, 67.877
835.275, 163.124
836.559, 215.353
837.842, 73.565
839.126, 94.760
840.409, 41.477
841.692, 77.092
842.975, 61.771
844.257, 68.305
845.540, 9.362
846.822, 75.395
848.104, 57.409
849.386, 57.403
850.668, 141.379
851.949, 95.337
853.231, 132.277
854.512, 172.200
855.793, 132.105
857.074, 142.994
858.355, 179.866
859.635, 167.403
860.915, 222.558
862.196, 163.378
863.476, 202.182
864.755, 145.968
866.035, 82.737
867.314, 219.486
868.594, 69.227
869.873, 148.948
871.152, 220.652
872.430, 132.340
873.709, 184.010
874.987, 72.664
876.266, 150.297
877.544, 116.915
878.822, 10.515
880.099, 178.091
881.377, 40.650
882.654, 81.201
883.931, 210.733
885.208, 18.249
886.485, 154.750
887.762, 7.764
889.038, 140.688
890.315, 91.124
891.591, 41.542
892.867, 29.947
894.142, 121.332
895.418, 62.230
896.693, 92.336
897.969, 43.391
899.244, 83.239
900.519, 99.547
901.793, 73.158
903.068, 61.309
904.342, 9.636
905.616, 32.442
906.890, 36.873
908.164, 70.021
909.438, 95.165
910.711, 116.970
911.985, 672.730
913.258, 438.229
914.531, 417.371
915.804, 228.562
917.076, 67.454
918.349, 12.019
919.621, 3.245
920.893, 94.620
922.165, 10.000
923.437, 30.289
924.708, 24.928
925.980, 64.795
927.251, 54.833
928.522, 45.875
929.793, 72.524
931.064, 56.934
932.334, 71.604
933.604, 27.717
934.875, 30.894
936.145, 130.367
937.414, 128.087
938.684, 83.300
939.954, 45.731
941.223, 57.662
942.492, 79.322
943.761, 30.325
945.030, 123.804
946.298, 121.500
947.567, 7.796
948.835, 89.803
950.103, 22.105
951.371, 62.259
952.639, 137.855
953.906, 105.025
955.174, 138.601
956.441, 128.484
957.708, 150.190
958.975, 136.751
960.242, 155.912
961.508, 178.459
962.775, 204.070
964.041, 192.231
965.307, 295.630
966.573, 317.021
967.838, 391.536
969.104, 383.726
970.369, 321.083
971.634, 432.488
972.899, 417.606
974.164, 326.070
975.429, 517.214
976.693, 566.363
977.957, 555.505
979.222, 703.021
980.486, 473.347
981.749, 514.750
983.013, 433.144
984.276, 420.526
985.540, 428.898
986.803, 393.037
988.066, 395.216
989.328, 400.583
990.591, 375.856
991.853, 428.061
993.115, 416.031
994.377, 445.140
995.639, 506.303
996.901, 517.834
998.163, 564.884
999.424, 598.989
1000.685, 618.010
1001.946, 675.020
1003.207, 653.299
1004.468, 701.446
1005.728, 753.740
1006.988, 705.988
1008.248, 841.226
1009.508, 886.664
1010.768, 796.880
1012.028, 774.091
1013.287, 755.606
1014.547, 757.797
1015.806, 749.204
1017.065, 750.375
1018.323, 820.358
1019.582, 734.532
1020.840, 894.437
1022.099, 800.923
1023.357, 822.303
1024.615, 943.431
1025.872, 1013.791
1027.130, 1001.671
1028.387, 1172.092
1029.645, 1149.478
1030.902, 1396.899
1032.159, 1411.329
1033.415, 1712.866
1034.672, 1880.846
1035.928, 2173.305
1037.184, 2685.754
1038.440, 3200.057
1039.696, 3648.637
1040.952, 4312.933
1042.208, 4517.211
1043.463, 4352.565
1044.718, 3748.252
1045.973, 3169.262
1047.228, 2610.326
1048.483, 2054.353
1049.737, 1755.841
1050.991, 1363.945
1052.245, 1193.255
1053.499, 1143.380
1054.753, 987.507
1056.007, 897.878
1057.260, 911.466
1058.514, 760.984
1059.767, 777.399
1061.020, 735.672
1062.273, 679.535
1063.525, 702.747
1064.778, 715.647
1066.030, 677.874
1067.282, 644.075
1068.534, 659.224
1069.786, 684.657
1071.037, 700.421
1072.289, 696.375
1073.540, 775.081
1074.791, 731.731
1076.042, 815.302
1077.293, 851.439
1078.543, 763.187
1079.794, 877.193
1081.044, 907.336
1082.294, 873.041
1083.544, 972.931
1084.793, 1032.654
1086.043, 1012.235
1087.292, 1134.143
1088.542, 964.078
1089.791, 1037.040
1091.040, 1000.003
1092.288, 897.743
1093.537, 928.034
1094.785, 851.901
1096.033, 810.785
1097.281, 800.983
1098.529, 757.341
1099.777, 669.705
1101.024, 813.426
1102.272, 634.214
1103.519, 745.363
1104.766, 683.223
1106.013, 671.147
1107.259, 833.492
1108.506, 554.335
1109.752, 719.810
1110.998, 714.636
1112.244, 698.452
1113.490, 694.408
1114.736, 639.207
1115.981, 692.997
1117.227, 742.052
1118.472, 521.827
1119.717, 612.883
1120.962, 624.716
1122.206, 420.463
1123.451, 600.480
1124.695, 508.601
1125.939, 483.322
1127.183, 573.375
1128.427, 417.078
1129.671, 476.783
1130.914, 547.682
1132.157, 302.446
1133.400, 474.347
1134.643, 308.252
1135.886, 409.186
1137.129, 318.969
1138.371, 142.718
1139.613, 298.504
1140.856, 296.378
1142.098, 201.983
1143.339, 211.239
1144.581, 203.043
1145.822, 173.640
1147.064, 247.482
1148.305, 115.168
1149.546, 164.340
1150.786, 155.148
1152.027, 190.697
1153.267, 209.235
1154.508, 92.761
1155.748, 202.275
1156.988, 121.902
1158.227, 52.393
1159.467, 158.872
1160.706, 130.038
1161.946, 28.492
1163.185, 185.368
1164.424, 51.076
1165.663, 159.491
1166.901, 158.685
1168.140, 31.282
1169.378, 187.080
1170.616, 27.220
1171.854, 50.883
1173.091, 112.369
1174.329, 51.733
1175.566, 137.028
1176.804, 33.700
1178.041, 30.103
1179.278, 79.357
1180.514, 25.899
1181.751, 41.774
1182.987, 83.419
1184.224, 13.182
1185.460, 27.654
1186.696, 46.483
1187.931, 30.514
1189.167, 47.628
1190.402, 18.743
1191.638, 21.110
1192.873, 94.948
1194.108, 9.194
1195.342, 37.876
1196.577, 74.885
1197.811, 38.028
1199.046, 43.929
1200.280, 8.873
1201.514, 46.185
1202.747, 11.701
1203.981, 42.850
1205.214, 7.013
1206.447, 87.802
1207.681, 23.584
1208.913, 11.225
1210.146, 132.017
1211.379, 54.153
1212.611, 126.917
1213.843, 26.308
1215.075, 53.488
1216.307, 107.189
1217.539, 7.531
1218.771, 6.693
1220.002, 84.963
1221.233, 29.302
1222.464, 97.929
1223.695, 132.559
1224.926, 24.187
1226.157, 114.797
1227.387, 47.461
1228.617, 44.807
1229.847, 139.376
1231.077, 105.593
1232.307, 101.145
1233.537, 137.674
1234.766, 130.720
1235.995, 127.222
1237.224, 105.208
1238.453, 21.573
1239.682, 219.868
1240.911, 27.690
1242.139, 85.110
1243.367, 176.502
1244.595, 65.997
1245.823, 174.355
1247.051, 23.704
1248.279, 114.086
1249.506, 148.410
1250.733, 73.737
1251.961, 174.032
1253.187, 124.314
1254.414, 24.657
1255.641, 189.913
1256.867, 9.157
1258.094, 152.385
1259.320, 165.599
1260.546, 107.801
1261.771, 164.112
1262.997, 180.288
1264.222, 79.448
1265.448, 148.595
1266.673, 75.728
1267.898, 126.865
1269.123, 248.967
1270.347, 78.999
1271.572, 52.058
1272.796, 207.057
1274.020, 64.042
1275.244, 166.013
1276.468, 206.971
1277.692, 97.913
1278.915, 127.835
1280.138, 92.743
1281.361, 89.636
1282.584, 80.497
1283.807, 114.341
1285.030, 120.283
1286.252, 109.096
1287.475, 85.894
1288.697, 262.691
1289.919, 13.458
1291.141, 96.195
1292.362, 184.898
1293.584, 160.430
1294.805, 123.181
1296.026, 19.776
1297.247, 89.355
1298.468, 189.896
1299.689, 172.422
1300.909, 184.061
1302.130, 188.370
1303.350, 119.840
1304.570, 191.297
1305.790, 171.523
1307.010, 11.934
1308.229, 207.328
1309.448, 45.391
1310.668, 82.734
1311.887, 184.833
1313.106, 66.140
1314.324, 129.428
1315.543, 223.669
1316.761, 26.086
1317.979, 69.791
1319.198, 108.749
1320.415, 134.934
1321.633, 212.862
1322.851, 55.019
1324.068, 115.836
1325.285, 248.623
1326.502, 76.598
1327.719, 124.330
1328.936, 148.568
1330.153, 20.507
1331.369, 257.134
1332.585, 184.184
1333.801, 14.082
1335.017, 196.557
1336.233, 31.750
1337.449, 128.786
1338.664, 228.011
1339.880, 29.167
1341.095, 130.690
1342.310, 151.221
1343.524, 119.894
1344.739, 217.877
1345.954, 171.587
1347.168, 135.943
1348.382, 241.357
1349.596, 44.299
1350.810, 232.189
1352.023, 181.911
1353.237, 17.488
1354.450, 278.121
1355.663, 194.554
1356.877, 46.285
1358.089, 198.694
1359.302, 125.510
1360.515, 110.876
1361.727, 235.259
1362.939, 0.925
1364.151, 105.074
1365.363, 253.730
1366.575, 17.780
1367.786, 235.461
1368.998, 170.663
1370.209, 205.327
1371.420, 325.537
1372.631, 116.557
1373.842, 33.140
1375.052, 297.134
1376.263, 44.791
1377.473, 59.320
1378.683, 178.831
1379.893, 17.501
1381.103, 270.931
1382.312, 21.692
1383.522, 0.059
1384.731, 140.011
1385.940, 36.315
1387.149, 128.058
1388.358, 178.996
1389.566, 104.092
1390.775, 181.923
1391.983, 194.678
1393.191, 119.789
1394.399, 311.703
1395.607, 127.297
1396.815, 172.785
1398.022, 328.917
1399.230, 114.871
1400.437, 165.670
1401.644, 283.425
1402.851, 146.389
1404.058, 320.676
1405.264, 169.294
1406.470, 103.270
1407.677, 345.908
1408.883, 153.308
1410.089, 165.736
1411.294, 275.301
1412.500, 128.861
1413.705, 309.658
1414.911, 266.956
1416.116, 110.755
1417.321, 363.081
1418.525, 317.690
1419.730, 125.127
1420.934, 342.698
1422.139, 147.359
1423.343, 214.966
1424.547, 448.014
1425.751, 252.396
1426.954, 280.723
1428.158, 255.855
1429.361, 91.736
1430.564, 218.942
1431.767, 190.767
1432.970, 114.337
1434.173, 293.721
1435.375, 152.344
1436.578, 153.176
1437.780, 327.302
1438.982, 176.480
1440.184, 184.597
1441.385, 321.836
1442.587, 111.543
1443.788, 397.811
1444.990, 237.206
1446.191, 122.872
1447.392, 391.058
1448.592, 241.173
1449.793, 274.130
1450.993, 537.439
1452.194, 209.592
1453.394, 359.703
1454.594, 440.719
1455.794, 278.058
1456.993, 336.466
1458.193, 398.417
1459.392, 115.953
1460.591, 509.076
1461.790, 299.928
1462.989, 242.557
1464.188, 465.293
1465.386, 225.052
1466.585, 307.812
1467.783, 425.375
1468.981, 193.045
1470.179, 413.680
1471.377, 397.989
1472.574, 202.537
1473.771, 460.999
1474.969, 277.612
1476.166, 220.229
1477.363, 478.919
1478.560, 248.581
1479.756, 231.237
1480.953, 367.910
1482.149, 249.299
1483.345, 304.972
1484.541, 361.582
1485.737, 177.333
1486.932, 291.225
1488.128, 260.098
1489.323, 49.100
1490.518, 409.177
1491.714, 203.251
1492.908, 193.397
1494.103, 357.585
1495.298, 120.948
1496.492, 246.375
1497.686, 353.943
1498.880, 56.572
1500.074, 261.259
1501.268, 221.011
1502.462, 77.840
1503.655, 363.771
1504.848, 185.811
1506.041, 92.961
1507.234, 398.235
1508.427, 85.655
1509.620, 153.243
1510.812, 476.006
1512.005, 48.301
1513.197, 230.774
1514.389, 329.063
1515.581, 36.579
1516.772, 460.806
1517.964, 180.718
1519.155, 164.866
1520.346, 293.633
1521.538, 164.105
1522.728, 190.059
1523.919, 368.789
1525.110, 32.954
1526.300, 205.535
1527.490, 338.360
1528.681, 103.351
