##NAMES=Natrolite
##RRUFFID=R040112
##IDEAL CHEMISTRY=Na_2_(Si_3_Al_2_)O_10_&#183;2H_2_O
##LOCALITY=Ice River Alkaline Complex, Moose Creek Valley, Yoho National Park, British Columbia, Canada
##OWNER=RRUFF
##SOURCE=National Museums of Canada
##DESCRIPTION=Colorless pseudohexagonal prism
##STATUS=The identification of this mineral has been confirmed by X-ray diffraction and chemical analysis
##URL=rruff.info/R040112
##MEASURED CHEMISTRY=Na_2.00_(Si_3.00_Al_2.00_)O_10_Â·2H_2_O
##PIN_ID=L00214
##ORIENTATION=Laser parallel to -b* (0 -1 0). Fiducial mark perpendicular to laser is parallel to c [0 0 1]
52.937, 0.000
54.335, 5.645
55.734, 59.114
57.132, 78.120
58.530, 95.257
59.927, 99.714
61.325, 153.491
62.722, 147.022
64.119, 174.365
65.515, 129.551
66.912, 183.531
68.308, 190.485
69.704, 197.798
71.100, 202.494
72.496, 176.386
73.891, 121.804
75.287, 116.964
76.682, 73.858
78.076, 29.468
79.471, 5.242
80.865, 21.315
82.260, 87.792
83.653, 26.714
85.047, 8.884
86.441, 67.035
87.834, 11.498
89.227, 41.454
90.620, 138.805
92.013, 262.529
93.405, 309.603
94.797, 449.057
96.189, 626.957
97.581, 792.324
98.973, 1029.152
100.364, 1298.400
101.755, 1729.019
103.146, 2408.961
104.537, 3541.186
105.927, 5042.671
107.318, 7396.394
108.708, 10852.336
110.098, 19538.479
111.487, 25854.811
112.877, 23361.326
114.266, 20208.000
115.655, 18114.832
117.044, 22341.816
118.432, 29818.926
119.821, 39996.180
121.209, 42363.555
122.597, 33991.047
123.984, 22408.652
125.372, 13556.370
126.759, 8984.185
128.146, 6560.101
129.533, 5645.113
130.920, 5532.214
132.306, 6354.403
133.692, 7514.731
135.078, 9483.721
136.464, 12093.661
137.850, 14714.234
139.235, 17535.332
140.620, 18476.846
142.005, 17978.693
143.390, 15630.761
144.774, 11602.835
146.159, 8414.817
147.543, 5748.689
148.927, 4671.445
150.310, 4199.048
151.694, 4395.434
153.077, 5231.697
154.460, 6552.866
155.843, 8944.997
157.226, 11686.103
158.608, 14727.187
159.990, 16578.250
161.372, 17079.297
162.754, 15700.332
164.135, 12691.355
165.517, 10062.371
166.898, 7513.379
168.279, 5858.383
169.659, 4595.382
171.040, 3788.380
172.420, 3345.377
173.800, 2908.375
175.180, 2938.375
176.560, 2959.377
177.939, 3612.383
179.318, 4379.394
180.697, 5183.409
182.076, 5862.428
183.455, 5608.451
184.833, 4831.481
186.211, 3683.514
187.589, 2958.554
188.967, 2546.600
190.344, 2552.652
191.722, 2770.710
193.099, 3090.775
194.475, 3637.847
195.852, 4064.927
197.229, 4571.013
198.605, 5213.108
199.981, 6277.210
201.357, 7969.321
202.732, 9830.439
204.108, 11811.568
205.483, 12212.702
206.858, 12013.848
208.233, 10455.004
209.607, 8466.164
210.981, 7367.338
212.356, 6729.520
213.730, 6733.320
215.103, 6572.960
216.477, 6417.070
217.850, 5739.797
219.223, 4648.758
220.596, 3631.820
221.969, 2659.801
223.341, 2192.318
224.713, 1690.029
226.085, 1451.385
227.457, 1307.998
228.829, 1271.221
230.200, 1481.959
231.571, 1643.324
232.942, 2270.953
234.313, 3167.187
235.684, 4699.804
237.054, 6517.905
238.424, 8156.003
239.794, 9204.859
241.164, 8153.879
242.533, 6115.653
243.902, 3929.912
245.272, 2490.009
246.640, 1621.549
248.009, 1094.347
249.378, 791.391
250.746, 623.614
252.114, 445.897
253.482, 424.512
254.849, 358.509
256.217, 470.021
257.584, 435.718
258.951, 617.460
260.318, 785.245
261.684, 1016.071
263.051, 1323.937
264.417, 1732.838
265.783, 2453.774
267.148, 3027.743
268.514, 3680.743
269.879, 3949.774
271.244, 3626.833
272.609, 3092.920
273.974, 2275.033
275.338, 1792.172
276.703, 1311.336
278.067, 1030.524
279.431, 934.735
280.794, 814.969
282.158, 988.224
283.521, 1108.501
284.884, 1346.799
286.247, 1457.117
287.609, 1487.455
288.972, 1407.812
290.334, 1226.187
291.696, 1095.581
293.058, 1003.993
294.419, 1172.422
295.781, 1368.869
297.142, 1691.333
298.503, 2486.812
299.864, 3571.306
301.224, 5523.809
302.584, 7759.318
303.945, 10100.833
305.304, 11352.346
306.664, 9913.864
308.024, 7469.381
309.383, 4643.899
310.742, 2891.418
312.101, 1802.939
313.460, 1201.462
314.818, 829.988
316.176, 581.518
317.534, 521.054
318.892, 473.596
320.250, 563.143
321.607, 704.697
322.964, 966.256
324.321, 1429.820
325.678, 1977.390
327.035, 2974.967
328.391, 3956.550
329.747, 4528.139
331.103, 4569.732
332.459, 3641.334
333.815, 2793.940
335.170, 1828.554
336.525, 1321.173
337.880, 1028.799
339.235, 756.431
340.589, 698.069
341.944, 650.713
343.298, 611.365
344.652, 560.021
346.005, 504.684
347.359, 581.353
348.712, 582.028
350.065, 724.709
351.418, 902.397
352.771, 1232.090
354.123, 1683.790
355.475, 2127.495
356.828, 2702.207
358.179, 2783.924
359.531, 2772.647
360.882, 2429.376
362.234, 1833.111
363.585, 1393.852
364.936, 863.597
366.286, 647.350
367.637, 315.107
368.987, 160.871
370.337, 46.640
371.687, 69.586
373.036, 76.833
374.386, 178.103
375.735, 114.423
377.084, 167.804
378.432, 266.318
379.781, 189.996
381.129, 268.862
382.478, 212.891
383.825, 249.051
385.173, 184.361
386.521, 209.784
387.868, 195.331
389.215, 110.994
390.562, 207.726
391.909, 108.576
393.255, 143.489
394.602, 90.483
395.948, 0.527
397.294, 30.570
398.639, 174.374
399.985, 208.334
401.330, 313.312
402.675, 451.307
404.020, 554.320
405.365, 832.350
406.709, 1101.401
408.054, 1515.479
409.398, 1859.584
410.742, 2138.734
412.085, 2258.910
413.429, 2252.103
414.772, 2159.330
416.115, 1871.572
417.458, 1762.827
418.800, 1781.093
420.143, 1677.369
421.485, 1814.656
422.827, 1859.952
424.169, 2189.258
425.511, 2499.574
426.852, 2896.899
428.193, 3665.235
429.534, 4497.580
430.875, 5860.933
432.216, 7822.296
433.556, 11012.669
434.896, 15733.054
436.236, 22403.451
437.576, 32323.865
438.916, 40684.309
440.255, 46674.750
441.594, 44455.242
442.933, 35065.730
444.272, 25836.232
445.611, 17126.764
446.949, 12007.300
448.287, 8497.864
449.625, 6034.458
450.963, 4678.074
452.300, 3406.714
453.638, 2872.374
454.975, 2231.071
456.312, 1803.796
457.649, 1489.542
458.985, 1178.322
460.321, 1140.126
461.658, 894.963
462.994, 785.832
464.329, 749.728
465.665, 614.657
467.000, 662.610
468.335, 481.587
469.670, 491.594
471.005, 495.694
472.340, 515.765
473.674, 529.941
475.008, 471.060
476.342, 565.201
477.676, 511.585
479.009, 561.787
480.342, 670.164
481.676, 623.408
483.009, 694.665
484.341, 693.930
485.674, 783.214
487.006, 833.507
488.338, 895.808
489.670, 1024.127
491.002, 1038.455
492.333, 1237.791
493.665, 1354.134
494.996, 1474.485
496.327, 1725.843
497.657, 1845.208
498.988, 2136.582
500.318, 2385.961
501.648, 2649.348
502.978, 2988.742
504.308, 3312.143
505.637, 3936.550
506.967, 4301.964
508.296, 4907.384
509.625, 5484.811
510.953, 5821.246
512.282, 6553.686
513.610, 6729.133
514.938, 7080.585
516.266, 7575.047
517.594, 7570.513
518.921, 8029.986
520.249, 7981.466
521.576, 8682.951
522.903, 9574.442
524.229, 11025.940
525.556, 13677.441
526.882, 16798.951
528.208, 22750.469
529.534, 28071.992
530.860, 33233.480
532.185, 36359.586
533.511, 33725.215
534.836, 29064.486
536.161, 22777.748
537.485, 16827.662
538.810, 13131.395
540.134, 9599.923
541.458, 7603.518
542.782, 5936.646
544.106, 4805.529
545.429, 3961.503
546.753, 3195.915
548.076, 2824.272
549.399, 2197.963
550.721, 1982.627
552.044, 1743.563
553.366, 1412.358
554.688, 1260.533
556.010, 1101.290
557.332, 1039.335
558.653, 925.118
559.975, 792.919
561.296, 851.737
562.617, 661.572
563.937, 669.424
565.258, 619.293
566.578, 561.178
567.898, 592.081
569.218, 561.000
570.538, 623.935
571.858, 627.885
573.177, 544.852
574.496, 564.834
575.815, 428.833
577.134, 435.849
578.452, 291.881
579.771, 303.929
581.089, 290.994
582.407, 262.073
583.724, 363.169
585.042, 323.279
586.359, 364.405
587.676, 501.546
588.993, 571.702
590.310, 874.943
591.627, 938.134
592.943, 1240.328
594.259, 1409.620
595.575, 1543.896
596.891, 1595.474
598.206, 1432.282
599.522, 1211.643
600.837, 1000.163
602.152, 707.656
603.467, 645.224
604.781, 407.752
606.096, 367.938
607.410, 329.629
608.724, 235.320
610.038, 267.393
611.351, 194.959
612.665, 247.800
613.978, 250.886
615.291, 204.161
616.604, 265.208
617.916, 143.565
619.229, 241.258
620.541, 143.531
621.853, 96.067
623.165, 131.382
624.476, 59.211
625.788, 78.442
627.099, 43.829
628.410, 3.382
629.721, 71.010
631.032, 5.648
632.342, 36.052
633.652, 57.656
634.962, 14.821
636.272, 44.992
637.582, 10.162
638.891, 43.974
640.201, 57.388
641.510, 51.196
642.818, 148.965
644.127, 67.852
645.436, 150.587
646.744, 154.438
648.052, 140.202
649.360, 186.903
650.668, 162.618
651.975, 197.166
653.282, 180.824
654.590, 226.386
655.896, 234.046
657.203, 227.589
658.510, 254.131
659.816, 219.692
661.122, 216.234
662.428, 291.821
663.734, 194.361
665.039, 289.901
666.345, 252.440
667.650, 288.978
668.955, 355.561
670.260, 350.185
671.564, 418.719
672.869, 425.435
674.173, 452.966
675.477, 537.542
676.781, 532.073
678.084, 663.598
679.388, 650.122
680.691, 755.644
681.994, 874.183
683.297, 820.775
684.599, 1014.289
685.902, 1072.801
687.204, 1244.310
688.506, 1399.981
689.808, 1496.623
691.109, 1731.179
692.411, 1984.860
693.712, 2165.503
695.013, 2643.196
696.314, 2766.974
697.615, 3330.796
698.915, 3601.885
700.216, 3788.842
701.516, 4098.870
702.816, 3941.162
704.115, 3853.302
705.415, 3511.496
706.714, 3177.724
708.013, 2820.008
709.312, 2309.324
710.611, 2223.680
711.910, 1941.062
713.208, 1793.447
714.506, 1700.840
715.804, 1511.257
717.102, 1593.639
718.399, 1641.014
719.697, 1623.383
720.994, 1780.745
722.291, 1713.099
723.588, 1944.448
724.884, 1912.788
726.181, 1875.121
727.477, 1892.447
728.773, 1587.766
730.069, 1478.075
731.365, 1141.377
732.660, 828.368
733.955, 717.653
735.250, 509.090
736.545, 406.740
737.840, 342.000
739.134, 232.451
740.429, 210.804
741.723, 110.116
743.017, 112.443
744.310, 90.854
745.604, 15.357
746.897, 62.712
748.190, 12.904
749.483, 23.471
750.776, 11.317
752.069, 46.995
753.361, 33.698
754.653, 41.524
755.945, 10.426
757.237, 9.662
758.529, 41.151
759.820, 10.951
761.111, 49.142
762.402, 55.758
763.693, 38.950
764.984, 44.185
766.274, 19.363
767.564, 86.678
768.854, 57.923
770.144, 28.323
771.434, 71.774
772.724, 44.156
774.013, 64.749
775.302, 73.371
776.591, 45.089
777.880, 72.857
779.168, 32.691
780.456, 38.569
781.745, 56.495
783.033, 46.479
784.320, 87.583
785.608, 6.694
786.895, 59.925
788.183, 26.129
789.470, 56.376
790.756, 60.895
792.043, 29.262
793.329, 17.826
794.616, 10.723
795.902, 30.247
797.188, 11.246
798.473, 27.225
799.759, 41.677
801.044, 11.887
802.329, 36.511
803.614, 51.893
804.899, 49.258
806.183, 89.607
807.467, 63.940
808.752, 87.257
810.036, 64.560
811.319, 92.846
812.603, 128.116
813.886, 89.372
815.169, 166.612
816.452, 83.837
817.735, 102.047
819.018, 133.241
820.300, 107.420
821.583, 136.583
822.865, 85.732
824.146, 75.865
825.428, 107.981
826.710, 54.082
827.991, 108.167
829.272, 87.236
830.553, 98.289
831.834, 160.326
833.114, 127.349
834.394, 110.356
835.675, 95.348
836.955, 82.324
838.234, 144.284
839.514, 102.229
840.793, 131.158
842.073, 62.072
843.352, 74.970
844.630, 161.851
845.909, 84.716
847.187, 125.565
848.466, 126.398
849.744, 100.215
851.022, 147.015
852.299, 57.798
853.577, 109.563
854.854, 173.310
856.131, 53.039
857.408, 127.749
858.685, 107.440
859.961, 138.112
861.238, 158.766
862.514, 116.402
863.790, 194.018
865.066, 145.615
866.341, 153.192
867.617, 168.750
868.892, 97.288
870.167, 155.807
871.442, 145.307
872.717, 133.787
873.991, 175.248
875.265, 106.690
876.540, 134.112
877.813, 135.516
879.087, 111.900
880.361, 118.265
881.634, 110.610
882.907, 110.937
884.180, 107.245
885.453, 23.534
886.726, 117.797
887.998, 65.042
889.270, 36.266
890.542, 105.468
891.814, 54.651
893.086, 75.814
894.357, 82.957
895.628, 77.081
896.900, 54.186
898.170, 7.272
899.441, 62.262
900.712, 52.297
901.982, 8.674
903.252, 84.241
904.522, 51.169
905.792, 43.788
907.062, 62.172
908.331, 12.001
909.600, 62.653
910.869, 35.329
912.138, 41.924
913.407, 88.554
914.675, 7.477
915.944, 90.975
917.212, 82.424
918.480, 44.487
919.747, 102.050
921.015, 27.333
922.282, 46.368
923.549, 46.208
924.816, 9.271
926.083, 87.019
927.350, 31.428
928.616, 61.251
929.882, 103.805
931.148, 39.576
932.414, 92.830
933.680, 85.678
934.945, 99.364
936.211, 190.643
937.476, 119.313
938.741, 156.028
940.005, 209.378
941.270, 211.820
942.534, 235.337
943.799, 209.558
945.063, 270.741
946.326, 327.629
947.590, 315.233
948.853, 465.438
950.117, 544.677
951.380, 651.791
952.643, 845.054
953.905, 961.194
955.168, 1304.414
956.430, 1632.701
957.692, 2162.968
958.954, 3011.396
960.216, 3820.710
961.478, 5201.114
962.739, 6413.417
964.000, 7124.828
965.261, 7331.236
966.522, 6107.620
967.783, 4918.014
969.043, 3839.360
970.303, 2855.747
971.563, 2409.127
972.823, 1907.509
974.083, 1761.886
975.343, 1522.211
976.602, 1181.492
977.861, 1131.856
979.120, 942.033
980.379, 758.393
981.638, 770.702
982.896, 612.055
984.154, 595.406
985.412, 567.752
986.670, 433.103
987.928, 562.433
989.185, 563.705
990.443, 612.057
991.700, 739.406
992.957, 783.753
994.214, 1132.933
995.470, 1423.162
996.727, 1707.509
997.983, 1887.779
999.239, 1627.120
1000.495, 1301.458
1001.750, 1162.781
1003.006, 750.114
1004.261, 758.262
1005.516, 611.971
1006.771, 657.928
1008.026, 564.048
1009.280, 495.377
1010.535, 573.705
1011.789, 527.029
1013.043, 415.352
1014.297, 518.675
1015.550, 421.996
1016.804, 480.316
1018.057, 470.635
1019.310, 480.951
1020.563, 534.249
1021.816, 544.644
1023.068, 590.969
1024.321, 710.296
1025.573, 706.628
1026.825, 789.959
1028.077, 895.289
1029.328, 1073.618
1030.580, 1351.947
1031.831, 1676.326
1033.082, 2203.654
1034.333, 3046.986
1035.584, 3938.318
1036.834, 5623.954
1038.085, 6799.341
1039.335, 7254.519
1040.585, 6911.478
1041.834, 5290.830
1043.084, 4122.973
1044.334, 3136.219
1045.583, 2243.498
1046.832, 1846.754
1048.081, 1437.262
1049.329, 1201.329
1050.578, 1148.535
1051.826, 944.709
1053.074, 933.877
1054.322, 852.207
1055.570, 705.414
1056.818, 774.619
1058.065, 616.934
1059.312, 638.300
1060.559, 626.659
1061.806, 543.911
1063.053, 618.223
1064.299, 611.726
1065.546, 620.190
1066.792, 688.728
1068.038, 639.308
1069.284, 735.779
1070.529, 831.367
1071.775, 833.889
1073.020, 1100.494
1074.265, 1123.127
1075.510, 1287.033
1076.754, 1520.743
1077.999, 1639.450
1079.243, 1927.215
1080.487, 2100.001
1081.731, 2137.418
1082.975, 2274.252
1084.219, 2032.105
1085.462, 1895.984
1086.705, 1748.885
1087.948, 1522.821
1089.191, 1350.768
1090.434, 1173.741
1091.676, 957.034
1092.919, 960.050
1094.161, 679.091
1095.403, 677.533
1096.645, 626.608
1097.886, 459.778
1099.128, 463.929
1100.369, 433.030
1101.610, 379.170
1102.851, 378.280
1104.091, 301.404
1105.332, 303.411
1106.572, 269.543
1107.812, 251.776
1109.052, 320.252
1110.292, 270.395
1111.532, 216.807
1112.771, 259.956
1114.010, 181.108
1115.249, 203.283
1116.488, 152.441
1117.727, 101.602
1118.966, 208.081
1120.204, 101.248
1121.442, 151.632
1122.680, 145.875
1123.918, 102.051
1125.155, 166.816
1126.393, 120.997
1127.630, 76.181
1128.867, 132.714
1130.104, 73.904
1131.341, 115.799
1132.577, 114.049
1133.814, 53.356
1135.050, 140.339
1136.286, 72.597
1137.522, 94.891
1138.757, 84.277
1139.993, 47.548
1141.228, 95.361
1142.463, 96.745
1143.698, 64.962
1144.933, 116.382
1146.167, 54.668
1147.402, 76.892
1148.636, 137.323
1149.870, 42.550
1151.104, 75.211
1152.338, 44.029
1153.571, 16.261
1154.804, 78.702
1156.037, 43.402
1157.270, 23.639
1158.503, 86.036
1159.736, 35.359
1160.968, 73.665
1162.200, 43.450
1163.432, 53.729
1164.664, 69.208
1165.896, 25.517
1167.127, 44.831
1168.359, 47.209
1169.590, 7.543
1170.821, 68.738
1172.052, 48.811
1173.282, 0.060
1174.513, 67.794
1175.743, 2.167
1176.973, 30.418
1178.203, 60.866
1179.433, 5.752
1180.662, 60.567
1181.892, 70.166
1183.121, 11.417
1184.350, 62.777
1185.579, 5.334
1186.807, 63.920
1188.036, 52.044
1189.264, 0.047
1190.492, 70.209
1191.720, 33.011
1192.948, 15.334
1194.176, 79.698
1195.403, 18.331
1196.630, 10.922
1197.857, 24.217
1199.084, 7.315
1200.311, 50.573
1201.537, 51.931
1202.764, 42.808
1203.990, 57.074
1205.216, 29.121
1206.442, 59.386
1207.667, 76.658
1208.893, 11.854
1210.118, 55.176
1211.343, 0.928
1212.568, 17.719
1213.793, 84.549
1215.017, 0.115
1216.242, 12.378
1217.466, 39.639
1218.690, 0.119
1219.914, 59.137
1221.137, 37.519
1222.361, 13.153
1223.584, 70.091
1224.807, 56.589
1226.030, 36.831
1227.253, 84.065
1228.476, 17.484
1229.698, 51.847
1230.920, 46.065
1232.142, 26.450
1233.364, 79.730
1234.586, 27.160
1235.808, 79.420
1237.029, 71.245
1238.250, 8.116
1239.471, 46.067
1240.692, 60.253
1241.913, 9.472
1243.133, 37.698
1244.353, 2.891
1245.574, 9.057
1246.794, 42.212
1248.013, 17.411
1249.233, 55.558
1250.452, 39.703
1251.672, 32.130
1252.891, 85.001
1254.110, 6.128
1255.328, 5.690
1256.547, 58.419
1257.765, 3.474
1258.983, 68.621
1260.201, 85.709
1261.419, 28.833
1262.637, 49.899
1263.854, 42.949
1265.072, 2.954
1266.289, 76.072
1267.506, 16.906
1268.723, 21.120
1269.939, 49.115
1271.156, 5.895
1272.372, 42.084
1273.588, 54.058
1274.804, 16.976
1276.020, 90.977
1277.235, 6.075
1278.451, 29.846
1279.666, 17.757
1280.881, 22.346
1282.096, 10.464
1283.310, 24.407
1284.525, 27.738
1285.739, 32.161
1286.953, 2.016
1288.167, 9.795
1289.381, 72.569
1290.595, 26.663
1291.808, 34.224
1293.022, 60.944
1294.235, 8.642
1295.448, 92.328
1296.660, 2.995
1297.873, 15.356
1299.085, 64.275
1300.298, 10.897
1301.510, 3.508
1302.722, 72.101
1303.933, 17.685
1305.145, 34.406
1306.356, 39.120
1307.567, 3.373
1308.778, 46.912
1309.989, 12.440
1311.200, 40.956
1312.410, 40.461
1313.621, 37.044
1314.831, 84.428
1316.041, 49.820
1317.250, 0.271
1318.460, 71.708
1319.670, 9.873
1320.879, 29.535
1322.088, 77.931
1323.297, 19.317
1324.506, 28.690
1325.714, 44.001
1326.922, 6.650
1328.131, 89.683
1329.339, 35.004
1330.547, 10.687
1331.754, 87.555
1332.962, 1.833
1334.169, 6.097
1335.376, 82.339
1336.583, 40.425
1337.790, 46.785
1338.997, 36.981
1340.203, 10.833
1341.410, 88.995
1342.616, 54.152
1343.822, 12.701
1345.028, 112.428
1346.233, 16.453
1347.439, 8.647
1348.644, 83.734
1349.849, 11.189
1351.054, 101.871
1352.259, 69.921
1353.463, 2.960
1354.668, 51.986
1355.872, 13.002
1357.076, 44.000
1358.280, 72.544
1359.483, 19.529
1360.687, 87.481
1361.890, 83.447
1363.094, 2.405
1364.297, 86.312
1365.499, 34.334
1366.702, 46.263
1367.905, 83.808
1369.107, 22.723
1370.309, 63.629
1371.511, 89.530
1372.713, 25.423
1373.914, 37.710
1375.116, 79.791
1376.317, 29.662
1377.518, 47.528
1378.719, 25.391
1379.920, 50.250
1381.121, 65.077
1382.321, 45.893
1383.521, 86.393
1384.721, 62.197
1385.921, 40.479
1387.121, 121.045
1388.321, 59.620
1389.520, 75.213
1390.719, 120.869
1391.918, 54.354
1393.117, 90.570
1394.316, 99.844
1395.514, 60.366
1396.713, 101.898
1397.911, 97.071
1399.109, 51.147
1400.307, 97.968
1401.505, 89.429
1402.702, 93.341
1403.899, 92.889
1405.097, 53.086
1406.294, 121.107
1407.490, 128.787
1408.687, 49.165
1409.884, 91.777
1411.080, 108.940
1412.276, 56.914
1413.472, 76.601
1414.668, 96.514
1415.863, 82.082
1417.059, 112.913
1418.254, 83.247
1419.449, 130.997
1420.644, 144.913
1421.839, 78.763
1423.033, 135.612
1424.228, 91.555
1425.422, 69.341
1426.616, 86.820
1427.810, 76.720
1429.004, 38.452
1430.197, 112.931
1431.391, 47.505
1432.584, 92.967
1433.777, 81.413
1434.970, 15.465
1436.163, 89.182
1437.355, 105.468
1438.548, 43.023
1439.740, 74.630
1440.932, 57.553
1442.124, 75.067
1443.315, 126.299
1444.507, 54.142
1445.698, 122.758
1446.889, 103.814
1448.080, 36.938
1449.271, 99.702
1450.462, 120.503
1451.652, 58.483
1452.843, 134.177
1454.033, 89.747
1455.223, 73.682
1456.413, 169.729
1457.602, 60.545
1458.792, 69.452
1459.981, 84.288
1461.170, 115.168
1462.359, 101.930
1463.548, 118.557
1464.737, 83.286
1465.925, 115.985
1467.113, 68.567
1468.302, 43.141
1469.490, 121.842
1470.677, 26.471
1471.865, 36.111
1473.052, 98.705
1474.240, 25.248
1475.427, 50.832
1476.614, 97.413
1477.800, 61.963
1478.987, 45.331
1480.173, 76.940
1481.360, 61.161
1482.546, 91.934
1483.732, 33.776
1484.917, 29.681
1486.103, 122.581
1487.288, 20.516
1488.474, 31.443
1489.659, 74.374
1490.844, 51.314
1492.028, 61.255
1493.213, 59.197
1494.397, 46.141
