##NAMES=Natrolite
##RRUFFID=R060561
##IDEAL CHEMISTRY=Na_2_(Si_3_Al_2_)O_10_&#183;2H_2_O
##LOCALITY=California, USA
##OWNER=RRUFF
##SOURCE=Gemological Institute of America
##DESCRIPTION=White fragment
##STATUS=The identification of this mineral has been confirmed by X-ray diffraction and chemical analysis
##URL=rruff.info/R060561
##MEASURED CHEMISTRY=Na_2.00_(Si_3.00_Al_2.00_)O_10_Â·2H_2_O
##PIN_ID=L00669
##ORIENTATION=Laser parallel to c* (0 0 1). Fiducial mark perpendicular to laser is parallel to a [1 0 0]
82.29200, 0.0000000E+00
83.52800, 37.52667
84.76400, 97.76410
86.00000, 133.9263
87.23600, 190.9912
88.47200, 248.6271
89.70800, 298.3078
90.94300, 386.8972
92.17800, 357.7414
93.41300, 275.5069
94.64800, 179.7786
95.88300, 86.42786
97.11800, 27.06067
98.35200, 28.38416
99.58700, 81.05762
100.8210, 65.10510
102.0550, 31.66797
103.2890, 56.89038
104.5220, 65.08838
105.7560, 181.1411
106.9890, 359.1494
108.2230, 522.0039
109.4560, 804.6055
110.6890, 1215.864
111.9210, 1671.699
113.1540, 2122.036
114.3870, 2674.809
115.6190, 3060.960
116.8510, 3509.435
118.0830, 4114.183
119.3150, 5183.160
120.5470, 6536.298
121.7780, 7990.525
123.0100, 8801.777
124.2410, 8772.004
125.4720, 7932.165
126.7030, 7182.230
127.9340, 6417.167
129.1640, 6146.940
130.3950, 6159.513
131.6250, 6313.859
132.8550, 6783.949
134.0850, 7232.761
135.3150, 7825.277
136.5450, 8037.472
137.7750, 8249.337
139.0040, 8401.853
140.2330, 8981.008
141.4620, 9804.785
142.6910, 10863.18
143.9200, 12019.17
145.1490, 12723.76
146.3770, 13085.93
147.6060, 12963.68
148.8340, 12658.00
150.0620, 12446.88
151.2900, 12843.31
152.5170, 13851.29
153.7450, 15719.80
154.9720, 18159.86
156.2000, 20788.36
157.4270, 23320.10
158.6540, 25997.03
159.8810, 29289.23
161.1070, 32470.70
162.3340, 35656.45
163.5600, 38018.47
164.7860, 38898.74
166.0120, 37057.38
167.2380, 33380.29
168.4640, 29390.57
169.6890, 24869.28
170.9150, 21263.36
172.1400, 18375.73
173.3650, 16443.37
174.5900, 14885.25
175.8150, 13393.38
177.0400, 12296.76
178.2640, 11290.39
179.4880, 10708.29
180.7130, 10018.46
181.9370, 9714.903
183.1600, 9653.615
184.3840, 9662.605
185.6080, 9693.876
186.8310, 9586.425
188.0540, 9593.254
189.2770, 9011.368
190.5000, 8521.764
191.7230, 8084.447
192.9460, 7809.413
194.1680, 7534.666
195.3910, 7510.432
196.6130, 7596.025
197.8350, 7754.137
199.0570, 8139.533
200.2780, 8546.215
201.5000, 9138.188
202.7210, 9533.446
203.9420, 9784.990
205.1640, 10079.82
206.3840, 10604.94
207.6050, 11231.35
208.8260, 11296.04
210.0460, 10942.02
211.2670, 10332.30
212.4870, 9396.857
213.7070, 8496.709
214.9270, 7739.845
216.1460, 6936.268
217.3660, 6559.979
218.5850, 6085.974
219.8050, 5838.254
221.0240, 5507.821
222.2430, 5092.671
223.4610, 4749.803
224.6800, 4364.219
225.8980, 4185.916
227.1170, 3916.324
228.3350, 3603.151
229.5530, 3556.065
230.7710, 3430.629
231.9880, 3322.581
233.2060, 3374.502
234.4230, 3393.131
235.6400, 3537.557
236.8570, 3441.877
238.0740, 3480.819
239.2910, 3762.772
240.5080, 3786.170
241.7240, 4104.822
242.9400, 3908.187
244.1570, 3851.406
245.3730, 3551.796
246.5880, 3348.688
247.8040, 2963.535
249.0190, 2796.933
250.2350, 2609.075
251.4500, 2424.717
252.6650, 2323.361
253.8800, 2281.002
255.0950, 2281.578
256.3090, 2278.292
257.5240, 2239.615
258.7380, 2364.959
259.9520, 2423.895
261.1660, 2478.224
262.3800, 2522.315
263.5930, 2528.231
264.8070, 2538.361
266.0200, 2637.613
267.2330, 2536.669
268.4460, 2837.696
269.6590, 2907.989
270.8720, 3002.543
272.0850, 3002.357
273.2970, 3237.426
274.5090, 3241.745
275.7210, 3053.312
276.9330, 3132.124
278.1450, 2862.179
279.3570, 2620.472
280.5680, 2387.001
281.7790, 2213.764
282.9910, 2073.257
284.2020, 2016.978
285.4120, 1916.425
286.6230, 1848.096
287.8340, 1880.986
289.0440, 1886.097
290.2540, 1937.424
291.4640, 1864.965
292.6740, 1840.717
293.8840, 1968.681
295.0940, 1978.852
296.3030, 1832.229
297.5120, 1923.808
298.7210, 2084.591
299.9300, 2154.573
301.1390, 2355.753
302.3480, 2408.130
303.5560, 2932.702
304.7650, 3113.472
305.9730, 3419.445
307.1810, 3552.615
308.3890, 3248.986
309.5970, 2702.550
310.8040, 2280.307
312.0120, 1865.263
313.2190, 1573.427
314.4260, 1212.785
315.6330, 1190.349
316.8400, 1175.099
318.0460, 1128.065
319.2530, 977.2178
320.4590, 1064.576
321.6650, 1071.117
322.8710, 1327.842
324.0770, 1223.290
325.2830, 1305.843
326.4880, 1154.119
327.6940, 1201.589
328.8990, 1254.271
330.1040, 1266.158
331.3090, 1360.263
332.5140, 1400.590
333.7180, 1294.124
334.9230, 1166.887
336.1270, 1027.844
337.3310, 931.1758
338.5350, 865.3555
339.7390, 743.8994
340.9430, 815.6230
342.1460, 781.5225
343.3500, 832.5967
344.5530, 788.8438
345.7560, 859.2646
346.9590, 1039.865
348.1620, 1065.661
349.3640, 1395.646
350.5670, 1438.812
351.7690, 1753.155
352.9710, 1964.685
354.1730, 2292.379
355.3750, 2626.256
356.5760, 2827.293
357.7780, 2932.494
358.9790, 3053.200
360.1800, 3376.452
361.3810, 3012.185
362.5820, 2929.096
363.7830, 2679.167
364.9830, 2141.428
366.1840, 1698.873
367.3840, 1326.511
368.5840, 901.3086
369.7840, 487.2783
370.9840, 608.3975
372.1830, 435.6768
373.3830, 180.1045
374.5820, 193.7314
375.7810, 76.44238
376.9800, 68.55566
378.1790, 51.25488
379.3780, 154.8848
380.5760, 57.35840
381.7750, 197.6484
382.9730, 230.7930
384.1710, 152.7900
385.3690, 160.6201
386.5660, 254.2900
387.7640, 203.8203
388.9610, 187.1953
390.1590, 320.4111
391.3560, 375.5010
392.5530, 187.5000
393.7500, 92.35840
394.9460, 107.0518
396.1430, 241.5957
397.3390, 175.0312
398.5350, 299.3379
399.7310, 82.55664
400.9270, 173.6240
402.1230, 191.5693
403.3180, 20.39648
404.5140, 142.9385
405.7090, 85.55762
406.9040, 191.0898
408.0990, 196.9043
409.2930, 440.8867
410.4880, 308.0332
411.6820, 374.3457
412.8770, 427.8213
414.0710, 473.4590
415.2650, 586.2568
416.4590, 595.2168
417.6520, 484.3350
418.8460, 569.6133
420.0390, 634.0479
421.2320, 794.6387
422.4250, 1002.386
423.6180, 1342.287
424.8110, 1591.343
426.0030, 2022.552
427.1960, 2722.912
428.3880, 3174.423
429.5800, 4099.084
430.7720, 5038.895
431.9640, 6172.854
433.1550, 7306.961
434.3470, 8462.215
435.5380, 9617.611
436.7290, 10526.16
437.9200, 11618.84
439.1110, 12848.67
440.3020, 14206.65
441.4920, 15699.77
442.6820, 17120.03
443.8730, 18543.42
445.0630, 19605.95
446.2530, 20767.63
447.4420, 20590.44
448.6320, 19551.56
449.8210, 17840.65
451.0100, 15190.35
452.2000, 12299.70
453.3880, 9145.187
454.5770, 6848.532
455.7660, 5177.843
456.9540, 3798.441
458.1430, 2787.096
459.3310, 2113.236
460.5190, 1676.517
461.7070, 1374.910
462.8940, 1016.882
464.0820, 674.5273
465.2690, 615.2959
466.4560, 693.1895
467.6430, 691.9824
468.8300, 494.4297
470.0170, 595.2656
471.2040, 475.9512
472.3900, 606.1318
473.5760, 649.8018
474.7620, 799.4170
475.9480, 752.6133
477.1340, 1180.614
478.3200, 1187.579
479.5050, 1400.840
480.6900, 1775.375
481.8750, 2073.379
483.0600, 2267.603
484.2450, 2628.525
485.4300, 3043.122
486.6140, 3665.602
487.7990, 3988.110
488.9830, 4595.884
490.1670, 5317.611
491.3510, 5886.159
492.5350, 6227.128
493.7180, 6552.297
494.9020, 6641.215
496.0850, 6632.513
497.2680, 6565.309
498.4510, 6347.371
499.6340, 5921.177
500.8160, 5440.530
501.9990, 5120.100
503.1810, 4717.322
504.3630, 4558.698
505.5450, 4325.772
506.7270, 4302.414
507.9090, 3987.187
509.0900, 3898.076
510.2720, 3921.618
511.4530, 4071.928
512.6340, 4262.217
513.8150, 4487.326
514.9950, 4720.783
516.1760, 5235.483
517.3560, 5491.856
518.5370, 6286.248
519.7170, 7300.451
520.8970, 8326.366
522.0770, 10173.07
523.2560, 12478.56
524.4360, 15467.29
525.6150, 18679.42
526.7940, 22273.23
527.9730, 26422.81
529.1520, 30498.69
530.3310, 34698.72
531.5090, 38826.86
532.6870, 41885.71
533.8660, 42529.93
535.0440, 39804.61
536.2210, 35404.97
537.3990, 29318.95
538.5770, 23712.35
539.7540, 18488.16
540.9310, 14419.44
542.1080, 11314.32
543.2850, 9012.297
544.4620, 7356.711
545.6390, 6056.423
546.8150, 4864.846
547.9920, 4109.203
549.1680, 3863.404
550.3440, 3113.006
551.5190, 2735.664
552.6950, 2375.389
553.8710, 2154.181
555.0460, 1801.027
556.2210, 1575.928
557.3960, 1477.882
558.5710, 1222.890
559.7460, 1122.498
560.9200, 971.0576
562.0950, 920.2188
563.2690, 780.4287
564.4430, 742.6855
565.6170, 650.9492
566.7910, 506.3398
567.9640, 503.7344
569.1380, 453.1738
570.3110, 398.6592
571.4840, 371.1875
572.6570, 324.7559
573.8300, 461.3652
575.0030, 242.0146
576.1750, 314.7031
577.3470, 168.4316
578.5200, 158.1982
579.6920, 203.0039
580.8630, 229.8467
582.0350, 114.7246
583.2070, 229.6406
584.3780, 284.5879
585.5490, 276.5703
586.7200, 120.5850
587.8910, 216.6289
589.0620, 2.294922
590.2330, 132.7891
591.4030, 14.90137
592.5730, 101.0244
593.7430, 152.1729
594.9130, 12.34863
596.0830, 23.47070
597.2530, 46.70215
598.4220, 23.11035
599.5920, 158.0645
600.7610, 86.73926
601.9300, 186.4141
603.0990, 35.41309
604.2670, 194.7383
605.4360, 214.9082
606.6040, 158.1396
607.7720, 58.34766
608.9400, 83.82031
610.1080, 7.199219
611.2760, 80.48926
612.4440, 49.34863
613.6110, 110.1602
614.7780, 124.2324
615.9450, 76.54785
617.1120, 161.7266
618.2790, 10.85840
619.4460, 31.54785
620.6120, 70.08398
621.7780, 18.23438
622.9450, 43.47754
624.1110, 59.81445
625.2760, 80.96289
626.4420, 95.16016
627.6080, 57.88379
628.7730, 24.67383
629.9380, 47.85547
631.1030, 23.43262
632.2680, 8.792969
633.4330, 31.41699
634.5970, 21.63574
635.7620, 114.3281
636.9260, 13.76465
638.0900, 167.2988
639.2540, 116.8428
640.4180, 31.92969
641.5810, 33.50977
642.7450, 116.1309
643.9080, 2.697266
645.0710, 96.03223
646.2340, 49.52051
647.3970, 31.95215
648.5590, 65.71289
649.7220, 66.41992
650.8840, 19.13184
652.0460, 236.3408
653.2080, 58.55273
654.3700, 290.7500
655.5320, 47.09277
656.6930, 60.56055
657.8550, 180.6260
659.0160, 180.5098
660.1770, 208.3125
661.3380, 156.9473
662.4990, 162.2246
663.6590, 209.2109
664.8200, 75.57520
665.9800, 113.1191
667.1400, 173.8545
668.3000, 96.29980
669.4600, 126.1816
670.6190, 249.8555
671.7790, 189.4980
672.9380, 397.1602
674.0970, 203.8555
675.2560, 268.5459
676.4150, 263.2295
677.5740, 362.9023
678.7320, 506.5850
679.8900, 588.7607
681.0490, 356.6445
682.2070, 625.3271
683.3640, 593.0098
684.5220, 483.6904
685.6800, 734.3457
686.8370, 783.9727
687.9940, 754.5830
689.1510, 806.1641
690.3080, 1052.923
691.4650, 1098.509
692.6220, 1434.301
693.7780, 1222.757
694.9340, 1355.180
696.0900, 1618.029
697.2460, 1627.388
698.4020, 1832.963
699.5580, 2073.254
700.7130, 2098.604
701.8680, 2258.053
703.0240, 2305.238
704.1790, 2394.391
705.3330, 2406.066
706.4880, 2454.586
707.6430, 2329.629
708.7970, 2223.146
709.9510, 2076.114
711.1050, 2106.048
712.2590, 2164.940
713.4130, 2026.797
714.5660, 2196.614
715.7200, 2048.909
716.8730, 2271.648
718.0260, 2596.928
719.1790, 2486.871
720.3320, 2742.492
721.4840, 2952.039
722.6370, 2991.580
723.7890, 3381.406
724.9410, 3284.861
726.0930, 3403.277
727.2450, 3438.461
728.3960, 3395.615
729.5480, 3025.904
730.6990, 2497.705
731.8500, 2315.973
733.0010, 2213.133
734.1520, 1703.842
735.3030, 1462.357
736.4530, 1383.672
737.6040, 1123.016
738.7540, 804.9629
739.9040, 811.8516
741.0540, 704.7109
742.2030, 559.0742
743.3530, 616.8477
744.5020, 357.3828
745.6520, 516.2852
746.8010, 330.0098
747.9490, 344.3770
749.0980, 353.7227
750.2470, 248.9199
751.3950, 352.7852
752.5440, 245.1699
753.6920, 315.6484
754.8400, 279.6211
755.9870, 206.8535
757.1350, 166.6875
758.2820, 91.78711
759.4300, 10.66992
760.5770, 240.1309
761.7240, 205.4355
762.8710, 254.1035
764.0170, 98.16211
765.1640, 31.58789
766.3100, 181.2324
767.4560, 29.69922
768.6020, 197.6152
769.7480, 28.77148
770.8940, 48.02148
772.0400, 142.0156
773.1850, 226.5117
774.3300, 2.369141
775.4750, 66.24609
776.6200, 6.919922
777.7650, 187.2168
778.9090, 159.3926
780.0540, 131.1562
781.1980, 121.1719
782.3420, 114.7695
783.4860, 144.9453
784.6300, 49.76367
785.7740, 240.5566
786.9170, 11.83398
788.0600, 151.7598
789.2030, 207.0332
790.3460, 103.2969
791.4890, 198.7793
792.6320, 86.19336
793.7740, 157.3848
794.9170, 95.72070
796.0590, 43.37500
797.2010, 12.05664
798.3430, 122.7383
799.4850, 71.25586
800.6260, 193.8633
801.7670, 148.4512
802.9090, 122.5391
804.0500, 241.5352
805.1910, 128.2363
806.3310, 199.9199
807.4720, 100.9980
808.6120, 102.5078
809.7530, 316.4121
810.8930, 263.8398
812.0330, 399.8086
813.1720, 311.9414
814.3120, 269.1094
815.4510, 287.8262
816.5910, 152.0684
817.7300, 204.2695
818.8690, 273.4316
820.0080, 246.5566
821.1460, 316.6426
822.2850, 247.6934
823.4230, 299.3965
824.5610, 257.7539
825.6990, 289.6250
826.8370, 192.5273
827.9750, 26.39258
829.1120, 14.20312
830.2500, 363.9551
831.3870, 329.6738
832.5240, 140.3535
833.6610, 408.9961
834.7980, 175.5996
835.9340, 261.1680
837.0700, 210.6992
838.2070, 178.1953
839.3430, 383.6562
840.4790, 249.0781
841.6140, 263.4688
842.7500, 294.8242
843.8850, 232.1445
845.0210, 118.4316
846.1560, 276.6777
847.2910, 333.8926
848.4260, 631.0703
849.5600, 774.2188
850.6950, 252.3320
851.8290, 110.4141
852.9630, 243.4551
854.0970, 103.4668
855.2310, 144.4395
856.3650, 249.3789
857.4980, 69.28516
858.6310, 313.1484
859.7650, 127.9844
860.8980, 332.7832
862.0310, 266.5527
863.1630, 76.29297
864.2960, 216.9922
865.4280, 254.6738
866.5600, 188.3242
867.6920, 179.9512
868.8240, 196.5508
869.9560, 116.1230
871.0880, 278.6660
872.2190, 344.2012
873.3500, 305.7090
874.4810, 312.2090
875.6120, 300.6777
876.7430, 197.1523
877.8740, 274.5996
879.0040, 239.0391
880.1340, 57.45703
881.2650, 120.8027
882.3950, 50.15820
883.5240, 31.23242
884.6540, 6.382813
885.7830, 215.5684
886.9130, 141.8828
888.0420, 155.1367
889.1710, 253.5996
890.3000, 157.7812
891.4280, 228.3359
892.5570, 71.06836
893.6850, 302.9434
894.8130, 233.3867
895.9420, 322.4062
897.0690, 180.2324
898.1970, 218.7578
899.3250, 153.7031
900.4520, 129.6777
901.5790, 35.95508
902.7060, 3.865234
903.8330, 7.402344
904.9600, 52.64453
906.0870, 61.65820
907.2130, 41.17578
908.3390, 20.37305
909.4650, 93.36133
910.5910, 11.87500
911.7170, 75.70312
912.8430, 81.23438
913.9680, 33.10352
915.0930, 74.20508
916.2180, 34.96289
917.3430, 89.30078
918.4680, 198.9609
919.5930, 103.8730
920.7170, 16.61914
921.8420, 50.36523
922.9660, 60.68750
924.0900, 98.87500
925.2140, 135.0059
926.3370, 160.8555
927.4610, 40.32227
928.5840, 0.3203130
929.7070, 145.7969
930.8310, 172.6348
931.9530, 126.6309
933.0760, 31.69141
934.1990, 78.87500
935.3210, 118.4121
936.4430, 116.2168
937.5650, 223.6387
938.6870, 57.86719
939.8090, 111.8926
940.9310, 66.21484
942.0520, 125.0996
943.1730, 179.1777
944.2940, 38.28125
945.4150, 122.3770
946.5360, 195.4668
947.6570, 34.45117
948.7770, 156.6152
949.8970, 15.32227
951.0180, 244.7266
952.1370, 223.2773
953.2570, 319.1289
954.3770, 281.1582
955.4960, 417.1797
956.6160, 356.1973
957.7350, 555.2090
958.8540, 636.2168
959.9730, 850.2188
961.0910, 1079.215
962.2100, 1373.998
963.3280, 1480.920
964.4460, 1910.598
965.5640, 2126.578
966.6820, 2325.553
967.8000, 2373.066
968.9180, 2304.035
970.0350, 2093.748
971.1520, 2107.711
972.2690, 1976.576
973.3860, 1738.307
974.5030, 1101.262
975.6190, 971.2148
976.7360, 578.1973
977.8520, 799.1797
978.9680, 635.1621
980.0840, 712.6348
981.2000, 482.6152
982.3160, 431.5996
983.4310, 539.5840
984.5460, 652.5664
985.6610, 535.5508
986.7760, 820.0156
987.8910, 1014.998
989.0060, 988.4004
990.1200, 1381.102
991.2350, 1280.086
992.3490, 1181.102
993.4630, 1460.088
994.5760, 1110.748
995.6900, 1173.752
996.8040, 1099.758
997.9170, 1111.955
999.0300, 1127.963
1000.143, 929.9746
1001.256, 1088.953
1002.369, 866.9082
1003.481, 1094.926
1004.594, 1047.629
1005.706, 1156.652
1006.818, 1339.678
1007.930, 1229.707
1009.042, 1699.738
1010.153, 1583.771
1011.264, 1676.811
1012.376, 1961.852
1013.487, 2152.564
1014.598, 2378.809
1015.708, 2574.643
1016.819, 3448.836
1017.929, 4082.141
1019.040, 5611.832
1020.150, 7342.904
1021.260, 9488.188
1022.370, 11838.08
1023.479, 14092.17
1024.589, 15660.27
1025.698, 16290.37
1026.807, 15847.98
1027.916, 14242.11
1029.025, 11709.47
1030.133, 9328.633
1031.242, 7724.896
1032.350, 5832.973
1033.458, 4408.154
1034.566, 3719.324
1035.674, 3191.959
1036.782, 2642.092
1037.890, 2631.205
1038.997, 2402.789
1040.104, 2533.986
1041.211, 2361.111
1042.318, 2424.076
1043.425, 2666.402
1044.531, 2928.697
1045.638, 3208.008
1046.744, 3577.504
1047.850, 3836.914
1048.956, 4310.398
1050.061, 4287.270
1051.167, 4249.775
1052.272, 3910.295
1053.378, 3805.488
1054.483, 3350.910
1055.588, 3050.783
1056.692, 2733.574
1057.797, 2567.133
1058.901, 2707.771
1060.006, 2700.418
1061.110, 2887.832
1062.214, 2800.277
1063.318, 2917.949
1064.421, 3019.891
1065.525, 2950.590
1066.628, 3133.297
1067.731, 3248.230
1068.834, 3422.975
1069.937, 3506.727
1071.040, 3508.518
1072.142, 3430.480
1073.244, 3211.758
1074.347, 2878.574
1075.449, 2682.400
1076.550, 2491.238
1077.652, 2249.084
1078.754, 2111.938
1079.855, 1962.795
1080.956, 1983.877
1082.057, 1961.746
1083.158, 1959.143
1084.259, 2001.832
1085.359, 2072.098
1086.460, 2107.027
1087.560, 2253.963
1088.660, 2353.902
1089.760, 2629.848
1090.860, 2415.871
1091.959, 2447.848
1093.059, 2297.832
1094.158, 2102.826
1095.257, 1926.830
1096.356, 1475.861
1097.455, 1415.910
1098.553, 1189.965
1099.652, 1023.023
1100.750, 914.0918
1101.848, 775.1660
1102.946, 600.2461
1104.044, 540.7617
1105.141, 557.4238
1106.239, 483.5234
1107.336, 277.6270
1108.433, 434.1172
1109.530, 282.2305
1110.627, 375.2422
1111.724, 222.3672
1112.820, 164.5000
1113.917, 247.4922
1115.013, 455.6367
1116.109, 486.7832
1117.205, 325.9355
1118.300, 270.0938
1119.396, 356.2578
1120.491, 276.4258
1121.586, 254.6035
1122.681, 167.7871
1123.776, 162.9766
1124.871, 315.1738
1125.965, 260.3750
1127.060, 276.0996
1128.154, 267.6016
1129.248, 251.6016
1130.342, 176.7578
1131.436, 196.9883
1132.529, 163.2227
1133.623, 144.3008
1134.716, 150.6250
1135.809, 129.9551
1136.902, 107.2129
1137.995, 120.4727
1139.087, 11.73633
1140.180, 53.00586
1141.272, 228.2773
1142.364, 35.55469
1143.456, 124.8340
1144.548, 44.88086
1145.639, 188.3926
1146.731, 49.67578
1147.822, 102.9629
1148.913, 9.742188
1150.004, 80.55859
1151.095, 34.87109
1152.186, 117.8164
1153.276, 23.55078
1154.366, 7.710938
1155.457, 46.97852
1156.546, 210.2500
1157.636, 72.52734
1158.726, 143.8105
1159.815, 4.902344
1160.905, 44.38281
1161.994, 79.32617
1163.083, 23.06836
1164.172, 147.1816
1165.261, 26.43750
1166.349, 97.69922
1167.437, 94.96875
1168.526, 53.25000
1169.614, 26.46289
1170.702, 2.169922
1171.789, 31.12695
1172.877, 23.14062
1173.964, 23.79883
1175.051, 67.50000
1176.138, 143.8066
1177.225, 195.1172
1178.312, 44.55273
1179.399, 1.757813
1180.485, 205.0703
1181.571, 75.39258
1182.657, 200.7148
1183.743, 63.95898
1184.829, 17.96484
1185.915, 63.25977
1187.000, 22.43555
1188.085, 166.8594
1189.171, 76.17383
1190.255, 89.48828
1191.340, 129.7227
1192.425, 118.1270
1193.509, 127.3926
1194.594, 0.2207030
1195.678, 97.10352
1196.762, 63.42773
1197.846, 1.751953
1198.929, 295.0762
1200.013, 145.3984
1201.096, 224.6562
1202.179, 5.980469
1203.262, 83.69922
1204.345, 88.57422
1205.428, 288.3613
1206.510, 140.3086
1207.593, 241.5801
1208.675, 232.8535
1209.757, 211.1270
1210.839, 185.3965
1211.920, 131.9902
1213.002, 116.9414
1214.083, 62.21484
1215.164, 32.48633
1216.245, 130.5449
1217.326, 251.8164
1218.407, 135.0840
1219.488, 222.3516
1220.568, 20.22461
1221.648, 47.48633
1222.728, 225.7734
1223.808, 199.6133
1224.888, 281.8691
1225.967, 212.9160
1227.047, 265.1680
1228.126, 53.41992
1229.205, 157.6699
1230.284, 96.91406
1231.363, 120.1582
1232.441, 402.3984
1233.520, 238.6387
1234.598, 365.8750
1235.676, 102.1074
1236.754, 171.3398
1237.832, 96.43164
1238.910, 139.7305
1239.987, 7.892578
1241.064, 216.0410
1242.141, 164.1855
1243.218, 9.328125
1244.295, 240.4609
1245.372, 239.5898
1246.448, 320.7168
1247.525, 164.8418
1248.601, 278.9609
1249.677, 329.0781
1250.753, 145.1934
1251.828, 218.3047
1252.904, 252.4141
1253.979, 142.5215
1255.054, 218.6230
1256.129, 31.27734
1257.204, 277.7871
1258.279, 235.8457
1259.353, 341.9043
1260.428, 80.95898
1261.502, 55.00977
1262.576, 108.0566
1263.650, 155.0996
1264.724, 192.1426
1265.797, 229.1816
