##NAMES=Natrolite
##RRUFFID=R060561
##IDEAL CHEMISTRY=Na_2_(Si_3_Al_2_)O_10_&#183;2H_2_O
##LOCALITY=California, USA
##OWNER=RRUFF
##SOURCE=Gemological Institute of America
##DESCRIPTION=White fragment
##STATUS=The identification of this mineral has been confirmed by X-ray diffraction and chemical analysis
##URL=rruff.info/R060561
##MEASURED CHEMISTRY=Na_2.00_(Si_3.00_Al_2.00_)O_10_Â·2H_2_O
##PIN_ID=L00669
##ORIENTATION=Laser parallel to c* (0 0 1). Fiducial mark perpendicular to laser is parallel to a [1 0 0]
79.81900, 0.0000000E+00
81.05500, 33.74585
82.29200, 87.21631
83.52800, 174.0659
84.76400, 219.4913
86.00000, 299.8838
87.23600, 344.0596
88.47200, 431.3024
89.70800, 517.5081
90.94300, 579.8445
92.17800, 456.2525
93.41300, 362.1741
94.64800, 213.2037
95.88300, 132.2333
97.11800, 40.14087
98.35200, 71.19751
99.58700, 54.90698
100.8210, 114.1243
102.0550, 87.98865
103.2890, 44.63049
104.5220, 99.83130
105.7560, 236.2867
106.9890, 378.6350
108.2230, 657.7861
109.4560, 949.6584
110.6890, 1334.178
111.9210, 1916.279
113.1540, 2500.902
114.3870, 2994.993
115.6190, 3631.505
116.8510, 3842.388
118.0830, 4245.578
119.3150, 5039.991
120.5470, 6438.548
121.7780, 7915.191
123.0100, 8891.859
124.2410, 8955.515
125.4720, 8417.132
126.7030, 7662.682
127.9340, 7076.127
129.1640, 7050.437
130.3950, 7277.588
131.6250, 7554.553
132.8550, 8017.316
134.0850, 8371.857
135.3150, 9137.158
136.5450, 9369.206
137.7750, 9587.986
139.0040, 9859.488
140.2330, 10594.70
141.4620, 11610.61
142.6910, 12423.21
143.9200, 13557.48
145.1490, 14889.44
146.3770, 14983.05
147.6060, 14797.33
148.8340, 13964.25
150.0620, 13060.82
151.2900, 12600.03
152.5170, 12242.87
153.7450, 12413.27
154.9720, 13087.00
156.2000, 14029.56
157.4270, 15602.25
158.6540, 17384.77
159.8810, 19785.49
161.1070, 22726.50
162.3340, 25978.83
163.5600, 28971.37
164.7860, 30576.12
166.0120, 29786.21
167.2380, 27671.78
168.4640, 24672.79
169.6890, 21738.24
170.9150, 19370.07
172.1400, 17675.23
173.3650, 16336.70
174.5900, 15499.47
175.8150, 14536.56
177.0400, 13516.98
178.2640, 12584.72
179.4880, 12035.81
180.7130, 11364.22
181.9370, 11198.98
183.1600, 11296.08
184.3840, 11606.52
185.6080, 11651.31
186.8310, 12009.44
188.0540, 12069.93
189.2770, 11751.77
190.5000, 11204.96
191.7230, 10657.50
192.9460, 10170.38
194.1680, 9890.626
195.3910, 9759.854
196.6130, 9700.962
197.8350, 9857.472
199.0570, 10071.13
200.2780, 10298.14
201.5000, 10887.50
202.7210, 11155.22
203.9420, 11122.29
205.1640, 11295.72
206.3840, 11938.50
207.6050, 12498.64
208.8260, 12917.14
210.0460, 12927.00
211.2670, 12262.22
212.4870, 11264.79
213.7070, 10380.73
214.9270, 9691.021
216.1460, 8970.673
217.3660, 8307.677
218.5850, 7772.039
219.8050, 7493.757
221.0240, 6922.826
222.2430, 6658.251
223.4610, 6278.029
224.6800, 5859.155
225.8980, 5613.635
227.1170, 5369.794
228.3350, 5119.373
229.5530, 5151.449
230.7710, 5000.111
231.9880, 5028.186
233.2060, 4922.752
234.4230, 4968.986
235.6400, 5089.240
236.8570, 5126.381
238.0740, 5272.632
239.2910, 5437.310
240.5080, 5885.123
241.7240, 6011.307
242.9400, 6270.668
244.1570, 5891.972
245.3730, 5573.346
246.5880, 5175.660
247.8040, 4609.201
249.0190, 4321.006
250.2350, 4094.222
251.4500, 3685.387
252.6650, 3653.838
253.8800, 3374.565
255.0950, 3537.526
256.3090, 3408.332
257.5240, 3355.761
258.7380, 3365.758
259.9520, 3373.089
261.1660, 3574.919
262.3800, 3602.980
263.5930, 3613.379
264.8070, 3830.109
266.0200, 3774.166
267.2330, 3792.544
268.4460, 3963.239
269.6590, 3961.248
270.8720, 4175.566
272.0850, 4029.192
273.2970, 4242.119
274.5090, 4455.346
275.7210, 4219.868
276.9330, 4025.684
278.1450, 3705.787
279.3570, 3530.178
280.5680, 3286.850
281.7790, 2950.806
282.9910, 2981.040
284.2020, 2621.548
285.4120, 2748.329
286.6230, 2681.382
287.8340, 2680.702
289.0440, 2606.288
290.2540, 2614.136
291.4640, 2737.245
292.6740, 2672.611
293.8840, 2753.234
295.0940, 2757.113
296.3030, 2823.121
297.5120, 2970.618
298.7210, 3043.243
299.9300, 3201.113
301.1390, 3428.228
302.3480, 3715.586
303.5560, 4236.188
304.7650, 4947.034
305.9730, 5035.305
307.1810, 5567.467
308.3890, 5248.061
309.5970, 4248.898
310.8040, 3932.982
312.0120, 3184.307
313.2190, 2550.882
314.4260, 2108.695
315.6330, 1943.753
316.8400, 1681.062
318.0460, 1807.606
319.2530, 1581.384
320.4590, 1587.008
321.6650, 1632.856
322.8710, 1572.126
324.0770, 1720.855
325.2830, 1739.856
326.4880, 1762.095
327.6940, 1843.916
328.8990, 1898.980
330.1040, 2047.497
331.3090, 2088.838
332.5140, 2026.130
333.7180, 2001.330
334.9230, 1780.419
336.1270, 1791.793
337.3310, 1571.432
338.5350, 1468.326
339.7390, 1236.472
340.9430, 1136.866
342.1460, 1010.502
343.3500, 1061.371
344.5530, 1148.469
345.7560, 1144.792
346.9590, 1155.330
348.1620, 1333.088
349.3640, 1278.065
350.5670, 1457.264
351.7690, 1486.670
352.9710, 1645.304
354.1730, 1840.172
355.3750, 2095.254
356.5760, 2356.620
357.7780, 2551.201
358.9790, 2828.993
360.1800, 2852.994
361.3810, 2762.211
362.5820, 2541.650
363.7830, 2522.285
364.9830, 2049.143
366.1840, 1585.195
367.3840, 1297.464
368.5840, 1126.957
369.7840, 1007.656
370.9840, 769.4336
372.1830, 558.8047
373.3830, 442.2168
374.5820, 158.8926
375.7810, 94.80273
376.9800, 120.9551
378.1790, 41.65625
379.3780, 93.03906
380.5760, 155.1855
381.7750, 26.88086
382.9730, 158.8027
384.1710, 149.2715
385.3690, 253.5020
386.5660, 290.5215
387.7640, 230.3594
388.9610, 277.9902
390.1590, 272.7695
391.3560, 240.6328
392.5530, 260.6387
393.7500, 223.4531
394.9460, 148.0840
396.1430, 303.5215
397.3390, 206.8125
398.5350, 200.9277
399.7310, 246.8711
400.9270, 223.6562
402.1230, 46.27539
403.3180, 160.6895
404.5140, 130.9258
405.7090, 132.0176
406.9040, 279.1758
408.0990, 296.5469
409.2930, 400.1270
410.4880, 616.9180
411.6820, 595.9160
412.8770, 619.1211
414.0710, 541.5312
415.2650, 707.1465
416.4590, 700.9648
417.6520, 755.9863
418.8460, 757.2090
420.0390, 1101.631
421.2320, 1222.252
422.4250, 1305.070
423.6180, 1674.088
424.8110, 2155.299
426.0030, 2600.705
427.1960, 3198.305
428.3880, 3996.098
429.5800, 4772.082
430.7720, 5554.256
431.9640, 6624.619
433.1550, 7827.170
434.3470, 8916.906
435.5380, 9617.834
436.7290, 10313.95
437.9200, 10689.24
439.1110, 11204.71
440.3020, 11474.37
441.4920, 12271.21
442.6820, 13055.23
443.8730, 13801.43
445.0630, 14736.81
446.2530, 15458.37
447.4420, 15953.11
448.6320, 15792.05
449.8210, 14623.67
451.0100, 12083.49
452.2000, 9974.910
453.3880, 7442.727
454.5770, 5554.492
455.7660, 3979.945
456.9540, 2995.045
458.1430, 2055.621
459.3310, 1363.848
460.5190, 1166.443
461.7070, 688.2031
462.8940, 670.5352
464.0820, 698.4688
465.2690, 620.7090
466.4560, 87.88867
467.6430, 99.04883
468.8300, 135.6895
470.0170, 86.78125
471.2040, 158.1777
472.3900, 243.6348
473.5760, 199.2070
474.7620, 282.4922
475.9480, 258.9746
477.1340, 353.2676
478.3200, 573.6543
479.5050, 546.9980
480.6900, 685.1289
481.8750, 993.1953
483.0600, 1283.768
484.2450, 1356.332
485.4300, 1686.785
486.6140, 2000.695
487.7990, 2239.914
488.9830, 2707.660
490.1670, 3165.855
491.3510, 3429.291
492.5350, 3678.701
493.7180, 3901.549
494.9020, 3904.096
496.0850, 3980.311
497.2680, 3819.023
498.4510, 3805.910
499.6340, 3764.316
500.8160, 3427.104
501.9990, 3486.895
503.1810, 3219.449
504.3630, 3033.766
505.5450, 3352.934
506.7270, 3081.266
507.9090, 3140.129
509.0900, 2953.107
510.2720, 3128.902
511.4530, 3112.160
512.6340, 3327.953
513.8150, 3582.227
514.9950, 3916.461
516.1760, 3911.924
517.3560, 4189.582
518.5370, 4627.887
519.7170, 5015.447
520.8970, 5838.465
522.0770, 6779.539
523.2560, 7828.668
524.4360, 9421.373
525.6150, 11041.04
526.7940, 13520.34
527.9730, 15955.68
529.1520, 19357.42
530.3310, 23343.58
531.5090, 27657.84
532.6870, 31136.78
533.8660, 32754.41
535.0440, 31807.41
536.2210, 28401.66
537.3990, 23660.17
538.5770, 18840.88
539.7540, 14783.79
540.9310, 11398.92
542.1080, 8970.676
543.2850, 6983.246
544.4620, 5655.693
545.6390, 4529.238
546.8150, 3781.709
547.9920, 3114.361
549.1680, 2719.090
550.3440, 2363.889
551.5190, 2070.756
552.6950, 1810.695
553.8710, 1562.703
555.0460, 1258.793
556.2210, 1017.959
557.3960, 858.3184
558.5710, 835.5273
559.7460, 631.9180
560.9200, 675.3711
562.0950, 677.8848
563.2690, 572.4590
564.4430, 508.0918
565.6170, 491.7891
566.7910, 439.5410
567.9640, 420.3457
569.1380, 278.2070
570.3110, 348.1191
571.4840, 249.0840
572.6570, 334.0977
573.8300, 238.1602
575.0030, 321.2715
576.1750, 273.4297
577.3470, 339.6328
578.5200, 105.8809
579.6920, 238.1719
580.8630, 149.5078
582.0350, 104.8848
583.2070, 115.3008
584.3780, 226.7598
585.5490, 119.2539
586.7200, 147.2148
587.8910, 95.36719
589.0620, 90.97656
590.2330, 24.61914
591.4030, 1.275391
592.5730, 121.9453
593.7430, 39.64648
594.9130, 162.3613
596.0830, 7.105469
597.2530, 158.8477
598.4220, 43.62305
599.5920, 13.59570
600.7610, 146.1797
601.9300, 205.9766
603.0990, 91.79883
604.2670, 71.63477
605.4360, 169.4824
606.6040, 4.357422
607.7720, 114.5898
608.9400, 42.86328
610.1080, 158.7812
611.2760, 178.0898
612.4440, 119.4395
613.6110, 89.80273
614.7780, 42.28906
615.9450, 106.1426
617.1120, 116.8145
618.2790, 22.41797
619.4460, 109.2285
620.6120, 64.46680
621.7780, 59.25977
622.9450, 46.16406
624.1110, 23.34375
625.2760, 21.25195
626.4420, 39.46875
627.6080, 36.99805
628.7730, 141.5684
629.9380, 79.57031
631.1030, 78.51172
632.2680, 54.73242
633.4330, 191.4180
634.5970, 12.92969
635.7620, 24.72266
636.9260, 90.53516
638.0900, 232.5039
639.2540, 64.55859
640.4180, 91.24023
641.5810, 97.61523
642.7450, 45.96094
643.9080, 11.36914
645.0710, 230.1660
646.2340, 5.248047
647.3970, 165.8789
648.5590, 35.00391
649.7220, 18.72070
650.8840, 64.50391
652.0460, 46.75000
653.2080, 85.93750
654.3700, 233.7969
655.5320, 46.59375
656.6930, 226.9121
657.8550, 140.9453
659.0160, 348.2715
660.1770, 263.0410
661.3380, 95.32812
662.4990, 219.2930
663.6590, 209.9375
664.8200, 268.9883
665.9800, 34.12695
667.1400, 60.76758
668.3000, 327.3770
669.4600, 181.2188
670.6190, 334.1406
671.7790, 251.6523
672.9380, 303.1953
674.0970, 465.9492
675.2560, 532.5781
676.4150, 524.0215
677.5740, 479.4355
678.7320, 409.8770
679.8900, 490.5371
681.0490, 322.4668
682.2070, 348.0020
683.3640, 615.5391
684.5220, 578.0488
685.6800, 662.3887
686.8370, 681.6875
687.9940, 817.8164
689.1510, 795.8789
690.3080, 877.0527
691.4650, 970.0820
692.6220, 1005.422
693.7780, 1243.383
694.9340, 1452.355
696.0900, 1558.904
697.2460, 1871.820
698.4020, 1797.209
699.5580, 2053.881
700.7130, 2100.012
701.8680, 2502.852
703.0240, 2323.816
704.1790, 2488.529
705.3330, 2731.922
706.4880, 2646.365
707.6430, 2582.484
708.7970, 2319.721
709.9510, 2114.146
711.1050, 2136.361
712.2590, 1977.438
713.4130, 1661.695
714.5660, 1907.971
715.7200, 1958.881
716.8730, 1710.734
718.0260, 1941.980
719.1790, 1647.293
720.3320, 2226.979
721.4840, 1946.604
722.6370, 2102.418
723.7890, 2330.926
724.9410, 2390.684
726.0930, 2422.074
727.2450, 2570.207
728.3960, 2479.744
729.5480, 2322.416
730.6990, 2174.070
731.8500, 1771.158
733.0010, 1635.967
734.1520, 1452.180
735.3030, 1230.564
736.4530, 1086.156
737.6040, 818.6289
738.7540, 743.7773
739.9040, 709.4375
741.0540, 588.8906
742.2030, 623.0137
743.3530, 537.2637
744.5020, 410.6719
745.6520, 207.2402
746.8010, 356.0371
747.9490, 282.3047
749.0980, 458.0703
750.2470, 301.5254
751.3950, 216.0664
752.5440, 391.7305
753.6920, 166.6289
754.8400, 395.3594
755.9870, 359.5586
757.1350, 190.0605
758.2820, 288.3652
759.4300, 235.9609
760.5770, 245.6934
761.7240, 75.58203
762.8710, 52.03125
764.0170, 200.1797
765.1640, 111.1309
766.3100, 246.0508
767.4560, 208.1719
768.6020, 140.0410
769.7480, 44.92383
770.8940, 83.23047
772.0400, 1.080078
773.1850, 163.8379
774.3300, 57.59961
775.4750, 111.6758
776.6200, 44.56250
777.7650, 277.5586
778.9090, 368.1406
780.0540, 191.1191
781.1980, 68.61133
782.3420, 232.0391
783.4860, 67.76953
784.6300, 139.1719
785.7740, 7.255859
786.9170, 155.9043
788.0600, 147.0312
789.2030, 56.84180
790.3460, 158.5156
791.4890, 326.9102
792.6320, 76.13477
793.7740, 95.71094
794.9170, 113.0488
796.0590, 172.0645
797.2010, 249.0449
798.3430, 174.5586
799.4850, 110.1895
800.6260, 255.2734
801.7670, 101.1055
802.9090, 172.5215
804.0500, 222.5703
805.1910, 216.5449
806.3310, 98.86523
807.4720, 171.8438
808.6120, 59.11719
809.7530, 215.1094
810.8930, 192.2676
812.0330, 201.3379
813.1720, 218.2832
814.3120, 268.1738
815.4510, 237.0078
816.5910, 188.7871
817.7300, 156.6250
818.8690, 204.4199
820.0080, 107.0215
821.1460, 198.5586
822.2850, 232.0371
823.4230, 235.4590
824.5610, 264.8457
825.6990, 283.7578
826.8370, 232.3965
827.9750, 254.6016
829.1120, 177.7500
830.2500, 4.841797
831.3870, 1.851563
832.5240, 16.21680
833.6610, 48.62695
834.7980, 76.41602
835.9340, 255.0977
837.0700, 165.7480
838.2070, 194.3418
839.3430, 173.8789
840.4790, 105.3613
841.6140, 262.7793
842.7500, 230.1445
843.8850, 138.4590
845.0210, 370.7129
846.1560, 200.9141
847.2910, 228.0664
848.4260, 414.1641
849.5600, 201.2109
850.6950, 192.2090
851.8290, 301.1523
852.9630, 339.0488
854.0970, 174.8926
855.2310, 159.6855
856.3650, 340.4219
857.4980, 403.1094
858.6310, 93.75000
859.7650, 475.3281
860.8980, 86.85938
862.0310, 262.3320
863.1630, 127.7578
864.2960, 187.1270
865.4280, 226.4473
866.5600, 21.73242
867.6920, 520.9648
868.8240, 304.8301
869.9560, 191.2969
871.0880, 324.3965
872.2190, 129.4629
873.3500, 332.4766
874.4810, 78.46875
875.6120, 302.4277
876.7430, 112.3418
877.8740, 355.2031
879.0040, 138.0254
880.1340, 238.8008
881.2650, 224.2422
882.3950, 74.02930
883.5240, 87.06055
884.6540, 101.1445
885.7830, 111.8066
886.9130, 102.4570
888.0420, 137.0410
889.1710, 159.6934
890.3000, 98.65234
891.4280, 283.3965
892.5570, 155.9941
893.6850, 277.7383
894.8130, 292.8320
895.9420, 228.4102
897.0690, 116.1855
898.1970, 54.27930
899.3250, 36.16797
900.4520, 6.878906
901.5790, 196.0586
902.7060, 91.90625
903.8330, 44.69336
904.9600, 234.7129
906.0870, 123.0098
907.2130, 28.35938
908.3390, 191.0586
909.4650, 180.8555
910.5910, 70.67383
911.7170, 169.7305
912.8430, 130.4336
913.9680, 61.69531
915.0930, 222.0742
916.2180, 307.4258
917.3430, 129.6484
918.4680, 185.4180
919.5930, 73.84961
920.7170, 27.68359
921.8420, 120.9707
922.9660, 16.03516
924.0900, 68.92578
925.2140, 75.51367
926.3370, 82.18750
927.4610, 93.07227
928.5840, 69.21680
929.7070, 100.2324
930.8310, 135.5566
931.9530, 102.0078
933.0760, 0.9101560
934.1990, 302.2578
935.3210, 117.8809
936.4430, 122.7773
937.5650, 251.2168
938.6870, 195.5332
939.8090, 191.5703
940.9310, 143.0176
942.0520, 90.49609
943.1730, 103.8613
944.2940, 47.60938
945.4150, 97.40234
946.5360, 104.6895
947.6570, 160.2988
948.7770, 207.8984
949.8970, 156.6895
951.0180, 289.3398
952.1370, 89.73828
953.2570, 82.83398
954.3770, 324.2930
955.4960, 230.7383
956.6160, 480.1621
957.7350, 443.7090
958.8540, 727.2520
959.9730, 966.9023
961.0910, 1002.561
962.2100, 1551.041
963.3280, 1466.605
964.4460, 1700.795
965.5640, 2678.299
966.6820, 2976.729
967.8000, 2736.514
968.9180, 2926.869
970.0350, 2441.684
971.1520, 2351.150
972.2690, 2107.098
973.3860, 1729.264
974.5030, 1128.244
975.6190, 908.4062
976.7360, 712.8223
977.8520, 734.1230
978.9680, 363.6816
980.0840, 648.0547
981.2000, 600.1699
982.3160, 666.4277
983.4310, 484.7559
984.5460, 721.0156
985.6610, 719.0059
986.7760, 786.6074
987.8910, 665.8828
989.0060, 758.6953
990.1200, 884.3730
991.2350, 1048.609
992.3490, 1115.834
993.4630, 1265.799
994.5760, 1272.838
995.6900, 1280.910
996.8040, 1231.238
997.9170, 1168.592
999.0300, 1065.439
1000.143, 910.9453
1001.256, 901.2676
1002.369, 801.1289
1003.481, 903.5508
1004.594, 780.4062
1005.706, 899.4961
1006.818, 1170.828
1007.930, 955.7031
1009.042, 979.9219
1010.153, 1111.451
1011.264, 1051.197
1012.376, 1174.652
1013.487, 1165.041
1014.598, 1332.318
1015.708, 1428.758
1016.819, 1894.631
1017.929, 2227.633
1019.040, 2703.770
1020.150, 4021.689
1021.260, 4605.848
1022.370, 6206.713
1023.479, 7578.418
1024.589, 9116.016
1025.698, 10000.20
1026.807, 10399.18
1027.916, 9441.129
1029.025, 8118.086
1030.133, 6380.029
1031.242, 5014.383
1032.350, 3915.326
1033.458, 3254.668
1034.566, 2663.723
1035.674, 2431.662
1036.782, 2177.232
1037.890, 2085.525
1038.997, 1937.467
1040.104, 1986.984
1041.211, 2137.977
1042.318, 1966.119
1043.425, 2076.602
1044.531, 2507.475
1045.638, 2483.652
1046.744, 2760.822
1047.850, 3079.234
1048.956, 3005.316
1050.061, 2995.395
1051.167, 2682.543
1052.272, 2709.086
1053.378, 2528.008
1054.483, 2375.299
1055.588, 2379.285
1056.692, 1623.723
1057.797, 1750.863
1058.901, 1652.074
1060.006, 1737.699
1061.110, 1803.570
1062.214, 1823.723
1063.318, 1975.127
1064.421, 2121.545
1065.525, 2123.475
1066.628, 2233.748
1067.731, 2298.842
1068.834, 2551.064
1069.937, 2698.508
1071.040, 2392.975
1072.142, 2663.217
1073.244, 2669.273
1074.347, 2353.426
1075.449, 2294.330
1076.550, 2105.479
1077.652, 2007.355
1078.754, 1783.285
1079.855, 1713.238
1080.956, 1755.527
1082.057, 1815.770
1083.158, 1757.242
1084.259, 1697.316
1085.359, 1908.023
1086.460, 2317.871
1087.560, 2207.742
1088.660, 2311.766
1089.760, 2657.783
1090.860, 2510.271
1091.959, 2552.270
1093.059, 2654.564
1094.158, 2438.600
1095.257, 2040.566
1096.356, 1834.809
1097.455, 1732.805
1098.553, 1496.756
1099.652, 1171.715
1100.750, 875.7617
1101.848, 639.7324
1102.946, 645.6934
1104.044, 485.6465
1105.141, 598.5977
1106.239, 739.0801
1107.336, 514.0078
1108.433, 464.9316
1109.530, 434.2051
1110.627, 535.1094
1111.724, 374.0625
1112.820, 461.9512
1113.917, 275.1875
1115.013, 412.0586
1116.109, 69.91992
1117.205, 202.7695
1118.300, 40.12305
1119.396, 318.9492
1120.491, 370.7695
1121.586, 400.5801
1122.681, 241.3828
1123.776, 156.1758
1124.871, 339.1133
1125.965, 74.27539
1127.060, 129.0430
1128.154, 381.8047
1129.248, 130.5586
1130.342, 259.3047
1131.436, 31.04492
1132.529, 304.7695
1133.623, 192.7129
1134.716, 45.42578
1135.809, 200.1270
1136.902, 135.8203
1137.995, 166.5020
1139.087, 63.82031
1140.180, 29.81250
1141.272, 7.435547
1142.364, 176.0430
1143.456, 253.6523
1144.548, 225.2441
1145.639, 59.83203
1146.731, 17.40234
1147.822, 149.2500
1148.913, 191.8047
1150.004, 217.3555
1151.095, 137.1055
1152.186, 344.3555
1153.276, 51.93750
1154.366, 114.4805
1155.457, 179.1133
1156.546, 75.18750
1157.636, 48.47656
1158.726, 191.3945
1159.815, 302.3164
1160.905, 245.4688
1161.994, 174.8203
1163.083, 112.0586
1164.172, 130.2930
1165.261, 56.17188
1166.349, 221.1680
1167.437, 125.6445
1168.526, 7.359375
1169.614, 254.7383
1170.702, 39.05859
1171.789, 93.98828
1172.877, 97.46094
1173.964, 15.48828
1175.051, 10.80859
1176.138, 83.80469
1177.225, 197.7344
1178.312, 187.5859
1179.399, 206.5078
1180.485, 188.7305
1181.571, 112.6953
1182.657, 46.65234
1183.743, 62.41016
1184.829, 209.4688
1185.915, 205.3438
1187.000, 12.80078
1188.085, 239.0234
1189.171, 32.14453
1190.255, 241.6406
1191.340, 298.4648
1192.425, 57.24219
1193.509, 63.00000
1194.594, 81.72266
1195.678, 167.4258
1196.762, 233.1367
1197.846, 10.83594
1198.929, 110.5117
1200.013, 3.171875
1201.096, 60.80859
1202.179, 112.4297
1203.262, 193.0312
1204.345, 129.6211
1205.428, 195.1992
1206.510, 108.7617
1207.593, 118.3086
1208.675, 179.8438
1209.757, 186.4023
1210.839, 88.91016
1211.920, 97.39844
1213.002, 12.67188
1214.083, 133.7695
1215.164, 18.19531
1216.245, 276.5820
1217.326, 64.02734
1218.407, 339.5273
1219.488, 399.8359
1220.568, 53.13281
1221.648, 195.4102
1222.728, 94.69141
1223.808, 153.9375
1224.888, 174.1758
1225.967, 99.39453
1227.047, 156.7656
1228.126, 247.7812
1229.205, 187.9570
1230.284, 147.1172
1231.363, 165.2578
1232.441, 341.5352
1233.520, 185.6523
1234.598, 164.7539
1235.676, 41.83984
1236.754, 199.9102
1237.832, 310.9609
1238.910, 80.00000
1239.987, 185.0234
1241.064, 153.0312
1242.141, 209.0234
1243.218, 80.00391
1244.295, 223.9648
1245.372, 193.9141
1246.448, 320.6680
1247.525, 44.58984
1248.601, 167.1836
1249.677, 185.0703
1250.753, 475.9453
1251.828, 267.8047
1252.904, 183.6523
1253.979, 127.4883
1255.054, 71.30469
1256.129, 240.9297
1257.204, 302.7227
1258.279, 234.4961
1259.353, 273.2578
1260.428, 343.0078
1261.502, 423.4062
1262.576, 109.1562
1263.650, 383.8906
