##NAMES=Nepheline
##RRUFFID=R040025
##IDEAL CHEMISTRY=Na_3_K(Al_4_Si_4_O_16_)
##LOCALITY=Bancroft, Ontario, Canada
##OWNER=RRUFF
##SOURCE=University of Arizona Mineral Museum
##DESCRIPTION=White massive
##STATUS=The identification of this mineral has been confirmed by X-ray diffraction and chemical analysis
##URL=rruff.info/R040025
##MEASURED CHEMISTRY=(Na_0.77_K_0.23_)_Î£=1_Al_1.00_Si_1.00_O_4_
##PIN_ID=L00445
##ORIENTATION=Laser parallel to -a* (-1 0 0). Fiducial mark perpendicular to laser is parallel to -c [0 0 -1]
121.150, 0.000
122.543, 16.647
123.936, 2.122
125.328, 68.226
126.720, 266.722
128.112, 277.730
129.504, 457.992
130.896, 475.385
132.287, 368.394
133.678, 405.937
135.069, 237.341
136.460, 232.064
137.850, 169.602
139.240, 99.517
140.630, 91.441
142.020, 55.075
143.410, 160.164
144.799, 236.564
146.188, 204.464
147.577, 393.887
148.965, 494.620
150.354, 736.413
151.742, 839.072
153.130, 1192.446
154.517, 1446.412
155.905, 1330.874
157.292, 1135.750
158.679, 1340.977
160.066, 1376.501
161.452, 1922.277
162.839, 1408.271
164.225, 1704.443
165.611, 1750.771
166.996, 1537.314
168.381, 1495.775
169.767, 1376.517
171.152, 1218.434
172.536, 951.358
173.921, 1054.529
175.305, 887.296
176.689, 959.696
178.073, 991.761
179.456, 1033.520
180.839, 1054.998
182.222, 1056.219
183.605, 1067.203
184.988, 1257.971
186.370, 1358.538
187.752, 1608.919
189.134, 1689.127
190.516, 1919.174
191.898, 2279.068
193.279, 2238.821
194.660, 2858.440
196.041, 3227.936
197.421, 3467.312
198.801, 3916.576
200.182, 4015.736
201.561, 4394.799
202.941, 4293.770
204.321, 4282.637
205.700, 4151.375
207.079, 3900.025
208.457, 3568.615
209.836, 3087.159
211.214, 2695.671
212.592, 2428.728
213.970, 2122.789
215.348, 1793.953
216.725, 1762.196
218.102, 1753.387
219.479, 1630.482
220.856, 1557.518
222.232, 1742.662
223.608, 1642.440
224.984, 1733.817
226.360, 1688.977
227.736, 1654.204
229.111, 1639.496
230.486, 1584.851
231.861, 1480.260
233.236, 1325.724
234.610, 1221.237
235.984, 916.799
237.358, 1012.402
238.732, 788.048
240.105, 693.732
241.479, 609.451
242.852, 515.207
244.224, 620.994
245.597, 426.828
246.969, 522.692
248.342, 448.600
249.713, 404.531
251.085, 550.489
252.457, 546.457
253.828, 752.444
255.199, 718.452
256.570, 1004.462
257.940, 1150.476
259.310, 1476.495
260.681, 1602.528
262.050, 1788.565
263.420, 1904.612
264.790, 2070.664
266.159, 1956.739
267.528, 1802.814
268.896, 1588.888
270.265, 1394.961
271.633, 1221.021
273.001, 927.070
274.369, 683.118
275.737, 689.207
277.104, 385.293
278.471, 351.381
279.838, 267.493
281.205, 173.664
282.572, 109.832
283.938, 166.037
285.304, 122.244
286.670, 306.660
288.035, 211.870
289.401, 457.609
290.766, 373.762
292.131, 670.231
293.495, 736.960
294.860, 753.900
296.224, 651.023
297.588, 428.301
298.952, 325.710
300.315, 53.235
301.679, 90.860
303.042, 21.429
304.405, 123.655
305.767, 155.861
307.130, 178.060
308.492, 170.264
309.854, 132.459
311.216, 194.659
312.578, 156.887
313.939, 109.143
315.300, 51.415
316.661, 83.699
318.021, 135.985
319.382, 1.688
320.742, 110.645
322.102, 102.985
323.462, 5.359
324.821, 57.752
326.181, 120.166
327.540, 67.374
328.899, 124.907
330.257, 132.460
331.616, 250.010
332.974, 287.546
334.332, 245.052
335.690, 332.548
337.047, 410.006
338.405, 527.426
339.762, 794.806
341.119, 922.156
342.475, 1319.473
343.832, 1376.756
345.188, 1694.003
346.544, 1841.219
347.900, 2148.404
349.255, 2115.561
350.610, 2022.686
351.965, 1929.782
353.320, 1686.848
354.675, 1343.934
356.029, 1250.940
357.384, 1197.918
358.738, 1134.866
360.091, 1031.782
361.445, 1008.855
362.798, 1015.978
364.151, 872.805
365.504, 1079.604
366.857, 1177.910
368.209, 1134.688
369.561, 1321.473
370.913, 1498.602
372.265, 1596.631
373.617, 1753.527
374.968, 1860.352
376.319, 2106.898
377.670, 2264.098
379.021, 2730.585
380.371, 2946.698
381.721, 3102.804
383.071, 3739.260
384.421, 4016.316
385.770, 4543.195
387.120, 5119.125
388.469, 5615.092
389.818, 6580.910
391.166, 7147.022
392.515, 7962.764
393.863, 8798.569
395.211, 9795.243
396.559, 10781.874
397.906, 11287.579
399.254, 11892.970
400.601, 12300.365
401.948, 11755.752
403.294, 11812.200
404.641, 11658.063
405.987, 11494.254
407.333, 11421.831
408.679, 11287.958
410.025, 11313.719
411.370, 10719.291
412.715, 10464.963
414.060, 9921.120
415.405, 9166.788
416.749, 8752.433
418.093, 7657.219
419.437, 7032.357
420.781, 6287.471
422.125, 5642.812
423.468, 5128.404
424.811, 4414.533
426.154, 4004.558
427.497, 3500.430
428.839, 3375.816
430.182, 2811.633
431.524, 2757.156
432.866, 2564.012
434.207, 2340.858
435.549, 2258.235
436.890, 2030.009
438.231, 2065.408
439.572, 1890.469
440.912, 1937.838
442.252, 2095.238
443.593, 2064.516
444.932, 2039.307
446.272, 2224.470
447.611, 2229.164
448.951, 2384.217
450.290, 2628.998
451.628, 2773.545
452.967, 3068.275
454.305, 3652.895
455.644, 4166.912
456.981, 4991.684
458.319, 6076.344
459.657, 7800.715
460.994, 9775.438
462.331, 11740.594
463.668, 13185.164
465.004, 13697.074
466.341, 13042.016
467.677, 11235.316
469.013, 9467.270
470.348, 7613.896
471.684, 6148.834
473.019, 4870.273
474.354, 3843.092
475.689, 3089.771
477.024, 2658.703
478.358, 2390.592
479.692, 1994.193
481.026, 1726.520
482.360, 1488.590
483.694, 1414.947
485.027, 1166.314
486.360, 946.016
487.693, 1200.467
489.026, 884.654
490.358, 924.557
491.691, 879.566
493.023, 893.740
494.354, 837.201
495.686, 966.066
497.017, 939.801
498.349, 823.568
499.680, 726.799
501.010, 601.703
502.341, 595.246
503.671, 569.070
505.001, 471.961
506.331, 345.367
507.661, 548.699
508.990, 312.367
510.319, 525.383
511.648, 478.588
512.977, 321.217
514.306, 254.010
515.634, 326.852
516.962, 319.371
518.290, 271.652
519.618, 383.762
520.945, 225.824
522.273, 207.838
523.600, 379.803
524.927, 281.725
526.253, 43.613
527.580, 265.439
528.906, 257.225
530.232, 168.963
531.558, 50.650
532.883, 212.279
534.208, 223.859
535.534, 345.389
536.858, 86.871
538.183, 198.379
539.508, 240.527
540.832, 201.859
542.156, 93.178
543.480, 44.445
544.803, 45.652
546.127, 136.920
547.450, 108.035
548.773, 139.088
550.096, 80.090
551.418, 151.043
552.741, 131.947
554.063, 43.002
555.385, 43.803
556.706, 144.547
558.028, 215.242
559.349, 16.240
560.670, 206.846
561.991, 47.400
563.312, 87.895
564.632, 58.338
565.952, 8.725
567.272, 59.227
568.592, 90.438
569.911, 131.121
571.231, 101.305
572.550, 51.766
573.869, 91.945
575.187, 91.980
576.506, 292.656
577.824, 202.590
579.142, 202.473
580.460, 142.303
581.778, 82.080
583.095, 42.334
584.412, 38.008
585.729, 52.234
587.046, 102.148
588.363, 51.953
589.679, 71.395
590.995, 11.227
592.311, 10.516
593.627, 0.020
594.942, 70.650
596.258, 68.354
597.573, 128.246
598.888, 2.516
600.202, 3.701
601.517, 34.346
602.831, 165.035
604.145, 73.680
605.459, 172.967
606.772, 81.809
608.086, 141.047
609.399, 189.410
610.712, 138.389
612.024, 157.258
613.337, 295.809
614.649, 104.088
615.961, 122.889
617.273, 180.926
618.585, 89.549
619.896, 37.773
621.208, 105.885
622.519, 124.518
623.829, 232.277
625.140, 110.705
626.450, 68.574
627.761, 43.691
629.071, 36.615
630.380, 15.150
631.690, 62.816
632.999, 10.781
634.308, 119.084
635.617, 53.322
636.926, 64.617
638.235, 42.621
639.543, 89.471
640.851, 8.395
642.159, 56.834
643.466, 4.795
644.774, 22.893
646.081, 40.848
647.388, 71.557
648.695, 6.135
650.002, 38.998
651.308, 156.424
652.614, 54.465
653.920, 72.502
655.226, 61.082
656.531, 182.387
657.837, 9.209
659.142, 86.375
660.447, 43.312
661.752, 219.846
663.056, 87.557
664.360, 94.475
665.664, 40.719
666.968, 146.967
668.272, 96.479
669.575, 222.982
670.879, 186.604
672.182, 163.414
673.484, 229.312
674.787, 276.055
676.089, 422.387
677.392, 388.412
678.694, 544.611
679.995, 670.135
681.297, 596.408
682.598, 585.613
683.899, 559.818
685.200, 516.814
686.501, 432.246
687.802, 447.754
689.102, 382.111
690.402, 377.559
691.702, 342.998
693.002, 308.523
694.301, 283.031
695.600, 117.943
696.899, 313.096
698.198, 335.924
699.497, 390.385
700.795, 324.076
702.093, 277.998
703.391, 302.107
704.689, 496.541
705.987, 400.758
707.284, 375.031
708.581, 349.439
709.878, 253.465
711.175, 407.934
712.472, 391.367
713.768, 445.102
715.064, 224.748
716.360, 467.168
717.656, 311.008
718.951, 433.816
720.247, 417.041
721.542, 330.299
722.837, 251.672
724.131, 81.996
725.426, 195.041
726.720, 408.631
728.014, 222.648
729.308, 275.215
730.601, 321.340
731.895, 134.145
733.188, 427.730
734.481, 360.895
735.774, 524.010
737.067, 366.824
738.359, 169.656
739.651, 371.541
740.943, 129.590
742.235, 191.578
743.526, 203.982
744.818, 275.896
746.109, 168.016
747.400, 278.953
748.691, 209.789
749.981, 229.834
751.271, 295.408
752.562, 47.285
753.851, 189.699
755.141, 429.453
756.431, 119.105
757.720, 86.803
759.009, 248.916
760.298, 80.576
761.587, 172.969
762.875, 64.600
764.163, 346.434
765.451, 98.432
766.739, 110.168
768.027, 172.211
769.314, 224.512
770.601, 85.980
771.888, 297.484
773.175, 99.191
774.462, 180.475
775.748, 191.238
777.034, 52.512
778.320, 263.816
779.606, 85.537
780.892, 216.705
782.177, 247.660
783.462, 15.740
784.747, 34.736
786.032, 244.639
787.317, 165.365
788.601, 75.059
789.885, 275.955
791.169, 131.703
792.453, 112.295
793.736, 122.635
795.019, 106.018
796.303, 5.428
797.585, 5.791
798.868, 114.367
800.151, 44.115
801.433, 114.197
802.715, 58.484
803.997, 82.420
805.279, 87.418
806.560, 22.113
807.841, 152.863
809.122, 17.113
810.403, 67.207
811.684, 143.135
812.964, 41.727
814.245, 81.598
815.525, 161.107
816.804, 8.531
818.084, 41.232
819.363, 230.990
820.643, 170.334
821.922, 49.748
823.201, 79.889
824.479, 119.977
825.758, 0.115
827.036, 209.611
828.314, 0.416
829.592, 49.719
830.869, 109.943
832.147, 10.148
833.424, 140.320
834.701, 10.463
835.977, 59.422
837.254, 110.633
838.530, 19.336
839.807, 140.680
841.082, 20.662
842.358, 60.623
843.634, 50.562
844.909, 50.471
846.184, 70.355
847.459, 100.209
848.734, 109.965
850.008, 79.004
851.283, 141.211
852.557, 68.490
853.831, 68.168
855.105, 7.824
856.378, 167.346
857.651, 36.949
858.925, 106.559
860.197, 6.146
861.470, 45.711
862.743, 105.258
864.015, 25.416
865.287, 14.082
866.559, 163.566
867.831, 106.969
869.102, 22.104
870.373, 151.494
871.645, 120.865
872.915, 220.232
874.186, 39.582
875.457, 208.916
876.727, 141.926
877.997, 436.420
879.267, 35.230
880.536, 15.523
881.806, 103.373
883.075, 67.520
884.344, 151.646
885.613, 310.105
886.882, 269.250
888.150, 248.381
889.419, 177.504
890.687, 46.611
891.954, 285.174
893.222, 94.262
894.490, 282.680
895.757, 161.354
897.024, 120.074
898.291, 139.090
899.557, 67.652
900.824, 76.684
902.090, 215.428
903.356, 294.266
904.622, 133.340
905.888, 51.457
907.153, 130.168
908.418, 179.229
909.683, 127.666
910.948, 285.998
912.213, 285.004
913.477, 33.301
914.741, 291.973
916.005, 270.188
917.269, 309.211
918.533, 267.557
919.796, 45.943
921.060, 314.584
922.323, 273.434
923.585, 381.701
924.848, 140.664
926.111, 138.977
927.373, 217.625
928.635, 166.318
929.897, 124.426
931.158, 463.357
932.420, 141.594
933.681, 280.377
934.942, 349.281
936.203, 335.586
937.463, 353.639
938.724, 212.549
939.984, 431.150
941.244, 509.379
942.504, 408.275
943.764, 386.781
945.023, 105.203
946.282, 483.670
947.541, 432.123
948.800, 499.973
950.059, 627.844
951.317, 626.359
952.575, 524.584
953.833, 893.104
955.091, 821.439
956.349, 1076.836
957.606, 1025.309
958.864, 1312.039
960.121, 1540.826
961.377, 1757.941
962.634, 2332.266
963.891, 2731.018
965.147, 3049.354
966.403, 3717.859
967.659, 3446.701
968.914, 3644.312
970.170, 3453.191
971.425, 2982.152
972.680, 3131.045
973.935, 2756.615
975.190, 2815.135
976.444, 2866.480
977.698, 2904.852
978.952, 3253.801
980.206, 3652.203
981.460, 4090.609
982.713, 5101.150
983.967, 6350.041
985.220, 7269.246
986.473, 8858.508
987.725, 8223.801
988.978, 8062.775
990.230, 7325.311
991.482, 6274.152
992.734, 5864.131
993.986, 5102.648
995.237, 4751.332
996.488, 4030.789
997.739, 3389.438
998.990, 3239.506
1000.241, 2438.330
1001.492, 2337.541
1002.742, 1941.029
1003.992, 1689.732
1005.242, 1808.695
1006.492, 1247.551
1007.741, 1226.719
1008.990, 1319.240
1010.239, 1098.557
1011.488, 1207.516
1012.737, 1027.758
1013.986, 1047.262
1015.234, 1034.941
1016.482, 624.984
1017.730, 1004.311
1018.978, 729.492
1020.225, 558.381
1021.473, 688.713
1022.720, 469.512
1023.967, 438.781
1025.213, 728.582
1026.460, 612.504
1027.706, 834.215
1028.953, 425.068
1030.198, 665.834
1031.444, 554.422
1032.690, 423.793
1033.935, 699.857
1035.180, 940.684
1036.425, 541.156
1037.670, 831.102
1038.915, 572.082
1040.159, 621.781
1041.403, 820.867
1042.647, 771.480
1043.891, 730.770
1045.135, 590.250
1046.378, 441.258
1047.621, 680.711
1048.864, 700.965
1050.107, 620.891
1051.350, 790.297
1052.592, 820.398
1053.835, 1120.109
1055.077, 990.004
1056.318, 1150.938
1057.560, 1220.367
1058.802, 980.246
1060.043, 970.066
1061.284, 1149.492
1062.525, 1079.301
1063.765, 948.543
1065.006, 977.938
1066.246, 777.848
1067.486, 1137.203
1068.726, 626.559
1069.966, 866.035
1071.205, 775.352
1072.445, 695.094
1073.684, 684.387
1074.923, 613.992
1076.161, 673.656
1077.400, 932.898
1078.638, 562.137
1079.876, 881.855
1081.114, 731.059
1082.352, 720.277
1083.590, 709.473
1084.827, 768.656
1086.064, 768.234
1087.301, 917.402
1088.538, 736.566
1089.775, 895.719
1091.011, 834.848
1092.247, 655.113
1093.483, 614.211
1094.719, 523.281
1095.955, 572.930
1097.190, 251.957
1098.425, 481.766
1099.660, 611.297
1100.895, 360.262
1102.130, 310.207
1103.364, 549.367
1104.598, 61.238
1105.833, 478.422
1107.066, 507.602
1108.300, 396.719
1109.534, 315.766
1110.767, 384.551
1112.000, 343.949
1113.233, 332.699
1114.466, 302.047
1115.698, 241.367
1116.930, 230.035
1118.163, 99.012
1119.394, 469.301
1120.626, 327.891
1121.858, 278.074
1123.089, 426.785
1124.320, 376.008
1125.551, 165.027
1126.782, 343.500
1128.013, 162.797
1129.243, 342.363
1130.473, 39.023
1131.703, 102.684
1132.933, 161.695
1134.163, 21.379
1135.392, 336.324
1136.621, 205.129
1137.850, 115.301
1139.079, 365.617
1140.308, 24.867
1141.536, 345.227
1142.765, 235.992
1143.993, 55.695
1145.221, 532.699
1146.448, 1.922
1147.676, 391.832
1148.903, 191.805
1150.130, 49.707
1151.357, 418.660
1152.584, 269.559
1153.810, 237.125
1155.037, 356.602
1156.263, 64.520
1157.489, 274.336
1158.715, 265.328
1159.940, 2.648
1161.166, 244.012
1162.391, 354.719
1163.616, 33.824
1164.841, 344.250
1166.065, 5.730
1167.290, 353.723
1168.514, 152.020
1169.738, 19.930
1170.962, 529.047
1172.185, 191.941
1173.409, 60.227
1174.632, 428.480
1175.855, 65.539
1177.078, 3.500
1178.301, 378.801
1179.523, 406.801
1180.746, 475.055
1181.968, 133.859
1183.190, 221.703
1184.412, 350.820
1185.633, 112.059
1186.855, 420.176
1188.076, 578.715
1189.297, 206.973
1190.518, 603.883
1191.738, 515.094
1192.959, 141.082
1194.179, 658.617
1195.399, 328.832
1196.619, 354.598
1197.838, 494.926
1199.058, 371.438
1200.277, 466.988
1201.496, 426.168
1202.715, 111.375
1203.934, 826.910
1205.152, 438.523
1206.371, 454.012
1207.589, 651.191
1208.807, 456.887
1210.024, 511.402
1211.242, 597.977
1212.459, 432.613
1213.677, 577.418
1214.894, 653.180
1216.110, 467.207
1217.327, 751.496
1218.543, 468.203
1219.760, 591.992
1220.976, 497.691
1222.192, 481.395
1223.407, 775.262
1224.623, 661.523
1225.838, 465.516
1227.053, 631.363
1228.268, 611.184
1229.483, 775.047
1230.697, 630.062
1231.912, 505.328
1233.126, 689.105
1234.340, 678.645
1235.554, 642.293
1236.767, 755.273
1237.981, 341.594
1239.194, 964.449
1240.407, 676.941
1241.620, 479.902
1242.832, 922.266
1244.045, 434.574
1245.257, 497.883
1246.469, 850.070
1247.681, 393.832
1248.893, 576.113
1250.104, 518.113
1251.315, 448.898
1252.527, 560.762
1253.738, 572.555
1254.948, 584.695
1256.159, 676.359
1257.369, 498.512
1258.579, 760.035
1259.789, 501.441
1260.999, 504.355
1262.209, 835.598
1263.418, 576.754
1264.628, 258.246
1265.837, 839.133
1267.046, 269.910
1268.254, 621.980
1269.463, 492.453
1270.671, 543.168
1271.879, 673.426
1273.087, 463.602
1274.295, 394.758
1275.502, 614.609
1276.710, 72.480
1277.917, 504.930
1279.124, 333.992
1280.331, 7.691
1281.537, 532.500
1282.744, 341.191
1283.950, 115.148
1285.156, 324.012
1286.362, 200.973
1287.568, 119.527
1288.773, 247.586
1289.978, 205.254
1291.184, 342.879
1292.389, 199.422
1293.593, 187.336
1294.798, 484.641
1296.002, 70.570
1297.206, 86.750
1298.410, 674.160
1299.614, 249.125
1300.818, 337.938
1302.021, 320.887
1303.225, 67.219
1304.428, 663.371
1305.631, 48.250
1306.833, 73.988
1308.036, 220.000
1309.238, 84.551
1310.440, 129.762
1311.642, 424.289
1312.844, 80.324
1314.045, 414.020
1315.247, 177.676
1316.448, 2.836
1317.649, 386.996
1318.850, 197.262
1320.051, 67.957
1321.251, 305.121
1322.451, 42.266
1323.651, 261.801
1324.851, 215.836
1326.051, 260.086
1327.251, 252.375
1328.450, 105.055
1329.649, 18.102
1330.848, 189.996
1332.047, 133.031
1333.245, 156.211
1334.444, 368.086
1335.642, 148.965
1336.840, 553.805
1338.038, 204.930
1339.236, 27.480
1340.433, 549.109
1341.630, 20.730
1342.828, 332.789
1344.025, 544.207
1345.221, 45.914
1346.418, 587.309
1347.614, 487.277
1348.810, 11.082
1350.006, 459.980
1351.202, 140.996
1352.398, 372.285
1353.593, 633.129
1354.789, 184.043
1355.984, 565.035
1357.179, 505.539
1358.373, 256.348
1359.568, 677.062
1360.762, 567.375
1361.956, 117.922
1363.150, 827.941
1364.344, 210.730
1365.538, 630.695
1366.731, 570.512
1367.924, 120.719
1369.117, 500.785
1370.310, 141.984
1371.503, 7.793
1372.695, 471.863
1373.888, 211.508
1375.080, 170.969
1376.272, 429.621
1377.464, 10.145
1378.655, 418.395
1379.847, 555.246
1381.038, 60.348
1382.229, 556.469
1383.420, 731.863
1384.610, 506.352
1385.801, 841.055
1386.991, 695.891
1388.181, 380.215
1389.371, 1185.020
1390.561, 249.598
1391.750, 584.039
1392.940, 868.340
1394.129, 360.965
1395.318, 893.848
1396.507, 867.406
1397.696, 541.258
1398.884, 803.246
1400.072, 503.207
1401.260, 634.695
1402.448, 1009.852
1403.636, 258.445
1404.824, 647.672
1406.011, 915.441
1407.198, 363.258
1408.385, 670.652
1409.572, 598.816
1410.758, 267.066
1411.945, 809.184
1413.131, 494.398
1414.317, 500.617
1415.503, 1124.828
1416.689, 202.137
1417.874, 1076.219
1419.060, 822.254
1420.245, 22.570
1421.430, 985.051
1422.615, 610.262
1423.799, 274.797
1424.984, 778.859
1426.168, 405.703
1427.352, 437.270
1428.536, 840.391
1429.720, 414.270
1430.903, 621.699
1432.087, 710.898
1433.270, 395.730
1434.453, 926.109
1435.635, 371.105
1436.818, 362.625
1438.001, 1007.516
1439.183, 519.977
1440.365, 302.770
1441.547, 1108.750
1442.728, 370.125
1443.910, 722.633
1445.091, 862.949
1446.272, 512.895
1447.453, 984.551
1448.634, 861.613
1449.815, 561.598
1450.995, 1273.699
1452.176, 499.652
1453.356, 442.199
1454.535, 1175.430
1455.715, 525.945
1456.895, 764.191
1458.074, 963.418
1459.253, 314.746
1460.432, 1094.656
1461.611, 723.711
1462.790, 409.980
1463.968, 1419.648
1465.146, 706.758
1466.324, 712.645
1467.502, 1181.430
1468.680, 540.004
1469.858, 965.523
1471.035, 1165.246
1472.212, 534.711
1473.389, 1261.469
1474.566, 770.078
1475.742, 539.656
1476.919, 1360.020
1478.095, 419.684
1479.271, 888.477
1480.447, 978.602
1481.623, 556.871
1482.798, 815.984
1483.974, 925.543
1485.149, 355.398
1486.324, 605.594
1487.499, 1025.855
1488.674, 285.945
1489.848, 1376.102
1491.022, 695.855
1492.196, 526.066
1493.370, 1176.434
1494.544, 197.078
1495.718, 577.961
1496.891, 1099.535
1498.064, 171.457
1499.237, 633.598
1500.410, 1045.984
1501.583, 178.688
1502.755, 801.816
1503.928, 665.320
1505.100, 30.766
1506.272, 1083.676
1507.443, 638.750
1508.615, 194.000
1509.786, 1048.742
1510.958, 4.223
1512.129, 152.109
1513.300, 616.316
1514.470, 187.855
1515.641, 675.250
1516.811, 590.625
1517.981, 0.387
1519.151, 566.633
1520.321, 0.000
##END=



