##NAMES=Olivenite
##RRUFFID=R040181
##IDEAL CHEMISTRY=Cu^2+^_2_As^5+^O_4_(OH)
##LOCALITY=Majuba Hill, Pershing County, Nevada, USA
##OWNER=RRUFF
##SOURCE=University of Arizona Mineral Museum
##DESCRIPTION=Greenish blue prismatic, untwinned. Structure for this sample reported in Li et al (2008).
##STATUS=The identification of this mineral has been confirmed by X-ray diffraction and chemical analysis
##URL=rruff.info/R040181
##MEASURED CHEMISTRY=(Cu_0.98_[box]_0.02_)_2_(As_0.90_P_0.10_O_4_)(OH)_0.92_
##PIN_ID=S00079
##ORIENTATION=Laser parallel to b* (0 1 0). Fiducial mark perpendicular to laser is parallel to -c [0 0 -1]
52.866, 0.000
54.266, 27.740
55.666, 1.133
57.065, 32.677
58.464, 13.659
59.863, 60.184
61.262, 15.370
62.661, 2.616
64.059, 5.493
65.458, 22.882
66.856, 31.211
68.253, 72.127
69.651, 85.823
71.048, 209.622
72.445, 280.306
73.842, 384.693
75.239, 564.622
76.635, 737.945
78.031, 923.535
79.427, 1065.288
80.823, 1310.114
82.218, 1444.938
83.614, 1580.690
85.009, 1697.307
86.404, 1719.732
87.798, 1791.913
89.193, 1729.801
90.587, 1839.354
91.981, 1822.531
93.375, 1704.298
94.768, 1662.620
96.161, 1470.450
97.554, 1384.742
98.947, 1445.455
100.340, 1533.565
101.732, 1656.059
103.124, 1823.934
104.516, 1898.185
105.908, 2108.806
107.300, 2151.790
108.691, 2202.124
110.082, 2135.794
111.473, 2088.782
112.864, 1981.073
114.254, 1991.651
115.644, 2068.502
117.034, 1960.615
118.424, 1880.978
119.813, 1659.580
121.203, 1389.413
122.592, 1119.466
123.981, 982.731
125.369, 909.201
126.758, 882.868
128.146, 914.724
129.534, 986.763
130.922, 993.979
132.309, 954.365
133.696, 892.915
135.083, 682.623
136.470, 659.436
137.857, 524.213
139.243, 540.975
140.630, 472.740
142.016, 443.521
143.401, 482.323
144.787, 584.166
146.172, 739.121
147.557, 938.213
148.942, 1248.508
150.327, 1661.044
151.711, 2169.797
153.096, 2767.779
154.480, 3446.965
155.863, 3862.355
157.247, 4014.954
158.630, 4007.748
160.013, 3468.696
161.396, 3015.771
162.779, 2541.976
164.161, 2055.294
165.544, 1833.683
166.926, 1601.130
168.308, 1455.625
169.689, 1481.170
171.070, 1456.766
172.452, 1525.412
173.833, 1659.109
175.213, 1826.858
176.594, 1942.657
177.974, 2076.509
179.354, 2200.412
180.734, 2299.366
182.114, 2280.372
183.493, 2265.429
184.872, 2137.535
186.251, 1947.692
187.630, 1752.899
189.008, 1504.154
190.387, 1333.458
191.765, 1166.809
193.143, 1026.208
194.520, 906.652
195.898, 931.141
197.275, 978.675
198.652, 1051.251
200.029, 1227.871
201.405, 1488.530
202.782, 1718.230
204.158, 2047.969
205.534, 2472.746
206.909, 2983.560
208.285, 3474.409
209.660, 4154.294
211.035, 4926.212
212.410, 5781.164
213.784, 6702.146
215.159, 7529.160
216.533, 8114.203
217.907, 8567.275
219.281, 8545.394
220.654, 8061.561
222.027, 7332.821
223.400, 6572.625
224.773, 5685.678
226.146, 4736.883
227.518, 4066.347
228.891, 3409.867
230.263, 2891.787
231.634, 2443.418
233.006, 2119.121
234.377, 1793.603
235.748, 1576.249
237.119, 1362.549
238.490, 1177.993
239.860, 1075.620
241.231, 903.262
242.601, 901.266
243.970, 748.599
245.340, 726.182
246.709, 657.944
248.079, 618.393
249.448, 574.013
250.816, 576.682
252.185, 593.096
253.553, 618.586
254.921, 685.406
256.289, 759.121
257.657, 838.120
259.024, 930.722
260.391, 1078.862
261.758, 1217.719
263.125, 1397.116
264.492, 1642.163
265.858, 1907.999
267.224, 2230.915
268.590, 2739.493
269.956, 3300.037
271.321, 4080.008
272.687, 5142.946
274.052, 6289.568
275.416, 7731.732
276.781, 9836.531
278.146, 11883.737
279.510, 13989.898
280.874, 16214.105
282.237, 17453.348
283.601, 18006.629
284.964, 17157.949
286.327, 15989.308
287.690, 14193.708
289.053, 12251.152
290.416, 10315.633
291.778, 8982.150
293.140, 7638.721
294.502, 6873.318
295.863, 6011.956
297.225, 5717.620
298.586, 5402.332
299.947, 5189.080
301.308, 5208.852
302.668, 5196.663
304.029, 5391.496
305.389, 5517.363
306.749, 5704.264
308.108, 5686.188
309.468, 5718.142
310.827, 5482.118
312.186, 5261.120
313.545, 4875.144
314.903, 4469.189
316.262, 4153.261
317.620, 3806.346
318.978, 3443.448
320.336, 3181.569
321.693, 2994.712
323.051, 2633.874
324.408, 2470.053
325.765, 2343.250
327.121, 2280.463
328.478, 2095.693
329.834, 1994.948
331.190, 1964.209
332.546, 1804.476
333.902, 1792.749
335.257, 1765.029
336.612, 1653.314
337.967, 1610.604
339.322, 1613.897
340.677, 1590.193
342.031, 1662.492
343.385, 1544.792
344.739, 1638.094
346.093, 1593.396
347.446, 1585.700
348.799, 1541.004
350.153, 1486.314
351.505, 1486.624
352.858, 1346.932
354.210, 1245.240
355.563, 1179.546
356.915, 1129.850
358.267, 1066.152
359.618, 992.451
360.969, 965.747
362.321, 943.040
363.672, 929.328
365.022, 883.613
366.373, 865.893
367.723, 764.169
369.073, 753.439
370.423, 685.704
371.773, 667.963
373.122, 591.217
374.471, 581.464
375.821, 604.704
377.169, 582.937
378.518, 585.163
379.866, 573.382
381.215, 480.593
382.563, 512.821
383.910, 397.066
385.258, 354.326
386.605, 321.599
387.952, 283.883
389.299, 188.176
390.646, 159.479
391.992, 91.790
393.339, 81.107
394.685, 49.432
396.031, 10.763
397.376, 35.098
398.722, 44.565
400.067, 25.251
401.412, 24.953
402.757, 73.671
404.101, 59.431
405.446, 95.228
406.790, 96.079
408.134, 79.989
409.478, 71.948
410.821, 87.956
412.165, 86.020
413.508, 75.142
414.851, 66.316
416.193, 64.928
417.536, 76.814
418.878, 63.145
420.220, 70.526
421.562, 76.964
422.904, 54.462
424.245, 77.009
425.586, 20.618
426.927, 32.261
428.268, 14.775
429.609, 24.353
430.949, 22.066
432.289, 27.383
433.629, 8.434
434.969, 1.502
436.309, 37.835
437.648, 18.464
438.987, 43.043
440.326, 105.875
441.665, 62.524
443.003, 76.885
444.342, 134.751
445.680, 137.071
447.018, 141.454
448.355, 207.615
449.693, 135.384
451.030, 189.836
452.367, 209.060
453.704, 259.085
455.041, 249.533
456.377, 267.584
457.713, 295.240
459.049, 294.644
460.385, 356.344
461.721, 412.736
463.056, 492.356
464.391, 521.823
465.726, 557.393
467.061, 592.175
468.395, 602.566
469.730, 637.095
471.064, 676.683
472.398, 751.963
473.731, 840.386
475.065, 877.672
476.398, 1022.649
477.731, 1111.820
479.064, 1200.148
480.397, 1326.707
481.729, 1450.906
483.062, 1585.561
484.394, 1745.714
485.725, 1961.384
487.057, 2099.627
488.389, 2367.451
489.720, 2576.861
491.051, 2818.294
492.382, 3165.569
493.712, 3440.063
495.043, 3750.849
496.373, 3941.190
497.703, 4341.328
499.032, 4610.595
500.362, 4639.673
501.691, 4568.712
503.020, 4598.725
504.349, 4338.709
505.678, 4186.665
507.007, 3815.594
508.335, 3584.495
509.663, 3314.679
510.991, 3107.522
512.319, 2903.339
513.646, 2649.126
514.973, 2436.885
516.300, 2244.615
517.627, 2067.787
518.954, 1927.151
520.280, 1781.635
521.607, 1700.251
522.933, 1596.838
524.259, 1520.396
525.584, 1425.925
526.910, 1346.426
528.235, 1274.897
529.560, 1268.339
530.885, 1182.752
532.209, 1139.136
533.534, 1067.491
534.858, 1024.980
536.182, 992.117
537.506, 950.385
538.829, 938.623
540.152, 909.891
541.476, 826.071
542.799, 866.660
544.121, 780.781
545.444, 822.873
546.766, 812.935
548.088, 755.967
549.410, 768.969
550.732, 771.941
552.053, 796.884
553.375, 797.796
554.696, 814.678
556.017, 769.530
557.337, 822.351
558.658, 770.641
559.978, 822.900
561.298, 771.082
562.618, 721.347
563.938, 645.342
565.257, 605.762
566.576, 560.350
567.895, 530.149
569.214, 486.010
570.533, 483.764
571.851, 438.531
573.170, 380.875
574.488, 326.669
575.805, 247.448
577.123, 206.381
578.440, 204.073
579.758, 207.205
581.075, 202.839
582.391, 149.792
583.708, 120.241
585.024, 117.073
586.341, 79.147
587.657, 79.170
588.972, 85.557
590.288, 52.005
591.603, 60.046
592.918, 56.143
594.233, 58.574
595.548, 41.481
596.863, 41.770
598.177, 30.664
599.491, 8.614
600.805, 48.526
602.119, 3.413
603.432, 13.260
604.746, 11.073
606.059, 3.150
607.372, 29.415
608.685, 7.265
609.997, 22.092
611.309, 51.499
612.621, 31.027
613.933, 37.474
615.245, 20.967
616.557, 60.621
617.868, 34.279
619.179, 25.008
620.490, 34.732
621.801, 13.473
623.111, 15.352
624.421, 25.220
625.731, 16.863
627.041, 6.081
628.351, 8.938
629.660, 4.073
630.970, 9.881
632.279, 6.194
633.588, 2.304
634.896, 11.553
636.205, 6.384
637.513, 1.188
638.821, 26.038
640.129, 18.485
641.437, 11.616
642.744, 20.960
644.051, 15.343
645.358, 25.760
646.665, 52.219
647.972, 16.268
649.278, 23.736
650.584, 8.187
651.890, 0.616
653.196, 9.022
654.502, 20.409
655.807, 6.780
657.113, 18.131
658.418, 27.467
659.722, 19.787
661.027, 51.092
662.331, 32.381
663.636, 18.656
664.940, 60.916
666.244, 19.839
667.547, 7.379
668.851, 11.582
670.154, 39.772
671.457, 40.948
672.760, 12.111
674.062, 53.260
675.365, 19.397
676.667, 46.521
677.969, 48.631
679.271, 16.730
680.572, 24.816
681.874, 85.892
683.175, 61.957
684.476, 37.011
685.777, 89.054
687.077, 60.087
688.378, 30.109
689.678, 59.121
690.978, 68.124
692.278, 2.117
693.577, 9.099
694.877, 69.073
696.176, 3.958
697.475, 114.000
698.774, 20.050
700.072, 65.887
701.371, 54.817
702.669, 46.741
703.967, 23.658
705.265, 59.568
706.562, 87.471
707.860, 77.367
709.157, 39.260
710.454, 31.146
711.751, 29.947
713.047, 31.551
714.344, 32.769
715.640, 39.496
716.936, 46.523
718.232, 52.405
719.527, 73.303
720.823, 73.501
722.118, 93.148
723.413, 85.105
724.708, 133.083
726.002, 118.079
727.297, 176.098
728.591, 120.141
729.885, 133.204
731.179, 141.287
732.472, 124.389
733.766, 134.515
735.059, 128.662
736.352, 153.831
737.645, 164.024
738.937, 256.237
740.230, 233.814
741.522, 237.325
742.814, 249.823
744.106, 205.961
745.397, 250.211
746.689, 271.040
747.980, 335.084
749.271, 249.112
750.562, 316.221
751.853, 313.026
753.143, 300.864
754.433, 352.437
755.723, 307.181
757.013, 342.201
758.303, 401.705
759.592, 377.742
760.881, 409.704
762.170, 411.877
763.459, 417.066
764.748, 431.287
766.036, 443.359
767.325, 470.619
768.613, 494.444
769.901, 571.653
771.188, 510.245
772.476, 581.076
773.763, 571.600
775.050, 634.418
776.337, 746.998
777.624, 719.505
778.910, 792.390
780.196, 831.700
781.482, 855.458
782.768, 949.066
784.054, 941.604
785.339, 1096.437
786.625, 1203.114
787.910, 1210.916
789.195, 1353.015
790.479, 1464.908
791.764, 1550.631
793.048, 1645.112
794.332, 1747.820
795.616, 1850.215
796.900, 1948.154
798.183, 2060.478
799.467, 2160.215
800.750, 2241.360
802.033, 2314.907
803.316, 2423.420
804.598, 2595.079
805.880, 2622.506
807.163, 2775.632
808.445, 2867.190
809.726, 2852.940
811.008, 2942.550
812.289, 2970.337
813.570, 2969.152
814.851, 3102.983
816.132, 3174.831
817.413, 3196.696
818.693, 3284.578
819.973, 3424.478
821.253, 3469.084
822.533, 3660.019
823.813, 4000.971
825.092, 4206.941
826.371, 4600.931
827.650, 4999.936
828.929, 5462.962
830.208, 6194.006
831.486, 6758.070
832.764, 7483.151
834.042, 8501.254
835.320, 9451.591
836.598, 10838.881
837.875, 12104.188
839.152, 13648.400
840.429, 14947.737
841.706, 17029.963
842.983, 18540.297
844.259, 20892.764
845.536, 23981.059
846.812, 26975.371
848.088, 31541.803
849.363, 36475.035
850.639, 41417.367
851.914, 47397.781
853.189, 52463.773
854.464, 55182.711
855.739, 56653.484
857.013, 54567.016
858.288, 49539.844
859.562, 42054.422
860.836, 35688.043
862.110, 29716.322
863.383, 24613.672
864.656, 20005.674
865.930, 16599.395
867.203, 13978.142
868.475, 11907.925
869.748, 10299.754
871.020, 8890.616
872.292, 7989.512
873.564, 7104.430
874.836, 6276.373
876.108, 5627.347
877.379, 5024.354
878.650, 4612.381
879.922, 4240.432
881.192, 3907.505
882.463, 3501.599
883.733, 3287.715
885.004, 2992.858
886.274, 2687.260
887.544, 2505.463
888.813, 2399.694
890.083, 2196.961
891.352, 2060.260
892.621, 1934.584
893.890, 1811.930
895.159, 1683.297
896.427, 1543.686
897.695, 1470.097
898.964, 1390.530
900.232, 1292.989
901.499, 1175.471
902.767, 1151.979
904.034, 1018.510
905.301, 942.066
906.568, 919.647
907.835, 855.258
909.102, 846.898
910.368, 779.561
911.634, 735.254
912.900, 777.975
914.166, 706.725
915.432, 734.507
916.697, 725.328
917.962, 668.178
919.227, 706.068
920.492, 712.004
921.757, 666.969
923.021, 647.973
924.285, 685.003
925.550, 651.080
926.813, 724.197
928.077, 656.340
929.341, 611.522
930.604, 665.732
931.867, 702.976
933.130, 625.256
934.393, 656.562
935.655, 684.899
936.918, 623.264
938.180, 671.659
939.442, 613.082
940.703, 640.539
941.965, 666.026
943.226, 721.539
944.488, 698.077
945.749, 765.819
947.009, 809.416
948.270, 887.044
949.530, 962.257
950.791, 1048.389
952.051, 1121.106
953.311, 1206.856
954.570, 1267.647
955.830, 1402.464
957.089, 1504.301
958.348, 1574.163
959.607, 1637.050
960.866, 1612.958
962.124, 1532.886
963.383, 1364.838
964.641, 1254.809
965.899, 1050.800
967.156, 878.810
968.414, 747.839
969.671, 604.156
970.928, 488.648
972.185, 390.038
973.442, 304.148
974.699, 230.276
975.955, 193.423
977.211, 157.588
978.468, 137.771
979.723, 78.972
980.979, 88.190
982.234, 70.427
983.490, 68.682
984.745, 14.955
986.000, 18.755
987.254, 13.745
988.509, 13.399
989.763, 2.688
991.017, 12.334
992.271, 22.033
993.525, 8.583
994.779, 17.136
996.032, 13.130
997.285, 13.583
998.538, 8.971
999.791, 46.510
1001.044, 0.129
1002.296, 4.358
1003.548, 30.802
1004.800, 29.677
1006.052, 22.114
1007.304, 0.528
1008.555, 20.211
1009.807, 32.195
1011.058, 37.864
1012.309, 33.533
1013.559, 38.088
1014.810, 7.585
1016.060, 1.593
1017.310, 5.479
1018.560, 29.939
1019.810, 8.123
1021.060, 21.303
1022.309, 62.046
1023.558, 85.756
1024.807, 85.799
1026.056, 68.050
1027.305, 34.951
1028.553, 24.730
1029.801, 41.491
1031.049, 70.262
1032.297, 81.042
1033.545, 25.832
1034.793, 85.916
1036.040, 12.054
1037.287, 25.078
1038.534, 52.674
1039.781, 32.683
1041.027, 113.103
1042.274, 34.455
1043.520, 19.484
1044.766, 27.345
1046.012, 36.227
1047.257, 44.122
1048.503, 19.097
1049.748, 68.330
1050.993, 27.559
1052.238, 37.825
1053.483, 30.004
1054.727, 25.326
1055.971, 65.412
1057.216, 72.477
1058.459, 36.431
1059.703, 58.366
1060.947, 43.371
1062.190, 5.566
1063.433, 42.667
1064.676, 39.633
1065.919, 59.013
1067.162, 23.993
1068.404, 46.853
1069.646, 33.305
1070.888, 19.207
1072.130, 51.419
1073.372, 56.460
1074.613, 25.740
1075.855, 84.138
1077.096, 64.409
1078.337, 67.793
1079.578, 90.075
1080.818, 45.427
1082.059, 84.575
1083.299, 75.032
1084.539, 86.304
1085.779, 43.722
1087.018, 43.103
1088.258, 51.688
1089.497, 52.791
1090.736, 43.572
1091.975, 27.674
1093.213, 26.969
1094.452, 1.011
1095.690, 95.970
1096.928, 35.947
1098.166, 70.008
1099.404, 53.098
1100.642, 44.142
1101.879, 40.220
1103.116, 53.072
1104.353, 48.862
1105.590, 66.927
1106.827, 69.805
1108.063, 71.763
1109.299, 49.174
1110.536, 68.126
1111.771, 61.849
1113.007, 46.760
1114.243, 54.807
1115.478, 63.813
1116.713, 52.707
1117.948, 65.596
1119.183, 39.478
1120.418, 68.465
1121.652, 97.334
1122.886, 169.261
1124.120, 145.819
1125.354, 149.983
1126.588, 119.841
1127.821, 92.699
1129.055, 83.637
1130.288, 79.550
1131.521, 71.362
1132.753, 69.470
1133.986, 20.266
1135.218, 22.023
1136.450, 14.663
1137.682, 3.339
1138.914, 37.055
1140.146, 59.660
1141.377, 43.383
1142.609, 15.015
1143.840, 4.401
1145.071, 6.651
1146.301, 32.168
1147.532, 34.030
1148.762, 3.744
1149.992, 59.066
1151.222, 18.949
1152.452, 33.767
1153.682, 18.522
1154.911, 52.139
1156.140, 2.588
1157.369, 47.086
1158.598, 50.502
1159.827, 22.260
1161.055, 21.152
1162.284, 14.264
1163.512, 5.766
1164.740, 3.089
1165.967, 27.454
1167.195, 86.132
1168.422, 5.747
1169.650, 29.960
1170.877, 37.226
1172.103, 17.557
1173.330, 20.328
1174.557, 14.173
1175.783, 32.881
1177.009, 108.916
1178.235, 116.572
1179.461, 98.795
1180.686, 176.138
1181.912, 2.121
1183.137, 26.078
1184.362, 29.716
1185.587, 4.750
1186.811, 26.800
1188.036, 16.964
1189.260, 20.850
1190.484, 31.780
1191.708, 57.536
1192.932, 54.367
1194.155, 53.842
1195.378, 40.042
1196.602, 28.740
1197.825, 29.666
1199.047, 29.146
1200.270, 33.361
1201.492, 28.988
1202.715, 39.687
1203.937, 11.291
1205.159, 62.858
1206.380, 86.546
1207.602, 55.121
1208.823, 38.641
1210.044, 45.145
1211.265, 70.640
1212.486, 33.111
1213.707, 70.563
1214.927, 19.999
1216.147, 32.412
1217.367, 19.805
1218.587, 44.174
1219.807, 63.525
1221.027, 41.867
1222.246, 37.267
1223.465, 43.565
1224.684, 38.865
1225.903, 44.129
1227.121, 41.391
1228.340, 54.628
1229.558, 37.838
1230.776, 47.110
1231.994, 40.281
1233.212, 42.432
1234.429, 34.563
1235.646, 19.673
1236.864, 28.756
1238.081, 64.816
1239.297, 48.858
1240.514, 81.883
1241.730, 90.715
1242.947, 91.708
1244.163, 71.681
1245.378, 67.633
1246.594, 75.562
1247.810, 69.475
1249.025, 28.368
1250.240, 30.352
1251.455, 71.091
1252.670, 27.925
1253.885, 43.738
1255.099, 102.532
1256.313, 94.309
1257.527, 33.069
1258.741, 131.806
1259.955, 72.527
1261.168, 78.228
1262.382, 122.912
1263.595, 104.579
1264.808, 109.228
1266.021, 78.858
1267.233, 107.466
1268.446, 91.054
1269.658, 143.620
1270.870, 103.167
1272.082, 103.695
1273.294, 102.203
1274.505, 81.691
1275.716, 86.160
1276.928, 129.606
1278.139, 61.035
1279.349, 117.446
1280.560, 77.841
1281.770, 92.514
1282.981, 93.851
1284.191, 116.818
1285.401, 130.164
1286.610, 114.474
1287.820, 118.287
1289.029, 88.995
1290.239, 93.402
1291.448, 74.623
1292.656, 59.846
1293.865, 49.051
1295.073, 69.332
1296.282, 53.506
1297.490, 75.722
1298.698, 36.863
1299.906, 84.957
1301.113, 61.971
1302.320, 74.363
1303.528, 68.607
1304.735, 42.586
1305.942, 64.629
1307.148, 56.648
1308.355, 61.790
1309.561, 40.417
1310.767, 41.043
1311.973, 77.335
1313.179, 46.779
1314.384, 17.224
1315.590, 68.103
1316.795, 40.012
1318.000, 81.585
1319.205, 57.946
1320.410, 72.395
1321.614, 80.481
1322.819, 77.321
1324.023, 81.148
1325.227, 35.962
1326.431, 85.762
1327.634, 84.265
1328.838, 13.817
1330.041, 53.263
1331.244, 48.242
1332.447, 62.803
1333.650, 56.949
1334.852, 29.159
1336.055, 90.689
1337.257, 40.382
1338.459, 33.050
1339.661, 34.701
1340.862, 69.269
1342.064, 59.574
1343.265, 66.499
1344.466, 0.143
1345.667, 71.490
1346.868, 37.690
1348.068, 56.198
1349.269, 65.647
1350.469, 28.203
1351.669, 48.775
1352.869, 65.273
1354.069, 67.578
1355.268, 54.972
1356.468, 64.788
1357.667, 64.880
1358.866, 63.115
1360.065, 74.737
1361.263, 69.765
1362.462, 73.339
1363.660, 64.603
1364.858, 52.033
1366.056, 33.220
1367.254, 75.289
1368.451, 49.591
1369.649, 84.671
1370.846, 48.851
1372.043, 50.014
1373.240, 72.331
1374.436, 32.341
1375.633, 71.437
1376.829, 60.370
1378.025, 101.305
1379.221, 107.001
1380.417, 63.154
1381.613, 65.615
1382.808, 67.802
1384.003, 143.349
1385.199, 60.819
1386.393, 97.149
1387.588, 66.604
1388.783, 64.076
1389.977, 63.991
1391.171, 78.379
1392.365, 63.899
1393.559, 68.424
1394.753, 70.723
1395.946, 65.493
1397.140, 75.694
1398.333, 79.921
1399.526, 86.094
1400.719, 44.049
1401.911, 86.855
1403.104, 74.816
1404.296, 43.785
1405.488, 54.882
1406.680, 54.202
1407.872, 92.819
1409.063, 80.303
1410.255, 79.504
1411.446, 95.870
1412.637, 78.312
1413.828, 79.130
1415.018, 59.860
1416.209, 75.449
1417.399, 66.824
1418.589, 91.353
1419.779, 96.387
1420.969, 56.164
1422.159, 74.168
1423.348, 41.291
1424.537, 114.403
1425.726, 25.211
1426.915, 74.566
1428.104, 18.464
1429.293, 62.586
1430.481, 68.523
1431.669, 53.358
1432.857, 86.327
1434.045, 72.452
1435.233, 67.571
1436.420, 75.511
1437.608, 66.395
1438.795, 70.509
1439.982, 78.491
1441.169, 69.562
1442.355, 99.629
1443.542, 93.703
1444.728, 115.763
1445.914, 63.675
1447.100, 116.687
1448.286, 121.675
1449.472, 38.549
1450.657, 50.575
1451.842, 120.605
1453.027, 69.656
1454.212, 132.705
1455.397, 114.737
1456.581, 68.781
1457.766, 68.847
1458.950, 144.919
1460.134, 103.982
1461.318, 119.040
1462.501, 78.093
1463.685, 72.151
1464.868, 103.211
1466.051, 122.271
1467.234, 97.353
1468.417, 36.471
1469.600, 78.620
1470.782, 82.798
1471.965, 33.012
1473.147, 85.251
1474.329, 102.495
1475.510, 51.762
1476.692, 61.984
1477.873, 71.285
1479.055, 126.601
1480.236, 34.956
1481.416, 82.333
1482.597, 57.726
1483.778, 65.136
1484.958, 58.566
1486.138, 17.022
1487.318, 69.510
1488.498, 64.024
1489.678, 1.432
1490.857, 49.145
1492.037, 31.756
1493.216, 85.407
1494.395, 79.103
1495.574, 73.638
1496.752, 97.642
1497.931, 46.488
1499.109, 54.388
1500.287, 33.347
1501.465, 40.372
1502.643, 34.464
1503.820, 17.632
