##NAMES=Olivenite
##RRUFFID=R040181
##IDEAL CHEMISTRY=Cu^2+^_2_As^5+^O_4_(OH)
##LOCALITY=Majuba Hill, Pershing County, Nevada, USA
##OWNER=RRUFF
##SOURCE=University of Arizona Mineral Museum
##DESCRIPTION=Greenish blue prismatic, untwinned. Structure for this sample reported in Li et al (2008).
##STATUS=The identification of this mineral has been confirmed by X-ray diffraction and chemical analysis
##URL=rruff.info/R040181
##MEASURED CHEMISTRY=(Cu_0.98_[box]_0.02_)_2_(As_0.90_P_0.10_O_4_)(OH)_0.92_
##PIN_ID=S00079
##ORIENTATION=Laser parallel to b* (0 1 0). Fiducial mark perpendicular to laser is parallel to -c [0 0 -1]
52.866, 0.000
54.266, 41.440
55.666, 18.148
57.065, 4.971
58.464, 50.784
59.863, 58.981
61.262, 111.487
62.661, 80.007
64.059, 3.103
65.458, 66.365
66.856, 10.282
68.253, 180.646
69.651, 570.841
71.048, 1212.761
72.445, 1806.030
73.842, 2677.277
75.239, 3728.197
76.635, 4808.526
78.031, 5694.050
79.427, 5910.649
80.823, 6028.160
82.218, 5668.410
83.614, 5192.246
85.009, 4773.539
86.404, 4577.170
87.798, 4853.043
89.193, 5568.062
90.587, 6605.148
91.981, 7609.229
93.375, 8177.237
94.768, 8066.117
96.161, 7503.791
97.554, 6909.199
98.947, 6373.316
100.340, 6316.138
101.732, 6418.645
103.124, 6772.964
104.516, 7306.469
105.908, 8109.584
107.300, 8989.174
108.691, 9930.209
110.082, 11072.670
111.473, 11826.535
112.864, 12565.787
114.254, 13297.408
115.644, 13504.382
117.034, 12895.693
118.424, 12133.326
119.813, 10593.275
121.203, 9302.521
122.592, 7656.057
123.981, 6315.870
125.369, 5309.948
126.758, 4427.285
128.146, 3896.869
129.534, 3323.693
130.922, 3064.748
132.309, 2525.026
133.696, 2256.518
135.083, 1925.217
136.470, 1903.047
137.857, 1629.811
139.243, 1787.595
140.630, 1822.504
142.016, 1929.721
143.401, 2009.339
144.787, 2408.398
146.172, 2716.899
147.557, 3078.818
148.942, 3339.055
150.327, 3437.356
151.711, 3520.315
153.096, 3554.712
154.480, 3515.304
155.863, 3424.715
157.247, 3317.928
158.630, 3043.405
160.013, 2678.955
161.396, 2334.581
162.779, 1970.284
164.161, 1677.065
165.544, 1482.926
166.926, 1391.875
168.308, 1264.925
169.689, 1241.055
171.070, 1347.262
172.452, 1604.547
173.833, 1833.912
175.213, 2059.354
176.594, 2356.875
177.974, 2577.476
179.354, 2946.153
180.734, 3174.908
182.114, 3162.740
183.493, 3049.648
184.872, 2680.630
186.251, 2271.685
187.630, 1892.808
189.008, 1361.996
190.387, 1041.250
191.765, 831.567
193.143, 620.947
194.520, 553.388
195.898, 464.890
197.275, 533.450
198.652, 636.068
200.029, 771.743
201.405, 970.472
202.782, 1172.255
204.158, 1412.088
205.534, 1715.973
206.909, 2214.905
208.285, 2504.886
209.660, 3082.912
211.035, 3657.981
212.410, 4202.094
213.784, 5039.245
215.159, 5602.437
216.533, 6164.667
217.907, 6461.933
219.281, 6458.112
220.654, 6004.142
222.027, 5612.784
223.400, 5017.365
224.773, 4463.573
226.146, 3911.088
227.518, 3423.216
228.891, 2924.463
230.263, 2469.437
231.634, 2156.191
233.006, 1811.461
234.377, 1600.273
235.748, 1275.264
237.119, 1104.852
238.490, 889.709
239.860, 718.076
241.231, 532.722
242.601, 365.587
243.970, 236.918
245.340, 147.364
246.709, 81.961
248.079, 9.479
249.448, 22.207
250.816, 128.636
252.185, 109.249
253.553, 138.044
254.921, 156.748
256.289, 66.368
257.657, 103.896
259.024, 14.342
260.391, 25.299
261.758, 133.025
263.125, 225.834
264.492, 339.723
265.858, 602.688
267.224, 671.730
268.590, 1008.842
269.956, 1263.019
271.321, 1823.257
272.687, 2285.559
274.052, 2958.926
275.416, 3758.354
276.781, 5053.995
278.146, 6316.532
279.510, 7490.980
280.874, 8727.699
282.237, 9376.388
283.601, 9789.137
284.964, 9273.939
286.327, 8580.796
287.690, 7820.705
289.053, 6825.664
290.416, 5811.680
291.778, 5130.750
293.140, 4406.883
294.502, 4057.061
295.863, 3729.297
297.225, 3564.588
298.586, 3494.931
299.947, 3402.327
301.308, 3559.759
302.668, 3515.230
304.029, 3644.743
305.389, 3826.291
306.749, 3793.873
308.108, 3858.485
309.468, 3822.132
310.827, 3743.799
312.186, 3543.448
313.545, 3263.194
314.903, 3005.916
316.262, 2746.644
317.620, 2485.338
318.978, 2382.983
320.336, 2112.609
321.693, 1979.244
323.051, 1855.898
324.408, 1713.561
325.765, 1691.240
327.121, 1744.932
328.478, 1669.640
329.834, 1719.364
331.190, 1788.103
332.546, 1681.856
333.902, 1737.622
335.257, 1848.401
336.612, 1704.188
337.967, 1826.980
339.322, 1811.785
340.677, 1805.596
342.031, 1843.407
343.385, 1946.220
344.739, 1930.097
346.093, 2077.845
347.446, 1946.654
348.799, 1969.459
350.153, 1946.262
351.505, 1802.060
352.858, 1738.855
354.210, 1654.647
355.563, 1606.432
356.915, 1568.210
358.267, 1337.978
359.618, 1248.738
360.969, 1201.486
362.321, 1118.225
363.672, 1030.951
365.022, 857.667
366.373, 795.369
367.723, 672.058
369.073, 524.734
370.423, 459.396
371.773, 337.042
373.122, 265.674
374.471, 233.291
375.821, 257.890
377.169, 93.474
378.518, 164.040
379.866, 149.589
381.215, 113.120
382.563, 36.668
383.910, 27.228
385.258, 5.204
386.605, 12.646
387.952, 11.105
389.299, 80.587
390.646, 90.126
391.992, 173.734
393.339, 153.455
394.685, 166.276
396.031, 167.212
397.376, 164.267
398.722, 152.441
400.067, 183.492
401.412, 107.154
402.757, 202.672
404.101, 90.339
405.446, 2.904
406.790, 210.104
408.134, 128.137
409.478, 85.539
410.821, 18.532
412.165, 67.299
413.508, 77.320
414.851, 176.948
416.193, 165.570
417.536, 257.442
418.878, 293.198
420.220, 363.846
421.562, 350.554
422.904, 309.531
424.245, 338.697
425.586, 347.789
426.927, 277.329
428.268, 215.151
429.609, 224.754
430.949, 160.330
432.289, 166.752
433.629, 210.500
434.969, 150.475
436.309, 224.543
437.648, 101.836
438.987, 146.643
440.326, 75.633
441.665, 71.522
443.003, 139.729
444.342, 155.752
445.680, 176.977
447.018, 261.029
448.355, 179.247
449.693, 168.306
451.030, 199.748
452.367, 248.592
453.704, 187.975
455.041, 282.319
456.377, 297.029
457.713, 316.590
459.049, 263.261
460.385, 306.235
461.721, 331.184
463.056, 430.943
464.391, 393.391
465.726, 378.146
467.061, 463.783
468.395, 492.921
469.730, 557.889
471.064, 612.334
472.398, 611.806
473.731, 717.937
475.065, 709.637
476.398, 771.580
477.731, 922.693
479.064, 935.478
480.397, 1046.266
481.729, 1178.452
483.062, 1265.522
484.394, 1406.412
485.725, 1570.928
487.057, 1721.670
488.389, 1923.396
489.720, 2104.300
491.051, 2266.807
492.382, 2491.426
493.712, 2782.723
495.043, 3094.201
496.373, 3378.670
497.703, 3607.447
499.032, 3843.981
500.362, 4005.513
501.691, 4235.497
503.020, 4387.804
504.349, 4454.352
505.678, 4588.199
507.007, 4668.055
508.335, 4799.671
509.663, 4871.645
510.991, 4955.354
512.319, 4947.382
513.646, 4713.173
514.973, 4546.624
516.300, 4223.930
517.627, 3940.085
518.954, 3618.155
520.280, 3334.137
521.607, 3099.120
522.933, 2800.805
524.259, 2639.644
525.584, 2462.311
526.910, 2205.998
528.235, 2153.560
529.560, 2073.070
530.885, 1899.526
532.209, 1755.929
533.534, 1693.279
534.858, 1678.576
536.182, 1490.821
537.506, 1442.012
538.829, 1399.150
540.152, 1307.235
541.476, 1288.267
542.799, 1313.895
544.121, 1209.104
545.444, 1305.638
546.766, 1168.632
548.088, 1159.577
549.410, 1166.297
550.732, 1224.246
552.053, 1182.776
553.375, 1162.413
554.696, 1175.082
556.017, 1136.533
557.337, 1123.077
558.658, 1105.088
559.978, 1082.067
561.298, 994.695
562.618, 984.189
563.938, 854.601
565.257, 919.669
566.576, 808.737
567.895, 702.759
569.214, 669.956
570.533, 606.444
571.851, 539.544
573.170, 492.679
574.488, 415.153
575.805, 367.947
577.123, 289.715
578.440, 211.444
579.758, 221.139
581.075, 182.791
582.391, 138.397
583.708, 143.955
585.024, 97.465
586.341, 78.923
587.657, 89.327
588.972, 88.678
590.288, 95.977
591.603, 36.224
592.918, 28.408
594.233, 24.526
595.548, 45.577
596.863, 62.412
598.177, 52.661
599.491, 22.368
600.805, 39.105
602.119, 2.141
603.432, 6.465
604.746, 4.866
606.059, 24.608
607.372, 9.090
608.685, 46.543
609.997, 38.274
611.309, 64.098
612.621, 17.027
613.933, 72.036
615.245, 55.154
616.557, 58.370
617.868, 64.687
619.179, 2.106
620.490, 16.594
621.801, 29.159
623.111, 3.806
624.421, 19.520
625.731, 2.690
627.041, 28.163
628.351, 11.905
629.660, 8.917
630.970, 4.129
632.279, 25.112
633.588, 67.602
634.896, 46.399
636.205, 71.151
637.513, 62.861
638.821, 27.528
640.129, 15.851
641.437, 34.706
642.744, 10.781
644.051, 0.327
645.358, 17.927
646.665, 22.705
647.972, 18.312
649.278, 22.096
650.584, 18.942
651.890, 23.845
653.196, 9.809
654.502, 0.824
655.807, 30.885
657.113, 17.008
658.418, 25.817
659.722, 1.395
661.027, 7.650
662.331, 15.050
663.636, 5.714
664.940, 26.341
666.244, 6.068
667.547, 0.516
668.851, 12.001
670.154, 8.861
671.457, 0.579
672.760, 7.310
674.062, 27.678
675.365, 32.014
676.667, 52.320
677.969, 37.596
679.271, 45.842
680.572, 24.059
681.874, 55.246
683.175, 28.406
684.476, 114.538
685.777, 70.643
687.077, 87.722
688.378, 39.777
689.678, 71.806
690.978, 115.816
692.278, 57.805
693.577, 49.778
694.877, 70.737
696.176, 50.673
697.475, 63.586
698.774, 45.476
700.072, 121.347
701.371, 136.200
702.669, 144.043
703.967, 150.879
705.265, 133.707
706.562, 115.545
707.860, 146.399
709.157, 61.290
710.454, 50.214
711.751, 146.175
713.047, 110.174
714.344, 130.211
715.640, 118.284
716.936, 140.402
718.232, 103.545
719.527, 157.740
720.823, 79.957
722.118, 162.173
723.413, 165.374
724.708, 150.558
726.002, 111.767
727.297, 175.974
728.591, 163.170
729.885, 175.354
731.179, 149.523
732.472, 126.356
733.766, 148.392
735.059, 92.951
736.352, 147.069
737.645, 209.064
738.937, 138.836
740.230, 186.647
741.522, 178.976
742.814, 203.989
744.106, 189.185
745.397, 257.372
746.689, 223.679
747.980, 266.624
749.271, 264.307
750.562, 214.860
751.853, 283.152
753.143, 241.893
754.433, 300.416
755.723, 341.997
757.013, 273.219
758.303, 275.588
759.592, 316.719
760.881, 375.986
762.170, 411.051
763.459, 405.239
764.748, 425.007
766.036, 365.337
767.325, 504.092
768.613, 439.848
769.901, 503.203
771.188, 496.670
772.476, 630.990
773.763, 589.972
775.050, 712.942
776.337, 783.065
777.624, 864.463
778.910, 948.743
780.196, 995.655
781.482, 1085.254
782.768, 1125.987
784.054, 1173.207
785.339, 1389.365
786.625, 1484.827
787.910, 1563.684
789.195, 1658.263
790.479, 1806.636
791.764, 1966.302
793.048, 2041.929
794.332, 2102.125
795.616, 2286.402
796.900, 2318.824
798.183, 2479.585
799.467, 2561.087
800.750, 2827.570
802.033, 3006.840
803.316, 3161.474
804.598, 3521.961
805.880, 3660.739
807.163, 4053.301
808.445, 4591.836
809.726, 4923.033
811.008, 5343.439
812.289, 6036.812
813.570, 6423.702
814.851, 7174.237
816.132, 7601.498
817.413, 8065.424
818.693, 8395.311
819.973, 8808.406
821.253, 8912.110
822.533, 9132.049
823.813, 9398.634
825.092, 9088.427
826.371, 9290.526
827.650, 9314.741
828.929, 9297.074
830.208, 9665.461
831.486, 9931.969
832.764, 10227.448
834.042, 10749.000
835.320, 11303.493
836.598, 12207.132
837.875, 13341.914
839.152, 14510.594
840.429, 15504.520
841.706, 17488.527
842.983, 18868.443
844.259, 20966.709
845.536, 23989.486
846.812, 27135.055
848.088, 31426.480
849.363, 36639.641
850.639, 41574.559
851.914, 47949.750
853.189, 53619.859
854.464, 56079.887
855.739, 58208.918
857.013, 56285.973
858.288, 50995.074
859.562, 43628.195
860.836, 37121.359
862.110, 31023.557
863.383, 25856.098
864.656, 21441.258
865.930, 17490.340
867.203, 14797.666
868.475, 12387.036
869.748, 10886.458
871.020, 9317.909
872.292, 8294.400
873.564, 7499.917
874.836, 6511.476
876.108, 5982.089
877.379, 5368.743
878.650, 4836.422
879.922, 4458.138
881.192, 4098.882
882.463, 3712.650
883.733, 3540.448
885.004, 3213.279
886.274, 3028.146
887.544, 2828.044
888.813, 2686.981
890.083, 2434.955
891.352, 2291.963
892.621, 2235.011
893.890, 2002.092
895.159, 1930.205
896.427, 1730.353
897.695, 1606.531
898.964, 1573.743
900.232, 1451.992
901.499, 1318.282
902.767, 1240.615
904.034, 1161.988
905.301, 1081.405
906.568, 993.855
907.835, 973.345
909.102, 875.872
910.368, 859.439
911.634, 789.051
912.900, 713.712
914.166, 712.423
915.432, 753.193
916.697, 703.005
917.962, 710.876
919.227, 720.813
920.492, 698.811
921.757, 620.855
923.021, 636.965
924.285, 709.131
925.550, 645.355
926.813, 706.643
928.077, 701.974
929.341, 710.352
930.604, 726.781
931.867, 651.258
933.130, 613.785
934.393, 574.351
935.655, 645.965
936.918, 622.623
938.180, 653.317
939.442, 664.052
940.703, 652.997
941.965, 648.623
943.226, 652.457
944.488, 680.323
945.749, 706.219
947.009, 781.148
948.270, 799.118
949.530, 871.120
950.791, 932.161
952.051, 982.239
953.311, 1101.359
954.570, 1226.522
955.830, 1340.727
957.089, 1466.972
958.348, 1604.257
959.607, 1686.587
960.866, 1667.957
962.124, 1577.361
963.383, 1461.806
964.641, 1406.286
965.899, 1221.796
967.156, 1040.337
968.414, 886.912
969.671, 673.516
970.928, 601.149
972.185, 494.810
973.442, 393.500
974.699, 369.219
975.955, 318.969
977.211, 281.747
978.468, 212.554
979.723, 165.387
980.979, 109.247
982.234, 65.133
983.490, 158.045
984.745, 70.983
986.000, 69.947
987.254, 64.937
988.509, 19.049
989.763, 55.989
991.017, 20.950
992.271, 24.863
993.525, 16.756
994.779, 79.625
996.032, 58.435
997.285, 86.758
998.538, 113.596
999.791, 23.289
1001.044, 11.169
1002.296, 22.543
1003.548, 13.139
1004.800, 0.433
1006.052, 20.840
1007.304, 12.897
1008.555, 50.794
1009.807, 9.788
1011.058, 2.216
1012.309, 19.778
1013.559, 107.179
1014.810, 94.891
1016.060, 163.094
1017.310, 183.880
1018.560, 260.953
1019.810, 247.130
1021.060, 318.557
1022.309, 365.086
1023.558, 299.132
1024.807, 362.323
1026.056, 350.952
1027.305, 384.737
1028.553, 408.447
1029.801, 422.641
1031.049, 394.558
1032.297, 345.234
1033.545, 336.151
1034.793, 391.990
1036.040, 291.577
1037.287, 281.668
1038.534, 323.135
1039.781, 246.167
1041.027, 271.692
1042.274, 145.850
1043.520, 180.903
1044.766, 178.813
1046.012, 155.275
1047.257, 136.189
1048.503, 87.480
1049.748, 116.715
1050.993, 62.419
1052.238, 63.498
1053.483, 88.473
1054.727, 69.445
1055.971, 84.877
1057.216, 73.797
1058.459, 94.057
1059.703, 49.599
1060.947, 43.771
1062.190, 33.575
1063.433, 18.559
1064.676, 129.587
1065.919, 75.797
1067.162, 42.471
1068.404, 139.636
1069.646, 68.626
1070.888, 89.669
1072.130, 167.396
1073.372, 181.513
1074.613, 134.578
1075.855, 186.462
1077.096, 173.794
1078.337, 168.281
1079.578, 250.622
1080.818, 179.124
1082.059, 240.850
1083.299, 174.963
1084.539, 157.202
1085.779, 187.634
1087.018, 171.710
1088.258, 209.735
1089.497, 114.866
1090.736, 158.625
1091.975, 106.831
1093.213, 99.187
1094.452, 99.423
1095.690, 138.574
1096.928, 72.642
1098.166, 70.807
1099.404, 93.989
1100.642, 77.179
1101.879, 77.940
1103.116, 52.067
1104.353, 38.566
1105.590, 83.967
1106.827, 20.172
1108.063, 36.382
1109.299, 75.562
1110.536, 141.711
1111.771, 92.752
1113.007, 48.858
1114.243, 101.919
1115.478, 103.099
1116.713, 76.108
1117.948, 19.412
1119.183, 36.480
1120.418, 78.407
1121.652, 133.326
1122.886, 320.237
1124.120, 351.139
1125.354, 262.077
1126.588, 135.998
1127.821, 145.875
1129.055, 28.922
1130.288, 91.935
1131.521, 66.783
1132.753, 114.041
1133.986, 51.969
1135.218, 72.945
1136.450, 68.752
1137.682, 32.713
1138.914, 56.498
1140.146, 61.685
1141.377, 28.386
1142.609, 67.244
1143.840, 28.280
1145.071, 0.542
1146.301, 53.518
1147.532, 14.053
1148.762, 4.406
1149.992, 11.044
1151.222, 7.999
1152.452, 49.195
1153.682, 52.021
1154.911, 13.343
1156.140, 21.394
1157.369, 32.858
1158.598, 6.332
1159.827, 23.606
1161.055, 40.989
1162.284, 55.543
1163.512, 1.850
1164.740, 22.625
1165.967, 26.067
1167.195, 90.367
1168.422, 2.379
1169.650, 30.103
1170.877, 12.133
1172.103, 38.652
1173.330, 92.453
1174.557, 30.273
1175.783, 27.918
1177.009, 19.058
1178.235, 23.462
1179.461, 46.366
1180.686, 26.326
1181.912, 9.877
1183.137, 5.058
1184.362, 3.807
1185.587, 17.456
1186.811, 9.738
1188.036, 0.905
1189.260, 10.234
1190.484, 8.834
1191.708, 42.191
1192.932, 23.880
1194.155, 50.547
1195.378, 31.031
1196.602, 9.595
1197.825, 22.040
1199.047, 14.434
1200.270, 56.957
1201.492, 0.421
1202.715, 84.911
1203.937, 25.160
1205.159, 115.380
1206.380, 33.743
1207.602, 48.917
1208.823, 28.149
1210.044, 24.272
1211.265, 3.365
1212.486, 52.564
1213.707, 35.625
1214.927, 13.371
1216.147, 97.584
1217.367, 87.519
1218.587, 37.431
1219.807, 74.316
1221.027, 89.179
1222.246, 35.021
1223.465, 56.834
1224.684, 50.622
1225.903, 58.385
1227.121, 21.123
1228.340, 43.826
1229.558, 90.501
1230.776, 69.155
1231.994, 24.794
1233.212, 103.390
1234.429, 121.963
1235.646, 92.516
1236.864, 47.046
1238.081, 78.546
1239.297, 67.023
1240.514, 76.477
1241.730, 91.906
1242.947, 112.307
1244.163, 89.687
1245.378, 86.043
1246.594, 85.374
1247.810, 51.679
1249.025, 99.953
1250.240, 59.252
1251.455, 76.472
1252.670, 85.667
1253.885, 37.837
1255.099, 38.978
1256.313, 94.092
1257.527, 119.182
1258.741, 103.249
1259.955, 113.291
1261.168, 89.307
1262.382, 124.298
1263.595, 78.263
1264.808, 108.200
1266.021, 158.110
1267.233, 367.995
1268.446, 523.854
1269.658, 448.689
1270.870, 133.495
1272.082, 136.272
1273.294, 149.022
1274.505, 102.747
1275.716, 109.445
1276.928, 152.117
1278.139, 79.792
1279.349, 124.405
1280.560, 110.992
1281.770, 150.553
1282.981, 86.089
1284.191, 155.596
1285.401, 69.080
1286.610, 101.537
1287.820, 94.972
1289.029, 101.381
1290.239, 131.721
1291.448, 146.570
1292.656, 88.923
1293.865, 132.119
1295.073, 178.160
1296.282, 69.370
1297.490, 87.461
1298.698, 62.248
1299.906, 127.468
1301.113, 97.321
1302.320, 94.493
1303.528, 131.988
1304.735, 86.048
1305.942, 98.971
1307.148, 126.054
1308.355, 127.825
1309.561, 90.102
1310.767, 79.793
1311.973, 61.197
1313.179, 48.493
1314.384, 61.537
1315.590, 94.475
1316.795, 93.894
1318.000, 83.164
1319.205, 64.992
1320.410, 55.660
1321.614, 82.400
1322.819, 32.650
1324.023, 68.174
1325.227, 76.935
1326.431, 125.449
1327.634, 95.039
1328.838, 73.873
1330.041, 96.201
1331.244, 88.146
1332.447, 51.523
1333.650, 78.401
1334.852, 56.641
1336.055, 48.981
1337.257, 49.460
1338.459, 48.372
1339.661, 86.846
1340.862, 61.929
1342.064, 82.062
1343.265, 88.721
1344.466, 45.001
1345.667, 32.378
1346.868, 76.753
1348.068, 151.185
1349.269, 123.746
1350.469, 52.247
1351.669, 152.029
1352.869, 71.175
1354.069, 111.683
1355.268, 108.026
1356.468, 52.299
1357.667, 79.384
1358.866, 128.150
1360.065, 93.266
1361.263, 99.587
1362.462, 89.884
1363.660, 98.421
1364.858, 106.701
1366.056, 97.971
1367.254, 108.352
1368.451, 96.436
1369.649, 117.204
1370.846, 106.088
1372.043, 107.804
1373.240, 119.352
1374.436, 79.694
1375.633, 75.645
1376.829, 79.417
1378.025, 109.491
1379.221, 117.949
1380.417, 106.939
1381.613, 76.258
1382.808, 88.183
1384.003, 94.201
1385.199, 111.078
1386.393, 134.018
1387.588, 105.255
1388.783, 182.300
1389.977, 135.761
1391.171, 140.141
1392.365, 110.913
1393.559, 57.692
1394.753, 108.639
1395.946, 73.417
1397.140, 118.045
1398.333, 123.943
1399.526, 93.949
1400.719, 106.868
1401.911, 148.758
1403.104, 123.270
1404.296, 163.640
1405.488, 94.149
1406.680, 105.498
1407.872, 104.477
1409.063, 106.568
1410.255, 149.848
1411.446, 127.060
1412.637, 133.561
1413.828, 117.978
1415.018, 147.581
1416.209, 152.526
1417.399, 155.601
1418.589, 136.771
1419.779, 94.953
1420.969, 46.515
1422.159, 100.827
1423.348, 53.043
1424.537, 62.137
1425.726, 72.240
1426.915, 100.875
1428.104, 65.299
1429.293, 149.648
1430.481, 59.141
1431.669, 97.363
1432.857, 62.501
1434.045, 107.576
1435.233, 111.951
1436.420, 124.486
1437.608, 135.332
1438.795, 69.886
1439.982, 107.268
1441.169, 111.763
1442.355, 145.387
1443.542, 93.734
1444.728, 133.383
1445.914, 117.035
1447.100, 145.676
1448.286, 186.302
1449.472, 124.921
1450.657, 106.542
1451.842, 165.163
1453.027, 107.759
1454.212, 132.631
1455.397, 295.954
1456.581, 156.535
1457.766, 156.109
1458.950, 204.671
1460.134, 1062.231
1461.318, 602.271
1462.501, 761.271
1463.685, 229.839
1464.868, 167.390
1466.051, 88.929
1467.234, 131.469
1468.417, 62.019
1469.600, 122.584
1470.782, 105.159
1471.965, 87.769
1473.147, 78.408
1474.329, 90.067
1475.510, 120.687
1476.692, 59.420
1477.873, 94.187
1479.055, 105.900
1480.236, 77.031
1481.416, 134.624
1482.597, 84.485
1483.778, 43.379
1484.958, 118.294
1486.138, 75.227
1487.318, 74.177
1488.498, 144.140
1489.678, 74.121
