##NAMES=Olivenite
##RRUFFID=R040181
##IDEAL CHEMISTRY=Cu^2+^_2_As^5+^O_4_(OH)
##LOCALITY=Majuba Hill, Pershing County, Nevada, USA
##OWNER=RRUFF
##SOURCE=University of Arizona Mineral Museum
##DESCRIPTION=Greenish blue prismatic, untwinned. Structure for this sample reported in Li et al (2008).
##STATUS=The identification of this mineral has been confirmed by X-ray diffraction and chemical analysis
##URL=rruff.info/R040181
##MEASURED CHEMISTRY=(Cu_0.98_[box]_0.02_)_2_(As_0.90_P_0.10_O_4_)(OH)_0.92_
##PIN_ID=S00388
##ORIENTATION=Laser parallel to -a* (-1 0 0). Fiducial mark perpendicular to laser is parallel to b [0 1 0]
52.866, 0.000
54.266, 65.607
55.666, 191.815
57.065, 248.538
58.464, 210.990
59.863, 387.574
61.262, 317.871
62.661, 151.197
64.059, 86.136
65.458, 17.666
66.856, 97.538
68.253, 10.226
69.651, 89.368
71.048, 250.668
72.445, 523.940
73.842, 793.023
75.239, 1219.775
76.635, 1688.062
78.031, 2164.757
79.427, 2620.751
80.823, 3184.943
82.218, 3752.250
83.614, 4291.592
85.009, 4554.907
86.404, 4706.137
87.798, 4662.233
89.193, 4824.158
90.587, 4863.869
91.981, 4838.333
93.375, 4541.515
94.768, 4243.382
96.161, 3942.899
97.554, 3551.012
98.947, 3350.664
100.340, 3056.820
101.732, 2840.452
103.124, 2757.534
104.516, 2732.046
105.908, 2835.969
107.300, 2958.288
108.691, 2682.986
110.082, 2651.053
111.473, 2435.477
112.864, 2395.246
114.254, 2393.353
115.644, 2500.794
117.034, 2650.567
118.424, 2718.672
119.813, 2627.107
121.203, 2470.874
122.592, 2341.967
123.981, 2221.382
125.369, 2072.106
126.758, 2029.136
128.146, 2069.458
129.534, 2116.068
130.922, 2222.957
132.309, 2200.117
133.696, 2303.542
135.083, 2332.223
136.470, 2544.142
137.857, 2663.217
139.243, 3078.383
140.630, 3438.569
142.016, 4025.750
143.401, 4569.856
144.787, 5576.985
146.172, 6773.246
147.557, 8088.620
148.942, 9591.105
150.327, 10986.699
151.711, 12550.409
153.096, 14338.237
154.480, 16106.188
155.863, 17582.260
157.247, 18016.465
158.630, 16765.795
160.013, 14293.254
161.396, 11593.847
162.779, 9030.570
164.161, 7070.427
165.544, 5590.417
166.926, 4562.540
168.308, 3664.797
169.689, 3099.189
171.070, 2708.714
172.452, 2327.375
173.833, 1968.172
175.213, 1817.140
176.594, 1605.307
177.974, 1325.702
179.354, 1273.275
180.734, 1117.034
182.114, 988.065
183.493, 872.298
184.872, 853.742
186.251, 748.397
187.630, 673.246
189.008, 644.272
190.387, 536.522
191.765, 526.895
193.143, 424.393
194.520, 494.012
195.898, 493.731
197.275, 465.551
198.652, 714.471
200.029, 554.490
201.405, 758.607
202.782, 778.821
204.158, 901.129
205.534, 1152.532
206.909, 1462.026
208.285, 1701.611
209.660, 2068.287
211.035, 2447.049
212.410, 2953.898
213.784, 3520.831
215.159, 4096.849
216.533, 4640.948
217.907, 5097.125
219.281, 5180.580
220.654, 5144.168
222.027, 4761.820
223.400, 4434.514
224.773, 3773.195
226.146, 3451.405
227.518, 3008.638
228.891, 2735.222
230.263, 2369.738
231.634, 2208.260
233.006, 2114.877
234.377, 2003.838
235.748, 1962.488
237.119, 1783.922
238.490, 1609.463
239.860, 1602.412
241.231, 1306.601
242.601, 1174.901
243.970, 972.366
245.340, 909.990
246.709, 772.766
248.079, 567.690
249.448, 600.756
250.816, 408.961
252.185, 432.299
253.553, 314.766
254.921, 323.359
256.289, 340.073
257.657, 333.906
259.024, 278.854
260.391, 327.913
261.758, 348.083
263.125, 337.365
264.492, 394.752
265.858, 484.241
267.224, 533.833
268.590, 645.525
269.956, 794.316
271.321, 1138.203
272.687, 1367.186
274.052, 1847.263
275.416, 2174.454
276.781, 2782.741
278.146, 3455.125
279.510, 4194.599
280.874, 4803.158
282.237, 5439.811
283.601, 5525.554
284.964, 5174.392
286.327, 4764.317
287.690, 4244.322
289.053, 3497.418
290.416, 3063.606
291.778, 2429.867
293.140, 1912.502
294.502, 1726.853
295.863, 1411.614
297.225, 1319.396
298.586, 1123.925
299.947, 1080.826
301.308, 1114.812
302.668, 973.746
304.029, 1090.665
305.389, 1114.543
306.749, 1215.562
308.108, 1261.548
309.468, 1374.250
310.827, 1285.188
312.186, 1201.390
313.545, 1194.486
314.903, 1214.970
316.262, 1044.656
317.620, 1038.021
318.978, 897.301
320.336, 820.255
321.693, 783.004
323.051, 735.351
324.408, 797.443
325.765, 727.381
327.121, 809.586
328.478, 776.943
329.834, 776.056
331.190, 815.649
332.546, 933.856
333.902, 844.141
335.257, 968.469
336.612, 961.842
337.967, 1124.280
339.322, 1192.758
340.677, 1249.293
342.031, 1443.881
343.385, 1381.501
344.739, 1571.158
346.093, 1590.852
347.446, 1482.578
348.799, 1465.345
350.153, 1317.144
351.505, 1091.979
352.858, 1051.841
354.210, 860.730
355.563, 691.646
356.915, 630.588
358.267, 557.556
359.618, 389.545
360.969, 417.558
362.321, 357.590
363.672, 474.643
365.022, 410.715
366.373, 414.806
367.723, 346.915
369.073, 329.039
370.423, 315.177
371.773, 367.332
373.122, 371.500
374.471, 351.683
375.821, 420.878
377.169, 187.085
378.518, 325.314
379.866, 206.554
381.215, 218.806
382.563, 213.075
383.910, 154.365
385.258, 144.681
386.605, 150.026
387.952, 76.404
389.299, 79.870
390.646, 40.276
391.992, 36.771
393.339, 48.693
394.685, 78.110
396.031, 69.474
397.376, 51.817
398.722, 91.140
400.067, 49.455
401.412, 32.245
402.757, 60.031
404.101, 123.704
405.446, 94.458
406.790, 90.232
408.134, 182.024
409.478, 285.833
410.821, 347.660
412.165, 595.500
413.508, 509.356
414.851, 794.225
416.193, 893.105
417.536, 916.999
418.878, 1058.901
420.220, 1090.682
421.562, 1232.079
422.904, 1210.272
424.245, 1230.987
425.586, 1324.311
426.927, 1191.777
428.268, 1101.781
429.609, 992.447
430.949, 934.429
432.289, 850.306
433.629, 801.947
434.969, 714.298
436.309, 600.213
437.648, 531.047
438.987, 476.085
440.326, 335.948
441.665, 302.865
443.003, 303.653
444.342, 228.442
445.680, 262.255
447.018, 116.245
448.355, 190.014
449.693, 62.943
451.030, 36.293
452.367, 13.150
453.704, 5.847
455.041, 52.477
456.377, 34.051
457.713, 79.522
459.049, 70.371
460.385, 95.393
461.721, 113.832
463.056, 34.552
464.391, 63.401
465.726, 38.132
467.061, 59.923
468.395, 147.079
469.730, 138.566
471.064, 28.733
472.398, 53.406
473.731, 48.988
475.065, 140.492
476.398, 73.495
477.731, 3.987
479.064, 61.361
480.397, 105.653
481.729, 6.103
483.062, 54.524
484.394, 147.652
485.725, 32.736
487.057, 6.053
488.389, 15.954
489.720, 104.946
491.051, 43.268
492.382, 50.015
493.712, 66.438
495.043, 136.940
496.373, 91.851
497.703, 132.878
499.032, 144.174
500.362, 206.327
501.691, 198.049
503.020, 185.611
504.349, 244.692
505.678, 211.224
507.007, 149.385
508.335, 138.432
509.663, 136.404
510.991, 157.333
512.319, 178.625
513.646, 225.157
514.973, 276.193
516.300, 267.055
517.627, 215.827
518.954, 279.176
520.280, 323.704
521.607, 237.565
522.933, 340.835
524.259, 322.082
525.584, 215.987
526.910, 258.774
528.235, 304.217
529.560, 251.819
530.885, 294.430
532.209, 254.043
533.534, 249.313
534.858, 289.828
536.182, 301.071
537.506, 290.560
538.829, 284.655
540.152, 265.301
541.476, 317.306
542.799, 352.894
544.121, 201.096
545.444, 349.406
546.766, 358.611
548.088, 336.720
549.410, 455.809
550.732, 488.834
552.053, 549.017
553.375, 488.435
554.696, 547.152
556.017, 548.548
557.337, 608.333
558.658, 612.463
559.978, 664.871
561.298, 599.799
562.618, 636.064
563.938, 569.250
565.257, 659.478
566.576, 560.739
567.895, 495.771
569.214, 557.040
570.533, 532.968
571.851, 386.844
573.170, 459.795
574.488, 440.566
575.805, 306.283
577.123, 319.947
578.440, 200.559
579.758, 231.169
581.075, 197.712
582.391, 70.157
583.708, 174.552
585.024, 143.881
586.341, 98.140
587.657, 115.440
588.972, 101.569
590.288, 107.635
591.603, 79.636
592.918, 101.565
594.233, 13.570
595.548, 49.183
596.863, 44.855
598.177, 76.617
599.491, 113.157
600.805, 29.849
602.119, 52.601
603.432, 11.057
604.746, 48.356
606.059, 82.450
607.372, 9.491
608.685, 2.444
609.997, 120.287
611.309, 71.661
612.621, 39.675
613.933, 36.307
615.245, 32.498
616.557, 0.343
617.868, 31.954
619.179, 43.034
620.490, 46.075
621.801, 9.169
623.111, 124.729
624.421, 0.337
625.731, 78.434
627.041, 2.230
628.351, 150.293
629.660, 15.114
630.970, 67.655
632.279, 193.294
633.588, 72.540
634.896, 41.576
636.205, 105.923
637.513, 75.345
638.821, 29.915
640.129, 70.002
641.437, 42.312
642.744, 60.861
644.051, 52.444
645.358, 3.051
646.665, 3.830
647.972, 1.386
649.278, 45.555
650.584, 111.133
651.890, 27.051
653.196, 9.174
654.502, 75.769
655.807, 31.179
657.113, 47.933
658.418, 42.139
659.722, 142.565
661.027, 33.217
662.331, 8.810
663.636, 22.338
664.940, 21.020
666.244, 16.201
667.547, 7.466
668.851, 21.798
670.154, 75.003
671.457, 12.154
672.760, 18.246
674.062, 20.279
675.365, 78.255
676.667, 32.178
677.969, 174.053
679.271, 65.879
680.572, 60.663
681.874, 131.395
683.175, 149.075
684.476, 224.712
685.777, 171.301
687.077, 157.849
688.378, 146.348
689.678, 243.799
690.978, 147.203
692.278, 200.560
693.577, 25.121
694.877, 305.130
696.176, 69.338
697.475, 281.498
698.774, 59.612
700.072, 139.678
701.371, 101.695
702.669, 114.668
703.967, 125.304
705.265, 117.472
706.562, 120.303
707.860, 70.091
709.157, 68.831
710.454, 53.529
711.751, 165.188
713.047, 158.810
714.344, 98.393
715.640, 180.940
716.936, 39.452
718.232, 169.916
719.527, 233.345
720.823, 166.735
722.118, 145.084
723.413, 276.392
724.708, 115.660
726.002, 213.888
727.297, 283.075
728.591, 150.225
729.885, 187.335
731.179, 257.407
732.472, 227.442
733.766, 200.439
735.059, 160.169
736.352, 161.701
737.645, 177.602
738.937, 162.674
740.230, 163.108
741.522, 164.369
742.814, 137.064
744.106, 179.065
745.397, 171.719
746.689, 170.346
747.980, 188.251
749.271, 162.851
750.562, 172.159
751.853, 162.867
753.143, 98.202
754.433, 130.745
755.723, 77.200
757.013, 36.748
758.303, 84.419
759.592, 92.710
760.881, 142.947
762.170, 110.370
763.459, 101.597
764.748, 97.365
766.036, 29.590
767.325, 211.632
768.613, 83.265
769.901, 155.796
771.188, 168.179
772.476, 124.887
773.763, 200.716
775.050, 174.155
776.337, 147.209
777.624, 200.810
778.910, 260.136
780.196, 344.472
781.482, 316.120
782.768, 365.646
784.054, 315.536
785.339, 374.505
786.625, 416.328
787.910, 383.021
789.195, 656.134
790.479, 572.676
791.764, 740.057
793.048, 784.296
794.332, 736.624
795.616, 903.876
796.900, 868.777
798.183, 911.081
799.467, 1056.520
800.750, 1124.114
802.033, 1066.681
803.316, 1025.410
804.598, 1390.594
805.880, 1165.593
807.163, 1437.473
808.445, 1518.900
809.726, 1495.172
811.008, 1652.129
812.289, 1890.188
813.570, 1857.636
814.851, 2157.209
816.132, 2158.221
817.413, 2333.750
818.693, 2425.605
819.973, 2762.533
821.253, 2952.318
822.533, 2999.193
823.813, 3403.105
825.092, 3333.402
826.371, 3661.149
827.650, 3700.028
828.929, 4179.949
830.208, 4443.270
831.486, 4686.064
832.764, 5058.781
834.042, 5485.566
835.320, 6052.976
836.598, 6746.529
837.875, 7628.389
839.152, 8296.343
840.429, 9284.269
841.706, 10468.988
842.983, 11297.693
844.259, 12841.672
845.536, 15049.398
846.812, 17075.127
848.088, 19905.801
849.363, 23439.141
850.639, 27757.576
851.914, 32564.602
853.189, 36835.000
854.464, 40663.762
855.739, 43277.410
857.013, 43452.098
858.288, 40474.828
859.562, 35596.574
860.836, 31261.338
862.110, 26391.910
863.383, 21471.521
864.656, 18205.168
865.930, 15143.173
867.203, 12905.154
868.475, 10722.896
869.748, 9379.986
871.020, 7928.494
872.292, 7086.559
873.564, 6117.717
874.836, 5333.789
876.108, 4912.784
877.379, 4098.960
878.650, 3865.850
879.922, 3571.034
881.192, 3252.225
882.463, 2987.415
883.733, 2608.534
885.004, 2401.738
886.274, 2137.943
887.544, 1837.155
888.813, 1888.355
890.083, 1659.570
891.352, 1416.835
892.621, 1599.160
893.890, 1122.430
895.159, 1213.717
896.427, 1158.907
897.695, 952.213
898.964, 955.532
900.232, 897.862
901.499, 662.283
902.767, 599.639
904.034, 691.023
905.301, 554.424
906.568, 569.671
907.835, 621.085
909.102, 561.294
910.368, 445.371
911.634, 319.680
912.900, 436.078
914.166, 343.618
915.432, 457.151
916.697, 342.698
917.962, 192.279
919.227, 317.597
920.492, 287.266
921.757, 291.937
923.021, 307.646
924.285, 314.378
925.550, 210.137
926.813, 334.935
928.077, 371.763
929.341, 249.629
930.604, 311.523
931.867, 449.423
933.130, 587.347
934.393, 246.281
935.655, 359.235
936.918, 89.339
938.180, 380.318
939.442, 227.306
940.703, 232.299
941.965, 278.299
943.226, 269.826
944.488, 207.847
945.749, 350.208
947.009, 321.611
948.270, 250.821
949.530, 398.152
950.791, 470.651
952.051, 530.858
953.311, 591.733
954.570, 621.955
955.830, 786.410
957.089, 874.533
958.348, 1015.438
959.607, 1001.987
960.866, 1025.882
962.124, 1051.866
963.383, 1002.529
964.641, 969.279
965.899, 845.832
967.156, 643.470
968.414, 407.935
969.671, 398.555
970.928, 338.617
972.185, 265.546
973.442, 326.340
974.699, 170.639
975.955, 246.938
977.211, 182.241
978.468, 245.981
979.723, 140.288
980.979, 70.543
982.234, 75.749
983.490, 244.060
984.745, 97.582
986.000, 14.432
987.254, 134.799
988.509, 58.943
989.763, 160.509
991.017, 54.081
992.271, 112.019
993.525, 4.205
994.779, 90.300
996.032, 142.619
997.285, 66.919
998.538, 121.694
999.791, 13.184
1001.044, 196.268
1002.296, 58.506
1003.548, 56.161
1004.800, 67.361
1006.052, 32.629
1007.304, 52.037
1008.555, 82.724
1009.807, 74.562
1011.058, 62.468
1012.309, 95.538
1013.559, 57.111
1014.810, 38.378
1016.060, 73.221
1017.310, 146.723
1018.560, 127.613
1019.810, 129.518
1021.060, 152.417
1022.309, 146.930
1023.558, 133.130
1024.807, 184.827
1026.056, 136.170
1027.305, 152.451
1028.553, 268.350
1029.801, 271.288
1031.049, 276.657
1032.297, 83.467
1033.545, 194.583
1034.793, 320.428
1036.040, 146.779
1037.287, 271.730
1038.534, 230.264
1039.781, 163.865
1041.027, 402.621
1042.274, 101.468
1043.520, 267.717
1044.766, 312.087
1046.012, 129.702
1047.257, 212.239
1048.503, 182.482
1049.748, 374.447
1050.993, 114.606
1052.238, 264.902
1053.483, 222.777
1054.727, 249.692
1055.971, 190.997
1057.216, 284.904
1058.459, 229.172
1059.703, 313.310
1060.947, 237.086
1062.190, 248.757
1063.433, 338.246
1064.676, 367.803
1065.919, 199.030
1067.162, 190.790
1068.404, 357.163
1069.646, 214.153
1070.888, 407.437
1072.130, 360.319
1073.372, 342.885
1074.613, 319.608
1075.855, 367.230
1077.096, 325.892
1078.337, 371.360
1079.578, 349.858
1080.818, 438.746
1082.059, 301.359
1083.299, 316.646
1084.539, 258.065
1085.779, 164.789
1087.018, 323.682
1088.258, 213.949
1089.497, 290.417
1090.736, 283.149
1091.975, 85.977
1093.213, 210.474
1094.452, 133.049
1095.690, 233.155
1096.928, 94.335
1098.166, 156.180
1099.404, 119.695
1100.642, 197.146
1101.879, 42.612
1103.116, 203.887
1104.353, 24.850
1105.590, 326.494
1106.827, 59.485
1108.063, 147.728
1109.299, 67.851
1110.536, 187.419
1111.771, 94.029
1113.007, 40.407
1114.243, 18.215
1115.478, 162.750
1116.713, 31.602
1117.948, 173.562
1119.183, 70.732
1120.418, 115.881
1121.652, 143.836
1122.886, 390.170
1124.120, 365.893
1125.354, 327.434
1126.588, 168.191
1127.821, 280.418
1129.055, 51.820
1130.288, 184.099
1131.521, 156.603
1132.753, 26.452
1133.986, 18.850
1135.218, 51.439
1136.450, 363.762
1137.682, 102.480
1138.914, 246.883
1140.146, 80.746
1141.377, 58.660
1142.609, 0.134
1143.840, 98.516
1145.071, 17.437
1146.301, 23.055
1147.532, 78.526
1148.762, 18.345
1149.992, 50.190
1151.222, 11.322
1152.452, 45.901
1153.682, 43.714
1154.911, 58.882
1156.140, 100.347
1157.369, 54.489
1158.598, 23.342
1159.827, 6.595
1161.055, 17.017
1162.284, 47.941
1163.512, 30.131
1164.740, 133.256
1165.967, 140.532
1167.195, 137.160
1168.422, 136.302
1169.650, 39.700
1170.877, 78.193
1172.103, 29.521
1173.330, 58.438
1174.557, 70.894
1175.783, 149.594
1177.009, 137.181
1178.235, 64.998
1179.461, 172.097
1180.686, 95.646
1181.912, 156.849
1183.137, 271.668
1184.362, 146.018
1185.587, 91.397
1186.811, 225.143
1188.036, 183.738
1189.260, 163.918
1190.484, 302.623
1191.708, 269.772
1192.932, 206.536
1194.155, 221.329
1195.378, 82.056
1196.602, 113.557
1197.825, 297.533
1199.047, 71.794
1200.270, 354.568
1201.492, 339.484
1202.715, 241.176
1203.937, 40.330
1205.159, 237.740
1206.380, 263.520
1207.602, 343.432
1208.823, 46.463
1210.044, 160.215
1211.265, 136.908
1212.486, 209.191
1213.707, 313.709
1214.927, 160.148
1216.147, 244.982
1217.367, 167.297
1218.587, 299.035
1219.807, 281.299
1221.027, 278.402
1222.246, 96.432
1223.465, 16.377
1224.684, 217.221
1225.903, 311.990
1227.121, 284.684
1228.340, 255.316
1229.558, 325.061
1230.776, 284.521
1231.994, 202.988
1233.212, 153.148
1234.429, 293.393
1235.646, 236.547
1236.864, 163.660
1238.081, 371.025
1239.297, 200.553
1240.514, 172.379
1241.730, 273.801
1242.947, 246.488
1244.163, 113.588
1245.378, 147.871
1246.594, 387.916
1247.810, 374.326
1249.025, 169.166
1250.240, 400.412
1251.455, 364.262
1252.670, 198.891
1253.885, 366.186
1255.099, 383.211
1256.313, 264.377
1257.527, 42.959
1258.741, 103.051
1259.955, 272.832
1261.168, 136.113
1262.382, 178.238
1263.595, 273.459
1264.808, 259.877
1266.021, 75.336
1267.233, 317.863
1268.446, 157.443
1269.658, 291.451
1270.870, 118.381
1272.082, 258.229
1273.294, 143.551
1274.505, 231.189
1275.716, 63.803
1276.928, 323.828
1278.139, 155.666
1279.349, 291.844
1280.560, 216.352
1281.770, 230.449
1282.981, 104.439
1284.191, 170.072
1285.401, 351.650
1286.610, 127.432
1287.820, 108.035
1289.029, 116.646
1290.239, 4.059
1291.448, 224.012
1292.656, 80.838
1293.865, 91.086
1295.073, 117.918
1296.282, 77.885
1297.490, 108.850
1298.698, 112.205
1299.906, 124.904
1301.113, 134.719
1302.320, 133.500
1303.528, 116.385
1304.735, 35.127
1305.942, 12.627
1307.148, 94.539
1308.355, 240.680
1309.561, 85.404
1310.767, 190.906
1311.973, 39.174
1313.179, 124.350
1314.384, 110.557
1315.590, 95.846
1316.795, 106.471
1318.000, 167.510
1319.205, 37.184
1320.410, 46.100
1321.614, 190.678
1322.819, 46.867
1324.023, 77.064
1325.227, 133.471
1326.431, 207.484
1327.634, 82.682
1328.838, 141.715
1330.041, 92.203
1331.244, 10.455
1332.447, 234.555
1333.650, 21.584
1334.852, 154.105
1336.055, 81.312
1337.257, 120.318
1338.459, 104.998
1339.661, 103.680
1340.862, 125.293
1342.064, 230.664
1343.265, 125.486
1344.466, 239.090
1345.667, 188.037
1346.868, 222.863
1348.068, 383.223
1349.269, 247.902
1350.469, 141.254
1351.669, 366.551
1352.869, 283.135
1354.069, 355.750
1355.268, 320.473
1356.468, 160.340
1357.667, 456.180
1358.866, 408.418
1360.065, 210.113
1361.263, 428.316
1362.462, 214.234
1363.660, 309.447
1364.858, 421.369
1366.056, 435.248
1367.254, 375.168
1368.451, 373.988
1369.649, 431.525
1370.846, 342.438
1372.043, 318.836
1373.240, 271.738
1374.436, 389.809
1375.633, 298.553
1376.829, 391.738
1378.025, 308.551
1379.221, 309.791
1380.417, 298.586
1381.613, 216.209
1382.808, 276.480
1384.003, 369.102
1385.199, 442.062
1386.393, 414.799
1387.588, 443.012
1388.783, 396.990
1389.977, 397.543
1391.171, 278.350
1392.365, 235.266
1393.559, 278.656
1394.753, 414.248
1395.946, 176.639
1397.140, 337.256
1398.333, 193.271
1399.526, 465.234
1400.719, 409.988
1401.911, 382.201
1403.104, 426.475
1404.296, 418.559
1405.488, 345.844
1406.680, 609.451
1407.872, 183.627
1409.063, 353.482
1410.255, 566.721
1411.446, 342.584
1412.637, 489.010
1413.828, 387.760
1415.018, 343.064
1416.209, 500.314
1417.399, 401.498
1418.589, 346.039
1419.779, 603.898
1420.969, 277.381
1422.159, 503.352
1423.348, 199.428
1424.537, 447.326
1425.726, 448.355
1426.915, 257.170
1428.104, 407.865
1429.293, 360.895
1430.481, 416.578
1431.669, 392.236
1432.857, 604.807
1434.045, 590.195
1435.233, 442.984
1436.420, 708.562
1437.608, 603.973
1438.795, 578.857
1439.982, 378.982
1441.169, 559.908
1442.355, 508.127
1443.542, 480.115
1444.728, 580.701
1445.914, 564.201
1447.100, 594.029
1448.286, 536.594
1449.472, 594.742
1450.657, 351.072
1451.842, 709.453
1453.027, 422.994
1454.212, 642.043
1455.397, 679.266
1456.581, 442.359
1457.766, 816.072
1458.950, 856.123
1460.134, 513.754
1461.318, 759.422
1462.501, 378.998
1463.685, 423.479
1464.868, 585.869
1466.051, 332.143
1467.234, 685.461
1468.417, 390.744
1469.600, 401.977
1470.782, 479.326
1471.965, 499.898
1473.147, 243.680
1474.329, 590.027
1475.510, 529.287
1476.692, 232.934
1477.873, 288.729
1479.055, 482.623
1480.236, 187.566
1481.416, 672.557
1482.597, 394.555
1483.778, 507.598
1484.958, 415.668
1486.138, 171.760
