##NAMES=Olivenite
##RRUFFID=R040181
##IDEAL CHEMISTRY=Cu^2+^_2_As^5+^O_4_(OH)
##LOCALITY=Majuba Hill, Pershing County, Nevada, USA
##OWNER=RRUFF
##SOURCE=University of Arizona Mineral Museum
##DESCRIPTION=Greenish blue prismatic, untwinned. Structure for this sample reported in Li et al (2008).
##STATUS=The identification of this mineral has been confirmed by X-ray diffraction and chemical analysis
##URL=rruff.info/R040181
##MEASURED CHEMISTRY=(Cu_0.98_[box]_0.02_)_2_(As_0.90_P_0.10_O_4_)(OH)_0.92_
##PIN_ID=S00117
##ORIENTATION=Laser parallel to (-1 0 -1). Fiducial mark perpendicular to laser is parallel to -b [0 -1 0]
52.866, 0.000
54.266, 35.709
55.666, 26.186
57.065, 33.391
58.464, 94.612
59.863, 50.807
61.262, 16.044
62.661, 2.009
64.059, 30.924
65.458, 23.200
66.856, 6.258
68.253, 57.219
69.651, 124.505
71.048, 266.567
72.445, 366.307
73.842, 553.935
75.239, 800.284
76.635, 1077.203
78.031, 1294.566
79.427, 1497.264
80.823, 1653.198
82.218, 1798.277
83.614, 1895.420
85.009, 1862.556
86.404, 2045.619
87.798, 2126.548
89.193, 2223.295
90.587, 2477.810
91.981, 2577.050
93.375, 2629.977
94.768, 2629.553
96.161, 2647.727
97.554, 2524.448
98.947, 2353.693
100.340, 2332.459
101.732, 2353.741
103.124, 2473.518
104.516, 2671.757
105.908, 2928.434
107.300, 3308.521
108.691, 3606.000
110.082, 4033.850
111.473, 4304.057
112.864, 4516.601
114.254, 4711.470
115.644, 4936.655
117.034, 4940.143
118.424, 4808.920
119.813, 4415.982
121.203, 4219.316
122.592, 3534.916
123.981, 3115.772
125.369, 2716.877
126.758, 2347.225
128.146, 2092.808
129.534, 1865.621
130.922, 1689.839
132.309, 1627.907
133.696, 1493.370
135.083, 1355.038
136.470, 1336.852
137.857, 1260.651
139.243, 1309.446
140.630, 1405.267
142.016, 1549.216
143.401, 1699.419
144.787, 2121.979
146.172, 2431.917
147.557, 2949.214
148.942, 3464.784
150.327, 3953.561
151.711, 4575.440
153.096, 4966.382
154.480, 5473.387
155.863, 5460.459
157.247, 5431.604
158.630, 5340.819
160.013, 4948.113
161.396, 4570.483
162.779, 3984.930
164.161, 3462.461
165.544, 3180.072
166.926, 2973.765
168.308, 2869.543
169.689, 2970.406
171.070, 2947.354
172.452, 3171.389
173.833, 3153.512
175.213, 3262.721
176.594, 3214.019
177.974, 3044.405
179.354, 2849.878
180.734, 2567.441
182.114, 2327.093
183.493, 2067.582
184.872, 1829.204
186.251, 1571.567
187.630, 1389.563
189.008, 1244.644
190.387, 1080.807
191.765, 1002.054
193.143, 903.382
194.520, 915.887
195.898, 949.280
197.275, 1071.848
198.652, 1243.494
200.029, 1473.217
201.405, 1680.016
202.782, 1995.888
204.158, 2319.834
205.534, 2813.852
206.909, 3291.940
208.285, 3883.098
209.660, 4479.324
211.035, 5299.619
212.410, 5834.977
213.784, 6562.399
215.159, 7147.887
216.533, 7570.437
217.907, 7993.044
219.281, 8013.104
220.654, 7868.252
222.027, 7414.462
223.400, 7079.851
224.773, 6608.385
226.146, 5947.147
227.518, 5351.911
228.891, 4874.879
230.263, 4399.752
231.634, 3999.156
233.006, 3636.496
234.377, 3216.778
235.748, 2860.404
237.119, 2587.807
238.490, 2214.666
239.860, 1901.626
241.231, 1592.277
242.601, 1307.163
243.970, 1041.826
245.340, 873.773
246.709, 719.165
248.079, 595.286
249.448, 533.479
250.816, 421.624
252.185, 424.880
253.553, 383.246
254.921, 351.716
256.289, 418.286
257.657, 442.955
259.024, 437.716
260.391, 513.569
261.758, 560.510
263.125, 661.536
264.492, 788.646
265.858, 943.835
267.224, 1184.105
268.590, 1452.451
269.956, 1870.756
271.321, 2303.368
272.687, 2954.936
274.052, 3670.581
275.416, 4500.305
276.781, 5630.105
278.146, 6666.978
279.510, 7450.920
280.874, 8490.937
282.237, 8991.022
283.601, 9316.179
284.964, 9111.407
286.327, 8559.708
287.690, 8201.084
289.053, 7296.530
290.416, 6485.044
291.778, 5865.627
293.140, 5250.279
294.502, 4733.995
295.863, 4356.774
297.225, 4176.614
298.586, 4066.517
299.947, 3950.482
301.308, 3998.513
302.668, 3943.601
304.029, 4068.760
305.389, 4134.979
306.749, 4189.248
308.108, 4072.573
309.468, 4066.947
310.827, 4003.360
312.186, 3729.812
313.545, 3513.304
314.903, 3320.828
316.262, 3003.387
317.620, 2803.982
318.978, 2574.616
320.336, 2357.290
321.693, 2217.996
323.051, 2029.750
324.408, 1937.541
325.765, 1821.366
327.121, 1849.227
328.478, 1788.119
329.834, 1741.042
331.190, 1771.997
332.546, 1792.978
333.902, 1762.999
335.257, 1804.057
336.612, 1747.148
337.967, 1769.264
339.322, 1748.405
340.677, 1791.573
342.031, 1715.763
343.385, 1777.975
344.739, 1732.211
346.093, 1643.467
347.446, 1617.744
348.799, 1523.041
350.153, 1486.359
351.505, 1345.694
352.858, 1215.047
354.210, 1049.417
355.563, 959.805
356.915, 883.208
358.267, 825.627
359.618, 736.061
360.969, 630.510
362.321, 614.972
363.672, 527.449
365.022, 497.938
366.373, 463.440
367.723, 377.954
369.073, 349.479
370.423, 334.016
371.773, 293.564
373.122, 230.122
374.471, 193.689
375.821, 230.266
377.169, 146.852
378.518, 191.447
379.866, 116.049
381.215, 135.659
382.563, 144.304
383.910, 57.982
385.258, 46.695
386.605, 30.439
387.952, 43.216
389.299, 51.978
390.646, 74.161
391.992, 122.344
393.339, 151.546
394.685, 172.785
396.031, 202.075
397.376, 203.339
398.722, 212.018
400.067, 198.356
401.412, 195.926
402.757, 186.566
404.101, 150.273
405.446, 86.032
406.790, 125.814
408.134, 53.639
409.478, 22.475
410.821, 4.687
412.165, 25.858
413.508, 72.041
414.851, 155.234
416.193, 165.438
417.536, 211.652
418.878, 209.876
420.220, 238.108
421.562, 230.211
422.904, 223.596
424.245, 204.850
425.586, 193.112
426.927, 184.428
428.268, 179.993
429.609, 141.493
430.949, 82.093
432.289, 76.765
433.629, 70.681
434.969, 93.942
436.309, 71.447
437.648, 94.208
438.987, 61.389
440.326, 64.923
441.665, 72.973
443.003, 96.976
444.342, 129.435
445.680, 149.729
447.018, 143.421
448.355, 161.205
449.693, 128.719
451.030, 154.423
452.367, 177.138
453.704, 147.090
455.041, 192.510
456.377, 176.903
457.713, 216.454
459.049, 227.300
460.385, 183.313
461.721, 233.745
463.056, 198.905
464.391, 206.498
465.726, 248.945
467.061, 263.435
468.395, 260.548
469.730, 297.772
471.064, 338.535
472.398, 343.896
473.731, 376.166
475.065, 365.696
476.398, 394.441
477.731, 477.565
479.064, 538.777
480.397, 593.491
481.729, 710.472
483.062, 770.142
484.394, 798.503
485.725, 909.620
487.057, 1027.000
488.389, 1102.916
489.720, 1278.554
491.051, 1463.785
492.382, 1599.794
493.712, 1776.941
495.043, 1946.543
496.373, 2033.972
497.703, 2157.204
499.032, 2402.479
500.362, 2551.896
501.691, 2628.765
503.020, 2765.775
504.349, 2750.799
505.678, 2840.526
507.007, 2935.345
508.335, 3127.365
509.663, 3163.048
510.991, 3233.649
512.319, 3438.235
513.646, 3467.772
514.973, 3579.340
516.300, 3576.830
517.627, 3714.297
518.954, 3635.741
520.280, 3606.160
521.607, 3762.555
522.933, 3734.926
524.259, 3665.271
525.584, 3720.594
526.910, 3601.890
528.235, 3503.162
529.560, 3348.408
530.885, 3214.629
532.209, 3002.824
533.534, 2807.994
534.858, 2618.138
536.182, 2476.257
537.506, 2303.349
538.829, 2163.415
540.152, 2037.456
541.476, 1972.469
542.799, 1864.457
544.121, 1750.417
545.444, 1711.351
546.766, 1624.257
548.088, 1570.135
549.410, 1561.026
550.732, 1490.830
552.053, 1392.167
553.375, 1398.853
554.696, 1311.284
556.017, 1256.025
557.337, 1204.597
558.658, 1135.553
559.978, 1041.208
561.298, 945.905
562.618, 922.046
563.938, 770.081
565.257, 694.461
566.576, 650.671
567.895, 528.545
569.214, 486.794
570.533, 442.067
571.851, 391.483
573.170, 347.788
574.488, 295.243
575.805, 246.587
577.123, 218.906
578.440, 155.201
579.758, 172.471
581.075, 146.717
582.391, 132.938
583.708, 95.135
585.024, 78.306
586.341, 57.452
587.657, 62.568
588.972, 56.658
590.288, 53.718
591.603, 43.749
592.918, 7.747
594.233, 12.298
595.548, 0.399
596.863, 9.451
598.177, 3.258
599.491, 4.982
600.805, 4.274
602.119, 11.617
603.432, 25.014
604.746, 31.474
606.059, 29.531
607.372, 32.587
608.685, 32.241
609.997, 32.676
611.309, 36.745
612.621, 28.598
613.933, 28.513
615.245, 15.492
616.557, 36.526
617.868, 39.627
619.179, 46.796
620.490, 27.037
621.801, 66.339
623.111, 32.723
624.421, 2.169
625.731, 28.663
627.041, 0.782
628.351, 38.182
629.660, 16.551
630.970, 17.882
632.279, 45.178
633.588, 33.444
634.896, 18.678
636.205, 4.122
637.513, 3.032
638.821, 19.145
640.129, 29.775
641.437, 9.753
642.744, 11.222
644.051, 4.162
645.358, 14.064
646.665, 21.932
647.972, 3.770
649.278, 53.569
650.584, 28.656
651.890, 20.934
653.196, 3.262
654.502, 28.372
655.807, 23.978
657.113, 15.556
658.418, 45.105
659.722, 31.630
661.027, 28.129
662.331, 48.602
663.636, 37.051
664.940, 20.477
666.244, 41.877
667.547, 50.255
668.851, 47.374
670.154, 55.943
671.457, 39.255
672.760, 50.545
674.062, 51.592
675.365, 63.063
676.667, 59.291
677.969, 55.498
679.271, 52.685
680.572, 56.853
681.874, 48.000
683.175, 80.128
684.476, 97.236
685.777, 68.325
687.077, 86.395
688.378, 78.446
689.678, 95.481
690.978, 75.498
692.278, 62.499
693.577, 54.486
694.877, 70.458
696.176, 49.414
697.475, 79.354
698.774, 92.279
700.072, 93.190
701.371, 63.087
702.669, 86.969
703.967, 50.837
705.265, 109.689
706.562, 99.535
707.860, 101.380
709.157, 102.235
710.454, 137.108
711.751, 91.002
713.047, 135.928
714.344, 112.884
715.640, 135.874
716.936, 101.894
718.232, 121.945
719.527, 140.023
720.823, 154.122
722.118, 145.226
723.413, 186.346
724.708, 164.466
726.002, 166.580
727.297, 185.684
728.591, 162.775
729.885, 204.854
731.179, 142.921
732.472, 149.976
733.766, 186.020
735.059, 160.052
736.352, 165.074
737.645, 176.085
738.937, 161.702
740.230, 172.966
741.522, 168.005
742.814, 184.682
744.106, 221.418
745.397, 239.051
746.689, 232.604
747.980, 228.910
749.271, 251.863
750.562, 229.567
751.853, 241.009
753.143, 267.023
754.433, 257.678
755.723, 259.810
757.013, 260.982
758.303, 291.691
759.592, 292.556
760.881, 310.017
762.170, 293.602
763.459, 319.999
764.748, 314.423
766.036, 377.828
767.325, 426.987
768.613, 354.669
769.901, 399.370
771.188, 392.903
772.476, 404.133
773.763, 483.187
775.050, 468.812
776.337, 547.700
777.624, 570.146
778.910, 584.728
780.196, 649.257
781.482, 718.153
782.768, 722.929
784.054, 778.156
785.339, 871.775
786.625, 937.474
787.910, 1022.903
789.195, 1122.107
790.479, 1178.921
791.764, 1195.637
793.048, 1287.841
794.332, 1314.768
795.616, 1446.994
796.900, 1487.519
798.183, 1552.277
799.467, 1585.762
800.750, 1613.699
802.033, 1653.904
803.316, 1708.505
804.598, 1821.317
805.880, 1811.980
807.163, 1908.177
808.445, 1997.536
809.726, 2029.080
811.008, 2113.571
812.289, 2251.908
813.570, 2427.782
814.851, 2594.505
816.132, 2755.202
817.413, 2932.185
818.693, 3102.064
819.973, 3290.732
821.253, 3438.724
822.533, 3684.787
823.813, 3900.856
825.092, 4041.959
826.371, 4339.023
827.650, 4548.151
828.929, 4906.292
830.208, 5433.445
831.486, 5901.612
832.764, 6453.791
834.042, 7152.982
835.320, 7954.188
836.598, 8910.405
837.875, 10120.639
839.152, 11354.883
840.429, 12499.178
841.706, 14539.451
842.983, 16152.203
844.259, 18269.711
845.536, 21596.422
846.812, 24445.947
848.088, 28722.619
849.363, 33452.637
850.639, 38848.168
851.914, 44798.199
853.189, 49340.195
854.464, 52956.336
855.739, 55310.141
857.013, 54195.918
858.288, 49532.664
859.562, 43395.168
860.836, 37340.777
862.110, 31614.311
863.383, 25509.158
864.656, 21573.729
865.930, 17890.734
867.203, 15018.354
868.475, 12820.263
869.748, 10806.938
871.020, 9173.636
872.292, 8294.354
873.564, 7246.095
874.836, 6416.859
876.108, 5781.649
877.379, 5177.461
878.650, 4706.295
879.922, 4297.153
881.192, 3965.036
882.463, 3652.942
883.733, 3349.875
885.004, 3117.828
886.274, 2903.808
887.544, 2678.814
888.813, 2573.839
890.083, 2396.885
891.352, 2299.951
892.621, 2121.036
893.890, 1984.140
895.159, 1841.264
896.427, 1681.411
897.695, 1608.582
898.964, 1509.771
900.232, 1416.983
901.499, 1293.218
902.767, 1188.479
904.034, 1109.778
905.301, 1029.107
906.568, 980.463
907.835, 961.852
909.102, 863.278
910.368, 806.737
911.634, 732.231
912.900, 740.762
914.166, 697.334
915.432, 688.948
916.697, 639.603
917.962, 639.295
919.227, 618.027
920.492, 606.800
921.757, 593.611
923.021, 576.461
924.285, 564.116
925.550, 570.276
926.813, 526.005
928.077, 526.272
929.341, 488.313
930.604, 491.411
931.867, 487.547
933.130, 426.713
934.393, 454.916
935.655, 506.148
936.918, 378.404
938.180, 445.686
939.442, 409.993
940.703, 384.323
941.965, 474.674
943.226, 445.051
944.488, 435.456
945.749, 480.887
947.009, 510.342
948.270, 488.835
949.530, 530.357
950.791, 576.903
952.051, 632.475
953.311, 639.070
954.570, 771.688
955.830, 778.329
957.089, 840.990
958.348, 857.684
959.607, 825.408
960.866, 856.159
962.124, 762.930
963.383, 707.722
964.641, 683.535
965.899, 589.366
967.156, 512.216
968.414, 401.088
969.671, 338.978
970.928, 308.886
972.185, 267.813
973.442, 254.759
974.699, 190.720
975.955, 200.699
977.211, 162.695
978.468, 155.708
979.723, 126.738
980.979, 116.785
982.234, 108.848
983.490, 92.928
984.745, 42.025
986.000, 52.139
987.254, 15.269
988.509, 31.416
989.763, 11.580
991.017, 3.240
992.271, 18.956
993.525, 28.833
994.779, 15.610
996.032, 25.375
997.285, 55.127
998.538, 21.875
999.791, 35.611
1001.044, 12.337
1002.296, 35.050
1003.548, 32.755
1004.800, 37.449
1006.052, 23.136
1007.304, 20.316
1008.555, 18.477
1009.807, 1.724
1011.058, 9.099
1012.309, 1.298
1013.559, 19.380
1014.810, 17.837
1016.060, 22.992
1017.310, 59.506
1018.560, 15.600
1019.810, 7.371
1021.060, 5.040
1022.309, 34.839
1023.558, 48.967
1024.807, 65.115
1026.056, 57.976
1027.305, 47.667
1028.553, 44.994
1029.801, 51.170
1031.049, 96.941
1032.297, 66.302
1033.545, 49.128
1034.793, 75.552
1036.040, 42.756
1037.287, 83.679
1038.534, 49.756
1039.781, 53.494
1041.027, 72.705
1042.274, 53.718
1043.520, 39.932
1044.766, 35.369
1046.012, 78.792
1047.257, 35.686
1048.503, 21.389
1049.748, 84.650
1050.993, 18.788
1052.238, 62.565
1053.483, 35.264
1054.727, 28.360
1055.971, 30.114
1057.216, 55.986
1058.459, 26.072
1059.703, 73.272
1060.947, 12.658
1062.190, 39.794
1063.433, 43.216
1064.676, 67.081
1065.919, 15.321
1067.162, 59.140
1068.404, 49.232
1069.646, 52.653
1070.888, 64.500
1072.130, 45.920
1073.372, 77.205
1074.613, 83.985
1075.855, 106.374
1077.096, 76.524
1078.337, 86.704
1079.578, 96.613
1080.818, 105.546
1082.059, 104.469
1083.299, 113.472
1084.539, 116.491
1085.779, 105.764
1087.018, 119.210
1088.258, 95.172
1089.497, 81.443
1090.736, 78.458
1091.975, 73.529
1093.213, 58.347
1094.452, 40.281
1095.690, 73.242
1096.928, 49.627
1098.166, 74.526
1099.404, 34.588
1100.642, 82.448
1101.879, 36.388
1103.116, 25.256
1104.353, 57.070
1105.590, 23.018
1106.827, 51.802
1108.063, 48.723
1109.299, 55.603
1110.536, 64.526
1111.771, 47.449
1113.007, 54.315
1114.243, 75.088
1115.478, 56.996
1116.713, 71.246
1117.948, 54.104
1119.183, 66.954
1120.418, 62.693
1121.652, 81.428
1122.886, 126.157
1124.120, 151.901
1125.354, 116.642
1126.588, 106.417
1127.821, 83.194
1129.055, 80.952
1130.288, 59.676
1131.521, 47.504
1132.753, 46.322
1133.986, 57.155
1135.218, 57.045
1136.450, 47.859
1137.682, 39.688
1138.914, 44.052
1140.146, 37.179
1141.377, 45.898
1142.609, 50.119
1143.840, 40.537
1145.071, 41.874
1146.301, 44.303
1147.532, 38.635
1148.762, 32.657
1149.992, 36.128
1151.222, 29.644
1152.452, 19.186
1153.682, 24.029
1154.911, 21.290
1156.140, 20.774
1157.369, 1.773
1158.598, 5.326
1159.827, 13.978
1161.055, 5.461
1162.284, 35.195
1163.512, 33.694
1164.740, 22.630
1165.967, 28.211
1167.195, 28.971
1168.422, 7.536
1169.650, 8.888
1170.877, 13.455
1172.103, 13.114
1173.330, 23.845
1174.557, 4.560
1175.783, 14.067
1177.009, 11.061
1178.235, 19.937
1179.461, 12.842
1180.686, 19.687
1181.912, 3.350
1183.137, 24.612
1184.362, 19.628
1185.587, 12.325
1186.811, 0.270
1188.036, 10.746
1189.260, 16.084
1190.484, 11.967
1191.708, 7.875
1192.932, 8.722
1194.155, 0.613
1195.378, 38.418
1196.602, 14.211
1197.825, 17.987
1199.047, 31.746
1200.270, 6.492
1201.492, 21.217
1202.715, 42.926
1203.937, 4.622
1205.159, 1.296
1206.380, 20.945
1207.602, 16.577
1208.823, 24.191
1210.044, 16.788
1211.265, 7.366
1212.486, 22.922
1213.707, 47.460
1214.927, 28.985
1216.147, 19.494
1217.367, 45.984
1218.587, 20.461
1219.807, 24.918
1221.027, 12.359
1222.246, 22.777
1223.465, 31.176
1224.684, 30.560
1225.903, 45.927
1227.121, 44.430
1228.340, 45.997
1229.558, 40.942
1230.776, 43.251
1231.994, 28.546
1233.212, 24.823
1234.429, 46.080
1235.646, 31.322
1236.864, 43.546
1238.081, 40.754
1239.297, 71.946
1240.514, 51.124
1241.730, 49.285
1242.947, 29.430
1244.163, 56.559
1245.378, 43.674
1246.594, 63.773
1247.810, 52.857
1249.025, 61.926
1250.240, 74.980
1251.455, 53.017
1252.670, 82.039
1253.885, 56.046
1255.099, 61.039
1256.313, 56.016
1257.527, 55.978
1258.741, 62.924
1259.955, 82.854
1261.168, 57.767
1262.382, 37.663
1263.595, 63.541
1264.808, 64.404
1266.021, 93.250
1267.233, 90.378
1268.446, 90.896
1269.658, 84.695
1270.870, 84.478
1272.082, 75.245
1273.294, 73.994
1274.505, 77.727
1275.716, 84.444
1276.928, 64.144
1278.139, 64.825
1279.349, 62.490
1280.560, 56.981
1281.770, 63.771
1282.981, 61.387
1284.191, 62.988
1285.401, 76.574
1286.610, 74.145
1287.820, 80.702
1289.029, 103.247
1290.239, 68.777
1291.448, 92.296
1292.656, 79.805
1293.865, 75.302
1295.073, 84.787
1296.282, 77.259
1297.490, 76.720
1298.698, 99.170
1299.906, 76.609
1301.113, 96.036
1302.320, 96.451
1303.528, 82.448
1304.735, 56.573
1305.942, 79.924
1307.148, 73.352
1308.355, 79.883
1309.561, 76.461
1310.767, 80.709
1311.973, 57.561
1313.179, 59.335
1314.384, 38.411
1315.590, 52.356
1316.795, 59.971
1318.000, 69.565
1319.205, 56.445
1320.410, 87.494
1321.614, 42.907
1322.819, 75.469
1324.023, 77.436
1325.227, 48.810
1326.431, 68.718
1327.634, 62.027
1328.838, 65.555
1330.041, 66.362
1331.244, 60.013
1332.447, 77.003
1333.650, 63.518
1334.852, 76.229
1336.055, 49.737
1337.257, 85.022
1338.459, 43.319
1339.661, 62.142
1340.862, 62.155
1342.064, 67.608
1343.265, 91.183
1344.466, 74.116
1345.667, 73.126
1346.868, 87.736
1348.068, 80.687
1349.269, 78.516
1350.469, 65.131
1351.669, 54.628
1352.869, 108.936
1354.069, 91.493
1355.268, 99.761
1356.468, 59.583
1357.667, 84.027
1358.866, 69.890
1360.065, 82.477
1361.263, 86.763
1362.462, 85.603
1363.660, 84.875
1364.858, 74.282
1366.056, 68.183
1367.254, 62.456
1368.451, 63.966
1369.649, 76.662
1370.846, 69.407
1372.043, 75.126
1373.240, 84.850
1374.436, 77.721
1375.633, 92.385
1376.829, 86.742
1378.025, 117.904
1379.221, 83.506
1380.417, 82.764
1381.613, 54.241
1382.808, 70.629
1384.003, 112.456
1385.199, 55.650
1386.393, 73.197
1387.588, 88.873
1388.783, 59.634
1389.977, 85.308
1391.171, 55.869
1392.365, 67.339
1393.559, 112.988
1394.753, 72.027
1395.946, 77.505
1397.140, 71.195
1398.333, 77.840
1399.526, 53.386
1400.719, 99.862
1401.911, 73.262
1403.104, 71.490
1404.296, 83.596
1405.488, 71.712
1406.680, 68.009
1407.872, 108.397
1409.063, 68.666
1410.255, 92.888
1411.446, 67.112
1412.637, 65.361
1413.828, 46.577
1415.018, 75.800
1416.209, 69.656
1417.399, 82.736
1418.589, 78.920
1419.779, 83.907
1420.969, 64.571
1422.159, 48.752
1423.348, 65.010
1424.537, 63.164
1425.726, 58.462
1426.915, 85.880
1428.104, 52.363
1429.293, 71.844
1430.481, 55.340
1431.669, 53.771
1432.857, 52.177
1434.045, 57.676
1435.233, 42.170
1436.420, 42.083
1437.608, 63.161
1438.795, 34.671
1439.982, 45.184
1441.169, 53.704
1442.355, 44.228
1443.542, 60.748
1444.728, 65.267
1445.914, 71.793
1447.100, 70.836
1448.286, 61.856
1449.472, 52.377
1450.657, 49.888
1451.842, 22.402
1453.027, 57.918
1454.212, 43.437
1455.397, 49.953
1456.581, 31.468
1457.766, 57.974
1458.950, 35.476
1460.134, 51.979
1461.318, 40.483
1462.501, 58.980
1463.685, 28.477
1464.868, 44.983
1466.051, 64.501
1467.234, 31.026
1468.417, 28.561
1469.600, 54.109
1470.782, 29.673
1471.965, 29.260
1473.147, 25.876
1474.329, 13.515
1475.510, 41.174
1476.692, 15.843
1477.873, 36.520
1479.055, 27.207
1480.236, 33.904
1481.416, 28.609
1482.597, 36.324
1483.778, 28.047
1484.958, 24.780
1486.138, 24.523
1487.318, 27.276
1488.498, 35.042
1489.678, 38.822
1490.857, 26.618
1492.037, 32.519
1493.216, 26.264
1494.395, 33.119
1495.574, 17.000
1496.752, 21.906
1497.931, 47.840
1499.109, 15.801
1500.287, 17.788
1501.465, 33.802
1502.643, 2.845
