##NAMES=Olivenite
##RRUFFID=R040181
##IDEAL CHEMISTRY=Cu^2+^_2_As^5+^O_4_(OH)
##LOCALITY=Majuba Hill, Pershing County, Nevada, USA
##OWNER=RRUFF
##SOURCE=University of Arizona Mineral Museum
##DESCRIPTION=Greenish blue prismatic, untwinned. Structure for this sample reported in Li et al (2008).
##STATUS=The identification of this mineral has been confirmed by X-ray diffraction and chemical analysis
##URL=rruff.info/R040181
##MEASURED CHEMISTRY=(Cu_0.98_[box]_0.02_)_2_(As_0.90_P_0.10_O_4_)(OH)_0.92_
##PIN_ID=S00079
##ORIENTATION=Laser parallel to b* (0 1 0). Fiducial mark perpendicular to laser is parallel to -c [0 0 -1]
52.866, 0.000
54.266, 19.687
55.666, 0.388
57.065, 95.094
58.464, 101.172
59.863, 154.997
61.262, 202.935
62.661, 145.007
64.059, 95.595
65.458, 12.192
66.856, 70.610
68.253, 27.896
69.651, 152.454
71.048, 386.832
72.445, 566.826
73.842, 866.263
75.239, 1150.990
76.635, 1480.875
78.031, 1840.798
79.427, 2087.966
80.823, 2300.740
82.218, 2505.368
83.614, 2551.041
85.009, 2509.469
86.404, 2457.574
87.798, 2587.293
89.193, 2618.571
90.587, 2684.364
91.981, 2708.632
93.375, 2709.341
94.768, 2621.461
96.161, 2456.957
97.554, 2283.792
98.947, 2296.935
100.340, 2294.364
101.732, 2351.059
103.124, 2460.005
104.516, 2449.230
105.908, 2632.127
107.300, 2696.101
108.691, 2722.922
110.082, 2836.911
111.473, 2830.956
112.864, 2890.441
114.254, 2837.230
115.644, 2948.469
117.034, 2932.782
118.424, 2922.173
119.813, 2693.644
121.203, 2524.198
122.592, 2434.838
123.981, 2390.565
125.369, 2365.379
126.758, 2371.281
128.146, 2492.272
129.534, 2531.353
130.922, 2637.523
132.309, 2535.782
133.696, 2623.131
135.083, 2600.570
136.470, 2784.074
137.857, 2931.548
139.243, 3369.006
140.630, 3780.456
142.016, 4424.911
143.401, 5109.360
144.787, 5871.813
146.172, 6687.303
147.557, 7485.836
148.942, 7881.420
150.327, 7812.056
151.711, 7392.748
153.096, 6480.500
154.480, 5676.313
155.863, 4697.614
157.247, 3887.794
158.630, 3290.756
160.013, 2711.551
161.396, 2363.357
162.779, 1973.341
164.161, 1640.061
165.544, 1565.408
166.926, 1370.842
168.308, 1222.362
169.689, 1198.968
171.070, 1163.661
172.452, 1233.439
173.833, 1165.304
175.213, 1229.255
176.594, 1281.294
177.974, 1289.426
179.354, 1479.645
180.734, 1437.952
182.114, 1432.346
183.493, 1338.827
184.872, 1276.391
186.251, 1128.036
187.630, 1047.761
189.008, 826.565
190.387, 680.444
191.765, 572.395
193.143, 479.317
194.520, 437.678
195.898, 437.666
197.275, 448.895
198.652, 546.191
200.029, 649.555
201.405, 715.985
202.782, 829.480
204.158, 975.039
205.534, 1217.662
206.909, 1389.347
208.285, 1592.093
209.660, 2018.899
211.035, 2311.764
212.410, 2688.688
213.784, 3270.669
215.159, 3872.706
216.533, 4354.797
217.907, 4673.011
219.281, 4790.346
220.654, 4854.474
222.027, 4437.613
223.400, 4135.133
224.773, 3778.824
226.146, 3268.408
227.518, 2876.216
228.891, 2510.227
230.263, 2209.427
231.634, 1927.799
233.006, 1720.327
234.377, 1513.008
235.748, 1297.828
237.119, 1113.779
238.490, 967.852
239.860, 885.041
241.231, 670.339
242.601, 605.740
243.970, 454.240
245.340, 399.835
246.709, 326.518
248.079, 240.287
249.448, 169.136
250.816, 104.062
252.185, 111.061
253.553, 102.131
254.921, 36.270
256.289, 41.474
257.657, 55.258
259.024, 79.937
260.391, 72.568
261.758, 128.152
263.125, 130.701
264.492, 106.215
265.858, 179.691
267.224, 167.143
268.590, 181.567
269.956, 128.971
271.321, 126.343
272.687, 109.683
274.052, 62.987
275.416, 18.902
276.781, 119.561
278.146, 254.414
279.510, 415.323
280.874, 588.287
282.237, 786.308
283.601, 949.384
284.964, 1006.521
286.327, 1039.708
287.690, 1103.947
289.053, 1088.251
290.416, 979.618
291.778, 1035.033
293.140, 1022.512
294.502, 976.043
295.863, 971.639
297.225, 1105.326
298.586, 1231.043
299.947, 1375.124
301.308, 1533.953
302.668, 1663.833
304.029, 1855.770
305.389, 1996.914
306.749, 2137.941
308.108, 2182.011
309.468, 2327.424
310.827, 2260.573
312.186, 2254.757
313.545, 2025.973
314.903, 1947.219
316.262, 1782.503
317.620, 1750.819
318.978, 1533.438
320.336, 1342.544
321.693, 1181.924
323.051, 1125.283
324.408, 1080.608
325.765, 1005.883
327.121, 995.142
328.478, 959.399
329.834, 938.690
331.190, 959.021
332.546, 1005.385
333.902, 971.787
335.257, 1052.228
336.612, 985.701
337.967, 1059.203
339.322, 1029.732
340.677, 1096.286
342.031, 1161.869
343.385, 1158.477
344.739, 1182.109
346.093, 1247.764
347.446, 1261.441
348.799, 1246.284
350.153, 1209.856
351.505, 1161.593
352.858, 1123.351
354.210, 1030.125
355.563, 955.918
356.915, 944.727
358.267, 872.553
359.618, 840.395
360.969, 688.252
362.321, 674.124
363.672, 587.011
365.022, 487.912
366.373, 419.827
367.723, 302.755
369.073, 271.696
370.423, 189.649
371.773, 95.615
373.122, 84.592
374.471, 51.580
375.821, 74.580
377.169, 24.590
378.518, 18.609
379.866, 4.639
381.215, 37.676
382.563, 53.736
383.910, 133.820
385.258, 121.928
386.605, 145.058
387.952, 160.209
389.299, 172.381
390.646, 185.184
391.992, 139.784
393.339, 193.012
394.685, 178.257
396.031, 159.532
397.376, 193.821
398.722, 179.125
400.067, 193.442
401.412, 247.771
402.757, 220.113
404.101, 317.466
405.446, 366.829
406.790, 392.203
408.134, 400.586
409.478, 587.978
410.821, 686.378
412.165, 748.787
413.508, 869.202
414.851, 1084.624
416.193, 1158.053
417.536, 1251.487
418.878, 1346.927
420.220, 1430.860
421.562, 1410.877
422.904, 1365.167
424.245, 1373.183
425.586, 1292.240
426.927, 1188.244
428.268, 1068.538
429.609, 953.034
430.949, 791.681
432.289, 660.161
433.629, 667.616
434.969, 540.580
436.309, 501.362
437.648, 365.955
438.987, 380.310
440.326, 303.679
441.665, 227.559
443.003, 205.271
444.342, 257.500
445.680, 136.879
447.018, 133.589
448.355, 122.948
449.693, 61.165
451.030, 84.724
452.367, 69.931
453.704, 28.004
455.041, 24.358
456.377, 26.769
457.713, 4.349
459.049, 43.043
460.385, 1.169
461.721, 12.402
463.056, 68.207
464.391, 82.075
465.726, 10.621
467.061, 55.557
468.395, 42.745
469.730, 10.262
471.064, 126.806
472.398, 65.755
473.731, 71.814
475.065, 78.817
476.398, 132.672
477.731, 169.015
479.064, 160.415
480.397, 213.350
481.729, 217.747
483.062, 260.305
484.394, 368.078
485.725, 371.013
487.057, 479.368
488.389, 531.631
489.720, 585.957
491.051, 649.496
492.382, 693.036
493.712, 755.164
495.043, 765.169
496.373, 838.849
497.703, 827.712
499.032, 848.285
500.362, 942.739
501.691, 890.836
503.020, 875.234
504.349, 800.624
505.678, 815.907
507.007, 810.052
508.335, 694.865
509.663, 725.959
510.991, 699.848
512.319, 726.796
513.646, 612.470
514.973, 584.120
516.300, 507.814
517.627, 504.415
518.954, 399.992
520.280, 392.543
521.607, 363.070
522.933, 290.572
524.259, 362.048
525.584, 262.498
526.910, 271.923
528.235, 224.321
529.560, 246.694
530.885, 269.040
532.209, 225.360
533.534, 266.653
534.858, 280.919
536.182, 274.159
537.506, 246.372
538.829, 292.557
540.152, 307.648
541.476, 337.779
542.799, 421.882
544.121, 470.958
545.444, 510.005
546.766, 622.025
548.088, 628.016
549.410, 673.979
550.732, 774.912
552.053, 869.817
553.375, 931.693
554.696, 1030.540
556.017, 1140.356
557.337, 1172.145
558.658, 1159.902
559.978, 1159.630
561.298, 1092.328
562.618, 1077.996
563.938, 962.633
565.257, 945.240
566.576, 881.817
567.895, 762.362
569.214, 700.877
570.533, 628.361
571.851, 547.814
573.170, 463.236
574.488, 431.627
575.805, 344.986
577.123, 326.314
578.440, 242.611
579.758, 195.884
581.075, 198.136
582.391, 130.367
583.708, 83.586
585.024, 93.792
586.341, 53.982
587.657, 31.163
588.972, 89.326
590.288, 24.487
591.603, 5.622
592.918, 7.279
594.233, 54.224
595.548, 5.247
596.863, 17.331
598.177, 33.482
599.491, 25.710
600.805, 39.009
602.119, 31.387
603.432, 49.841
604.746, 23.378
606.059, 17.987
607.372, 79.663
608.685, 69.439
609.997, 16.310
611.309, 78.247
612.621, 35.283
613.933, 84.396
615.245, 71.610
616.557, 73.950
617.868, 81.354
619.179, 20.161
620.490, 61.737
621.801, 63.397
623.111, 11.146
624.421, 34.120
625.731, 7.003
627.041, 28.945
628.351, 23.747
629.660, 11.692
630.970, 38.590
632.279, 39.448
633.588, 6.732
634.896, 23.031
636.205, 1.247
637.513, 5.423
638.821, 18.955
640.129, 38.393
641.437, 10.902
642.744, 14.467
644.051, 38.087
645.358, 5.776
646.665, 9.483
647.972, 19.299
649.278, 1.861
650.584, 16.024
651.890, 22.964
653.196, 2.961
654.502, 11.996
655.807, 20.914
657.113, 24.069
658.418, 1.645
659.722, 21.452
661.027, 19.225
662.331, 21.964
663.636, 27.229
664.940, 65.345
666.244, 23.991
667.547, 38.606
668.851, 28.192
670.154, 87.749
671.457, 78.278
672.760, 47.781
674.062, 123.257
675.365, 61.706
676.667, 95.130
677.969, 118.527
679.271, 103.899
680.572, 118.246
681.874, 141.568
683.175, 130.865
684.476, 148.137
685.777, 145.385
687.077, 156.608
688.378, 182.811
689.678, 133.990
690.978, 161.149
692.278, 193.285
693.577, 176.400
694.877, 217.497
696.176, 163.579
697.475, 229.644
698.774, 229.691
700.072, 236.722
701.371, 266.732
702.669, 216.721
703.967, 169.690
705.265, 241.637
706.562, 259.564
707.860, 262.471
709.157, 195.358
710.454, 287.225
711.751, 240.073
713.047, 276.901
714.344, 208.711
715.640, 235.502
716.936, 255.275
718.232, 214.030
719.527, 233.767
720.823, 192.487
722.118, 189.191
723.413, 221.877
724.708, 227.547
726.002, 191.202
727.297, 172.840
728.591, 167.464
729.885, 196.072
731.179, 225.667
732.472, 219.246
733.766, 230.823
735.059, 186.364
736.352, 210.902
737.645, 210.427
738.937, 173.939
740.230, 221.271
741.522, 211.675
742.814, 207.470
744.106, 225.713
745.397, 219.900
746.689, 236.811
747.980, 231.816
749.271, 234.003
750.562, 250.228
751.853, 233.514
753.143, 245.030
754.433, 260.523
755.723, 296.496
757.013, 217.628
758.303, 274.235
759.592, 288.688
760.881, 266.805
762.170, 324.263
763.459, 336.854
764.748, 392.095
766.036, 383.679
767.325, 419.387
768.613, 412.806
769.901, 429.158
771.188, 493.332
772.476, 489.382
773.763, 538.992
775.050, 582.391
776.337, 592.391
777.624, 661.228
778.910, 703.379
780.196, 726.128
781.482, 831.617
782.768, 820.768
784.054, 911.879
785.339, 1138.579
786.625, 1164.159
787.910, 1358.785
789.195, 1394.552
790.479, 1463.822
791.764, 1632.025
793.048, 1815.687
794.332, 1981.875
795.616, 2164.895
796.900, 2331.692
798.183, 2607.320
799.467, 2842.520
800.750, 3276.804
802.033, 3635.938
803.316, 4292.572
804.598, 4665.515
805.880, 5119.396
807.163, 5983.903
808.445, 6878.729
809.726, 7785.367
811.008, 9068.286
812.289, 10243.319
813.570, 11513.704
814.851, 12935.778
816.132, 14249.856
817.413, 15281.032
818.693, 16152.341
819.973, 17034.979
821.253, 17262.324
822.533, 17170.869
823.813, 17271.354
825.092, 16456.104
826.371, 16111.868
827.650, 15606.582
828.929, 14722.384
830.208, 14733.208
831.486, 14335.046
832.764, 13861.906
834.042, 13780.786
835.320, 13756.686
836.598, 14125.606
837.875, 14672.546
839.152, 15254.506
840.429, 15796.488
841.706, 17526.986
842.983, 18715.176
844.259, 20609.887
845.536, 23459.990
846.812, 26382.594
848.088, 30445.502
849.363, 35365.371
850.639, 40826.496
851.914, 47388.582
853.189, 52978.852
854.464, 56705.438
855.739, 59149.691
857.013, 57647.992
858.288, 52250.312
859.562, 45083.680
860.836, 38412.066
862.110, 31720.482
863.383, 25424.914
864.656, 21110.379
865.930, 17409.881
867.203, 14613.417
868.475, 12169.992
869.748, 10572.613
871.020, 8953.271
872.292, 7853.970
873.564, 6956.695
874.836, 6034.463
876.108, 5497.272
877.379, 4888.120
878.650, 4404.012
879.922, 4087.954
881.192, 3661.939
882.463, 3370.960
883.733, 3076.024
885.004, 2845.120
886.274, 2603.745
887.544, 2414.401
888.813, 2203.418
890.083, 2035.822
891.352, 1891.089
892.621, 1767.384
893.890, 1639.741
895.159, 1560.059
896.427, 1436.448
897.695, 1337.872
898.964, 1273.331
900.232, 1240.827
901.499, 1068.363
902.767, 1060.943
904.034, 996.580
905.301, 881.328
906.568, 924.055
907.835, 907.832
909.102, 790.659
910.368, 729.574
911.634, 710.673
912.900, 731.421
914.166, 637.458
915.432, 726.541
916.697, 634.738
917.962, 664.948
919.227, 669.206
920.492, 624.527
921.757, 662.901
923.021, 630.342
924.285, 600.846
925.550, 662.411
926.813, 712.049
928.077, 673.745
929.341, 658.505
930.604, 676.325
931.867, 637.189
933.130, 601.107
934.393, 648.070
935.655, 663.082
936.918, 580.134
938.180, 605.227
939.442, 564.355
940.703, 562.516
941.965, 583.723
943.226, 613.967
944.488, 634.253
945.749, 583.577
947.009, 668.945
948.270, 625.365
949.530, 727.829
950.791, 820.337
952.051, 915.895
953.311, 941.491
954.570, 1097.125
955.830, 1220.801
957.089, 1340.514
958.348, 1510.269
959.607, 1501.067
960.866, 1639.904
962.124, 1568.777
963.383, 1500.690
964.641, 1413.639
965.899, 1279.624
967.156, 1053.641
968.414, 917.690
969.671, 775.770
970.928, 718.879
972.185, 582.018
973.442, 503.187
974.699, 500.383
975.955, 466.608
977.211, 357.860
978.468, 337.139
979.723, 332.445
980.979, 252.777
982.234, 185.136
983.490, 250.522
984.745, 111.943
986.000, 149.381
987.254, 122.154
988.509, 47.646
989.763, 97.166
991.017, 11.711
992.271, 38.684
993.525, 17.092
994.779, 46.476
996.032, 3.842
997.285, 38.941
998.538, 52.177
999.791, 87.764
1001.044, 58.795
1002.296, 55.950
1003.548, 62.213
1004.800, 28.461
1006.052, 4.378
1007.304, 2.184
1008.555, 30.432
1009.807, 38.931
1011.058, 44.911
1012.309, 52.872
1013.559, 175.783
1014.810, 173.726
1016.060, 283.048
1017.310, 337.372
1018.560, 433.575
1019.810, 494.799
1021.060, 542.880
1022.309, 635.089
1023.558, 703.853
1024.807, 763.879
1026.056, 761.484
1027.305, 792.352
1028.553, 763.833
1029.801, 789.409
1031.049, 735.564
1032.297, 709.855
1033.545, 632.609
1034.793, 712.405
1036.040, 668.859
1037.287, 584.716
1038.534, 559.419
1039.781, 455.736
1041.027, 436.558
1042.274, 325.898
1043.520, 263.252
1044.766, 276.620
1046.012, 264.206
1047.257, 164.815
1048.503, 100.476
1049.748, 136.190
1050.993, 84.679
1052.238, 84.304
1053.483, 41.792
1054.727, 2.581
1055.971, 29.946
1057.216, 67.433
1058.459, 67.093
1059.703, 0.067
1060.947, 42.377
1062.190, 29.458
1063.433, 17.058
1064.676, 11.617
1065.919, 0.359
1067.162, 14.384
1068.404, 61.337
1069.646, 87.015
1070.888, 103.153
1072.130, 96.269
1073.372, 111.169
1074.613, 123.771
1075.855, 145.852
1077.096, 146.798
1078.337, 146.876
1079.578, 233.891
1080.818, 161.623
1082.059, 200.009
1083.299, 166.054
1084.539, 226.882
1085.779, 186.490
1087.018, 132.940
1088.258, 102.813
1089.497, 105.614
1090.736, 119.319
1091.975, 119.110
1093.213, 96.404
1094.452, 72.064
1095.690, 97.770
1096.928, 57.967
1098.166, 67.412
1099.404, 83.192
1100.642, 43.203
1101.879, 15.976
1103.116, 58.752
1104.353, 34.541
1105.590, 74.244
1106.827, 36.942
1108.063, 89.700
1109.299, 56.664
1110.536, 37.240
1111.771, 67.485
1113.007, 57.490
1114.243, 74.119
1115.478, 90.135
1116.713, 47.090
1117.948, 39.647
1119.183, 74.269
1120.418, 91.193
1121.652, 89.731
1122.886, 173.262
1124.120, 227.786
1125.354, 219.302
1126.588, 113.810
1127.821, 114.311
1129.055, 78.804
1130.288, 65.289
1131.521, 27.781
1132.753, 16.941
1133.986, 55.727
1135.218, 5.656
1136.450, 39.171
1137.682, 63.974
1138.914, 50.457
1140.146, 18.175
1141.377, 53.104
1142.609, 85.330
1143.840, 85.313
1145.071, 10.649
1146.301, 16.552
1147.532, 0.677
1148.762, 9.105
1149.992, 9.416
1151.222, 27.103
1152.452, 34.647
1153.682, 15.677
1154.911, 22.945
1156.140, 28.744
1157.369, 47.403
1158.598, 16.377
1159.827, 4.464
1161.055, 31.690
1162.284, 24.362
1163.512, 38.413
1164.740, 21.357
1165.967, 18.289
1167.195, 81.220
1168.422, 14.118
1169.650, 30.990
1170.877, 9.882
1172.103, 41.902
1173.330, 34.171
1174.557, 22.198
1175.783, 45.387
1177.009, 62.656
1178.235, 39.129
1179.461, 8.544
1180.686, 30.993
1181.912, 1.163
1183.137, 31.119
1184.362, 21.811
1185.587, 26.674
1186.811, 48.708
1188.036, 27.036
1189.260, 75.281
1190.484, 64.471
1191.708, 59.744
1192.932, 12.991
1194.155, 39.117
1195.378, 13.222
1196.602, 38.297
1197.825, 51.351
1199.047, 44.401
1200.270, 60.531
1201.492, 47.409
1202.715, 59.540
1203.937, 74.494
1205.159, 50.468
1206.380, 39.453
1207.602, 68.309
1208.823, 42.013
1210.044, 93.100
1211.265, 71.929
1212.486, 40.737
1213.707, 53.727
1214.927, 45.490
1216.147, 61.228
1217.367, 40.946
1218.587, 42.644
1219.807, 52.317
1221.027, 85.989
1222.246, 0.379
1223.465, 2.211
1224.684, 19.761
1225.903, 52.277
1227.121, 70.769
1228.340, 40.240
1229.558, 53.683
1230.776, 66.102
1231.994, 35.498
1233.212, 40.865
1234.429, 66.203
1235.646, 72.518
1236.864, 34.849
1238.081, 75.110
1239.297, 49.349
1240.514, 99.561
1241.730, 89.751
1242.947, 54.919
1244.163, 46.060
1245.378, 81.175
1246.594, 65.267
1247.810, 83.337
1249.025, 83.383
1250.240, 82.395
1251.455, 94.378
1252.670, 95.337
1253.885, 87.273
1255.099, 71.185
1256.313, 45.074
1257.527, 25.938
1258.741, 32.442
1259.955, 110.578
1261.168, 69.361
1262.382, 73.118
1263.595, 127.848
1264.808, 109.554
1266.021, 75.235
1267.233, 140.892
1268.446, 162.523
1269.658, 138.130
1270.870, 162.329
1272.082, 156.268
1273.294, 152.798
1274.505, 144.304
1275.716, 149.782
1276.928, 128.237
1278.139, 129.667
1279.349, 131.063
1280.560, 73.444
1281.770, 114.489
1282.981, 79.819
1284.191, 118.125
1285.401, 85.400
1286.610, 127.615
1287.820, 132.845
1289.029, 89.053
1290.239, 133.241
1291.448, 119.166
1292.656, 93.230
1293.865, 96.643
1295.073, 103.494
1296.282, 102.467
1297.490, 82.545
1298.698, 105.606
1299.906, 103.582
1301.113, 135.589
1302.320, 96.157
1303.528, 57.476
1304.735, 117.314
1305.942, 112.173
1307.148, 57.083
1308.355, 98.964
1309.561, 115.466
1310.767, 101.967
1311.973, 91.589
1313.179, 73.192
1314.384, 65.937
1315.590, 93.555
1316.795, 51.618
1318.000, 108.417
1319.205, 55.640
1320.410, 65.550
1321.614, 64.943
1322.819, 92.193
1324.023, 61.862
1325.227, 59.395
1326.431, 13.463
1327.634, 18.658
1328.838, 30.855
1330.041, 42.816
1331.244, 50.931
1332.447, 114.430
1333.650, 47.423
1334.852, 92.897
1336.055, 49.355
1337.257, 50.799
1338.459, 77.024
1339.661, 82.223
1340.862, 94.370
1342.064, 112.463
1343.265, 65.779
1344.466, 73.957
1345.667, 73.272
1346.868, 29.445
1348.068, 71.717
1349.269, 59.027
1350.469, 51.162
1351.669, 85.981
1352.869, 97.217
1354.069, 116.081
1355.268, 117.344
1356.468, 78.563
1357.667, 24.314
1358.866, 100.346
1360.065, 195.165
1361.263, 131.896
1362.462, 217.206
1363.660, 88.859
1364.858, 58.728
1366.056, 75.486
1367.254, 112.175
1368.451, 90.998
1369.649, 120.689
1370.846, 85.446
1372.043, 96.743
1373.240, 121.879
1374.436, 103.544
1375.633, 90.422
1376.829, 104.475
1378.025, 106.674
1379.221, 78.433
1380.417, 43.248
1381.613, 73.147
1382.808, 74.959
1384.003, 102.281
1385.199, 100.288
1386.393, 96.962
1387.588, 72.258
1388.783, 80.750
1389.977, 76.808
1391.171, 88.787
1392.365, 87.375
1393.559, 96.670
1394.753, 99.132
1395.946, 85.224
1397.140, 82.103
1398.333, 66.604
1399.526, 68.485
1400.719, 54.330
1401.911, 78.139
1403.104, 91.894
1404.296, 55.607
1405.488, 78.657
1406.680, 83.797
1407.872, 90.012
1409.063, 90.253
1410.255, 93.699
1411.446, 93.687
1412.637, 85.823
1413.828, 89.806
1415.018, 43.947
1416.209, 99.350
1417.399, 73.640
1418.589, 94.051
1419.779, 111.295
1420.969, 42.286
1422.159, 108.304
1423.348, 60.216
1424.537, 96.140
1425.726, 91.564
1426.915, 85.943
1428.104, 80.731
1429.293, 41.642
1430.481, 102.197
1431.669, 90.770
1432.857, 90.194
1434.045, 26.901
1435.233, 63.609
1436.420, 76.278
1437.608, 67.599
1438.795, 88.191
1439.982, 73.718
1441.169, 76.345
1442.355, 91.353
1443.542, 102.122
1444.728, 100.705
1445.914, 112.262
1447.100, 80.765
1448.286, 63.338
1449.472, 118.936
1450.657, 38.526
1451.842, 109.114
1453.027, 64.709
1454.212, 82.228
1455.397, 90.826
1456.581, 78.421
1457.766, 70.013
1458.950, 95.601
1460.134, 104.178
1461.318, 126.807
1462.501, 31.454
1463.685, 46.097
1464.868, 71.731
1466.051, 34.358
1467.234, 86.001
1468.417, 53.660
1469.600, 100.334
1470.782, 54.035
1471.965, 15.768
1473.147, 15.539
1474.329, 78.345
1475.510, 83.189
1476.692, 68.068
1477.873, 87.990
1479.055, 73.967
1480.236, 3.965
1481.416, 59.979
1482.597, 68.013
1483.778, 6.075
1484.958, 86.160
1486.138, 91.283
1487.318, 70.438
1488.498, 114.628
1489.678, 57.852
1490.857, 6.116
1492.037, 15.423
1493.216, 74.777
1494.395, 89.183
1495.574, 64.643
1496.752, 82.163
