##NAMES=Olivenite
##RRUFFID=R040181
##IDEAL CHEMISTRY=Cu^2+^_2_As^5+^O_4_(OH)
##LOCALITY=Majuba Hill, Pershing County, Nevada, USA
##OWNER=RRUFF
##SOURCE=University of Arizona Mineral Museum
##DESCRIPTION=Greenish blue prismatic, untwinned. Structure for this sample reported in Li et al (2008).
##STATUS=The identification of this mineral has been confirmed by X-ray diffraction and chemical analysis
##URL=rruff.info/R040181
##MEASURED CHEMISTRY=(Cu_0.98_[box]_0.02_)_2_(As_0.90_P_0.10_O_4_)(OH)_0.92_
##PIN_ID=S00388
##ORIENTATION=Laser parallel to -a* (-1 0 0). Fiducial mark perpendicular to laser is parallel to b [0 1 0]
52.866, 0.000
54.266, 211.748
55.666, 222.857
57.065, 478.500
58.464, 410.213
59.863, 751.726
61.262, 734.399
62.661, 519.990
64.059, 249.864
65.458, 24.477
66.856, 82.467
68.253, 30.221
69.651, 92.992
71.048, 148.980
72.445, 390.577
73.842, 673.644
75.239, 1059.054
76.635, 1311.697
78.031, 1702.633
79.427, 2008.262
80.823, 2484.042
82.218, 2881.726
83.614, 3335.242
85.009, 3519.530
86.404, 3585.541
87.798, 3712.234
89.193, 3881.569
90.587, 4078.515
91.981, 4166.036
93.375, 4169.104
94.768, 3976.696
96.161, 3788.791
97.554, 3613.357
98.947, 3494.337
100.340, 3346.688
101.732, 3237.382
103.124, 3159.404
104.516, 3232.757
105.908, 3442.562
107.300, 3534.870
108.691, 3324.430
110.082, 3155.230
111.473, 2947.266
112.864, 2965.531
114.254, 3062.030
115.644, 3456.770
117.034, 3523.751
118.424, 3582.977
119.813, 3507.442
121.203, 3214.145
122.592, 3054.077
123.981, 2849.234
125.369, 2838.606
126.758, 2652.188
128.146, 2625.974
129.534, 2683.957
130.922, 2814.132
132.309, 2814.495
133.696, 2842.040
135.083, 2799.762
136.470, 3023.706
137.857, 3047.945
139.243, 3436.346
140.630, 3756.782
142.016, 4240.177
143.401, 4711.375
144.787, 5442.373
146.172, 6262.354
147.557, 7080.397
148.942, 7802.515
150.327, 8062.716
151.711, 8250.998
153.096, 8093.366
154.480, 7833.299
155.863, 7605.841
157.247, 7219.874
158.630, 6521.211
160.013, 5493.927
161.396, 4673.963
162.779, 3944.807
164.161, 3323.749
165.544, 2755.790
166.926, 2367.266
168.308, 2104.167
169.689, 1818.503
171.070, 1675.941
172.452, 1539.604
173.833, 1464.439
175.213, 1496.530
176.594, 1464.816
177.974, 1319.354
179.354, 1448.058
180.734, 1335.901
182.114, 1314.902
183.493, 1283.098
184.872, 1238.406
186.251, 1079.794
187.630, 1104.288
189.008, 890.883
190.387, 766.560
191.765, 693.312
193.143, 615.135
194.520, 584.330
195.898, 596.979
197.275, 594.996
198.652, 586.078
200.029, 658.222
201.405, 664.429
202.782, 748.698
204.158, 805.027
205.534, 1040.417
206.909, 1156.867
208.285, 1289.376
209.660, 1421.946
211.035, 1730.579
212.410, 1897.276
213.784, 2367.030
215.159, 2682.839
216.533, 3123.702
217.907, 3507.616
219.281, 3539.187
220.654, 3557.860
222.027, 3389.530
223.400, 3110.499
224.773, 2767.426
226.146, 2882.341
227.518, 2906.946
228.891, 2468.718
230.263, 1757.047
231.634, 1453.070
233.006, 1356.793
234.377, 1174.848
235.748, 1006.444
237.119, 902.081
238.490, 769.478
239.860, 658.071
241.231, 561.914
242.601, 470.823
243.970, 404.854
245.340, 352.998
246.709, 224.253
248.079, 212.613
249.448, 207.076
250.816, 62.636
252.185, 109.290
253.553, 5.035
254.921, 32.132
256.289, 55.786
257.657, 23.786
259.024, 22.132
260.391, 123.971
261.758, 7.257
263.125, 138.438
264.492, 106.071
265.858, 137.641
267.224, 20.148
268.590, 3.419
269.956, 72.053
271.321, 84.750
272.687, 99.511
274.052, 319.340
275.416, 380.230
276.781, 589.188
278.146, 777.201
279.510, 954.275
280.874, 1240.405
282.237, 1458.632
283.601, 1677.872
284.964, 1653.209
286.327, 1612.889
287.690, 1580.505
289.053, 1320.955
290.416, 1186.936
291.778, 1094.509
293.140, 1009.533
294.502, 997.698
295.863, 900.855
297.225, 964.179
298.586, 956.701
299.947, 932.546
301.308, 1091.833
302.668, 1066.177
304.029, 1173.231
305.389, 1449.666
306.749, 1490.378
308.108, 1522.626
309.468, 1610.195
310.827, 1815.549
312.186, 1699.948
313.545, 1667.178
314.903, 1518.066
316.262, 1428.493
317.620, 1320.385
318.978, 1302.550
320.336, 1287.581
321.693, 1320.932
323.051, 1311.507
324.408, 1329.876
325.765, 1306.028
327.121, 1444.207
328.478, 1551.172
329.834, 1595.034
331.190, 1726.219
332.546, 1703.096
333.902, 1813.949
335.257, 2062.846
336.612, 1993.763
337.967, 2246.717
339.322, 2279.690
340.677, 2441.721
342.031, 2516.774
343.385, 2515.843
344.739, 2675.928
346.093, 2686.027
347.446, 2535.163
348.799, 2396.324
350.153, 2216.545
351.505, 2058.089
352.858, 1840.033
354.210, 1686.297
355.563, 1469.570
356.915, 1333.991
358.267, 1067.208
359.618, 1061.505
360.969, 915.155
362.321, 773.587
363.672, 801.354
365.022, 638.014
366.373, 582.811
367.723, 387.878
369.073, 421.624
370.423, 395.118
371.773, 299.688
373.122, 216.316
374.471, 121.825
375.821, 210.346
377.169, 113.881
378.518, 136.405
379.866, 38.794
381.215, 60.138
382.563, 59.514
383.910, 120.646
385.258, 83.871
386.605, 123.085
387.952, 122.296
389.299, 130.621
390.646, 136.746
391.992, 149.992
393.339, 131.260
394.685, 115.563
396.031, 137.579
397.376, 183.326
398.722, 129.745
400.067, 120.179
401.412, 21.616
402.757, 67.058
404.101, 123.497
405.446, 39.934
406.790, 146.370
408.134, 129.800
409.478, 316.225
410.821, 269.643
412.165, 408.054
413.508, 490.457
414.851, 613.979
416.193, 723.353
417.536, 720.748
418.878, 845.438
420.220, 902.298
421.562, 929.424
422.904, 830.443
424.245, 895.843
425.586, 852.782
426.927, 829.399
428.268, 769.770
429.609, 576.309
430.949, 516.571
432.289, 465.694
433.629, 462.000
434.969, 362.224
436.309, 422.744
437.648, 226.428
438.987, 312.832
440.326, 154.620
441.665, 120.035
443.003, 97.685
444.342, 119.072
445.680, 103.884
447.018, 37.135
448.355, 69.820
449.693, 146.926
451.030, 80.382
452.367, 69.721
453.704, 50.570
455.041, 194.006
456.377, 70.451
457.713, 39.432
459.049, 205.274
460.385, 57.863
461.721, 132.236
463.056, 0.990
464.391, 35.023
465.726, 41.073
467.061, 62.174
468.395, 31.894
469.730, 105.089
471.064, 30.295
472.398, 104.315
473.731, 704.621
475.065, 798.910
476.398, 464.225
477.731, 10.322
479.064, 84.347
480.397, 27.219
481.729, 58.213
483.062, 31.056
484.394, 68.832
485.725, 130.135
487.057, 145.755
488.389, 208.714
489.720, 241.909
491.051, 172.892
492.382, 259.457
493.712, 315.695
495.043, 407.904
496.373, 384.811
497.703, 413.106
499.032, 433.260
500.362, 481.751
501.691, 375.025
503.020, 534.528
504.349, 663.550
505.678, 446.116
507.007, 404.077
508.335, 378.846
509.663, 431.194
510.991, 415.174
512.319, 385.812
513.646, 414.059
514.973, 415.488
516.300, 340.564
517.627, 401.631
518.954, 360.657
520.280, 249.894
521.607, 421.071
522.933, 257.231
524.259, 284.957
525.584, 262.430
526.910, 199.475
528.235, 278.647
529.560, 340.404
530.885, 323.917
532.209, 310.428
533.534, 340.685
534.858, 338.252
536.182, 335.744
537.506, 339.669
538.829, 372.390
540.152, 383.550
541.476, 460.104
542.799, 468.831
544.121, 528.441
545.444, 501.966
546.766, 562.253
548.088, 536.341
549.410, 562.216
550.732, 615.344
552.053, 624.272
553.375, 753.949
554.696, 698.331
556.017, 822.091
557.337, 877.210
558.658, 864.581
559.978, 897.407
561.298, 832.079
562.618, 832.106
563.938, 755.000
565.257, 728.994
566.576, 735.390
567.895, 705.909
569.214, 748.069
570.533, 626.757
571.851, 540.816
573.170, 400.600
574.488, 512.545
575.805, 361.436
577.123, 356.686
578.440, 315.136
579.758, 206.192
581.075, 282.059
582.391, 179.754
583.708, 207.454
585.024, 229.776
586.341, 117.625
587.657, 80.359
588.972, 195.761
590.288, 230.058
591.603, 183.162
592.918, 65.555
594.233, 126.416
595.548, 80.042
596.863, 143.445
598.177, 110.379
599.491, 131.860
600.805, 115.463
602.119, 130.153
603.432, 107.109
604.746, 150.364
606.059, 76.294
607.372, 137.599
608.685, 24.182
609.997, 38.181
611.309, 12.405
612.621, 63.429
613.933, 72.775
615.245, 61.901
616.557, 49.250
617.868, 13.347
619.179, 6.060
620.490, 133.267
621.801, 22.631
623.111, 75.687
624.421, 56.427
625.731, 149.104
627.041, 3.046
628.351, 132.606
629.660, 7.665
630.970, 3.561
632.279, 192.167
633.588, 20.306
634.896, 1.895
636.205, 66.010
637.513, 109.519
638.821, 3.128
640.129, 4.664
641.437, 12.239
642.744, 32.259
644.051, 73.564
645.358, 3.503
646.665, 66.719
647.972, 104.980
649.278, 9.134
650.584, 53.011
651.890, 37.947
653.196, 70.999
654.502, 26.136
655.807, 34.617
657.113, 111.714
658.418, 1.799
659.722, 98.217
661.027, 27.556
662.331, 54.811
663.636, 63.014
664.940, 29.637
666.244, 152.029
667.547, 14.735
668.851, 16.587
670.154, 40.991
671.457, 23.490
672.760, 49.907
674.062, 36.178
675.365, 30.438
676.667, 16.619
677.969, 199.253
679.271, 187.291
680.572, 273.812
681.874, 47.629
683.175, 162.703
684.476, 113.700
685.777, 195.946
687.077, 236.685
688.378, 219.501
689.678, 262.818
690.978, 171.042
692.278, 171.180
693.577, 50.231
694.877, 227.220
696.176, 51.291
697.475, 393.332
698.774, 265.357
700.072, 235.322
701.371, 676.222
702.669, 448.062
703.967, 108.841
705.265, 141.555
706.562, 302.203
707.860, 147.793
709.157, 79.315
710.454, 186.772
711.751, 78.166
713.047, 212.494
714.344, 133.761
715.640, 244.964
716.936, 24.107
718.232, 159.186
719.527, 172.201
720.823, 129.156
722.118, 253.049
723.413, 203.885
724.708, 270.664
726.002, 125.386
727.297, 256.049
728.591, 63.655
729.885, 244.074
731.179, 237.565
732.472, 131.702
733.766, 63.757
735.059, 136.572
736.352, 160.871
737.645, 182.427
738.937, 159.495
740.230, 230.622
741.522, 84.786
742.814, 91.354
744.106, 144.839
745.397, 147.682
746.689, 171.612
747.980, 80.291
749.271, 178.981
750.562, 212.304
751.853, 242.393
753.143, 88.693
754.433, 172.536
755.723, 120.685
757.013, 65.528
758.303, 229.560
759.592, 121.097
760.881, 106.120
762.170, 17.636
763.459, 267.506
764.748, 258.979
766.036, 193.242
767.325, 420.786
768.613, 161.122
769.901, 162.206
771.188, 285.866
772.476, 269.042
773.763, 482.973
775.050, 268.595
776.337, 475.489
777.624, 426.581
778.910, 1105.112
780.196, 750.838
781.482, 762.112
782.768, 455.025
784.054, 703.844
785.339, 830.387
786.625, 971.864
787.910, 874.916
789.195, 1103.868
790.479, 1119.963
791.764, 1297.050
793.048, 1389.653
794.332, 1454.173
795.616, 1882.200
796.900, 1881.220
798.183, 2224.000
799.467, 2223.711
800.750, 2696.264
802.033, 2723.557
803.316, 2983.988
804.598, 3491.761
805.880, 3557.789
807.163, 4224.799
808.445, 4717.041
809.726, 5123.820
811.008, 5805.668
812.289, 6629.109
813.570, 7405.695
814.851, 8285.990
816.132, 9058.695
817.413, 9612.804
818.693, 10493.440
819.973, 10814.199
821.253, 11061.306
822.533, 11124.708
823.813, 11198.516
825.092, 11173.206
826.371, 11049.077
827.650, 11064.077
828.929, 10849.014
830.208, 10965.915
831.486, 10916.171
832.764, 10728.772
834.042, 11089.554
835.320, 11344.467
836.598, 11886.574
837.875, 12529.565
839.152, 13289.841
840.429, 13888.612
841.706, 15180.075
842.983, 15996.403
844.259, 17250.033
845.536, 19244.592
846.812, 20956.539
848.088, 23581.592
849.363, 26678.070
850.639, 30165.127
851.914, 34322.711
853.189, 37791.320
854.464, 40601.203
855.739, 42575.426
857.013, 42593.680
858.288, 39363.539
859.562, 34950.066
860.836, 30403.477
862.110, 26018.055
863.383, 20914.357
864.656, 17952.105
865.930, 15033.407
867.203, 12557.269
868.475, 10778.810
869.748, 9065.848
871.020, 7757.967
872.292, 6963.660
873.564, 6043.413
874.836, 5263.027
876.108, 4752.175
877.379, 4155.138
878.650, 3968.384
879.922, 3549.039
881.192, 3279.247
882.463, 2858.658
883.733, 2758.834
885.004, 2352.989
886.274, 2054.708
887.544, 1916.152
888.813, 2038.913
890.083, 1869.787
891.352, 1568.762
892.621, 1487.656
893.890, 1327.860
895.159, 1195.464
896.427, 999.110
897.695, 1073.002
898.964, 1050.002
900.232, 899.033
901.499, 782.911
902.767, 769.014
904.034, 808.264
905.301, 675.910
906.568, 678.835
907.835, 562.319
909.102, 649.687
910.368, 450.599
911.634, 401.012
912.900, 522.000
914.166, 429.943
915.432, 589.544
916.697, 393.993
917.962, 351.464
919.227, 548.887
920.492, 468.402
921.757, 373.776
923.021, 536.235
924.285, 465.816
925.550, 444.406
926.813, 516.020
928.077, 301.652
929.341, 419.287
930.604, 414.941
931.867, 412.596
933.130, 424.281
934.393, 332.969
935.655, 539.670
936.918, 963.375
938.180, 350.100
939.442, 911.836
940.703, 291.570
941.965, 361.484
943.226, 450.676
944.488, 184.297
945.749, 434.918
947.009, 499.998
948.270, 394.518
949.530, 537.717
950.791, 512.619
952.051, 673.805
953.311, 684.768
954.570, 699.059
955.830, 1025.357
957.089, 912.998
958.348, 1080.670
959.607, 1100.797
960.866, 1180.820
962.124, 1254.309
963.383, 1119.504
964.641, 1168.705
965.899, 925.357
967.156, 787.137
968.414, 646.393
969.671, 453.137
970.928, 482.111
972.185, 390.404
973.442, 250.256
974.699, 282.326
975.955, 198.807
977.211, 240.488
978.468, 112.365
979.723, 197.945
980.979, 99.098
982.234, 67.051
983.490, 410.115
984.745, 110.363
986.000, 229.979
987.254, 129.682
988.509, 60.436
989.763, 64.986
991.017, 15.080
992.271, 25.961
993.525, 22.682
994.779, 91.137
996.032, 202.479
997.285, 6.037
998.538, 165.221
999.791, 131.467
1001.044, 209.037
1002.296, 0.600
1003.548, 14.104
1004.800, 92.205
1006.052, 98.564
1007.304, 194.793
1008.555, 2.797
1009.807, 242.846
1011.058, 68.096
1012.309, 269.264
1013.559, 239.543
1014.810, 232.010
1016.060, 297.850
1017.310, 430.066
1018.560, 420.068
1019.810, 455.758
1021.060, 459.838
1022.309, 525.482
1023.558, 537.209
1024.807, 775.699
1026.056, 625.797
1027.305, 768.758
1028.553, 640.230
1029.801, 852.131
1031.049, 716.287
1032.297, 644.014
1033.545, 569.396
1034.793, 513.951
1036.040, 458.607
1037.287, 483.199
1038.534, 433.428
1039.781, 494.410
1041.027, 633.672
1042.274, 380.113
1043.520, 520.146
1044.766, 590.635
1046.012, 299.791
1047.257, 262.947
1048.503, 179.547
1049.748, 581.061
1050.993, 152.123
1052.238, 441.332
1053.483, 417.400
1054.727, 149.586
1055.971, 177.197
1057.216, 134.193
1058.459, 116.277
1059.703, 176.115
1060.947, 340.432
1062.190, 410.992
1063.433, 711.496
1064.676, 301.719
1065.919, 482.885
1067.162, 247.715
1068.404, 506.129
1069.646, 268.639
1070.888, 307.582
1072.130, 494.502
1073.372, 372.402
1074.613, 438.281
1075.855, 541.855
1077.096, 330.480
1078.337, 381.404
1079.578, 395.738
1080.818, 360.803
1082.059, 479.426
1083.299, 450.926
1084.539, 512.734
1085.779, 525.150
1087.018, 440.023
1088.258, 502.490
1089.497, 330.484
1090.736, 249.301
1091.975, 188.852
1093.213, 97.119
1094.452, 99.555
1095.690, 232.936
1096.928, 134.912
1098.166, 215.621
1099.404, 293.590
1100.642, 234.125
1101.879, 292.486
1103.116, 217.057
1104.353, 217.156
1105.590, 141.174
1106.827, 88.877
1108.063, 39.500
1109.299, 66.598
1110.536, 199.773
1111.771, 32.908
1113.007, 43.293
1114.243, 34.104
1115.478, 150.611
1116.713, 57.715
1117.948, 164.758
1119.183, 117.957
1120.418, 47.629
1121.652, 165.916
1122.886, 477.953
1124.120, 517.949
1125.354, 451.416
1126.588, 173.336
1127.821, 245.844
1129.055, 110.254
1130.288, 183.980
1131.521, 105.207
1132.753, 21.205
1133.986, 55.143
1135.218, 54.602
1136.450, 170.113
1137.682, 49.262
1138.914, 359.352
1140.146, 8.379
1141.377, 73.324
1142.609, 23.855
1143.840, 146.951
1145.071, 273.320
1146.301, 86.182
1147.532, 76.357
1148.762, 37.275
1149.992, 10.051
1151.222, 91.447
1152.452, 73.154
1153.682, 63.248
1154.911, 53.404
1156.140, 55.498
1157.369, 27.193
1158.598, 36.436
1159.827, 99.375
1161.055, 71.072
1162.284, 264.424
1163.512, 172.109
1164.740, 85.102
1165.967, 133.143
1167.195, 72.010
1168.422, 110.400
1169.650, 36.129
1170.877, 191.227
1172.103, 97.072
1173.330, 4.936
1174.557, 8.475
1175.783, 249.678
1177.009, 9.162
1178.235, 91.400
1179.461, 178.000
1180.686, 61.963
1181.912, 147.863
1183.137, 230.768
1184.362, 231.580
1185.587, 89.371
1186.811, 117.555
1188.036, 277.676
1189.260, 64.197
1190.484, 322.750
1191.708, 206.811
1192.932, 287.641
1194.155, 281.279
1195.378, 168.104
1196.602, 183.385
1197.825, 283.508
1199.047, 250.641
1200.270, 519.908
1201.492, 240.713
1202.715, 369.676
1203.937, 161.373
1205.159, 345.490
1206.380, 295.785
1207.602, 411.123
1208.823, 129.922
1210.044, 132.504
1211.265, 167.191
1212.486, 417.793
1213.707, 248.807
1214.927, 337.852
1216.147, 306.152
1217.367, 191.887
1218.587, 427.098
1219.807, 180.906
1221.027, 414.371
1222.246, 92.742
1223.465, 214.135
1224.684, 369.311
1225.903, 540.773
1227.121, 511.686
1228.340, 408.107
1229.558, 425.625
1230.776, 339.320
1231.994, 258.953
1233.212, 223.457
1234.429, 384.863
1235.646, 241.801
1236.864, 281.008
1238.081, 326.955
1239.297, 163.076
1240.514, 352.152
1241.730, 537.125
1242.947, 177.537
1244.163, 216.547
1245.378, 79.650
1246.594, 469.273
1247.810, 534.330
1249.025, 173.668
1250.240, 529.270
1251.455, 294.701
1252.670, 294.684
1253.885, 397.506
1255.099, 447.000
1256.313, 410.316
1257.527, 404.041
1258.741, 326.812
1259.955, 255.566
1261.168, 202.879
1262.382, 93.881
1263.595, 451.205
1264.808, 260.311
1266.021, 160.668
1267.233, 439.604
1268.446, 243.107
1269.658, 235.059
1270.870, 72.842
1272.082, 218.453
1273.294, 297.146
1274.505, 302.014
1275.716, 206.408
1276.928, 392.725
1278.139, 148.967
1279.349, 277.322
1280.560, 235.756
1281.770, 329.639
1282.981, 48.248
1284.191, 126.191
1285.401, 167.311
1286.610, 254.438
1287.820, 33.115
1289.029, 164.406
1290.239, 81.508
1291.448, 276.588
1292.656, 53.783
1293.865, 20.199
1295.073, 21.480
1296.282, 191.172
1297.490, 20.600
1298.698, 21.080
1299.906, 247.379
1301.113, 124.676
1302.320, 50.654
1303.528, 111.268
1304.735, 197.143
1305.942, 144.965
1307.148, 71.543
1308.355, 198.809
1309.561, 3.434
1310.767, 303.811
1311.973, 48.143
1313.179, 153.650
1314.384, 6.641
1315.590, 406.941
1316.795, 44.973
1318.000, 352.221
1319.205, 15.674
1320.410, 83.703
1321.614, 149.533
1322.819, 17.807
1324.023, 84.988
1325.227, 61.184
1326.431, 175.600
1327.634, 8.545
1328.838, 120.467
1330.041, 135.430
1331.244, 77.709
1332.447, 227.902
1333.650, 38.691
1334.852, 108.262
1336.055, 161.039
1337.257, 22.760
1338.459, 208.641
1339.661, 141.924
1340.862, 69.764
1342.064, 250.312
1343.265, 40.674
1344.466, 162.129
1345.667, 247.896
1346.868, 134.395
1348.068, 449.395
1349.269, 251.820
1350.469, 25.105
1351.669, 430.070
1352.869, 329.707
1354.069, 352.484
1355.268, 296.742
1356.468, 16.816
1357.667, 497.414
1358.866, 383.068
1360.065, 102.000
1361.263, 426.889
1362.462, 273.330
1363.660, 349.662
1364.858, 494.854
1366.056, 478.803
1367.254, 378.609
1368.451, 567.822
1369.649, 312.584
1370.846, 296.129
1372.043, 496.117
1373.240, 227.834
1374.436, 428.871
1375.633, 391.385
1376.829, 564.146
1378.025, 584.832
1379.221, 246.312
1380.417, 562.496
1381.613, 440.303
1382.808, 260.867
1384.003, 464.781
1385.199, 385.451
1386.393, 488.107
1387.588, 354.551
1388.783, 475.748
1389.977, 304.893
1391.171, 347.420
1392.365, 308.658
1393.559, 459.885
1394.753, 454.418
1395.946, 415.607
1397.140, 458.504
1398.333, 287.502
1399.526, 388.715
1400.719, 320.141
1401.911, 387.559
1403.104, 464.723
1404.296, 295.594
1405.488, 306.859
1406.680, 482.236
1407.872, 210.059
1409.063, 380.455
1410.255, 528.469
1411.446, 249.578
1412.637, 652.018
1413.828, 267.432
1415.018, 549.213
1416.209, 1317.605
1417.399, 480.816
1418.589, 201.928
1419.779, 553.855
1420.969, 152.641
1422.159, 511.326
1423.348, 236.916
1424.537, 470.514
1425.726, 394.377
1426.915, 298.375
1428.104, 381.494
1429.293, 330.098
1430.481, 279.523
1431.669, 236.305
1432.857, 522.098
1434.045, 479.045
1435.233, 411.553
1436.420, 717.168
1437.608, 681.076
1438.795, 461.260
1439.982, 279.672
1441.169, 531.479
1442.355, 499.391
1443.542, 493.742
1444.728, 521.982
1445.914, 369.484
1447.100, 436.871
1448.286, 499.695
1449.472, 673.941
1450.657, 260.277
1451.842, 822.963
1453.027, 533.990
1454.212, 916.332
1455.397, 474.941
1456.581, 318.664
1457.766, 540.535
1458.950, 574.668
1460.134, 415.438
1461.318, 579.635
1462.501, 2.961
1463.685, 179.484
1464.868, 576.961
1466.051, 46.348
1467.234, 649.723
1468.417, 267.109
1469.600, 150.539
1470.782, 341.043
1471.965, 409.715
1473.147, 51.539
1474.329, 415.512
1475.510, 311.723
1476.692, 78.184
1477.873, 118.859
1479.055, 323.832
1480.236, 196.422
1481.416, 521.531
1482.597, 120.121
1483.778, 471.500
