##NAMES=Olivenite
##RRUFFID=R040181
##IDEAL CHEMISTRY=Cu^2+^_2_As^5+^O_4_(OH)
##LOCALITY=Majuba Hill, Pershing County, Nevada, USA
##OWNER=RRUFF
##SOURCE=University of Arizona Mineral Museum
##DESCRIPTION=Greenish blue prismatic, untwinned. Structure for this sample reported in Li et al (2008).
##STATUS=The identification of this mineral has been confirmed by X-ray diffraction and chemical analysis
##URL=rruff.info/R040181
##MEASURED CHEMISTRY=(Cu_0.98_[box]_0.02_)_2_(As_0.90_P_0.10_O_4_)(OH)_0.92_
##PIN_ID=S00117
##ORIENTATION=Laser parallel to (-1 0 -1). Fiducial mark perpendicular to laser is parallel to -b [0 -1 0]
52.866, 0.000
54.266, 34.555
55.666, 45.499
57.065, 80.325
58.464, 74.124
59.863, 56.262
61.262, 6.665
62.661, 20.077
64.059, 20.522
65.458, 0.521
66.856, 19.641
68.253, 104.493
69.651, 180.786
71.048, 318.273
72.445, 516.743
73.842, 769.015
75.239, 1083.929
76.635, 1385.335
78.031, 1742.105
79.427, 1925.128
80.823, 2096.308
82.218, 2094.567
83.614, 2133.828
85.009, 2125.027
86.404, 2228.104
87.798, 2448.003
89.193, 2709.676
90.587, 3036.076
91.981, 3221.164
93.375, 3368.901
94.768, 3501.251
96.161, 3373.166
97.554, 3273.593
98.947, 3115.490
100.340, 2950.835
101.732, 2993.615
103.124, 3147.820
104.516, 3526.435
105.908, 3879.442
107.300, 4263.831
108.691, 4729.593
110.082, 5245.717
111.473, 5623.187
112.864, 6025.991
114.254, 6283.110
115.644, 6457.532
117.034, 6451.246
118.424, 6141.240
119.813, 5618.503
121.203, 5147.026
122.592, 4310.798
123.981, 3745.813
125.369, 3268.062
126.758, 2735.536
128.146, 2386.228
129.534, 2054.133
130.922, 1867.242
132.309, 1711.550
133.696, 1472.049
135.083, 1267.736
136.470, 1167.554
137.857, 1000.360
139.243, 987.156
140.630, 880.947
142.016, 922.731
143.401, 942.563
144.787, 1074.516
146.172, 1248.638
147.557, 1479.954
148.942, 1655.478
150.327, 1967.202
151.711, 2233.137
153.096, 2395.237
154.480, 2643.462
155.863, 2718.818
157.247, 2745.291
158.630, 2668.902
160.013, 2523.686
161.396, 2211.632
162.779, 1948.777
164.161, 1669.066
165.544, 1475.493
166.926, 1353.027
168.308, 1257.644
169.689, 1231.333
171.070, 1210.092
172.452, 1346.924
173.833, 1378.828
175.213, 1476.804
176.594, 1581.852
177.974, 1608.972
179.354, 1692.164
180.734, 1741.427
182.114, 1713.762
183.493, 1594.167
184.872, 1510.641
186.251, 1365.186
187.630, 1197.798
189.008, 1012.479
190.387, 896.226
191.765, 741.039
193.143, 685.917
194.520, 721.859
195.898, 689.864
197.275, 806.931
198.652, 888.059
200.029, 1093.246
201.405, 1301.492
202.782, 1523.795
204.158, 1775.154
205.534, 2169.568
206.909, 2604.036
208.285, 2987.557
209.660, 3545.128
211.035, 4234.750
212.410, 4798.421
213.784, 5509.142
215.159, 6007.907
216.533, 6611.718
217.907, 7003.575
219.281, 6941.535
220.654, 6991.539
222.027, 6572.565
223.400, 6161.612
224.773, 5627.634
226.146, 4998.065
227.518, 4362.682
228.891, 3783.636
230.263, 3305.645
231.634, 2836.041
233.006, 2478.036
234.377, 2128.557
235.748, 1827.414
237.119, 1611.046
238.490, 1395.563
239.860, 1238.814
241.231, 1044.661
242.601, 882.879
243.970, 757.518
245.340, 676.320
246.709, 596.748
248.079, 507.875
249.448, 461.455
250.816, 434.093
252.185, 417.155
253.553, 414.972
254.921, 422.190
256.289, 417.161
257.657, 463.495
259.024, 502.254
260.391, 532.696
261.758, 622.794
263.125, 751.012
264.492, 909.379
265.858, 1073.005
267.224, 1288.309
268.590, 1569.358
269.956, 1967.438
271.321, 2501.237
272.687, 3173.597
274.052, 4015.001
275.416, 4920.785
276.781, 6166.999
278.146, 7365.728
279.510, 8420.800
280.874, 9550.109
282.237, 10167.307
283.601, 10620.571
284.964, 10273.888
286.327, 9695.256
287.690, 9022.672
289.053, 7997.138
290.416, 7042.661
291.778, 6360.244
293.140, 5551.875
294.502, 5105.550
295.863, 4651.275
297.225, 4425.045
298.586, 4366.860
299.947, 4259.717
301.308, 4305.613
302.668, 4378.548
304.029, 4522.523
305.389, 4724.536
306.749, 4695.590
308.108, 4794.682
309.468, 4798.815
310.827, 4625.991
312.186, 4453.195
313.545, 4220.433
314.903, 4005.698
316.262, 3658.991
317.620, 3306.316
318.978, 3104.669
320.336, 2839.050
321.693, 2596.456
323.051, 2473.885
324.408, 2376.337
325.765, 2154.809
327.121, 2234.309
328.478, 2114.830
329.834, 2038.372
331.190, 2034.938
332.546, 2019.521
333.902, 1951.129
335.257, 1893.753
336.612, 1859.392
337.967, 1771.043
339.322, 1722.711
340.677, 1765.393
342.031, 1709.086
343.385, 1662.793
344.739, 1634.510
346.093, 1535.238
347.446, 1461.976
348.799, 1439.724
350.153, 1343.481
351.505, 1265.247
352.858, 1212.020
354.210, 1081.802
355.563, 1074.592
356.915, 1013.388
358.267, 913.191
359.618, 865.999
360.969, 824.814
362.321, 782.634
363.672, 685.459
365.022, 635.289
366.373, 591.122
367.723, 576.959
369.073, 522.800
370.423, 471.644
371.773, 413.490
373.122, 394.338
374.471, 379.188
375.821, 388.040
377.169, 351.893
378.518, 377.746
379.866, 322.600
381.215, 320.454
382.563, 303.332
383.910, 310.234
385.258, 241.160
386.605, 185.108
387.952, 209.080
389.299, 64.073
390.646, 88.090
391.992, 27.131
393.339, 11.809
394.685, 12.738
396.031, 64.658
397.376, 46.589
398.722, 76.527
400.067, 88.485
401.412, 79.471
402.757, 86.481
404.101, 89.522
405.446, 93.594
406.790, 74.703
408.134, 82.839
409.478, 92.009
410.821, 79.218
412.165, 40.460
413.508, 63.720
414.851, 3.991
416.193, 44.298
417.536, 33.609
418.878, 0.062
420.220, 26.272
421.562, 17.623
422.904, 45.988
424.245, 8.380
425.586, 63.756
426.927, 65.849
428.268, 22.278
429.609, 68.685
430.949, 83.971
432.289, 42.881
433.629, 14.839
434.969, 48.859
436.309, 17.674
437.648, 23.136
438.987, 6.086
440.326, 1.569
441.665, 23.086
443.003, 40.816
444.342, 62.167
445.680, 69.963
447.018, 88.601
448.355, 76.355
449.693, 96.373
451.030, 114.159
452.367, 133.090
453.704, 171.031
455.041, 142.111
456.377, 140.405
457.713, 165.469
459.049, 171.867
460.385, 173.289
461.721, 215.360
463.056, 225.243
464.391, 223.188
465.726, 242.842
467.061, 293.904
468.395, 316.936
469.730, 325.063
471.064, 356.104
472.398, 365.684
473.731, 406.405
475.065, 456.997
476.398, 497.458
477.731, 535.119
479.064, 593.449
480.397, 670.065
481.729, 743.589
483.062, 825.876
484.394, 933.042
485.725, 1058.231
487.057, 1136.009
488.389, 1294.579
489.720, 1420.260
491.051, 1564.367
492.382, 1789.558
493.712, 1994.520
495.043, 2196.365
496.373, 2311.056
497.703, 2534.719
499.032, 2669.588
500.362, 2852.583
501.691, 2955.094
503.020, 3064.751
504.349, 3000.217
505.678, 3166.660
507.007, 3126.081
508.335, 3183.480
509.663, 3195.856
510.991, 3267.209
512.319, 3308.538
513.646, 3208.845
514.973, 3149.129
516.300, 2968.390
517.627, 2846.627
518.954, 2663.841
520.280, 2497.031
521.607, 2275.197
522.933, 2136.339
524.259, 2041.458
525.584, 1885.553
526.910, 1788.624
528.235, 1763.670
529.560, 1638.693
530.885, 1572.691
532.209, 1411.665
533.534, 1346.615
534.858, 1271.540
536.182, 1198.440
537.506, 1126.316
538.829, 1069.167
540.152, 1022.874
541.476, 980.331
542.799, 951.574
544.121, 925.326
545.444, 897.054
546.766, 887.756
548.088, 887.432
549.410, 909.083
550.732, 916.708
552.053, 908.307
553.375, 930.582
554.696, 902.786
556.017, 884.635
557.337, 836.306
558.658, 867.351
559.978, 781.649
561.298, 748.344
562.618, 691.564
563.938, 603.527
565.257, 584.177
566.576, 547.767
567.895, 448.826
569.214, 428.278
570.533, 372.362
571.851, 349.471
573.170, 268.232
574.488, 288.312
575.805, 207.966
577.123, 184.122
578.440, 170.882
579.758, 188.277
581.075, 128.046
582.391, 126.213
583.708, 105.311
585.024, 71.307
586.341, 92.091
587.657, 85.241
588.972, 26.688
590.288, 41.138
591.603, 38.906
592.918, 10.146
594.233, 12.631
595.548, 3.765
596.863, 20.690
598.177, 12.657
599.491, 6.697
600.805, 5.732
602.119, 20.716
603.432, 12.213
604.746, 6.245
606.059, 3.670
607.372, 16.941
608.685, 29.599
609.997, 48.308
611.309, 17.081
612.621, 3.898
613.933, 23.755
615.245, 20.659
616.557, 10.611
617.868, 11.604
619.179, 6.638
620.490, 4.279
621.801, 5.912
623.111, 1.966
624.421, 9.148
625.731, 9.369
627.041, 11.628
628.351, 26.925
629.660, 16.730
630.970, 13.360
632.279, 10.964
633.588, 16.542
634.896, 8.905
636.205, 3.613
637.513, 1.898
638.821, 8.561
640.129, 14.995
641.437, 18.405
642.744, 15.380
644.051, 16.840
645.358, 1.489
646.665, 1.208
647.972, 8.932
649.278, 6.313
650.584, 24.465
651.890, 17.719
653.196, 25.884
654.502, 25.031
655.807, 9.160
657.113, 2.270
658.418, 42.358
659.722, 13.430
661.027, 51.484
662.331, 51.522
663.636, 48.545
664.940, 79.553
666.244, 53.545
667.547, 47.523
668.851, 35.486
670.154, 83.434
671.457, 88.368
672.760, 53.287
674.062, 75.193
675.365, 56.084
676.667, 57.962
677.969, 46.826
679.271, 69.677
680.572, 46.515
681.874, 48.340
683.175, 75.151
684.476, 76.952
685.777, 54.741
687.077, 65.521
688.378, 45.289
689.678, 79.048
690.978, 57.795
692.278, 75.535
693.577, 80.825
694.877, 66.987
696.176, 88.702
697.475, 60.410
698.774, 58.113
700.072, 94.807
701.371, 67.491
702.669, 74.166
703.967, 91.831
705.265, 97.490
706.562, 77.138
707.860, 75.778
709.157, 59.409
710.454, 105.034
711.751, 47.653
713.047, 125.277
714.344, 84.902
715.640, 72.536
716.936, 81.181
718.232, 68.836
719.527, 127.503
720.823, 110.184
722.118, 93.879
723.413, 150.586
724.708, 126.305
726.002, 134.041
727.297, 124.790
728.591, 119.544
729.885, 98.309
731.179, 151.071
732.472, 162.839
733.766, 151.613
735.059, 130.385
736.352, 167.161
737.645, 157.940
738.937, 159.729
740.230, 167.491
741.522, 186.948
742.814, 193.125
744.106, 195.447
745.397, 212.031
746.689, 221.210
747.980, 220.414
749.271, 216.668
750.562, 246.692
751.853, 231.349
753.143, 240.303
754.433, 242.984
755.723, 235.620
757.013, 288.034
758.303, 275.818
759.592, 265.151
760.881, 316.634
762.170, 336.992
763.459, 322.078
764.748, 335.389
766.036, 325.546
767.325, 396.685
768.613, 382.676
769.901, 439.445
771.188, 442.435
772.476, 448.083
773.763, 517.698
775.050, 525.654
776.337, 580.790
777.624, 587.855
778.910, 665.202
780.196, 687.131
781.482, 748.083
782.768, 798.928
784.054, 906.852
785.339, 924.226
786.625, 1004.533
787.910, 1049.794
789.195, 1145.260
790.479, 1185.515
791.764, 1257.592
793.048, 1339.373
794.332, 1378.738
795.616, 1429.329
796.900, 1449.031
798.183, 1497.702
799.467, 1504.772
800.750, 1581.042
802.033, 1637.191
803.316, 1650.904
804.598, 1699.522
805.880, 1701.361
807.163, 1812.307
808.445, 1899.398
809.726, 1938.505
811.008, 2058.398
812.289, 2205.155
813.570, 2312.387
814.851, 2512.462
816.132, 2740.719
817.413, 2897.989
818.693, 3082.271
819.973, 3370.566
821.253, 3505.875
822.533, 3671.197
823.813, 3985.532
825.092, 4093.881
826.371, 4267.244
827.650, 4640.621
828.929, 4911.010
830.208, 5489.414
831.486, 5899.833
832.764, 6472.267
834.042, 7170.713
835.320, 8065.176
836.598, 8960.657
837.875, 10134.457
839.152, 11397.029
840.429, 12677.188
841.706, 14481.951
842.983, 16180.858
844.259, 18496.588
845.536, 21553.820
846.812, 24741.721
848.088, 28957.479
849.363, 33743.559
850.639, 38800.059
851.914, 44518.168
853.189, 49196.875
854.464, 52128.742
855.739, 54027.543
857.013, 52295.273
858.288, 47364.609
859.562, 40464.363
860.836, 34457.156
862.110, 28463.984
863.383, 22843.818
864.656, 19005.738
865.930, 15635.605
867.203, 12917.521
868.475, 11055.454
869.748, 9402.394
871.020, 7976.354
872.292, 7156.341
873.564, 6236.404
874.836, 5586.440
876.108, 4899.503
877.379, 4474.594
878.650, 4059.706
879.922, 3746.840
881.192, 3445.995
882.463, 3366.171
883.733, 3332.370
885.004, 2855.589
886.274, 2478.830
887.544, 2327.096
888.813, 2242.381
890.083, 2108.691
891.352, 1902.019
892.621, 1827.367
893.890, 1725.734
895.159, 1615.123
896.427, 1543.531
897.695, 1398.956
898.964, 1387.406
900.232, 1231.878
901.499, 1110.375
902.767, 1075.900
904.034, 997.455
905.301, 908.037
906.568, 889.645
907.835, 855.311
909.102, 796.972
910.368, 709.657
911.634, 699.373
912.900, 671.122
914.166, 640.897
915.432, 627.335
916.697, 615.536
917.962, 585.405
919.227, 588.314
920.492, 558.255
921.757, 559.225
923.021, 569.225
924.285, 530.257
925.550, 557.318
926.813, 518.406
928.077, 490.522
929.341, 483.665
930.604, 508.834
931.867, 502.029
933.130, 501.251
934.393, 434.500
935.655, 429.779
936.918, 438.088
938.180, 385.421
939.442, 401.776
940.703, 368.153
941.965, 415.552
943.226, 405.976
944.488, 409.423
945.749, 400.892
947.009, 454.383
948.270, 473.896
949.530, 493.428
950.791, 558.978
952.051, 603.555
953.311, 641.479
954.570, 675.772
955.830, 736.414
957.089, 788.075
958.348, 859.763
959.607, 821.468
960.866, 823.189
962.124, 764.927
963.383, 675.683
964.641, 605.457
965.899, 549.247
967.156, 425.053
968.414, 363.874
969.671, 282.711
970.928, 257.563
972.185, 202.430
973.442, 166.312
974.699, 114.210
975.955, 103.121
977.211, 92.048
978.468, 87.989
979.723, 82.944
980.979, 68.981
982.234, 54.445
983.490, 44.896
984.745, 18.908
986.000, 10.934
987.254, 0.974
988.509, 18.972
989.763, 5.908
991.017, 31.830
992.271, 14.745
993.525, 20.648
994.779, 11.542
996.032, 31.422
997.285, 18.296
998.538, 47.160
999.791, 23.970
1001.044, 37.823
1002.296, 55.670
1003.548, 2.518
1004.800, 11.353
1006.052, 6.592
1007.304, 15.659
1008.555, 27.783
1009.807, 10.422
1011.058, 12.890
1012.309, 1.189
1013.559, 0.569
1014.810, 4.974
1016.060, 2.451
1017.310, 1.359
1018.560, 1.018
1019.810, 15.224
1021.060, 2.132
1022.309, 44.284
1023.558, 2.776
1024.807, 34.566
1026.056, 43.000
1027.305, 35.153
1028.553, 43.515
1029.801, 38.911
1031.049, 35.015
1032.297, 41.784
1033.545, 58.853
1034.793, 79.627
1036.040, 63.876
1037.287, 63.097
1038.534, 58.201
1039.781, 45.246
1041.027, 48.989
1042.274, 16.198
1043.520, 39.122
1044.766, 57.926
1046.012, 15.050
1047.257, 7.568
1048.503, 21.364
1049.748, 18.193
1050.993, 34.970
1052.238, 20.181
1053.483, 41.751
1054.727, 7.410
1055.971, 35.638
1057.216, 1.044
1058.459, 18.695
1059.703, 34.230
1060.947, 59.783
1062.190, 30.157
1063.433, 16.617
1064.676, 6.979
1065.919, 34.928
1067.162, 26.599
1068.404, 34.865
1069.646, 45.979
1070.888, 22.027
1072.130, 49.704
1073.372, 38.488
1074.613, 56.368
1075.855, 56.138
1077.096, 73.955
1078.337, 40.868
1079.578, 73.583
1080.818, 73.528
1082.059, 38.283
1083.299, 50.209
1084.539, 89.245
1085.779, 54.045
1087.018, 75.494
1088.258, 52.625
1089.497, 64.566
1090.736, 42.644
1091.975, 52.368
1093.213, 41.294
1094.452, 49.852
1095.690, 39.784
1096.928, 43.209
1098.166, 51.869
1099.404, 39.595
1100.642, 61.286
1101.879, 46.991
1103.116, 19.672
1104.353, 39.334
1105.590, 38.975
1106.827, 37.579
1108.063, 35.196
1109.299, 42.767
1110.536, 32.435
1111.771, 40.799
1113.007, 29.650
1114.243, 53.268
1115.478, 52.861
1116.713, 63.445
1117.948, 54.079
1119.183, 53.620
1120.418, 65.116
1121.652, 53.707
1122.886, 93.211
1124.120, 127.750
1125.354, 100.253
1126.588, 78.794
1127.821, 64.257
1129.055, 61.743
1130.288, 44.194
1131.521, 41.294
1132.753, 63.157
1133.986, 38.595
1135.218, 61.038
1136.450, 75.523
1137.682, 41.699
1138.914, 52.091
1140.146, 50.009
1141.377, 39.259
1142.609, 58.446
1143.840, 46.825
1145.071, 47.625
1146.301, 50.699
1147.532, 10.946
1148.762, 22.965
1149.992, 16.510
1151.222, 16.510
1152.452, 22.040
1153.682, 2.729
1154.911, 9.515
1156.140, 1.851
1157.369, 15.602
1158.598, 12.042
1159.827, 2.707
1161.055, 15.441
1162.284, 6.859
1163.512, 8.998
1164.740, 4.666
1165.967, 6.511
1167.195, 20.320
1168.422, 14.430
1169.650, 17.756
1170.877, 13.857
1172.103, 19.781
1173.330, 20.745
1174.557, 31.697
1175.783, 2.675
1177.009, 0.299
1178.235, 0.691
1179.461, 7.769
1180.686, 4.131
1181.912, 6.975
1183.137, 1.887
1184.362, 13.269
1185.587, 5.549
1186.811, 9.648
1188.036, 15.130
1189.260, 4.894
1190.484, 11.642
1191.708, 15.374
1192.932, 8.093
1194.155, 28.839
1195.378, 17.530
1196.602, 17.207
1197.825, 2.129
1199.047, 8.559
1200.270, 30.237
1201.492, 25.903
1202.715, 9.503
1203.937, 6.086
1205.159, 28.617
1206.380, 45.168
1207.602, 42.708
1208.823, 8.236
1210.044, 6.746
1211.265, 9.237
1212.486, 20.708
1213.707, 33.165
1214.927, 12.609
1216.147, 17.035
1217.367, 19.462
1218.587, 35.855
1219.807, 30.236
1221.027, 26.604
1222.246, 31.956
1223.465, 30.296
1224.684, 26.621
1225.903, 36.931
1227.121, 26.228
1228.340, 35.509
1229.558, 27.777
1230.776, 24.030
1231.994, 34.267
1233.212, 12.491
1234.429, 21.695
1235.646, 28.882
1236.864, 24.053
1238.081, 41.207
1239.297, 30.348
1240.514, 77.473
1241.730, 30.589
1242.947, 14.684
1244.163, 48.762
1245.378, 42.827
1246.594, 45.879
1247.810, 44.918
1249.025, 47.050
1250.240, 49.338
1251.455, 51.952
1252.670, 56.937
1253.885, 54.909
1255.099, 63.867
1256.313, 48.813
1257.527, 53.745
1258.741, 58.664
1259.955, 54.569
1261.168, 57.461
1262.382, 58.338
1263.595, 52.201
1264.808, 67.049
1266.021, 76.884
1267.233, 56.704
1268.446, 73.509
1269.658, 64.300
1270.870, 72.077
1272.082, 61.839
1273.294, 88.587
1274.505, 73.321
1275.716, 86.041
1276.928, 73.747
1278.139, 69.440
1279.349, 80.119
1280.560, 77.784
1281.770, 65.437
1282.981, 66.076
1284.191, 69.704
1285.401, 54.320
1286.610, 63.925
1287.820, 54.519
1289.029, 54.101
1290.239, 66.671
1291.448, 80.231
1292.656, 77.044
1293.865, 59.270
1295.073, 71.801
1296.282, 61.323
1297.490, 48.839
1298.698, 65.342
1299.906, 78.248
1301.113, 75.681
1302.320, 72.789
1303.528, 66.248
1304.735, 65.444
1305.942, 73.186
1307.148, 62.091
1308.355, 83.296
1309.561, 53.533
1310.767, 83.003
1311.973, 66.322
1313.179, 71.738
1314.384, 62.487
1315.590, 59.992
1316.795, 56.707
1318.000, 73.019
1319.205, 59.237
1320.410, 54.735
1321.614, 61.022
1322.819, 47.465
1324.023, 69.814
1325.227, 63.689
1326.431, 59.261
1327.634, 68.127
1328.838, 76.532
1330.041, 71.470
1331.244, 72.476
1332.447, 65.062
1333.650, 65.949
1334.852, 57.366
1336.055, 63.066
1337.257, 61.166
1338.459, 43.381
1339.661, 58.480
1340.862, 64.299
1342.064, 53.083
1343.265, 40.946
1344.466, 38.341
1345.667, 38.375
1346.868, 64.317
1348.068, 68.687
1349.269, 54.908
1350.469, 70.847
1351.669, 59.901
1352.869, 63.933
1354.069, 73.141
1355.268, 58.308
1356.468, 61.417
1357.667, 54.587
1358.866, 53.041
1360.065, 46.361
1361.263, 40.855
1362.462, 50.334
1363.660, 48.268
1364.858, 67.034
1366.056, 66.769
1367.254, 71.471
1368.451, 70.192
1369.649, 57.809
1370.846, 49.018
1372.043, 58.199
1373.240, 47.957
1374.436, 65.555
1375.633, 58.238
1376.829, 86.872
1378.025, 56.917
1379.221, 61.274
1380.417, 71.793
1381.613, 53.063
1382.808, 71.631
1384.003, 65.327
1385.199, 35.380
1386.393, 48.078
1387.588, 67.772
1388.783, 47.517
1389.977, 47.313
1391.171, 60.051
1392.365, 36.777
1393.559, 62.466
1394.753, 64.104
1395.946, 71.900
1397.140, 50.588
1398.333, 49.290
1399.526, 50.989
1400.719, 80.718
1401.911, 52.369
1403.104, 66.065
1404.296, 71.604
1405.488, 57.033
1406.680, 71.404
1407.872, 51.752
1409.063, 70.307
1410.255, 48.675
1411.446, 68.808
1412.637, 49.211
1413.828, 29.626
1415.018, 36.940
1416.209, 67.290
1417.399, 41.610
1418.589, 59.045
1419.779, 60.464
1420.969, 55.837
1422.159, 48.348
1423.348, 46.857
1424.537, 53.360
1425.726, 43.958
1426.915, 32.582
1428.104, 45.223
1429.293, 39.877
1430.481, 53.532
1431.669, 56.118
1432.857, 30.764
1434.045, 53.339
1435.233, 36.819
1436.420, 45.465
1437.608, 48.115
1438.795, 41.755
1439.982, 28.400
1441.169, 46.055
1442.355, 39.708
1443.542, 13.338
1444.728, 50.992
1445.914, 42.644
1447.100, 57.293
1448.286, 33.939
1449.472, 47.583
1450.657, 50.229
1451.842, 50.884
1453.027, 51.220
1454.212, 55.280
1455.397, 53.458
1456.581, 50.651
1457.766, 49.216
1458.950, 40.881
1460.134, 32.543
1461.318, 26.203
1462.501, 35.859
1463.685, 26.513
1464.868, 34.170
1466.051, 17.838
1467.234, 40.514
1468.417, 20.208
1469.600, 32.914
1470.782, 6.636
1471.965, 16.371
1473.147, 23.121
1474.329, 31.882
1475.510, 31.922
1476.692, 33.225
1477.873, 29.202
1479.055, 32.988
1480.236, 30.786
1481.416, 39.591
1482.597, 14.403
1483.778, 25.165
1484.958, 0.992
1486.138, 48.828
1487.318, 15.675
1488.498, 20.532
1489.678, 16.400
1490.857, 0.281
1492.037, 19.175
1493.216, 31.086
1494.395, 24.014
1495.574, 17.961
1496.752, 1.072
1497.931, 22.826
1499.109, 15.827
1500.287, 19.847
1501.465, 2.889
1502.643, 22.953
1503.820, 4.044
1504.998, 1.070
1506.175, 13.065
1507.352, 7.954
1508.529, 14.132
1509.706, 24.344
