##NAMES=Olmiite
##RRUFFID=R050177
##IDEAL CHEMISTRY=CaMn^2+^SiO_3_(OH)_2_
##LOCALITY=N'Chwaning II mine, Kuruman, South Africa
##OWNER=RRUFF
##SOURCE=Marcus Origlieri
##DESCRIPTION=Gray etched crystals
##STATUS=The identification of this mineral has been confirmed by X-ray diffraction and chemical analysis
##URL=rruff.info/R050177
##MEASURED CHEMISTRY=Ca_1.00_(Mn_0.98_Ca_0.02_)(Si_1.00_O_3_OH)(OH)
56.365, 0.000
57.765, 104.605
59.164, 31.661
60.563, 35.216
61.962, 136.653
63.360, 105.031
64.758, 53.195
66.157, 20.482
67.554, 5.281
68.952, 26.493
70.349, 42.627
71.747, 83.887
73.144, 231.093
74.540, 280.062
75.937, 370.629
77.333, 400.791
78.729, 500.990
80.125, 454.538
81.521, 398.185
82.916, 490.883
84.311, 794.684
85.706, 918.497
87.101, 937.217
88.496, 1101.760
89.890, 1230.054
91.284, 1354.041
92.678, 1464.377
94.071, 1581.905
95.465, 1636.704
96.858, 1773.037
98.251, 1999.825
99.644, 2183.183
101.036, 2581.916
102.428, 2922.037
103.820, 3362.520
105.212, 4016.344
106.604, 3983.491
107.995, 4548.167
109.387, 4824.161
110.777, 4686.071
112.168, 4307.260
113.559, 4284.585
114.949, 4220.052
116.339, 4563.664
117.729, 4822.427
119.119, 4824.342
120.508, 4177.416
121.897, 3424.647
123.286, 2657.042
124.675, 2160.600
126.063, 1721.324
127.452, 1504.214
128.840, 1453.271
130.228, 1412.494
131.615, 1430.883
133.003, 1272.439
134.390, 1312.160
135.777, 1359.046
137.164, 1329.095
138.550, 1131.307
139.937, 1110.652
141.323, 970.020
142.709, 899.388
144.094, 831.759
145.480, 920.103
146.865, 979.459
148.250, 970.867
149.635, 970.338
151.019, 1051.880
152.403, 1233.503
153.788, 1355.212
155.171, 1633.013
156.555, 1975.911
157.939, 2284.069
159.322, 2703.349
160.705, 3040.228
162.088, 3429.521
163.470, 3835.630
164.853, 3878.447
166.235, 3760.302
167.617, 3365.167
168.998, 3009.169
170.380, 2587.309
171.761, 2236.584
173.142, 2003.996
174.523, 1806.545
175.904, 1744.230
177.284, 1696.050
178.664, 1731.006
180.044, 1771.095
181.424, 1705.320
182.803, 1612.677
184.183, 1410.168
185.562, 1219.792
186.940, 1003.548
188.319, 985.435
189.698, 904.452
191.076, 908.598
192.454, 998.868
193.831, 1061.256
195.209, 1317.762
196.586, 1464.383
197.963, 1722.119
199.340, 1912.967
200.717, 2246.926
202.093, 2567.995
203.470, 2773.171
204.846, 2948.456
206.221, 2950.844
207.597, 2842.336
208.972, 2766.931
210.347, 2642.626
211.722, 2289.420
213.097, 2063.312
214.472, 1928.300
215.846, 1768.632
217.220, 1695.208
218.594, 1637.823
219.967, 1633.179
221.341, 1615.624
222.714, 1641.355
224.087, 1666.455
225.460, 1677.899
226.832, 1692.185
228.204, 1706.550
229.577, 1673.960
230.948, 1611.484
232.320, 1461.932
233.692, 1401.480
235.063, 1328.759
236.434, 1381.421
237.805, 1374.272
239.175, 1523.320
240.545, 1553.542
241.916, 1635.953
243.286, 1917.542
244.655, 1800.299
246.025, 1847.233
247.394, 1739.318
248.763, 1613.546
250.132, 1413.916
251.501, 995.433
252.869, 774.089
254.237, 748.890
255.605, 389.925
256.973, 359.891
258.340, 5.914
259.708, 169.598
261.075, 189.184
262.442, 228.673
263.808, 232.072
265.175, 251.386
266.541, 222.611
267.907, 184.757
269.273, 147.818
270.639, 156.782
272.004, 58.658
273.369, 47.431
274.734, 72.876
276.099, 75.287
277.463, 119.812
278.828, 135.449
280.192, 195.480
281.556, 346.007
282.919, 349.925
284.283, 449.939
285.646, 581.037
287.009, 654.237
288.372, 737.522
289.734, 817.901
291.097, 1062.352
292.459, 1153.874
293.821, 1370.460
295.183, 1498.129
296.544, 1656.884
297.905, 1819.725
299.266, 1777.650
300.627, 1670.657
301.988, 1497.750
303.348, 1196.919
304.709, 919.155
306.069, 671.473
307.428, 508.882
308.788, 432.373
310.147, 396.936
311.507, 381.574
312.865, 479.300
314.224, 517.083
315.583, 1052.940
316.941, 1182.855
318.299, 1395.588
319.657, 1566.897
321.015, 1839.002
322.372, 2010.158
323.729, 2376.303
325.086, 2776.419
326.443, 3279.487
327.800, 3814.547
329.156, 4351.618
330.512, 5017.731
331.868, 5318.888
333.224, 5794.089
334.579, 6100.334
335.935, 6204.623
337.290, 5847.954
338.645, 5611.327
339.999, 5032.739
341.354, 4507.191
342.708, 4032.684
344.062, 3418.215
345.416, 2896.782
346.769, 2378.386
348.123, 2038.027
349.476, 1656.702
350.829, 1410.413
352.182, 1239.156
353.534, 1030.932
354.887, 998.740
356.239, 975.579
357.591, 1001.448
358.942, 983.348
360.294, 1077.276
361.645, 1179.233
362.996, 1295.217
364.347, 1485.228
365.698, 1667.265
367.048, 1920.328
368.398, 2228.415
369.748, 2562.526
371.098, 2907.661
372.448, 3397.818
373.797, 3755.997
375.146, 3955.199
376.495, 4070.421
377.844, 4069.662
379.192, 3956.923
380.540, 3552.203
381.889, 3315.501
383.236, 2955.817
384.584, 2748.149
385.932, 2676.512
387.279, 2503.909
388.626, 2493.342
389.973, 2606.810
391.319, 2831.315
392.666, 2966.854
394.012, 3380.428
395.358, 3645.046
396.704, 3833.698
398.049, 4048.383
399.394, 4180.379
400.740, 4191.312
402.084, 4035.403
403.429, 3946.020
404.774, 3601.480
406.118, 3473.780
407.462, 3306.378
408.806, 3135.433
410.150, 3035.601
411.493, 3111.618
412.836, 3216.374
414.179, 3395.045
415.522, 3731.965
416.865, 3810.870
418.207, 4237.012
419.549, 4355.407
420.891, 4385.885
422.233, 4492.121
423.575, 4418.142
424.916, 4382.780
426.257, 4173.350
427.598, 4223.396
428.939, 4302.961
430.279, 4370.661
431.619, 4802.935
432.959, 4786.420
434.299, 5109.794
435.639, 5159.589
436.978, 5232.502
438.318, 4839.899
439.657, 4516.521
440.996, 3924.110
442.334, 3421.307
443.673, 2763.491
445.011, 2241.671
446.349, 1753.459
447.687, 1454.325
449.024, 1154.364
450.361, 919.105
451.699, 783.405
453.036, 530.955
454.372, 486.978
455.709, 390.881
457.045, 385.305
458.381, 272.938
459.717, 289.595
461.053, 287.589
462.388, 330.308
463.724, 386.986
465.059, 399.447
466.394, 560.022
467.728, 614.151
469.063, 825.627
470.397, 1354.021
471.731, 1345.311
473.065, 1945.173
474.398, 1665.470
475.732, 1842.344
477.065, 2113.641
478.398, 2174.581
479.731, 2337.398
481.063, 2472.156
482.396, 2612.917
483.728, 2714.753
485.060, 2800.984
486.391, 2847.407
487.723, 2951.802
489.054, 2933.737
490.385, 2945.415
491.716, 2855.802
493.047, 2561.074
494.377, 2405.116
495.708, 2051.525
497.038, 2083.703
498.368, 1980.847
499.697, 1950.959
501.027, 1957.038
502.356, 2082.083
503.685, 2409.095
505.014, 2602.071
506.342, 3106.014
507.671, 3539.921
508.999, 3993.793
510.327, 4478.631
511.655, 4999.431
512.982, 5161.195
514.310, 5073.925
515.637, 5019.615
516.964, 4667.270
518.291, 4474.885
519.617, 3927.466
520.944, 3581.008
522.270, 3304.511
523.596, 2857.975
524.921, 2637.402
526.247, 2460.788
527.572, 2215.136
528.897, 2123.445
530.222, 1910.713
531.547, 1732.942
532.871, 1559.131
534.196, 1457.279
535.520, 1229.387
536.844, 1081.455
538.167, 944.480
539.491, 892.465
540.814, 845.409
542.137, 804.311
543.460, 785.171
544.783, 671.990
546.105, 607.766
547.427, 499.500
548.749, 442.191
550.071, 379.840
551.393, 206.445
552.714, 232.006
554.035, 140.524
555.356, 107.998
556.677, 105.428
557.998, 75.814
559.318, 10.850
560.638, 43.401
561.958, 36.407
563.278, 33.315
564.597, 14.320
565.917, 66.414
567.236, 6.378
568.555, 23.092
569.874, 7.737
571.192, 35.695
572.511, 18.228
573.829, 53.851
575.147, 37.583
576.464, 9.417
577.782, 45.337
579.099, 16.362
580.416, 12.476
581.733, 19.658
583.050, 36.911
584.366, 22.236
585.683, 57.625
586.999, 17.093
588.315, 13.624
589.630, 51.221
590.946, 27.910
592.261, 46.676
593.576, 14.459
594.891, 72.474
596.206, 112.525
597.520, 116.714
598.834, 53.043
600.148, 47.478
601.462, 48.016
602.776, 64.657
604.089, 27.410
605.402, 93.253
606.715, 33.221
608.028, 77.283
609.341, 8.540
610.653, 3.292
611.965, 34.972
613.277, 52.405
614.589, 61.882
615.901, 66.464
617.212, 68.153
618.523, 58.947
619.834, 87.843
621.145, 40.853
622.456, 22.954
623.766, 74.134
625.076, 116.419
626.386, 75.831
627.696, 44.348
629.006, 60.952
630.315, 102.651
631.624, 0.466
632.933, 59.342
634.242, 4.309
635.551, 64.337
636.859, 48.457
638.167, 24.342
639.475, 3.906
640.783, 7.209
642.090, 31.569
643.398, 36.002
644.705, 28.533
646.012, 44.024
647.318, 110.475
648.625, 65.888
649.931, 96.263
651.237, 125.601
652.543, 127.901
653.849, 183.164
655.155, 184.391
656.460, 231.582
657.765, 295.737
659.070, 356.857
660.375, 328.942
661.679, 464.994
662.984, 499.011
664.288, 466.995
665.592, 572.946
666.895, 596.865
668.199, 703.752
669.502, 658.608
670.805, 720.433
672.108, 718.227
673.411, 772.990
674.713, 768.724
676.016, 725.428
677.318, 710.104
678.620, 678.750
679.921, 617.369
681.223, 591.960
682.524, 554.524
683.825, 464.062
685.126, 442.573
686.427, 450.059
687.727, 373.519
689.028, 332.955
690.328, 248.367
691.628, 185.755
692.927, 254.120
694.227, 227.463
695.526, 208.783
696.825, 186.083
698.124, 234.361
699.423, 222.618
700.721, 269.855
702.020, 296.584
703.318, 363.272
704.616, 377.452
705.913, 418.614
707.211, 489.758
708.508, 574.059
709.805, 802.996
711.102, 827.090
712.399, 998.169
713.695, 1201.232
714.992, 1263.000
716.288, 1512.843
717.584, 1565.540
718.879, 1782.722
720.175, 1777.073
721.470, 1833.596
722.765, 1968.830
724.060, 1932.617
725.355, 1911.302
726.649, 1853.144
727.944, 1801.260
729.238, 1763.466
730.532, 1631.434
731.825, 1558.964
733.119, 1427.187
734.412, 1340.700
735.705, 1202.043
736.998, 1076.643
738.291, 961.806
739.584, 875.902
740.876, 733.937
742.168, 643.770
743.460, 620.167
744.752, 504.806
746.043, 416.108
747.334, 399.899
748.626, 333.542
749.916, 275.000
751.207, 195.088
752.498, 151.703
753.788, 132.095
755.078, 144.530
756.368, 66.365
757.658, 67.219
758.947, 153.084
760.237, 76.346
761.526, 137.537
762.815, 170.562
764.104, 150.890
765.392, 222.667
766.680, 353.199
767.969, 386.264
769.257, 485.456
770.544, 724.135
771.832, 825.611
773.119, 1095.068
774.406, 1289.195
775.693, 1579.603
776.980, 1811.058
778.267, 2067.737
779.553, 2460.309
780.839, 2726.332
782.125, 3085.013
783.411, 3457.785
784.697, 3884.631
785.982, 4188.980
787.267, 4586.868
788.552, 5117.184
789.837, 5591.082
791.122, 5921.345
792.406, 6545.737
793.690, 6700.194
794.974, 7201.656
796.258, 7571.048
797.542, 7905.054
798.825, 8450.877
800.108, 8877.748
801.391, 9466.672
802.674, 9779.674
803.957, 10359.727
805.239, 10812.836
806.522, 11321.990
807.804, 12252.208
809.085, 12604.480
810.367, 13562.822
811.649, 13936.222
812.930, 13941.685
814.211, 13466.209
815.492, 12704.792
816.772, 11702.451
818.053, 10576.170
819.333, 9540.963
820.613, 8613.833
821.893, 7902.758
823.173, 7944.733
824.452, 7476.752
825.732, 7012.817
827.011, 6789.927
828.290, 6504.083
829.568, 6481.287
830.847, 6635.567
832.125, 6832.904
833.403, 7068.305
834.681, 7522.777
835.959, 7873.304
837.236, 8592.884
838.514, 9523.533
839.791, 10834.266
841.068, 12500.053
842.345, 14512.931
843.621, 17094.865
844.898, 20606.871
846.174, 24323.949
847.450, 28802.092
848.726, 34263.320
850.001, 38445.605
851.277, 42447.922
852.552, 44399.320
853.827, 44535.770
855.102, 43071.312
856.376, 39144.918
857.651, 34604.570
858.925, 30858.291
860.199, 26688.062
861.473, 22306.885
862.746, 18748.775
864.020, 15945.718
865.293, 13447.718
866.566, 11133.774
867.839, 9659.888
869.112, 8220.077
870.384, 6926.340
871.656, 6025.668
872.928, 5347.085
874.200, 4587.587
875.472, 4180.175
876.744, 3760.852
878.015, 3257.604
879.286, 3013.429
880.557, 2761.333
881.828, 2580.322
883.098, 2337.390
884.369, 2140.548
885.639, 2007.791
886.909, 1886.112
888.178, 1792.522
889.448, 1708.013
890.717, 1700.582
891.987, 1696.565
893.256, 1869.959
894.524, 1832.771
895.793, 2033.671
897.061, 2245.652
898.330, 2398.711
899.598, 2680.859
900.865, 2820.089
902.133, 2925.493
903.401, 3032.790
904.668, 3016.825
905.935, 2938.407
907.202, 2852.092
908.468, 2676.253
909.735, 2668.108
911.001, 2607.054
912.267, 2653.088
913.533, 2655.201
914.799, 2867.408
916.064, 3047.701
917.330, 3063.083
918.595, 3042.998
919.860, 2922.061
921.124, 2729.897
922.389, 2491.568
923.653, 2155.327
924.918, 1711.170
926.182, 1343.101
927.445, 1190.112
928.709, 995.216
929.972, 679.396
931.236, 665.650
932.499, 592.989
933.761, 546.424
935.024, 619.942
936.286, 686.535
937.549, 799.397
938.811, 1106.967
940.073, 1137.789
941.334, 1533.688
942.596, 1782.650
943.857, 2145.688
945.118, 2661.799
946.379, 3299.960
947.640, 3882.182
948.900, 4753.737
950.161, 5497.086
951.421, 7736.749
952.681, 8505.790
953.940, 9289.894
955.200, 7059.042
956.459, 5706.341
957.719, 4938.822
958.978, 4390.602
960.236, 3635.622
961.495, 3166.276
962.753, 2608.930
964.012, 2285.055
965.270, 1947.251
966.527, 1628.892
967.785, 1491.808
969.043, 1366.472
970.300, 1247.297
971.557, 1103.218
972.814, 1004.339
974.071, 838.299
975.327, 773.540
976.583, 704.817
977.840, 622.132
979.095, 505.631
980.351, 520.384
981.607, 325.508
982.862, 379.222
984.117, 333.366
985.372, 180.878
986.627, 231.258
987.882, 80.234
989.136, 150.047
990.390, 154.887
991.644, 75.290
992.898, 199.535
994.152, 171.633
995.405, 194.807
996.659, 180.939
997.912, 287.266
999.165, 316.689
1000.417, 301.038
1001.670, 431.350
1002.922, 350.527
1004.174, 491.756
1005.426, 433.503
1006.678, 466.747
1007.930, 519.440
1009.181, 526.971
1010.432, 549.664
1011.683, 493.806
1012.934, 487.957
1014.185, 516.062
1015.435, 416.769
1016.685, 445.319
1017.935, 434.717
1019.185, 390.651
1020.435, 482.452
1021.684, 413.268
1022.934, 282.964
1024.183, 306.459
1025.432, 197.659
1026.680, 117.382
1027.929, 176.801
1029.177, 139.603
1030.425, 104.993
1031.673, 70.381
1032.921, 96.264
1034.169, 77.399
1035.416, 102.403
1036.663, 82.807
1037.911, 91.317
1039.157, 61.767
1040.404, 70.640
1041.650, 96.430
1042.897, 81.425
1044.143, 131.433
1045.389, 46.378
1046.634, 141.676
1047.880, 104.204
1049.125, 125.023
1050.371, 53.465
1051.615, 131.349
1052.860, 46.208
1054.105, 40.808
1055.349, 90.478
1056.593, 17.382
1057.837, 30.360
1059.081, 14.262
1060.325, 11.198
1061.568, 51.018
1062.812, 61.998
1064.055, 324.615
1065.298, 354.617
1066.540, 416.618
1067.783, 239.480
1069.025, 47.533
1070.267, 18.414
1071.509, 52.506
1072.751, 5.220
1073.993, 65.503
1075.234, 105.394
1076.475, 125.106
1077.716, 149.338
1078.957, 177.297
1080.198, 181.875
1081.438, 226.784
1082.679, 280.421
1083.919, 308.906
1085.159, 276.414
1086.398, 290.043
1087.638, 262.233
1088.877, 404.818
1090.116, 304.616
1091.355, 277.245
1092.594, 264.654
1093.833, 175.985
1095.071, 75.103
1096.309, 62.943
1097.547, 8.883
1098.785, 30.431
1100.023, 75.073
1101.260, 60.767
1102.498, 158.042
1103.735, 74.944
1104.972, 56.913
1106.208, 38.834
1107.445, 77.035
1108.681, 77.909
1109.918, 101.033
1111.154, 49.512
1112.389, 86.878
1113.625, 69.277
1114.860, 57.629
1116.096, 107.082
1117.331, 68.500
1118.566, 100.286
1119.800, 105.110
1121.035, 30.206
1122.269, 3.519
1123.503, 73.430
1124.737, 80.664
1125.971, 196.101
1127.205, 47.902
1128.438, 22.603
1129.671, 82.590
1130.904, 9.919
1132.137, 30.335
1133.370, 49.812
1134.602, 2.358
1135.834, 11.729
1137.066, 31.880
1138.298, 77.925
1139.530, 5.072
1140.762, 96.015
1141.993, 4.013
1143.224, 27.007
1144.455, 40.251
1145.686, 9.506
1146.917, 40.960
1148.147, 10.374
1149.377, 72.745
1150.607, 17.780
1151.837, 19.022
1153.067, 52.783
1154.296, 4.853
1155.526, 67.193
1156.755, 43.905
1157.984, 74.690
1159.213, 60.500
1160.441, 63.273
1161.670, 67.777
1162.898, 52.012
1164.126, 124.178
1165.354, 66.453
1166.581, 10.649
1167.809, 100.758
1169.036, 103.718
1170.263, 40.821
1171.490, 76.708
1172.717, 57.445
1173.943, 140.185
1175.170, 87.665
1176.396, 76.221
1177.622, 60.728
1178.848, 96.976
1180.073, 136.194
1181.299, 116.114
1182.524, 129.291
1183.749, 100.055
1184.974, 110.744
1186.199, 109.358
1187.423, 158.961
1188.648, 182.429
1189.872, 149.826
1191.096, 151.151
1192.320, 161.405
1193.543, 131.587
1194.767, 140.771
1195.990, 135.960
1197.213, 138.253
1198.436, 182.228
1199.659, 190.394
1200.881, 173.249
1202.104, 145.521
1203.326, 185.335
1204.548, 151.155
1205.770, 250.791
1206.991, 117.303
1208.213, 205.626
1209.434, 183.454
1210.655, 255.001
1211.876, 119.959
1213.096, 184.527
1214.317, 201.954
1215.537, 121.211
1216.757, 180.425
1217.977, 196.288
1219.197, 228.643
1220.417, 164.079
1221.636, 202.085
1222.855, 229.908
1224.074, 201.999
1225.293, 238.295
1226.512, 176.340
1227.731, 202.218
1228.949, 245.136
1230.167, 279.150
1231.385, 272.440
1232.603, 248.426
1233.820, 351.282
1235.038, 254.161
1236.255, 222.713
1237.472, 243.585
1238.689, 293.430
1239.906, 309.224
1241.122, 356.708
1242.338, 218.581
1243.555, 189.931
1244.771, 304.040
1245.986, 259.008
1247.202, 291.417
1248.417, 219.844
1249.633, 297.231
1250.848, 296.218
1252.063, 271.534
1253.277, 325.552
1254.492, 239.273
1255.706, 270.890
1256.920, 330.644
1258.134, 287.412
1259.348, 271.989
1260.562, 240.162
1261.775, 245.293
1262.988, 217.767
1264.201, 274.187
1265.414, 254.647
1266.627, 289.302
1267.839, 315.829
1269.052, 259.951
1270.264, 307.555
1271.476, 221.083
1272.688, 258.592
1273.899, 273.018
1275.111, 237.004
1276.322, 239.385
1277.533, 243.390
1278.744, 236.731
1279.955, 295.652
1281.165, 231.701
1282.376, 212.265
1283.586, 292.820
1284.796, 285.357
1286.006, 217.186
1287.215, 188.180
1288.425, 183.754
1289.634, 210.108
1290.843, 184.914
1292.052, 210.534
1293.261, 232.958
1294.469, 204.556
1295.678, 272.119
1296.886, 203.697
1298.094, 196.292
1299.302, 297.492
1300.509, 135.938
1301.717, 242.773
1302.924, 197.567
1304.131, 198.342
1305.338, 180.823
1306.545, 229.155
1307.752, 277.261
1308.958, 275.701
1310.164, 235.365
1311.370, 237.281
1312.576, 233.233
1313.782, 253.409
1314.987, 203.442
1316.193, 233.383
1317.398, 251.845
1318.603, 231.163
1319.807, 277.046
1321.012, 241.213
1322.216, 233.885
1323.421, 274.877
1324.625, 263.649
1325.829, 237.013
1327.032, 341.004
1328.236, 340.885
1329.439, 417.323
1330.642, 355.736
1331.845, 302.958
1333.048, 340.742
1334.251, 387.606
1335.453, 385.310
1336.656, 378.140
1337.858, 350.749
1339.060, 322.772
1340.261, 257.728
1341.463, 232.761
1342.664, 289.461
1343.866, 225.666
1345.067, 281.695
1346.267, 268.456
1347.468, 252.831
1348.669, 232.835
1349.869, 164.063
1351.069, 267.844
1352.269, 99.404
1353.469, 151.809
1354.668, 198.965
1355.868, 113.397
1357.067, 152.422
1358.266, 166.298
1359.465, 187.349
1360.664, 174.213
1361.862, 178.537
1363.061, 120.274
1364.259, 99.970
1365.457, 50.967
1366.655, 15.301
1367.852, 111.718
1369.050, 80.834
1370.247, 96.104
1371.444, 104.754
1372.641, 14.372
1373.838, 73.643
1375.035, 48.707
1376.231, 36.437
1377.427, 64.144
1378.623, 56.048
1379.819, 73.421
1381.015, 7.446
1382.211, 11.076
1383.406, 38.223
1384.601, 49.805
1385.796, 25.733
1386.991, 46.867
1388.185, 28.586
1389.380, 60.589
1390.574, 20.860
1391.768, 44.554
1392.962, 41.155
1394.156, 63.560
1395.350, 29.627
1396.543, 132.718
1397.736, 31.163
1398.929, 22.728
1400.122, 132.940
1401.315, 122.021
1402.507, 81.763
1403.700, 118.516
1404.892, 79.503
1406.084, 91.326
1407.276, 162.203
1408.467, 109.490
1409.659, 177.928
1410.850, 101.656
1412.041, 128.533
1413.232, 176.956
1414.423, 177.464
1415.614, 164.096
1416.804, 131.312
1417.994, 167.137
1419.184, 213.924
1420.374, 154.443
1421.564, 200.836
1422.753, 204.355
1423.943, 195.966
1425.132, 160.335
1426.321, 192.057
1427.510, 180.846
1428.698, 207.093
1429.887, 196.217
1431.075, 200.395
1432.263, 231.531
1433.451, 240.701
1434.639, 228.697
1435.827, 285.121
1437.014, 208.636
1438.201, 214.708
1439.388, 232.393
1440.575, 203.498
1441.762, 161.071
1442.949, 210.890
1444.135, 288.993
1445.321, 274.489
1446.507, 238.615
1447.693, 192.182
1448.879, 184.847
1450.064, 248.241
1451.250, 240.434
1452.435, 173.083
1453.620, 131.271
1454.805, 270.156
1455.989, 159.889
1457.174, 167.858
1458.358, 253.478
1459.542, 78.357
1460.726, 110.815
1461.910, 187.868
1463.093, 101.128
1464.277, 111.002
1465.460, 113.849
1466.643, 146.955
1467.826, 108.397
1469.009, 118.666
1470.191, 168.117
1471.373, 116.762
1472.556, 145.147
1473.738, 160.272
1474.919, 138.021
1476.101, 118.994
1477.283, 88.915
1478.464, 113.930
1479.645, 30.021
1480.826, 119.324
1482.007, 171.136
1483.187, 75.637
1484.368, 163.783
1485.548, 88.842
1486.728, 115.058
1487.908, 167.893
1489.088, 190.012
