##NAMES=Olmiite
##RRUFFID=R050177
##IDEAL CHEMISTRY=CaMn^2+^SiO_3_(OH)_2_
##LOCALITY=N'Chwaning II mine, Kuruman, South Africa
##OWNER=RRUFF
##SOURCE=Marcus Origlieri
##DESCRIPTION=Gray etched crystals
##STATUS=The identification of this mineral has been confirmed by X-ray diffraction and chemical analysis
##URL=rruff.info/R050177
##MEASURED CHEMISTRY=Ca_1.00_(Mn_0.98_Ca_0.02_)(Si_1.00_O_3_OH)(OH)
56.365, 0.000
57.765, 11.562
59.164, 499.100
60.563, 298.150
61.962, 110.731
63.360, 82.215
64.758, 70.373
66.157, 8.716
67.554, 13.049
68.952, 34.203
70.349, 4.005
71.747, 59.317
73.144, 131.564
74.540, 204.568
75.937, 359.184
77.333, 511.283
78.729, 511.749
80.125, 580.471
81.521, 834.348
82.916, 1227.299
84.311, 1856.259
85.706, 2369.154
87.101, 2902.918
88.496, 3481.507
89.890, 4221.895
91.284, 4602.029
92.678, 4069.873
94.071, 3042.387
95.465, 2280.539
96.858, 1763.300
98.251, 1478.644
99.644, 1512.529
101.036, 1663.909
102.428, 1807.745
103.820, 1917.006
105.212, 2109.668
106.604, 2425.712
107.995, 2775.165
109.387, 3012.151
110.777, 3423.469
112.168, 3933.102
113.559, 4634.041
114.949, 5349.284
116.339, 6226.823
117.729, 7069.654
119.119, 7316.824
120.508, 6397.556
121.897, 4842.583
123.286, 3516.866
124.675, 2874.403
126.063, 2461.192
127.452, 2352.230
128.840, 2535.514
130.228, 2634.044
131.615, 2443.817
133.003, 1925.828
134.390, 1443.076
135.777, 1017.558
137.164, 851.270
138.550, 663.208
139.937, 697.323
141.323, 622.462
142.709, 691.630
144.094, 722.827
145.480, 827.047
146.865, 860.288
148.250, 990.600
149.635, 987.996
151.019, 993.483
152.403, 1060.069
153.788, 1049.760
155.171, 1304.563
156.555, 1493.483
157.939, 1834.524
159.322, 2097.461
160.705, 2478.294
162.088, 2677.123
163.470, 2723.586
164.853, 2406.190
166.235, 2026.937
167.617, 1594.827
168.998, 1244.864
170.380, 984.050
171.761, 899.386
173.142, 784.872
174.523, 714.510
175.904, 779.299
177.284, 713.240
178.664, 671.333
180.044, 557.578
181.424, 466.097
182.803, 332.734
184.183, 195.400
185.562, 124.089
186.940, 147.931
188.319, 192.926
189.698, 208.073
191.076, 257.369
192.454, 386.815
193.831, 528.408
195.209, 773.145
196.586, 1127.026
197.963, 1487.049
199.340, 1859.211
200.717, 2323.510
202.093, 2815.945
203.470, 3161.512
204.846, 3325.208
206.221, 3296.033
207.597, 3008.982
208.972, 2899.056
210.347, 2866.252
211.722, 2740.568
213.097, 2735.002
214.472, 2754.551
215.846, 2567.215
217.220, 2211.991
218.594, 1852.876
219.967, 1547.870
221.341, 1339.970
222.714, 1161.030
224.087, 1140.953
225.460, 1230.011
226.832, 1126.544
228.204, 1142.183
229.577, 1100.220
230.948, 1003.606
232.320, 1016.525
233.692, 986.224
235.063, 1166.601
236.434, 1295.842
237.805, 1538.363
239.175, 1984.083
240.545, 2430.991
241.916, 2852.085
243.286, 3398.357
244.655, 3684.804
246.025, 3882.420
247.394, 3765.212
248.763, 3456.166
250.132, 2769.282
251.501, 2043.577
252.869, 1496.023
254.237, 908.628
255.605, 585.384
256.973, 262.295
258.340, 71.351
259.708, 14.440
261.075, 113.088
262.442, 124.594
263.808, 83.966
265.175, 35.202
266.541, 54.708
267.907, 123.761
269.273, 225.955
270.639, 191.284
272.004, 267.747
273.369, 218.341
274.734, 269.069
276.099, 173.922
277.463, 214.914
278.828, 239.046
280.192, 259.319
281.556, 318.720
282.919, 324.243
284.283, 384.902
285.646, 444.679
287.009, 419.592
288.372, 347.589
289.734, 387.688
291.097, 385.887
292.459, 346.195
293.821, 367.623
295.183, 331.372
296.544, 319.816
297.905, 286.573
299.266, 209.446
300.627, 197.431
301.988, 33.518
303.348, 76.291
304.709, 133.012
306.069, 187.651
307.428, 153.205
308.788, 104.681
310.147, 68.072
311.507, 73.629
312.865, 208.427
314.224, 317.303
315.583, 533.279
316.941, 685.350
318.299, 1037.499
319.657, 1274.735
321.015, 1645.044
322.372, 2056.428
323.729, 2431.859
325.086, 2997.339
326.443, 3395.878
327.800, 3969.482
329.156, 4346.148
330.512, 4770.880
331.868, 4895.666
333.224, 5191.500
334.579, 5068.387
335.935, 4950.321
337.290, 4396.306
338.645, 4081.336
339.999, 3476.413
341.354, 3191.535
342.708, 2606.703
344.062, 2292.913
345.416, 1986.148
346.769, 1692.386
348.123, 1401.651
349.476, 1221.957
350.829, 979.302
352.182, 970.686
353.534, 867.108
354.887, 911.567
356.239, 1034.062
357.591, 1107.593
358.942, 1223.157
360.294, 1485.755
361.645, 1725.385
362.996, 2059.046
364.347, 2462.739
365.698, 3081.461
367.048, 3742.212
368.398, 4635.990
369.748, 5608.796
371.098, 6586.628
372.448, 7628.486
373.797, 8561.372
375.146, 9172.279
376.495, 9192.206
377.844, 9010.160
379.192, 8363.132
380.540, 7320.126
381.889, 6570.142
383.236, 5545.175
384.584, 4874.227
385.932, 4345.321
387.279, 4101.458
388.626, 3925.639
389.973, 3999.857
391.319, 4385.118
392.666, 4533.420
394.012, 5126.760
395.358, 5338.142
396.704, 5778.565
398.049, 5942.031
399.394, 5926.532
400.740, 5753.569
402.084, 5288.132
403.429, 4871.654
404.774, 4326.059
406.118, 3862.209
407.462, 3520.514
408.806, 3153.323
410.150, 2866.800
411.493, 2834.699
412.836, 2668.086
414.179, 2725.930
415.522, 2714.229
416.865, 2713.395
418.207, 2773.253
419.549, 2804.046
420.891, 2730.790
422.233, 2751.607
423.575, 2635.832
424.916, 2597.575
426.257, 2376.524
427.598, 2557.352
428.939, 2692.897
430.279, 2852.349
431.619, 3159.019
432.959, 3178.791
434.299, 3297.105
435.639, 3291.909
436.978, 3170.944
438.318, 2847.800
439.657, 2499.966
440.996, 1998.011
442.334, 1639.051
443.673, 1378.222
445.011, 1039.860
446.349, 805.751
447.687, 706.624
449.024, 539.432
450.361, 433.655
451.699, 368.586
453.036, 280.190
454.372, 262.283
455.709, 224.166
457.045, 277.224
458.381, 252.642
459.717, 297.877
461.053, 265.548
462.388, 376.402
463.724, 444.765
465.059, 483.597
466.394, 672.012
467.728, 793.677
469.063, 991.359
470.397, 1255.628
471.731, 1474.632
473.065, 1769.829
474.398, 2058.230
475.732, 2182.256
477.065, 2480.444
478.398, 2579.159
479.731, 2671.559
481.063, 2847.747
482.396, 2975.177
483.728, 3195.878
485.060, 3350.419
486.391, 3385.467
487.723, 3363.001
489.054, 3233.361
490.385, 3060.904
491.716, 2854.848
493.047, 2684.750
494.377, 2567.610
495.708, 2493.714
497.038, 2396.199
498.368, 2504.927
499.697, 2592.611
501.027, 2761.250
502.356, 3151.845
503.685, 3717.393
505.014, 4336.896
506.342, 5057.351
507.671, 5893.761
508.999, 6834.124
510.327, 7650.439
511.655, 8254.708
512.982, 8381.928
514.310, 8321.102
515.637, 7820.223
516.964, 7251.298
518.291, 6486.322
519.617, 5741.298
520.944, 5203.225
522.270, 4925.100
523.596, 4460.926
524.921, 4470.701
526.247, 4351.425
527.572, 4219.097
528.897, 4085.719
530.222, 3953.288
531.547, 3668.805
532.871, 3245.270
534.196, 2892.682
535.520, 2420.043
536.844, 2064.350
538.167, 1810.603
539.491, 1487.804
540.814, 1326.951
542.137, 1126.045
543.460, 959.084
544.783, 834.069
546.105, 682.001
547.427, 590.877
548.749, 548.698
550.071, 458.465
551.393, 407.175
552.714, 335.830
554.035, 274.429
555.356, 267.972
556.677, 165.458
557.998, 147.888
559.318, 90.260
560.638, 127.568
561.958, 77.817
563.278, 82.997
564.597, 63.109
565.917, 60.146
567.236, 10.107
568.555, 57.970
569.874, 9.755
571.192, 45.559
572.511, 29.999
573.829, 11.532
575.147, 6.826
576.464, 19.917
577.782, 2.775
579.099, 33.740
580.416, 20.827
581.733, 51.029
583.050, 31.354
584.366, 37.792
585.683, 72.349
586.999, 63.047
588.315, 61.882
589.630, 49.853
590.946, 51.954
592.261, 45.186
593.576, 69.544
594.891, 42.041
596.206, 103.663
597.520, 109.441
598.834, 124.377
600.148, 77.479
601.462, 64.723
602.776, 121.099
604.089, 62.638
605.402, 143.308
606.715, 64.849
608.028, 24.241
609.341, 21.083
610.653, 65.208
611.965, 106.463
613.277, 88.866
614.589, 93.408
615.901, 69.091
617.212, 115.900
618.523, 108.858
619.834, 81.962
621.145, 92.196
622.456, 53.564
623.766, 52.039
625.076, 96.615
626.386, 53.307
627.696, 63.095
629.006, 81.989
630.315, 89.999
631.624, 16.132
632.933, 108.350
634.242, 97.698
635.551, 29.169
636.859, 74.726
638.167, 26.391
639.475, 33.138
640.783, 8.031
642.090, 24.859
643.398, 3.824
644.705, 14.852
646.012, 14.947
647.318, 37.107
648.625, 42.658
649.931, 73.377
651.237, 16.051
652.543, 89.680
653.849, 80.265
655.155, 134.807
656.460, 188.306
657.765, 226.763
659.070, 286.698
660.375, 345.644
661.679, 387.887
662.984, 476.183
664.288, 511.439
665.592, 577.657
666.895, 607.838
668.199, 633.981
669.502, 598.089
670.805, 723.160
672.108, 668.197
673.411, 737.198
674.713, 706.166
676.016, 643.100
677.318, 683.001
678.620, 649.870
679.921, 574.707
681.223, 551.514
682.524, 515.291
683.825, 413.038
685.126, 363.756
686.427, 323.698
687.727, 395.109
689.028, 287.745
690.328, 293.355
691.628, 349.939
692.927, 310.499
694.227, 244.035
695.526, 360.547
696.825, 215.037
698.124, 401.505
699.423, 321.951
700.721, 451.377
702.020, 457.782
703.318, 550.169
704.616, 643.536
705.913, 693.885
707.211, 777.217
708.508, 1012.532
709.805, 1185.830
711.102, 1370.114
712.399, 1572.382
713.695, 1873.636
714.992, 2074.877
716.288, 2355.599
717.584, 2681.814
718.879, 2914.090
720.175, 3063.499
721.470, 3421.184
722.765, 3659.729
724.060, 3970.786
725.355, 4038.194
726.649, 4092.196
727.944, 4043.724
729.238, 3858.812
730.532, 3540.461
731.825, 2989.258
733.119, 2682.376
734.412, 2318.575
735.705, 1971.838
736.998, 1732.922
738.291, 1526.126
739.584, 1295.584
740.876, 1145.660
742.168, 1036.592
743.460, 898.139
744.752, 758.794
746.043, 666.243
747.334, 569.604
748.626, 495.438
749.916, 404.549
751.207, 334.145
752.498, 243.266
753.788, 220.302
755.078, 153.470
756.368, 164.659
757.658, 188.732
758.947, 243.352
760.237, 231.731
761.526, 245.142
762.815, 259.631
764.104, 378.719
765.392, 439.111
766.680, 509.845
767.969, 671.103
769.257, 823.583
770.544, 1098.903
771.832, 1173.878
773.119, 1554.047
774.406, 1744.795
775.693, 2079.374
776.980, 2459.457
778.267, 2691.116
779.553, 3187.025
780.839, 3707.296
782.125, 4146.445
783.411, 4725.143
784.697, 5370.824
785.982, 5946.173
787.267, 6795.334
788.552, 7515.886
789.837, 8248.286
791.122, 8671.177
792.406, 9509.398
793.690, 9810.848
794.974, 10122.074
796.258, 10605.069
797.542, 10725.250
798.825, 11286.955
800.108, 11677.214
801.391, 12441.667
802.674, 12677.982
803.957, 13624.927
805.239, 14414.959
806.522, 15286.064
807.804, 16976.268
809.085, 17862.566
810.367, 19574.963
811.649, 20400.459
812.930, 20527.051
814.211, 20124.727
815.492, 18735.506
816.772, 16754.375
818.053, 14979.338
819.333, 13003.376
820.613, 11673.512
821.893, 10385.735
823.173, 9584.022
824.452, 9000.381
825.732, 8488.802
827.011, 8176.482
828.290, 8008.848
829.568, 7939.500
830.847, 8078.247
832.125, 8244.076
833.403, 8730.005
834.681, 9232.020
835.959, 9692.128
837.236, 10703.328
838.514, 11754.618
839.791, 13373.996
841.068, 15491.465
842.345, 18201.029
843.621, 21391.686
844.898, 25891.443
846.174, 30837.287
847.450, 36483.230
848.726, 43146.250
850.001, 48133.340
851.277, 51824.531
852.552, 53059.812
853.827, 51995.156
855.102, 48498.594
856.376, 42876.117
857.651, 37475.715
858.925, 32429.416
860.199, 27682.184
861.473, 23537.469
862.746, 19483.975
864.020, 16432.988
865.293, 14031.099
866.566, 11666.288
867.839, 10252.562
869.112, 8620.921
870.384, 7562.372
871.656, 6532.912
872.928, 5811.548
874.200, 5061.275
875.472, 4539.095
876.744, 4130.002
878.015, 3676.016
879.286, 3322.133
880.557, 3009.352
881.828, 2866.689
883.098, 2632.124
884.369, 2464.669
885.639, 2203.317
886.909, 2159.083
888.178, 2079.955
889.448, 1969.939
890.717, 1995.038
891.987, 2038.199
893.256, 2104.588
894.524, 2330.035
895.793, 2547.606
897.061, 2890.297
898.330, 3184.108
899.598, 3564.039
900.865, 3858.088
902.133, 4220.253
903.401, 4212.542
904.668, 4259.945
905.935, 4115.479
907.202, 3994.146
908.468, 3870.015
909.735, 3914.195
911.001, 4057.237
912.267, 4275.412
913.533, 4477.699
914.799, 4698.125
916.064, 5125.638
917.330, 5464.256
918.595, 5531.977
919.860, 5315.814
921.124, 5048.776
922.389, 4583.859
923.653, 3831.061
924.918, 3203.379
926.182, 2456.825
927.445, 2038.391
928.709, 1623.073
929.972, 1366.873
931.236, 1171.862
932.499, 1106.873
933.761, 1118.109
935.024, 1297.229
936.286, 1430.562
937.549, 1757.004
938.811, 2147.556
940.073, 2481.197
941.334, 3126.952
942.596, 3620.817
943.857, 4568.771
945.118, 5682.830
946.379, 6828.438
947.640, 8243.515
948.900, 9997.256
950.161, 12039.987
951.421, 13538.714
952.681, 14502.819
953.940, 14702.001
955.200, 13957.472
956.459, 12500.409
957.719, 10728.142
958.978, 9107.056
960.236, 7513.431
961.495, 6238.396
962.753, 5138.534
964.012, 4216.481
965.270, 3507.005
966.527, 2950.699
967.785, 2571.516
969.043, 2267.934
970.300, 1987.368
971.557, 1768.814
972.814, 1593.002
974.071, 1461.220
975.327, 1226.895
976.583, 1155.624
977.840, 978.407
979.095, 988.814
980.351, 851.067
981.607, 692.905
982.862, 809.494
984.117, 634.809
985.372, 613.881
986.627, 601.300
987.882, 508.115
989.136, 629.596
990.390, 558.668
991.644, 567.904
992.898, 708.315
994.152, 740.956
995.405, 775.108
996.659, 878.131
997.912, 880.828
999.165, 958.097
1000.417, 1075.226
1001.670, 1095.768
1002.922, 1122.783
1004.174, 1204.692
1005.426, 1090.573
1006.678, 1099.833
1007.930, 976.214
1009.181, 925.517
1010.432, 914.306
1011.683, 754.446
1012.934, 735.521
1014.185, 692.393
1015.435, 684.125
1016.685, 645.783
1017.935, 606.362
1019.185, 510.053
1020.435, 517.433
1021.684, 478.015
1022.934, 328.637
1024.183, 268.217
1025.432, 359.479
1026.680, 270.222
1027.929, 264.236
1029.177, 192.218
1030.425, 283.538
1031.673, 242.966
1032.921, 248.542
1034.169, 232.059
1035.416, 267.642
1036.663, 247.430
1037.911, 289.937
1039.157, 225.964
1040.404, 212.145
1041.650, 139.852
1042.897, 168.244
1044.143, 188.518
1045.389, 131.078
1046.634, 129.210
1047.880, 147.439
1049.125, 99.198
1050.371, 92.693
1051.615, 66.293
1052.860, 62.931
1054.105, 69.360
1055.349, 111.846
1056.593, 74.335
1057.837, 5.302
1059.081, 24.321
1060.325, 16.218
1061.568, 72.982
1062.812, 28.056
1064.055, 44.971
1065.298, 111.393
1066.540, 73.441
1067.783, 94.496
1069.025, 84.875
1070.267, 54.645
1071.509, 36.054
1072.751, 24.162
1073.993, 20.399
1075.234, 46.771
1076.475, 85.712
1077.716, 11.647
1078.957, 45.043
1080.198, 4.940
1081.438, 87.832
1082.679, 114.632
1083.919, 44.166
1085.159, 74.966
1086.398, 37.381
1087.638, 40.846
1088.877, 26.547
1090.116, 32.398
1091.355, 59.916
1092.594, 53.224
1093.833, 13.852
1095.071, 50.474
1096.309, 122.146
1097.547, 46.576
1098.785, 107.321
1100.023, 103.015
1101.260, 44.872
1102.498, 136.360
1103.735, 67.525
1104.972, 123.917
1106.208, 64.683
1107.445, 163.078
1108.681, 150.515
1109.918, 139.991
1111.154, 131.950
1112.389, 154.698
1113.625, 89.531
1114.860, 104.465
1116.096, 150.543
1117.331, 60.959
1118.566, 41.465
1119.800, 118.091
1121.035, 62.716
1122.269, 8.505
1123.503, 90.032
1124.737, 67.381
1125.971, 138.207
1127.205, 18.286
1128.438, 59.472
1129.671, 81.463
1130.904, 10.545
1132.137, 82.676
1133.370, 11.980
1134.602, 62.190
1135.834, 33.608
1137.066, 25.315
1138.298, 15.837
1139.530, 31.478
1140.762, 31.409
1141.993, 32.261
1143.224, 37.651
1144.455, 16.931
1145.686, 9.057
1146.917, 37.373
1148.147, 22.982
1149.377, 38.313
1150.607, 31.556
1151.837, 61.737
1153.067, 20.786
1154.296, 16.622
1155.526, 95.709
1156.755, 41.417
1157.984, 56.738
1159.213, 79.263
1160.441, 85.658
1161.670, 65.129
1162.898, 47.221
1164.126, 78.430
1165.354, 84.513
1166.581, 57.328
1167.809, 68.289
1169.036, 66.139
1170.263, 44.714
1171.490, 103.250
1172.717, 84.420
1173.943, 160.529
1175.170, 98.732
1176.396, 49.656
1177.622, 133.690
1178.848, 132.396
1180.073, 129.015
1181.299, 135.545
1182.524, 135.987
1183.749, 95.338
1184.974, 146.590
1186.199, 181.751
1187.423, 123.828
1188.648, 146.808
1189.872, 166.697
1191.096, 177.498
1192.320, 163.209
1193.543, 195.828
1194.767, 191.358
1195.990, 161.798
1197.213, 179.143
1198.436, 175.610
1199.659, 176.082
1200.881, 191.180
1202.104, 190.333
1203.326, 192.531
1204.548, 203.807
1205.770, 243.962
1206.991, 195.873
1208.213, 288.881
1209.434, 238.792
1210.655, 259.672
1211.876, 211.344
1213.096, 247.278
1214.317, 247.904
1215.537, 220.415
1216.757, 294.283
1217.977, 221.444
1219.197, 248.754
1220.417, 238.120
1221.636, 228.735
1222.855, 271.516
1224.074, 272.336
1225.293, 231.407
1226.512, 265.475
1227.731, 294.679
1228.949, 293.329
1230.167, 347.062
1231.385, 294.389
1232.603, 371.344
1233.820, 355.876
1235.038, 304.741
1236.255, 287.344
1237.472, 334.680
1238.689, 381.108
1239.906, 313.837
1241.122, 306.895
1242.338, 361.387
1243.555, 302.764
1244.771, 347.983
1245.986, 320.000
1247.202, 338.320
1248.417, 277.878
1249.633, 372.688
1250.848, 411.525
1252.063, 271.467
1253.277, 368.427
1254.492, 343.163
1255.706, 318.362
1256.920, 228.144
1258.134, 319.042
1259.348, 302.214
1260.562, 301.238
1261.775, 307.489
1262.988, 350.320
1264.201, 349.156
1265.414, 358.321
1266.627, 323.283
1267.839, 335.090
1269.052, 248.848
1270.264, 204.831
1271.476, 271.780
1272.688, 321.839
1273.899, 269.493
1275.111, 296.997
1276.322, 285.562
1277.533, 276.226
1278.744, 283.237
1279.955, 238.349
1281.165, 256.133
1282.376, 297.639
1283.586, 227.246
1284.796, 230.227
1286.006, 271.107
1287.215, 303.958
1288.425, 241.270
1289.634, 264.160
1290.843, 200.020
1292.052, 278.322
1293.261, 215.864
1294.469, 259.509
1295.678, 259.921
1296.886, 252.599
1298.094, 265.335
1299.302, 291.054
1300.509, 205.348
1301.717, 278.471
1302.924, 347.617
1304.131, 277.394
1305.338, 288.583
1306.545, 250.970
1307.752, 319.405
1308.958, 266.882
1310.164, 275.280
1311.370, 317.781
1312.576, 258.011
1313.782, 260.497
1314.987, 301.917
1316.193, 283.157
1317.398, 384.500
1318.603, 339.695
1319.807, 297.546
1321.012, 340.979
1322.216, 285.316
1323.421, 386.271
1324.625, 382.191
1325.829, 401.837
1327.032, 475.672
1328.236, 549.041
1329.439, 557.501
1330.642, 549.860
1331.845, 495.837
1333.048, 572.323
1334.251, 552.863
1335.453, 540.375
1336.656, 432.563
1337.858, 468.501
1339.060, 393.688
1340.261, 347.875
1341.463, 376.284
1342.664, 306.007
1343.866, 261.666
1345.067, 262.999
1346.267, 275.583
1347.468, 241.247
1348.669, 198.511
1349.869, 187.752
1351.069, 177.358
1352.269, 191.474
1353.469, 192.507
1354.668, 176.789
1355.868, 203.265
1357.067, 132.189
1358.266, 166.142
1359.465, 62.996
1360.664, 102.436
1361.862, 72.949
1363.061, 57.165
1364.259, 127.685
1365.457, 89.062
1366.655, 68.032
1367.852, 166.335
1369.050, 9.569
1370.247, 99.218
1371.444, 71.206
1372.641, 10.253
1373.838, 35.164
1375.035, 48.241
1376.231, 62.828
1377.427, 86.672
1378.623, 54.347
1379.819, 17.590
1381.015, 74.538
1382.211, 58.666
1383.406, 12.140
1384.601, 68.585
1385.796, 67.127
1386.991, 41.879
1388.185, 72.269
1389.380, 1.553
1390.574, 61.147
1391.768, 95.685
1392.962, 60.409
1394.156, 37.445
1395.350, 63.779
1396.543, 78.735
1397.736, 79.990
1398.929, 84.996
1400.122, 62.808
1401.315, 72.896
1402.507, 75.652
1403.700, 71.214
1404.892, 35.726
1406.084, 54.118
1407.276, 92.704
1408.467, 89.837
1409.659, 181.575
1410.850, 119.035
1412.041, 115.399
1413.232, 182.713
1414.423, 169.163
1415.614, 121.788
1416.804, 79.015
1417.994, 124.934
1419.184, 200.337
1420.374, 229.951
1421.564, 201.570
1422.753, 243.768
1423.943, 212.337
1425.132, 175.483
1426.321, 236.315
1427.510, 240.114
1428.698, 197.199
1429.887, 153.244
1431.075, 232.265
1432.263, 187.025
1433.451, 222.970
1434.639, 178.114
1435.827, 240.995
1437.014, 223.745
1438.201, 157.824
1439.388, 316.846
1440.575, 220.001
1441.762, 285.011
1442.949, 254.982
1444.135, 227.580
1445.321, 227.589
1446.507, 159.028
1447.693, 231.292
1448.879, 150.243
1450.064, 166.497
1451.250, 172.632
1452.435, 264.236
1453.620, 158.753
1454.805, 232.040
1455.989, 169.399
1457.174, 108.428
1458.358, 122.577
1459.542, 88.081
1460.726, 172.464
1461.910, 139.843
1463.093, 135.803
1464.277, 161.134
1465.460, 139.095
1466.643, 101.989
1467.826, 110.653
1469.009, 59.157
1470.191, 144.269
1471.373, 48.003
1472.556, 120.802
1473.738, 67.707
1474.919, 141.947
1476.101, 13.190
1477.283, 41.435
1478.464, 139.094
1479.645, 96.847
1480.826, 145.536
1482.007, 77.090
1483.187, 159.981
1484.368, 83.403
1485.548, 53.294
1486.728, 101.007
1487.908, 69.569
1489.088, 26.461
