##NAMES=Olmiite
##RRUFFID=R050177
##IDEAL CHEMISTRY=CaMn^2+^SiO_3_(OH)_2_
##LOCALITY=N'Chwaning II mine, Kuruman, South Africa
##OWNER=RRUFF
##SOURCE=Marcus Origlieri
##DESCRIPTION=Gray etched crystals
##STATUS=The identification of this mineral has been confirmed by X-ray diffraction and chemical analysis
##URL=rruff.info/R050177
##MEASURED CHEMISTRY=Ca_1.00_(Mn_0.98_Ca_0.02_)(Si_1.00_O_3_OH)(OH)
56.365, 0.000
57.765, 6.258
59.164, 17.123
60.563, 37.353
61.962, 49.652
63.360, 58.355
64.758, 43.619
66.157, 14.160
67.554, 1.329
68.952, 22.190
70.349, 9.995
71.747, 104.003
73.144, 222.646
74.540, 301.771
75.937, 483.248
77.333, 713.960
78.729, 662.807
80.125, 602.690
81.521, 664.522
82.916, 846.227
84.311, 1460.739
85.706, 1750.999
87.101, 2161.955
88.496, 2487.573
89.890, 3051.842
91.284, 3506.721
92.678, 3461.172
94.071, 2713.163
95.465, 1927.665
96.858, 1527.654
98.251, 1253.104
99.644, 1210.983
101.036, 1303.251
102.428, 1384.879
103.820, 1533.841
105.212, 1666.118
106.604, 1927.694
107.995, 2254.557
109.387, 2436.723
110.777, 2581.153
112.168, 2858.837
113.559, 3263.771
114.949, 3966.948
116.339, 4788.362
117.729, 5867.007
119.119, 6809.916
120.508, 6587.372
121.897, 5160.142
123.286, 3785.102
124.675, 3058.248
126.063, 2434.579
127.452, 2244.095
128.840, 2427.793
130.228, 2667.671
131.615, 2743.729
133.003, 2184.962
134.390, 1715.370
135.777, 1263.948
137.164, 960.696
138.550, 762.610
139.937, 689.651
141.323, 569.696
142.709, 537.753
144.094, 530.828
145.480, 568.911
146.865, 571.021
148.250, 594.186
149.635, 628.410
151.019, 603.703
152.403, 608.069
153.788, 623.513
155.171, 727.041
156.555, 825.459
157.939, 1048.360
159.322, 1160.159
160.705, 1410.815
162.088, 1681.837
163.470, 1872.920
164.853, 1785.107
166.235, 1481.398
167.617, 1137.795
168.998, 861.301
170.380, 657.916
171.761, 558.641
173.142, 500.475
174.523, 442.421
175.904, 440.478
177.284, 406.646
178.664, 435.925
180.044, 381.313
181.424, 298.388
182.803, 247.665
184.183, 159.347
185.562, 76.936
186.940, 137.657
188.319, 119.490
189.698, 142.435
191.076, 248.491
192.454, 242.657
193.831, 340.931
195.209, 502.312
196.586, 627.800
197.963, 880.392
199.340, 999.086
200.717, 1328.881
202.093, 1600.775
203.470, 1976.765
204.846, 2079.850
206.221, 2183.026
207.597, 2047.295
208.972, 1860.652
210.347, 1759.098
211.722, 1615.629
213.097, 1390.245
214.472, 1408.945
215.846, 1245.726
217.220, 1171.588
218.594, 976.527
219.967, 851.544
221.341, 814.637
222.714, 703.848
224.087, 766.609
225.460, 758.621
226.832, 827.838
228.204, 815.045
229.577, 849.378
230.948, 905.926
232.320, 854.438
233.692, 901.158
235.063, 1072.415
236.434, 1213.696
237.805, 1551.137
239.175, 1899.734
240.545, 2382.479
241.916, 3021.366
243.286, 3630.399
244.655, 4136.565
246.025, 4621.857
247.394, 4779.280
248.763, 4578.824
250.132, 4001.488
251.501, 3120.277
252.869, 2389.183
254.237, 1658.207
255.605, 1163.339
256.973, 793.588
258.340, 429.949
259.708, 236.419
261.075, 62.006
262.442, 4.298
263.808, 42.497
265.175, 15.401
266.541, 0.403
267.907, 42.511
269.273, 113.721
270.639, 158.039
272.004, 222.461
273.369, 199.980
274.734, 211.598
276.099, 224.323
277.463, 233.148
278.828, 218.071
280.192, 273.095
281.556, 279.207
282.919, 270.407
284.283, 322.699
285.646, 409.071
287.009, 357.648
288.372, 322.078
289.734, 259.701
291.097, 290.397
292.459, 172.173
293.821, 184.029
295.183, 227.948
296.544, 211.940
297.905, 192.985
299.266, 180.110
300.627, 128.304
301.988, 35.573
303.348, 46.090
304.709, 89.700
306.069, 138.247
307.428, 180.732
308.788, 138.165
310.147, 167.529
311.507, 57.847
312.865, 40.906
314.224, 155.728
315.583, 255.624
316.941, 477.596
318.299, 662.635
319.657, 869.737
321.015, 1141.899
322.372, 1412.251
323.729, 1734.387
325.086, 2059.706
326.443, 2428.073
327.800, 2816.484
329.156, 3051.939
330.512, 3424.431
331.868, 3522.959
333.224, 3760.521
334.579, 3844.116
335.935, 3803.745
337.290, 3433.405
338.645, 3185.096
339.999, 2684.818
341.354, 2317.570
342.708, 1959.352
344.062, 1713.161
345.416, 1375.986
346.769, 1160.799
348.123, 922.601
349.476, 715.426
350.829, 555.276
352.182, 452.152
353.534, 367.799
354.887, 378.977
356.239, 329.924
357.591, 390.893
358.942, 461.885
360.294, 527.897
361.645, 649.929
362.996, 829.982
364.347, 1031.231
365.698, 1276.143
367.048, 1595.250
368.398, 1978.374
369.748, 2402.515
371.098, 2902.671
372.448, 3489.843
373.797, 3849.028
375.146, 4167.228
376.495, 4241.441
377.844, 4314.668
379.192, 4107.905
380.540, 3654.154
381.889, 3350.414
383.236, 2923.685
384.584, 2635.965
385.932, 2478.273
387.279, 2239.612
388.626, 2242.979
389.973, 2329.373
391.319, 2600.794
392.666, 2849.241
394.012, 3203.714
395.358, 3502.216
396.704, 3862.741
398.049, 4078.293
399.394, 4133.865
400.740, 4137.235
402.084, 3779.325
403.429, 3559.875
404.774, 3212.972
406.118, 2888.072
407.462, 2708.230
408.806, 2431.233
410.150, 2268.276
411.493, 2103.625
412.836, 2026.139
414.179, 2074.185
415.522, 2083.537
416.865, 2152.812
418.207, 2210.261
419.549, 2264.796
420.891, 2225.852
422.233, 2205.256
423.575, 2045.749
424.916, 1843.728
426.257, 1629.158
427.598, 1567.884
428.939, 1484.192
430.279, 1398.006
431.619, 1417.689
432.959, 1337.830
434.299, 1362.298
435.639, 1310.018
436.978, 1349.433
438.318, 1149.035
439.657, 1108.954
440.996, 918.453
442.334, 774.326
443.673, 625.222
445.011, 502.703
446.349, 362.452
447.687, 324.676
449.024, 194.487
450.361, 169.391
451.699, 153.266
453.036, 65.813
454.372, 131.843
455.709, 65.029
457.045, 97.669
458.381, 88.115
459.717, 121.661
461.053, 123.943
462.388, 210.979
463.724, 202.260
465.059, 303.738
466.394, 395.127
467.728, 515.504
469.063, 648.716
470.397, 858.988
471.731, 1100.390
473.065, 1281.322
474.398, 1521.217
475.732, 1687.135
477.065, 1863.443
478.398, 1984.409
479.731, 2126.180
481.063, 2206.614
482.396, 2216.961
483.728, 2305.537
485.060, 2400.724
486.391, 2530.581
487.723, 2467.924
489.054, 2462.817
490.385, 2330.708
491.716, 2192.516
493.047, 2125.286
494.377, 1923.019
495.708, 1939.714
497.038, 1787.371
498.368, 1857.990
499.697, 1840.570
501.027, 1861.110
502.356, 2058.611
503.685, 2348.073
505.014, 2662.495
506.342, 3119.876
507.671, 3567.217
508.999, 4154.519
510.327, 4706.778
511.655, 5175.998
512.982, 5393.176
514.310, 5471.312
515.637, 5363.407
516.964, 4952.460
518.291, 4574.471
519.617, 4068.440
520.944, 3740.366
522.270, 3559.250
523.596, 3179.090
524.921, 3034.886
526.247, 2992.640
527.572, 2997.350
528.897, 2923.016
530.222, 2726.637
531.547, 2634.216
532.871, 2365.749
534.196, 2072.238
535.520, 1767.682
536.844, 1489.082
538.167, 1282.680
539.491, 1078.745
540.814, 937.009
542.137, 794.227
543.460, 690.400
544.783, 584.496
546.105, 526.608
547.427, 413.643
548.749, 372.632
550.071, 298.574
551.393, 241.469
552.714, 222.317
554.035, 206.119
555.356, 179.873
556.677, 115.579
557.998, 113.238
559.318, 67.848
560.638, 79.402
561.958, 63.901
563.278, 26.342
564.597, 49.709
565.917, 81.014
567.236, 21.264
568.555, 50.439
569.874, 33.550
571.192, 2.591
572.511, 10.547
573.829, 5.422
575.147, 25.214
576.464, 12.067
577.782, 13.441
579.099, 5.908
580.416, 43.465
581.733, 29.130
583.050, 21.896
584.366, 3.760
585.683, 33.708
586.999, 43.759
588.315, 35.919
589.630, 66.182
590.946, 58.103
592.261, 32.062
593.576, 52.660
594.891, 80.370
596.206, 68.205
597.520, 58.159
598.834, 84.225
600.148, 27.418
601.462, 44.707
602.776, 55.099
604.089, 28.602
605.402, 69.198
606.715, 47.910
608.028, 34.726
609.341, 19.637
610.653, 47.635
611.965, 56.735
613.277, 3.060
614.589, 37.556
615.901, 36.410
617.212, 71.018
618.523, 36.556
619.834, 66.185
621.145, 39.918
622.456, 5.742
623.766, 51.635
625.076, 73.615
626.386, 61.689
627.696, 107.843
629.006, 30.105
630.315, 91.430
631.624, 64.862
632.933, 88.389
634.242, 101.023
635.551, 73.769
636.859, 55.611
638.167, 52.539
639.475, 37.549
640.783, 27.634
642.090, 39.785
643.398, 21.009
644.705, 15.294
646.012, 10.636
647.318, 3.970
648.625, 8.520
649.931, 37.053
651.237, 23.537
652.543, 36.983
653.849, 43.392
655.155, 15.765
656.460, 105.102
657.765, 62.403
659.070, 128.670
660.375, 135.902
661.679, 251.100
662.984, 232.265
664.288, 311.397
665.592, 322.498
666.895, 367.566
668.199, 408.603
669.502, 395.609
670.805, 416.585
672.108, 435.531
673.411, 466.447
674.713, 396.335
676.016, 474.194
677.318, 411.024
678.620, 401.828
679.921, 425.604
681.223, 331.354
682.524, 292.078
683.825, 286.776
685.126, 234.449
686.427, 268.098
687.727, 226.723
689.028, 159.324
690.328, 161.903
691.628, 77.459
692.927, 137.993
694.227, 165.507
695.526, 137.999
696.825, 134.472
698.124, 213.924
699.423, 179.358
700.721, 212.774
702.020, 230.171
703.318, 286.551
704.616, 354.373
705.913, 411.840
707.211, 500.301
708.508, 580.907
709.805, 697.101
711.102, 826.672
712.399, 959.768
713.695, 1193.028
714.992, 1291.276
716.288, 1534.734
717.584, 1678.479
718.879, 1902.772
720.175, 2095.276
721.470, 2250.279
722.765, 2443.981
724.060, 2604.435
725.355, 2678.174
726.649, 2793.203
727.944, 2753.573
729.238, 2594.415
730.532, 2384.957
731.825, 2110.580
733.119, 1915.032
734.412, 1665.405
735.705, 1436.261
736.998, 1207.772
738.291, 1010.199
739.584, 959.099
740.876, 840.159
742.168, 733.364
743.460, 652.967
744.752, 523.092
746.043, 425.354
747.334, 339.159
748.626, 302.641
749.916, 248.876
751.207, 123.420
752.498, 152.781
753.788, 124.828
755.078, 39.299
756.368, 69.398
757.658, 62.480
758.947, 75.980
760.237, 75.218
761.526, 133.984
762.815, 164.166
764.104, 234.259
765.392, 242.386
766.680, 321.844
767.969, 392.824
769.257, 535.653
770.544, 672.031
771.832, 824.608
773.119, 972.089
774.406, 1179.839
775.693, 1367.839
776.980, 1657.600
778.267, 1845.621
779.553, 2259.878
780.839, 2536.877
782.125, 2929.748
783.411, 3340.845
784.697, 3868.950
785.982, 4356.336
787.267, 4926.523
788.552, 5423.371
789.837, 5875.566
791.122, 6283.615
792.406, 6727.401
793.690, 7130.628
794.974, 7504.401
796.258, 7837.950
797.542, 8280.079
798.825, 8625.193
800.108, 9134.011
801.391, 9653.287
802.674, 10089.585
803.957, 11017.984
805.239, 11663.444
806.522, 12564.984
807.804, 13765.590
809.085, 14711.263
810.367, 16456.016
811.649, 17289.834
812.930, 17612.738
814.211, 17198.711
815.492, 16205.745
816.772, 14418.868
818.053, 12686.057
819.333, 11112.311
820.613, 9724.656
821.893, 8615.053
823.173, 7940.495
824.452, 7337.991
825.732, 6846.536
827.011, 6556.512
828.290, 6356.779
829.568, 6283.479
830.847, 6360.247
832.125, 6455.085
833.403, 6730.998
834.681, 7223.976
835.959, 7432.028
837.236, 8137.135
838.514, 9015.297
839.791, 10214.514
841.068, 11778.797
842.345, 13807.151
843.621, 16222.586
844.898, 19656.092
846.174, 23355.680
847.450, 27897.322
848.726, 33259.047
850.001, 37083.840
851.277, 40610.715
852.552, 42096.652
853.827, 42156.652
855.102, 39892.719
856.376, 35268.855
857.651, 30987.049
858.925, 27160.322
860.199, 23271.662
861.473, 19406.080
862.746, 16595.570
864.020, 13861.667
865.293, 11772.753
866.566, 9777.450
867.839, 8516.205
869.112, 7197.024
870.384, 6275.925
871.656, 5479.896
872.928, 4785.936
874.200, 4180.073
875.472, 3792.286
876.744, 3272.569
878.015, 2921.931
879.286, 2680.367
880.557, 2330.883
881.828, 2237.484
883.098, 2052.164
884.369, 1929.931
885.639, 1758.775
886.909, 1677.707
888.178, 1612.239
889.448, 1590.408
890.717, 1572.637
891.987, 1572.321
893.256, 1620.796
894.524, 1764.186
895.793, 1865.757
897.061, 2073.423
898.330, 2280.183
899.598, 2571.042
900.865, 2857.005
902.133, 3147.062
903.401, 3271.217
904.668, 3684.474
905.935, 3145.830
907.202, 3069.282
908.468, 3036.849
909.735, 3061.503
911.001, 3185.251
912.267, 3377.129
913.533, 3917.058
914.799, 3836.081
916.064, 4278.201
917.330, 4423.412
918.595, 4752.706
919.860, 4481.089
921.124, 4259.565
922.389, 3940.115
923.653, 3330.751
924.918, 2757.454
926.182, 2213.252
927.445, 1717.134
928.709, 1424.106
929.972, 1132.165
931.236, 1042.296
932.499, 925.515
933.761, 976.822
935.024, 1042.217
936.286, 1118.711
937.549, 1341.282
938.811, 1706.945
940.073, 1966.695
941.334, 2538.535
942.596, 3089.470
943.857, 3958.492
945.118, 5034.595
946.379, 6157.804
947.640, 7638.070
948.900, 9457.290
950.161, 11411.400
951.421, 13035.176
952.681, 14176.047
953.940, 14383.975
955.200, 13812.273
956.459, 12427.399
957.719, 10515.751
958.978, 8894.157
960.236, 7349.130
961.495, 6007.719
962.753, 4880.546
964.012, 4063.742
965.270, 3334.371
966.527, 2819.923
967.785, 2469.624
969.043, 2163.069
970.300, 1891.705
971.557, 1639.679
972.814, 1471.299
974.071, 1297.697
975.327, 1140.139
976.583, 1039.624
977.840, 1005.153
979.095, 860.501
980.351, 789.371
981.607, 657.906
982.862, 624.503
984.117, 547.316
985.372, 499.146
986.627, 472.970
987.882, 410.825
989.136, 454.975
990.390, 426.042
991.644, 396.752
992.898, 491.203
994.152, 483.456
995.405, 531.390
996.659, 660.633
997.912, 671.248
999.165, 728.427
1000.417, 799.862
1001.670, 774.424
1002.922, 738.624
1004.174, 797.298
1005.426, 731.746
1006.678, 785.480
1007.930, 673.768
1009.181, 707.524
1010.432, 640.067
1011.683, 583.731
1012.934, 586.302
1014.185, 532.698
1015.435, 483.874
1016.685, 474.509
1017.935, 441.418
1019.185, 404.727
1020.435, 382.615
1021.684, 366.527
1022.934, 315.489
1024.183, 304.165
1025.432, 265.283
1026.680, 232.297
1027.929, 211.057
1029.177, 200.745
1030.425, 178.093
1031.673, 200.134
1032.921, 199.776
1034.169, 201.322
1035.416, 203.567
1036.663, 189.524
1037.911, 171.743
1039.157, 172.022
1040.404, 154.741
1041.650, 122.370
1042.897, 128.281
1044.143, 115.821
1045.389, 93.171
1046.634, 137.074
1047.880, 65.175
1049.125, 96.067
1050.371, 94.855
1051.615, 73.440
1052.860, 118.781
1054.105, 94.389
1055.349, 55.755
1056.593, 80.491
1057.837, 56.254
1059.081, 44.365
1060.325, 89.553
1061.568, 1.964
1062.812, 45.615
1064.055, 57.887
1065.298, 19.502
1066.540, 47.969
1067.783, 30.501
1069.025, 37.085
1070.267, 31.469
1071.509, 28.996
1072.751, 55.358
1073.993, 38.919
1075.234, 39.621
1076.475, 66.098
1077.716, 79.350
1078.957, 23.052
1080.198, 64.583
1081.438, 104.979
1082.679, 182.072
1083.919, 216.338
1085.159, 161.844
1086.398, 178.940
1087.638, 192.057
1088.877, 195.611
1090.116, 202.879
1091.355, 208.273
1092.594, 143.643
1093.833, 105.007
1095.071, 1.145
1096.309, 3.445
1097.547, 33.412
1098.785, 27.076
1100.023, 42.654
1101.260, 12.627
1102.498, 64.073
1103.735, 69.054
1104.972, 81.293
1106.208, 148.125
1107.445, 97.408
1108.681, 103.705
1109.918, 126.230
1111.154, 110.927
1112.389, 129.653
1113.625, 85.710
1114.860, 81.471
1116.096, 128.666
1117.331, 89.812
1118.566, 58.036
1119.800, 140.315
1121.035, 4.366
1122.269, 205.933
1123.503, 315.486
1124.737, 330.883
1125.971, 259.355
1127.205, 288.815
1128.438, 130.297
1129.671, 48.248
1130.904, 46.099
1132.137, 62.849
1133.370, 12.769
1134.602, 57.932
1135.834, 89.989
1137.066, 30.700
1138.298, 61.858
1139.530, 14.359
1140.762, 23.767
1141.993, 50.091
1143.224, 42.665
1144.455, 29.377
1145.686, 15.951
1146.917, 39.794
1148.147, 25.720
1149.377, 25.326
1150.607, 17.697
1151.837, 28.542
1153.067, 15.509
1154.296, 66.606
1155.526, 5.186
1156.755, 0.359
1157.984, 5.082
1159.213, 23.351
1160.441, 23.491
1161.670, 45.685
1162.898, 55.636
1164.126, 13.698
1165.354, 116.810
1166.581, 78.546
1167.809, 7.137
1169.036, 47.765
1170.263, 64.334
1171.490, 9.267
1172.717, 39.031
1173.943, 71.249
1175.170, 83.397
1176.396, 66.524
1177.622, 58.552
1178.848, 81.480
1180.073, 101.337
1181.299, 70.131
1182.524, 95.848
1183.749, 93.493
1184.974, 123.066
1186.199, 88.572
1187.423, 108.002
1188.648, 137.361
1189.872, 48.651
1191.096, 88.851
1192.320, 97.973
1193.543, 120.017
1194.767, 112.987
1195.990, 125.882
1197.213, 90.703
1198.436, 99.614
1199.659, 111.271
1200.881, 176.884
1202.104, 162.658
1203.326, 150.112
1204.548, 53.755
1205.770, 189.302
1206.991, 129.867
1208.213, 183.292
1209.434, 173.703
1210.655, 224.214
1211.876, 117.619
1213.096, 125.025
1214.317, 186.300
1215.537, 181.728
1216.757, 207.105
1217.977, 196.125
1219.197, 207.634
1220.417, 189.824
1221.636, 179.221
1222.855, 202.780
1224.074, 237.834
1225.293, 183.282
1226.512, 198.942
1227.731, 215.312
1228.949, 272.894
1230.167, 232.225
1231.385, 203.539
1232.603, 269.492
1233.820, 263.013
1235.038, 202.040
1236.255, 234.941
1237.472, 220.622
1238.689, 224.302
1239.906, 225.051
1241.122, 252.313
1242.338, 230.978
1243.555, 249.127
1244.771, 223.784
1245.986, 227.705
1247.202, 238.941
1248.417, 299.735
1249.633, 300.080
1250.848, 286.856
1252.063, 214.026
1253.277, 253.571
1254.492, 241.421
1255.706, 272.062
1256.920, 287.810
1258.134, 270.403
1259.348, 320.750
1260.562, 230.308
1261.775, 313.111
1262.988, 272.244
1264.201, 267.339
1265.414, 263.393
1266.627, 238.594
1267.839, 257.762
1269.052, 253.000
1270.264, 281.810
1271.476, 255.494
1272.688, 249.834
1273.899, 236.775
1275.111, 234.342
1276.322, 286.502
1277.533, 240.617
1278.744, 256.761
1279.955, 298.630
1281.165, 253.704
1282.376, 236.680
1283.586, 234.224
1284.796, 255.729
1286.006, 282.748
1287.215, 241.770
1288.425, 275.026
1289.634, 282.397
1290.843, 249.423
1292.052, 251.122
1293.261, 268.225
1294.469, 250.652
1295.678, 251.997
1296.886, 253.885
1298.094, 260.265
1299.302, 270.869
1300.509, 276.115
1301.717, 284.788
1302.924, 266.025
1304.131, 285.337
1305.338, 292.530
1306.545, 260.968
1307.752, 297.912
1308.958, 255.203
1310.164, 221.281
1311.370, 339.985
1312.576, 329.162
1313.782, 283.236
1314.987, 278.382
1316.193, 326.757
1317.398, 304.647
1318.603, 345.825
1319.807, 309.420
1321.012, 282.741
1322.216, 287.463
1323.421, 344.774
1324.625, 385.904
1325.829, 358.286
1327.032, 397.695
1328.236, 414.568
1329.439, 381.203
1330.642, 454.652
1331.845, 444.051
1333.048, 397.812
1334.251, 464.941
1335.453, 403.417
1336.656, 360.266
1337.858, 468.187
1339.060, 365.559
1340.261, 325.663
1341.463, 336.913
1342.664, 231.016
1343.866, 292.307
1345.067, 260.727
1346.267, 204.098
1347.468, 262.344
1348.669, 198.414
1349.869, 194.576
1351.069, 171.578
1352.269, 184.714
1353.469, 160.336
1354.668, 126.062
1355.868, 132.878
1357.067, 115.406
1358.266, 119.846
1359.465, 91.427
1360.664, 87.188
1361.862, 123.152
1363.061, 60.315
1364.259, 79.395
1365.457, 55.312
1366.655, 40.326
1367.852, 67.669
1369.050, 36.544
1370.247, 89.879
1371.444, 117.510
1372.641, 77.975
1373.838, 24.650
1375.035, 89.052
1376.231, 32.105
1377.427, 51.471
1378.623, 2.277
1379.819, 21.443
1381.015, 7.339
1382.211, 9.010
1383.406, 15.612
1384.601, 31.124
1385.796, 63.775
1386.991, 26.186
1388.185, 8.704
1389.380, 3.911
1390.574, 45.511
1391.768, 11.280
1392.962, 25.340
1394.156, 34.660
1395.350, 20.667
1396.543, 43.141
1397.736, 19.033
1398.929, 4.722
1400.122, 12.296
1401.315, 55.910
1402.507, 95.251
1403.700, 13.286
1404.892, 78.557
1406.084, 27.982
1407.276, 49.080
1408.467, 33.049
1409.659, 91.146
1410.850, 25.463
1412.041, 89.523
1413.232, 151.711
1414.423, 69.824
1415.614, 129.044
1416.804, 27.370
1417.994, 56.671
1419.184, 142.013
1420.374, 138.345
1421.564, 72.525
1422.753, 127.011
1423.943, 72.449
1425.132, 81.024
1426.321, 106.499
1427.510, 127.975
1428.698, 83.438
1429.887, 136.864
1431.075, 120.250
1432.263, 161.601
1433.451, 161.925
1434.639, 143.242
1435.827, 142.535
1437.014, 144.545
1438.201, 66.760
1439.388, 191.553
1440.575, 225.884
1441.762, 152.994
1442.949, 171.619
1444.135, 176.929
1445.321, 129.831
1446.507, 157.662
1447.693, 142.377
1448.879, 91.003
1450.064, 112.752
1451.250, 77.457
1452.435, 118.916
1453.620, 127.860
1454.805, 162.691
1455.989, 169.416
1457.174, 67.953
1458.358, 115.354
1459.542, 40.475
1460.726, 84.817
1461.910, 12.063
1463.093, 98.124
1464.277, 85.270
1465.460, 74.256
1466.643, 24.193
1467.826, 13.773
1469.009, 35.883
1470.191, 64.988
1471.373, 73.570
1472.556, 3.315
1473.738, 34.146
1474.919, 26.665
1476.101, 20.333
1477.283, 53.709
1478.464, 35.811
1479.645, 46.885
1480.826, 28.357
1482.007, 28.459
1483.187, 25.925
1484.368, 91.235
1485.548, 52.826
1486.728, 110.115
1487.908, 36.953
1489.088, 13.856
1490.268, 0.425
1491.447, 11.806
1492.626, 96.374
1493.805, 54.320
1494.984, 82.731
1496.163, 48.030
1497.341, 47.425
1498.520, 6.492
