##NAMES=Olmiite
##RRUFFID=R050177
##IDEAL CHEMISTRY=CaMn^2+^SiO_3_(OH)_2_
##LOCALITY=N'Chwaning II mine, Kuruman, South Africa
##OWNER=RRUFF
##SOURCE=Marcus Origlieri
##DESCRIPTION=Gray etched crystals
##STATUS=The identification of this mineral has been confirmed by X-ray diffraction and chemical analysis
##URL=rruff.info/R050177
##MEASURED CHEMISTRY=Ca_1.00_(Mn_0.98_Ca_0.02_)(Si_1.00_O_3_OH)(OH)
56.365, 0.000
57.765, 75.779
59.164, 126.695
60.563, 31.959
61.962, 48.527
63.360, 23.579
64.758, 2.792
66.157, 10.989
67.554, 17.977
68.952, 10.612
70.349, 33.606
71.747, 107.918
73.144, 145.432
74.540, 347.018
75.937, 443.551
77.333, 603.919
78.729, 529.026
80.125, 458.784
81.521, 444.122
82.916, 553.068
84.311, 849.781
85.706, 949.186
87.101, 937.168
88.496, 1023.637
89.890, 1024.520
91.284, 1112.760
92.678, 1123.011
94.071, 1236.133
95.465, 1153.197
96.858, 1069.475
98.251, 1075.946
99.644, 1168.588
101.036, 1344.381
102.428, 1423.309
103.820, 1521.357
105.212, 1685.520
106.604, 1992.788
107.995, 2451.753
109.387, 3208.326
110.777, 3590.084
112.168, 3919.039
113.559, 4260.835
114.949, 4571.491
116.339, 5030.021
117.729, 5501.439
119.119, 5467.759
120.508, 4357.993
121.897, 3250.148
123.286, 2329.237
124.675, 1773.266
126.063, 1320.243
127.452, 1051.173
128.840, 972.063
130.228, 935.917
131.615, 863.739
133.003, 734.535
134.390, 712.308
135.777, 540.061
137.164, 468.798
138.550, 351.521
139.937, 494.228
141.323, 476.904
142.709, 491.540
144.094, 504.136
145.480, 505.687
146.865, 557.219
148.250, 613.745
149.635, 620.271
151.019, 580.804
152.403, 595.346
153.788, 576.901
155.171, 597.473
156.555, 634.064
157.939, 601.549
159.322, 678.422
160.705, 726.236
162.088, 872.613
163.470, 980.854
164.853, 964.635
166.235, 914.677
167.617, 957.801
168.998, 896.983
170.380, 857.221
171.761, 898.514
173.142, 884.467
174.523, 873.160
175.904, 900.718
177.284, 831.223
178.664, 753.779
180.044, 686.384
181.424, 527.038
182.803, 422.739
184.183, 343.487
185.562, 257.532
186.940, 190.122
188.319, 173.007
189.698, 191.936
191.076, 214.906
192.454, 274.849
193.831, 316.954
195.209, 460.024
196.586, 607.123
197.963, 765.250
199.340, 903.407
200.717, 1171.593
202.093, 1315.808
203.470, 1541.050
204.846, 1729.320
206.221, 1795.617
207.597, 1869.940
208.972, 2001.289
210.347, 1909.664
211.722, 1696.064
213.097, 1474.489
214.472, 1500.937
215.846, 1391.409
217.220, 1539.904
218.594, 1540.421
219.967, 1763.961
221.341, 1994.522
222.714, 2275.288
224.087, 2490.719
225.460, 2939.248
226.832, 2859.185
228.204, 3012.999
229.577, 2975.859
230.948, 2812.601
232.320, 2627.149
233.692, 2408.860
235.063, 2120.357
236.434, 1934.949
237.805, 1711.636
239.175, 1550.403
240.545, 1506.250
241.916, 1347.167
243.286, 1325.162
244.655, 1122.222
246.025, 1037.352
247.394, 865.544
248.763, 694.787
250.132, 495.076
251.501, 381.421
252.869, 236.818
254.237, 133.255
255.605, 97.727
256.973, 36.752
258.340, 83.209
259.708, 105.641
261.075, 153.052
262.442, 163.907
263.808, 168.875
265.175, 187.311
266.541, 177.766
267.907, 192.232
269.273, 95.705
270.639, 120.178
272.004, 25.659
273.369, 88.127
274.734, 23.397
276.099, 94.937
277.463, 183.482
278.828, 188.033
280.192, 356.592
281.556, 414.157
282.919, 396.735
284.283, 548.325
285.646, 570.935
287.009, 744.569
288.372, 689.217
289.734, 799.884
291.097, 820.556
292.459, 869.246
293.821, 866.947
295.183, 881.115
296.544, 892.371
297.905, 869.097
299.266, 793.839
300.627, 754.595
301.988, 668.367
303.348, 648.146
304.709, 574.938
306.069, 537.745
307.428, 522.560
308.788, 566.388
310.147, 623.226
311.507, 695.070
312.865, 793.934
314.224, 942.804
315.583, 1123.695
316.941, 1327.600
318.299, 1623.509
319.657, 1974.438
321.015, 2427.372
322.372, 2928.287
323.729, 3624.109
325.086, 4288.829
326.443, 5211.427
327.800, 6344.928
329.156, 7186.398
330.512, 8373.846
331.868, 8984.311
333.224, 9670.790
334.579, 10190.282
335.935, 10275.787
337.290, 9683.313
338.645, 9166.844
339.999, 8257.383
341.354, 7268.940
342.708, 6373.503
344.062, 5489.073
345.416, 4750.653
346.769, 4016.236
348.123, 3425.824
349.476, 2809.418
350.829, 2403.016
352.182, 2036.620
353.534, 1760.227
354.887, 1563.837
356.239, 1437.452
357.591, 1291.069
358.942, 1215.689
360.294, 1157.312
361.645, 1107.937
362.996, 1132.564
364.347, 1095.192
365.698, 1125.173
367.048, 1188.454
368.398, 1189.087
369.748, 1274.721
371.098, 1309.355
372.448, 1410.990
373.797, 1433.625
375.146, 1523.260
376.495, 1519.896
377.844, 1526.531
379.192, 1600.167
380.540, 1575.805
381.889, 1658.446
383.236, 1698.084
384.584, 1806.726
385.932, 2034.367
387.279, 2227.010
388.626, 2586.654
389.973, 2959.444
391.319, 3396.682
392.666, 3784.689
394.012, 4368.091
395.358, 4711.022
396.704, 4977.234
398.049, 5063.155
399.394, 5119.228
400.740, 5234.447
402.084, 4956.756
403.429, 4662.115
404.774, 4244.863
406.118, 3979.635
407.462, 3741.574
408.806, 3542.105
410.150, 3323.484
411.493, 3276.229
412.836, 3272.442
414.179, 3382.823
415.522, 3501.580
416.865, 3605.521
418.207, 3739.048
419.549, 3945.395
420.891, 4095.848
422.233, 4364.676
423.575, 4706.056
424.916, 5125.244
426.257, 5468.872
427.598, 6179.696
428.939, 6974.965
430.279, 7669.435
431.619, 8666.357
432.959, 9359.103
434.299, 9787.085
435.639, 9954.028
436.978, 9765.352
438.318, 9404.398
439.657, 8628.601
440.996, 7529.889
442.334, 6419.017
443.673, 5303.214
445.011, 4286.170
446.349, 3549.145
447.687, 2849.012
449.024, 2301.633
450.361, 1847.193
451.699, 1560.061
453.036, 1219.804
454.372, 1053.377
455.709, 933.914
457.045, 816.878
458.381, 714.813
459.717, 641.347
461.053, 565.492
462.388, 550.919
463.724, 540.326
465.059, 560.247
466.394, 610.149
467.728, 683.993
469.063, 781.528
470.397, 941.396
471.731, 1037.603
473.065, 1186.709
474.398, 1387.872
475.732, 1442.571
477.065, 1497.119
478.398, 1426.184
479.731, 1334.337
481.063, 1278.301
482.396, 1228.770
483.728, 1138.240
485.060, 1161.491
486.391, 1121.727
487.723, 1113.145
489.054, 1073.443
490.385, 1043.275
491.716, 1064.512
493.047, 1093.010
494.377, 1059.146
495.708, 1087.336
497.038, 1071.598
498.368, 1203.152
499.697, 1276.718
501.027, 1367.261
502.356, 1527.749
503.685, 1858.590
505.014, 2200.032
506.342, 2629.453
507.671, 2997.850
508.999, 3482.224
510.327, 3761.576
511.655, 3964.904
512.982, 3860.209
514.310, 3638.491
515.637, 3344.749
516.964, 2877.984
518.291, 2456.195
519.617, 2096.383
520.944, 1755.570
522.270, 1506.685
523.596, 1229.800
524.921, 1061.892
526.247, 936.958
527.572, 813.001
528.897, 692.022
530.222, 628.015
531.547, 541.984
532.871, 468.061
534.196, 415.981
535.520, 332.040
536.844, 261.913
538.167, 358.063
539.491, 271.567
540.814, 248.115
542.137, 223.885
543.460, 202.567
544.783, 174.286
546.105, 153.123
547.427, 160.791
548.749, 96.433
550.071, 44.047
551.393, 58.631
552.714, 36.184
554.035, 66.705
555.356, 4.804
556.677, 0.362
557.998, 18.967
559.318, 11.370
560.638, 7.334
561.958, 7.911
563.278, 30.887
564.597, 0.252
565.917, 34.655
567.236, 12.627
568.555, 30.348
569.874, 18.289
571.192, 24.807
572.511, 27.963
573.829, 15.822
575.147, 25.568
576.464, 40.720
577.782, 63.926
579.099, 32.449
580.416, 45.866
581.733, 39.327
583.050, 20.186
584.366, 26.704
585.683, 14.231
586.999, 18.230
588.315, 52.700
589.630, 30.809
590.946, 16.309
592.261, 24.805
593.576, 4.275
594.891, 14.274
596.206, 16.129
597.520, 14.498
598.834, 11.493
600.148, 14.589
601.462, 5.601
602.776, 2.378
604.089, 35.197
605.402, 50.073
606.715, 5.015
608.028, 30.999
609.341, 35.962
610.653, 19.104
611.965, 1.218
613.277, 21.630
614.589, 7.449
615.901, 10.236
617.212, 22.010
618.523, 14.302
619.834, 19.638
621.145, 13.980
622.456, 12.430
623.766, 13.882
625.076, 2.086
626.386, 9.508
627.696, 0.462
629.006, 13.941
630.315, 37.681
631.624, 11.645
632.933, 49.054
634.242, 15.811
635.551, 15.395
636.859, 43.424
638.167, 25.705
639.475, 69.190
640.783, 1.149
642.090, 81.137
643.398, 34.194
644.705, 22.296
646.012, 37.436
647.318, 8.379
648.625, 22.828
649.931, 12.072
651.237, 6.345
652.543, 25.645
653.849, 27.980
655.155, 33.647
656.460, 21.256
657.765, 36.156
659.070, 42.395
660.375, 7.073
661.679, 34.435
662.984, 53.925
664.288, 86.396
665.592, 18.851
666.895, 84.287
668.199, 139.706
669.502, 74.108
670.805, 98.492
672.108, 62.860
673.411, 99.211
674.713, 104.546
676.016, 106.323
677.318, 102.765
678.620, 107.454
679.921, 78.725
681.223, 35.981
682.524, 40.223
683.825, 23.449
685.126, 2.661
686.427, 29.858
687.727, 14.042
689.028, 7.789
690.328, 5.758
691.628, 9.688
692.927, 2.634
694.227, 16.253
695.526, 29.155
696.825, 32.076
698.124, 7.984
699.423, 37.969
700.721, 37.059
702.020, 9.926
703.318, 25.078
704.616, 63.070
705.913, 85.907
707.211, 120.030
708.508, 111.895
709.805, 167.096
711.102, 220.763
712.399, 220.142
713.695, 353.801
714.992, 344.297
716.288, 384.636
717.584, 378.874
718.879, 448.050
720.175, 445.825
721.470, 437.565
722.765, 529.124
724.060, 445.080
725.355, 499.176
726.649, 506.893
727.944, 434.982
729.238, 404.185
730.532, 382.852
731.825, 347.329
733.119, 308.362
734.412, 296.813
735.705, 234.694
736.998, 188.756
738.291, 169.255
739.584, 194.228
740.876, 209.416
742.168, 189.571
743.460, 165.133
744.752, 148.912
746.043, 135.264
747.334, 110.228
748.626, 86.477
749.916, 117.921
751.207, 59.228
752.498, 65.273
753.788, 136.281
755.078, 146.192
756.368, 108.253
757.658, 151.235
758.947, 164.448
760.237, 219.632
761.526, 235.913
762.815, 289.056
764.104, 332.602
765.392, 318.251
766.680, 386.617
767.969, 439.144
769.257, 512.698
770.544, 621.531
771.832, 792.100
773.119, 871.481
774.406, 1017.390
775.693, 1179.007
776.980, 1327.583
778.267, 1482.743
779.553, 1775.858
780.839, 1971.023
782.125, 2303.511
783.411, 2521.614
784.697, 2929.391
785.982, 3205.260
787.267, 3562.065
788.552, 3834.326
789.837, 4245.729
791.122, 4547.608
792.406, 4913.389
793.690, 5096.353
794.974, 5409.635
796.258, 5612.248
797.542, 5853.902
798.825, 6240.564
800.108, 6625.041
801.391, 6875.992
802.674, 6991.688
803.957, 7474.344
805.239, 7988.739
806.522, 8382.503
807.804, 9221.224
809.085, 9601.887
810.367, 10535.272
811.649, 10778.656
812.930, 10876.071
814.211, 10807.550
815.492, 10187.681
816.772, 9396.212
818.053, 8815.784
819.333, 8205.388
820.613, 7597.007
821.893, 7235.653
823.173, 7081.319
824.452, 6771.001
825.732, 6566.706
827.011, 6702.430
828.290, 6614.173
829.568, 6668.938
830.847, 6910.732
832.125, 7114.547
833.403, 7592.401
834.681, 8030.278
835.959, 8605.186
837.236, 9373.126
838.514, 10315.105
839.791, 11617.114
841.068, 13466.172
842.345, 15679.237
843.621, 18135.213
844.898, 21930.346
846.174, 25654.385
847.450, 30439.580
848.726, 35224.512
850.001, 38878.086
851.277, 42402.621
852.552, 44008.922
853.827, 43835.328
855.102, 41709.707
856.376, 37677.977
857.651, 33147.422
858.925, 29236.896
860.199, 24974.414
861.473, 20926.963
862.746, 17338.545
864.020, 14879.160
865.293, 12531.803
866.566, 10271.482
867.839, 8933.211
869.112, 7603.985
870.384, 6511.790
871.656, 5763.635
872.928, 4988.517
874.200, 4353.441
875.472, 3943.407
876.744, 3478.417
878.015, 3104.469
879.286, 2816.555
880.557, 2555.673
881.828, 2378.835
883.098, 2186.040
884.369, 1967.288
885.639, 1848.565
886.909, 1667.890
888.178, 1522.245
889.448, 1481.645
890.717, 1359.092
891.987, 1377.585
893.256, 1291.109
894.524, 1239.662
895.793, 1197.247
897.061, 1165.872
898.330, 1203.547
899.598, 1252.250
900.865, 1351.986
902.133, 1302.760
903.401, 1261.568
904.668, 1199.415
905.935, 1224.292
907.202, 1122.201
908.468, 1038.143
909.735, 1061.115
911.001, 1019.130
912.267, 1044.179
913.533, 991.271
914.799, 1084.412
916.064, 991.594
917.330, 1059.823
918.595, 1004.079
919.860, 915.374
921.124, 805.700
922.389, 743.054
923.653, 594.438
924.918, 479.851
926.182, 398.302
927.445, 393.790
928.709, 310.314
929.972, 268.865
931.236, 280.452
932.499, 237.073
933.761, 259.724
935.024, 374.407
936.286, 387.120
937.549, 436.859
938.811, 577.637
940.073, 727.442
941.334, 886.288
942.596, 1075.166
943.857, 1244.071
945.118, 1567.015
946.379, 1821.983
947.640, 2245.996
948.900, 2630.036
950.161, 3022.124
951.421, 3273.276
952.681, 3372.432
953.940, 3370.648
955.200, 3166.278
956.459, 2724.263
957.719, 2350.594
958.978, 2094.483
960.236, 1746.615
961.495, 1461.804
962.753, 1220.900
964.012, 1034.051
965.270, 944.113
966.527, 792.168
967.785, 738.873
969.043, 696.996
970.300, 635.466
971.557, 584.008
972.814, 543.740
974.071, 499.912
975.327, 462.493
976.583, 447.357
977.840, 402.263
979.095, 391.341
980.351, 318.028
981.607, 165.525
982.862, 172.348
984.117, 150.304
985.372, 30.340
986.627, 123.315
987.882, 34.747
989.136, 66.214
990.390, 28.583
991.644, 0.335
992.898, 52.708
994.152, 16.978
995.405, 12.715
996.659, 2.626
997.912, 50.947
999.165, 63.000
1000.417, 82.264
1001.670, 86.531
1002.922, 79.850
1004.174, 180.662
1005.426, 180.600
1006.678, 177.341
1007.930, 73.447
1009.181, 132.422
1010.432, 147.766
1011.683, 123.875
1012.934, 184.550
1014.185, 198.286
1015.435, 203.639
1016.685, 205.459
1017.935, 193.700
1019.185, 256.525
1020.435, 313.898
1021.684, 244.327
1022.934, 189.276
1024.183, 210.737
1025.432, 179.666
1026.680, 127.114
1027.929, 178.877
1029.177, 159.053
1030.425, 203.837
1031.673, 131.304
1032.921, 133.759
1034.169, 150.283
1035.416, 177.880
1036.663, 121.307
1037.911, 210.367
1039.157, 155.843
1040.404, 128.302
1041.650, 155.837
1042.897, 119.139
1044.143, 121.086
1045.389, 129.918
1046.634, 113.302
1047.880, 129.193
1049.125, 96.449
1050.371, 148.197
1051.615, 166.192
1052.860, 176.059
1054.105, 112.451
1055.349, 156.942
1056.593, 98.447
1057.837, 45.253
1059.081, 36.708
1060.325, 129.750
1061.568, 139.957
1062.812, 68.569
1064.055, 135.360
1065.298, 102.225
1066.540, 98.820
1067.783, 81.326
1069.025, 72.709
1070.267, 88.851
1071.509, 87.290
1072.751, 93.416
1073.993, 112.580
1075.234, 147.011
1076.475, 165.685
1077.716, 157.840
1078.957, 144.119
1080.198, 194.629
1081.438, 161.938
1082.679, 212.107
1083.919, 273.384
1085.159, 281.490
1086.398, 293.779
1087.638, 321.889
1088.877, 307.629
1090.116, 282.168
1091.355, 259.400
1092.594, 217.585
1093.833, 157.756
1095.071, 123.709
1096.309, 61.801
1097.547, 13.878
1098.785, 43.889
1100.023, 7.010
1101.260, 25.054
1102.498, 23.029
1103.735, 29.990
1104.972, 15.145
1106.208, 56.961
1107.445, 64.310
1108.681, 66.567
1109.918, 65.904
1111.154, 62.978
1112.389, 39.846
1113.625, 50.217
1114.860, 25.349
1116.096, 17.615
1117.331, 88.199
1118.566, 28.684
1119.800, 59.698
1121.035, 6.086
1122.269, 104.076
1123.503, 170.398
1124.737, 239.464
1125.971, 204.645
1127.205, 162.979
1128.438, 74.234
1129.671, 17.729
1130.904, 55.426
1132.137, 54.475
1133.370, 17.500
1134.602, 20.528
1135.834, 10.738
1137.066, 57.947
1138.298, 23.406
1139.530, 37.230
1140.762, 16.053
1141.993, 34.517
1143.224, 9.040
1144.455, 22.710
1145.686, 4.410
1146.917, 11.055
1148.147, 32.275
1149.377, 37.550
1150.607, 30.712
1151.837, 19.150
1153.067, 20.146
1154.296, 0.168
1155.526, 5.066
1156.755, 18.023
1157.984, 7.104
1159.213, 15.601
1160.441, 5.435
1161.670, 28.026
1162.898, 66.796
1164.126, 28.120
1165.354, 16.553
1166.581, 30.658
1167.809, 74.987
1169.036, 64.150
1170.263, 30.515
1171.490, 62.605
1172.717, 33.662
1173.943, 70.600
1175.170, 42.500
1176.396, 29.390
1177.622, 44.325
1178.848, 75.345
1180.073, 80.043
1181.299, 3.800
1182.524, 61.388
1183.749, 91.951
1184.974, 40.445
1186.199, 82.982
1187.423, 88.377
1188.648, 75.946
1189.872, 128.402
1191.096, 108.652
1192.320, 108.853
1193.543, 111.045
1194.767, 70.149
1195.990, 86.572
1197.213, 64.800
1198.436, 22.968
1199.659, 60.083
1200.881, 112.266
1202.104, 92.322
1203.326, 91.480
1204.548, 66.595
1205.770, 98.665
1206.991, 25.810
1208.213, 156.812
1209.434, 82.949
1210.655, 71.204
1211.876, 32.232
1213.096, 40.261
1214.317, 96.192
1215.537, 113.149
1216.757, 170.104
1217.977, 170.165
1219.197, 106.997
1220.417, 162.898
1221.636, 106.730
1222.855, 83.508
1224.074, 162.107
1225.293, 132.578
1226.512, 98.070
1227.731, 122.300
1228.949, 155.763
1230.167, 134.089
1231.385, 175.907
1232.603, 130.320
1233.820, 171.963
1235.038, 160.351
1236.255, 163.523
1237.472, 138.914
1238.689, 127.449
1239.906, 180.044
1241.122, 199.863
1242.338, 163.506
1243.555, 168.518
1244.771, 183.537
1245.986, 156.502
1247.202, 174.525
1248.417, 201.017
1249.633, 167.924
1250.848, 207.734
1252.063, 134.328
1253.277, 234.778
1254.492, 201.084
1255.706, 204.409
1256.920, 223.525
1258.134, 202.122
1259.348, 169.858
1260.562, 116.836
1261.775, 127.523
1262.988, 188.825
1264.201, 144.409
1265.414, 165.355
1266.627, 199.833
1267.839, 208.685
1269.052, 167.339
1270.264, 222.479
1271.476, 189.901
1272.688, 147.090
1273.899, 160.625
1275.111, 206.684
1276.322, 167.083
1277.533, 173.780
1278.744, 184.384
1279.955, 177.798
1281.165, 208.137
1282.376, 196.380
1283.586, 235.308
1284.796, 198.258
1286.006, 166.252
1287.215, 200.292
1288.425, 197.329
1289.634, 219.682
1290.843, 204.143
1292.052, 185.506
1293.261, 177.471
1294.469, 181.908
1295.678, 200.305
1296.886, 197.292
1298.094, 212.386
1299.302, 202.068
1300.509, 158.956
1301.717, 158.378
1302.924, 171.081
1304.131, 207.170
1305.338, 164.365
1306.545, 209.143
1307.752, 155.597
1308.958, 254.429
1310.164, 240.656
1311.370, 291.554
1312.576, 210.857
1313.782, 240.441
1314.987, 181.797
1316.193, 235.555
1317.398, 232.729
1318.603, 249.424
1319.807, 247.469
1321.012, 238.123
1322.216, 214.302
1323.421, 181.839
1324.625, 258.722
1325.829, 222.608
1327.032, 290.361
1328.236, 239.996
1329.439, 291.675
1330.642, 221.660
1331.845, 251.097
1333.048, 190.362
1334.251, 205.483
1335.453, 327.913
1336.656, 272.048
1337.858, 233.346
1339.060, 246.369
1340.261, 153.139
1341.463, 186.955
1342.664, 188.385
1343.866, 183.497
1345.067, 153.663
1346.267, 171.274
1347.468, 133.668
1348.669, 131.006
1349.869, 127.770
1351.069, 98.142
1352.269, 112.689
1353.469, 83.001
1354.668, 61.836
1355.868, 81.414
1357.067, 71.837
1358.266, 74.450
1359.465, 64.116
1360.664, 58.040
1361.862, 58.690
1363.061, 44.451
1364.259, 47.848
1365.457, 48.432
1366.655, 47.673
1367.852, 56.595
1369.050, 6.961
1370.247, 55.127
1371.444, 77.989
1372.641, 1.976
1373.838, 28.977
1375.035, 6.108
1376.231, 35.858
1377.427, 19.569
1378.623, 29.434
1379.819, 39.146
1381.015, 5.126
1382.211, 12.567
1383.406, 7.904
1384.601, 46.222
1385.796, 58.466
1386.991, 20.503
1388.185, 5.728
1389.380, 5.926
1390.574, 8.410
1391.768, 46.530
1392.962, 8.562
1394.156, 2.098
1395.350, 46.042
1396.543, 28.452
1397.736, 12.028
1398.929, 50.399
1400.122, 65.877
1401.315, 26.750
1402.507, 40.835
1403.700, 39.793
1404.892, 69.844
1406.084, 24.106
1407.276, 16.031
1408.467, 32.098
1409.659, 69.293
1410.850, 18.837
1412.041, 3.936
1413.232, 107.053
1414.423, 52.799
1415.614, 74.373
1416.804, 32.167
1417.994, 72.885
1419.184, 51.247
1420.374, 107.441
1421.564, 89.362
1422.753, 107.500
1423.943, 132.766
1425.132, 60.746
1426.321, 89.562
1427.510, 106.584
1428.698, 156.697
1429.887, 146.673
1431.075, 84.188
1432.263, 128.231
1433.451, 112.184
1434.639, 147.252
1435.827, 118.520
1437.014, 195.479
1438.201, 211.008
1439.388, 224.234
1440.575, 212.161
1441.762, 164.423
1442.949, 150.757
1444.135, 162.716
1445.321, 114.249
1446.507, 159.585
1447.693, 219.063
1448.879, 125.974
1450.064, 183.827
1451.250, 144.624
1452.435, 161.441
1453.620, 124.644
1454.805, 105.569
1455.989, 129.837
1457.174, 153.943
1458.358, 169.623
1459.542, 163.707
1460.726, 114.386
1461.910, 149.487
1463.093, 124.259
1464.277, 136.233
1465.460, 111.880
1466.643, 87.437
1467.826, 69.543
1469.009, 58.289
1470.191, 47.090
1471.373, 58.927
1472.556, 54.444
1473.738, 67.632
1474.919, 98.262
1476.101, 97.377
1477.283, 56.409
1478.464, 121.437
1479.645, 30.045
1480.826, 77.915
1482.007, 58.062
1483.187, 61.829
1484.368, 96.104
1485.548, 108.694
1486.728, 74.517
1487.908, 56.620
1489.088, 98.133
1490.268, 54.335
1491.447, 132.831
1492.626, 76.606
1493.805, 74.227
1494.984, 95.191
1496.163, 96.996
1497.341, 88.401
1498.520, 57.227
1499.698, 136.306
1500.876, 30.542
1502.054, 79.553
1503.232, 19.852
1504.409, 59.699
1505.586, 50.708
1506.763, 53.433
