##NAMES=Olmiite
##RRUFFID=R050177
##IDEAL CHEMISTRY=CaMn^2+^SiO_3_(OH)_2_
##LOCALITY=N'Chwaning II mine, Kuruman, South Africa
##OWNER=RRUFF
##SOURCE=Marcus Origlieri
##DESCRIPTION=Gray etched crystals
##STATUS=The identification of this mineral has been confirmed by X-ray diffraction and chemical analysis
##URL=rruff.info/R050177
##MEASURED CHEMISTRY=Ca_1.00_(Mn_0.98_Ca_0.02_)(Si_1.00_O_3_OH)(OH)
56.365, 0.000
57.765, 19.010
59.164, 101.779
60.563, 148.257
61.962, 180.939
63.360, 237.379
64.758, 124.034
66.157, 139.242
67.554, 4.184
68.952, 26.428
70.349, 5.349
71.747, 159.016
73.144, 255.501
74.540, 426.799
75.937, 582.792
77.333, 727.387
78.729, 643.506
80.125, 480.087
81.521, 383.076
82.916, 478.434
84.311, 882.135
85.706, 1091.147
87.101, 1193.440
88.496, 1401.062
89.890, 1644.606
91.284, 1905.438
92.678, 1819.413
94.071, 1593.524
95.465, 1279.764
96.858, 1176.129
98.251, 989.613
99.644, 1051.208
101.036, 1214.907
102.428, 1231.698
103.820, 1407.575
105.212, 1601.533
106.604, 1771.970
107.995, 1849.243
109.387, 2249.988
110.777, 2097.392
112.168, 2344.856
113.559, 2759.382
114.949, 3255.966
116.339, 4146.613
117.729, 5064.324
119.119, 5608.124
120.508, 5245.760
121.897, 4076.599
123.286, 2843.283
124.675, 2186.279
126.063, 1661.329
127.452, 1477.434
128.840, 1615.592
130.228, 2037.803
131.615, 1492.066
133.003, 1168.377
134.390, 1002.736
135.777, 675.144
137.164, 521.598
138.550, 340.098
139.937, 303.640
141.323, 311.210
142.709, 249.795
144.094, 231.385
145.480, 244.968
146.865, 186.506
148.250, 209.059
149.635, 213.633
151.019, 203.231
152.403, 304.857
153.788, 309.511
155.171, 430.197
156.555, 572.914
157.939, 754.663
159.322, 1037.521
160.705, 1217.655
162.088, 1533.924
163.470, 1587.748
164.853, 1448.609
166.235, 1181.506
167.617, 812.441
168.998, 600.413
170.380, 489.422
171.761, 321.467
173.142, 237.549
174.523, 220.677
175.904, 222.874
177.284, 170.534
178.664, 214.450
180.044, 126.819
181.424, 80.450
182.803, 91.908
184.183, 36.578
185.562, 89.264
186.940, 35.914
188.319, 46.529
189.698, 38.109
191.076, 26.346
192.454, 126.835
193.831, 141.359
195.209, 319.916
196.586, 445.506
197.963, 602.128
199.340, 802.782
200.717, 1167.467
202.093, 1452.180
203.470, 1713.917
204.846, 1846.636
206.221, 1813.357
207.597, 1681.099
208.972, 1645.866
210.347, 1654.656
211.722, 1523.470
213.097, 1593.305
214.472, 1593.162
215.846, 1571.039
217.220, 1327.936
218.594, 1042.851
219.967, 794.785
221.341, 674.735
222.714, 644.560
224.087, 580.260
225.460, 545.795
226.832, 543.354
228.204, 599.314
229.577, 562.201
230.948, 614.157
232.320, 647.217
233.692, 671.828
235.063, 707.446
236.434, 940.208
237.805, 1156.550
239.175, 1527.955
240.545, 2012.417
241.916, 2548.937
243.286, 3309.506
244.655, 3900.123
246.025, 4253.807
247.394, 4439.542
248.763, 4013.325
250.132, 3288.144
251.501, 2496.003
252.869, 1857.896
254.237, 1197.831
255.605, 730.793
256.973, 465.803
258.340, 225.851
259.708, 123.927
261.075, 2.953
262.442, 15.804
263.808, 46.628
265.175, 44.429
266.541, 23.208
267.907, 51.040
269.273, 42.318
270.639, 147.629
272.004, 197.966
273.369, 111.331
274.734, 190.720
276.099, 163.144
277.463, 121.591
278.828, 176.062
280.192, 150.559
281.556, 195.073
282.919, 178.603
284.283, 128.158
285.646, 187.716
287.009, 151.263
288.372, 160.009
289.734, 136.166
291.097, 95.117
292.459, 115.636
293.821, 182.319
295.183, 188.479
296.544, 173.501
297.905, 215.376
299.266, 137.853
300.627, 124.194
301.988, 48.995
303.348, 32.176
304.709, 28.327
306.069, 102.450
307.428, 102.568
308.788, 67.689
310.147, 34.783
311.507, 6.140
312.865, 159.084
314.224, 247.038
315.583, 325.011
316.941, 530.013
318.299, 736.027
319.657, 916.048
321.015, 1121.089
322.372, 1414.164
323.729, 1717.252
325.086, 2066.344
326.443, 2307.448
327.800, 2603.566
329.156, 2837.188
330.512, 3164.834
331.868, 3237.983
333.224, 3455.145
334.579, 3584.313
335.935, 3560.486
337.290, 3234.657
338.645, 3014.828
339.999, 2584.997
341.354, 2298.164
342.708, 1991.327
344.062, 1674.488
345.416, 1414.636
346.769, 1230.730
348.123, 1008.851
349.476, 786.621
350.829, 581.767
352.182, 567.524
353.534, 527.596
354.887, 534.646
356.239, 484.690
357.591, 568.729
358.942, 590.761
360.294, 591.788
361.645, 766.808
362.996, 893.821
364.347, 1128.828
365.698, 1289.826
367.048, 1515.817
368.398, 1936.800
369.748, 2354.775
371.098, 2814.742
372.448, 3392.700
373.797, 3885.648
375.146, 4346.587
376.495, 4581.519
377.844, 4594.439
379.192, 4419.348
380.540, 3847.251
381.889, 3594.145
383.236, 3084.027
384.584, 2738.899
385.932, 2395.761
387.279, 2238.614
388.626, 2140.458
389.973, 2169.293
391.319, 2177.120
392.666, 2383.954
394.012, 2599.029
395.358, 2780.209
396.704, 2997.775
398.049, 3155.355
399.394, 3217.442
400.740, 3265.549
402.084, 3108.509
403.429, 2834.504
404.774, 2641.047
406.118, 2321.095
407.462, 2090.717
408.806, 1930.658
410.150, 1759.462
411.493, 1616.902
412.836, 1599.185
414.179, 1610.135
415.522, 1666.560
416.865, 1620.609
418.207, 1827.925
419.549, 1784.670
420.891, 1756.764
422.233, 1725.233
423.575, 1591.537
424.916, 1501.815
426.257, 1290.098
427.598, 1216.307
428.939, 1095.636
430.279, 1047.038
431.619, 1017.352
432.959, 1048.301
434.299, 982.912
435.639, 985.323
436.978, 936.170
438.318, 847.471
439.657, 768.831
440.996, 570.675
442.334, 542.736
443.673, 354.781
445.011, 315.895
446.349, 221.907
447.687, 141.352
449.024, 83.641
450.361, 39.343
451.699, 58.512
453.036, 2.856
454.372, 27.020
455.709, 54.466
457.045, 24.318
458.381, 5.365
459.717, 52.159
461.053, 67.296
462.388, 168.579
463.724, 218.117
465.059, 249.987
466.394, 405.806
467.728, 431.156
469.063, 560.852
470.397, 727.411
471.731, 916.528
473.065, 1170.692
474.398, 1491.822
475.732, 1676.459
477.065, 1869.126
478.398, 1897.113
479.731, 1969.193
481.063, 1954.865
482.396, 2045.206
483.728, 2107.683
485.060, 2197.632
486.391, 2276.312
487.723, 2297.269
489.054, 2324.950
490.385, 2135.846
491.716, 2032.905
493.047, 1945.069
494.377, 1790.354
495.708, 1653.894
497.038, 1618.712
498.368, 1587.492
499.697, 1634.232
501.027, 1693.304
502.356, 1829.596
503.685, 1984.219
505.014, 2182.802
506.342, 2528.346
507.671, 2945.851
508.999, 3479.322
510.327, 4074.768
511.655, 4483.178
512.982, 4770.557
514.310, 4944.899
515.637, 4834.204
516.964, 4500.467
518.291, 4278.692
519.617, 3771.877
520.944, 3394.023
522.270, 3144.129
523.596, 2846.194
524.921, 2829.221
526.247, 2703.208
527.572, 2705.155
528.897, 2598.062
530.222, 2540.929
531.547, 2317.757
532.871, 2125.545
534.196, 1867.293
535.520, 1517.002
536.844, 1312.670
538.167, 1147.299
539.491, 960.342
540.814, 775.182
542.137, 713.691
543.460, 608.302
544.783, 553.747
546.105, 442.137
547.427, 328.488
548.749, 332.800
550.071, 238.072
551.393, 198.304
552.714, 137.496
554.035, 120.646
555.356, 91.519
556.677, 89.814
557.998, 66.828
559.318, 64.791
560.638, 68.702
561.958, 36.563
563.278, 83.364
564.597, 61.118
565.917, 30.179
567.236, 12.434
568.555, 28.978
569.874, 93.462
571.192, 45.902
572.511, 108.289
573.829, 16.634
575.147, 91.915
576.464, 32.846
577.782, 7.304
579.099, 41.387
580.416, 22.582
581.733, 31.368
583.050, 25.263
584.366, 25.103
585.683, 26.893
586.999, 15.788
588.315, 3.318
589.630, 1.062
590.946, 13.492
592.261, 12.988
593.576, 15.287
594.891, 26.191
596.206, 14.115
597.520, 11.366
598.834, 1.561
600.148, 37.718
601.462, 36.461
602.776, 6.053
604.089, 33.179
605.402, 61.689
606.715, 44.838
608.028, 7.259
609.341, 22.873
610.653, 18.820
611.965, 50.119
613.277, 29.369
614.589, 96.646
615.901, 39.418
617.212, 68.397
618.523, 59.865
619.834, 32.245
621.145, 54.126
622.456, 42.082
623.766, 73.101
625.076, 46.198
626.386, 22.344
627.696, 101.523
629.006, 41.786
630.315, 46.106
631.624, 0.511
632.933, 41.909
634.242, 76.388
635.551, 19.943
636.859, 6.542
638.167, 51.177
639.475, 111.872
640.783, 36.656
642.090, 46.488
643.398, 76.373
644.705, 51.325
646.012, 32.329
647.318, 38.374
648.625, 43.463
649.931, 47.596
651.237, 33.892
652.543, 19.179
653.849, 7.767
655.155, 41.500
656.460, 81.213
657.765, 139.905
659.070, 86.578
660.375, 122.230
661.679, 174.864
662.984, 232.479
664.288, 269.325
665.592, 320.035
666.895, 339.219
668.199, 408.765
669.502, 414.295
670.805, 457.809
672.108, 416.308
673.411, 460.792
674.713, 480.260
676.016, 412.715
677.318, 438.156
678.620, 399.584
679.921, 359.999
681.223, 348.402
682.524, 301.792
683.825, 251.172
685.126, 228.542
686.427, 191.900
687.727, 116.250
689.028, 114.589
690.328, 98.920
691.628, 46.243
692.927, 61.558
694.227, 109.865
695.526, 29.834
696.825, 21.545
698.124, 54.735
699.423, 11.991
700.721, 2.277
702.020, 19.539
703.318, 14.798
704.616, 84.193
705.913, 237.304
707.211, 242.553
708.508, 344.786
709.805, 470.769
711.102, 550.636
712.399, 653.115
713.695, 858.581
714.992, 846.533
716.288, 1078.455
717.584, 1245.515
718.879, 1320.528
720.175, 1469.985
721.470, 1582.927
722.765, 1773.286
724.060, 1862.315
725.355, 1936.210
726.649, 1972.985
727.944, 1890.644
729.238, 1890.628
730.532, 1749.126
731.825, 1530.993
733.119, 1414.584
734.412, 1276.737
735.705, 1052.534
736.998, 950.945
738.291, 752.468
739.584, 804.789
740.876, 720.167
742.168, 613.690
743.460, 509.753
744.752, 414.188
746.043, 401.418
747.334, 315.575
748.626, 222.780
749.916, 195.178
751.207, 59.133
752.498, 40.629
753.788, 24.060
755.078, 2.000
756.368, 56.281
757.658, 43.522
758.947, 28.327
760.237, 23.162
761.526, 28.146
762.815, 82.603
764.104, 72.514
765.392, 147.209
766.680, 286.596
767.969, 309.150
769.257, 343.415
770.544, 535.267
771.832, 627.917
773.119, 842.807
774.406, 1049.349
775.693, 1209.740
776.980, 1469.873
778.267, 1668.881
779.553, 1974.061
780.839, 2286.053
782.125, 2652.665
783.411, 3001.433
784.697, 3369.406
785.982, 3750.580
787.267, 4176.117
788.552, 4668.146
789.837, 5167.148
791.122, 5580.827
792.406, 6019.417
793.690, 6388.416
794.974, 6787.746
796.258, 7343.946
797.542, 7915.685
798.825, 8632.716
800.108, 9393.487
801.391, 10185.554
802.674, 10677.419
803.957, 11305.140
805.239, 11886.790
806.522, 12450.327
807.804, 13547.646
809.085, 14045.709
810.367, 15390.852
811.649, 16244.048
812.930, 16246.320
814.211, 15755.652
815.492, 14641.058
816.772, 12841.529
818.053, 11393.063
819.333, 9869.661
820.613, 8753.322
821.893, 7746.045
823.173, 7247.818
824.452, 6576.634
825.732, 6363.497
827.011, 6105.406
828.290, 6092.361
829.568, 5850.369
830.847, 5974.440
832.125, 5904.587
833.403, 6312.796
834.681, 6581.069
835.959, 6912.396
837.236, 7483.793
838.514, 8258.259
839.791, 9433.789
841.068, 11343.383
842.345, 12769.042
843.621, 15144.760
844.898, 18267.549
846.174, 21790.398
847.450, 25939.297
848.726, 31107.270
850.001, 35702.859
851.277, 39432.668
852.552, 41369.824
853.827, 41734.895
855.102, 39567.145
856.376, 35752.465
857.651, 31436.844
858.925, 27533.287
860.199, 23617.797
861.473, 19536.348
862.746, 16583.973
864.020, 14005.647
865.293, 11906.380
866.566, 9956.174
867.839, 8661.027
869.112, 7394.940
870.384, 6302.915
871.656, 5585.953
872.928, 4815.061
874.200, 4277.229
875.472, 3834.457
876.744, 3547.768
878.015, 3087.150
879.286, 2862.602
880.557, 2560.113
881.828, 2406.690
883.098, 2235.327
884.369, 2010.038
885.639, 1885.812
886.909, 1793.668
888.178, 1798.598
889.448, 1723.589
890.717, 1671.653
891.987, 1729.782
893.256, 1692.975
894.524, 1894.227
895.793, 2032.548
897.061, 2163.934
898.330, 2475.386
899.598, 2776.907
900.865, 3032.500
902.133, 3258.158
903.401, 3254.877
904.668, 3295.673
905.935, 3150.531
907.202, 3137.453
908.468, 2998.419
909.735, 3082.813
911.001, 3198.478
912.267, 3502.401
913.533, 3685.076
914.799, 3840.744
916.064, 4189.125
917.330, 4400.574
918.595, 4565.082
919.860, 4445.655
921.124, 4192.304
922.389, 3873.010
923.653, 3340.801
924.918, 2757.644
926.182, 2245.564
927.445, 1746.560
928.709, 1422.625
929.972, 1190.761
931.236, 1061.965
932.499, 974.245
933.761, 908.593
935.024, 959.002
936.286, 944.493
937.549, 1114.047
938.811, 1460.667
940.073, 1669.340
941.334, 2098.076
942.596, 2454.883
943.857, 3222.747
945.118, 3855.661
946.379, 4847.639
947.640, 5948.471
948.900, 7237.925
950.161, 8765.299
951.421, 9852.351
952.681, 10776.735
953.940, 10875.976
955.200, 10420.331
956.459, 9329.012
957.719, 8042.641
958.978, 6824.664
960.236, 5655.888
961.495, 4852.768
962.753, 3984.527
964.012, 3410.323
965.270, 2926.688
966.527, 2537.141
967.785, 2262.910
969.043, 1964.646
970.300, 1826.338
971.557, 1654.872
972.814, 1456.189
974.071, 1313.221
975.327, 1180.271
976.583, 1064.353
977.840, 1012.467
979.095, 951.614
980.351, 775.608
981.607, 679.375
982.862, 696.462
984.117, 542.445
985.372, 506.116
986.627, 501.146
987.882, 439.740
989.136, 374.902
990.390, 471.050
991.644, 359.953
992.898, 439.230
994.152, 435.027
995.405, 513.338
996.659, 522.780
997.912, 612.997
999.165, 629.855
1000.417, 673.880
1001.670, 742.896
1002.922, 659.838
1004.174, 785.789
1005.426, 686.193
1006.678, 793.664
1007.930, 728.166
1009.181, 713.174
1010.432, 630.686
1011.683, 646.819
1012.934, 570.615
1014.185, 603.322
1015.435, 523.712
1016.685, 572.163
1017.935, 514.979
1019.185, 542.734
1020.435, 511.217
1021.684, 470.538
1022.934, 364.097
1024.183, 395.297
1025.432, 351.733
1026.680, 263.790
1027.929, 271.694
1029.177, 228.343
1030.425, 249.669
1031.673, 240.307
1032.921, 247.504
1034.169, 232.625
1035.416, 234.625
1036.663, 203.964
1037.911, 200.113
1039.157, 211.986
1040.404, 182.262
1041.650, 170.050
1042.897, 173.540
1044.143, 197.654
1045.389, 177.497
1046.634, 193.899
1047.880, 168.362
1049.125, 160.070
1050.371, 129.359
1051.615, 99.910
1052.860, 156.309
1054.105, 114.446
1055.349, 108.976
1056.593, 98.392
1057.837, 81.449
1059.081, 66.420
1060.325, 64.206
1061.568, 39.891
1062.812, 58.482
1064.055, 75.867
1065.298, 69.774
1066.540, 64.240
1067.783, 83.784
1069.025, 75.440
1070.267, 89.351
1071.509, 125.480
1072.751, 131.930
1073.993, 146.335
1075.234, 208.648
1076.475, 188.302
1077.716, 97.032
1078.957, 197.315
1080.198, 143.541
1081.438, 85.682
1082.679, 132.237
1083.919, 134.400
1085.159, 145.622
1086.398, 156.640
1087.638, 183.683
1088.877, 104.932
1090.116, 131.010
1091.355, 114.046
1092.594, 62.122
1093.833, 75.319
1095.071, 11.377
1096.309, 24.413
1097.547, 37.549
1098.785, 88.667
1100.023, 96.794
1101.260, 47.686
1102.498, 60.727
1103.735, 59.939
1104.972, 111.177
1106.208, 41.627
1107.445, 111.205
1108.681, 79.906
1109.918, 135.654
1111.154, 34.612
1112.389, 113.522
1113.625, 56.476
1114.860, 103.348
1116.096, 58.257
1117.331, 71.376
1118.566, 52.542
1119.800, 47.807
1121.035, 58.102
1122.269, 57.425
1123.503, 129.979
1124.737, 131.076
1125.971, 231.891
1127.205, 140.152
1128.438, 8.091
1129.671, 34.650
1130.904, 85.542
1132.137, 18.140
1133.370, 27.184
1134.602, 0.900
1135.834, 38.052
1137.066, 45.262
1138.298, 27.249
1139.530, 21.538
1140.762, 9.814
1141.993, 0.424
1143.224, 38.753
1144.455, 7.296
1145.686, 39.162
1146.917, 10.650
1148.147, 43.563
1149.377, 25.559
1150.607, 29.528
1151.837, 31.563
1153.067, 50.511
1154.296, 23.872
1155.526, 52.703
1156.755, 0.744
1157.984, 8.915
1159.213, 98.944
1160.441, 26.374
1161.670, 58.824
1162.898, 77.188
1164.126, 40.354
1165.354, 62.503
1166.581, 67.425
1167.809, 84.520
1169.036, 52.182
1170.263, 47.241
1171.490, 60.417
1172.717, 103.635
1173.943, 70.135
1175.170, 78.858
1176.396, 54.259
1177.622, 66.460
1178.848, 70.748
1180.073, 61.759
1181.299, 47.831
1182.524, 52.535
1183.749, 75.479
1184.974, 71.171
1186.199, 129.792
1187.423, 183.348
1188.648, 109.844
1189.872, 140.276
1191.096, 229.644
1192.320, 68.949
1193.543, 165.185
1194.767, 152.357
1195.990, 127.505
1197.213, 60.599
1198.436, 146.851
1199.659, 173.890
1200.881, 106.980
1202.104, 153.986
1203.326, 173.148
1204.548, 115.034
1205.770, 182.134
1206.991, 151.009
1208.213, 170.210
1209.434, 155.097
1210.655, 186.154
1211.876, 176.311
1213.096, 119.159
1214.317, 195.567
1215.537, 153.894
1216.757, 208.229
1217.977, 147.560
1219.197, 178.245
1220.417, 183.455
1221.636, 199.041
1222.855, 157.381
1224.074, 152.095
1225.293, 202.683
1226.512, 215.276
1227.731, 233.056
1228.949, 167.173
1230.167, 223.152
1231.385, 209.495
1232.603, 255.236
1233.820, 247.585
1235.038, 201.134
1236.255, 239.247
1237.472, 245.769
1238.689, 234.031
1239.906, 208.889
1241.122, 231.223
1242.338, 204.932
1243.555, 267.730
1244.771, 254.245
1245.986, 238.261
1247.202, 187.764
1248.417, 198.835
1249.633, 213.770
1250.848, 207.151
1252.063, 233.243
1253.277, 250.387
1254.492, 255.145
1255.706, 245.688
1256.920, 264.521
1258.134, 239.480
1259.348, 221.240
1260.562, 183.684
1261.775, 169.810
1262.988, 195.721
1264.201, 184.590
1265.414, 189.150
1266.627, 177.535
1267.839, 198.479
1269.052, 183.583
1270.264, 209.732
1271.476, 178.913
1272.688, 227.695
1273.899, 114.840
1275.111, 207.568
1276.322, 223.680
1277.533, 139.408
1278.744, 212.256
1279.955, 161.326
1281.165, 155.186
1282.376, 194.273
1283.586, 130.757
1284.796, 167.364
1286.006, 144.031
1287.215, 173.197
1288.425, 151.138
1289.634, 146.172
1290.843, 129.330
1292.052, 178.604
1293.261, 182.005
1294.469, 146.176
1295.678, 167.350
1296.886, 136.511
1298.094, 92.622
1299.302, 118.237
1300.509, 139.737
1301.717, 192.157
1302.924, 145.194
1304.131, 79.720
1305.338, 167.556
1306.545, 144.700
1307.752, 150.908
1308.958, 184.334
1310.164, 171.800
1311.370, 210.763
1312.576, 154.573
1313.782, 243.514
1314.987, 131.874
1316.193, 101.529
1317.398, 87.911
1318.603, 216.561
1319.807, 146.526
1321.012, 207.876
1322.216, 237.368
1323.421, 199.196
1324.625, 247.976
1325.829, 215.194
1327.032, 239.094
1328.236, 278.662
1329.439, 287.124
1330.642, 257.394
1331.845, 275.262
1333.048, 268.591
1334.251, 257.154
1335.453, 275.818
1336.656, 247.029
1337.858, 259.883
1339.060, 274.772
1340.261, 235.296
1341.463, 231.656
1342.664, 172.176
1343.866, 206.865
1345.067, 178.144
1346.267, 179.638
1347.468, 125.642
1348.669, 175.189
1349.869, 105.512
1351.069, 142.432
1352.269, 74.141
1353.469, 104.852
1354.668, 73.348
1355.868, 55.972
1357.067, 80.465
1358.266, 147.174
1359.465, 27.698
1360.664, 128.709
1361.862, 112.141
1363.061, 54.871
1364.259, 103.778
1365.457, 49.745
1366.655, 65.603
1367.852, 29.033
1369.050, 31.319
1370.247, 25.929
1371.444, 94.781
1372.641, 47.348
1373.838, 51.405
1375.035, 6.246
1376.231, 58.942
1377.427, 12.294
1378.623, 62.468
1379.819, 40.662
1381.015, 47.384
1382.211, 2.253
1383.406, 13.978
1384.601, 42.051
1385.796, 12.572
1386.991, 14.639
1388.185, 64.753
1389.380, 24.656
1390.574, 13.930
1391.768, 65.430
1392.962, 4.193
1394.156, 2.052
1395.350, 0.009
1396.543, 73.533
1397.736, 7.924
1398.929, 36.391
1400.122, 70.874
1401.315, 66.351
1402.507, 90.765
1403.700, 47.397
1404.892, 70.424
1406.084, 54.602
1407.276, 59.436
1408.467, 34.418
1409.659, 83.361
1410.850, 106.204
1412.041, 128.077
1413.232, 105.076
1414.423, 81.936
1415.614, 160.047
1416.804, 62.923
1417.994, 196.002
1419.184, 138.708
1420.374, 145.474
1421.564, 133.441
1422.753, 146.434
1423.943, 101.384
1425.132, 141.600
1426.321, 141.201
1427.510, 106.249
1428.698, 142.435
1429.887, 163.794
1431.075, 85.196
1432.263, 170.559
1433.451, 100.873
1434.639, 118.140
1435.827, 164.302
1437.014, 169.971
1438.201, 162.503
1439.388, 212.500
1440.575, 209.293
1441.762, 215.969
1442.949, 192.250
1444.135, 215.471
1445.321, 126.543
1446.507, 116.852
1447.693, 120.214
1448.879, 113.939
1450.064, 103.380
1451.250, 112.835
1452.435, 74.160
1453.620, 88.008
1454.805, 122.359
1455.989, 128.778
1457.174, 47.191
1458.358, 146.947
1459.542, 41.193
1460.726, 152.485
1461.910, 136.139
1463.093, 57.611
1464.277, 67.320
1465.460, 47.771
1466.643, 59.885
1467.826, 102.330
1469.009, 35.571
1470.191, 129.610
1471.373, 12.971
1472.556, 41.838
1473.738, 123.845
1474.919, 34.861
1476.101, 7.708
1477.283, 140.250
1478.464, 70.487
1479.645, 18.828
1480.826, 44.662
1482.007, 100.213
1483.187, 63.691
1484.368, 113.625
1485.548, 11.585
1486.728, 117.415
1487.908, 98.571
1489.088, 118.771
1490.268, 7.612
1491.447, 171.934
1492.626, 101.692
1493.805, 77.336
1494.984, 93.128
1496.163, 119.662
1497.341, 179.874
1498.520, 105.696
1499.698, 142.903
