##NAMES=Olmiite
##RRUFFID=R050177
##IDEAL CHEMISTRY=CaMn^2+^SiO_3_(OH)_2_
##LOCALITY=N'Chwaning II mine, Kuruman, South Africa
##OWNER=RRUFF
##SOURCE=Marcus Origlieri
##DESCRIPTION=Gray etched crystals
##STATUS=The identification of this mineral has been confirmed by X-ray diffraction and chemical analysis
##URL=rruff.info/R050177
##MEASURED CHEMISTRY=Ca_1.00_(Mn_0.98_Ca_0.02_)(Si_1.00_O_3_OH)(OH)
75.937, 0.000
77.333, 286.723
78.729, 345.587
80.125, 99.501
81.521, 11.379
82.916, 304.387
84.311, 1380.923
85.706, 1719.948
87.101, 2136.332
88.496, 2685.219
89.890, 3136.236
91.284, 3126.885
92.678, 2701.519
94.071, 1792.481
95.465, 978.349
96.858, 602.879
98.251, 398.839
99.644, 331.101
101.036, 450.578
102.428, 438.443
103.820, 535.573
105.212, 600.956
106.604, 756.138
107.995, 1011.425
109.387, 1280.949
110.777, 1543.819
112.168, 1913.125
113.559, 2509.942
114.949, 3240.329
116.339, 3863.566
117.729, 4520.247
119.119, 4676.641
120.508, 4032.783
121.897, 3233.703
123.286, 2495.432
124.675, 2416.996
126.063, 2289.417
127.452, 2337.714
128.840, 2696.009
130.228, 2844.547
131.615, 2690.458
133.003, 2584.364
134.390, 1614.850
135.777, 1112.289
137.164, 736.293
138.550, 479.424
139.937, 497.677
141.323, 382.047
142.709, 341.529
144.094, 375.121
145.480, 364.810
146.865, 407.582
148.250, 365.427
149.635, 303.346
151.019, 199.337
152.403, 161.397
153.788, 81.528
155.171, 40.725
156.555, 74.990
157.939, 133.322
159.322, 170.712
160.705, 143.145
162.088, 246.638
163.470, 249.198
164.853, 190.835
166.235, 93.549
167.617, 75.343
168.998, 38.215
170.380, 59.165
171.761, 113.192
173.142, 124.296
174.523, 162.472
175.904, 197.718
177.284, 207.030
178.664, 115.406
180.044, 68.845
181.424, 34.657
182.803, 96.102
184.183, 142.491
185.562, 180.824
186.940, 161.112
188.319, 124.365
189.698, 64.588
191.076, 92.779
192.454, 33.939
193.831, 14.067
195.209, 14.836
196.586, 45.772
197.963, 101.740
199.340, 174.739
200.717, 237.770
202.093, 343.832
203.470, 456.927
204.846, 533.053
206.221, 660.211
207.597, 666.399
208.972, 736.618
210.347, 795.867
211.722, 692.129
213.097, 579.292
214.472, 566.266
215.846, 536.118
217.220, 503.910
218.594, 513.711
219.967, 523.546
221.341, 659.417
222.714, 700.322
224.087, 835.260
225.460, 1013.229
226.832, 1105.229
228.204, 1195.261
229.577, 1230.320
230.948, 1288.409
232.320, 1338.525
233.692, 1479.670
235.063, 1686.853
236.434, 1997.076
237.805, 2484.344
239.175, 3168.671
240.545, 4077.057
241.916, 4948.688
243.286, 5906.724
244.655, 6570.011
246.025, 7261.546
247.394, 7176.062
248.763, 6606.934
250.132, 5693.924
251.501, 4316.011
252.869, 3323.182
254.237, 2421.437
255.605, 1710.754
256.973, 1181.129
258.340, 879.544
259.708, 614.003
261.075, 449.509
262.442, 292.056
263.808, 241.642
265.175, 256.264
266.541, 172.920
267.907, 243.601
269.273, 297.289
270.639, 348.969
272.004, 381.638
273.369, 408.301
274.734, 500.957
276.099, 529.609
277.463, 602.259
278.828, 584.907
280.192, 664.556
281.556, 717.201
282.919, 705.854
284.283, 823.508
285.646, 790.175
287.009, 849.840
288.372, 723.505
289.734, 573.183
291.097, 515.911
292.459, 458.589
293.821, 345.283
295.183, 329.762
296.544, 253.936
297.905, 178.976
299.266, 190.933
300.627, 117.895
301.988, 87.887
303.348, 23.907
304.709, 23.969
306.069, 65.049
307.428, 62.154
308.788, 37.276
310.147, 144.434
311.507, 194.611
312.865, 321.824
314.224, 485.051
315.583, 595.304
316.941, 754.576
318.299, 1043.862
319.657, 1315.114
321.015, 1619.450
322.372, 2006.807
323.729, 2372.181
325.086, 2800.572
326.443, 3175.988
327.800, 3637.416
329.156, 3825.851
330.512, 4231.303
331.868, 4346.767
333.224, 4437.257
334.579, 4447.760
335.935, 4199.681
337.290, 4113.773
338.645, 3482.299
339.999, 2939.827
341.354, 2435.359
342.708, 1985.894
344.062, 1659.431
345.416, 1345.360
346.769, 1056.631
348.123, 857.024
349.476, 622.044
350.829, 515.334
352.182, 314.960
353.534, 250.333
354.887, 193.001
356.239, 120.189
357.591, 95.479
358.942, 76.991
360.294, 72.523
361.645, 128.056
362.996, 101.587
364.347, 97.115
365.698, 180.641
367.048, 274.163
368.398, 334.684
369.748, 455.202
371.098, 557.716
372.448, 676.227
373.797, 777.734
375.146, 894.239
376.495, 946.747
377.844, 987.253
379.192, 986.755
380.540, 933.254
381.889, 962.754
383.236, 1001.250
384.584, 1021.746
385.932, 1221.329
387.279, 1319.938
388.626, 1541.562
389.973, 1858.510
391.319, 2260.189
392.666, 2564.514
394.012, 3018.729
395.358, 3156.080
396.704, 3503.455
398.049, 3668.269
399.394, 3594.043
400.740, 3548.058
402.084, 3270.301
403.429, 2952.267
404.774, 2635.679
406.118, 2367.656
407.462, 2227.056
408.806, 1992.315
410.150, 1799.400
411.493, 1809.691
412.836, 1787.956
414.179, 1827.116
415.522, 1836.919
416.865, 1895.604
418.207, 2002.263
419.549, 2025.633
420.891, 1992.353
422.233, 1880.455
423.575, 1754.625
424.916, 1602.300
426.257, 1468.694
427.598, 1346.059
428.939, 1240.767
430.279, 1149.810
431.619, 1078.373
432.959, 1025.283
434.299, 988.649
435.639, 939.758
436.978, 957.061
438.318, 857.158
439.657, 795.958
440.996, 679.833
442.334, 560.969
443.673, 480.722
445.011, 349.829
446.349, 308.180
447.687, 240.932
449.024, 173.554
450.361, 148.313
451.699, 110.708
453.036, 136.171
454.372, 112.483
455.709, 116.761
457.045, 130.889
458.381, 145.905
459.717, 178.559
461.053, 205.649
462.388, 275.757
463.724, 290.816
465.059, 415.345
466.394, 477.268
467.728, 621.883
469.063, 753.876
470.397, 1039.239
471.731, 1273.115
473.065, 1518.534
474.398, 1781.241
475.732, 1904.780
477.065, 2131.597
478.398, 1929.447
479.731, 1840.904
481.063, 1739.645
482.396, 1673.316
483.728, 1597.988
485.060, 1537.625
486.391, 1497.813
487.723, 1543.441
489.054, 1549.481
490.385, 1535.564
491.716, 1502.673
493.047, 1423.377
494.377, 1270.181
495.708, 1192.892
497.038, 1152.603
498.368, 1089.163
499.697, 1002.782
501.027, 967.610
502.356, 984.252
503.685, 1019.960
505.014, 1093.929
506.342, 1267.375
507.671, 1335.813
508.999, 1427.256
510.327, 1590.714
511.655, 1700.179
512.982, 1730.644
514.310, 1706.134
515.637, 1640.572
516.964, 1559.996
518.291, 1488.937
519.617, 1271.855
520.944, 1295.569
522.270, 1129.912
523.596, 1002.248
524.921, 1053.469
526.247, 970.824
527.572, 896.268
528.897, 818.750
530.222, 810.804
531.547, 760.297
532.871, 669.521
534.196, 597.976
535.520, 490.745
536.844, 425.038
538.167, 397.995
539.491, 362.008
540.814, 311.192
542.137, 235.756
543.460, 236.367
544.783, 175.007
546.105, 166.609
547.427, 161.171
548.749, 102.694
550.071, 59.175
551.393, 74.606
552.714, 79.991
554.035, 71.332
555.356, 32.625
556.677, 20.863
557.998, 50.042
559.318, 15.170
560.638, 33.237
561.958, 18.751
563.278, 27.182
564.597, 3.940
565.917, 4.867
567.236, 28.609
568.555, 32.295
569.874, 58.928
571.192, 58.514
572.511, 27.053
573.829, 21.462
575.147, 12.945
576.464, 4.708
577.782, 17.572
579.099, 23.206
580.416, 46.061
581.733, 48.004
583.050, 41.037
584.366, 39.155
585.683, 36.358
586.999, 12.642
588.315, 18.995
589.630, 12.420
590.946, 3.111
592.261, 11.469
593.576, 7.917
594.891, 3.240
596.206, 5.860
597.520, 10.018
598.834, 7.206
600.148, 21.342
601.462, 9.508
602.776, 18.483
604.089, 21.573
605.402, 47.304
606.715, 42.048
608.028, 16.060
609.341, 59.677
610.653, 52.326
611.965, 24.990
613.277, 23.562
614.589, 28.107
615.901, 2.650
617.212, 8.536
618.523, 0.406
619.834, 18.003
621.145, 18.658
622.456, 75.370
623.766, 14.833
625.076, 16.003
626.386, 9.109
627.696, 62.819
629.006, 8.822
630.315, 66.872
631.624, 7.001
632.933, 40.163
634.242, 14.387
635.551, 0.658
636.859, 27.966
638.167, 66.043
639.475, 34.808
640.783, 20.469
642.090, 22.111
643.398, 64.349
644.705, 7.990
646.012, 4.332
647.318, 36.375
648.625, 22.131
649.931, 81.928
651.237, 19.795
652.543, 18.301
653.849, 6.371
655.155, 55.585
656.460, 4.406
657.765, 5.628
659.070, 1.690
660.375, 5.778
661.679, 14.893
662.984, 97.964
664.288, 23.798
665.592, 5.740
666.895, 22.443
668.199, 30.682
669.502, 30.907
670.805, 0.814
672.108, 8.665
673.411, 1.601
674.713, 6.164
676.016, 9.049
677.318, 18.139
678.620, 3.338
679.921, 5.334
681.223, 0.330
682.524, 10.652
683.825, 16.520
685.126, 19.851
686.427, 6.613
687.727, 23.940
689.028, 14.515
690.328, 26.109
691.628, 66.724
692.927, 23.373
694.227, 9.041
695.526, 14.725
696.825, 44.426
698.124, 19.151
699.423, 43.892
700.721, 56.345
702.020, 16.478
703.318, 60.566
704.616, 44.622
705.913, 96.336
707.211, 546.303
708.508, 397.619
709.805, 389.999
711.102, 463.241
712.399, 260.442
713.695, 431.188
714.992, 372.955
716.288, 569.465
717.584, 503.730
718.879, 600.256
720.175, 637.324
721.470, 620.812
722.765, 799.864
724.060, 826.041
725.355, 813.377
726.649, 833.490
727.944, 814.613
729.238, 767.823
730.532, 690.372
731.825, 603.023
733.119, 499.683
734.412, 468.614
735.705, 418.177
736.998, 324.342
738.291, 319.422
739.584, 228.979
740.876, 221.697
742.168, 231.635
743.460, 180.110
744.752, 60.234
746.043, 91.821
747.334, 62.046
748.626, 2.800
749.916, 28.795
751.207, 34.417
752.498, 77.559
753.788, 0.819
755.078, 13.989
756.368, 12.116
757.658, 60.150
758.947, 29.047
760.237, 23.688
761.526, 111.492
762.815, 104.260
764.104, 152.455
765.392, 147.465
766.680, 280.470
767.969, 296.076
769.257, 377.706
770.544, 561.530
771.832, 558.347
773.119, 738.573
774.406, 949.356
775.693, 1058.114
776.980, 1252.914
778.267, 1356.238
779.553, 1665.161
780.839, 1874.385
782.125, 2173.225
783.411, 2392.689
784.697, 2761.635
785.982, 3082.030
787.267, 3296.132
788.552, 3864.397
789.837, 4165.378
791.122, 4496.321
792.406, 4968.650
793.690, 5060.693
794.974, 5390.800
796.258, 5768.915
797.542, 6035.033
798.825, 6598.609
800.108, 7058.741
801.391, 7720.457
802.674, 8354.128
803.957, 9299.771
805.239, 10319.822
806.522, 11383.788
807.804, 13208.859
809.085, 14593.942
810.367, 16643.195
811.649, 17769.402
812.930, 18246.416
814.211, 17848.633
815.492, 16539.793
816.772, 14509.697
818.053, 12779.159
819.333, 11089.664
820.613, 9694.217
821.893, 8472.802
823.173, 8406.428
824.452, 7411.204
825.732, 6842.733
827.011, 6609.460
828.290, 6255.210
829.568, 6208.878
830.847, 6291.718
832.125, 6546.191
833.403, 6695.253
834.681, 7173.935
835.959, 7501.936
837.236, 8175.810
838.514, 9209.618
839.791, 10423.397
841.068, 12045.626
842.345, 14103.437
843.621, 17084.527
844.898, 20886.410
846.174, 23936.996
847.450, 28472.072
848.726, 33450.508
850.001, 37122.914
851.277, 39900.621
852.552, 40434.062
853.827, 39584.922
855.102, 36692.770
856.376, 32546.662
857.651, 28341.617
858.925, 24389.611
860.199, 21052.658
861.473, 17465.742
862.746, 14698.884
864.020, 12491.072
865.293, 10739.311
866.566, 8988.625
867.839, 7849.993
869.112, 6702.413
870.384, 5983.893
871.656, 5185.429
872.928, 4539.036
874.200, 3973.702
875.472, 3592.426
876.744, 3217.218
878.015, 2875.064
879.286, 2670.981
880.557, 2379.954
881.828, 2196.892
883.098, 2093.053
884.369, 1886.202
885.639, 1762.416
886.909, 1658.695
888.178, 1543.043
889.448, 1544.455
890.717, 1456.940
891.987, 1510.495
893.256, 1447.125
894.524, 1416.827
895.793, 1524.603
897.061, 1586.440
898.330, 1637.346
899.598, 1738.314
900.865, 1832.346
902.133, 1897.545
903.401, 1990.594
904.668, 2035.452
905.935, 2127.724
907.202, 2174.031
908.468, 2252.415
909.735, 2539.756
911.001, 2754.256
912.267, 3053.809
913.533, 3385.420
914.799, 3767.078
916.064, 4172.782
917.330, 4575.543
918.595, 4781.351
919.860, 4582.202
921.124, 4258.104
922.389, 3932.058
923.653, 3332.060
924.918, 2824.114
926.182, 2214.220
927.445, 1889.376
928.709, 1457.588
929.972, 1249.855
931.236, 1091.193
932.499, 1082.575
933.761, 1061.008
935.024, 1082.489
936.286, 1200.036
937.549, 1482.634
938.811, 1789.298
940.073, 2149.008
941.334, 2904.774
942.596, 3448.588
943.857, 4424.447
945.118, 5694.355
946.379, 7076.325
947.640, 9015.343
948.900, 11172.409
950.161, 13519.524
951.421, 15146.692
952.681, 16066.905
953.940, 15827.435
955.200, 14716.271
956.459, 12812.838
957.719, 10607.588
958.978, 8890.330
960.236, 7158.119
961.495, 5804.335
962.753, 4686.791
964.012, 4041.746
965.270, 3263.013
966.527, 2798.830
967.785, 2412.508
969.043, 1969.497
970.300, 1796.554
971.557, 1565.964
972.814, 1372.859
974.071, 1297.773
975.327, 1100.682
976.583, 1056.618
977.840, 901.585
979.095, 839.582
980.351, 695.686
981.607, 606.140
982.862, 598.224
984.117, 570.162
985.372, 428.817
986.627, 450.168
987.882, 349.221
989.136, 418.669
990.390, 389.983
991.644, 321.098
992.898, 368.830
994.152, 342.604
995.405, 368.814
996.659, 337.587
997.912, 428.861
999.165, 422.593
1000.417, 463.702
1001.670, 453.828
1002.922, 474.563
1004.174, 495.266
1005.426, 471.418
1006.678, 465.930
1007.930, 425.088
1009.181, 426.466
1010.432, 386.599
1011.683, 381.897
1012.934, 341.536
1014.185, 394.286
1015.435, 370.925
1016.685, 412.778
1017.935, 409.662
1019.185, 377.414
1020.435, 379.089
1021.684, 318.037
1022.934, 246.663
1024.183, 234.156
1025.432, 256.300
1026.680, 303.418
1027.929, 278.223
1029.177, 186.935
1030.425, 248.437
1031.673, 199.851
1032.921, 328.729
1034.169, 239.705
1035.416, 248.145
1036.663, 229.660
1037.911, 233.455
1039.157, 238.672
1040.404, 231.066
1041.650, 227.007
1042.897, 230.533
1044.143, 206.645
1045.389, 203.515
1046.634, 181.326
1047.880, 171.024
1049.125, 179.794
1050.371, 150.586
1051.615, 112.827
1052.860, 105.277
1054.105, 106.827
1055.349, 162.484
1056.593, 129.185
1057.837, 60.424
1059.081, 83.435
1060.325, 181.074
1061.568, 133.775
1062.812, 162.142
1064.055, 115.343
1065.298, 126.515
1066.540, 157.084
1067.783, 131.333
1069.025, 174.687
1070.267, 185.787
1071.509, 171.415
1072.751, 184.839
1073.993, 140.551
1075.234, 215.078
1076.475, 189.735
1077.716, 147.101
1078.957, 159.222
1080.198, 136.792
1081.438, 253.680
1082.679, 257.753
1083.919, 239.139
1085.159, 346.568
1086.398, 293.276
1087.638, 388.736
1088.877, 405.128
1090.116, 381.206
1091.355, 341.998
1092.594, 241.814
1093.833, 206.573
1095.071, 154.221
1096.309, 78.025
1097.547, 53.572
1098.785, 9.042
1100.023, 49.713
1101.260, 12.935
1102.498, 11.719
1103.735, 19.314
1104.972, 34.748
1106.208, 74.599
1107.445, 72.118
1108.681, 87.482
1109.918, 75.911
1111.154, 77.457
1112.389, 99.161
1113.625, 53.126
1114.860, 42.913
1116.096, 56.176
1117.331, 91.142
1118.566, 22.810
1119.800, 61.896
1121.035, 32.960
1122.269, 39.657
1123.503, 142.507
1124.737, 130.293
1125.971, 127.765
1127.205, 93.275
1128.438, 50.965
1129.671, 14.461
1130.904, 78.945
1132.137, 50.776
1133.370, 44.381
1134.602, 45.804
1135.834, 15.166
1137.066, 51.530
1138.298, 31.641
1139.530, 42.626
1140.762, 50.754
1141.993, 17.824
1143.224, 54.958
1144.455, 30.382
1145.686, 20.704
1146.917, 58.277
1148.147, 46.771
1149.377, 45.543
1150.607, 37.783
1151.837, 4.324
1153.067, 21.319
1154.296, 16.614
1155.526, 23.440
1156.755, 29.366
1157.984, 41.121
1159.213, 36.828
1160.441, 28.324
1161.670, 141.091
1162.898, 9.652
1164.126, 40.849
1165.354, 39.559
1166.581, 61.916
1167.809, 17.222
1169.036, 33.468
1170.263, 18.656
1171.490, 23.047
1172.717, 97.845
1173.943, 12.858
1175.170, 47.803
1176.396, 27.307
1177.622, 30.492
1178.848, 74.228
1180.073, 52.910
1181.299, 23.535
1182.524, 15.092
1183.749, 37.577
1184.974, 6.002
1186.199, 124.335
1187.423, 68.620
1188.648, 103.847
1189.872, 38.020
1191.096, 59.125
1192.320, 37.169
1193.543, 75.147
1194.767, 53.065
1195.990, 66.920
1197.213, 43.714
1198.436, 62.439
1199.659, 29.103
1200.881, 100.692
1202.104, 94.234
1203.326, 93.033
1204.548, 68.539
1205.770, 79.144
1206.991, 56.502
1208.213, 97.730
1209.434, 128.130
1210.655, 157.329
1211.876, 164.077
1213.096, 110.796
1214.317, 145.074
1215.537, 133.383
1216.757, 83.463
1217.977, 79.344
1219.197, 97.856
1220.417, 105.833
1221.636, 119.488
1222.855, 110.751
1224.074, 135.184
1225.293, 170.276
1226.512, 118.250
1227.731, 223.110
1228.949, 176.883
1230.167, 133.461
1231.385, 130.129
1232.603, 111.010
1233.820, 127.645
1235.038, 132.915
1236.255, 166.094
1237.472, 227.646
1238.689, 219.091
1239.906, 229.368
1241.122, 254.223
1242.338, 213.089
1243.555, 271.344
1244.771, 286.594
1245.986, 236.952
1247.202, 217.686
1248.417, 191.056
1249.633, 128.353
1250.848, 242.613
1252.063, 143.230
1253.277, 239.330
1254.492, 165.691
1255.706, 221.981
1256.920, 197.613
1258.134, 218.136
1259.348, 259.176
1260.562, 203.029
1261.775, 312.184
1262.988, 220.089
1264.201, 143.779
1265.414, 216.302
1266.627, 212.585
1267.839, 244.187
1269.052, 200.994
1270.264, 279.320
1271.476, 206.974
1272.688, 261.215
1273.899, 210.797
1275.111, 232.994
1276.322, 257.835
1277.533, 281.755
1278.744, 235.058
1279.955, 266.364
1281.165, 228.332
1282.376, 203.196
1283.586, 306.783
1284.796, 246.341
1286.006, 244.075
1287.215, 240.167
1288.425, 223.195
1289.634, 269.763
1290.843, 225.747
1292.052, 268.213
1293.261, 224.196
1294.469, 267.778
1295.678, 262.315
1296.886, 276.219
1298.094, 358.104
1299.302, 328.803
1300.509, 240.640
1301.717, 337.970
1302.924, 324.078
1304.131, 381.394
1305.338, 323.500
1306.545, 396.228
1307.752, 292.805
1308.958, 373.455
1310.164, 379.851
1311.370, 354.501
1312.576, 269.465
1313.782, 390.031
1314.987, 293.158
1316.193, 331.550
1317.398, 245.026
1318.603, 350.810
1319.807, 376.571
1321.012, 326.590
1322.216, 309.654
1323.421, 340.878
1324.625, 318.130
1325.829, 291.875
1327.032, 353.475
1328.236, 263.563
1329.439, 377.571
1330.642, 340.334
1331.845, 361.507
1333.048, 293.080
1334.251, 303.219
1335.453, 339.725
1336.656, 260.819
1337.858, 291.461
1339.060, 298.894
1340.261, 278.771
1341.463, 395.979
1342.664, 337.584
1343.866, 331.315
1345.067, 256.781
1346.267, 255.857
1347.468, 135.975
1348.669, 191.108
1349.869, 171.542
1351.069, 172.320
1352.269, 206.254
1353.469, 150.295
1354.668, 183.398
1355.868, 148.618
1357.067, 158.816
1358.266, 120.608
1359.465, 98.698
1360.664, 138.558
1361.862, 170.518
1363.061, 46.392
1364.259, 113.590
1365.457, 26.845
1366.655, 49.138
1367.852, 31.932
1369.050, 52.256
1370.247, 58.702
1371.444, 63.703
1372.641, 66.497
1373.838, 83.777
1375.035, 62.664
1376.231, 65.427
1377.427, 47.777
1378.623, 48.267
1379.819, 94.725
1381.015, 37.393
1382.211, 40.252
1383.406, 83.000
1384.601, 0.740
1385.796, 92.208
1386.991, 33.935
1388.185, 29.078
1389.380, 8.839
1390.574, 67.556
1391.768, 10.150
1392.962, 72.862
1394.156, 37.858
1395.350, 28.983
1396.543, 63.369
1397.736, 33.114
1398.929, 7.144
1400.122, 54.683
1401.315, 37.337
1402.507, 32.989
1403.700, 20.715
1404.892, 8.662
1406.084, 81.954
1407.276, 56.577
1408.467, 70.119
1409.659, 47.885
1410.850, 77.692
1412.041, 37.803
1413.232, 128.944
1414.423, 46.993
1415.614, 123.115
1416.804, 42.189
1417.994, 89.218
1419.184, 84.240
1420.374, 184.247
1421.564, 85.229
1422.753, 148.195
1423.943, 54.137
1425.132, 151.084
1426.321, 109.036
1427.510, 163.972
1428.698, 164.918
1429.887, 141.883
1431.075, 145.823
1432.263, 181.758
1433.451, 213.692
1434.639, 186.619
1435.827, 196.551
1437.014, 207.479
1438.201, 243.739
1439.388, 332.130
1440.575, 240.643
1441.762, 277.985
1442.949, 230.951
1444.135, 294.604
1445.321, 310.779
1446.507, 209.043
1447.693, 255.678
1448.879, 216.927
1450.064, 219.457
1451.250, 229.880
1452.435, 166.465
1453.620, 239.097
1454.805, 253.695
1455.989, 265.453
1457.174, 234.670
1458.358, 284.234
1459.542, 201.279
1460.726, 215.273
1461.910, 210.850
1463.093, 206.646
1464.277, 239.146
1465.460, 120.696
1466.643, 137.848
1467.826, 189.709
1469.009, 133.404
1470.191, 177.333
1471.373, 87.307
1472.556, 65.711
1473.738, 152.271
1474.919, 117.746
1476.101, 48.755
1477.283, 125.301
1478.464, 131.147
1479.645, 19.884
1480.826, 58.501
1482.007, 36.990
1483.187, 30.366
1484.368, 124.619
1485.548, 6.766
1486.728, 73.853
1487.908, 36.057
1489.088, 96.000
1490.268, 55.023
1491.447, 126.068
1492.626, 39.188
1493.805, 132.410
1494.984, 28.721
1496.163, 149.164
1497.341, 122.789
1498.520, 167.476
1499.698, 65.359
1500.876, 58.110
1502.054, 76.822
1503.232, 2.594
1504.409, 120.799
1505.586, 75.603
1506.763, 72.285
1507.940, 122.894
1509.117, 5.283
1510.294, 68.664
1511.470, 14.542
1512.647, 74.876
1513.823, 98.290
1514.999, 149.836
1516.174, 63.777
1517.350, 39.007
1518.526, 47.887
1519.701, 154.584
1520.876, 30.484
1522.051, 82.276
