##NAMES=Olmiite
##RRUFFID=R050177
##IDEAL CHEMISTRY=CaMn^2+^SiO_3_(OH)_2_
##LOCALITY=N'Chwaning II mine, Kuruman, South Africa
##OWNER=RRUFF
##SOURCE=Marcus Origlieri
##DESCRIPTION=Gray etched crystals
##STATUS=The identification of this mineral has been confirmed by X-ray diffraction and chemical analysis
##URL=rruff.info/R050177
##MEASURED CHEMISTRY=Ca_1.00_(Mn_0.98_Ca_0.02_)(Si_1.00_O_3_OH)(OH)
56.365, 0.000
57.765, 62.469
59.164, 53.619
60.563, 51.422
61.962, 152.864
63.360, 35.459
64.758, 72.352
66.157, 27.824
67.554, 16.444
68.952, 18.150
70.349, 114.504
71.747, 308.004
73.144, 434.933
74.540, 628.291
75.937, 824.911
77.333, 983.645
78.729, 859.366
80.125, 700.960
81.521, 570.331
82.916, 591.465
84.311, 678.709
85.706, 808.818
87.101, 1059.172
88.496, 1256.475
89.890, 1490.316
91.284, 1736.628
92.678, 1992.352
94.071, 1865.442
95.465, 1657.861
96.858, 1644.575
98.251, 1614.556
99.644, 1828.778
101.036, 2058.610
102.428, 2423.835
103.820, 2862.631
105.212, 3453.586
106.604, 4109.693
107.995, 4467.193
109.387, 4193.572
110.777, 3634.554
112.168, 3242.827
113.559, 3310.954
114.949, 3727.952
116.339, 4593.837
117.729, 5242.626
119.119, 5297.330
120.508, 4432.960
121.897, 3284.530
123.286, 2232.047
124.675, 1723.522
126.063, 1367.960
127.452, 1196.369
128.840, 1254.754
130.228, 1352.120
131.615, 1388.471
133.003, 1352.810
134.390, 1392.143
135.777, 1241.470
137.164, 1061.796
138.550, 775.125
139.937, 749.446
141.323, 575.738
142.709, 574.992
144.094, 633.202
145.480, 744.346
146.865, 710.471
148.250, 668.594
149.635, 587.722
151.019, 541.860
152.403, 646.015
153.788, 668.190
155.171, 843.389
156.555, 1005.616
157.939, 1315.872
159.322, 1658.204
160.705, 2091.695
162.088, 2683.226
163.470, 2915.946
164.853, 2850.551
166.235, 2601.858
167.617, 2194.535
168.998, 1713.286
170.380, 1391.108
171.761, 1121.002
173.142, 946.966
174.523, 954.000
175.904, 994.102
177.284, 1010.271
178.664, 1059.506
180.044, 1067.807
181.424, 1008.172
182.803, 883.602
184.183, 684.094
185.562, 567.649
186.940, 512.265
188.319, 551.942
189.698, 574.680
191.076, 723.477
192.454, 774.326
193.831, 805.221
195.209, 780.159
196.586, 883.139
197.963, 1065.159
199.340, 1318.220
200.717, 1593.320
202.093, 1937.458
203.470, 2143.635
204.846, 2265.848
206.221, 2237.097
207.597, 2069.380
208.972, 2034.699
210.347, 1950.050
211.722, 1681.435
213.097, 1481.850
214.472, 1404.297
215.846, 1376.773
217.220, 1174.279
218.594, 1043.812
219.967, 981.375
221.341, 1070.962
222.714, 1066.995
224.087, 1158.938
225.460, 1126.754
226.832, 1233.488
228.204, 1181.947
229.577, 1145.111
230.948, 1102.906
232.320, 949.622
233.692, 870.861
235.063, 829.061
236.434, 792.375
237.805, 901.795
239.175, 954.318
240.545, 1085.934
241.916, 1358.642
243.286, 1773.438
244.655, 1915.316
246.025, 2172.264
247.394, 2173.295
248.763, 2044.404
250.132, 1748.574
251.501, 1282.823
252.869, 947.129
254.237, 569.490
255.605, 349.897
256.973, 211.361
258.340, 35.875
259.708, 64.562
261.075, 164.959
262.442, 191.343
263.808, 260.722
265.175, 186.129
266.541, 233.534
267.907, 220.955
269.273, 197.382
270.639, 161.799
272.004, 82.211
273.369, 99.608
274.734, 12.003
276.099, 31.650
277.463, 87.328
278.828, 111.037
280.192, 131.899
281.556, 173.537
282.919, 174.332
284.283, 274.152
285.646, 321.997
287.009, 378.871
288.372, 511.780
289.734, 452.702
291.097, 554.653
292.459, 672.622
293.821, 794.614
295.183, 988.631
296.544, 1108.678
297.905, 1257.751
299.266, 1265.862
300.627, 1089.984
301.988, 898.129
303.348, 706.289
304.709, 488.478
306.069, 380.013
307.428, 225.973
308.788, 220.250
310.147, 170.547
311.507, 213.857
312.865, 242.192
314.224, 322.551
315.583, 415.944
316.941, 585.369
318.299, 825.812
319.657, 1007.278
321.015, 1184.750
322.372, 1540.247
323.729, 1799.671
325.086, 2207.954
326.443, 2541.096
327.800, 3027.104
329.156, 3292.041
330.512, 3936.957
331.868, 4321.881
333.224, 4819.816
334.579, 5139.760
335.935, 5125.713
337.290, 4828.674
338.645, 4447.642
339.999, 3990.615
341.354, 3432.594
342.708, 2949.580
344.062, 2530.570
345.416, 2194.565
346.769, 1771.564
348.123, 1507.566
349.476, 1225.572
350.829, 1064.580
352.182, 899.590
353.534, 802.602
354.887, 782.616
356.239, 776.629
357.591, 750.644
358.942, 764.658
360.294, 845.672
361.645, 906.782
362.996, 1019.960
364.347, 1169.707
365.698, 1334.715
367.048, 1583.721
368.398, 1858.725
369.748, 2144.725
371.098, 2431.722
372.448, 2761.716
373.797, 3198.705
375.146, 3570.690
376.495, 3643.670
377.844, 3742.645
379.192, 3700.614
380.540, 3257.578
381.889, 3090.536
383.236, 2717.486
384.584, 2457.431
385.932, 2273.372
387.279, 2193.312
388.626, 2170.248
389.973, 2217.181
391.319, 2416.114
392.666, 2532.047
394.012, 2935.976
395.358, 3122.405
396.704, 3380.818
398.049, 3678.147
399.394, 3751.527
400.740, 3813.098
402.084, 3559.643
403.429, 3398.719
404.774, 3170.877
406.118, 2979.032
407.462, 2899.309
408.806, 2710.280
410.150, 2597.084
411.493, 2643.037
412.836, 2836.340
414.179, 2990.750
415.522, 3246.152
416.865, 3485.635
418.207, 3945.121
419.549, 4156.769
420.891, 4296.999
422.233, 4279.607
423.575, 4181.074
424.916, 3911.902
426.257, 3634.969
427.598, 3511.916
428.939, 3392.353
430.279, 3436.477
431.619, 3608.872
432.959, 3620.892
434.299, 3842.805
435.639, 3865.043
436.978, 3999.453
438.318, 3631.613
439.657, 3368.843
440.996, 2849.580
442.334, 2379.523
443.673, 1911.107
445.011, 1530.331
446.349, 1210.892
447.687, 1001.793
449.024, 760.481
450.361, 628.910
451.699, 512.845
453.036, 467.432
454.372, 297.189
455.709, 290.176
457.045, 233.589
458.381, 209.794
459.717, 218.000
461.053, 189.742
462.388, 206.731
463.724, 292.330
465.059, 324.253
466.394, 368.875
467.728, 497.312
469.063, 600.927
470.397, 758.484
471.731, 902.546
473.065, 1131.445
474.398, 1352.108
475.732, 1482.329
477.065, 1643.553
478.398, 1757.478
479.731, 1863.852
481.063, 1986.673
482.396, 2082.668
483.728, 2086.570
485.060, 2208.006
486.391, 2227.965
487.723, 2271.402
489.054, 2193.928
490.385, 2063.333
491.716, 2025.627
493.047, 1901.885
494.377, 1834.343
495.708, 1716.508
497.038, 1726.637
498.368, 1608.729
499.697, 1621.785
501.027, 1647.806
502.356, 1702.789
503.685, 1886.735
505.014, 2113.645
506.342, 2352.518
507.671, 2790.354
508.999, 3292.151
510.327, 3757.913
511.655, 4103.636
512.982, 4349.321
514.310, 4422.970
515.637, 4239.580
516.964, 3912.152
518.291, 3667.688
519.617, 3248.183
520.944, 2958.641
522.270, 2689.061
523.596, 2359.442
524.921, 2312.785
526.247, 2077.089
527.572, 1982.355
528.897, 1864.581
530.222, 1708.769
531.547, 1614.918
532.871, 1494.029
534.196, 1256.100
535.520, 1175.132
536.844, 953.125
538.167, 890.079
539.491, 803.994
540.814, 736.870
542.137, 667.706
543.460, 619.503
544.783, 534.261
546.105, 475.979
547.427, 460.658
548.749, 352.298
550.071, 316.898
551.393, 220.459
552.714, 206.979
554.035, 104.461
555.356, 104.897
556.677, 113.290
557.998, 105.638
559.318, 44.942
560.638, 88.191
561.958, 29.394
563.278, 26.536
564.597, 25.617
565.917, 104.637
567.236, 8.387
568.555, 6.489
569.874, 56.334
571.192, 47.894
572.511, 37.781
573.829, 13.401
575.147, 70.957
576.464, 6.534
577.782, 5.901
579.099, 12.270
580.416, 17.425
581.733, 14.186
583.050, 15.986
584.366, 59.182
585.683, 15.634
586.999, 7.518
588.315, 24.337
589.630, 70.219
590.946, 14.157
592.261, 17.870
593.576, 6.143
594.891, 67.202
596.206, 48.360
597.520, 50.607
598.834, 27.943
600.148, 48.356
601.462, 43.609
602.776, 23.136
604.089, 29.631
605.402, 36.341
606.715, 66.152
608.028, 18.944
609.341, 41.010
610.653, 5.041
611.965, 25.133
613.277, 30.293
614.589, 54.524
615.901, 36.839
617.212, 86.226
618.523, 18.289
619.834, 38.240
621.145, 1.839
622.456, 56.490
623.766, 101.220
625.076, 100.052
626.386, 7.016
627.696, 25.959
629.006, 3.993
630.315, 51.074
631.624, 49.226
632.933, 94.447
634.242, 80.759
635.551, 38.155
636.859, 52.610
638.167, 4.869
639.475, 66.688
640.783, 1.316
642.090, 77.981
643.398, 24.720
644.705, 34.506
646.012, 2.658
647.318, 11.790
648.625, 25.893
649.931, 21.967
651.237, 3.986
652.543, 57.030
653.849, 55.019
655.155, 98.982
656.460, 161.919
657.765, 119.831
659.070, 158.717
660.375, 185.579
661.679, 249.417
662.984, 243.232
664.288, 351.023
665.592, 315.792
666.895, 401.539
668.199, 391.263
669.502, 489.966
670.805, 466.648
672.108, 482.309
673.411, 454.949
674.713, 467.570
676.016, 448.663
677.318, 435.111
678.620, 402.314
679.921, 390.857
681.223, 343.383
682.524, 288.891
683.825, 258.381
685.126, 198.854
686.427, 181.009
687.727, 136.432
689.028, 139.175
690.328, 79.583
691.628, 46.978
692.927, 55.357
694.227, 66.723
695.526, 44.075
696.825, 32.414
698.124, 134.740
699.423, 36.054
700.721, 132.356
702.020, 94.646
703.318, 182.927
704.616, 215.196
705.913, 246.455
707.211, 296.705
708.508, 387.325
709.805, 479.533
711.102, 638.905
712.399, 699.641
713.695, 912.447
714.992, 995.190
716.288, 1157.726
717.584, 1243.274
718.879, 1341.277
720.175, 1412.184
721.470, 1494.078
722.765, 1603.837
724.060, 1587.885
725.355, 1621.085
726.649, 1609.123
727.944, 1507.794
729.238, 1484.343
730.532, 1418.886
731.825, 1222.331
733.119, 1210.760
734.412, 1053.010
735.705, 952.665
736.998, 887.548
738.291, 795.684
739.584, 713.757
740.876, 640.192
742.168, 565.387
743.460, 506.072
744.752, 439.819
746.043, 361.735
747.334, 303.232
748.626, 232.637
749.916, 179.728
751.207, 105.039
752.498, 37.588
753.788, 18.054
755.078, 40.003
756.368, 29.267
757.658, 7.189
758.947, 20.763
760.237, 1.314
761.526, 83.040
762.815, 42.970
764.104, 73.148
765.392, 75.810
766.680, 226.810
767.969, 329.631
769.257, 309.211
770.544, 549.356
771.832, 613.700
773.119, 789.035
774.406, 922.824
775.693, 1182.358
776.980, 1432.272
778.267, 1511.855
779.553, 1926.731
780.839, 2110.783
782.125, 2470.651
783.411, 2779.569
784.697, 3144.974
785.982, 3469.534
787.267, 3918.324
788.552, 4248.391
789.837, 4695.434
791.122, 5049.270
792.406, 5372.324
793.690, 5688.922
794.974, 5998.341
796.258, 6370.851
797.542, 6700.821
798.825, 7183.267
800.108, 7703.232
801.391, 8204.128
802.674, 8547.155
803.957, 8985.303
805.239, 9390.509
806.522, 9900.544
807.804, 10878.875
809.085, 11430.250
810.367, 12310.676
811.649, 12895.158
812.930, 12985.712
814.211, 12572.331
815.492, 11740.012
816.772, 10446.742
818.053, 9317.532
819.333, 8241.388
820.613, 7310.292
821.893, 6658.245
823.173, 6322.234
824.452, 5864.264
825.732, 5534.331
827.011, 5443.436
828.290, 5283.580
829.568, 5328.763
830.847, 5318.985
832.125, 5451.253
833.403, 5677.564
834.681, 6033.919
835.959, 6338.313
837.236, 6944.753
838.514, 7710.237
839.791, 9023.769
841.068, 9953.353
842.345, 11570.990
843.621, 13697.684
844.898, 16586.436
846.174, 19901.236
847.450, 23724.100
848.726, 28613.039
850.001, 32572.023
851.277, 36148.059
852.552, 37923.141
853.827, 38336.281
855.102, 36344.480
856.376, 32816.727
857.651, 28817.033
858.925, 25025.387
860.199, 21514.787
861.473, 17936.238
862.746, 15056.746
864.020, 12547.298
865.293, 10708.905
866.566, 8927.562
867.839, 7699.288
869.112, 6555.062
870.384, 5662.901
871.656, 4850.788
872.928, 4301.745
874.200, 3667.765
875.472, 3334.841
876.744, 3021.964
878.015, 2689.157
879.286, 2385.430
880.557, 2110.760
881.828, 2097.164
883.098, 1810.629
884.369, 1749.155
885.639, 1621.736
886.909, 1535.382
888.178, 1413.090
889.448, 1372.859
890.717, 1328.700
891.987, 1427.609
893.256, 1386.588
894.524, 1454.618
895.793, 1674.713
897.061, 1809.872
898.330, 1988.098
899.598, 2257.403
900.865, 2375.773
902.133, 2605.204
903.401, 2614.699
904.668, 2568.271
905.935, 2408.917
907.202, 2443.635
908.468, 2251.422
909.735, 2251.034
911.001, 2256.905
912.267, 2361.738
913.533, 2454.872
914.799, 2517.999
916.064, 2714.201
917.330, 2839.455
918.595, 2908.785
919.860, 2860.175
921.124, 2550.628
922.389, 2385.147
923.653, 1959.736
924.918, 1686.390
926.182, 1355.122
927.445, 1106.902
928.709, 936.772
929.972, 695.062
931.236, 762.617
932.499, 490.665
933.761, 611.790
935.024, 886.966
936.286, 1004.200
937.549, 735.484
938.811, 972.831
940.073, 1063.240
941.334, 1459.724
942.596, 1599.276
943.857, 2073.887
945.118, 2569.560
946.379, 3153.277
947.640, 3798.631
948.900, 4562.458
950.161, 5489.873
951.421, 6223.083
952.681, 6666.361
953.940, 6870.332
955.200, 6506.317
956.459, 5896.913
957.719, 5036.557
958.978, 4209.707
960.236, 3694.639
961.495, 3010.014
962.753, 2555.925
964.012, 2207.409
965.270, 1870.413
966.527, 1616.833
967.785, 1540.855
969.043, 1267.767
970.300, 1148.895
971.557, 1107.275
972.814, 914.017
974.071, 926.656
975.327, 723.313
976.583, 715.003
977.840, 629.724
979.095, 538.475
980.351, 422.260
981.607, 402.075
982.862, 391.316
984.117, 311.590
985.372, 281.034
986.627, 217.321
987.882, 150.833
989.136, 206.439
990.390, 211.983
991.644, 105.822
992.898, 163.621
994.152, 188.510
995.405, 213.391
996.659, 213.593
997.912, 276.144
999.165, 370.753
1000.417, 365.656
1001.670, 417.220
1002.922, 408.834
1004.174, 542.695
1005.426, 434.949
1006.678, 591.716
1007.930, 501.785
1009.181, 509.681
1010.432, 506.190
1011.683, 472.412
1012.934, 477.663
1014.185, 443.268
1015.435, 465.249
1016.685, 460.294
1017.935, 466.778
1019.185, 558.445
1020.435, 482.947
1021.684, 438.897
1022.934, 367.694
1024.183, 271.699
1025.432, 264.582
1026.680, 168.367
1027.929, 247.146
1029.177, 119.280
1030.425, 185.391
1031.673, 94.323
1032.921, 129.735
1034.169, 118.862
1035.416, 121.040
1036.663, 94.939
1037.911, 155.552
1039.157, 157.055
1040.404, 119.231
1041.650, 89.651
1042.897, 84.714
1044.143, 85.968
1045.389, 84.757
1046.634, 88.916
1047.880, 141.967
1049.125, 77.218
1050.371, 93.178
1051.615, 68.573
1052.860, 127.003
1054.105, 132.164
1055.349, 95.204
1056.593, 123.561
1057.837, 32.931
1059.081, 22.146
1060.325, 33.237
1061.568, 64.595
1062.812, 8.452
1064.055, 144.463
1065.298, 42.518
1066.540, 86.679
1067.783, 26.644
1069.025, 75.092
1070.267, 80.047
1071.509, 80.629
1072.751, 129.335
1073.993, 167.943
1075.234, 187.955
1076.475, 194.994
1077.716, 186.553
1078.957, 249.382
1080.198, 202.441
1081.438, 195.655
1082.679, 355.530
1083.919, 289.690
1085.159, 334.631
1086.398, 315.340
1087.638, 383.249
1088.877, 304.166
1090.116, 254.274
1091.355, 259.980
1092.594, 225.068
1093.833, 123.134
1095.071, 98.847
1096.309, 20.511
1097.547, 92.062
1098.785, 17.621
1100.023, 8.829
1101.260, 108.179
1102.498, 47.903
1103.735, 45.903
1104.972, 121.522
1106.208, 119.840
1107.445, 22.473
1108.681, 36.107
1109.918, 59.771
1111.154, 98.727
1112.389, 121.494
1113.625, 127.562
1114.860, 90.384
1116.096, 53.588
1117.331, 71.806
1118.566, 105.066
1119.800, 43.312
1121.035, 30.516
1122.269, 33.007
1123.503, 154.588
1124.737, 128.549
1125.971, 152.326
1127.205, 129.910
1128.438, 81.999
1129.671, 76.279
1130.904, 7.138
1132.137, 13.296
1133.370, 11.359
1134.602, 17.888
1135.834, 14.092
1137.066, 13.951
1138.298, 1.162
1139.530, 4.067
1140.762, 33.533
1141.993, 17.263
1143.224, 15.399
1144.455, 18.845
1145.686, 43.954
1146.917, 64.498
1148.147, 6.999
1149.377, 45.375
1150.607, 17.396
1151.837, 3.839
1153.067, 8.609
1154.296, 18.729
1155.526, 14.478
1156.755, 19.783
1157.984, 9.561
1159.213, 16.673
1160.441, 39.282
1161.670, 37.409
1162.898, 27.294
1164.126, 58.393
1165.354, 30.167
1166.581, 41.401
1167.809, 22.775
1169.036, 77.085
1170.263, 1.713
1171.490, 39.885
1172.717, 109.213
1173.943, 138.216
1175.170, 52.279
1176.396, 2.044
1177.622, 45.896
1178.848, 123.598
1180.073, 41.049
1181.299, 94.557
1182.524, 50.768
1183.749, 147.953
1184.974, 74.042
1186.199, 81.069
1187.423, 57.036
1188.648, 89.166
1189.872, 59.002
1191.096, 145.769
1192.320, 168.476
1193.543, 65.126
1194.767, 138.775
1195.990, 112.528
1197.213, 164.989
1198.436, 62.588
1199.659, 104.930
1200.881, 129.326
1202.104, 132.072
1203.326, 123.364
1204.548, 114.804
1205.770, 129.320
1206.991, 146.453
1208.213, 120.204
1209.434, 181.536
1210.655, 190.827
1211.876, 158.031
1213.096, 143.643
1214.317, 58.700
1215.537, 120.846
1216.757, 182.843
1217.977, 114.647
1219.197, 132.876
1220.417, 183.110
1221.636, 171.742
1222.855, 168.059
1224.074, 122.963
1225.293, 215.771
1226.512, 166.237
1227.731, 149.018
1228.949, 200.580
1230.167, 154.224
1231.385, 181.824
1232.603, 237.441
1233.820, 187.809
1235.038, 184.689
1236.255, 161.562
1237.472, 232.063
1238.689, 163.879
1239.906, 166.756
1241.122, 227.206
1242.338, 127.917
1243.555, 254.952
1244.771, 264.465
1245.986, 240.599
1247.202, 222.020
1248.417, 137.766
1249.633, 153.926
1250.848, 243.173
1252.063, 167.464
1253.277, 198.134
1254.492, 190.851
1255.706, 187.072
1256.920, 241.661
1258.134, 175.142
1259.348, 218.720
1260.562, 147.996
1261.775, 200.016
1262.988, 187.333
1264.201, 177.032
1265.414, 148.968
1266.627, 135.167
1267.839, 175.158
1269.052, 154.129
1270.264, 188.970
1271.476, 157.878
1272.688, 172.495
1273.899, 91.191
1275.111, 188.546
1276.322, 129.771
1277.533, 186.908
1278.744, 156.451
1279.955, 122.995
1281.165, 184.696
1282.376, 195.095
1283.586, 211.342
1284.796, 213.744
1286.006, 201.695
1287.215, 110.681
1288.425, 150.995
1289.634, 206.919
1290.843, 125.459
1292.052, 188.208
1293.261, 150.812
1294.469, 164.473
1295.678, 189.588
1296.886, 111.459
1298.094, 151.187
1299.302, 117.491
1300.509, 172.083
1301.717, 144.330
1302.924, 194.685
1304.131, 189.370
1305.338, 117.448
1306.545, 94.555
1307.752, 116.337
1308.958, 84.507
1310.164, 186.426
1311.370, 129.805
1312.576, 160.933
1313.782, 159.306
1314.987, 94.139
1316.193, 157.972
1317.398, 109.689
1318.603, 169.385
1319.807, 142.182
1321.012, 197.820
1322.216, 154.229
1323.421, 173.585
1324.625, 220.079
1325.829, 189.066
1327.032, 271.420
1328.236, 235.560
1329.439, 281.019
1330.642, 246.602
1331.845, 273.183
1333.048, 186.831
1334.251, 252.218
1335.453, 317.724
1336.656, 332.319
1337.858, 242.138
1339.060, 222.659
1340.261, 183.129
1341.463, 265.709
1342.664, 190.170
1343.866, 232.979
1345.067, 203.697
1346.267, 104.598
1347.468, 197.505
1348.669, 146.201
1349.869, 111.689
1351.069, 117.263
1352.269, 96.893
1353.469, 107.195
1354.668, 88.826
1355.868, 106.394
1357.067, 51.747
1358.266, 108.910
1359.465, 81.197
1360.664, 89.926
1361.862, 114.557
1363.061, 13.023
1364.259, 43.799
1365.457, 103.676
1366.655, 2.571
1367.852, 52.275
1369.050, 53.558
1370.247, 83.254
1371.444, 43.641
1372.641, 54.794
1373.838, 42.178
1375.035, 39.360
1376.231, 2.667
1377.427, 46.391
1378.623, 12.333
1379.819, 9.355
1381.015, 21.776
1382.211, 5.284
1383.406, 0.830
1384.601, 9.941
1385.796, 15.639
1386.991, 60.568
1388.185, 62.687
1389.380, 41.087
1390.574, 32.503
1391.768, 111.000
1392.962, 79.647
1394.156, 64.104
1395.350, 10.790
1396.543, 48.229
1397.736, 8.535
1398.929, 60.942
1400.122, 84.165
1401.315, 30.598
1402.507, 60.411
1403.700, 33.901
1404.892, 86.917
1406.084, 62.075
1407.276, 124.444
1408.467, 40.235
1409.659, 116.730
1410.850, 2.609
1412.041, 93.809
1413.232, 112.106
1414.423, 80.680
1415.614, 135.583
1416.804, 100.313
1417.994, 164.831
1419.184, 199.231
1420.374, 91.654
1421.564, 26.520
1422.753, 167.612
1423.943, 159.017
1425.132, 169.370
1426.321, 175.165
1427.510, 145.370
1428.698, 223.591
1429.887, 168.436
1431.075, 62.601
1432.263, 147.731
1433.451, 154.376
1434.639, 178.126
1435.827, 104.941
1437.014, 195.839
1438.201, 133.402
1439.388, 175.601
1440.575, 134.577
1441.762, 129.885
1442.949, 168.696
1444.135, 167.661
1445.321, 177.372
1446.507, 178.109
1447.693, 120.453
1448.879, 68.051
1450.064, 98.118
1451.250, 110.618
1452.435, 139.282
1453.620, 150.998
1454.805, 175.336
1455.989, 93.869
1457.174, 101.853
1458.358, 122.674
1459.542, 87.373
1460.726, 104.638
1461.910, 86.337
1463.093, 110.996
1464.277, 64.470
1465.460, 66.295
1466.643, 61.982
1467.826, 52.021
1469.009, 23.812
1470.191, 37.142
1471.373, 22.924
1472.556, 36.766
1473.738, 45.737
1474.919, 92.734
1476.101, 82.209
1477.283, 89.233
1478.464, 115.924
1479.645, 53.315
1480.826, 47.473
1482.007, 68.192
1483.187, 4.065
1484.368, 57.723
1485.548, 105.824
1486.728, 88.387
1487.908, 143.119
1489.088, 71.291
1490.268, 83.343
1491.447, 88.431
1492.626, 132.778
1493.805, 121.884
1494.984, 77.750
1496.163, 114.686
1497.341, 127.274
1498.520, 112.371
