##NAMES=Olmiite
##RRUFFID=R050177
##IDEAL CHEMISTRY=CaMn^2+^SiO_3_(OH)_2_
##LOCALITY=N'Chwaning II mine, Kuruman, South Africa
##OWNER=RRUFF
##SOURCE=Marcus Origlieri
##DESCRIPTION=Gray etched crystals
##STATUS=The identification of this mineral has been confirmed by X-ray diffraction and chemical analysis
##URL=rruff.info/R050177
##MEASURED CHEMISTRY=Ca_1.00_(Mn_0.98_Ca_0.02_)(Si_1.00_O_3_OH)(OH)
56.365, 0.000
57.765, 31.514
59.164, 67.076
60.563, 45.583
61.962, 123.227
63.360, 85.975
64.758, 93.159
66.157, 0.706
67.554, 24.901
68.952, 19.697
70.349, 49.667
71.747, 41.966
73.144, 171.013
74.540, 303.652
75.937, 434.745
77.333, 551.176
78.729, 595.837
80.125, 494.632
81.521, 527.465
82.916, 704.255
84.311, 999.932
85.706, 1281.433
87.101, 1407.704
88.496, 1501.703
89.890, 1631.398
91.284, 1857.750
92.678, 1921.726
94.071, 1871.294
95.465, 1635.427
96.858, 1668.101
98.251, 1401.291
99.644, 1470.962
101.036, 1630.074
102.428, 1657.589
103.820, 1834.482
105.212, 1903.731
106.604, 2202.319
107.995, 2490.232
109.387, 2736.458
110.777, 2870.987
112.168, 2914.808
113.559, 3358.916
114.949, 3607.301
116.339, 4093.958
117.729, 4458.887
119.119, 4862.091
120.508, 5029.677
121.897, 4584.525
123.286, 3786.619
124.675, 3191.952
126.063, 2623.520
127.452, 2159.320
128.840, 1935.348
130.228, 1842.601
131.615, 1739.074
133.003, 1574.766
134.390, 1545.669
135.777, 1290.782
137.164, 1076.102
138.550, 879.623
139.937, 980.302
141.323, 881.009
142.709, 800.742
144.094, 753.500
145.480, 810.264
146.865, 809.052
148.250, 812.905
149.635, 816.833
151.019, 884.844
152.403, 937.943
153.788, 1082.139
155.171, 1216.435
156.555, 1406.835
157.939, 1652.345
159.322, 1746.965
160.705, 1890.699
162.088, 2122.549
163.470, 2231.515
164.853, 2059.600
166.235, 1835.802
167.617, 1682.125
168.998, 1327.568
170.380, 1078.132
171.761, 912.819
173.142, 800.627
174.523, 778.573
175.904, 723.688
177.284, 741.971
178.664, 696.283
180.044, 646.983
181.424, 624.236
182.803, 623.067
184.183, 556.152
185.562, 382.138
186.940, 389.245
188.319, 409.470
189.698, 383.813
191.076, 494.274
192.454, 569.854
193.831, 640.549
195.209, 866.359
196.586, 1042.284
197.963, 1373.320
199.340, 1460.467
200.717, 1685.724
202.093, 2104.087
203.470, 2246.556
204.846, 2485.129
206.221, 2649.803
207.597, 2681.577
208.972, 2782.451
210.347, 2863.421
211.722, 2688.488
213.097, 2510.648
214.472, 2485.900
215.846, 2428.244
217.220, 2294.676
218.594, 1917.196
219.967, 1518.802
221.341, 1297.493
222.714, 1061.894
224.087, 888.284
225.460, 813.635
226.832, 723.014
228.204, 657.172
229.577, 645.759
230.948, 677.970
232.320, 681.561
233.692, 748.729
235.063, 839.041
236.434, 1061.401
237.805, 1374.945
239.175, 1654.686
240.545, 2007.601
241.916, 2330.684
243.286, 2768.922
244.655, 3024.334
246.025, 3128.894
247.394, 3231.624
248.763, 3013.501
250.132, 2710.513
251.501, 2171.673
252.869, 1711.967
254.237, 1255.401
255.605, 867.968
256.973, 566.657
258.340, 357.458
259.708, 218.378
261.075, 103.411
262.442, 44.568
263.808, 18.826
265.175, 92.183
266.541, 57.639
267.907, 103.194
269.273, 103.845
270.639, 158.589
272.004, 243.430
273.369, 180.362
274.734, 267.390
276.099, 237.524
277.463, 177.753
278.828, 184.079
280.192, 168.497
281.556, 140.996
282.919, 83.593
284.283, 145.284
285.646, 153.069
287.009, 128.953
288.372, 85.932
289.734, 160.998
291.097, 132.948
292.459, 220.454
293.821, 142.749
295.183, 247.694
296.544, 225.314
297.905, 223.245
299.266, 193.944
300.627, 158.107
301.988, 95.967
303.348, 9.889
304.709, 48.112
306.069, 135.045
307.428, 92.897
308.788, 75.700
310.147, 15.438
311.507, 87.882
312.865, 182.290
314.224, 264.751
315.583, 417.304
316.941, 587.937
318.299, 865.619
319.657, 1003.371
321.015, 1261.174
322.372, 1475.074
323.729, 1730.026
325.086, 2056.051
326.443, 2270.131
327.800, 2519.267
329.156, 2712.728
330.512, 2989.678
331.868, 3019.959
333.224, 3162.281
334.579, 3258.645
335.935, 3239.046
337.290, 2918.487
338.645, 2876.967
339.999, 2586.484
341.354, 2293.038
342.708, 2047.626
344.062, 1734.251
345.416, 1488.905
346.769, 1308.574
348.123, 1171.270
349.476, 995.998
350.829, 906.756
352.182, 744.546
353.534, 783.366
354.887, 812.215
356.239, 923.093
357.591, 926.998
358.942, 1035.930
360.294, 1297.889
361.645, 1457.874
362.996, 1745.883
364.347, 1949.917
365.698, 2524.974
367.048, 3061.054
368.398, 3647.156
369.748, 4413.280
371.098, 5249.425
372.448, 6103.590
373.797, 6773.775
375.146, 7399.979
376.495, 7629.203
377.844, 7608.442
379.192, 7243.700
380.540, 6471.975
381.889, 5775.265
383.236, 4929.569
384.584, 4261.891
385.932, 3763.246
387.279, 3204.638
388.626, 2961.064
389.973, 2712.525
391.319, 2830.022
392.666, 2743.553
394.012, 2879.118
395.358, 2979.720
396.704, 3006.515
398.049, 3142.906
399.394, 3132.522
400.740, 3090.169
402.084, 3015.096
403.429, 2893.335
404.774, 2619.429
406.118, 2461.858
407.462, 2184.723
408.806, 1952.787
410.150, 1733.743
411.493, 1670.375
412.836, 1641.541
414.179, 1642.112
415.522, 1576.985
416.865, 1518.838
418.207, 1653.046
419.549, 1617.220
420.891, 1574.153
422.233, 1521.213
423.575, 1460.262
424.916, 1260.620
426.257, 1184.974
427.598, 1033.147
428.939, 993.267
430.279, 957.641
431.619, 1021.201
432.959, 857.127
434.299, 818.556
435.639, 913.852
436.978, 914.420
438.318, 782.115
439.657, 738.079
440.996, 578.057
442.334, 384.685
443.673, 363.646
445.011, 187.938
446.349, 88.759
447.687, 48.112
449.024, 21.557
450.361, 43.834
451.699, 32.120
453.036, 97.823
454.372, 38.633
455.709, 80.389
457.045, 40.079
458.381, 70.959
459.717, 15.486
461.053, 11.455
462.388, 30.409
463.724, 34.882
465.059, 123.215
466.394, 314.177
467.728, 373.904
469.063, 549.887
470.397, 767.375
471.731, 892.446
473.065, 1090.304
474.398, 1341.528
475.732, 1543.483
477.065, 1824.948
478.398, 1880.562
479.731, 2039.813
481.063, 2104.829
482.396, 2170.658
483.728, 2288.178
485.060, 2430.293
486.391, 2570.056
487.723, 2545.799
489.054, 2450.210
490.385, 2406.627
491.716, 2294.496
493.047, 2127.800
494.377, 1902.073
495.708, 1874.316
497.038, 1800.529
498.368, 1847.710
499.697, 1797.861
501.027, 1847.979
502.356, 2041.066
503.685, 2341.120
505.014, 2628.142
506.342, 3083.131
507.671, 3636.086
508.999, 4181.009
510.327, 4748.897
511.655, 5312.753
512.982, 5570.575
514.310, 5703.361
515.637, 5619.112
516.964, 5238.830
518.291, 4943.511
519.617, 4345.159
520.944, 4097.771
522.270, 3800.346
523.596, 3317.885
524.921, 3332.389
526.247, 3092.855
527.572, 3044.287
528.897, 2840.680
530.222, 2708.038
531.547, 2660.357
532.871, 2381.640
534.196, 2128.885
535.520, 1696.092
536.844, 1435.262
538.167, 1403.394
539.491, 1048.487
540.814, 927.544
542.137, 769.561
543.460, 641.540
544.783, 560.480
546.105, 423.381
547.427, 330.244
548.749, 351.067
550.071, 224.850
551.393, 179.594
552.714, 173.299
554.035, 130.962
555.356, 78.586
556.677, 56.167
557.998, 50.698
559.318, 39.821
560.638, 21.565
561.958, 16.888
563.278, 42.146
564.597, 49.652
565.917, 26.449
567.236, 74.511
568.555, 8.585
569.874, 33.260
571.192, 42.954
572.511, 1.266
573.829, 37.655
575.147, 21.139
576.464, 5.289
577.782, 46.645
579.099, 6.055
580.416, 8.167
581.733, 39.684
583.050, 42.369
584.366, 42.365
585.683, 24.305
586.999, 25.182
588.315, 19.929
589.630, 36.744
590.946, 9.434
592.261, 18.054
593.576, 2.609
594.891, 49.909
596.206, 4.527
597.520, 25.223
598.834, 10.004
600.148, 31.135
601.462, 42.198
602.776, 31.710
604.089, 40.814
605.402, 65.490
606.715, 51.794
608.028, 55.303
609.341, 46.690
610.653, 49.287
611.965, 55.021
613.277, 73.776
614.589, 62.168
615.901, 77.258
617.212, 85.674
618.523, 64.876
619.834, 47.553
621.145, 5.064
622.456, 54.375
623.766, 31.900
625.076, 114.498
626.386, 30.796
627.696, 31.947
629.006, 1.242
630.315, 107.622
631.624, 16.405
632.933, 128.612
634.242, 90.748
635.551, 34.018
636.859, 59.252
638.167, 9.398
639.475, 167.994
640.783, 3.520
642.090, 81.093
643.398, 28.751
644.705, 30.468
646.012, 10.760
647.318, 12.049
648.625, 21.903
649.931, 15.193
651.237, 52.258
652.543, 78.292
653.849, 49.295
655.155, 84.268
656.460, 141.212
657.765, 151.126
659.070, 290.012
660.375, 272.869
661.679, 336.698
662.984, 423.501
664.288, 436.277
665.592, 483.026
666.895, 513.751
668.199, 607.450
669.502, 622.125
670.805, 684.776
672.108, 532.403
673.411, 722.008
674.713, 716.589
676.016, 621.148
677.318, 693.685
678.620, 589.201
679.921, 562.696
681.223, 497.171
682.524, 368.626
683.825, 378.062
685.126, 334.479
686.427, 258.879
687.727, 204.261
689.028, 221.625
690.328, 173.974
691.628, 96.306
692.927, 97.623
694.227, 56.925
695.526, 71.212
696.825, 59.081
698.124, 52.747
699.423, 62.994
700.721, 91.228
702.020, 113.450
703.318, 227.661
704.616, 183.861
705.913, 251.050
707.211, 250.230
708.508, 401.400
709.805, 622.562
711.102, 795.715
712.399, 937.653
713.695, 1081.128
714.992, 1200.345
716.288, 1408.569
717.584, 1521.505
718.879, 1870.163
720.175, 1783.987
721.470, 1872.492
722.765, 2141.582
724.060, 2187.493
725.355, 2207.914
726.649, 2245.523
727.944, 2142.770
729.238, 2071.244
730.532, 2032.434
731.825, 1790.662
733.119, 1683.550
734.412, 1544.489
735.705, 1248.686
736.998, 1171.772
738.291, 931.885
739.584, 919.707
740.876, 747.545
742.168, 717.583
743.460, 652.687
744.752, 631.553
746.043, 538.346
747.334, 432.594
748.626, 353.452
749.916, 214.458
751.207, 118.205
752.498, 114.842
753.788, 88.224
755.078, 52.607
756.368, 59.646
757.658, 53.219
758.947, 55.888
760.237, 55.519
761.526, 61.553
762.815, 72.549
764.104, 32.394
765.392, 98.904
766.680, 262.328
767.969, 351.617
769.257, 474.677
770.544, 644.044
771.832, 743.425
773.119, 963.484
774.406, 1152.945
775.693, 1369.613
776.980, 1742.686
778.267, 2044.134
779.553, 2494.101
780.839, 2667.994
782.125, 3214.504
783.411, 3541.808
784.697, 4073.267
785.982, 4471.059
787.267, 4936.500
788.552, 5582.225
789.837, 6150.455
791.122, 6584.551
792.406, 7221.024
793.690, 7580.749
794.974, 8150.677
796.258, 8716.929
797.542, 9167.600
798.825, 9893.636
800.108, 10555.718
801.391, 11141.146
802.674, 11599.600
803.957, 12469.624
805.239, 13148.262
806.522, 13504.952
807.804, 14807.709
809.085, 15105.515
810.367, 16139.414
811.649, 16585.369
812.930, 16285.410
814.211, 15809.533
815.492, 14684.730
816.772, 13019.019
818.053, 11819.366
819.333, 10349.806
820.613, 9345.327
821.893, 8575.963
823.173, 8342.649
824.452, 7890.391
825.732, 7470.650
827.011, 7104.134
828.290, 6923.918
829.568, 6717.785
830.847, 6686.145
832.125, 6635.984
833.403, 6925.155
834.681, 7166.403
835.959, 7644.732
837.236, 8374.132
838.514, 9085.615
839.791, 10415.182
841.068, 11890.809
842.345, 13795.529
843.621, 16448.318
844.898, 19980.184
846.174, 23692.117
847.450, 28387.111
848.726, 33901.188
850.001, 38233.309
851.277, 42376.504
852.552, 44903.766
853.827, 45307.074
855.102, 43678.457
856.376, 39842.898
857.651, 35545.414
858.925, 31477.988
860.199, 27306.656
861.473, 22710.400
862.746, 19248.213
864.020, 16315.094
865.293, 13877.047
866.566, 11485.056
867.839, 10017.134
869.112, 8466.280
870.384, 7351.526
871.656, 6434.843
872.928, 5586.238
874.200, 4818.701
875.472, 4458.254
876.744, 3994.882
878.015, 3510.615
879.286, 3302.433
880.557, 2914.319
881.828, 2855.301
883.098, 2602.364
884.369, 2481.514
885.639, 2205.752
886.909, 2137.078
888.178, 2016.472
889.448, 1929.949
890.717, 1940.504
891.987, 1954.077
893.256, 2042.861
894.524, 2142.645
895.793, 2366.501
897.061, 2562.428
898.330, 2899.436
899.598, 3156.516
900.865, 3424.680
902.133, 3515.134
903.401, 3681.228
904.668, 3599.629
905.935, 3598.113
907.202, 3616.680
908.468, 3421.325
909.735, 3503.454
911.001, 3657.754
912.267, 3800.310
913.533, 4071.873
914.799, 4251.159
916.064, 4677.316
917.330, 4728.567
918.595, 4993.908
919.860, 4674.333
921.124, 4471.848
922.389, 4105.452
923.653, 3486.144
924.918, 2938.927
926.182, 2273.802
927.445, 1933.762
928.709, 1552.803
929.972, 1173.913
931.236, 984.104
932.499, 863.371
933.761, 893.733
935.024, 952.155
936.286, 1018.652
937.549, 1154.213
938.811, 1446.868
940.073, 1679.582
941.334, 2010.393
942.596, 2496.289
943.857, 3051.238
945.118, 3842.267
946.379, 4657.349
947.640, 5487.534
948.900, 6710.778
950.161, 8140.101
951.421, 8954.954
952.681, 9684.192
953.940, 9862.962
955.200, 9555.125
956.459, 8783.430
957.719, 7669.142
958.978, 6715.172
960.236, 5595.543
961.495, 4750.197
962.753, 3833.369
964.012, 3365.993
965.270, 2810.358
966.527, 2508.754
967.785, 2303.644
969.043, 1973.571
970.300, 1755.603
971.557, 1566.234
972.814, 1397.951
974.071, 1340.103
975.327, 1169.546
976.583, 1052.875
977.840, 881.243
979.095, 809.646
980.351, 786.270
981.607, 591.767
982.862, 645.883
984.117, 541.956
985.372, 493.499
986.627, 488.820
987.882, 339.908
989.136, 349.290
990.390, 440.577
991.644, 304.701
992.898, 434.467
994.152, 447.976
995.405, 539.435
996.659, 513.900
997.912, 559.751
999.165, 680.661
1000.417, 756.397
1001.670, 725.716
1002.922, 621.820
1004.174, 807.947
1005.426, 725.724
1006.678, 829.926
1007.930, 771.948
1009.181, 739.588
1010.432, 800.822
1011.683, 628.171
1012.934, 726.089
1014.185, 643.476
1015.435, 661.378
1016.685, 622.159
1017.935, 565.833
1019.185, 466.840
1020.435, 502.798
1021.684, 446.368
1022.934, 295.310
1024.183, 329.138
1025.432, 355.824
1026.680, 259.931
1027.929, 317.471
1029.177, 157.907
1030.425, 272.107
1031.673, 275.896
1032.921, 277.418
1034.169, 195.502
1035.416, 163.207
1036.663, 225.538
1037.911, 220.836
1039.157, 160.255
1040.404, 188.671
1041.650, 235.738
1042.897, 200.076
1044.143, 248.535
1045.389, 225.018
1046.634, 155.392
1047.880, 191.134
1049.125, 96.979
1050.371, 78.815
1051.615, 63.068
1052.860, 137.677
1054.105, 42.594
1055.349, 68.152
1056.593, 107.250
1057.837, 66.177
1059.081, 25.073
1060.325, 107.960
1061.568, 83.872
1062.812, 125.009
1064.055, 76.199
1065.298, 32.343
1066.540, 106.876
1067.783, 106.812
1069.025, 81.579
1070.267, 66.208
1071.509, 145.104
1072.751, 44.964
1073.993, 220.688
1075.234, 131.290
1076.475, 65.958
1077.716, 194.862
1078.957, 209.570
1080.198, 340.227
1081.438, 587.131
1082.679, 623.578
1083.919, 687.246
1085.159, 774.152
1086.398, 259.787
1087.638, 285.611
1088.877, 221.083
1090.116, 201.521
1091.355, 145.122
1092.594, 111.146
1093.833, 62.674
1095.071, 57.528
1096.309, 8.878
1097.547, 12.873
1098.785, 9.709
1100.023, 15.852
1101.260, 23.266
1102.498, 72.214
1103.735, 38.315
1104.972, 123.471
1106.208, 22.617
1107.445, 80.856
1108.681, 9.084
1109.918, 180.091
1111.154, 21.408
1112.389, 173.479
1113.625, 70.768
1114.860, 116.069
1116.096, 137.024
1117.331, 39.210
1118.566, 133.674
1119.800, 124.486
1121.035, 202.854
1122.269, 1.792
1123.503, 59.093
1124.737, 302.528
1125.971, 167.317
1127.205, 129.201
1128.438, 73.571
1129.671, 54.073
1130.904, 61.419
1132.137, 42.397
1133.370, 47.532
1134.602, 73.500
1135.834, 19.690
1137.066, 69.899
1138.298, 66.173
1139.530, 20.245
1140.762, 101.361
1141.993, 0.462
1143.224, 44.477
1144.455, 51.475
1145.686, 14.871
1146.917, 2.073
1148.147, 25.820
1149.377, 113.426
1150.607, 47.167
1151.837, 49.648
1153.067, 35.203
1154.296, 53.549
1155.526, 14.206
1156.755, 23.668
1157.984, 34.274
1159.213, 18.519
1160.441, 47.265
1161.670, 17.305
1162.898, 52.694
1164.126, 112.400
1165.354, 64.920
1166.581, 98.400
1167.809, 15.751
1169.036, 187.921
1170.263, 66.792
1171.490, 139.854
1172.717, 180.333
1173.943, 68.941
1175.170, 58.585
1176.396, 100.107
1177.622, 117.627
1178.848, 89.776
1180.073, 104.069
1181.299, 138.561
1182.524, 100.461
1183.749, 51.276
1184.974, 127.990
1186.199, 122.623
1187.423, 125.171
1188.648, 158.635
1189.872, 135.018
1191.096, 129.316
1192.320, 160.528
1193.543, 230.657
1194.767, 81.706
1195.990, 116.720
1197.213, 81.796
1198.436, 212.963
1199.659, 183.952
1200.881, 198.092
1202.104, 140.255
1203.326, 179.292
1204.548, 200.860
1205.770, 206.245
1206.991, 209.159
1208.213, 207.116
1209.434, 181.496
1210.655, 177.472
1211.876, 182.861
1213.096, 108.401
1214.317, 208.649
1215.537, 235.737
1216.757, 266.881
1217.977, 213.950
1219.197, 218.244
1220.417, 239.512
1221.636, 266.823
1222.855, 249.159
1224.074, 213.085
1225.293, 236.007
1226.512, 197.287
1227.731, 271.838
1228.949, 290.309
1230.167, 244.787
1231.385, 215.806
1232.603, 247.645
1233.820, 224.032
1235.038, 276.083
1236.255, 280.942
1237.472, 248.438
1238.689, 367.647
1239.906, 260.690
1241.122, 406.999
1242.338, 284.753
1243.555, 364.503
1244.771, 395.914
1245.986, 382.718
1247.202, 309.502
1248.417, 323.002
1249.633, 343.480
1250.848, 343.835
1252.063, 314.268
1253.277, 324.764
1254.492, 301.230
1255.706, 251.747
1256.920, 272.919
1258.134, 228.952
1259.348, 230.106
1260.562, 218.478
1261.775, 317.181
1262.988, 335.875
1264.201, 274.500
1265.414, 153.091
1266.627, 287.728
1267.839, 233.324
1269.052, 302.551
1270.264, 259.273
1271.476, 186.419
1272.688, 369.547
1273.899, 243.013
1275.111, 234.383
1276.322, 171.996
1277.533, 258.914
1278.744, 270.617
1279.955, 203.949
1281.165, 224.451
1282.376, 206.066
1283.586, 190.062
1284.796, 231.315
1286.006, 219.529
1287.215, 125.536
1288.425, 238.623
1289.634, 234.374
1290.843, 290.656
1292.052, 196.393
1293.261, 220.875
1294.469, 235.423
1295.678, 188.256
1296.886, 233.210
1298.094, 198.021
1299.302, 228.185
1300.509, 149.710
1301.717, 160.358
1302.924, 233.377
1304.131, 314.897
1305.338, 193.104
1306.545, 153.757
1307.752, 284.983
1308.958, 188.371
1310.164, 216.117
1311.370, 205.789
1312.576, 218.768
1313.782, 234.827
1314.987, 98.316
1316.193, 222.097
1317.398, 125.272
1318.603, 295.387
1319.807, 264.769
1321.012, 270.916
1322.216, 250.770
1323.421, 342.796
1324.625, 264.140
1325.829, 195.675
1327.032, 340.574
1328.236, 339.773
1329.439, 464.294
1330.642, 391.729
1331.845, 347.107
1333.048, 347.267
1334.251, 374.691
1335.453, 438.755
1336.656, 364.617
1337.858, 347.807
1339.060, 388.206
1340.261, 289.701
1341.463, 252.058
1342.664, 204.247
1343.866, 226.424
1345.067, 169.148
1346.267, 142.952
1347.468, 150.064
1348.669, 240.637
1349.869, 78.313
1351.069, 209.800
1352.269, 185.206
1353.469, 70.457
1354.668, 80.305
1355.868, 105.957
1357.067, 159.584
1358.266, 136.709
1359.465, 152.854
1360.664, 119.031
1361.862, 116.771
1363.061, 78.148
1364.259, 71.197
1365.457, 59.830
1366.655, 50.244
1367.852, 76.023
1369.050, 66.987
1370.247, 143.146
1371.444, 18.648
1372.641, 17.518
1373.838, 38.634
1375.035, 27.062
1376.231, 30.233
1377.427, 44.521
1378.623, 15.478
1379.819, 15.133
1381.015, 25.566
1382.211, 15.912
1383.406, 38.167
1384.601, 18.606
1385.796, 1.391
1386.991, 36.176
1388.185, 54.312
1389.380, 5.351
1390.574, 51.104
1391.768, 40.307
1392.962, 10.033
1394.156, 50.188
1395.350, 30.298
1396.543, 75.804
1397.736, 31.720
1398.929, 18.668
1400.122, 13.790
1401.315, 54.625
1402.507, 111.033
1403.700, 110.245
1404.892, 50.441
1406.084, 125.686
1407.276, 122.946
1408.467, 94.617
1409.659, 169.204
1410.850, 147.795
1412.041, 122.266
1413.232, 161.423
1414.423, 79.517
1415.614, 70.852
1416.804, 27.535
1417.994, 157.201
1419.184, 118.523
1420.374, 125.482
1421.564, 175.568
1422.753, 138.581
1423.943, 139.224
1425.132, 156.600
1426.321, 33.146
1427.510, 172.007
1428.698, 209.856
1429.887, 93.690
1431.075, 124.483
1432.263, 205.236
1433.451, 69.955
1434.639, 91.543
1435.827, 125.264
1437.014, 137.569
1438.201, 155.157
1439.388, 163.086
1440.575, 177.675
1441.762, 160.365
1442.949, 233.422
1444.135, 222.778
1445.321, 182.670
1446.507, 142.253
1447.693, 170.938
1448.879, 149.227
1450.064, 119.863
1451.250, 162.010
1452.435, 82.764
1453.620, 103.426
1454.805, 259.336
1455.989, 128.533
1457.174, 92.071
1458.358, 198.480
1459.542, 57.098
1460.726, 81.837
1461.910, 133.608
1463.093, 64.806
1464.277, 238.686
1465.460, 128.582
1466.643, 139.257
1467.826, 155.989
1469.009, 125.743
1470.191, 159.399
1471.373, 116.565
1472.556, 127.223
1473.738, 84.401
1474.919, 130.681
1476.101, 131.548
1477.283, 178.588
1478.464, 191.218
1479.645, 91.622
1480.826, 127.359
1482.007, 59.098
1483.187, 43.547
1484.368, 62.247
1485.548, 39.386
1486.728, 82.463
1487.908, 62.509
1489.088, 48.815
1490.268, 23.220
1491.447, 17.397
1492.626, 41.812
1493.805, 38.471
1494.984, 45.963
1496.163, 63.727
