##NAMES=Orthoclase
##RRUFFID=R040055
##IDEAL CHEMISTRY=KAlSi_3_O_8_
##LOCALITY=Madagascar
##OWNER=RRUFF
##SOURCE=Bob Downs
##DESCRIPTION=Pale yellow fragments
##STATUS=The identification of this mineral has been confirmed by X-ray diffraction and chemical analysis
##URL=rruff.info/R040055
##MEASURED CHEMISTRY=K_0.96_(Al_0.96_Si_0.03_Fe_0.02_)Si_3.00_O_8_; = light material. (K_0.90_Na_0.02_)(Al_0.91_Si_0.08_Fe_0.02_)Si_3.00_O_8_ = dark
##PIN_ID=L00124
##ORIENTATION=Laser parallel to b* (0 1 0). Fiducial mark perpendicular to laser is parallel to c [0 0 1]
53.228, 0.000
54.634, 53.953
56.040, 56.166
57.445, 129.476
58.850, 155.961
60.254, 137.692
61.659, 154.577
63.063, 247.771
64.467, 349.564
65.871, 331.845
67.274, 201.390
68.678, 138.687
70.081, 79.639
71.484, 53.148
72.886, 58.879
74.288, 43.532
75.690, 37.895
77.092, 39.052
78.494, 26.912
79.895, 82.918
81.296, 149.907
82.697, 158.827
84.097, 217.629
85.498, 302.269
86.898, 283.703
88.298, 344.893
89.697, 517.803
91.097, 761.399
92.496, 1064.651
93.895, 1437.531
95.293, 1787.012
96.692, 2162.061
98.090, 2558.636
99.488, 2826.703
100.885, 3107.223
102.283, 3247.157
103.680, 3238.485
105.077, 3257.200
106.473, 3304.313
107.870, 3378.833
109.266, 3486.764
110.662, 3574.086
112.057, 3877.783
113.453, 4202.839
114.848, 4876.242
116.243, 5545.978
117.638, 6241.035
119.032, 6422.405
120.426, 6326.077
121.820, 6186.042
123.214, 5879.293
124.608, 5926.822
126.001, 5492.622
127.394, 5467.686
128.787, 5611.010
130.179, 5832.582
131.571, 6479.402
132.963, 7347.464
134.355, 8479.765
135.747, 9782.296
137.138, 11465.029
138.529, 12897.880
139.920, 13800.830
141.311, 14693.867
142.701, 14546.986
144.091, 15060.181
145.481, 15313.429
146.870, 16166.677
148.260, 17299.859
149.649, 19063.068
151.038, 21826.373
152.426, 23919.785
153.815, 27223.350
155.203, 29227.172
156.591, 30801.334
157.979, 31615.838
159.366, 30150.766
160.753, 28796.064
162.140, 25481.701
163.527, 22627.570
164.913, 18963.533
166.300, 16049.586
167.686, 13595.730
169.071, 11391.975
170.457, 9828.316
171.842, 8464.756
173.227, 7711.296
174.612, 6597.934
175.996, 5989.674
177.381, 5418.514
178.765, 4764.454
180.149, 4591.497
181.532, 4047.640
182.915, 3797.885
184.299, 3450.230
185.681, 3296.677
187.064, 3039.226
188.446, 2807.877
189.828, 2633.628
191.210, 2439.480
192.592, 2363.434
193.973, 2179.487
195.355, 2003.640
196.736, 2015.894
198.116, 1713.244
199.497, 1749.694
200.877, 1502.241
202.257, 1524.886
203.637, 1440.628
205.016, 1380.466
206.395, 1393.401
207.774, 1281.431
209.153, 1246.557
210.532, 1221.779
211.910, 1229.098
213.288, 1223.512
214.666, 1205.022
216.043, 1283.630
217.421, 1163.334
218.798, 1188.134
220.175, 1168.757
221.551, 1160.217
222.928, 1119.473
224.304, 1134.516
225.680, 1203.291
227.055, 1203.830
228.431, 1190.642
229.806, 1184.581
231.181, 1234.805
232.556, 1335.457
233.930, 1232.621
235.304, 1349.104
236.678, 1261.355
238.052, 1366.757
239.426, 1416.282
240.799, 1424.701
242.172, 1604.360
243.545, 1624.797
244.917, 1766.059
246.290, 1876.554
247.662, 2044.202
249.034, 2267.999
250.405, 2366.941
251.777, 2692.819
253.148, 2911.172
254.519, 3280.387
255.889, 3531.595
257.260, 3799.689
258.630, 4342.088
260.000, 4608.663
261.370, 5214.270
262.739, 5613.710
264.108, 6261.831
265.477, 6630.372
266.846, 7130.544
268.215, 8001.140
269.583, 8323.446
270.951, 9211.569
272.319, 10101.381
273.686, 11211.285
275.054, 12151.287
276.421, 13301.374
277.788, 14901.560
279.154, 15601.831
280.521, 17242.189
281.887, 17392.633
283.253, 17713.166
284.619, 17703.781
285.984, 16434.475
287.349, 15575.249
288.714, 13956.105
290.079, 12457.039
291.444, 10958.052
292.808, 9569.139
294.172, 8280.305
295.536, 7001.540
296.899, 6222.852
298.263, 5367.232
299.626, 4703.688
300.989, 4168.210
302.351, 3618.802
303.714, 3269.464
305.076, 2812.194
306.438, 2647.992
307.799, 2383.858
309.161, 2094.792
310.522, 1965.794
311.883, 1789.862
313.244, 1689.000
314.604, 1540.205
315.965, 1446.479
317.325, 1421.819
318.684, 1265.227
320.044, 1313.699
321.403, 1181.237
322.762, 1238.836
324.121, 1164.498
325.480, 1264.218
326.838, 1261.996
328.196, 1177.831
329.554, 1289.723
330.912, 1191.671
332.270, 1213.674
333.627, 1163.734
334.984, 1142.848
336.341, 1170.018
337.697, 1073.242
339.053, 1186.521
340.409, 1097.854
341.765, 1055.240
343.121, 1098.683
344.476, 970.178
345.831, 1094.730
347.186, 1036.334
348.541, 1055.989
349.895, 1142.696
351.250, 984.453
352.604, 1141.262
353.957, 1085.133
355.311, 1153.058
356.664, 1156.036
358.017, 1127.078
359.370, 1170.179
360.722, 1089.360
362.075, 1190.598
363.427, 1061.896
364.779, 1055.253
366.130, 1039.675
367.482, 879.156
368.833, 883.714
370.184, 605.352
371.535, 629.057
372.885, 520.840
374.235, 445.689
375.585, 443.587
376.935, 292.570
378.285, 269.611
379.634, 143.718
380.983, 162.897
382.332, 130.134
383.680, 107.460
385.029, 59.858
386.377, 64.340
387.725, 47.895
389.073, 10.516
390.420, 18.801
391.767, 11.938
393.114, 56.258
394.461, 48.602
395.808, 55.473
397.154, 22.496
398.500, 46.529
399.846, 286.624
401.191, 264.781
402.537, 71.022
403.882, 195.338
405.227, 221.724
406.571, 220.176
407.916, 248.683
409.260, 93.243
410.604, 117.854
411.948, 83.516
413.291, 49.772
414.635, 31.029
415.978, 164.250
417.321, 94.485
418.663, 234.708
420.006, 156.977
421.348, 157.261
422.690, 273.561
424.031, 227.927
425.373, 238.341
426.714, 203.807
428.055, 233.312
429.396, 238.870
430.736, 62.483
432.077, 184.081
433.417, 63.287
434.757, 57.697
436.096, 100.148
437.436, 310.639
438.775, 376.170
440.114, 570.741
441.452, 728.352
442.791, 910.001
444.129, 1105.688
445.467, 1326.414
446.805, 1832.177
448.142, 1906.978
449.480, 2387.815
450.817, 2663.688
452.154, 2893.599
453.490, 3179.544
454.827, 3110.525
456.163, 3151.541
457.499, 3067.591
458.835, 2997.676
460.170, 3145.794
461.505, 2892.946
462.840, 3041.132
464.175, 3033.350
465.510, 3482.599
466.844, 3873.881
468.178, 4504.194
469.512, 5366.539
470.846, 6323.914
472.179, 7501.320
473.512, 8658.758
474.845, 9526.223
476.178, 10143.719
477.511, 9701.243
478.843, 9478.795
480.175, 8416.376
481.507, 7463.986
482.839, 6591.623
484.170, 5729.286
485.501, 5406.976
486.832, 4824.694
488.163, 4505.438
489.493, 4439.208
490.823, 4101.002
492.153, 4083.822
493.483, 4008.666
494.813, 4047.536
496.142, 4079.478
497.471, 4306.395
498.800, 4825.336
500.129, 5323.501
501.457, 6351.487
502.785, 7630.240
504.113, 9248.271
505.441, 11767.174
506.769, 14355.265
508.096, 18513.359
509.423, 23051.551
510.750, 28499.688
512.077, 34228.062
513.403, 37608.848
514.729, 40048.086
516.055, 37407.090
517.381, 33358.555
518.706, 28169.109
520.032, 22164.820
521.357, 17704.900
522.681, 13986.193
524.006, 11087.000
525.330, 8969.601
526.655, 7200.517
527.978, 6086.116
529.302, 5032.719
530.626, 4287.996
531.949, 3620.160
533.272, 3220.568
534.595, 2919.210
535.917, 2441.152
537.239, 2279.143
538.562, 1954.964
539.883, 1772.433
541.205, 1655.528
542.527, 1480.973
543.848, 1435.672
545.169, 1245.402
546.489, 1205.023
547.810, 1168.161
549.130, 925.182
550.450, 913.853
551.770, 760.299
553.090, 735.001
554.409, 772.200
555.728, 608.104
557.047, 598.873
558.366, 634.416
559.685, 532.961
561.003, 539.508
562.321, 497.054
563.639, 482.607
564.956, 473.159
566.274, 497.733
567.591, 471.307
568.908, 342.879
570.225, 493.464
571.541, 378.048
572.857, 474.848
574.173, 422.309
575.489, 419.038
576.805, 433.908
578.120, 387.015
579.435, 374.938
580.750, 360.804
582.065, 286.752
583.380, 336.996
584.694, 295.667
586.008, 262.024
587.322, 252.855
588.635, 207.366
589.949, 312.281
591.262, 124.480
592.575, 277.089
593.887, 213.700
595.200, 177.310
596.512, 227.926
597.824, 192.541
599.136, 351.154
600.447, 173.772
601.759, 223.389
603.070, 283.011
604.381, 280.645
605.692, 244.276
607.002, 262.916
608.312, 246.551
609.622, 272.183
610.932, 199.810
612.242, 344.432
613.551, 253.054
614.860, 288.671
616.169, 273.282
617.478, 259.890
618.786, 381.492
620.094, 252.087
621.402, 335.676
622.710, 465.257
624.018, 376.833
625.325, 508.400
626.632, 485.959
627.939, 484.510
629.246, 545.054
630.552, 526.588
631.859, 556.114
633.165, 504.631
634.471, 511.143
635.776, 512.646
637.082, 416.138
638.387, 466.621
639.692, 329.093
640.996, 380.556
642.301, 284.007
643.605, 232.448
644.909, 188.877
646.213, 175.295
647.516, 162.702
648.820, 120.097
650.123, 109.480
651.426, 221.851
652.729, 83.210
654.031, 183.555
655.333, 152.887
656.636, 72.206
657.937, 119.509
659.239, 47.798
660.540, 153.067
661.842, 45.321
663.142, 97.553
664.443, 110.770
665.744, 91.972
667.044, 122.158
668.344, 81.330
669.644, 3.484
670.944, 43.598
672.243, 54.686
673.542, 5.250
674.841, 10.767
676.140, 71.254
677.438, 23.644
678.737, 0.507
680.035, 9.326
681.333, 18.896
682.630, 8.827
683.928, 65.493
685.225, 80.893
686.522, 27.382
687.819, 72.933
689.115, 28.569
690.412, 45.731
691.708, 99.998
693.004, 4.827
694.300, 33.707
695.595, 59.653
696.890, 5.680
698.185, 74.757
699.480, 14.923
700.775, 47.146
702.069, 13.442
703.363, 35.205
704.657, 38.818
705.951, 77.701
707.244, 61.260
708.538, 9.133
709.831, 73.628
711.124, 139.098
712.416, 104.761
713.709, 195.199
715.001, 215.809
716.293, 196.235
717.585, 167.614
718.876, 168.235
720.167, 233.575
721.459, 215.357
722.749, 277.761
724.040, 240.042
725.331, 336.757
726.621, 347.999
727.911, 286.867
729.201, 377.278
730.490, 451.475
731.780, 473.084
733.069, 469.289
734.358, 474.641
735.646, 604.363
736.935, 656.614
738.223, 533.345
739.511, 648.656
740.799, 637.995
742.087, 803.386
743.374, 813.771
744.661, 766.617
745.948, 843.023
747.235, 775.445
748.522, 821.354
749.808, 832.734
751.094, 821.769
752.380, 872.105
753.666, 802.421
754.951, 936.497
756.236, 922.769
757.521, 879.708
758.806, 1010.461
760.091, 955.668
761.375, 993.598
762.659, 1006.760
763.943, 1033.899
765.227, 1178.017
766.511, 1030.112
767.794, 1094.190
769.077, 1092.242
770.360, 1057.270
771.643, 1137.809
772.925, 967.793
774.207, 1057.755
775.489, 1000.694
776.771, 920.612
778.053, 940.507
779.334, 787.380
780.615, 907.231
781.896, 820.060
783.177, 752.867
784.457, 803.652
785.738, 763.415
787.018, 781.156
788.298, 901.633
789.577, 764.331
790.857, 1037.006
792.136, 933.660
793.415, 970.292
794.694, 1177.902
795.972, 988.490
797.251, 1143.057
798.529, 1192.603
799.807, 1161.127
801.084, 1171.628
802.362, 1237.109
803.639, 1269.569
804.916, 1327.007
806.193, 1387.424
807.470, 1538.771
808.746, 1531.147
810.022, 1593.501
811.298, 1564.634
812.574, 1442.946
813.850, 1404.497
815.125, 1159.768
816.400, 1078.169
817.675, 923.385
818.950, 742.596
820.224, 783.714
821.499, 574.885
822.773, 480.820
824.047, 460.345
825.320, 330.408
826.594, 380.713
827.867, 310.550
829.140, 216.307
830.413, 285.901
831.685, 218.129
832.958, 312.136
834.230, 234.628
835.502, 257.329
836.774, 357.708
838.045, 294.402
839.316, 379.092
840.588, 279.106
841.858, 111.227
843.129, 315.102
844.400, 173.741
845.670, 201.077
846.940, 148.361
848.210, 87.809
849.479, 146.608
850.749, 119.775
852.018, 93.590
853.287, 147.145
854.556, 77.665
855.824, 50.290
857.093, 73.394
858.361, 27.394
859.629, 158.706
860.896, 6.474
862.164, 120.367
863.431, 45.369
864.698, 12.970
865.965, 117.443
867.232, 10.075
868.498, 25.698
869.764, 32.312
871.030, 16.081
872.296, 38.505
873.562, 83.916
874.827, 12.609
876.092, 39.125
877.357, 53.366
878.622, 111.105
879.886, 57.429
881.151, 0.997
882.415, 71.414
883.679, 23.175
884.942, 60.216
886.206, 2.601
887.469, 9.022
888.732, 59.342
889.995, 58.299
891.258, 84.023
892.520, 31.338
893.782, 8.647
895.044, 87.950
896.306, 60.754
897.568, 31.504
898.829, 15.756
900.090, 13.998
901.351, 24.235
902.612, 35.538
903.872, 35.668
905.133, 65.869
906.393, 38.938
907.653, 97.241
908.912, 38.586
910.172, 68.435
911.431, 44.685
912.690, 57.200
913.949, 55.892
915.208, 90.980
916.466, 40.064
917.724, 61.146
918.982, 31.775
920.240, 11.289
921.498, 127.350
922.755, 21.594
924.012, 98.455
925.269, 33.500
926.526, 95.542
927.782, 42.584
929.039, 64.623
930.295, 85.659
931.551, 127.709
932.806, 47.757
934.062, 201.802
935.317, 35.846
936.572, 172.888
937.827, 170.929
939.082, 32.032
940.336, 291.999
941.590, 158.030
942.844, 246.059
944.098, 336.087
945.352, 148.114
946.605, 333.141
947.859, 249.167
949.112, 275.193
950.364, 395.219
951.617, 343.249
952.869, 458.279
954.121, 493.310
955.373, 379.343
956.625, 582.375
957.877, 469.420
959.128, 564.466
960.379, 598.514
961.630, 569.570
962.881, 613.628
964.131, 583.688
965.381, 654.753
966.631, 686.821
967.881, 687.896
969.131, 789.973
970.380, 818.052
971.630, 754.142
972.879, 924.233
974.128, 803.328
975.376, 812.439
976.625, 1008.559
977.873, 869.684
979.121, 979.829
980.369, 1025.988
981.616, 912.188
982.864, 1093.399
984.111, 959.629
985.358, 1088.875
986.605, 1138.143
987.851, 1023.444
989.097, 1220.781
990.344, 1052.157
991.589, 1107.571
992.835, 1235.022
994.081, 1040.501
995.326, 1291.025
996.571, 1317.594
997.816, 1296.187
999.061, 1486.813
1000.305, 1294.475
1001.550, 1389.159
1002.794, 1539.885
1004.037, 1303.635
1005.281, 1533.437
1006.525, 1442.262
1007.768, 1401.099
1009.011, 1469.658
1010.254, 1423.526
1011.496, 1437.080
1012.739, 1454.996
1013.981, 1340.919
1015.223, 1398.667
1016.465, 1277.626
1017.706, 1440.398
1018.948, 1319.371
1020.189, 1313.376
1021.430, 1369.127
1022.671, 1306.144
1023.911, 1232.706
1025.152, 1379.654
1026.392, 1178.711
1027.632, 1337.319
1028.872, 1218.405
1030.111, 1262.849
1031.350, 1325.744
1032.590, 1135.851
1033.829, 1195.560
1035.067, 1233.681
1036.306, 962.690
1037.544, 1123.347
1038.782, 1010.508
1040.020, 950.229
1041.258, 945.403
1042.495, 846.605
1043.733, 841.782
1044.970, 768.998
1046.207, 753.793
1047.443, 775.027
1048.680, 736.270
1049.916, 649.012
1051.152, 643.269
1052.388, 589.079
1053.624, 766.351
1054.859, 523.629
1056.094, 556.512
1057.329, 594.812
1058.564, 433.497
1059.799, 487.346
1061.033, 517.669
1062.268, 449.908
1063.502, 410.475
1064.735, 383.821
1065.969, 361.792
1067.202, 468.156
1068.436, 352.693
1069.669, 496.071
1070.902, 514.457
1072.134, 490.654
1073.367, 743.144
1074.599, 499.552
1075.831, 647.594
1077.062, 801.018
1078.294, 531.447
1079.525, 781.855
1080.757, 782.301
1081.988, 764.754
1083.218, 952.442
1084.449, 881.925
1085.679, 923.833
1086.909, 1026.488
1088.139, 995.252
1089.369, 978.100
1090.599, 1083.646
1091.828, 895.376
1093.057, 1137.934
1094.286, 1078.497
1095.515, 1113.357
1096.744, 1201.932
1097.972, 1080.512
1099.200, 1269.232
1100.428, 1185.825
1101.656, 1337.686
1102.883, 1492.646
1104.111, 1194.259
1105.338, 1474.591
1106.565, 1438.216
1107.791, 1342.108
1109.018, 1537.515
1110.244, 1443.156
1111.470, 1538.802
1112.696, 1665.837
1113.922, 1605.494
1115.147, 1832.803
1116.373, 1870.473
1117.598, 1800.146
1118.823, 2190.550
1120.047, 1977.366
1121.272, 2132.265
1122.496, 2276.253
1123.720, 2095.949
1124.944, 2330.945
1126.168, 2415.994
1127.391, 2197.703
1128.615, 2441.444
1129.838, 2231.225
1131.061, 2375.311
1132.283, 2357.278
1133.506, 2104.998
1134.728, 2318.620
1135.950, 2311.479
1137.172, 2096.202
1138.394, 2263.646
1139.615, 2081.370
1140.837, 2047.636
1142.058, 2170.571
1143.279, 1810.328
1144.499, 1850.639
1145.720, 1694.779
1146.940, 1665.556
1148.160, 1663.893
1149.380, 1354.151
1150.600, 1547.110
1151.819, 1442.179
1153.038, 1262.301
1154.257, 1339.022
1155.476, 1163.403
1156.695, 1084.111
1157.913, 1213.059
1159.132, 999.363
1160.350, 829.062
1161.568, 986.553
1162.785, 763.309
1164.003, 969.999
1165.220, 827.123
1166.437, 714.804
1167.654, 819.849
1168.871, 567.825
1170.087, 705.494
1171.304, 701.684
1172.520, 539.507
1173.736, 696.181
1174.951, 527.229
1176.167, 352.904
1177.382, 596.589
1178.597, 398.001
1179.812, 477.672
1181.027, 464.247
1182.241, 220.975
1183.455, 496.629
1184.669, 266.326
1185.883, 176.966
1187.097, 459.613
1188.311, 117.543
1189.524, 216.172
1190.737, 267.224
1191.950, 63.045
1193.162, 253.662
1194.375, 122.938
1195.587, 67.620
1196.799, 157.208
1198.011, 12.520
1199.223, 77.094
1200.434, 187.658
1201.646, 33.799
1202.857, 277.739
1204.068, 57.724
1205.279, 25.211
1206.489, 192.307
1207.699, 37.365
1208.909, 25.133
1210.119, 156.611
1211.329, 11.076
1212.539, 156.373
1213.748, 43.813
1214.957, 97.769
1216.166, 173.188
1217.375, 9.399
1218.583, 69.940
1219.792, 171.334
1221.000, 8.843
1222.208, 124.629
1223.415, 156.979
1224.623, 68.883
1225.830, 183.406
1227.037, 122.046
1228.244, 55.644
1229.451, 138.891
1230.658, 16.486
1231.864, 80.201
1233.070, 244.400
1234.276, 44.224
1235.482, 184.400
1236.687, 77.561
1237.893, 171.918
1239.098, 142.046
1240.303, 55.151
1241.508, 187.271
1242.712, 167.355
1243.917, 11.064
1245.121, 222.998
1246.325, 69.039
1247.529, 49.236
1248.732, 263.250
1249.936, 34.746
1251.139, 183.661
1252.342, 76.625
1253.545, 18.216
1254.747, 282.933
1255.950, 177.855
1257.152, 53.316
1258.354, 333.210
1259.556, 8.094
1260.758, 204.014
1261.959, 198.841
1263.160, 13.345
1264.361, 122.325
1265.562, 105.055
1266.763, 85.789
1267.963, 297.488
1269.164, 88.149
1270.364, 78.469
1271.563, 278.064
1272.763, 1.645
1273.963, 148.253
1275.162, 76.727
1276.361, 107.184
1277.560, 220.623
1278.759, 41.985
1279.957, 137.349
1281.155, 215.736
1282.354, 21.964
1283.551, 189.295
1284.749, 45.514
1285.947, 108.286
1287.144, 168.885
1288.341, 41.973
1289.538, 1.036
1290.735, 166.075
1291.931, 41.092
1293.128, 52.074
1294.324, 124.034
1295.520, 44.030
1296.716, 86.019
1297.911, 181.888
1299.107, 16.262
1300.302, 226.719
1301.497, 40.491
1302.692, 51.259
1303.886, 202.986
1305.081, 64.312
1306.275, 178.308
1307.469, 198.872
1308.663, 89.589
1309.856, 239.935
1311.050, 107.375
1312.243, 124.791
1313.436, 322.184
1314.629, 57.450
1315.822, 164.859
1317.014, 225.144
1318.206, 38.598
1319.398, 245.611
1320.590, 228.791
1321.782, 46.944
1322.974, 307.059
1324.165, 29.138
1325.356, 20.187
1326.547, 373.205
1327.738, 31.811
1328.928, 294.130
1330.119, 235.044
1331.309, 51.066
1332.499, 289.775
1333.688, 105.591
1334.878, 18.381
1336.067, 256.141
1337.256, 61.875
1338.445, 190.583
1339.634, 260.266
1340.823, 55.922
1342.011, 348.327
1343.199, 222.928
1344.388, 3.503
1345.575, 377.674
1346.763, 104.316
1347.950, 84.745
1349.138, 416.158
1350.325, 47.606
1351.512, 212.379
1352.698, 411.554
1353.885, 44.935
1355.071, 350.679
1356.257, 299.944
1357.443, 91.092
1358.629, 460.394
1359.814, 55.349
1361.000, 187.278
1362.185, 425.439
1363.370, 115.008
1364.554, 194.603
1365.739, 363.805
1366.923, 56.996
1368.107, 292.205
1369.291, 132.475
1370.475, 33.409
1371.659, 282.325
1372.842, 33.509
1374.025, 101.938
1375.208, 306.606
1376.391, 5.241
1377.574, 307.138
1378.756, 300.749
1379.939, 173.811
1381.121, 473.844
1382.303, 273.677
1383.484, 219.229
1384.666, 520.893
1385.847, 106.404
1387.028, 311.782
1388.209, 422.664
1389.390, 30.184
1390.570, 429.796
1391.751, 347.968
1392.931, 128.814
1394.111, 479.441
1395.291, 182.523
1396.470, 181.623
1397.649, 574.300
1398.829, 102.491
1400.008, 371.312
1401.187, 265.315
1402.365, 42.870
1403.544, 520.859
1404.722, 361.352
1405.900, 48.553
1407.078, 616.097
1408.255, 223.196
1409.433, 247.114
1410.610, 583.002
1411.787, 73.363
1412.964, 321.649
1414.141, 410.494
1415.317, 196.433
1416.494, 300.087
1417.670, 384.935
1418.846, 248.836
1420.022, 462.402
1421.197, 239.533
1422.373, 183.594
1423.548, 570.587
1424.723, 203.758
1425.898, 311.824
1427.072, 410.651
1428.247, 176.593
1429.421, 392.792
1430.595, 405.378
1431.769, 197.807
1432.942, 514.189
1434.116, 270.521
1435.289, 352.214
1436.462, 539.725
1437.635, 151.728
1438.808, 482.645
1439.981, 619.924
1441.153, 149.265
1442.325, 672.804
1443.497, 502.117
1444.669, 269.974
1445.840, 588.554
1447.012, 481.858
1448.183, 256.489
1449.354, 784.207
1450.525, 157.696
1451.696, 428.748
1452.866, 659.186
1454.036, 211.499
1455.206, 481.706
1456.376, 523.409
1457.546, 180.445
1458.716, 645.446
1459.885, 434.315
1461.054, 267.733
1462.223, 713.265
1463.392, 261.243
1464.560, 373.485
1465.729, 668.862
1466.897, 230.226
1468.065, 466.875
1469.233, 566.057
1470.400, 218.619
1471.568, 552.151
