##NAMES=Orthoclase
##RRUFFID=R040055
##IDEAL CHEMISTRY=KAlSi_3_O_8_
##LOCALITY=Madagascar
##OWNER=RRUFF
##SOURCE=Bob Downs
##DESCRIPTION=Pale yellow fragments
##STATUS=The identification of this mineral has been confirmed by X-ray diffraction and chemical analysis
##URL=rruff.info/R040055
##MEASURED CHEMISTRY=K_0.96_(Al_0.96_Si_0.03_Fe_0.02_)Si_3.00_O_8_; = light material. (K_0.90_Na_0.02_)(Al_0.91_Si_0.08_Fe_0.02_)Si_3.00_O_8_ = dark
##PIN_ID=M00411
##ORIENTATION=Laser parallel to -c* (0 0 -1). Fiducial mark perpendicular to laser is parallel to a [1 0 0]
98.251, 0.000
99.644, 0.239
101.036, 89.834
102.428, 29.541
103.820, 108.024
105.212, 30.829
106.604, 188.489
107.995, 484.374
109.387, 1203.748
110.777, 2148.796
112.168, 1860.661
113.559, 2140.182
114.949, 2759.547
116.339, 3937.139
117.729, 3937.685
119.119, 3711.309
120.508, 3797.384
121.897, 3355.441
123.286, 3195.125
124.675, 2946.295
126.063, 2922.287
127.452, 3054.529
128.840, 3700.845
130.228, 4488.614
131.615, 5885.981
133.003, 7582.428
134.390, 9198.115
135.777, 11163.194
137.164, 12547.793
138.550, 13352.009
139.937, 13945.923
141.323, 13599.566
142.709, 14012.965
144.094, 13566.152
145.480, 14519.145
146.865, 15321.979
148.250, 16754.676
149.635, 18797.260
151.019, 20933.354
152.403, 24076.779
153.788, 26473.979
155.171, 28912.604
156.555, 30333.457
157.939, 30222.732
159.322, 28970.172
160.705, 25405.803
162.088, 22538.055
163.470, 18577.160
164.853, 15472.713
166.235, 12928.479
167.617, 10644.473
168.998, 9270.921
170.380, 7637.736
171.761, 6734.949
173.142, 5742.675
174.523, 5090.718
175.904, 4589.144
177.284, 3647.817
178.664, 3396.740
180.044, 2818.041
181.424, 2572.472
182.803, 2210.831
184.183, 1916.155
185.562, 1720.492
186.940, 1396.875
188.319, 1286.317
189.698, 1034.833
191.076, 950.426
192.454, 942.100
193.831, 795.854
195.209, 730.690
196.586, 422.603
197.963, 443.588
199.340, 241.641
200.717, 210.756
202.093, 138.931
203.470, 7.160
204.846, 57.440
206.221, 230.230
207.597, 137.856
208.972, 173.445
210.347, 133.014
211.722, 203.574
213.097, 254.135
214.472, 109.698
215.846, 126.262
217.220, 114.829
218.594, 146.398
219.967, 92.969
221.341, 53.541
222.714, 39.117
224.087, 18.695
225.460, 52.278
226.832, 77.135
228.204, 0.544
229.577, 94.948
230.948, 170.347
232.320, 157.741
233.692, 220.120
235.063, 200.413
236.434, 310.360
237.805, 414.015
239.175, 534.992
240.545, 732.476
241.916, 830.627
243.286, 1084.363
244.655, 1318.219
246.025, 1492.404
247.394, 1671.321
248.763, 1911.905
250.132, 2359.090
251.501, 2489.971
252.869, 3043.323
254.237, 3237.893
255.605, 3752.967
256.973, 4218.587
258.340, 4781.825
259.708, 5423.615
261.075, 5996.527
262.442, 6704.562
263.808, 7321.111
265.175, 8088.520
266.541, 8926.774
267.907, 9644.610
269.273, 10993.692
270.639, 11723.308
272.004, 13363.354
273.369, 14743.754
274.734, 16284.446
276.099, 18095.383
277.463, 19036.523
278.828, 20617.832
280.192, 20509.275
281.556, 20900.824
282.919, 19752.469
284.283, 18674.189
285.646, 17255.967
287.009, 15057.799
288.372, 13649.673
289.734, 11721.585
291.097, 9993.508
292.459, 8695.417
293.821, 7217.289
295.183, 6379.119
296.544, 5310.908
297.905, 4782.659
299.266, 3984.376
300.627, 3356.062
301.988, 3150.715
303.348, 2556.340
304.709, 2482.938
306.069, 2143.507
307.428, 1997.051
308.788, 1774.569
310.147, 1537.062
311.507, 1550.531
312.865, 1259.976
314.224, 1288.397
315.583, 1299.773
316.941, 1217.942
318.299, 1194.843
319.657, 1067.466
321.015, 1066.065
322.372, 1082.952
323.729, 1033.914
325.086, 1089.785
326.443, 1086.580
327.800, 1210.360
329.156, 1059.146
330.512, 1144.938
331.868, 1058.733
333.224, 1088.531
334.579, 1190.328
335.935, 1021.122
337.290, 1151.913
338.645, 1112.696
339.999, 1126.471
341.354, 1059.237
342.708, 988.992
344.062, 1146.735
345.416, 981.466
346.769, 1054.183
348.123, 1035.887
349.476, 939.578
350.829, 988.258
352.182, 898.926
353.534, 939.581
354.887, 746.227
356.239, 811.858
357.591, 653.486
358.942, 610.101
360.294, 592.704
361.645, 337.294
362.996, 361.869
364.347, 296.462
365.698, 225.042
367.048, 220.454
368.398, 218.042
369.748, 225.019
371.098, 87.096
372.448, 161.218
373.797, 127.509
375.146, 28.038
376.495, 63.380
377.844, 23.113
379.192, 111.441
380.540, 28.399
381.889, 42.017
383.236, 78.308
384.584, 70.336
385.932, 70.692
387.279, 20.280
388.626, 23.976
389.973, 21.391
391.319, 125.725
392.666, 143.577
394.012, 78.140
395.358, 17.908
396.704, 20.286
398.049, 31.546
399.394, 30.570
400.740, 115.376
402.084, 69.582
403.429, 12.509
404.774, 3.640
406.118, 101.159
407.462, 30.100
408.806, 50.546
410.150, 39.863
411.493, 107.661
412.836, 63.861
414.179, 7.478
415.522, 35.844
416.865, 108.878
418.207, 12.688
419.549, 19.559
420.891, 52.485
422.233, 60.487
423.575, 8.604
424.916, 51.255
426.257, 66.107
427.598, 82.947
428.939, 194.774
430.279, 246.592
431.619, 394.395
432.959, 401.181
434.299, 650.946
435.639, 833.691
436.978, 883.413
438.318, 1115.110
439.657, 1344.783
440.996, 1795.429
442.334, 1983.047
443.673, 2398.639
445.011, 2867.201
446.349, 3204.736
447.687, 3832.241
449.024, 3999.717
450.361, 4387.163
451.699, 4434.580
453.036, 4501.963
454.372, 4529.319
455.709, 4116.646
457.045, 4153.941
458.381, 4041.207
459.717, 4048.443
461.053, 4275.650
462.388, 4292.827
463.724, 5139.972
465.059, 5527.091
466.394, 6584.178
467.728, 7911.237
469.063, 8948.265
470.397, 10855.266
471.731, 11942.235
473.065, 12859.179
474.398, 13156.088
475.732, 12482.969
477.065, 12179.824
478.398, 10396.647
479.731, 9403.446
481.063, 8270.216
482.396, 7376.962
483.728, 6823.685
485.060, 6430.381
486.391, 6227.058
487.723, 5703.710
489.054, 5620.341
490.385, 5526.948
491.716, 5213.532
493.047, 5540.093
494.377, 5476.630
495.708, 6173.145
497.038, 6909.638
498.368, 7786.105
499.697, 9342.550
501.027, 11018.971
502.356, 13735.369
503.685, 17002.020
505.014, 21548.369
506.342, 27184.695
507.671, 32941.219
508.999, 40897.492
510.327, 45584.355
511.655, 49720.766
512.982, 49837.352
514.310, 44934.941
515.637, 39641.289
516.964, 31780.219
518.291, 25676.926
519.617, 20724.064
520.944, 16381.178
522.270, 13157.650
523.596, 10412.346
524.921, 8919.160
526.247, 7549.069
527.572, 6161.408
528.897, 5508.560
530.222, 4702.907
531.547, 4232.091
532.871, 3858.953
534.196, 3294.269
535.520, 3214.312
536.844, 2650.996
538.167, 2678.791
539.491, 2404.598
540.814, 2067.240
542.137, 2002.908
543.460, 1811.840
544.783, 1741.967
546.105, 1506.071
547.427, 1525.370
548.749, 1506.399
550.071, 1225.455
551.393, 1253.555
552.714, 1071.959
554.035, 1045.862
555.356, 1118.078
556.677, 854.915
557.998, 1027.194
559.318, 850.620
560.638, 805.930
561.958, 885.141
563.278, 732.881
564.597, 929.712
565.917, 694.261
567.236, 772.354
568.555, 761.972
569.874, 544.378
571.192, 782.845
572.511, 590.676
573.829, 732.056
575.147, 818.174
576.464, 578.128
577.782, 772.104
579.099, 588.620
580.416, 730.072
581.733, 658.613
583.050, 647.772
584.366, 782.079
585.683, 624.653
586.999, 612.495
588.315, 609.029
589.630, 522.542
590.946, 650.062
592.261, 509.560
593.576, 668.037
594.891, 636.494
596.206, 569.930
597.520, 729.366
598.834, 524.781
600.148, 639.180
601.462, 533.562
602.776, 555.924
604.089, 547.276
605.402, 523.607
606.715, 669.918
608.028, 599.208
609.341, 638.479
610.653, 697.761
611.965, 525.023
613.277, 720.265
614.589, 630.500
615.901, 576.715
617.212, 728.909
618.523, 704.083
619.834, 760.238
621.145, 738.396
622.456, 822.535
623.766, 978.653
625.076, 837.752
626.386, 1055.830
627.696, 938.889
629.006, 1002.927
630.315, 873.947
631.624, 733.946
632.933, 862.925
634.242, 653.885
635.551, 737.826
636.859, 744.747
638.167, 508.648
639.475, 664.531
640.783, 427.394
642.090, 505.237
643.398, 555.061
644.705, 331.866
646.012, 528.652
647.318, 412.418
648.625, 472.166
649.931, 427.894
651.237, 337.604
652.543, 433.293
653.849, 342.964
655.155, 400.616
656.460, 432.249
657.765, 223.862
659.070, 392.458
660.375, 138.033
661.679, 300.588
662.984, 230.124
664.288, 153.642
665.592, 224.139
666.895, 73.616
668.199, 162.071
669.502, 110.505
670.805, 9.917
672.108, 158.298
673.411, 18.118
674.713, 74.199
676.016, 29.490
677.318, 29.754
678.620, 97.992
679.921, 111.450
681.223, 46.671
682.524, 35.900
683.825, 74.858
685.126, 17.109
686.427, 106.718
687.727, 52.871
689.028, 36.224
690.328, 128.964
691.628, 110.702
692.927, 132.804
694.227, 25.769
695.526, 34.662
696.825, 79.805
698.124, 3.343
699.423, 133.833
700.721, 16.491
702.020, 85.817
703.318, 20.122
704.616, 256.416
705.913, 45.182
707.211, 4.058
708.508, 103.310
709.805, 91.538
711.102, 320.777
712.399, 62.135
713.695, 213.357
714.992, 301.582
716.288, 104.515
717.584, 409.748
718.879, 91.306
720.175, 285.519
721.470, 304.796
722.765, 222.986
724.060, 410.180
725.355, 288.359
726.649, 413.559
727.944, 538.728
729.238, 412.365
730.532, 644.542
731.825, 348.708
733.119, 538.276
734.412, 664.464
735.705, 454.950
736.998, 796.148
738.291, 639.331
739.584, 677.898
740.876, 820.066
742.168, 742.879
743.460, 935.017
744.752, 816.136
746.043, 875.199
747.334, 990.278
748.626, 768.379
749.916, 981.421
751.207, 930.443
752.498, 942.177
753.788, 1058.161
755.078, 878.879
756.368, 1145.824
757.658, 1061.749
758.947, 1080.872
760.237, 1277.759
761.526, 1076.629
762.815, 1381.551
764.104, 1211.382
765.392, 1286.697
766.680, 1457.490
767.969, 1171.265
769.257, 1490.078
770.544, 1324.814
771.832, 1241.532
773.119, 1502.231
774.406, 1051.912
775.693, 1128.998
776.980, 1043.641
778.267, 892.265
779.553, 954.871
780.839, 788.458
782.125, 1023.027
783.411, 944.577
784.697, 879.109
785.982, 1108.624
787.267, 920.120
788.552, 987.598
789.837, 1118.058
791.122, 997.501
792.406, 1352.925
793.690, 1174.333
794.974, 1276.724
796.258, 1517.097
797.542, 1274.452
798.825, 1378.791
800.108, 1488.113
801.391, 1552.419
802.674, 1695.707
803.957, 1527.979
805.239, 1803.234
806.522, 1815.475
807.804, 1837.697
809.085, 2049.905
810.367, 1732.096
811.649, 1904.271
812.930, 1598.431
814.211, 1269.574
815.492, 1436.426
816.772, 1046.538
818.053, 1000.636
819.333, 651.508
820.613, 531.574
821.893, 610.018
823.173, 333.882
824.452, 428.518
825.732, 347.126
827.011, 111.935
828.290, 369.115
829.568, 182.486
830.847, 206.385
832.125, 199.276
833.403, 74.767
834.681, 274.996
835.959, 67.068
837.236, 153.008
838.514, 161.487
839.791, 78.118
841.068, 260.573
842.345, 48.398
843.621, 108.294
844.898, 234.325
846.174, 6.237
847.450, 224.486
848.726, 131.197
850.001, 4.924
851.277, 208.075
852.552, 52.126
853.827, 238.332
855.102, 110.770
856.376, 121.969
857.651, 282.482
858.925, 41.135
860.199, 265.173
861.473, 264.307
862.746, 85.563
864.020, 391.771
865.293, 46.609
866.566, 99.360
867.839, 199.940
869.112, 41.485
870.384, 230.688
871.656, 17.773
872.928, 66.323
874.200, 29.838
875.472, 58.346
876.744, 117.849
878.015, 69.348
879.286, 37.840
880.557, 114.329
881.828, 153.188
883.098, 60.210
884.369, 87.604
885.639, 41.009
886.909, 136.354
888.178, 105.290
889.448, 149.007
890.717, 143.300
891.987, 76.411
893.256, 213.834
894.524, 65.924
895.793, 59.281
897.061, 113.483
898.330, 104.315
899.598, 152.828
900.865, 5.972
902.133, 37.108
903.401, 261.244
904.668, 87.618
905.935, 128.474
907.202, 15.435
908.468, 21.355
909.735, 243.714
911.001, 47.220
912.267, 84.831
913.533, 57.882
914.799, 0.931
916.064, 130.979
917.330, 137.976
918.595, 44.011
919.860, 60.998
921.124, 67.017
922.389, 125.958
923.653, 54.933
924.918, 6.908
926.182, 217.884
927.445, 110.140
928.709, 282.790
929.972, 133.720
931.236, 42.652
932.499, 196.584
933.761, 20.520
935.024, 182.456
936.286, 229.395
937.549, 33.336
938.811, 333.286
940.073, 165.239
941.334, 284.194
942.596, 311.152
943.857, 126.113
945.118, 378.078
946.379, 292.046
947.640, 356.017
948.900, 584.014
950.161, 302.014
951.421, 514.016
952.681, 476.030
953.940, 511.048
955.200, 685.069
956.459, 500.096
957.719, 627.127
958.978, 638.162
960.236, 522.202
961.495, 840.248
962.753, 591.299
964.012, 622.356
965.270, 853.418
966.527, 624.484
967.785, 885.559
969.043, 746.661
970.300, 767.770
971.557, 1048.884
972.814, 710.006
974.071, 891.138
975.327, 1092.276
976.583, 893.421
977.840, 1194.580
979.095, 1005.522
980.351, 1066.707
981.607, 1287.902
982.862, 979.109
984.117, 1410.328
985.372, 1221.213
986.627, 1242.487
987.882, 1493.438
989.136, 1144.749
990.390, 1246.096
991.644, 1447.220
992.898, 1228.625
994.152, 1509.757
995.405, 1271.157
996.659, 1562.688
997.912, 1522.406
999.165, 1454.001
1000.417, 1945.610
1001.670, 1835.904
1002.922, 1827.584
1004.174, 1865.200
1005.426, 1416.950
1006.678, 1598.729
1007.930, 1690.518
1009.181, 1352.322
1010.432, 1744.027
1011.683, 1455.872
1012.934, 1497.750
1014.185, 1539.639
1015.435, 1441.537
1016.685, 1530.385
1017.935, 1442.365
1019.185, 1414.355
1020.435, 1703.636
1021.684, 1335.647
1022.934, 1626.333
1024.183, 1528.370
1025.432, 1290.348
1026.680, 1542.420
1027.929, 1324.505
1029.177, 1356.599
1030.425, 1518.704
1031.673, 1100.834
1032.921, 1463.519
1034.169, 1205.676
1035.416, 1067.844
1036.663, 1227.652
1037.911, 999.849
1039.157, 1055.760
1040.404, 1048.010
1041.650, 870.272
1042.897, 988.160
1044.143, 830.681
1045.389, 719.325
1046.634, 971.657
1047.880, 594.633
1049.125, 831.028
1050.371, 723.445
1051.615, 615.834
1052.860, 778.277
1054.105, 531.637
1055.349, 679.418
1056.593, 811.943
1057.837, 293.763
1059.081, 675.315
1060.325, 477.885
1061.568, 379.853
1062.812, 682.448
1064.055, 295.058
1065.298, 477.606
1066.540, 610.240
1067.783, 386.919
1069.025, 809.612
1070.267, 522.345
1071.509, 735.547
1072.751, 828.308
1073.993, 521.256
1075.234, 884.058
1076.475, 976.872
1077.716, 794.499
1078.957, 1137.348
1080.198, 830.209
1081.438, 1043.120
1082.679, 1106.043
1083.919, 1138.998
1085.159, 1361.966
1086.398, 1064.945
1087.638, 1279.397
1088.877, 1372.416
1090.116, 1105.445
1091.355, 1388.496
1092.594, 1481.559
1093.833, 1184.695
1095.071, 1557.783
1096.309, 1200.882
1097.547, 1358.920
1098.785, 1592.043
1100.023, 1295.177
1101.260, 1489.601
1102.498, 1442.758
1103.735, 1385.926
1104.972, 1729.106
1106.208, 1492.298
1107.445, 1565.652
1108.681, 1758.865
1109.918, 1382.091
1111.154, 1775.668
1112.389, 1598.915
1113.625, 1542.174
1114.860, 2035.446
1116.096, 1628.731
1117.331, 2007.344
1118.566, 2150.654
1119.800, 1903.973
1121.035, 2417.671
1122.269, 2381.012
1123.503, 2504.363
1124.737, 2707.725
1125.971, 2291.098
1127.205, 2664.479
1128.438, 2667.872
1129.671, 2521.272
1130.904, 2824.957
1132.137, 2538.377
1133.370, 2621.805
1134.602, 2935.499
1135.834, 2358.946
1137.066, 2862.480
1138.298, 2546.102
1139.530, 2569.572
1140.762, 2593.449
1141.993, 2136.938
1143.224, 2280.432
1144.455, 2241.504
1145.686, 1975.011
1146.917, 2268.943
1148.147, 1902.919
1149.377, 1676.450
1150.607, 2001.360
1151.837, 1594.908
1153.067, 1618.477
1154.296, 1614.893
1155.526, 1378.468
1156.755, 1492.295
1157.984, 1416.247
1159.213, 1039.828
1160.441, 1546.984
1161.670, 1040.678
1162.898, 1114.265
1164.126, 1121.807
1165.354, 835.410
1166.581, 1099.104
1167.809, 1023.128
1169.036, 766.744
1170.263, 1071.067
1171.490, 594.688
1172.717, 878.309
1173.943, 965.785
1175.170, 549.403
1176.396, 863.019
1177.622, 670.264
1178.848, 423.877
1180.073, 737.979
1181.299, 352.685
1182.524, 526.331
1183.749, 491.575
1184.974, 105.230
1186.199, 498.879
1187.423, 290.060
1188.648, 273.729
1189.872, 457.554
1191.096, 17.328
1192.320, 266.346
1193.543, 284.146
1194.767, 31.484
1195.990, 282.183
1197.213, 246.771
1198.436, 40.455
1199.659, 344.234
1200.881, 31.311
1202.104, 222.345
1203.326, 246.364
1204.548, 10.416
1205.770, 314.074
1206.991, 299.304
1208.213, 46.913
1209.434, 336.723
1210.655, 50.850
1211.876, 314.469
1213.096, 258.081
1214.317, 40.263
1215.537, 283.352
1216.757, 223.137
1217.977, 72.380
1219.197, 371.189
1220.417, 18.485
1221.636, 212.122
1222.855, 315.663
1224.074, 11.122
1225.293, 174.665
1226.512, 178.632
1227.731, 90.780
1228.949, 324.306
1230.167, 102.021
1231.385, 175.907
1232.603, 399.400
1233.820, 24.115
1235.038, 279.350
1236.255, 192.812
1237.472, 228.450
1238.689, 411.909
1239.906, 85.345
1241.122, 218.886
1242.338, 302.309
1243.555, 74.119
1244.771, 299.275
1245.986, 232.665
1247.202, 13.930
1248.417, 429.448
1249.633, 192.796
1250.848, 176.402
1252.063, 439.740
1253.277, 83.075
1254.492, 286.451
1255.706, 309.773
1256.920, 43.343
1258.134, 266.655
1259.348, 169.958
1260.562, 144.021
1261.775, 447.312
1262.988, 69.443
1264.201, 354.987
1265.414, 408.183
1266.627, 51.581
1267.839, 374.744
1269.052, 247.898
1270.264, 221.557
1271.476, 474.674
1272.688, 167.701
1273.899, 270.774
1275.111, 293.776
1276.322, 86.771
1277.533, 339.876
1278.744, 182.801
1279.955, 95.950
1281.165, 418.845
1282.376, 141.718
1283.586, 124.572
1284.796, 357.373
1286.006, 70.150
1287.215, 223.105
1288.425, 195.750
1289.634, 91.619
1290.843, 300.891
1292.052, 73.380
1293.261, 65.841
1294.469, 338.285
1295.678, 10.710
1296.886, 753.052
1298.094, 295.329
1299.302, 12.417
1300.509, 259.775
1301.717, 121.935
1302.924, 94.071
1304.131, 306.115
1305.338, 21.900
1306.545, 160.021
1307.752, 381.918
1308.958, 186.227
1310.164, 485.547
1311.370, 167.294
1312.576, 89.018
1313.782, 500.713
1314.987, 52.381
1316.193, 244.020
1317.398, 495.631
1318.603, 22.788
1319.807, 198.739
1321.012, 310.236
1322.216, 18.310
1323.421, 393.097
1324.625, 84.464
1325.829, 35.798
1327.032, 447.096
1328.236, 18.360
1329.439, 199.581
1330.642, 350.770
1331.845, 78.075
1333.048, 363.012
1334.251, 164.065
1335.453, 25.089
1336.656, 395.846
1337.858, 23.199
1339.060, 67.707
1340.261, 287.956
1341.463, 131.195
1342.664, 219.580
1343.866, 180.379
1345.067, 128.894
1346.267, 490.903
1347.468, 121.537
1348.669, 112.145
1349.869, 502.694
1351.069, 23.256
1352.269, 173.792
1353.469, 322.729
1354.668, 93.227
1355.868, 323.706
1357.067, 214.171
1358.266, 85.376
1359.465, 383.532
1360.664, 56.068
1361.862, 54.298
1363.061, 421.146
1364.259, 18.494
1365.457, 181.691
1366.655, 402.062
1367.852, 12.426
1369.050, 422.582
1370.247, 105.304
1371.444, 94.267
1372.641, 356.168
1373.838, 23.341
1375.035, 116.725
1376.231, 276.567
1377.427, 3.757
1378.623, 367.317
1379.819, 419.808
1381.015, 12.205
1382.211, 504.644
1383.406, 271.917
1384.601, 182.921
1385.796, 635.236
1386.991, 177.525
1388.185, 339.628
1389.380, 511.496
1390.574, 213.708
1391.768, 465.887
1392.962, 432.067
1394.156, 153.713
1395.350, 425.743
1396.543, 317.741
1397.736, 209.715
1398.929, 631.340
1400.122, 163.259
1401.315, 554.842
1402.507, 396.421
1403.700, 87.771
1404.892, 479.577
1406.084, 341.889
1407.276, 52.464
1408.467, 542.346
1409.659, 173.939
1410.850, 301.797
1412.041, 522.491
1413.232, 109.210
1414.423, 520.484
1415.614, 442.830
1416.804, 193.287
1417.994, 573.440
1419.184, 254.557
1420.374, 170.137
1421.564, 555.896
1422.753, 146.115
1423.943, 255.463
1425.132, 643.935
1426.321, 183.345
1427.510, 373.777
1428.698, 432.194
1429.887, 135.213
1431.075, 558.252
1432.263, 428.355
1433.451, 190.838
1434.639, 579.602
1435.827, 246.897
1437.014, 546.578
1438.201, 615.610
1439.388, 261.218
1440.575, 689.768
1441.762, 827.630
1442.949, 259.997
1444.135, 905.676
1445.321, 634.062
1446.507, 376.434
1447.693, 736.169
1448.879, 488.721
1450.064, 507.111
1451.250, 840.831
1452.435, 378.702
1453.620, 586.344
1454.805, 824.143
1455.989, 381.732
1457.174, 788.699
1458.358, 596.078
1459.542, 493.157
1460.726, 989.541
1461.910, 524.438
1463.093, 551.066
1464.277, 1004.480
1465.460, 310.245
1466.643, 594.989
1467.826, 641.168
1469.009, 267.191
1470.191, 672.788
1471.373, 588.058
1472.556, 313.831
1473.738, 809.547
1474.919, 454.581
1476.101, 390.638
1477.283, 556.979
1478.464, 393.204
1479.645, 439.444
1480.826, 726.065
1482.007, 112.822
1483.187, 579.778
1484.368, 467.316
1485.548, 24.979
1486.728, 672.701
1487.908, 200.411
1489.088, 268.145
1490.268, 625.930
1491.447, 123.881
1492.626, 312.104
1493.805, 540.581
1494.984, 29.289
1496.163, 498.312
1497.341, 487.689
1498.520, 97.443
1499.698, 477.595
1500.876, 348.175
1502.054, 79.200
1503.232, 640.255
1504.409, 132.229
1505.586, 244.851
1506.763, 688.217
1507.940, 62.166
1509.117, 317.338
