##NAMES=Orthoclase
##RRUFFID=R040055
##IDEAL CHEMISTRY=KAlSi_3_O_8_
##LOCALITY=Madagascar
##OWNER=RRUFF
##SOURCE=Bob Downs
##DESCRIPTION=Pale yellow fragments
##STATUS=The identification of this mineral has been confirmed by X-ray diffraction and chemical analysis
##URL=rruff.info/R040055
##MEASURED CHEMISTRY=K_0.96_(Al_0.96_Si_0.03_Fe_0.02_)Si_3.00_O_8_; = light material. (K_0.90_Na_0.02_)(Al_0.91_Si_0.08_Fe_0.02_)Si_3.00_O_8_ = dark
##PIN_ID=M00411
##ORIENTATION=Laser parallel to -c* (0 0 -1). Fiducial mark perpendicular to laser is parallel to a [1 0 0]
98.251, 0.000
99.644, 13.685
101.036, 141.482
102.428, 13.594
103.820, 359.382
105.212, 531.930
106.604, 887.813
107.995, 1504.970
109.387, 3533.754
110.777, 2880.609
112.168, 4541.495
113.559, 3006.799
114.949, 3348.732
116.339, 4626.750
117.729, 4639.717
119.119, 4076.648
120.508, 3966.801
121.897, 3649.602
123.286, 3194.605
124.675, 2501.463
126.063, 2079.905
127.452, 1820.164
128.840, 1693.478
130.228, 1690.826
131.615, 1911.768
133.003, 2235.057
134.390, 2498.705
135.777, 2832.224
137.164, 3335.611
138.550, 3378.867
139.937, 3592.002
141.323, 3455.023
142.709, 3597.934
144.094, 3440.739
145.480, 3893.455
146.865, 4316.090
148.250, 4928.659
149.635, 5701.172
151.019, 6563.637
152.403, 7726.072
153.788, 8308.609
155.171, 9041.679
156.555, 9160.320
157.939, 9016.804
159.322, 8610.937
160.705, 7504.803
162.088, 6850.309
163.470, 5767.989
164.853, 5067.503
166.235, 4756.112
167.617, 4390.361
168.998, 4711.334
170.380, 4432.506
171.761, 4943.707
173.142, 4914.831
174.523, 5155.832
175.904, 5006.714
177.284, 4387.480
178.664, 4038.138
180.044, 3298.868
181.424, 2819.731
182.803, 2380.440
184.183, 2151.052
185.562, 1902.611
186.940, 1891.150
188.319, 2202.692
189.698, 2343.253
191.076, 3023.842
192.454, 3534.466
193.831, 4095.126
195.209, 4435.824
196.586, 4156.563
197.963, 3807.340
199.340, 2928.152
200.717, 2288.997
202.093, 1599.869
203.470, 1026.766
204.846, 783.685
206.221, 371.234
207.597, 335.602
208.972, 115.197
210.347, 150.747
211.722, 50.800
213.097, 147.316
214.472, 55.659
215.846, 105.812
217.220, 24.941
218.594, 166.628
219.967, 105.388
221.341, 101.983
222.714, 159.302
224.087, 139.242
225.460, 206.321
226.832, 83.656
228.204, 208.507
229.577, 116.780
230.948, 126.396
232.320, 198.730
233.692, 35.071
235.063, 199.359
236.434, 39.467
237.805, 12.336
239.175, 76.146
240.545, 228.806
241.916, 220.732
243.286, 441.985
244.655, 462.992
246.025, 620.307
247.394, 757.734
248.763, 857.016
250.132, 1205.183
251.501, 1116.338
252.869, 1516.478
254.237, 1661.604
255.605, 2027.712
256.973, 2365.806
258.340, 2563.102
259.708, 3146.474
261.075, 3240.301
262.442, 3858.572
263.808, 4044.490
265.175, 4420.636
266.541, 4727.572
267.907, 4995.123
269.273, 5593.240
270.639, 5591.822
272.004, 6430.882
273.369, 6980.333
274.734, 7470.110
276.099, 8280.162
277.463, 8660.445
278.828, 9440.921
280.192, 9441.567
281.556, 9772.344
282.919, 9123.233
284.283, 8604.215
285.646, 8045.271
287.009, 6816.389
288.372, 6267.560
289.734, 5098.771
291.097, 4450.018
292.459, 3581.289
293.821, 2872.572
295.183, 2473.848
296.544, 1893.097
297.905, 1656.308
299.266, 1369.480
300.627, 1012.613
301.988, 926.708
303.348, 639.764
304.709, 547.781
306.069, 424.759
307.428, 357.700
308.788, 353.602
310.147, 119.466
311.507, 224.293
312.865, 46.082
314.224, 96.830
315.583, 22.539
316.941, 73.202
318.299, 24.825
319.657, 52.603
321.015, 110.827
322.372, 104.851
323.729, 15.759
325.086, 24.874
326.443, 82.246
327.800, 21.142
329.156, 105.649
330.512, 71.353
331.868, 86.789
333.224, 59.008
334.579, 113.701
335.935, 84.625
337.290, 49.969
338.645, 69.481
339.999, 27.996
341.354, 10.575
342.708, 60.203
344.062, 84.112
345.416, 23.613
346.769, 37.599
348.123, 39.226
349.476, 8.882
350.829, 2.051
352.182, 56.958
353.534, 172.925
354.887, 67.891
356.239, 252.812
357.591, 206.716
358.942, 203.585
360.294, 446.422
361.645, 138.250
362.996, 380.041
364.347, 276.842
365.698, 272.607
367.048, 294.362
368.398, 137.129
369.748, 218.852
371.098, 46.578
372.448, 190.241
373.797, 103.826
375.146, 21.294
376.495, 141.409
377.844, 10.335
379.192, 115.083
380.540, 8.414
381.889, 58.470
383.236, 149.186
384.584, 55.779
385.932, 174.367
387.279, 77.732
388.626, 170.304
389.973, 187.154
391.319, 140.457
392.666, 449.579
394.012, 325.167
395.358, 529.824
396.704, 619.626
398.049, 779.131
399.394, 956.322
400.740, 973.451
402.084, 1417.512
403.429, 1244.512
404.774, 1263.467
406.118, 1362.379
407.462, 982.257
408.806, 1013.104
410.150, 582.928
411.493, 535.726
412.836, 339.502
414.179, 258.254
415.522, 190.982
416.865, 38.314
418.207, 118.339
419.549, 25.034
420.891, 37.547
422.233, 65.065
423.575, 105.477
424.916, 41.864
426.257, 54.178
427.598, 138.467
428.939, 194.732
430.279, 236.969
431.619, 514.177
432.959, 415.355
434.299, 719.500
435.639, 927.609
436.978, 995.681
438.318, 1475.715
439.657, 1618.708
440.996, 2242.662
442.334, 2477.573
443.673, 3142.441
445.011, 3717.267
446.349, 4302.051
447.687, 5366.789
449.024, 5681.481
450.361, 6566.130
451.699, 6680.736
453.036, 6685.292
454.372, 6800.415
455.709, 6234.882
457.045, 6309.313
458.381, 5703.688
459.717, 5418.017
461.053, 5402.301
462.388, 4876.539
463.724, 5340.768
465.059, 5254.916
466.394, 5779.016
467.728, 6383.074
469.063, 7087.083
470.397, 8231.050
471.731, 8694.969
473.065, 9408.844
474.398, 9742.271
475.732, 9196.058
477.065, 9138.300
478.398, 7651.936
479.731, 7163.848
481.063, 6341.419
482.396, 5664.980
483.728, 5338.572
485.060, 4987.453
486.391, 4805.623
487.723, 4410.100
489.054, 4510.818
490.385, 4413.555
491.716, 4126.008
493.047, 4569.720
494.377, 4495.078
495.708, 5038.135
497.038, 5611.688
498.368, 6482.963
499.697, 7817.275
501.027, 9207.752
502.356, 11865.577
503.685, 14473.678
505.014, 18365.545
506.342, 23502.350
507.671, 28624.537
508.999, 35610.113
510.327, 39441.477
511.655, 43559.395
512.982, 43610.535
514.310, 39300.863
515.637, 35001.953
516.964, 28058.412
518.291, 22651.584
519.617, 18454.912
520.944, 14674.154
522.270, 11876.509
523.596, 9380.103
524.921, 8043.193
526.247, 6661.595
527.572, 5455.917
528.897, 4948.031
530.222, 4053.312
531.547, 3783.831
532.871, 3356.930
534.196, 2713.493
535.520, 2871.406
536.844, 2276.992
538.167, 2303.529
539.491, 2002.328
540.814, 1902.532
542.137, 1812.642
543.460, 1437.538
544.783, 1497.745
546.105, 1241.898
547.427, 1300.565
548.749, 1215.402
550.071, 942.940
551.393, 1052.827
552.714, 844.942
554.035, 855.057
555.356, 888.183
556.677, 692.604
557.998, 913.750
559.318, 623.864
560.638, 697.965
561.958, 784.035
563.278, 534.082
564.597, 737.100
565.917, 661.086
567.236, 757.059
568.555, 811.002
569.874, 645.914
571.192, 964.796
572.511, 681.648
573.829, 970.501
575.147, 1064.105
576.464, 951.395
577.782, 1361.456
579.099, 1022.480
580.416, 1158.158
581.733, 1023.342
583.050, 975.205
584.366, 988.824
585.683, 747.654
586.999, 867.638
588.315, 716.927
589.630, 587.356
590.946, 786.894
592.261, 477.401
593.576, 762.882
594.891, 509.334
596.206, 487.759
597.520, 527.187
598.834, 416.586
600.148, 593.958
601.462, 389.302
602.776, 423.618
604.089, 462.956
605.402, 408.266
606.715, 562.549
608.028, 392.806
609.341, 352.034
610.653, 379.266
611.965, 103.470
613.277, 478.642
614.589, 246.807
615.901, 341.944
617.212, 334.062
618.523, 338.154
619.834, 506.221
621.145, 238.267
622.456, 385.286
623.766, 529.279
625.076, 439.249
626.386, 570.193
627.696, 428.111
629.006, 482.006
630.315, 417.875
631.624, 253.720
632.933, 514.542
634.242, 216.342
635.551, 256.125
636.859, 357.884
638.167, 112.630
639.475, 465.377
640.783, 204.101
642.090, 325.844
643.398, 396.586
644.705, 231.328
646.012, 479.088
647.318, 309.837
648.625, 390.610
649.931, 295.365
651.237, 238.141
652.543, 454.927
653.849, 247.693
655.155, 373.479
656.460, 260.252
657.765, 160.041
659.070, 339.818
660.375, 25.400
661.679, 337.362
662.984, 218.109
664.288, 2.139
665.592, 323.584
666.895, 14.682
668.199, 191.023
669.502, 92.729
670.805, 91.581
672.108, 148.020
673.411, 29.395
674.713, 95.134
676.016, 63.638
677.318, 74.886
678.620, 130.510
679.921, 145.106
681.223, 78.152
682.524, 62.387
683.825, 157.229
685.126, 96.804
686.427, 175.137
687.727, 13.743
689.028, 34.793
690.328, 62.374
691.628, 152.394
692.927, 190.318
694.227, 76.309
695.526, 90.879
696.825, 13.334
698.124, 78.185
699.423, 15.269
700.721, 82.188
702.020, 144.630
703.318, 168.050
704.616, 271.455
705.913, 15.843
707.211, 180.194
708.508, 249.526
709.805, 259.656
711.102, 508.948
712.399, 164.930
713.695, 644.178
714.992, 523.404
716.288, 416.050
717.584, 715.235
718.879, 475.947
720.175, 765.091
721.470, 584.216
722.765, 696.787
724.060, 995.870
725.355, 734.934
726.649, 1003.977
727.944, 1032.998
729.238, 938.464
730.532, 1347.445
731.825, 986.410
733.119, 1516.648
734.412, 1545.602
735.705, 1413.539
736.998, 2012.481
738.291, 1971.412
739.584, 2630.365
740.876, 2299.308
742.168, 2008.238
743.460, 2517.152
744.752, 2286.049
746.043, 2388.345
747.334, 2527.204
748.626, 2236.045
749.916, 2474.866
751.207, 2353.671
752.498, 2349.352
753.788, 2388.118
755.078, 2186.867
756.368, 2575.598
757.658, 2214.311
758.947, 2313.676
760.237, 2482.352
761.526, 2201.011
762.815, 2539.651
764.104, 2098.275
765.392, 2373.232
766.680, 2361.819
767.969, 2109.779
769.257, 2622.236
770.544, 2200.765
771.832, 2130.497
773.119, 2318.998
774.406, 1867.481
775.693, 2216.703
776.980, 1855.117
778.267, 1963.551
779.553, 2151.970
780.839, 1800.369
782.125, 2248.754
783.411, 2027.123
784.697, 1975.477
785.982, 2293.813
787.267, 2072.136
788.552, 2270.441
789.837, 2358.619
791.122, 2356.895
792.406, 2715.155
793.690, 2482.858
794.974, 2761.089
796.258, 2879.149
797.542, 2687.351
798.825, 2905.537
800.108, 2793.672
801.391, 2941.829
802.674, 3219.971
803.957, 3058.099
805.239, 3346.212
806.522, 3174.308
807.804, 3352.392
809.085, 3540.461
810.367, 3178.516
811.649, 3266.557
812.930, 2764.259
814.211, 2412.270
815.492, 2346.783
816.772, 1614.766
818.053, 1662.658
819.333, 1128.562
820.613, 956.502
821.893, 881.571
823.173, 389.301
824.452, 676.605
825.732, 546.776
827.011, 314.290
828.290, 668.321
829.568, 285.590
830.847, 442.630
832.125, 313.745
833.403, 141.133
834.681, 497.807
835.959, 5.062
837.236, 296.702
838.514, 292.503
839.791, 99.681
841.068, 284.343
842.345, 50.540
843.621, 127.145
844.898, 268.869
846.174, 123.744
847.450, 329.623
848.726, 26.541
850.001, 86.150
851.277, 400.632
852.552, 112.430
853.827, 281.661
855.102, 128.526
856.376, 75.674
857.651, 412.921
858.925, 130.440
860.199, 316.314
861.473, 203.615
862.746, 8.874
864.020, 328.624
865.293, 113.881
866.566, 153.266
867.839, 180.697
869.112, 61.874
870.384, 265.521
871.656, 27.085
872.928, 230.291
874.200, 187.666
875.472, 64.959
876.744, 152.381
878.015, 29.722
879.286, 77.062
880.557, 204.401
881.828, 118.258
883.098, 159.024
884.369, 36.306
885.639, 26.410
886.909, 260.859
888.178, 161.870
889.448, 215.323
890.717, 82.518
891.987, 39.712
893.256, 216.909
894.524, 14.126
895.793, 211.344
897.061, 158.563
898.330, 74.158
899.598, 283.093
900.865, 30.343
902.133, 7.607
903.401, 374.873
904.668, 137.818
905.935, 199.430
907.202, 96.683
908.468, 33.968
909.735, 251.256
911.001, 201.450
912.267, 265.756
913.533, 102.967
914.799, 130.200
916.064, 257.440
917.330, 135.316
918.595, 151.915
919.860, 189.149
921.124, 93.606
922.389, 253.608
923.653, 39.170
924.918, 28.046
926.182, 335.268
927.445, 27.504
928.709, 359.730
929.972, 236.970
931.236, 274.216
932.499, 481.470
933.761, 88.729
935.024, 385.999
936.286, 413.277
937.549, 300.562
938.811, 527.858
940.073, 355.162
941.334, 462.474
942.596, 539.794
943.857, 447.123
945.118, 854.462
946.379, 571.811
947.640, 689.168
948.900, 1046.544
950.161, 643.930
951.421, 1221.324
952.681, 1148.732
953.940, 986.149
955.200, 1403.575
956.459, 1031.012
957.719, 1338.459
958.978, 1285.920
960.236, 1083.392
961.495, 1600.873
962.753, 1128.367
964.012, 1365.870
965.270, 1393.386
966.527, 1180.913
967.785, 1588.465
969.043, 1256.064
970.300, 1383.678
971.557, 1671.310
972.814, 1298.956
974.071, 1716.626
975.327, 1664.311
976.583, 1372.011
977.840, 1929.755
979.095, 1527.514
980.351, 1805.303
981.607, 1973.104
982.862, 1600.924
984.117, 2418.785
985.372, 1856.652
986.627, 2074.589
987.882, 2310.312
989.136, 1938.309
990.390, 2296.368
991.644, 2194.396
992.898, 1902.559
994.152, 2390.550
995.405, 1948.750
996.659, 2236.992
997.912, 2246.727
999.165, 2065.061
1000.417, 2633.229
1001.670, 2281.627
1002.922, 2250.058
1004.174, 2411.465
1005.426, 2009.941
1006.678, 2128.468
1007.930, 2067.010
1009.181, 1765.567
1010.432, 1944.141
1011.683, 1612.735
1012.934, 1711.358
1014.185, 1959.175
1015.435, 1587.825
1016.685, 1819.844
1017.935, 1678.587
1019.185, 1767.347
1020.435, 1972.686
1021.684, 1471.478
1022.934, 1828.754
1024.183, 1747.591
1025.432, 1456.441
1026.680, 1671.876
1027.929, 1530.792
1029.177, 1539.723
1030.425, 1548.675
1031.673, 1227.639
1032.921, 1600.159
1034.169, 1249.162
1035.416, 1178.178
1036.663, 1405.980
1037.911, 1175.068
1039.157, 1465.187
1040.404, 1444.328
1041.650, 1043.484
1042.897, 1552.661
1044.143, 1125.846
1045.389, 1135.061
1046.634, 1384.321
1047.880, 1066.745
1049.125, 1352.616
1050.371, 1271.942
1051.615, 973.385
1052.860, 1292.738
1054.105, 960.709
1055.349, 1133.207
1056.593, 1272.616
1057.837, 798.833
1059.081, 1068.270
1060.325, 728.078
1061.568, 797.114
1062.812, 1146.635
1064.055, 760.650
1065.298, 1060.233
1066.540, 909.830
1067.783, 831.797
1069.025, 1251.448
1070.267, 801.131
1071.509, 967.479
1072.751, 1217.185
1073.993, 986.207
1075.234, 1405.965
1076.475, 1165.732
1077.716, 1246.150
1078.957, 1515.945
1080.198, 1195.753
1081.438, 1495.578
1082.679, 1455.414
1083.919, 1375.931
1085.159, 1765.854
1086.398, 1495.788
1087.638, 1656.429
1088.877, 1926.400
1090.116, 1596.380
1091.355, 1916.375
1092.594, 1976.380
1093.833, 1736.717
1095.071, 2266.741
1096.309, 1796.773
1097.547, 2108.565
1098.785, 2148.619
1100.023, 1648.904
1101.260, 2149.797
1102.498, 1989.881
1103.735, 1959.972
1104.972, 2260.472
1106.208, 1890.581
1107.445, 2111.795
1108.681, 2131.922
1109.918, 1732.057
1111.154, 2122.793
1112.389, 1942.946
1113.625, 1623.268
1114.860, 2113.440
1116.096, 1683.621
1117.331, 2072.271
1118.566, 2212.468
1119.800, 1832.670
1121.035, 2553.583
1122.269, 2283.799
1123.503, 2304.627
1124.737, 2574.892
1125.971, 1935.125
1127.205, 2525.848
1128.438, 2286.091
1129.671, 2106.338
1130.904, 2437.204
1132.137, 2087.458
1133.370, 2087.986
1134.602, 2518.618
1135.834, 1888.883
1137.066, 2460.324
1138.298, 2060.605
1139.530, 2000.885
1140.762, 2315.432
1141.993, 1765.713
1143.224, 2006.149
1144.455, 1987.537
1145.686, 1647.818
1146.917, 1948.635
1148.147, 1449.047
1149.377, 1359.361
1150.607, 1720.948
1151.837, 1221.256
1153.067, 1371.804
1154.296, 1359.766
1155.526, 940.090
1156.755, 1350.638
1157.984, 1101.325
1159.213, 791.631
1160.441, 1415.104
1161.670, 615.453
1162.898, 1055.742
1164.126, 1091.193
1165.354, 701.495
1166.581, 922.472
1167.809, 723.543
1169.036, 583.835
1170.263, 1088.023
1171.490, 368.303
1172.717, 718.570
1173.943, 807.312
1175.170, 297.573
1176.396, 858.092
1177.622, 499.561
1178.848, 339.784
1180.073, 721.148
1181.299, 132.574
1182.524, 442.788
1183.749, 412.531
1184.974, 292.984
1186.199, 603.279
1187.423, 318.930
1188.648, 289.116
1189.872, 480.637
1191.096, 86.773
1192.320, 313.327
1193.543, 279.968
1194.767, 229.387
1195.990, 310.547
1197.213, 195.966
1198.436, 44.122
1199.659, 486.231
1200.881, 151.025
1202.104, 468.734
1203.326, 269.359
1204.548, 120.135
1205.770, 429.534
1206.991, 69.322
1208.213, 99.620
1209.434, 439.719
1210.655, 72.572
1211.876, 287.500
1213.096, 377.787
1214.317, 135.239
1215.537, 514.217
1216.757, 267.770
1217.977, 47.571
1219.197, 646.976
1220.417, 72.912
1221.636, 372.271
1222.855, 441.609
1224.074, 8.167
1225.293, 401.112
1226.512, 241.216
1227.731, 232.136
1228.949, 531.349
1230.167, 74.599
1231.385, 525.499
1232.603, 514.636
1233.820, 67.707
1235.038, 526.817
1236.255, 295.913
1237.472, 276.036
1238.689, 525.100
1239.906, 164.313
1241.122, 313.535
1242.338, 462.551
1243.555, 2.373
1244.771, 421.344
1245.986, 200.301
1247.202, 60.011
1248.417, 608.892
1249.633, 337.752
1250.848, 166.986
1252.063, 555.812
1253.277, 25.226
1254.492, 374.008
1255.706, 432.771
1256.920, 132.157
1258.134, 490.876
1259.348, 239.554
1260.562, 289.888
1261.775, 658.521
1262.988, 92.868
1264.201, 606.579
1265.414, 445.105
1266.627, 124.110
1267.839, 442.548
1269.052, 150.942
1270.264, 290.112
1271.476, 608.374
1272.688, 186.604
1273.899, 345.482
1275.111, 433.641
1276.322, 161.721
1277.533, 460.101
1278.744, 248.113
1279.955, 226.496
1281.165, 624.385
1282.376, 62.208
1283.586, 370.931
1284.796, 428.667
1286.006, 13.671
1287.215, 464.463
1288.425, 292.008
1289.634, 79.499
1290.843, 617.453
1292.052, 214.800
1293.261, 312.355
1294.469, 529.567
1295.678, 66.685
1296.886, 554.246
1298.094, 291.258
1299.302, 61.815
1300.509, 455.037
1301.717, 291.849
1302.924, 258.611
1304.131, 595.203
1305.338, 11.722
1306.545, 338.188
1307.752, 414.604
1308.958, 179.021
1310.164, 667.238
1311.370, 193.456
1312.576, 169.621
1313.782, 585.736
1314.987, 1.800
1316.193, 377.800
1317.398, 633.747
1318.603, 70.371
1319.807, 435.424
1321.012, 301.159
1322.216, 96.837
1323.421, 652.448
1324.625, 108.009
1325.829, 103.504
1327.032, 628.938
1328.236, 85.686
1329.439, 309.598
1330.642, 344.814
1331.845, 20.030
1333.048, 445.049
1334.251, 90.068
1335.453, 35.026
1336.656, 505.933
1337.858, 39.227
1339.060, 235.535
1340.261, 457.114
1341.463, 28.218
1342.664, 586.382
1343.866, 248.945
1345.067, 13.454
1346.267, 609.316
1347.468, 153.728
1348.669, 178.093
1349.869, 615.621
1351.069, 110.097
1352.269, 193.788
1353.469, 249.035
1354.668, 76.837
1355.868, 232.779
1357.067, 177.353
1358.266, 68.643
1359.465, 546.631
1360.664, 19.388
1361.862, 254.503
1363.061, 558.098
1364.259, 58.034
1365.457, 355.235
1366.655, 550.103
1367.852, 133.809
1369.050, 606.110
1370.247, 151.363
1371.444, 34.853
1372.641, 448.283
1373.838, 176.179
1375.035, 32.752
1376.231, 359.817
1377.427, 13.884
1378.623, 413.054
1379.819, 389.610
1381.015, 116.450
1382.211, 731.401
1383.406, 327.023
1384.601, 323.691
1385.796, 839.876
1386.991, 175.248
1388.185, 491.098
1389.380, 507.362
1390.574, 193.744
1391.768, 560.482
1392.962, 405.858
1394.156, 281.274
1395.350, 737.287
1396.543, 232.717
1397.736, 567.927
1398.929, 733.483
1400.122, 228.860
1401.315, 683.199
1402.507, 503.617
1403.700, 59.023
1404.892, 753.166
1406.084, 477.885
1407.276, 171.658
1408.467, 806.740
1409.659, 251.977
1410.850, 456.334
1412.041, 777.160
1413.232, 192.107
1414.423, 636.135
1415.614, 568.785
1416.804, 197.896
1417.994, 882.432
1419.184, 364.633
1420.374, 276.738
1421.564, 849.266
1422.753, 261.643
1423.943, 380.836
1425.132, 1026.141
1426.321, 117.764
1427.510, 647.607
1428.698, 569.791
1429.887, 194.498
1431.075, 787.191
1432.263, 495.883
1433.451, 206.637
1434.639, 712.717
1435.827, 253.994
1437.014, 522.000
1438.201, 710.252
1439.388, 165.570
1440.575, 947.516
1441.762, 917.793
1442.949, 338.414
1444.135, 1019.072
1445.321, 857.943
1446.507, 378.287
1447.693, 961.658
1448.879, 602.760
1450.064, 781.469
1451.250, 991.381
1452.435, 440.027
1453.620, 1100.240
1454.805, 1048.551
1455.989, 517.537
1457.174, 1115.730
1458.358, 855.088
1459.542, 722.611
1460.726, 1087.305
1461.910, 445.869
1463.093, 711.803
1464.277, 1098.508
1465.460, 354.229
1466.643, 812.270
1467.826, 918.143
1469.009, 364.979
1470.191, 901.312
1471.373, 649.021
1472.556, 443.633
1473.738, 1129.488
1474.919, 547.004
1476.101, 512.824
1477.283, 869.645
1478.464, 385.928
1479.645, 634.088
1480.826, 822.246
1482.007, 190.805
1483.187, 850.004
1484.368, 699.158
1485.548, 168.275
1486.728, 1057.387
1487.908, 406.510
1489.088, 325.771
1490.268, 895.219
1491.447, 244.941
1492.626, 554.912
1493.805, 725.213
1494.984, 24.113
1496.163, 817.061
1497.341, 588.764
1498.520, 81.035
1499.698, 953.658
1500.876, 526.893
1502.054, 209.639
1503.232, 854.055
1504.409, 169.291
1505.586, 435.477
