##NAMES=Orthoclase
##RRUFFID=R040055
##IDEAL CHEMISTRY=KAlSi_3_O_8_
##LOCALITY=Madagascar
##OWNER=RRUFF
##SOURCE=Bob Downs
##DESCRIPTION=Pale yellow fragments
##STATUS=The identification of this mineral has been confirmed by X-ray diffraction and chemical analysis
##URL=rruff.info/R040055
##MEASURED CHEMISTRY=K_0.96_(Al_0.96_Si_0.03_Fe_0.02_)Si_3.00_O_8_; = light material. (K_0.90_Na_0.02_)(Al_0.91_Si_0.08_Fe_0.02_)Si_3.00_O_8_ = dark
##PIN_ID=L00124
##ORIENTATION=Laser parallel to b* (0 1 0). Fiducial mark perpendicular to laser is parallel to c [0 0 1]
53.228, 0.000
54.634, 15.076
56.040, 32.473
57.445, 114.813
58.850, 127.448
60.254, 161.696
61.659, 170.369
63.063, 209.217
64.467, 383.537
65.871, 338.090
67.274, 227.922
68.678, 139.613
70.081, 117.061
71.484, 23.160
72.886, 11.187
74.288, 87.077
75.690, 73.599
77.092, 19.843
78.494, 108.101
79.895, 114.149
81.296, 220.236
82.697, 219.308
84.097, 267.314
85.498, 341.206
86.898, 371.939
88.298, 516.473
89.697, 685.768
91.097, 908.789
92.496, 1333.504
93.895, 1697.884
95.293, 2175.899
96.692, 2666.513
98.090, 3021.686
99.488, 3289.377
100.885, 3503.547
102.283, 3568.152
103.680, 3486.170
105.077, 3585.594
106.473, 3513.431
107.870, 3617.699
109.266, 3620.399
110.662, 3672.514
112.057, 3933.027
113.453, 4302.920
114.848, 5033.179
116.243, 5651.792
117.638, 6631.744
119.032, 6669.026
120.426, 6529.628
121.820, 6475.541
123.214, 6109.754
124.608, 6039.260
126.001, 5546.053
127.394, 5344.124
128.787, 5554.468
130.179, 5693.076
131.571, 6405.947
132.963, 7093.070
134.355, 8436.445
135.747, 9810.062
137.138, 11543.891
138.529, 13107.844
139.920, 14141.904
141.311, 15166.072
142.701, 15140.312
144.091, 15594.609
145.481, 15988.961
146.870, 16863.322
148.260, 18247.590
149.649, 20331.889
151.038, 23466.297
152.426, 26300.812
153.815, 30345.447
155.203, 32890.312
156.591, 34385.516
157.979, 35401.152
159.366, 33627.223
160.753, 31603.713
162.140, 27790.578
163.527, 24467.682
164.913, 20414.922
166.300, 17052.256
167.686, 14569.688
169.071, 11987.225
170.457, 10334.860
171.842, 8802.600
173.227, 7960.445
174.612, 6848.394
175.996, 6184.446
177.381, 5494.605
178.765, 4910.868
180.149, 4550.239
181.532, 4052.715
182.915, 3805.296
184.299, 3415.983
185.681, 3115.777
187.064, 2985.677
188.446, 2622.682
189.828, 2509.793
191.210, 2347.009
192.592, 2238.331
193.973, 2030.758
195.355, 1869.288
196.736, 1762.550
198.116, 1637.659
199.497, 1554.499
200.877, 1444.440
202.257, 1365.484
203.637, 1309.628
205.016, 1247.873
206.395, 1193.218
207.774, 1117.663
209.153, 1089.207
210.532, 1025.851
211.910, 1059.594
213.288, 1053.438
214.666, 1011.382
216.043, 1129.427
217.421, 956.573
218.798, 999.819
220.175, 1063.791
221.551, 1063.564
222.928, 1063.100
224.304, 995.500
225.680, 1020.599
227.055, 998.417
228.431, 1044.149
229.806, 1121.875
231.181, 1108.620
232.556, 1167.496
233.930, 1099.914
235.304, 1170.627
236.678, 1109.532
238.052, 1197.171
239.426, 1292.919
240.799, 1264.883
242.172, 1463.626
243.545, 1411.637
244.917, 1671.290
246.290, 1680.108
247.662, 1902.089
249.034, 2203.225
250.405, 2344.513
251.777, 2617.948
253.148, 2771.697
254.519, 3080.869
255.889, 3393.246
257.260, 3741.839
258.630, 4220.504
260.000, 4499.787
261.370, 5146.797
262.739, 5569.534
264.108, 6108.333
265.477, 6730.280
266.846, 7212.625
268.215, 7875.722
269.583, 8351.369
270.951, 9258.990
272.319, 9972.202
273.686, 11114.685
275.054, 12256.132
276.421, 13147.681
277.788, 15009.319
279.154, 15871.054
280.521, 17622.879
281.887, 18164.795
283.253, 18406.801
284.619, 18228.889
285.984, 17141.068
287.349, 16063.329
288.714, 14535.671
290.079, 12818.094
291.444, 11410.604
292.808, 9973.188
294.172, 8585.853
295.536, 7408.594
296.899, 6471.412
298.263, 5541.304
299.626, 4848.271
300.989, 4300.309
302.351, 3699.421
303.714, 3381.604
305.076, 2983.857
306.438, 2721.183
307.799, 2411.578
309.161, 2094.044
310.522, 1994.581
311.883, 1767.188
313.244, 1741.866
314.604, 1506.615
315.965, 1511.435
317.325, 1379.324
318.684, 1225.283
320.044, 1369.311
321.403, 1206.407
322.762, 1317.567
324.121, 1252.792
325.480, 1245.078
326.838, 1270.424
328.196, 1110.829
329.554, 1212.293
330.912, 1164.814
332.270, 1101.394
333.627, 1129.034
334.984, 1060.729
336.341, 1124.482
337.697, 1053.291
339.053, 1067.308
340.409, 1004.077
341.765, 1045.053
343.121, 1042.085
344.476, 975.172
345.831, 1076.312
347.186, 1073.506
348.541, 1036.753
349.895, 1027.058
351.250, 1044.900
352.604, 1120.835
353.957, 1092.304
355.311, 1136.831
356.664, 1163.413
358.017, 1201.047
359.370, 1277.750
360.722, 1260.513
362.075, 1365.336
363.427, 1206.242
364.779, 1291.218
366.130, 1178.260
367.482, 1048.381
368.833, 1016.575
370.184, 803.842
371.535, 816.176
372.885, 613.590
374.235, 566.087
375.585, 509.654
376.935, 324.294
378.285, 328.000
379.634, 202.782
380.983, 262.630
382.332, 173.539
383.680, 91.539
385.029, 182.627
386.377, 6.783
387.725, 67.013
389.073, 37.697
390.420, 49.650
391.767, 15.937
393.114, 15.533
394.461, 68.074
395.808, 23.322
397.154, 0.662
398.500, 97.060
399.846, 40.845
401.191, 89.700
402.537, 186.627
403.882, 213.643
405.227, 219.741
406.571, 294.902
407.916, 393.119
409.260, 277.390
410.604, 313.714
411.948, 154.092
413.291, 27.522
414.635, 1.003
415.978, 134.468
417.321, 89.941
418.663, 198.398
420.006, 154.885
421.348, 264.383
422.690, 311.941
424.031, 206.581
425.373, 264.257
426.714, 243.997
428.055, 248.792
429.396, 260.644
430.736, 105.560
432.077, 145.477
433.417, 43.409
434.757, 21.320
436.096, 58.797
437.436, 229.957
438.775, 335.157
440.114, 538.397
441.452, 653.679
442.791, 947.000
444.129, 1174.361
445.467, 1389.761
446.805, 1763.199
448.142, 2011.675
449.480, 2531.188
450.817, 2816.740
452.154, 3096.328
453.490, 3302.952
454.827, 3324.612
456.163, 3342.309
457.499, 3333.039
458.835, 3062.805
460.170, 3102.604
461.505, 3026.438
462.840, 3175.307
464.175, 3230.207
465.510, 3654.140
466.844, 3958.105
468.178, 4598.104
469.512, 5575.134
470.846, 6684.193
472.179, 8093.285
473.512, 9362.408
474.845, 10431.556
476.178, 10870.738
477.511, 10729.950
478.843, 10309.189
480.175, 9068.457
481.507, 8047.754
482.839, 7167.078
484.170, 6351.580
485.501, 5875.807
486.832, 5163.211
488.163, 4890.642
489.493, 4630.099
490.823, 4291.581
492.153, 4318.089
493.483, 4120.927
494.813, 4193.483
496.142, 4268.064
497.471, 4536.669
498.800, 4968.296
500.129, 5581.097
501.457, 6610.771
502.785, 7700.698
504.113, 9410.417
505.441, 11810.171
506.769, 14629.931
508.096, 18789.715
509.423, 23470.668
510.750, 29361.303
512.077, 35851.770
513.403, 39861.957
514.729, 42583.207
516.055, 40124.164
517.381, 35894.469
518.706, 30228.445
520.032, 23750.881
521.357, 18913.152
522.681, 14910.952
524.006, 11885.954
525.330, 9489.831
526.655, 7667.251
527.978, 6413.102
529.302, 5409.290
530.626, 4631.056
531.949, 3921.920
533.272, 3369.752
534.595, 3074.792
535.917, 2615.229
537.239, 2363.434
538.562, 2085.993
539.883, 1901.344
541.205, 1819.479
542.527, 1632.114
543.848, 1565.652
545.169, 1265.782
546.489, 1240.197
547.810, 1229.754
549.130, 985.666
550.450, 993.177
551.770, 830.158
553.090, 886.820
554.409, 800.055
555.728, 587.786
557.047, 669.909
558.366, 557.145
559.685, 598.391
561.003, 593.654
562.321, 603.937
563.639, 589.218
564.956, 540.497
566.274, 574.775
567.591, 573.065
568.908, 409.368
570.225, 543.677
571.541, 425.982
572.857, 586.294
574.173, 391.435
575.489, 358.285
576.805, 475.075
578.120, 343.777
579.435, 436.537
580.750, 352.799
582.065, 395.452
583.380, 358.494
584.694, 323.587
586.008, 278.644
587.322, 267.417
588.635, 263.546
589.949, 282.229
591.262, 244.039
592.575, 294.360
593.887, 238.514
595.200, 271.798
596.512, 331.090
597.824, 237.380
599.136, 303.666
600.447, 258.960
601.759, 251.252
603.070, 288.544
604.381, 268.832
605.692, 281.113
607.002, 225.389
608.312, 282.659
609.622, 302.923
610.932, 258.180
612.242, 345.431
613.551, 232.673
614.860, 329.909
616.169, 387.139
617.478, 304.359
618.786, 432.572
620.094, 345.776
621.402, 431.971
622.710, 462.157
624.018, 366.333
625.325, 514.500
626.632, 414.656
627.939, 597.802
629.246, 573.938
630.552, 553.063
631.859, 599.176
633.165, 558.278
634.471, 597.369
635.776, 546.447
637.082, 452.514
638.387, 466.567
639.692, 306.608
640.996, 356.637
642.301, 308.651
643.605, 214.653
644.909, 188.641
646.213, 140.615
647.516, 201.574
648.820, 183.519
650.123, 67.450
651.426, 208.361
652.729, 140.257
654.031, 201.139
655.333, 128.004
656.636, 83.854
657.937, 186.685
659.239, 79.500
660.540, 163.295
661.842, 103.074
663.142, 126.835
664.443, 148.578
665.744, 44.305
667.044, 58.002
668.344, 66.673
669.644, 84.319
670.944, 39.944
672.243, 51.536
673.542, 83.100
674.841, 11.360
676.140, 15.124
677.438, 19.563
678.737, 70.038
680.035, 24.728
681.333, 6.129
682.630, 61.940
683.928, 36.309
685.225, 41.107
686.522, 17.878
687.819, 66.777
689.115, 81.719
690.412, 36.854
691.708, 42.759
693.004, 22.770
694.300, 59.979
695.595, 24.567
696.890, 4.938
698.185, 76.453
699.480, 56.766
700.775, 38.541
702.069, 7.104
703.363, 105.029
704.657, 49.143
705.951, 61.259
707.244, 123.348
708.538, 56.556
709.831, 160.470
711.124, 128.405
712.416, 168.284
713.709, 187.055
715.001, 243.883
716.293, 193.644
717.585, 211.208
718.876, 271.883
720.167, 294.626
721.459, 247.555
722.749, 334.576
724.040, 313.526
725.331, 330.468
726.621, 345.996
727.911, 390.244
729.201, 451.799
730.490, 372.254
731.780, 480.463
733.069, 475.156
734.358, 500.371
735.646, 594.835
736.935, 651.327
738.223, 662.858
739.511, 684.864
740.799, 719.439
742.087, 796.764
743.374, 835.448
744.661, 843.101
745.948, 926.848
747.235, 772.928
748.522, 936.582
749.808, 870.213
751.094, 848.707
752.380, 966.271
753.666, 849.808
754.951, 878.209
756.236, 903.854
757.521, 939.419
758.806, 1003.850
760.091, 1006.253
761.375, 1067.629
762.659, 1033.979
763.943, 1138.301
765.227, 1186.597
766.511, 1176.866
767.794, 1210.107
769.077, 1218.359
770.360, 1170.736
771.643, 1164.897
772.925, 1217.031
774.207, 1133.138
775.489, 1095.217
776.771, 1063.271
778.053, 971.297
779.334, 871.296
780.615, 855.269
781.896, 848.215
783.177, 782.133
784.457, 846.026
785.738, 828.891
787.018, 858.730
788.298, 946.542
789.577, 833.328
790.857, 1024.086
792.136, 941.819
793.415, 1001.525
794.694, 1169.205
795.972, 1065.858
797.251, 1178.486
798.529, 1289.087
799.807, 1232.661
801.084, 1241.210
802.362, 1269.732
803.639, 1395.229
804.916, 1383.393
806.193, 1474.837
807.470, 1495.257
808.746, 1661.650
810.022, 1663.017
811.298, 1616.209
812.574, 1556.526
813.850, 1444.587
815.125, 1267.853
816.400, 1208.077
817.675, 965.293
818.950, 808.484
820.224, 742.498
821.499, 554.830
822.773, 397.314
824.047, 417.091
825.320, 286.789
826.594, 277.775
827.867, 294.402
829.140, 232.360
830.413, 224.847
831.685, 190.495
832.958, 214.606
834.230, 110.511
835.502, 169.530
836.774, 86.000
838.045, 114.027
839.316, 95.709
840.588, 98.806
841.858, 85.742
843.129, 88.805
844.400, 54.598
845.670, 50.984
846.940, 56.591
848.210, 90.833
849.479, 45.273
850.749, 48.920
852.018, 54.944
853.287, 33.258
854.556, 23.858
855.824, 22.857
857.093, 33.284
858.361, 8.874
859.629, 24.284
860.896, 11.578
862.164, 35.560
863.431, 28.958
864.698, 32.244
865.965, 61.615
867.232, 27.027
868.498, 58.700
869.764, 72.421
871.030, 49.804
872.296, 26.017
873.562, 3.217
874.827, 51.597
876.092, 51.452
877.357, 36.349
878.622, 65.721
879.886, 43.219
881.151, 22.805
882.415, 74.818
883.679, 45.179
884.942, 0.210
886.206, 14.256
887.469, 46.682
888.732, 62.609
889.995, 49.541
891.258, 9.566
892.520, 47.325
893.782, 33.794
895.044, 15.061
896.306, 40.906
897.568, 3.739
898.829, 11.438
900.090, 25.631
901.351, 20.157
902.612, 57.067
903.872, 29.674
905.133, 47.405
906.393, 58.874
907.653, 4.188
908.912, 31.513
910.172, 33.142
911.431, 48.773
912.690, 72.214
913.949, 67.056
915.208, 66.726
916.466, 53.294
917.724, 43.908
918.982, 13.514
920.240, 0.112
921.498, 9.294
922.755, 23.290
924.012, 29.910
925.269, 61.442
926.526, 75.011
927.782, 85.574
929.039, 94.131
930.295, 111.912
931.551, 114.164
932.806, 120.781
934.062, 146.323
935.317, 97.864
936.572, 160.399
937.827, 72.931
939.082, 164.459
940.336, 236.984
941.590, 202.505
942.844, 289.023
944.098, 302.537
945.352, 260.047
946.605, 298.553
947.859, 269.057
949.112, 375.559
950.364, 351.058
951.617, 433.555
952.869, 404.050
954.121, 455.543
955.373, 561.048
956.625, 470.553
957.877, 604.058
959.128, 530.561
960.379, 697.062
961.630, 635.562
962.881, 703.062
964.131, 688.562
965.381, 704.068
966.631, 832.573
967.881, 758.079
969.131, 878.584
970.380, 848.089
971.630, 796.600
972.879, 989.116
974.128, 1058.636
975.376, 928.159
976.625, 1076.688
977.873, 999.223
979.121, 1100.762
980.369, 1147.320
981.616, 1080.892
982.864, 1209.476
984.111, 1102.096
985.358, 1139.388
986.605, 1265.052
987.851, 1184.225
989.097, 1231.784
990.344, 1224.270
991.589, 1204.845
992.835, 1330.413
994.081, 1342.117
995.326, 1428.571
996.571, 1443.085
997.816, 1455.757
999.061, 1549.776
1000.305, 1586.536
1001.550, 1641.402
1002.794, 1656.801
1004.037, 1659.600
1005.281, 1647.819
1006.525, 1612.872
1007.768, 1563.923
1009.011, 1487.980
1010.254, 1580.042
1011.496, 1536.969
1012.739, 1587.179
1013.981, 1460.349
1015.223, 1472.584
1016.465, 1423.911
1017.706, 1436.162
1018.948, 1417.492
1020.189, 1480.001
1021.430, 1453.381
1022.671, 1434.678
1023.911, 1384.771
1025.152, 1430.761
1026.392, 1368.802
1027.632, 1353.834
1028.872, 1367.272
1030.111, 1316.972
1031.350, 1313.345
1032.590, 1361.820
1033.829, 1221.546
1035.067, 1244.787
1036.306, 1137.535
1037.544, 1069.045
1038.782, 1160.565
1040.020, 929.092
1041.258, 1050.168
1042.495, 967.742
1043.733, 924.598
1044.970, 829.126
1046.207, 827.729
1047.443, 741.241
1048.680, 852.431
1049.916, 821.046
1051.152, 765.671
1052.388, 728.421
1053.624, 777.081
1054.859, 653.748
1056.094, 585.547
1057.329, 648.084
1058.564, 636.681
1059.799, 484.419
1061.033, 532.166
1062.268, 480.051
1063.502, 451.965
1064.735, 527.737
1065.969, 527.822
1067.202, 588.641
1068.436, 509.469
1069.669, 499.776
1070.902, 616.432
1072.134, 606.285
1073.367, 695.150
1074.599, 681.021
1075.831, 721.987
1077.062, 783.875
1078.294, 826.771
1079.525, 873.814
1080.757, 935.729
1081.988, 938.094
1083.218, 1015.878
1084.449, 1002.855
1085.679, 953.914
1086.909, 1064.395
1088.139, 1043.412
1089.369, 1088.693
1090.599, 1242.727
1091.828, 1115.768
1093.057, 1153.817
1094.286, 1247.875
1095.515, 1225.178
1096.744, 1297.525
1097.972, 1219.609
1099.200, 1421.985
1100.428, 1390.210
1101.656, 1434.316
1102.883, 1540.912
1104.111, 1391.035
1105.338, 1619.525
1106.565, 1687.664
1107.791, 1534.811
1109.018, 1640.272
1110.244, 1752.433
1111.470, 1861.601
1112.696, 1893.168
1113.922, 1795.351
1115.147, 2120.760
1116.373, 2097.956
1117.598, 2091.160
1118.823, 2497.791
1120.047, 2360.123
1121.272, 2385.350
1122.496, 2664.795
1123.720, 2539.035
1124.944, 2602.282
1126.168, 2816.835
1127.391, 2566.096
1128.615, 2773.464
1129.838, 2627.841
1131.061, 2633.117
1132.283, 2710.739
1133.506, 2501.028
1134.728, 2668.721
1135.950, 2635.311
1137.172, 2435.615
1138.394, 2414.312
1139.615, 2297.238
1140.837, 2182.558
1142.058, 2282.905
1143.279, 2089.238
1144.499, 2013.921
1145.720, 1963.776
1146.940, 1801.115
1148.160, 1800.762
1149.380, 1662.500
1150.600, 1637.892
1151.819, 1507.825
1153.038, 1380.618
1154.257, 1428.998
1155.476, 1270.500
1156.695, 1113.889
1157.913, 1198.846
1159.132, 1118.561
1160.350, 1012.147
1161.568, 1055.917
1162.785, 909.589
1164.003, 1037.117
1165.220, 855.677
1166.437, 782.337
1167.654, 841.253
1168.871, 656.291
1170.087, 659.841
1171.304, 685.965
1172.520, 528.770
1173.736, 642.217
1174.951, 612.253
1176.167, 447.705
1177.382, 628.165
1178.597, 477.534
1179.812, 418.988
1181.027, 460.018
1182.241, 445.027
1183.455, 395.485
1184.669, 363.561
1185.883, 230.086
1187.097, 416.530
1188.311, 229.708
1189.524, 197.144
1190.737, 274.582
1191.950, 205.549
1193.162, 167.976
1194.375, 227.641
1195.587, 15.605
1196.799, 101.021
1198.011, 104.401
1199.223, 137.817
1200.434, 220.226
1201.646, 27.907
1202.857, 105.314
1204.068, 193.716
1205.279, 38.944
1206.489, 110.336
1207.699, 1.906
1208.909, 0.281
1210.119, 94.645
1211.329, 32.609
1212.539, 87.727
1213.748, 79.054
1214.957, 12.093
1216.166, 148.212
1217.375, 54.510
1218.583, 24.060
1219.792, 181.210
1221.000, 31.681
1222.208, 74.259
1223.415, 122.500
1224.623, 34.559
1225.830, 112.689
1227.037, 121.888
1228.244, 13.951
1229.451, 92.220
1230.658, 60.056
1231.864, 3.314
1233.070, 271.821
1234.276, 17.250
1235.482, 202.366
1236.687, 158.472
1237.893, 99.920
1239.098, 100.006
1240.303, 28.087
1241.508, 21.643
1242.712, 157.034
1243.917, 21.223
1245.121, 60.265
1246.325, 128.303
1247.529, 51.324
1248.732, 242.681
1249.936, 9.680
1251.139, 137.268
1252.342, 156.253
1253.545, 26.232
1254.747, 140.205
1255.950, 172.171
1257.152, 13.870
1258.354, 177.075
1259.556, 54.012
1260.758, 145.174
1261.959, 180.092
1263.160, 9.972
1264.361, 85.705
1265.562, 190.543
1266.763, 64.370
1267.963, 170.254
1269.164, 235.060
1270.364, 47.087
1271.563, 196.815
1272.763, 96.503
1273.963, 97.179
1275.162, 134.803
1276.361, 43.411
1277.560, 170.199
1278.759, 31.772
1279.957, 59.317
1281.155, 290.827
1282.354, 38.325
1283.551, 11.905
1284.749, 145.358
1285.947, 76.249
1287.144, 134.264
1288.341, 52.595
1289.538, 51.100
1290.735, 246.165
1291.931, 66.417
1293.128, 46.631
1294.324, 134.790
1295.520, 20.932
1296.716, 42.058
1297.911, 156.115
1299.107, 89.848
1300.302, 154.603
1301.497, 24.577
1302.692, 28.471
1303.886, 101.444
1305.081, 60.657
1306.275, 82.130
1307.469, 116.864
1308.663, 88.424
1309.856, 92.240
1311.050, 39.881
1312.243, 25.493
1313.436, 124.082
1314.629, 0.352
1315.822, 67.185
1317.014, 226.692
1318.206, 13.822
1319.398, 199.630
1320.590, 231.058
1321.782, 34.539
1322.974, 262.822
1324.165, 184.151
1325.356, 5.546
1326.547, 231.720
1327.738, 30.961
1328.928, 143.177
1330.119, 271.365
1331.309, 94.470
1332.499, 170.637
1333.688, 196.719
1334.878, 4.775
1336.067, 295.801
1337.256, 105.803
1338.445, 4.782
1339.634, 239.730
1340.823, 16.656
1342.011, 202.550
1343.199, 195.420
1344.388, 22.730
1345.575, 307.084
1346.763, 187.995
1347.950, 63.228
1349.138, 338.504
1350.325, 123.219
1351.512, 191.784
1352.698, 337.310
1353.885, 88.029
1355.071, 253.311
1356.257, 257.079
1357.443, 47.664
1358.629, 311.727
1359.814, 201.663
1361.000, 135.208
1362.185, 379.741
1363.370, 118.436
1364.554, 90.865
1365.739, 370.377
1366.923, 27.886
1368.107, 158.813
1369.291, 259.313
1370.475, 115.182
1371.659, 198.454
1372.842, 31.040
1374.025, 55.345
1375.208, 321.331
1376.391, 98.391
1377.574, 226.638
1378.756, 276.185
1379.939, 90.234
1381.121, 374.915
1382.303, 271.801
1383.484, 24.623
1384.666, 336.277
1385.847, 140.727
1387.028, 204.349
1388.209, 429.319
1389.390, 95.940
1390.570, 194.372
1391.751, 346.023
1392.931, 50.887
1394.111, 465.139
1395.291, 213.711
1396.470, 216.493
1397.649, 431.911
1398.829, 231.405
1400.008, 241.723
1401.187, 381.942
1402.365, 132.263
1403.544, 362.714
1404.722, 387.086
1405.900, 27.169
1407.078, 462.121
1408.255, 217.670
1409.433, 166.312
1410.610, 435.135
1411.787, 112.365
1412.964, 241.548
1414.141, 427.405
1415.317, 184.884
1416.494, 217.999
1417.670, 278.405
1418.846, 112.762
1420.022, 396.057
1421.197, 333.230
1422.373, 170.417
1423.548, 448.051
1424.723, 128.597
1425.898, 170.131
1427.072, 456.172
1428.247, 107.537
1429.421, 359.544
1430.595, 349.073
1431.769, 155.794
1432.942, 442.990
1434.116, 252.903
1435.289, 160.507
1436.462, 523.128
1437.635, 210.031
1438.808, 319.395
1439.981, 582.167
1441.153, 10.824
1442.325, 458.206
1443.497, 471.848
1444.669, 198.114
1445.840, 515.571
1447.012, 395.189
1448.183, 192.450
1449.354, 628.899
1450.525, 149.868
1451.696, 283.072
1452.866, 581.240
1454.036, 180.649
1455.206, 337.263
1456.376, 604.036
1457.546, 189.114
1458.716, 563.353
1459.885, 366.456
1461.054, 237.423
1462.223, 592.702
1463.392, 371.466
1464.560, 240.084
1465.729, 564.541
1466.897, 155.428
1468.065, 334.124
1469.233, 486.874
1470.400, 147.097
1471.568, 422.804
