##NAMES=Orthoclase
##RRUFFID=R040055
##IDEAL CHEMISTRY=KAlSi_3_O_8_
##LOCALITY=Madagascar
##OWNER=RRUFF
##SOURCE=Bob Downs
##DESCRIPTION=Pale yellow fragments
##STATUS=The identification of this mineral has been confirmed by X-ray diffraction and chemical analysis
##URL=rruff.info/R040055
##MEASURED CHEMISTRY=K_0.96_(Al_0.96_Si_0.03_Fe_0.02_)Si_3.00_O_8_; = light material. (K_0.90_Na_0.02_)(Al_0.91_Si_0.08_Fe_0.02_)Si_3.00_O_8_ = dark
##PIN_ID=L00390
##ORIENTATION=Laser parallel to a* (1 0 0). Fiducial mark perpendicular to laser is parallel to -b [0 -1 0]
98.831, 0.000
100.227, 226.328
101.624, 797.675
103.020, 1310.954
104.416, 2529.622
105.812, 3615.938
107.207, 5174.916
108.603, 5618.279
109.998, 6436.637
111.393, 6234.235
112.787, 5732.967
114.182, 5392.438
115.576, 5113.557
116.970, 4732.635
118.363, 4344.212
119.757, 4018.117
121.150, 3625.996
122.543, 3114.156
123.936, 2839.391
125.328, 2022.459
126.720, 1719.963
128.112, 1142.497
129.504, 1017.938
130.896, 777.077
132.287, 266.864
133.678, 475.084
135.069, 122.160
136.460, 207.066
137.850, 89.378
139.240, 30.669
140.630, 2.841
142.020, 187.772
143.410, 59.091
144.799, 165.363
146.188, 136.513
147.577, 127.107
148.965, 141.361
150.354, 160.302
151.742, 263.166
153.130, 483.101
154.517, 500.910
155.905, 775.986
157.292, 609.551
158.679, 828.855
160.066, 805.443
161.452, 595.662
162.839, 631.873
164.225, 466.034
165.611, 610.816
166.996, 397.718
168.381, 432.055
169.767, 474.370
171.152, 481.064
172.536, 536.253
173.921, 545.141
175.305, 572.902
176.689, 440.604
178.073, 468.249
179.456, 715.845
180.839, 603.483
182.222, 681.155
183.605, 173.051
184.988, 224.230
186.370, 154.680
187.752, 136.393
189.134, 176.352
190.516, 140.540
191.898, 281.936
193.279, 134.517
194.660, 441.250
196.041, 351.114
197.421, 341.096
198.801, 431.181
200.182, 231.353
201.561, 381.599
202.941, 244.912
204.321, 14.247
205.700, 60.074
207.079, 10.049
208.457, 86.644
209.836, 256.977
211.214, 39.424
212.592, 8.071
213.970, 71.728
215.348, 139.243
216.725, 38.598
218.102, 77.752
219.479, 275.239
220.856, 0.450
222.232, 104.651
223.608, 96.677
224.984, 109.913
226.360, 150.082
227.736, 68.233
229.111, 131.791
230.486, 90.006
231.861, 38.736
233.236, 2.271
234.610, 146.336
235.984, 55.215
237.358, 123.199
238.732, 38.645
240.105, 79.549
241.479, 12.088
242.852, 85.722
244.224, 313.711
245.597, 41.267
246.969, 318.442
248.342, 265.067
249.713, 431.500
251.085, 447.684
252.457, 443.788
253.828, 659.827
255.199, 685.854
256.570, 891.880
257.940, 868.211
259.310, 1084.446
260.681, 1304.768
262.050, 1252.313
263.420, 1539.977
264.790, 1521.555
266.159, 1927.306
267.528, 1902.251
268.896, 2039.488
270.265, 2295.519
271.633, 2371.768
273.001, 2618.123
274.369, 2704.515
275.737, 3210.869
277.104, 3407.094
278.471, 3623.182
279.838, 4029.131
281.205, 4014.931
282.572, 4300.576
283.938, 3906.062
285.304, 3721.348
286.670, 3406.175
288.035, 2840.495
289.401, 2804.553
290.766, 2118.496
292.131, 2032.304
293.495, 1605.953
294.860, 1329.432
296.224, 1222.723
297.588, 885.822
298.952, 958.736
300.315, 621.473
301.679, 644.037
303.042, 476.440
304.405, 317.980
305.767, 529.971
307.130, 194.643
308.492, 374.658
309.854, 339.812
311.216, 306.118
312.578, 302.668
313.939, 133.878
315.300, 194.979
316.661, 145.866
318.021, 166.506
319.382, 266.613
320.742, 166.456
322.102, 275.910
323.462, 145.166
324.821, 314.021
326.181, 252.547
327.540, 190.719
328.899, 288.671
330.257, 136.533
331.616, 294.291
332.974, 201.918
334.332, 309.419
335.690, 216.820
337.047, 203.732
338.405, 361.510
339.762, 118.834
341.119, 186.143
342.475, 123.437
343.832, 70.715
345.188, 147.975
346.544, 45.220
347.900, 290.882
349.255, 47.265
350.610, 142.654
351.965, 77.658
353.320, 23.513
354.675, 218.688
356.029, 125.378
357.384, 280.465
358.738, 147.602
360.091, 244.584
361.445, 391.511
362.798, 388.598
364.151, 485.045
365.504, 322.129
366.857, 528.631
368.209, 467.639
369.561, 410.730
370.913, 590.106
372.265, 294.790
373.617, 508.818
374.968, 346.585
376.319, 257.365
377.670, 353.182
379.021, 174.845
380.371, 332.860
381.721, 87.059
383.071, 240.372
384.421, 131.021
385.770, 115.153
387.120, 129.803
388.469, 43.682
389.818, 185.065
391.166, 49.125
392.515, 191.728
393.863, 186.467
395.211, 129.531
396.559, 300.416
397.906, 146.150
399.254, 473.812
400.601, 469.271
401.948, 458.093
403.294, 632.777
404.641, 523.401
405.987, 708.305
407.333, 604.906
408.679, 478.625
410.025, 505.250
411.370, 231.655
412.715, 348.404
414.060, 85.149
415.405, 191.890
416.749, 108.628
418.093, 114.639
419.437, 182.073
420.781, 41.220
422.125, 105.478
423.468, 72.151
424.811, 41.188
426.154, 105.457
427.497, 67.924
428.839, 368.640
430.182, 54.837
431.524, 211.625
432.866, 398.040
434.207, 314.405
435.549, 550.723
436.890, 466.989
438.231, 923.205
439.572, 989.373
440.912, 1095.492
442.252, 1681.599
443.593, 1627.621
444.932, 2183.597
446.272, 2609.525
447.611, 2925.710
448.951, 3562.001
450.290, 3887.799
451.628, 4434.184
452.967, 4459.900
454.305, 4695.580
455.644, 4891.219
456.981, 4506.820
458.319, 4732.465
459.657, 4317.994
460.994, 4553.531
462.331, 4578.990
463.668, 4634.414
465.004, 5349.966
466.341, 5624.865
467.677, 6720.194
469.013, 7614.508
470.348, 8909.610
471.684, 10584.790
473.019, 11269.628
474.354, 12504.555
475.689, 12108.601
477.024, 11832.915
478.358, 10967.419
479.692, 9221.431
481.026, 8237.065
482.360, 6771.191
483.694, 6065.704
485.027, 5269.750
486.360, 4414.385
487.693, 4608.764
489.026, 3802.880
490.358, 3637.367
491.691, 3480.996
493.023, 3105.487
494.354, 3539.580
495.686, 3464.114
497.017, 3888.253
498.349, 3903.146
499.680, 4767.873
501.010, 5811.584
502.341, 6535.561
503.671, 8559.062
505.001, 10242.658
506.331, 13346.359
507.661, 16828.961
508.990, 20259.127
510.319, 25761.684
511.648, 28236.750
512.977, 31090.092
514.306, 29983.080
515.634, 26967.588
516.962, 23951.979
518.290, 18609.348
519.618, 15453.654
520.945, 12079.160
522.273, 9647.525
523.600, 8172.639
524.927, 6026.857
526.253, 5231.838
527.580, 4457.533
528.906, 3657.416
530.232, 3372.903
531.558, 2707.453
532.883, 2802.238
534.208, 2088.948
535.534, 2054.519
536.858, 1790.973
538.183, 1507.892
539.508, 1512.942
540.832, 1350.159
542.156, 1309.508
543.480, 1165.207
544.803, 1044.073
546.127, 1188.691
547.450, 741.788
548.773, 816.688
550.096, 901.869
551.418, 730.040
552.741, 795.765
554.063, 604.979
555.385, 690.052
556.706, 615.691
558.028, 641.075
559.349, 656.371
560.670, 601.770
561.991, 417.078
563.312, 512.375
564.632, 427.684
565.952, 592.979
567.272, 268.254
568.592, 613.540
569.911, 388.804
571.231, 434.049
572.550, 399.271
573.869, 354.186
575.187, 529.408
576.506, 404.425
577.824, 535.455
579.142, 430.651
580.460, 404.520
581.778, 539.486
583.095, 454.293
584.412, 468.113
585.729, 593.025
587.046, 516.105
588.363, 541.177
589.679, 324.611
590.995, 399.637
592.311, 384.641
593.627, 379.621
594.942, 404.586
596.258, 289.527
597.573, 454.447
598.888, 409.346
600.202, 224.222
601.517, 469.099
602.831, 293.955
604.145, 348.790
605.459, 163.605
606.772, 128.396
608.086, 513.161
609.399, 87.906
610.712, 462.624
612.024, 247.360
613.337, 282.077
614.649, 316.771
615.961, 221.444
617.273, 526.095
618.585, 230.784
619.896, 285.452
621.208, 630.099
622.519, 204.727
623.829, 659.332
625.140, 443.920
626.450, 418.485
627.761, 623.035
629.071, 197.574
630.380, 612.090
631.690, 226.588
632.999, 201.066
634.308, 425.527
635.617, 99.972
636.926, 394.394
638.235, 18.801
639.543, 213.179
640.851, 457.539
642.159, 181.880
643.466, 346.203
644.774, 250.507
646.081, 249.402
647.388, 609.061
648.695, 263.309
650.002, 517.541
651.308, 451.754
652.614, 305.950
653.920, 510.126
655.226, 64.284
656.531, 588.417
657.837, 202.528
659.142, 296.622
660.447, 290.697
661.752, 94.758
663.056, 338.799
664.360, 232.822
665.664, 53.167
666.968, 300.771
668.272, 24.697
669.575, 198.594
670.879, 62.624
672.182, 166.485
673.484, 72.037
674.787, 164.148
676.089, 139.531
677.392, 33.774
678.694, 12.601
679.995, 181.187
681.297, 105.271
682.598, 148.166
683.899, 128.297
685.200, 35.004
686.501, 88.305
687.802, 267.033
689.102, 215.967
690.402, 138.371
691.702, 114.479
693.002, 27.336
694.301, 139.885
695.600, 142.766
696.899, 141.445
698.198, 28.954
699.497, 113.470
700.795, 174.138
702.093, 348.109
703.391, 79.510
704.689, 172.614
705.987, 354.712
707.284, 3.216
708.581, 168.799
709.878, 9.218
711.175, 262.701
712.472, 184.597
713.768, 206.461
715.064, 338.297
716.360, 243.124
717.656, 424.905
718.951, 296.658
720.247, 409.442
721.542, 591.142
722.837, 352.812
724.131, 338.659
725.426, 790.276
726.720, 421.864
728.014, 683.425
729.308, 584.959
730.601, 716.834
731.895, 708.312
733.188, 709.536
734.481, 960.979
735.774, 942.394
737.067, 1034.675
738.359, 1036.040
739.651, 979.222
740.943, 1330.538
742.235, 1091.829
743.526, 1287.627
744.818, 1508.871
746.109, 1250.095
747.400, 1611.291
748.691, 1272.459
749.981, 1374.746
751.271, 1555.860
752.562, 1186.945
753.851, 1668.005
755.141, 1419.037
756.431, 1215.321
757.720, 1496.298
759.009, 1197.249
760.298, 1388.520
761.587, 1349.117
762.875, 1179.539
764.163, 1480.383
765.451, 1140.576
766.739, 1300.381
768.027, 1301.146
769.314, 1141.885
770.601, 1212.598
771.888, 1193.204
773.175, 1117.367
774.462, 937.954
775.748, 858.562
777.034, 1059.559
778.320, 709.950
779.606, 860.479
780.892, 920.980
782.177, 561.457
783.462, 963.804
784.747, 814.021
786.032, 884.421
787.317, 844.703
788.601, 704.851
789.885, 1095.174
791.169, 804.844
792.453, 965.115
793.736, 1094.255
795.019, 824.314
796.303, 1134.513
797.585, 784.390
798.868, 1064.539
800.151, 1064.648
801.433, 694.726
802.715, 1184.805
803.997, 884.859
805.279, 1054.893
806.560, 1134.900
807.841, 814.887
809.122, 1244.846
810.403, 1003.969
811.684, 1103.885
812.964, 1153.535
814.245, 673.404
815.525, 1183.254
816.804, 1152.377
818.084, 562.182
819.363, 881.834
820.643, 355.807
821.922, 275.545
823.201, 313.867
824.479, 173.283
825.758, 362.094
827.036, 41.328
828.314, 360.123
829.592, 286.695
830.869, 65.730
832.147, 393.957
833.424, 129.877
834.701, 189.018
835.977, 299.021
837.254, 137.982
838.530, 436.445
839.807, 130.723
841.082, 19.379
842.358, 328.971
843.634, 11.889
844.909, 235.619
846.184, 104.273
847.459, 211.799
848.734, 319.121
850.008, 32.143
851.283, 124.912
852.557, 149.004
853.831, 167.551
855.105, 452.490
856.378, 21.689
857.651, 272.539
858.925, 361.303
860.197, 110.475
861.470, 616.080
862.743, 204.812
864.015, 90.025
865.287, 239.143
866.559, 147.932
867.831, 206.807
869.102, 54.070
870.373, 104.916
871.645, 303.996
872.915, 16.926
874.186, 192.135
875.457, 231.189
876.727, 79.762
877.997, 439.244
879.267, 18.248
880.536, 97.246
881.806, 196.240
883.075, 184.771
884.344, 264.125
885.613, 176.984
886.882, 161.820
888.150, 80.619
889.419, 20.584
890.687, 168.201
891.954, 43.016
893.222, 205.746
894.490, 394.508
895.757, 96.717
897.024, 182.014
898.291, 50.746
899.557, 59.475
900.824, 148.205
902.090, 33.020
903.356, 265.742
904.622, 64.506
905.888, 173.303
907.153, 302.104
908.418, 119.096
909.683, 219.660
910.948, 98.414
912.213, 12.824
913.477, 175.932
914.741, 84.691
916.005, 183.482
917.269, 252.275
918.533, 188.928
919.796, 99.797
921.060, 158.523
922.323, 87.256
923.585, 345.992
924.848, 265.268
926.111, 193.396
927.373, 72.068
928.635, 19.258
929.897, 389.420
931.158, 28.102
932.420, 136.840
933.681, 295.584
934.942, 65.666
936.203, 583.074
937.463, 71.822
938.724, 220.578
939.984, 369.344
941.244, 178.117
942.504, 586.902
943.764, 245.695
945.023, 104.496
946.282, 523.316
947.541, 232.148
948.800, 690.988
950.059, 589.842
951.317, 608.705
952.575, 817.578
953.833, 626.461
955.091, 785.354
956.349, 824.258
957.606, 443.172
958.864, 1062.096
960.121, 611.033
961.377, 769.982
962.634, 878.947
963.891, 527.924
965.147, 816.914
966.403, 755.916
967.659, 434.932
968.914, 953.963
970.170, 523.006
971.425, 632.062
972.680, 861.158
973.935, 400.270
975.190, 718.107
976.444, 696.967
977.698, 777.547
978.952, 995.010
980.206, 674.203
981.460, 1033.467
982.713, 762.162
983.967, 871.463
985.220, 880.576
986.473, 929.932
987.725, 1129.342
988.978, 1218.645
990.230, 818.148
991.482, 1027.602
992.734, 875.689
993.986, 965.355
995.237, 1162.352
996.488, 862.143
997.739, 1101.914
998.990, 1161.748
1000.241, 1071.662
1001.492, 1628.428
1002.742, 1148.428
1003.992, 1398.469
1005.242, 1268.527
1006.492, 738.666
1007.741, 1178.664
1008.990, 758.873
1010.239, 939.143
1011.488, 1069.428
1012.737, 709.750
1013.986, 1010.111
1015.234, 940.510
1016.482, 790.930
1017.730, 1221.377
1018.978, 841.842
1020.225, 1159.307
1021.473, 1169.807
1022.720, 720.326
1023.967, 1039.803
1025.213, 950.359
1026.460, 990.930
1027.706, 1107.318
1028.953, 447.930
1030.198, 1058.557
1031.444, 739.205
1032.690, 659.873
1033.935, 960.195
1035.180, 530.904
1036.425, 571.863
1037.670, 772.615
1038.915, 283.389
1040.159, 973.299
1041.403, 464.148
1042.647, 573.176
1043.891, 864.082
1045.135, 278.365
1046.378, 824.809
1047.621, 555.891
1048.864, 417.037
1050.107, 878.158
1051.350, 659.225
1052.592, 749.293
1053.835, 1020.541
1055.077, 319.299
1056.318, 910.582
1057.560, 541.883
1058.802, 677.889
1060.043, 659.227
1061.284, 350.900
1062.525, 591.971
1063.765, 733.408
1065.006, 420.252
1066.246, 921.746
1067.486, 603.338
1068.726, 435.986
1069.966, 917.609
1071.205, 419.367
1072.445, 1081.047
1073.684, 822.746
1074.923, 699.094
1076.161, 1070.902
1077.400, 812.727
1078.638, 994.154
1079.876, 1276.014
1081.114, 889.070
1082.352, 1390.986
1083.590, 1282.922
1084.827, 1143.357
1086.064, 1685.418
1087.301, 1157.498
1088.538, 1709.613
1089.775, 1711.748
1091.011, 1093.896
1092.247, 1756.061
1093.483, 1298.240
1094.719, 1721.504
1095.955, 1883.713
1097.190, 1345.941
1098.425, 1918.947
1099.660, 1981.209
1100.895, 1443.482
1102.130, 2155.773
1103.364, 1758.076
1104.598, 2010.398
1105.833, 2362.734
1107.066, 1855.086
1108.300, 2778.006
1109.534, 2350.416
1110.767, 2163.037
1112.000, 2855.516
1113.233, 2268.010
1114.466, 2790.969
1115.698, 2943.494
1116.930, 2716.031
1118.163, 3768.586
1119.394, 3321.152
1120.626, 3623.730
1121.858, 4046.326
1123.089, 3368.934
1124.320, 4191.553
1125.551, 4104.188
1126.782, 3716.836
1128.013, 4059.506
1129.243, 3592.188
1130.473, 3404.881
1131.703, 3957.873
1132.933, 2990.594
1134.163, 3424.742
1135.392, 3297.486
1136.621, 2910.236
1137.850, 3265.150
1139.079, 2917.920
1140.308, 2840.846
1141.536, 3135.008
1142.765, 2157.812
1143.993, 2379.953
1145.221, 2623.203
1146.448, 1746.037
1147.676, 2560.771
1148.903, 1853.615
1150.130, 1556.479
1151.357, 1919.463
1152.584, 1292.330
1153.810, 1725.201
1155.037, 1438.074
1156.263, 980.949
1157.489, 1713.496
1158.715, 986.369
1159.940, 1239.244
1161.166, 1166.947
1162.391, 829.820
1163.616, 1103.598
1164.841, 1068.793
1166.065, 511.658
1167.290, 1254.520
1168.514, 517.391
1169.738, 740.260
1170.962, 883.123
1172.185, 455.988
1173.409, 728.850
1174.632, 652.301
1175.855, 465.170
1177.078, 988.229
1178.301, 341.543
1179.523, 534.391
1180.746, 618.699
1181.968, 191.580
1183.190, 1064.451
1184.412, 349.043
1185.633, 671.941
1186.855, 1035.840
1188.076, 26.502
1189.297, 409.377
1190.518, 465.914
1191.738, 105.504
1192.959, 157.314
1194.179, 152.586
1195.399, 55.398
1196.619, 488.350
1197.838, 195.941
1199.058, 426.742
1200.277, 442.316
1201.496, 154.863
1202.715, 487.713
1203.934, 330.273
1205.152, 152.816
1206.371, 305.369
1207.589, 48.520
1208.807, 431.035
1210.024, 253.557
1211.242, 108.494
1212.459, 413.943
1213.677, 334.344
1214.894, 136.740
1216.110, 609.158
1217.327, 136.453
1218.543, 448.830
1219.760, 421.199
1220.976, 129.074
1222.192, 623.240
1223.407, 275.850
1224.623, 258.154
1225.838, 680.404
1227.053, 172.262
1228.268, 340.303
1229.483, 722.387
1230.697, 156.406
1231.912, 568.781
1233.126, 600.938
1234.340, 368.162
1235.554, 790.121
1236.767, 302.240
1237.981, 454.146
1239.194, 1016.029
1240.407, 28.600
1241.620, 650.436
1242.832, 572.264
1244.045, 75.029
1245.257, 826.834
1246.469, 338.629
1247.681, 330.746
1248.893, 872.520
1250.104, 275.246
1251.315, 746.994
1252.527, 468.732
1253.738, 157.543
1254.948, 849.256
1256.159, 240.953
1257.369, 332.551
1258.579, 1024.225
1259.789, 195.881
1260.999, 688.516
1262.209, 800.125
1263.418, 342.781
1264.628, 614.354
1265.837, 445.859
1267.046, 507.871
1268.254, 839.334
1269.463, 380.777
1270.671, 703.668
1271.879, 865.025
1273.087, 396.365
1274.295, 948.707
1275.502, 679.961
1276.710, 271.727
1277.917, 942.943
1279.124, 84.139
1280.331, 435.938
1281.537, 847.080
1282.744, 48.203
1283.950, 719.285
1285.156, 320.336
1286.362, 101.357
1287.568, 912.305
1288.773, 76.836
1289.978, 263.814
1291.184, 734.439
1292.389, 74.953
1293.593, 665.412
1294.798, 615.846
1296.002, 346.252
1297.206, 1266.559
1298.410, 686.797
1299.614, 386.877
1300.818, 606.928
1302.021, 73.088
1303.225, 586.691
1304.428, 596.436
1305.631, 6.146
1306.833, 755.760
1308.036, 185.166
1309.238, 74.525
1310.440, 543.797
1311.642, 423.029
1312.844, 592.219
1314.045, 2061.371
1315.247, 1880.473
1316.448, 1359.535
1317.649, 558.547
1318.850, 257.516
1320.051, 756.371
1321.251, 355.084
1322.451, 293.748
1323.651, 802.346
1324.851, 140.885
1326.051, 439.359
1327.251, 427.783
1328.450, 126.135
1329.649, 494.410
1330.848, 192.627
1332.047, 29.219
1333.245, 638.830
1334.444, 46.820
1335.642, 4.730
1336.840, 579.219
1338.038, 263.021
1339.236, 584.586
1340.433, 372.086
1341.630, 110.430
1342.828, 757.072
1344.025, 64.385
1345.221, 361.633
1346.418, 691.330
1347.614, 488.473
1348.810, 455.566
1350.006, 512.609
1351.202, 80.400
1352.398, 786.225
1353.593, 1428.318
1354.789, 5.123
1355.984, 856.498
1357.179, 196.805
1358.373, 449.775
1359.568, 526.268
1360.762, 12.775
1361.956, 519.137
1363.150, 499.174
1364.344, 184.430
1365.538, 753.807
1366.731, 310.086
1367.924, 376.348
1369.117, 932.377
1370.310, 8.381
1371.503, 263.186
1372.695, 439.121
1373.888, 265.191
1375.080, 290.068
1376.272, 335.553
1377.464, 1.002
1378.655, 1036.379
1379.847, 321.762
1381.038, 657.189
1382.229, 772.734
1383.420, 198.566
1384.610, 847.396
1385.801, 626.475
1386.991, 176.277
1388.181, 776.039
1389.371, 665.752
1390.561, 294.838
1391.750, 1004.188
1392.940, 183.607
1394.129, 442.490
1395.318, 991.801
1396.507, 18.941
1397.696, 980.268
1398.884, 949.420
1400.072, 61.486
1401.260, 1047.553
1402.448, 636.211
1403.636, 193.488
1404.824, 919.814
1406.011, 188.420
1407.198, 655.508
1408.385, 902.355
1409.572, 258.529
1410.758, 596.959
1411.945, 875.189
1413.131, 153.521
1414.317, 859.451
1415.503, 697.568
1416.689, 179.338
1417.874, 1153.037
1419.060, 250.924
1420.245, 568.773
1421.430, 986.586
1422.615, 233.539
1423.799, 881.002
1424.984, 718.066
1426.168, 523.639
1427.352, 1178.816
1428.536, 684.900
1429.720, 390.881
1430.903, 1144.137
1432.087, 527.180
1433.270, 903.707
1434.453, 1050.311
1435.635, 462.047
1436.818, 948.643
1438.001, 1235.219
1439.183, 644.277
1440.365, 1381.395
1441.547, 1057.068
1442.728, 1172.764
1443.910, 2049.883
1445.091, 884.570
1446.272, 1359.086
1447.453, 1754.051
1448.634, 748.820
1449.815, 1742.463
1450.995, 1575.830
1452.176, 1119.877
1453.356, 1793.512
1454.535, 1246.002
1455.715, 1249.750
1456.895, 2191.309
1458.074, 1123.873
1459.253, 1474.822
1460.432, 1797.572
1461.611, 924.236
1462.790, 1513.604
1463.968, 1524.803
1465.146, 803.375
1466.324, 1511.422
1467.502, 1040.617
1468.680, 550.781
1469.858, 1686.957
1471.035, 613.887
1472.212, 1081.875
1473.389, 1600.855
1474.566, 437.650
1475.742, 1275.768
1476.919, 1373.510
1478.095, 201.250
1479.271, 1259.590
1480.447, 758.088
1481.623, 416.191
1482.798, 1364.451
1483.974, 733.279
1485.149, 602.422
1486.324, 1111.676
1487.499, 501.557
1488.674, 692.016
1489.848, 1102.430
1491.022, 112.652
1492.196, 762.734
1493.370, 1002.939
1494.544, 95.764
1495.718, 945.689
1496.891, 567.324
1498.064, 259.322
1499.237, 1081.672
1500.410, 234.457
1501.583, 297.719
1502.755, 831.492
1503.928, 64.135
1505.100, 730.871
1506.272, 936.547
1507.443, 42.898
1508.615, 800.074
1509.786, 528.107
1510.958, 122.949
1512.129, 818.182
