##NAMES=Painite
##RRUFFID=R060957
##IDEAL CHEMISTRY=CaZr^4+^Al_9_O_15_(BO_3_)
##LOCALITY=Ohngaing Village, Mogok, Burma
##OWNER=RRUFF
##SOURCE=Marcus Origlieri
##DESCRIPTION=Single crystal, reddish-brown to orangish prism section, several prism forms, small transparent areas.
##STATUS=The identification of this mineral has been confirmed by X-ray diffraction.
##URL=rruff.info/R060957
##PIN_ID=M01433
##ORIENTATION=Laser parallel to c* (0 0 1). Fiducial mark perpendicular to laser is parallel to a [1 0 0]
163.0300, 0.0000000E+00
164.2600, 7.988281
165.4900, 68.81250
166.7200, 29.30859
167.9500, 334.6289
169.1790, 250.5430
170.4080, 856.3555
171.6380, 1212.711
172.8670, 1938.895
174.0950, 2740.793
175.3240, 3199.574
176.5520, 4344.887
177.7810, 6539.281
179.0090, 8960.277
180.2370, 12844.98
181.4640, 16886.89
182.6920, 18905.14
183.9190, 15885.32
185.1460, 11037.32
186.3730, 6995.797
187.6000, 4061.352
188.8270, 2461.555
190.0530, 1507.129
191.2800, 788.3281
192.5060, 709.9883
193.7320, 424.4805
194.9580, 434.1641
196.1830, 390.3672
197.4090, 333.4219
198.6340, 361.5469
199.8590, 385.9531
201.0840, 388.0273
202.3090, 563.4492
203.5340, 550.5586
204.7580, 978.0859
205.9820, 1355.363
207.2060, 1786.473
208.4300, 1781.586
209.6540, 2389.070
210.8780, 2380.492
212.1010, 2662.195
213.3240, 3054.961
214.5470, 3403.805
215.7700, 4427.730
216.9930, 5438.734
218.2150, 7132.410
219.4380, 8338.867
220.6600, 9587.844
221.8820, 9549.895
223.1040, 8963.980
224.3260, 7688.086
225.5470, 6163.230
226.7680, 4851.422
227.9900, 3685.727
229.2110, 2584.676
230.4310, 1993.980
231.6520, 1424.324
232.8720, 1483.719
234.0930, 882.1797
235.3130, 711.7109
236.5330, 543.3633
237.7530, 383.2383
238.9720, 285.3672
240.1920, 79.74609
241.4110, 14.38281
242.6300, 251.2578
243.8490, 41.63281
245.0680, 31.71094
246.2860, 228.1211
247.5040, 170.2500
248.7230, 110.5039
249.9410, 227.2500
251.1590, 218.4570
252.3760, 216.9688
253.5940, 230.3516
254.8110, 151.0547
256.0280, 124.6094
257.2450, 4.027344
258.4620, 53.66406
259.6790, 494.4336
260.8950, 716.2656
262.1120, 448.1602
263.3280, 263.1211
264.5440, 506.1562
265.7600, 265.2617
266.9750, 366.4414
268.1910, 604.6992
269.4060, 453.0391
270.6210, 198.4570
271.8360, 10.03125
273.0510, 158.5664
274.2650, 62.25000
275.4800, 142.9414
276.6940, 229.6523
277.9080, 287.2461
279.1220, 413.5078
280.3360, 452.4141
281.5490, 625.9727
282.7630, 891.2812
283.9760, 1142.562
285.1890, 1238.992
286.4020, 1309.500
287.6150, 1335.266
288.8270, 1223.363
290.0400, 1195.516
291.2520, 1027.801
292.4640, 842.6719
293.6760, 840.3281
294.8870, 1071.395
296.0990, 1023.316
297.3100, 1175.086
298.5210, 1280.047
299.7320, 1569.191
300.9430, 1657.523
302.1540, 1909.039
303.3640, 2499.738
304.5750, 3557.613
305.7850, 4345.676
306.9950, 5116.914
308.2050, 5212.855
309.4140, 5701.805
310.6240, 4888.973
311.8330, 4276.594
313.0420, 3735.547
314.2510, 3146.730
315.4600, 2249.078
316.6680, 1807.543
317.8770, 1313.082
319.0850, 833.6719
320.2930, 552.2930
321.5010, 281.9141
322.7090, 211.5078
323.9160, 5.863281
325.1240, 99.40234
326.3310, 164.9297
327.5380, 279.5234
328.7450, 217.2070
329.9520, 125.9883
331.1580, 159.8945
332.3650, 183.9805
333.5710, 134.2461
334.7770, 140.6562
335.9830, 12.19531
337.1880, 195.1758
338.3940, 214.4805
339.5990, 315.7266
340.8040, 609.9297
342.0090, 1017.105
343.2140, 1383.258
344.4190, 1613.395
345.6230, 1927.531
346.8280, 2452.672
348.0320, 3218.633
349.2360, 3862.531
350.4400, 4473.016
351.6430, 4641.000
352.8470, 5132.375
354.0500, 4758.188
355.2530, 4132.633
356.4560, 3063.008
357.6590, 2274.488
358.8620, 1789.074
360.0640, 990.7617
361.2660, 864.5664
362.4680, 619.4688
363.6700, 504.4180
364.8720, 560.4648
366.0740, 422.6250
367.2750, 466.8945
368.4760, 754.2656
369.6770, 645.7539
370.8780, 884.3477
372.0790, 1081.055
373.2800, 1520.871
374.4800, 1930.578
375.6800, 2305.828
376.8800, 3084.969
378.0800, 3880.219
379.2800, 4757.574
380.4790, 5954.039
381.6790, 6589.613
382.8780, 6161.297
384.0770, 5668.027
385.2760, 4755.801
386.4750, 4408.074
387.6730, 3615.148
388.8720, 3715.625
390.0700, 3764.250
391.2680, 4103.574
392.4660, 4718.195
393.6630, 5921.172
394.8610, 7427.945
396.0580, 9237.906
397.2550, 11366.58
398.4520, 13320.03
399.6490, 14417.05
400.8460, 13407.34
402.0420, 11637.80
403.2390, 9351.094
404.4350, 6880.805
405.6310, 5168.707
406.8270, 3756.824
408.0220, 2872.137
409.2180, 2688.664
410.4130, 2422.324
411.6080, 2024.156
412.8030, 1612.105
413.9980, 1073.172
415.1920, 836.3516
416.3870, 479.8477
417.5810, 177.9219
418.7750, 18.41406
419.9690, 201.7695
421.1630, 314.6289
422.3570, 318.2031
423.5500, 380.2930
424.7430, 345.3008
425.9360, 243.2305
427.1290, 39.92969
428.3220, 370.2500
429.5150, 928.6758
430.7070, 1638.230
431.8990, 2421.902
433.0910, 3252.707
434.2830, 5051.633
435.4750, 6858.680
436.6670, 7761.832
437.8580, 7821.027
439.0490, 6912.258
440.2400, 5556.582
441.4310, 4098.031
442.6220, 2835.605
443.8130, 2328.305
445.0030, 2032.121
446.1930, 2222.066
447.3830, 1901.133
448.5730, 2306.316
449.7630, 2568.625
450.9520, 2044.051
452.1420, 2026.598
453.3310, 2029.246
454.5200, 2198.000
455.7090, 2785.848
456.8980, 3116.797
458.0860, 3942.848
459.2740, 5099.992
460.4630, 6221.234
461.6510, 8172.570
462.8380, 10338.00
464.0260, 13243.53
465.2140, 16750.16
466.4010, 19878.88
467.5880, 22282.56
468.7750, 23266.73
469.9620, 21832.02
471.1490, 18465.53
472.3350, 15676.52
473.5220, 13109.09
474.7080, 11303.25
475.8940, 9842.418
477.0800, 8900.078
478.2650, 7973.613
479.4510, 7321.984
480.6360, 5828.941
481.8210, 5105.016
483.0060, 3884.191
484.1910, 3316.480
485.3760, 2761.883
486.5600, 2302.398
487.7440, 2107.020
488.9290, 2050.758
490.1130, 1872.609
491.2960, 2109.570
492.4800, 2277.648
493.6630, 1984.844
494.8470, 1728.156
496.0300, 1607.594
497.2130, 1187.156
498.3960, 983.8438
499.5780, 793.6602
500.7610, 739.6016
501.9430, 625.6719
503.1250, 688.8711
504.3070, 754.1914
505.4890, 1216.645
506.6710, 1275.227
507.8520, 1957.930
509.0330, 2112.762
510.2140, 2528.723
511.3950, 2638.809
512.5760, 2996.020
513.7570, 2531.359
514.9370, 2445.828
516.1170, 2085.418
517.2980, 2284.137
518.4780, 2336.984
519.6570, 2352.953
520.8370, 3175.051
522.0160, 3519.270
523.1960, 4643.613
524.3750, 4816.090
525.5540, 6293.688
526.7320, 7521.414
527.9110, 8566.281
529.0890, 9395.305
530.2680, 9996.453
531.4460, 10949.30
532.6240, 11394.57
533.8010, 12260.92
534.9790, 13505.41
536.1560, 14567.64
537.3340, 16487.62
538.5110, 17957.68
539.6880, 18426.62
540.8650, 17918.89
542.0410, 15725.77
543.2180, 13020.36
544.3940, 10735.69
545.5700, 8323.816
546.7460, 6246.305
547.9220, 4721.922
549.0970, 3746.566
550.2730, 3042.039
551.4480, 2248.156
552.6230, 1731.770
553.7980, 1277.074
554.9730, 954.9844
556.1470, 868.9688
557.3210, 645.5625
558.4960, 759.2734
559.6700, 736.0820
560.8440, 1040.738
562.0170, 1139.055
563.1910, 1296.980
564.3640, 1721.895
565.5380, 2472.691
566.7110, 3354.918
567.8840, 4020.555
569.0560, 5033.125
570.2290, 6192.785
571.4010, 7471.543
572.5740, 8730.398
573.7460, 9552.336
574.9180, 9580.371
576.0890, 9333.500
577.2610, 8685.719
578.4320, 7838.023
579.6040, 7014.426
580.7750, 6968.914
581.9450, 6571.496
583.1160, 6890.172
584.2870, 7542.930
585.4570, 8138.777
586.6270, 9025.719
587.7980, 10399.75
588.9670, 11547.86
590.1370, 12729.06
591.3070, 12783.35
592.4760, 12225.73
593.6450, 11352.19
594.8140, 9701.734
595.9830, 8084.367
597.1520, 6309.086
598.3210, 5319.887
599.4890, 4561.773
600.6570, 3215.742
601.8250, 2707.793
602.9930, 2184.926
604.1610, 1500.145
605.3290, 1393.773
606.4960, 1579.828
607.6630, 1305.289
608.8300, 1491.836
609.9970, 1791.480
611.1640, 1924.242
612.3300, 2493.141
613.4970, 3070.160
614.6630, 3721.285
615.8290, 4352.520
616.9950, 5330.863
618.1610, 6428.316
619.3260, 7245.871
620.4920, 7369.508
621.6570, 6972.223
622.8220, 6578.016
623.9870, 5587.887
625.1520, 4761.836
626.3160, 4271.855
627.4810, 3419.957
628.6450, 2769.133
629.8090, 2172.383
630.9730, 1760.711
632.1370, 1868.109
633.3000, 1646.582
634.4640, 1667.133
635.6270, 1366.758
636.7900, 1587.449
637.9530, 1599.219
639.1160, 1623.059
640.2780, 2120.969
641.4410, 2275.949
642.6030, 2918.023
643.7650, 3118.164
644.9270, 4106.371
646.0890, 4856.656
647.2500, 5642.035
648.4120, 6630.484
649.5730, 7182.012
650.7340, 7539.609
651.8950, 8143.273
653.0560, 7986.008
654.2160, 7973.867
655.3770, 7246.801
656.5370, 6372.809
657.6970, 5370.895
658.8570, 4479.047
660.0170, 3967.277
661.1760, 3231.570
662.3360, 2383.977
663.4950, 1759.453
664.6540, 1474.000
665.8130, 1027.633
666.9720, 813.3242
668.1310, 419.0820
669.2890, 197.9297
670.4470, 45.89062
671.6050, 84.07031
672.7630, 302.0039
673.9210, 403.5078
675.0790, 393.1523
676.2360, 570.4180
677.3930, 616.9062
678.5510, 523.6758
679.7080, 506.6758
680.8640, 528.8477
682.0210, 502.2539
683.1770, 595.8555
684.3340, 571.7344
685.4900, 229.8438
686.6460, 352.0273
687.8020, 245.3086
688.9570, 343.6992
690.1130, 58.78906
691.2680, 181.6992
692.4230, 393.7383
693.5780, 408.2031
694.7330, 465.7422
695.8880, 604.3086
697.0420, 1023.918
698.1960, 1434.566
699.3510, 1637.250
700.5040, 1978.969
701.6580, 2566.742
702.8120, 2927.574
703.9650, 3336.477
705.1190, 3623.453
706.2720, 4106.496
707.4250, 4425.594
708.5780, 4890.715
709.7300, 5665.867
710.8830, 6418.051
712.0350, 7182.254
713.1870, 8301.484
714.3390, 9614.742
715.4910, 11131.02
716.6430, 12561.33
717.7940, 13861.66
718.9460, 14398.00
720.0970, 14599.47
721.2480, 14668.78
722.3990, 13622.19
723.5500, 12573.63
724.7000, 11055.09
725.8500, 9915.562
727.0010, 8621.059
728.1510, 7623.578
729.3010, 6836.109
730.4500, 6188.660
731.6000, 5697.223
732.7490, 5165.809
733.8980, 4738.402
735.0470, 4388.016
736.1960, 4660.645
737.3450, 3815.281
738.4940, 4409.938
739.6420, 4478.605
740.7900, 4293.281
741.9380, 4298.969
743.0860, 4663.672
744.2340, 4403.387
745.3810, 4172.117
746.5290, 4662.883
747.6760, 4202.691
748.8230, 4697.527
749.9700, 4573.418
751.1170, 4732.371
752.2630, 4798.328
753.4100, 4936.344
754.5560, 5164.367
755.7020, 5390.457
756.8480, 5263.566
757.9940, 5473.730
759.1390, 5608.840
760.2850, 5774.152
761.4300, 6022.457
762.5750, 6326.812
763.7200, 6679.242
764.8650, 6995.277
766.0100, 7391.648
767.1540, 7747.594
768.2980, 8234.043
769.4420, 8716.496
770.5860, 9215.941
771.7300, 9690.648
772.8740, 10268.57
774.0170, 10828.78
775.1610, 11460.96
776.3040, 12141.90
777.4470, 12860.67
778.5900, 13766.07
779.7320, 14629.90
780.8750, 15575.27
782.0170, 16913.85
783.1590, 18402.79
784.3010, 20023.45
785.4430, 21455.03
786.5850, 23050.42
787.7260, 24873.05
788.8680, 26204.62
790.0090, 27578.78
791.1500, 28135.75
792.2910, 28432.44
793.4310, 28413.41
794.5720, 28070.52
795.7120, 27320.38
796.8520, 26575.61
797.9920, 25644.67
799.1320, 24579.84
800.2720, 23753.14
801.4120, 22860.97
802.5510, 21582.33
803.6900, 20578.85
804.8290, 19562.65
805.9680, 18662.63
807.1070, 18153.63
808.2450, 17121.89
809.3840, 16753.19
810.5220, 16108.56
811.6600, 15266.66
812.7980, 14396.12
813.9360, 13743.59
815.0730, 13608.04
816.2110, 12712.55
817.3480, 12033.23
818.4850, 11242.95
819.6220, 10628.30
820.7590, 9550.359
821.8960, 8733.055
823.0320, 8109.695
824.1680, 7209.863
825.3040, 6580.709
826.4400, 6142.520
827.5760, 5713.812
828.7120, 5287.230
829.8470, 5052.016
830.9830, 4728.641
832.1180, 4539.801
833.2530, 4456.688
834.3880, 4315.430
835.5220, 4241.082
836.6570, 4325.297
837.7910, 4735.484
838.9250, 4632.648
840.0590, 4671.783
841.1930, 4700.887
842.3270, 4716.967
843.4600, 4994.016
844.5940, 4724.035
845.7270, 4826.025
846.8600, 4410.982
847.9930, 4521.910
849.1250, 4780.809
850.2580, 4411.672
851.3900, 4389.504
852.5230, 3870.303
853.6550, 3722.070
854.7870, 3658.803
855.9180, 3443.500
857.0500, 3141.166
858.1810, 2738.795
859.3130, 2560.389
860.4440, 2185.947
861.5750, 2184.471
862.7050, 1975.957
863.8360, 1919.406
864.9660, 1756.820
866.0970, 1829.197
867.2270, 1678.533
868.3570, 1283.834
869.4870, 1353.094
870.6160, 1079.318
871.7460, 974.5000
872.8750, 926.6465
874.0040, 837.7500
875.1330, 745.8457
876.2620, 768.8379
877.3910, 549.1660
878.5190, 552.1074
879.6470, 441.7559
880.7760, 616.5527
881.9040, 518.9375
883.0310, 634.5234
884.1590, 516.9961
885.2870, 620.8945
886.4140, 436.7051
887.5410, 224.9043
888.6680, 453.2266
889.7950, 327.0234
890.9220, 485.6484
892.0480, 355.9844
893.1750, 451.9727
894.3010, 218.7617
895.4270, 226.3652
896.5530, 317.9844
897.6790, 327.1035
898.8040, 286.5918
899.9300, 328.3438
901.0550, 511.3477
902.1800, 394.8496
903.3050, 444.3281
904.4300, 275.4863
905.5540, 474.4316
906.6790, 187.1133
907.8030, 157.7344
908.9270, 241.2930
910.0510, 374.7910
911.1750, 481.2305
912.2990, 182.6094
913.4220, 427.9238
914.5450, 2.818359
915.6690, 315.3320
916.7920, 231.4219
917.9140, 85.44922
919.0370, 31.59961
920.1600, 233.2285
921.2820, 24.99219
922.4040, 220.6660
923.5260, 111.2734
924.6480, 144.8066
925.7700, 163.7324
926.8910, 49.53711
928.0130, 84.71875
929.1340, 7.177734
930.2550, 178.8125
931.3760, 28.73633
932.4970, 77.98438
933.6170, 120.6855
934.7380, 24.89062
935.8580, 90.37305
936.9780, 45.22656
938.0980, 212.0410
939.2180, 39.24219
940.3370, 44.64648
941.4570, 148.6699
942.5760, 70.87695
943.6950, 108.2051
944.8140, 107.7012
945.9330, 39.25781
947.0520, 101.8320
948.1700, 63.45703
949.2890, 133.9277
950.4070, 79.40430
951.5250, 174.0625
952.6430, 92.41211
953.7600, 73.04688
954.8780, 63.48242
955.9950, 82.91211
957.1120, 38.30078
958.2290, 174.7422
959.3460, 32.71289
960.4630, 67.84570
961.5800, 98.55469
962.6960, 65.88086
963.8120, 288.1816
964.9280, 9.585938
966.0440, 270.5312
967.1600, 102.5781
968.2760, 284.5430
969.3910, 146.4395
970.5060, 598.2578
971.6210, 704.0098
972.7360, 901.6973
973.8510, 920.3164
974.9660, 1114.184
976.0800, 1218.363
977.1950, 1530.789
978.3090, 1731.146
979.4230, 2159.439
980.5370, 2903.668
981.6500, 3715.832
982.7640, 4833.928
983.8770, 6677.961
984.9900, 8699.926
986.1030, 11262.83
987.2160, 13821.68
988.3290, 16728.46
989.4420, 18926.18
990.5540, 19361.83
991.6660, 17834.42
992.7780, 14875.95
993.8900, 11730.40
995.0020, 9034.789
996.1140, 6456.117
997.2250, 4992.441
998.3360, 3836.713
999.4470, 3066.936
1000.558, 2221.094
1001.669, 1983.188
1002.780, 1460.221
1003.890, 1170.186
1005.001, 829.0898
1006.111, 730.9277
1007.221, 595.7012
1008.331, 600.4121
1009.440, 525.0566
1010.550, 373.6387
1011.659, 530.1523
1012.768, 278.6016
1013.877, 239.9824
1014.986, 19.71289
1016.095, 23.52734
1017.204, 9.531250
1018.312, 93.52148
1019.420, 108.7324
1020.528, 315.8848
1021.636, 86.56641
1022.744, 197.8262
1023.852, 156.8574
1024.959, 62.26562
1026.066, 116.7012
1027.173, 34.84180
1028.280, 1.111328
1029.387, 209.4922
1030.494, 107.0957
1031.600, 193.8633
1032.707, 28.15625
1033.813, 116.0781
1034.919, 156.9258
1036.025, 308.6973
1037.130, 370.4043
1038.236, 407.0469
1039.341, 505.6250
1040.446, 621.8828
1041.552, 625.8535
1042.656, 800.1836
1043.761, 786.5273
1044.866, 1181.812
1045.970, 1245.666
1047.074, 999.8359
1048.179, 1162.498
1049.282, 1488.555
1050.386, 967.3301
1051.490, 1449.684
1052.593, 1424.234
1053.697, 1256.809
1054.800, 1271.500
1055.903, 1297.885
1057.006, 1214.252
1058.108, 1293.955
1059.211, 1602.795
1060.313, 1355.832
1061.415, 1620.512
1062.517, 1675.992
1063.619, 1534.641
1064.721, 1505.859
1065.823, 1539.162
1066.924, 1525.295
1068.025, 1418.217
1069.126, 1523.547
1070.227, 1578.264
1071.328, 1639.746
1072.429, 1528.877
1073.529, 1360.496
1074.629, 1472.547
1075.729, 1425.439
1076.829, 1440.957
1077.929, 1528.475
1079.029, 1490.256
1080.128, 1484.076
1081.228, 1476.273
1082.327, 1421.385
1083.426, 1370.062
1084.525, 1357.193
1085.623, 1279.811
1086.722, 1361.184
1087.820, 1396.207
1088.919, 1330.854
1090.017, 1432.240
1091.115, 1344.004
1092.212, 1243.113
1093.310, 1350.463
1094.407, 1184.727
1095.505, 1145.408
1096.602, 1456.068
1097.699, 1414.834
1098.795, 1136.330
1099.892, 1345.381
1100.989, 1238.846
1102.085, 1202.344
1103.181, 1441.219
1104.277, 1360.064
1105.373, 1295.869
1106.469, 1470.645
1107.564, 1334.385
1108.660, 1210.092
1109.755, 1134.770
1110.850, 1371.412
1111.945, 1092.023
1113.040, 1315.605
1114.134, 1277.156
1115.229, 1153.678
1116.323, 1245.230
1117.417, 1150.496
1118.511, 1290.770
1119.605, 1395.176
1120.698, 1080.645
1121.792, 1311.992
1122.885, 963.3105
1123.978, 1135.602
1125.071, 1146.867
1126.164, 912.1055
1127.257, 1143.316
1128.349, 1271.635
1129.442, 872.4785
1130.534, 1035.973
1131.626, 1004.080
1132.718, 960.6094
1133.810, 1255.664
1134.901, 989.6973
1135.993, 937.1211
1137.084, 1243.102
1138.175, 1065.062
1139.266, 981.9980
1140.357, 999.0977
1141.448, 1041.016
1142.538, 1155.570
1143.628, 1022.453
1144.719, 836.5859
1145.809, 958.5098
1146.898, 977.7988
1147.988, 1220.824
1149.078, 865.8984
1150.167, 1028.482
1151.256, 910.0977
1152.345, 810.2559
1153.434, 914.2344
1154.523, 875.6719
1155.612, 796.2188
1156.700, 644.9941
1157.788, 718.0527
1158.877, 703.2578
1159.964, 818.5781
1161.052, 733.8281
1162.140, 947.5137
1163.227, 889.7656
1164.315, 866.7129
1165.402, 813.3242
1166.489, 745.3887
1167.576, 661.4121
1168.663, 567.6953
1169.749, 563.8301
1170.836, 536.7656
1171.922, 570.3965
1173.008, 683.0293
1174.094, 722.6582
1175.180, 567.2891
1176.265, 693.9180
1177.351, 571.5488
1178.436, 630.1797
1179.521, 647.8320
1180.606, 384.4824
1181.691, 708.1367
1182.776, 529.7988
1183.860, 577.5137
1184.944, 366.2305
1186.029, 367.1270
1187.113, 371.7070
1188.197, 333.4551
1189.280, 372.2500
1190.364, 398.1152
1191.447, 566.9902
1192.531, 253.9082
1193.614, 470.8574
1194.697, 246.8438
1195.779, 588.8516
1196.862, 548.8730
1197.945, 321.9551
1199.027, 401.0566
1200.109, 356.1738
1201.191, 460.3301
1202.273, 335.4941
1203.355, 431.6816
1204.436, 303.9102
1205.518, 239.2051
1206.599, 374.5527
1207.680, 250.9570
1208.761, 284.4180
1209.842, 407.9219
1210.922, 540.4824
1212.003, 519.0918
1213.083, 254.7168
1214.163, 229.3613
1215.243, 162.0801
1216.323, 276.8223
1217.402, 193.6152
1218.482, 200.4277
1219.561, 265.2988
1220.641, 218.9492
1221.720, 108.2012
1222.798, 238.2188
1223.877, 303.2891
1224.956, 366.3789
1226.034, 9.496094
1227.112, 501.6250
1228.191, 132.7949
1229.269, 270.9746
1230.346, 138.1797
1231.424, 175.4004
1232.501, 135.6426
1233.579, 4.894531
1234.656, 58.20312
1235.733, 250.5254
1236.810, 181.8594
1237.886, 129.2148
1238.963, 55.58203
1240.039, 205.9648
1241.116, 134.3613
1242.192, 57.77148
1243.268, 278.2012
1244.343, 134.6465
1245.419, 3.894531
1246.494, 43.41992
1247.570, 78.83203
1248.645, 246.5625
1249.720, 6.923828
1250.795, 138.6035
1251.869, 271.1484
1252.944, 66.71094
1254.018, 57.28906
1255.093, 116.8828
1256.167, 128.4961
1257.240, 341.8730
1258.314, 72.35742
1259.388, 143.8418
1260.461, 201.6543
1261.535, 26.83398
1262.608, 19.69727
1263.681, 175.2461
1264.753, 25.18555
1265.826, 107.3945
1266.899, 187.9941
1267.971, 23.61328
1269.043, 12.75000
1270.115, 215.3555
1271.187, 42.02930
1272.259, 244.0254
1273.330, 271.9844
1274.402, 181.7207
1275.473, 103.5195
1276.544, 407.3242
1277.615, 325.1797
1278.686, 305.0762
1279.756, 335.0430
1280.827, 316.0781
1281.897, 383.4473
1282.967, 433.5742
1284.037, 449.7227
1285.107, 498.8574
1286.177, 508.6055
1287.247, 546.8457
1288.316, 583.2363
1289.385, 575.1758
1290.454, 725.2148
1291.523, 658.8203
1292.592, 798.5781
1293.661, 980.3164
1294.729, 1101.084
1295.797, 1054.877
1296.866, 1013.691
1297.934, 1258.527
1299.001, 1200.387
1300.069, 1448.262
1301.137, 1301.158
1302.204, 1454.078
1303.271, 1252.102
1304.338, 1621.061
1305.405, 1799.504
1306.472, 1650.500
1307.539, 2026.520
1308.605, 2331.557
1309.671, 2374.613
1310.737, 2450.691
1311.803, 2723.686
1312.869, 3008.795
1313.935, 3783.926
1315.000, 4070.215
1316.066, 4457.391
1317.131, 4542.811
1318.196, 4685.984
1319.261, 4279.229
1320.326, 4061.254
1321.390, 3677.541
1322.455, 3402.322
1323.519, 3195.654
1324.583, 2867.008
1325.647, 2594.383
1326.711, 2583.781
1327.775, 2367.197
1328.838, 1913.637
1329.902, 2090.098
1330.965, 1949.582
1332.028, 1766.084
1333.091, 1374.609
1334.153, 1385.154
1335.216, 1187.721
