##NAMES=Painite
##RRUFFID=R060957
##IDEAL CHEMISTRY=CaZr^4+^Al_9_O_15_(BO_3_)
##LOCALITY=Ohngaing Village, Mogok, Burma
##OWNER=RRUFF
##SOURCE=Marcus Origlieri
##DESCRIPTION=Single crystal, reddish-brown to orangish prism section, several prism forms, small transparent areas.
##STATUS=The identification of this mineral has been confirmed by X-ray diffraction.
##URL=rruff.info/R060957
##PIN_ID=M01225
##ORIENTATION=Laser parallel to -a* (-1 0 0). Fiducial mark perpendicular to laser is parallel to c [0 0 1]
171.6380, 0.0000000E+00
172.8670, 1.302734
174.0950, 183.3730
175.3240, 42.20508
176.5520, 152.3887
177.7810, 35.21094
179.0090, 216.1562
180.2370, 210.0176
181.4640, 149.3418
182.6920, 148.1484
183.9190, 18.65625
185.1460, 228.5840
186.3730, 133.5508
187.6000, 317.0156
188.8270, 41.82617
190.0530, 302.8789
191.2800, 124.8809
192.5060, 150.1152
193.7320, 242.8047
194.9580, 123.6582
196.1830, 213.7676
197.4090, 229.7129
198.6340, 280.4609
199.8590, 407.9883
201.0840, 568.2812
202.3090, 760.3477
203.5340, 670.2109
204.7580, 824.9395
205.9820, 838.5254
207.2060, 1046.955
208.4300, 1242.271
209.6540, 1627.070
210.8780, 1906.088
212.1010, 2649.064
213.3240, 3326.902
214.5470, 3999.055
215.7700, 5107.314
216.9930, 6256.010
218.2150, 7528.314
219.4380, 8981.646
220.6600, 10570.98
221.8820, 11865.99
223.1040, 12563.68
224.3260, 12672.09
225.5470, 11992.22
226.7680, 10589.11
227.9900, 8652.762
229.2110, 6904.197
230.4310, 5462.420
231.6520, 4126.570
232.8720, 2978.656
234.0930, 2141.756
235.3130, 1787.113
236.5330, 1274.918
237.7530, 876.5645
238.9720, 864.9980
240.1920, 651.2207
241.4110, 360.2480
242.6300, 483.0898
243.8490, 199.7598
245.0680, 153.9414
246.2860, 189.7012
247.5040, 56.70312
248.7230, 36.96094
249.9410, 18.72852
251.1590, 147.2539
252.3760, 126.6582
253.5940, 122.1113
254.8110, 228.5195
256.0280, 120.3477
257.2450, 20.66797
258.4620, 120.9336
259.6790, 425.2246
260.8950, 411.5371
262.1120, 369.8691
263.3280, 190.2207
264.5440, 145.5938
265.7600, 62.97656
266.9750, 210.3672
268.1910, 299.7637
269.4060, 434.1699
270.6210, 552.9980
271.8360, 410.9883
273.0510, 735.4043
274.2650, 855.8223
275.4800, 824.2461
276.6940, 1071.672
277.9080, 1346.104
279.1220, 1459.541
280.3360, 1882.984
281.5490, 2149.434
282.7630, 2386.891
283.9760, 2444.377
285.1890, 2488.688
286.4020, 2319.064
287.6150, 2004.396
288.8270, 1786.693
290.0400, 1494.988
291.2520, 1267.324
292.4640, 984.4766
293.6760, 879.7500
294.8870, 747.4141
296.0990, 749.3965
297.3100, 638.7402
298.5210, 653.4297
299.7320, 659.8418
300.9430, 983.0273
302.1540, 872.5801
303.3640, 1094.143
304.5750, 1233.721
305.7850, 1335.312
306.9950, 1265.920
308.2050, 1170.537
309.4140, 1062.168
310.6240, 661.8086
311.8330, 657.4609
313.0420, 449.1289
314.2510, 279.8125
315.4600, 288.5117
316.6680, 49.22461
317.8770, 159.7051
319.0850, 13.11719
320.2930, 57.25586
321.5010, 88.49023
322.7090, 27.93750
323.9160, 13.73828
325.1240, 97.29492
326.3310, 11.13281
327.5380, 124.4258
328.7450, 38.01562
329.9520, 137.0156
331.1580, 131.6660
332.3650, 124.1855
333.5710, 99.37109
334.7770, 124.9004
335.9830, 5.259766
337.1880, 24.40039
338.3940, 28.51758
339.5990, 47.60742
340.8040, 97.52148
342.0090, 109.9648
343.2140, 141.3379
344.4190, 222.7422
345.6230, 192.7285
346.8280, 231.7480
348.0320, 259.6504
349.2360, 217.5898
350.4400, 218.5156
351.6430, 168.4238
352.8470, 323.3242
354.0500, 224.2129
355.2530, 354.0820
356.4560, 151.8457
357.6590, 172.5781
358.8620, 377.2637
360.0640, 377.8516
361.2660, 540.4023
362.4680, 568.9316
363.6700, 692.4355
364.8720, 851.8965
366.0740, 898.3438
367.2750, 1311.779
368.4760, 1367.201
369.6770, 1893.625
370.8780, 2532.037
372.0790, 3532.443
373.2800, 4380.846
374.4800, 5539.242
375.6800, 6784.672
376.8800, 8276.117
378.0800, 9977.584
379.2800, 11358.05
380.4790, 12467.52
381.6790, 12657.99
382.8780, 12454.46
384.0770, 11049.92
385.2760, 9281.408
386.4750, 7343.914
387.6730, 5570.484
388.8720, 4074.107
390.0700, 2824.738
391.2680, 2200.324
392.4660, 1526.723
393.6630, 1157.348
394.8610, 884.2559
396.0580, 751.4590
397.2550, 679.0371
398.4520, 395.0059
399.6490, 314.8867
400.8460, 383.7344
402.0420, 177.9238
403.2390, 257.9199
404.4350, 241.8477
405.6310, 243.7988
406.8270, 127.7676
408.0220, 139.2422
409.2180, 38.39258
410.4130, 405.5625
411.6080, 134.5703
412.8030, 3.599609
413.9980, 100.6445
415.1920, 97.29297
416.3870, 7.761719
417.5810, 152.8340
418.7750, 82.92969
419.9690, 112.9531
421.1630, 128.8457
422.3570, 7.246094
423.5500, 114.6426
424.7430, 83.54102
425.9360, 277.4414
427.1290, 111.3906
428.3220, 134.6562
429.5150, 105.7266
430.7070, 374.8203
431.8990, 318.9395
433.0910, 455.0840
434.2830, 679.2520
435.4750, 1066.398
436.6670, 1137.574
437.8580, 1506.764
439.0490, 1746.943
440.2400, 2272.152
441.4310, 2768.311
442.6220, 3122.455
443.8130, 3752.521
445.0030, 4661.584
446.1930, 5451.680
447.3830, 5779.807
448.5730, 5903.965
449.7630, 5486.156
450.9520, 4576.383
452.1420, 3651.641
453.3310, 2660.934
454.5200, 2071.256
455.7090, 1754.613
456.8980, 1275.008
458.0860, 1172.434
459.2740, 1302.893
460.4630, 1242.049
461.6510, 1147.561
462.8380, 1250.822
464.0260, 1209.344
465.2140, 1420.996
466.4010, 1461.662
467.5880, 1667.123
468.7750, 1738.398
469.9620, 1539.447
471.1490, 1420.139
472.3350, 1331.312
473.5220, 1351.348
474.7080, 1257.781
475.8940, 1364.748
477.0800, 1498.336
478.2650, 1586.391
479.4510, 1873.527
480.6360, 2020.641
481.8210, 2593.969
483.0060, 3340.984
484.1910, 3604.979
485.3760, 4426.053
486.5600, 5369.160
487.7440, 6041.301
488.9290, 6688.477
490.1130, 7316.688
491.2960, 7439.631
492.4800, 7539.213
493.6630, 7272.527
494.8470, 6726.881
496.0300, 6059.270
497.2130, 4990.693
498.3960, 4228.154
499.5780, 3742.652
500.7610, 3517.189
501.9430, 3165.768
503.1250, 2810.383
504.3070, 3012.041
505.4890, 3016.740
506.6710, 3272.477
507.8520, 3374.260
509.0330, 3741.082
510.2140, 3990.947
511.3950, 4270.615
512.5760, 4883.566
513.7570, 5556.562
514.9370, 6231.602
516.1170, 7132.035
517.2980, 8577.809
518.4780, 10230.62
519.6570, 12363.69
520.8370, 14590.95
522.0160, 16908.70
523.1960, 19648.43
524.3750, 22534.83
525.5540, 25052.27
526.7320, 27337.76
527.9110, 28407.05
529.0890, 28505.04
530.2680, 27348.63
531.4460, 25354.47
532.6240, 22522.36
533.8010, 19406.82
534.9790, 16174.28
536.1560, 13495.15
537.3340, 11078.92
538.5110, 9072.891
539.6880, 7531.922
540.8650, 6466.004
542.0410, 5407.141
543.2180, 4318.332
544.3940, 3933.590
545.5700, 3245.908
546.7460, 2789.273
547.9220, 2543.695
549.0970, 2180.168
550.2730, 1913.641
551.4480, 1521.168
552.6230, 1453.812
553.7980, 1101.508
554.9730, 1042.242
556.1470, 897.0488
557.3210, 709.5508
558.4960, 870.7344
559.6700, 575.7070
560.8440, 609.7324
562.0170, 437.7461
563.1910, 473.9902
564.3640, 449.5547
565.5380, 467.7480
566.7110, 745.7500
567.8840, 568.7363
569.0560, 701.4062
570.2290, 742.8906
571.4010, 1159.436
572.5740, 1329.039
573.7460, 1337.699
574.9180, 1308.422
576.0890, 1469.203
577.2610, 1361.043
578.4320, 1471.943
579.6040, 1444.904
580.7750, 1577.924
581.9450, 1980.006
583.1160, 2037.148
584.2870, 2352.354
585.4570, 2721.619
586.6270, 2956.945
587.7980, 3629.338
588.9670, 3829.789
590.1370, 4444.303
591.3070, 4363.881
592.4760, 4189.521
593.6450, 3980.223
594.8140, 3179.986
595.9830, 2989.812
597.1520, 2401.701
598.3210, 1994.654
599.4890, 1744.668
600.6570, 1669.746
601.8250, 1426.891
602.9930, 1377.102
604.1610, 1023.398
605.3290, 1256.764
606.4960, 1243.234
607.6630, 1516.775
608.8300, 1441.398
609.9970, 1949.129
611.1640, 2124.934
612.3300, 2643.855
613.4970, 3035.863
614.6630, 3790.988
615.8290, 4338.225
616.9950, 5212.598
618.1610, 6062.074
619.3260, 7312.664
620.4920, 8089.334
621.6570, 8630.076
622.8220, 9270.891
623.9870, 9400.777
625.1520, 9276.734
626.3160, 8998.766
627.4810, 8095.863
628.6450, 7236.027
629.8090, 5926.258
630.9730, 5009.613
632.1370, 4000.045
633.3000, 3202.553
634.4640, 2640.125
635.6270, 2195.779
636.7900, 1553.500
637.9530, 1264.283
639.1160, 1190.133
640.2780, 864.0625
641.4410, 592.0547
642.6030, 780.1445
643.7650, 529.2988
644.9270, 355.5293
646.0890, 355.8477
647.2500, 284.2305
648.4120, 79.67578
649.5730, 201.1953
650.7340, 67.18164
651.8950, 58.50781
653.0560, 80.25781
654.2160, 100.0742
655.3770, 15.04492
656.5370, 217.1035
657.6970, 119.1641
658.8570, 174.1973
660.0170, 54.84375
661.1760, 56.04883
662.3360, 53.87500
663.4950, 128.3906
664.6540, 67.71680
665.8130, 176.8789
666.9720, 121.4473
668.1310, 377.9863
669.2890, 287.5859
670.4470, 132.1953
671.6050, 4.783203
672.7630, 169.3125
673.9210, 91.83203
675.0790, 40.69141
676.2360, 67.71680
677.3930, 251.9688
678.5510, 145.7344
679.7080, 327.6035
680.8640, 357.5547
682.0210, 610.5742
683.1770, 699.6621
684.3340, 1083.812
685.4900, 1398.020
686.6460, 1569.297
687.8020, 2237.645
688.9570, 2576.074
690.1130, 3123.629
691.2680, 3497.275
692.4230, 3663.986
693.5780, 3989.758
694.7330, 4024.592
695.8880, 3937.486
697.0420, 3409.461
698.1960, 3158.502
699.3510, 2712.621
700.5040, 2582.816
701.6580, 2374.100
702.8120, 1941.475
703.9650, 1814.906
705.1190, 1848.428
706.2720, 1561.029
707.4250, 1492.754
708.5780, 1444.562
709.7300, 1264.426
710.8830, 1380.342
712.0350, 1011.311
713.1870, 952.3340
714.3390, 1191.406
715.4910, 1019.533
716.6430, 925.7090
717.7940, 1118.938
718.9460, 1082.215
720.0970, 1145.545
721.2480, 1223.926
722.3990, 1280.354
723.5500, 1335.592
724.7000, 1407.359
725.8500, 1365.938
727.0010, 1501.562
728.1510, 1378.234
729.3010, 1518.955
730.4500, 1613.723
731.6000, 1676.535
732.7490, 1863.398
733.8980, 1790.305
735.0470, 1840.258
736.1960, 1903.258
737.3450, 2101.303
738.4940, 2217.393
739.6420, 2180.527
740.7900, 2092.709
741.9380, 2202.691
743.0860, 2234.988
744.2340, 2329.336
745.3810, 2328.740
746.5290, 2322.215
747.6760, 2120.746
748.8230, 2280.332
749.9700, 2083.979
751.1170, 1975.658
752.2630, 2207.387
753.4100, 2063.201
754.5560, 1932.098
755.7020, 2089.012
756.8480, 2088.025
757.9940, 2175.084
759.1390, 2023.180
760.2850, 2235.311
761.4300, 2199.498
762.5750, 2128.900
763.7200, 2515.684
764.8650, 2496.973
766.0100, 2540.770
767.1540, 2775.123
768.2980, 2966.326
769.4420, 2990.873
770.5860, 3124.768
771.7300, 3371.242
772.8740, 3325.664
774.0170, 3656.193
775.1610, 3670.752
776.3040, 3801.334
777.4470, 3966.035
778.5900, 3971.668
779.7320, 4022.316
780.8750, 4433.000
782.0170, 4399.316
783.1590, 4461.986
784.3010, 4876.742
785.4430, 4902.518
786.5850, 4990.857
787.7260, 5237.516
788.8680, 5229.369
790.0090, 5351.229
791.1500, 5633.105
792.2910, 5592.234
793.4310, 5656.689
794.5720, 5376.973
795.7120, 5402.602
796.8520, 5312.764
797.9920, 5292.590
799.1320, 5263.920
800.2720, 4862.334
801.4120, 5066.818
802.5510, 4771.422
803.6900, 4948.465
804.8290, 4814.773
805.9680, 4588.492
807.1070, 4688.100
808.2450, 4697.176
809.3840, 4539.131
810.5220, 4635.609
811.6600, 4487.941
812.7980, 4350.891
813.9360, 4257.342
815.0730, 4542.246
816.2110, 4114.332
817.3480, 4083.369
818.4850, 3751.941
819.6220, 3496.516
820.7590, 3161.695
821.8960, 2897.400
823.0320, 2657.832
824.1680, 2420.613
825.3040, 2190.086
826.4400, 2079.328
827.5760, 1962.420
828.7120, 1674.182
829.8470, 1759.074
830.9830, 1859.352
832.1180, 1693.600
833.2530, 1739.844
834.3880, 1783.088
835.5220, 1945.555
836.6570, 2054.531
837.7910, 1852.865
838.9250, 2131.100
840.0590, 2284.332
841.1930, 1979.559
842.3270, 2085.906
843.4600, 2036.121
844.5940, 2145.330
845.7270, 2068.533
846.8600, 1903.729
847.9930, 1959.916
849.1250, 1820.096
850.2580, 1821.264
851.3900, 1669.428
852.5230, 1512.578
853.6550, 1333.719
854.7870, 1223.504
855.9180, 1162.975
857.0500, 997.0859
858.1810, 911.1836
859.3130, 804.2695
860.4440, 711.3457
861.5750, 513.4062
862.7050, 633.4551
863.8360, 645.4902
864.9660, 230.5098
866.0970, 146.5156
867.2270, 393.5098
868.3570, 307.4863
869.4870, 351.4492
870.6160, 19.39453
871.7460, 113.3223
872.8750, 80.23438
874.0040, 309.1289
875.1330, 133.7070
876.2620, 68.56641
877.3910, 5.394531
878.5190, 71.59180
879.6470, 38.72070
880.7760, 22.91211
881.9040, 160.2949
883.0310, 32.74219
884.1590, 162.9941
885.2870, 113.6621
886.4140, 153.3652
887.5410, 99.81641
888.6680, 134.8906
889.7950, 62.38867
890.9220, 208.3398
892.0480, 53.42773
893.1750, 275.1230
894.3010, 208.1797
895.4270, 153.5938
896.5530, 87.14453
897.6790, 19.50391
898.8040, 12.23438
899.9300, 161.5078
901.0550, 48.75195
902.1800, 102.9590
903.3050, 183.8613
904.4300, 12.83398
905.5540, 19.13281
906.6790, 153.0566
907.8030, 23.05469
908.9270, 151.7695
910.0510, 108.5586
911.1750, 196.3164
912.2990, 6.958984
913.4220, 352.7051
914.5450, 67.66406
915.6690, 221.8730
916.7920, 3.375000
917.9140, 33.17969
919.0370, 217.1836
920.1600, 228.5137
921.2820, 28.81055
922.4040, 108.9434
923.5260, 11.81641
924.6480, 151.2480
925.7700, 161.2812
926.8910, 98.27539
928.0130, 57.23242
929.1340, 166.1484
930.2550, 95.06250
931.3760, 188.0449
932.4970, 63.70703
933.6170, 7.583984
934.7380, 102.9414
935.8580, 89.58789
936.9780, 14.07617
938.0980, 25.49609
939.2180, 166.8730
940.3370, 6.226563
941.4570, 32.42188
942.5760, 125.8945
943.6950, 158.1875
944.8140, 144.4453
945.9330, 37.69336
947.0520, 39.81641
948.1700, 135.9551
949.2890, 1.941406
950.4070, 99.99805
951.5250, 19.18164
952.6430, 25.55273
953.7600, 59.22656
954.8780, 77.52930
955.9950, 138.4219
957.1120, 52.95508
958.2290, 22.43359
959.3460, 40.15039
960.4630, 20.34570
961.5800, 65.59180
962.6960, 56.54102
963.8120, 98.61523
964.9280, 162.9570
966.0440, 237.9941
967.1600, 315.5840
968.2760, 353.4941
969.3910, 23.63477
970.5060, 15.84766
971.6210, 149.8516
972.7360, 252.5137
973.8510, 315.1367
974.9660, 338.7188
976.0800, 143.2617
977.1950, 249.7637
978.3090, 251.2246
979.4230, 469.6465
980.5370, 551.0312
981.6500, 812.3750
982.7640, 1011.682
983.8770, 1242.584
984.9900, 1441.170
986.1030, 1779.357
987.2160, 2118.504
988.3290, 2411.613
989.4420, 2426.680
990.5540, 2704.709
991.6660, 2379.699
992.7780, 2004.652
993.8900, 1578.564
995.0020, 1348.439
996.1140, 998.2754
997.2250, 770.0723
998.3360, 642.8301
999.4470, 388.5488
1000.558, 264.2285
1001.669, 393.8711
1002.780, 324.4785
1003.890, 219.0449
1005.001, 205.5723
1006.111, 186.0645
1007.221, 231.5156
1008.331, 88.93164
1009.440, 171.3027
1010.550, 60.63477
1011.659, 31.82812
1012.768, 16.37500
1013.877, 13.51562
1014.986, 56.39844
1016.095, 10.41016
1017.204, 8.503906
1018.312, 15.63867
1019.420, 143.1445
1020.528, 71.89258
1021.636, 136.4023
1022.744, 53.16406
1023.852, 24.35547
1024.959, 78.90625
1026.066, 105.5918
1027.173, 71.64062
1028.280, 288.8281
1029.387, 43.01367
1030.494, 177.0586
1031.600, 77.91797
1032.707, 171.3965
1033.813, 149.3652
1034.919, 222.2578
1036.025, 309.8906
1037.130, 384.7812
1038.236, 479.4844
1039.341, 551.8418
1040.446, 623.6152
1041.552, 753.4395
1042.656, 762.1543
1043.761, 875.8398
1044.866, 781.4941
1045.970, 1082.025
1047.074, 1195.623
1048.179, 966.2012
1049.282, 1111.740
1050.386, 979.6426
1051.490, 1072.186
1052.593, 1196.641
1053.697, 1334.070
1054.800, 1147.932
1055.903, 1048.467
1057.006, 1235.043
1058.108, 1186.367
1059.211, 1181.670
1060.313, 1231.711
1061.415, 946.0703
1062.517, 1086.299
1063.619, 1083.184
1064.721, 1386.320
1065.823, 1046.635
1066.924, 1290.998
1068.025, 1200.330
1069.126, 1227.969
1070.227, 1107.482
1071.328, 1231.551
1072.429, 1200.586
1073.529, 1008.562
1074.629, 1214.070
1075.729, 1084.906
1076.829, 1264.865
1077.929, 1267.762
1079.029, 1179.848
1080.128, 1167.959
1081.228, 1040.729
1082.327, 1173.871
1083.426, 1049.826
1084.525, 1051.824
1085.623, 1068.279
1086.722, 1065.723
1087.820, 1154.561
1088.919, 931.2188
1090.017, 1169.430
1091.115, 939.6387
1092.212, 1181.152
1093.310, 1199.893
1094.407, 1102.781
1095.505, 1123.994
1096.602, 945.0684
1097.699, 732.7500
1098.795, 939.4551
1099.892, 1058.154
1100.989, 1191.844
1102.085, 1054.303
1103.181, 1018.242
1104.277, 1099.824
1105.373, 1025.494
1106.469, 1184.166
1107.564, 1107.830
1108.660, 941.3809
1109.755, 871.0508
1110.850, 973.7168
1111.945, 1029.377
1113.040, 1020.033
1114.134, 999.6855
1115.229, 851.3340
1116.323, 1060.979
1117.417, 987.6211
1118.511, 787.2598
1119.605, 969.8965
1120.698, 1163.535
1121.792, 917.1738
1122.885, 910.8281
1123.978, 979.4805
1125.071, 789.1387
1126.164, 954.7930
1127.257, 636.6035
1128.349, 1049.260
1129.442, 1159.916
1130.534, 937.5742
1131.626, 737.2402
1132.718, 920.9062
1133.810, 792.5781
1134.901, 881.2480
1135.993, 996.9219
1137.084, 770.6094
1138.175, 858.4473
1139.266, 991.1406
1140.357, 903.1367
1141.448, 824.0156
1142.538, 887.5293
1143.628, 866.0781
1144.719, 827.4688
1145.809, 815.7812
1146.898, 814.8887
1147.988, 839.9180
1149.078, 778.1289
1150.167, 575.9102
1151.256, 615.6387
1152.345, 561.6094
1153.434, 627.9375
1154.523, 519.6094
1155.612, 621.2344
1156.700, 589.4824
1157.788, 574.1133
1158.877, 621.3672
1159.964, 662.2461
1161.052, 582.9922
1162.140, 549.9258
1163.227, 550.4727
1164.315, 609.4570
1165.402, 536.4766
1166.489, 386.5156
1167.576, 582.5703
1168.663, 395.7012
1169.749, 454.8633
1170.836, 563.0469
1171.922, 496.2480
1173.008, 468.4844
1174.094, 595.7383
1175.180, 625.0098
1176.265, 615.3027
1177.351, 650.9277
1178.436, 615.6406
1179.521, 569.3652
1180.606, 574.7754
1181.691, 406.2207
1182.776, 435.7051
1183.860, 617.2129
1184.944, 469.7383
1186.029, 580.2930
1187.113, 525.9102
1188.197, 428.5645
1189.280, 555.2402
1190.364, 282.9375
1191.447, 284.6680
1192.531, 248.4258
1193.614, 319.2051
1194.697, 190.0059
1195.779, 428.8945
1196.862, 408.8125
1197.945, 579.7695
1199.027, 374.7930
1200.109, 211.1270
1201.191, 196.2129
1202.273, 194.3457
1203.355, 315.5000
1204.436, 402.6953
1205.518, 367.9355
1206.599, 282.2031
1207.680, 417.4961
1208.761, 431.8145
1209.842, 243.1641
1210.922, 314.5508
1212.003, 177.0137
1213.083, 169.0078
1214.163, 154.0938
1215.243, 148.7168
1216.323, 261.3770
1217.402, 255.0703
1218.482, 142.7910
1219.561, 253.5449
1220.641, 209.3320
1221.720, 417.5312
1222.798, 504.4102
1223.877, 302.9844
1224.956, 221.5254
1226.034, 273.5508
1227.112, 365.6055
1228.191, 196.6895
1229.269, 396.6426
1230.346, 159.7793
1231.424, 277.9473
1232.501, 441.1660
1233.579, 111.0215
1234.656, 46.31836
1235.733, 249.4805
1236.810, 142.8359
1237.886, 329.7422
1238.963, 235.1562
1240.039, 152.5957
1241.116, 201.0645
1242.192, 153.5645
1243.268, 246.0918
1244.343, 107.6484
1245.419, 206.2344
1246.494, 73.84961
1247.570, 308.4941
1248.645, 90.16797
1249.720, 114.0273
1250.795, 48.75977
1251.869, 77.34180
1252.944, 160.1328
1254.018, 83.15820
1255.093, 155.0098
1256.167, 18.10742
1257.240, 16.80273
1258.314, 141.7422
1259.388, 300.7207
1260.461, 114.4316
1261.535, 350.4688
1262.608, 249.5352
1263.681, 190.6328
1264.753, 172.7598
1265.826, 204.1816
1266.899, 16.62891
1267.971, 128.5879
1269.043, 238.8379
1270.115, 18.87695
1271.187, 85.37500
1272.259, 274.1055
1273.330, 69.51367
1274.402, 266.9648
1275.473, 86.45508
1276.544, 280.0078
1277.615, 239.6113
1278.686, 509.2559
1279.756, 343.9512
1280.827, 146.6758
1281.897, 351.4375
1282.967, 317.2812
1284.037, 333.1621
1285.107, 276.0938
1286.177, 297.0879
1287.247, 425.1562
1288.316, 297.2578
1289.385, 357.8652
1290.454, 304.8848
1291.523, 210.8145
1292.592, 260.0703
1293.661, 392.5195
1294.729, 420.8398
1295.797, 436.7422
1296.866, 405.2441
1297.934, 425.9883
1299.001, 230.4355
1300.069, 223.9121
1301.137, 96.41797
1302.204, 104.3086
1303.271, 118.1172
1304.338, 163.8223
1305.405, 204.4570
1306.472, 241.1250
1307.539, 290.8242
1308.605, 233.5547
1309.671, 334.3164
1310.737, 238.1191
1311.803, 346.9531
1312.869, 32.81250
1313.935, 199.7012
1315.000, 153.6172
1316.066, 271.5664
1317.131, 265.5449
1318.196, 242.6406
1319.261, 281.0039
1320.326, 101.1094
1321.390, 320.2031
1322.455, 216.3262
1323.519, 338.4785
1324.583, 108.6621
1325.647, 138.8750
1326.711, 252.1152
1327.775, 16.61328
1328.838, 208.6855
1329.902, 87.01367
1330.965, 189.3691
1332.028, 87.74805
1333.091, 100.1445
1334.153, 129.5664
1335.216, 75.01562
1336.279, 104.4922
1337.341, 198.9883
1338.403, 183.5039
1339.465, 82.02930
1340.527, 261.5820
1341.588, 291.1621
1342.650, 175.7695
