##NAMES=Painite
##RRUFFID=R060957
##IDEAL CHEMISTRY=CaZr^4+^Al_9_O_15_(BO_3_)
##LOCALITY=Ohngaing Village, Mogok, Burma
##OWNER=RRUFF
##SOURCE=Marcus Origlieri
##DESCRIPTION=Single crystal, reddish-brown to orangish prism section, several prism forms, small transparent areas.
##STATUS=The identification of this mineral has been confirmed by X-ray diffraction.
##URL=rruff.info/R060957
##PIN_ID=M01433
##ORIENTATION=Laser parallel to c* (0 0 1). Fiducial mark perpendicular to laser is parallel to a [1 0 0]
163.0300, 0.0000000E+00
164.2600, 165.7793
165.4900, 53.52344
166.7200, 101.8945
167.9500, 336.3438
169.1790, 573.0039
170.4080, 857.7266
171.6380, 1482.221
172.8670, 2186.221
174.0950, 3074.986
175.3240, 3805.492
176.5520, 5226.238
177.7810, 7668.988
179.0090, 11240.51
180.2370, 15811.12
181.4640, 20618.29
182.6920, 22460.09
183.9190, 17980.51
185.1460, 11484.66
186.3730, 6901.484
187.6000, 4049.857
188.8270, 2392.811
190.0530, 1419.119
191.2800, 709.4219
192.5060, 614.2695
193.7320, 271.0723
194.9580, 484.1973
196.1830, 81.00391
197.4090, 294.8496
198.6340, 96.95312
199.8590, 151.5098
201.0840, 392.1777
202.3090, 284.9316
203.5340, 532.0586
204.7580, 595.2812
205.9820, 978.0645
207.2060, 1053.092
208.4300, 1409.193
209.6540, 1722.438
210.8780, 2287.457
212.1010, 2743.711
213.3240, 3197.258
214.5470, 4067.086
215.7700, 5159.184
216.9930, 6815.533
218.2150, 8406.127
219.4380, 10185.94
220.6600, 11701.00
221.8820, 11763.18
223.1040, 10421.49
224.3260, 8460.912
225.5470, 6910.449
226.7680, 5083.102
227.9900, 3806.365
229.2110, 2606.795
230.4310, 2389.803
231.6520, 1637.842
232.8720, 1072.922
234.0930, 1136.049
235.3130, 646.2305
236.5330, 522.5020
237.7530, 209.9941
238.9720, 2.742188
240.1920, 121.7480
241.4110, 34.01367
242.6300, 21.47852
243.8490, 226.7402
245.0680, 39.21484
246.2860, 2.087891
247.5040, 302.4648
248.7230, 345.1484
249.9410, 99.68164
251.1590, 371.0703
252.3760, 89.33008
253.5940, 173.4629
254.8110, 150.5430
256.0280, 19.43164
257.2450, 73.50586
258.4620, 284.6172
259.6790, 472.7734
260.8950, 807.9492
262.1120, 587.1582
263.3280, 664.3965
264.5440, 556.6680
265.7600, 637.9824
266.9750, 496.3340
268.1910, 508.7324
269.4060, 472.8164
270.6210, 357.6699
271.8360, 317.2188
273.0510, 479.8184
274.2650, 256.4082
275.4800, 399.9316
276.6940, 107.2500
277.9080, 284.4043
279.1220, 302.1445
280.3360, 478.5117
281.5490, 605.9219
282.7630, 720.4941
283.9760, 884.3789
285.1890, 938.3984
286.4020, 1036.553
287.6150, 1071.848
288.8270, 889.2812
290.0400, 882.8555
291.2520, 916.9473
292.4640, 735.3613
293.6760, 764.9180
294.8870, 785.9961
296.0990, 731.4512
297.3100, 880.9160
298.5210, 1110.529
299.7320, 1430.287
300.9430, 1657.188
302.1540, 2186.229
303.3640, 2655.402
304.5750, 3385.713
305.7850, 3991.158
306.9950, 4622.742
308.2050, 5149.461
309.4140, 4986.021
310.6240, 4568.879
311.8330, 4405.436
313.0420, 3680.424
314.2510, 3714.688
315.4600, 2540.123
316.6680, 2250.660
317.8770, 1416.258
319.0850, 1098.852
320.2930, 565.4199
321.5010, 733.9395
322.7090, 268.3926
323.9160, 134.7734
325.1240, 151.0859
326.3310, 120.3301
327.5380, 86.77148
328.7450, 243.0332
329.9520, 53.75195
331.1580, 205.3203
332.3650, 248.7207
333.5710, 246.9590
334.7770, 339.0605
335.9830, 510.0469
337.1880, 597.9375
338.3940, 935.7500
339.5990, 910.4902
340.8040, 1273.176
342.0090, 1563.816
343.2140, 2049.418
344.4190, 2231.992
345.6230, 2796.402
346.8280, 3380.770
348.0320, 4169.969
349.2360, 5009.684
350.4400, 5843.205
351.6430, 6108.945
352.8470, 6035.121
354.0500, 5911.943
355.2530, 5021.559
356.4560, 3849.115
357.6590, 3018.768
358.8620, 2018.516
360.0640, 1535.352
361.2660, 1273.279
362.4680, 1011.301
363.6700, 833.4102
364.8720, 725.6113
366.0740, 906.9004
367.2750, 993.2754
368.4760, 993.7422
369.6770, 992.2930
370.8780, 1371.938
372.0790, 1211.670
373.2800, 1763.486
374.4800, 1663.383
375.6800, 2137.361
376.8800, 2638.420
378.0800, 3246.555
379.2800, 3828.770
380.4790, 4351.066
381.6790, 4467.441
382.8780, 4307.834
384.0770, 4208.801
385.2760, 3589.484
386.4750, 3384.863
387.6730, 3338.213
388.8720, 3511.971
390.0700, 4146.479
391.2680, 4932.441
392.4660, 6092.236
393.6630, 7574.906
394.8610, 9282.762
396.0580, 11502.00
397.2550, 13840.28
398.4520, 15916.64
399.6490, 16243.79
400.8460, 15199.92
402.0420, 12428.59
403.2390, 9436.102
404.4350, 6966.779
405.6310, 4934.664
406.8270, 3363.705
408.0220, 2421.914
409.2180, 1854.289
410.4130, 1096.758
411.6080, 780.3359
412.8030, 703.9941
413.9980, 491.7363
415.1920, 139.5605
416.3870, 150.5352
417.5810, 214.5703
418.7750, 117.5527
419.9690, 400.4707
421.1630, 452.3867
422.3570, 180.2832
423.5500, 521.1191
424.7430, 284.9609
425.9360, 178.7539
427.1290, 123.4844
428.3220, 236.8633
429.5150, 412.3047
430.7070, 792.8379
431.8990, 1665.463
433.0910, 2584.180
434.2830, 3831.988
435.4750, 4885.828
436.6670, 4940.863
437.8580, 4932.062
439.0490, 4551.219
440.2400, 3748.016
441.4310, 2904.906
442.6220, 2228.889
443.8130, 2071.967
445.0030, 2225.139
446.1930, 2470.406
447.3830, 2687.764
448.5730, 2998.217
449.7630, 2878.760
450.9520, 2568.396
452.1420, 2316.125
453.3310, 2343.932
454.5200, 2386.809
455.7090, 2841.756
456.8980, 3172.768
458.0860, 3959.846
459.2740, 4996.990
460.4630, 6265.197
461.6510, 7633.471
462.8380, 9870.811
464.0260, 12516.21
465.2140, 14871.68
466.4010, 18429.22
467.5880, 20347.83
468.7750, 21021.50
469.9620, 19849.23
471.1490, 17469.86
472.3350, 15163.74
473.5220, 12766.41
474.7080, 11306.44
475.8940, 10621.54
477.0800, 9836.723
478.2650, 8825.975
479.4510, 8046.305
480.6360, 6715.715
481.8210, 5538.201
483.0060, 4354.768
484.1910, 3489.414
485.3760, 2859.141
486.5600, 2115.945
487.7440, 2025.834
488.9290, 1810.840
490.1130, 1738.930
491.2960, 1623.102
492.4800, 1454.363
493.6630, 1605.711
494.8470, 1223.150
496.0300, 1001.682
497.2130, 1025.312
498.3960, 571.0410
499.5780, 279.8652
500.7610, 149.7891
501.9430, 160.8086
503.1250, 43.92969
504.3070, 188.1445
505.4890, 150.4609
506.6710, 111.8711
507.8520, 219.3789
509.0330, 489.9844
510.2140, 385.6875
511.3950, 743.4902
512.5760, 588.3906
513.7570, 718.3867
514.9370, 790.4805
516.1170, 896.6699
517.2980, 1228.959
518.4780, 1552.346
519.6570, 1682.830
520.8370, 2153.412
522.0160, 2497.094
523.1960, 3595.871
524.3750, 3898.746
525.5540, 4969.725
526.7320, 5828.842
527.9110, 6722.070
529.0890, 7724.426
530.2680, 8554.922
531.4460, 9523.609
532.6240, 10411.42
533.8010, 12276.73
534.9790, 14013.39
536.1560, 16289.84
537.3340, 18631.38
538.5110, 20567.31
539.6880, 21256.47
540.8650, 20560.95
542.0410, 18151.94
543.2180, 15195.19
544.3940, 11716.33
545.5700, 9320.660
546.7460, 6832.750
547.9220, 5497.336
549.0970, 4156.168
550.2730, 3161.857
551.4480, 2500.354
552.6230, 2099.752
553.7980, 1337.916
554.9730, 1412.162
556.1470, 987.4883
557.3210, 1119.895
558.4960, 1060.195
559.6700, 728.0215
560.8440, 1016.680
562.0170, 1299.965
563.1910, 1365.756
564.3640, 1553.393
565.5380, 1918.801
566.7110, 2533.102
567.8840, 3010.080
569.0560, 4173.172
570.2290, 4643.477
571.4010, 5505.865
572.5740, 5951.336
573.7460, 6388.885
574.9180, 5963.521
576.0890, 6064.236
577.2610, 5440.031
578.4320, 5275.910
579.6040, 5352.871
580.7750, 5415.914
581.9450, 5909.041
583.1160, 6304.246
584.2870, 6871.533
585.4570, 7961.902
586.6270, 9290.355
587.7980, 10768.89
588.9670, 11554.50
590.1370, 12657.20
591.3070, 12860.97
592.4760, 12445.82
593.6450, 11405.75
594.8140, 9732.768
595.9830, 8139.859
597.1520, 6572.027
598.3210, 5157.277
599.4890, 4044.605
600.6570, 3134.012
601.8250, 2556.494
602.9930, 1883.057
604.1610, 1666.699
605.3290, 1189.416
606.4960, 1090.213
607.6630, 1092.084
608.8300, 681.0352
609.9970, 693.0605
611.1640, 909.1660
612.3300, 799.3809
613.4970, 916.6719
614.6630, 1491.043
615.8290, 1435.490
616.9950, 1659.016
618.1610, 1948.615
619.3260, 2183.291
620.4920, 2157.043
621.6570, 2240.873
622.8220, 2215.777
623.9870, 2157.760
625.1520, 1960.816
626.3160, 1581.949
627.4810, 1440.158
628.6450, 1341.441
629.8090, 1178.801
630.9730, 1014.234
632.1370, 1007.740
633.3000, 1096.322
634.4640, 1113.979
635.6270, 1240.707
636.7900, 1371.512
637.9530, 1711.393
639.1160, 2031.354
640.2780, 2556.387
641.4410, 3067.492
642.6030, 3464.668
643.7650, 4140.916
644.9270, 5079.234
646.0890, 5811.629
647.2500, 6902.098
648.4120, 7775.674
649.5730, 8968.316
650.7340, 9487.049
651.8950, 9898.852
653.0560, 9883.730
654.2160, 9519.715
655.3770, 8419.805
656.5370, 7649.975
657.6970, 6370.254
658.8570, 5431.604
660.0170, 4546.047
661.1760, 3730.561
662.3360, 2932.141
663.4950, 2608.838
664.6540, 1944.523
665.8130, 1278.432
666.9720, 1169.352
668.1310, 709.3320
669.2890, 657.3750
670.4470, 276.4863
671.6050, 196.6621
672.7630, 121.0918
673.9210, 82.81836
675.0790, 480.4980
676.2360, 546.3516
677.3930, 282.3809
678.5510, 393.4277
679.7080, 229.6094
680.8640, 345.8125
682.0210, 182.0859
683.1770, 414.4082
684.3340, 306.8672
685.4900, 511.3887
686.6460, 289.0664
687.8020, 346.7656
688.9570, 305.5801
690.1130, 14.48633
691.2680, 71.31445
692.4230, 64.86719
693.5780, 122.1152
694.7330, 237.4375
695.8880, 481.8066
697.0420, 719.2305
698.1960, 787.7188
699.3510, 1090.281
700.5040, 1391.902
701.6580, 1546.637
702.8120, 1775.494
703.9650, 2402.414
705.1190, 2721.473
706.2720, 3148.615
707.4250, 3740.824
708.5780, 4571.088
709.7300, 5325.393
710.8830, 6663.732
712.0350, 7570.109
713.1870, 9070.523
714.3390, 10673.98
715.4910, 12563.46
716.6430, 14236.98
717.7940, 15769.54
718.9460, 16915.13
720.0970, 17041.76
721.2480, 16009.42
722.3990, 15270.11
723.5500, 13645.83
724.7000, 12016.59
725.8500, 10297.38
727.0010, 8942.193
728.1510, 7559.041
729.3010, 6581.918
730.4500, 6147.822
731.6000, 5185.758
732.7490, 4841.723
733.8980, 4201.713
735.0470, 3948.730
736.1960, 3934.775
737.3450, 3725.844
738.4940, 3649.943
739.6420, 3766.066
740.7900, 3733.215
741.9380, 3864.395
743.0860, 3591.600
744.2340, 3644.830
745.3810, 3586.092
746.5290, 3562.848
747.6760, 3659.297
748.8230, 3651.066
749.9700, 3820.455
751.1170, 3917.924
752.2630, 3950.438
753.4100, 4162.998
754.5560, 4204.625
755.7020, 4288.316
756.8480, 4373.062
757.9940, 4438.887
759.1390, 4734.742
760.2850, 4974.652
761.4300, 4892.637
762.5750, 5275.680
763.7200, 5574.801
764.8650, 5639.891
766.0100, 6129.002
767.1540, 6313.131
768.2980, 6893.273
769.4420, 7005.670
770.5860, 7801.834
771.7300, 7902.010
772.8740, 8500.188
774.0170, 8494.475
775.1610, 9335.762
776.3040, 10334.30
777.4470, 10722.51
778.5900, 11473.07
779.7320, 12704.32
780.8750, 13743.23
782.0170, 14988.45
783.1590, 15967.71
784.3010, 17460.45
785.4430, 19184.95
786.5850, 20703.47
787.7260, 21706.36
788.8680, 22900.20
790.0090, 23894.62
791.1500, 24715.80
792.2910, 24712.46
793.4310, 24696.77
794.5720, 24702.09
795.7120, 23151.37
796.8520, 22995.96
797.9920, 22107.45
799.1320, 21223.83
800.2720, 20602.27
801.4120, 20180.36
802.5510, 19369.31
803.6900, 18411.83
804.8290, 18112.28
805.9680, 17044.76
807.1070, 16139.89
808.2450, 15534.82
809.3840, 14711.88
810.5220, 14074.19
811.6600, 13231.92
812.7980, 12790.64
813.9360, 12237.66
815.0730, 11280.11
816.2110, 11171.11
817.3480, 10313.32
818.4850, 9795.756
819.6220, 8715.637
820.7590, 8172.564
821.8960, 7524.883
823.0320, 6685.252
824.1680, 6409.152
825.3040, 5732.221
826.4400, 5385.092
827.5760, 4893.211
828.7120, 4587.219
829.8470, 4445.787
830.9830, 4342.371
832.1180, 4153.104
833.2530, 3999.684
834.3880, 3911.559
835.5220, 3850.203
836.6570, 3839.461
837.7910, 3923.416
838.9250, 3970.988
840.0590, 4079.539
841.1930, 4298.062
842.3270, 4087.562
843.4600, 4392.035
844.5940, 4325.479
845.7270, 4175.898
846.8600, 4387.287
847.9930, 4098.652
849.1250, 3921.982
850.2580, 3964.287
851.3900, 3895.559
852.5230, 3568.801
853.6550, 3458.012
854.7870, 3337.193
855.9180, 2927.340
857.0500, 2803.455
858.1810, 2504.537
859.3130, 2372.586
860.4440, 2168.744
861.5750, 2012.244
862.7050, 1849.529
863.8360, 1748.439
864.9660, 1719.316
866.0970, 1590.158
867.2270, 1262.961
868.3570, 1305.727
869.4870, 1066.457
870.6160, 1163.150
871.7460, 1126.805
872.8750, 827.4199
874.0040, 704.4707
875.1330, 631.4512
876.2620, 545.4492
877.3910, 655.3613
878.5190, 587.2109
879.6470, 673.9668
880.7760, 519.8828
881.9040, 736.5547
883.0310, 612.5371
884.1590, 270.3379
885.2870, 242.9023
886.4140, 267.7168
887.5410, 426.5059
888.6680, 522.4180
889.7950, 452.1113
890.9220, 534.0703
892.0480, 603.7324
893.1750, 291.5078
894.3010, 488.8086
895.4270, 360.8262
896.5530, 325.4160
897.6790, 355.5449
898.8040, 195.9883
899.9300, 382.9336
901.0550, 329.8984
902.1800, 303.9609
903.3050, 344.0312
904.4300, 175.9180
905.5540, 383.1445
906.6790, 328.5605
907.8030, 267.6699
908.9270, 100.7207
910.0510, 103.7031
911.1750, 89.61523
912.2990, 379.4512
913.4220, 187.2324
914.5450, 265.9473
915.6690, 152.6016
916.7920, 435.1895
917.9140, 124.7148
919.0370, 93.16992
920.1600, 62.45117
921.2820, 228.7910
922.4040, 11.96875
923.5260, 182.0449
924.6480, 25.05469
925.7700, 39.03320
926.8910, 78.24414
928.0130, 30.39453
929.1340, 88.06055
930.2550, 144.3301
931.3760, 28.35547
932.4970, 129.8359
933.6170, 138.9492
934.7380, 121.0098
935.8580, 169.8555
936.9780, 97.64844
938.0980, 10.64062
939.2180, 270.9531
940.3370, 263.4785
941.4570, 87.93359
942.5760, 100.3066
943.6950, 42.59180
944.8140, 77.21289
945.9330, 86.13477
947.0520, 52.81250
948.1700, 83.21094
949.2890, 188.2559
950.4070, 34.56250
951.5250, 108.6172
952.6430, 117.9062
953.7600, 109.7168
954.8780, 3.310547
955.9950, 100.1035
957.1120, 111.6074
958.2290, 238.1543
959.3460, 41.13672
960.4630, 2.417969
961.5800, 156.3340
962.6960, 31.73242
963.8120, 3.724609
964.9280, 28.39648
966.0440, 319.3535
967.1600, 80.03125
968.2760, 364.6172
969.3910, 437.1328
970.5060, 521.5801
971.6210, 522.9570
972.7360, 655.2676
973.8510, 768.5098
974.9660, 937.6816
976.0800, 1221.787
977.1950, 1508.822
978.3090, 1624.787
979.4230, 2081.688
980.5370, 2883.516
981.6500, 3867.275
982.7640, 4845.967
983.8770, 6355.588
984.9900, 7966.141
986.1030, 10370.63
987.2160, 13061.04
988.3290, 15390.39
989.4420, 17195.67
990.5540, 17215.88
991.6660, 15026.02
992.7780, 12438.09
993.8900, 9699.105
995.0020, 7292.062
996.1140, 5346.949
997.2250, 4257.770
998.3360, 3256.523
999.4470, 2563.229
1000.558, 2240.867
1001.669, 1899.436
1002.780, 1178.941
1003.890, 1020.381
1005.001, 625.7578
1006.111, 583.0664
1007.221, 348.3066
1008.331, 356.4746
1009.440, 343.5723
1010.550, 354.5977
1011.659, 190.5488
1012.768, 373.4316
1013.877, 173.2461
1014.986, 47.97656
1016.095, 290.6113
1017.204, 39.17383
1018.312, 46.63281
1019.420, 117.0039
1020.528, 21.81641
1021.636, 8.755859
1022.744, 85.81641
1023.852, 91.03906
1024.959, 55.42188
1026.066, 137.9492
1027.173, 12.33594
1028.280, 48.48438
1029.387, 138.4473
1030.494, 84.59375
1031.600, 65.10156
1032.707, 183.6562
1033.813, 34.18359
1034.919, 301.6172
1036.025, 284.9805
1037.130, 314.2715
1038.236, 598.2539
1039.341, 396.4141
1040.446, 515.5117
1041.552, 756.5410
1042.656, 797.4121
1043.761, 706.2285
1044.866, 998.7363
1045.970, 928.5195
1047.074, 1166.896
1048.179, 1165.527
1049.282, 1239.441
1050.386, 1324.980
1051.490, 1356.420
1052.593, 1378.338
1053.697, 1347.424
1054.800, 1533.438
1055.903, 1480.012
1057.006, 1310.584
1058.108, 1369.516
1059.211, 1194.633
1060.313, 1290.205
1061.415, 1216.064
1062.517, 1414.863
1063.619, 1297.639
1064.721, 1239.039
1065.823, 1407.482
1066.924, 1469.965
1068.025, 1152.336
1069.126, 1513.990
1070.227, 1352.715
1071.328, 1599.818
1072.429, 1522.926
1073.529, 1504.941
1074.629, 1376.238
1075.729, 1461.680
1076.829, 1473.924
1077.929, 1236.490
1079.029, 1510.443
1080.128, 1450.760
1081.228, 1284.787
1082.327, 1255.162
1083.426, 1204.061
1084.525, 1410.098
1085.623, 1223.713
1086.722, 1275.688
1087.820, 1452.801
1088.919, 1217.359
1090.017, 1419.139
1091.115, 1313.914
1092.212, 1347.309
1093.310, 1239.066
1094.407, 1120.799
1095.505, 1373.762
1096.602, 1295.428
1097.699, 1335.021
1098.795, 1110.057
1099.892, 982.9023
1100.989, 1315.047
1102.085, 954.3594
1103.181, 1194.641
1104.277, 1094.887
1105.373, 1160.098
1106.469, 1259.277
1107.564, 1317.422
1108.660, 1239.537
1109.755, 1222.619
1110.850, 1224.438
1111.945, 1178.395
1113.040, 1206.672
1114.134, 1140.627
1115.229, 1135.555
1116.323, 1133.451
1117.417, 1256.318
1118.511, 1217.156
1119.605, 949.9668
1120.698, 1201.746
1121.792, 967.5020
1122.885, 1347.225
1123.978, 1238.627
1125.071, 1179.299
1126.164, 1114.098
1127.257, 1108.717
1128.349, 910.3105
1129.442, 921.3984
1130.534, 1039.592
1131.626, 1071.109
1132.718, 1220.600
1133.810, 1036.730
1134.901, 888.1855
1135.993, 928.7461
1137.084, 1137.293
1138.175, 967.6934
1139.266, 914.5957
1140.357, 913.5078
1141.448, 752.3418
1142.538, 876.1973
1143.628, 974.6035
1144.719, 1034.500
1145.809, 958.1895
1146.898, 880.0547
1147.988, 899.7773
1149.078, 939.1797
1150.167, 849.9785
1151.256, 667.4629
1152.345, 587.9141
1153.434, 752.1777
1154.523, 783.5996
1155.612, 958.6934
1156.700, 725.0254
1157.788, 551.1836
1158.877, 601.7539
1159.964, 728.5449
1161.052, 812.7031
1162.140, 742.2598
1163.227, 595.4531
1164.315, 516.0781
1165.402, 550.6230
1166.489, 520.0078
1167.576, 652.3281
1168.663, 485.7988
1169.749, 706.8711
1170.836, 653.6895
1171.922, 653.7559
1173.008, 794.8184
1174.094, 444.8887
1175.180, 539.9570
1176.265, 722.0312
1177.351, 615.1055
1178.436, 412.1797
1179.521, 603.2559
1180.606, 509.3359
1181.691, 515.4160
1182.776, 621.5254
1183.860, 380.6543
1184.944, 471.8223
1186.029, 460.9941
1187.113, 349.2012
1188.197, 170.4141
1189.280, 331.6426
1190.364, 449.9160
1191.447, 553.2383
1192.531, 360.5762
1193.614, 943.9902
1194.697, 334.4277
1195.779, 170.9023
1196.862, 499.3906
1197.945, 85.89258
1199.027, 380.4551
1200.109, 479.0312
1201.191, 189.6211
1202.273, 171.2441
1203.355, 332.8770
1204.436, 312.5176
1205.518, 410.1758
1206.599, 334.8516
1207.680, 292.5508
1208.761, 165.3008
1209.842, 295.1074
1210.922, 218.9355
1212.003, 299.8164
1213.083, 213.7812
1214.163, 195.2344
1215.243, 40.82812
1216.323, 57.94531
1217.402, 40.59375
1218.482, 50.25781
1219.561, 92.49219
1220.641, 52.79102
1221.720, 107.1914
1222.798, 353.6152
1223.877, 31.07812
1224.956, 86.61719
1226.034, 326.1855
1227.112, 143.7930
1228.191, 95.44336
1229.269, 52.11133
1230.346, 2.994141
1231.424, 23.51367
1232.501, 46.23438
1233.579, 103.9727
1234.656, 234.7266
1235.733, 17.49219
1236.810, 212.2773
1237.886, 87.07617
1238.963, 59.89062
1240.039, 11.72461
1241.116, 33.28320
1242.192, 315.4375
1243.268, 159.3223
1244.343, 182.2207
1245.419, 287.1504
1246.494, 169.7480
1247.570, 240.5000
1248.645, 44.04297
1249.720, 233.0410
1250.795, 114.0586
1251.869, 34.09375
1252.944, 76.85156
1254.018, 31.20117
1255.093, 117.7266
1256.167, 59.33594
1257.240, 102.4160
1258.314, 32.48242
1259.388, 154.3711
1260.461, 91.71875
1261.535, 16.83984
1262.608, 74.02148
1263.681, 255.8086
1264.753, 55.02539
1265.826, 10.85156
1266.899, 19.94531
1267.971, 122.1738
1269.043, 312.4277
1270.115, 99.69922
1271.187, 355.9961
1272.259, 96.68359
1273.330, 158.9316
1274.402, 117.0508
1275.473, 139.5801
1276.544, 330.2656
1277.615, 128.6973
1278.686, 299.1660
1279.756, 245.6699
1280.827, 305.2520
1281.897, 333.8848
1282.967, 538.5645
1284.037, 366.3145
1285.107, 601.1328
1286.177, 505.0137
1287.247, 518.9727
1288.316, 842.9785
1289.385, 653.0410
1290.454, 884.1855
1291.523, 904.1582
1292.592, 1193.400
1293.661, 915.6719
1294.729, 1123.980
1295.797, 1233.674
1296.866, 977.3887
1297.934, 1109.771
1299.001, 1361.172
1300.069, 1568.596
1301.137, 1686.041
1302.204, 1559.521
1303.271, 1696.010
1304.338, 1620.521
1305.405, 1687.053
1306.472, 1878.604
1307.539, 1995.178
1308.605, 2353.949
1309.671, 2386.570
1310.737, 2744.076
1311.803, 2841.604
1312.869, 3553.285
1313.935, 3938.992
1315.000, 4421.840
1316.066, 4986.594
1317.131, 5262.371
1318.196, 5457.328
1319.261, 5017.547
1320.326, 4818.395
1321.390, 4092.887
1322.455, 3855.787
1323.519, 3562.812
1324.583, 3158.535
1325.647, 2832.285
1326.711, 2468.270
1327.775, 2321.607
1328.838, 2206.307
1329.902, 2107.359
1330.965, 2049.434
1332.028, 1965.529
1333.091, 1886.650
1334.153, 1454.791
1335.216, 1455.955
