##NAMES=Paravauxite
##RRUFFID=R040179
##IDEAL CHEMISTRY=Fe^2+^Al_2_(PO_4_)_2_(OH)_2_&#183;8H_2_O
##LOCALITY=Mina Siglo XX, Llallagua, Bolivia
##OWNER=RRUFF
##SOURCE=University of Arizona Mineral Museum
##DESCRIPTION=Colorless short prismatic crystals in subparallel groups
##STATUS=The identification of this mineral has been confirmed by X-ray diffraction and chemical analysis
##URL=rruff.info/R040179
##MEASURED CHEMISTRY=(Fe_0.93_Mg_0.03_Mn_0.02_)Al_1.94_(P_2.05_O_4_)_2_((OH)_0.99_F_0.01_)_2_Â·8H_2_O
##PIN_ID=M00312
##ORIENTATION=Laser parallel to a* (1 0 0). Fiducial mark perpendicular to laser is parallel to b [0 1 0]
107.995, 0.000
109.387, 6.895
110.777, 274.410
112.168, 238.560
113.559, 378.025
114.949, 240.948
116.339, 471.541
117.729, 734.113
119.119, 1002.165
120.508, 1429.957
121.897, 1722.145
123.286, 2026.552
124.675, 2150.500
126.063, 2308.423
127.452, 2429.807
128.840, 2514.197
130.228, 2601.199
131.615, 2650.475
133.003, 2620.616
134.390, 2496.400
135.777, 2450.903
137.164, 2286.970
138.550, 2084.677
139.937, 2013.994
141.323, 1684.750
142.709, 1846.738
144.094, 1459.779
145.480, 1323.727
146.865, 1228.456
148.250, 919.861
149.635, 783.854
151.019, 603.349
152.403, 422.277
153.788, 194.591
155.171, 105.247
156.555, 58.215
157.939, 29.534
159.322, 13.024
160.705, 26.488
162.088, 147.851
163.470, 211.764
164.853, 266.764
166.235, 409.505
167.617, 347.725
168.998, 532.241
170.380, 313.490
171.761, 481.989
173.142, 301.435
174.523, 519.592
175.904, 771.476
177.284, 635.105
178.664, 957.495
180.044, 978.658
181.424, 1176.606
182.803, 1281.349
184.183, 1195.895
185.562, 1350.253
186.940, 1234.432
188.319, 1248.438
189.698, 965.279
191.076, 985.924
192.454, 1129.314
193.831, 1192.525
195.209, 1425.604
196.586, 1188.579
197.963, 1301.475
199.340, 991.306
200.717, 961.087
202.093, 931.828
203.470, 1022.536
204.846, 1315.218
206.221, 1327.877
207.597, 1720.519
208.972, 1793.143
210.347, 2145.753
211.722, 2158.351
213.097, 1960.936
214.472, 2304.127
215.846, 1895.471
217.220, 2019.145
218.594, 1551.789
219.967, 1622.128
221.341, 1590.078
222.714, 1492.721
224.087, 1743.193
225.460, 1886.794
226.832, 2370.865
228.204, 2774.652
229.577, 3427.641
230.948, 4240.383
232.320, 4783.746
233.692, 5524.826
235.063, 5461.199
236.434, 5597.128
237.805, 5206.209
239.175, 4455.262
240.545, 3984.323
241.916, 3113.398
243.286, 2702.480
244.655, 2191.570
246.025, 1820.664
247.394, 1689.757
248.763, 1308.843
250.132, 1267.914
251.501, 938.966
252.869, 1065.993
254.237, 743.994
255.605, 845.968
256.973, 766.914
258.340, 613.832
259.708, 820.723
261.075, 665.586
262.442, 882.422
263.808, 927.229
265.175, 916.010
266.541, 1134.764
267.907, 1083.490
269.273, 1452.188
270.639, 1430.858
272.004, 1739.501
273.369, 2134.426
274.734, 2410.532
276.099, 3107.688
277.463, 3415.544
278.828, 4243.948
280.192, 4622.801
281.556, 5052.024
282.919, 4981.563
284.283, 4431.375
285.646, 4081.420
287.009, 3441.668
288.372, 3192.096
289.734, 2862.678
291.097, 2723.400
292.459, 2464.244
293.821, 2315.193
295.183, 2466.238
296.544, 2097.365
297.905, 2098.562
299.266, 1769.820
300.627, 1481.137
301.988, 1482.504
303.348, 1163.916
304.709, 1065.361
306.069, 866.836
307.428, 718.333
308.788, 669.846
310.147, 428.373
311.507, 458.910
312.865, 148.452
314.224, 326.996
315.583, 268.541
316.941, 173.082
318.299, 100.620
319.657, 24.152
321.015, 8.771
322.372, 34.917
323.729, 69.117
325.086, 7.314
326.443, 50.977
327.800, 5.043
329.156, 88.399
330.512, 35.006
331.868, 181.049
333.224, 21.946
334.579, 94.993
335.935, 269.729
337.290, 85.188
338.645, 144.892
339.999, 98.987
341.354, 166.082
342.708, 137.816
344.062, 132.981
345.416, 166.989
346.769, 101.644
348.123, 89.352
349.476, 52.844
350.829, 77.376
352.182, 60.091
353.534, 36.774
354.887, 54.878
356.239, 6.868
357.591, 15.775
358.942, 9.525
360.294, 128.890
361.645, 3.732
362.996, 193.583
364.347, 145.866
365.698, 186.110
367.048, 285.319
368.398, 214.492
369.748, 303.628
371.098, 232.748
372.448, 461.831
373.797, 440.877
375.146, 519.889
376.495, 608.863
377.844, 557.829
379.192, 676.719
380.540, 625.536
381.889, 634.269
383.236, 702.886
384.584, 631.358
385.932, 779.620
387.279, 667.721
388.626, 825.663
389.973, 833.431
391.319, 751.049
392.666, 938.550
394.012, 805.923
395.358, 963.224
396.704, 960.445
398.049, 1137.645
399.394, 1234.790
400.740, 1341.911
402.084, 1629.021
403.429, 1596.107
404.774, 1713.172
406.118, 1790.212
407.462, 1617.242
408.806, 1674.248
410.150, 1551.226
411.493, 1688.203
412.836, 1785.155
414.179, 1782.084
415.522, 2048.990
416.865, 2055.870
418.207, 2392.752
419.549, 2689.609
420.891, 3226.438
422.233, 3753.264
423.575, 4200.061
424.916, 5156.835
426.257, 5833.586
427.598, 7080.308
428.939, 8107.008
430.279, 8743.680
431.619, 9520.329
432.959, 8866.951
434.299, 8713.548
435.639, 7980.139
436.978, 6616.718
438.318, 5873.277
439.657, 4929.814
440.996, 4326.329
442.334, 3452.817
443.673, 2949.277
445.011, 2505.707
446.349, 2122.112
447.687, 2128.487
449.024, 1594.828
450.361, 1701.135
451.699, 1367.407
453.036, 1163.644
454.372, 1209.843
455.709, 1016.017
457.045, 1012.151
458.381, 848.247
459.717, 804.314
461.053, 880.341
462.388, 726.345
463.724, 782.308
465.059, 628.230
466.394, 634.125
467.728, 669.980
469.063, 625.820
470.397, 701.618
471.731, 557.375
473.065, 553.090
474.398, 598.762
475.732, 394.390
477.065, 639.982
478.398, 415.530
479.731, 431.035
481.063, 466.094
482.396, 349.466
483.728, 281.133
485.060, 430.460
486.391, 294.312
487.723, 244.422
489.054, 307.838
490.385, 325.231
491.716, 225.790
493.047, 376.993
494.377, 198.000
495.708, 254.258
497.038, 189.371
498.368, 195.889
499.697, 228.488
501.027, 83.801
502.356, 144.704
503.685, 107.219
505.014, 119.862
506.342, 190.208
507.671, 44.503
508.999, 119.395
510.327, 56.428
511.655, 21.755
512.982, 167.985
514.310, 39.852
515.637, 106.108
516.964, 165.251
518.291, 135.629
519.617, 284.380
520.944, 278.835
522.270, 317.647
523.596, 202.421
524.921, 296.624
526.247, 331.071
527.572, 275.433
528.897, 449.441
530.222, 487.895
531.547, 552.128
532.871, 536.277
534.196, 587.930
535.520, 725.059
536.844, 626.512
538.167, 771.506
539.491, 739.555
540.814, 863.918
542.137, 928.672
543.460, 893.615
544.783, 1077.916
546.105, 981.702
547.427, 1249.009
548.749, 1302.885
550.071, 1242.476
551.393, 1438.820
552.714, 1382.542
554.035, 1579.924
555.356, 1903.305
556.677, 1815.507
557.998, 2299.170
559.318, 2352.462
560.638, 2689.360
561.958, 2992.594
563.278, 3036.553
564.597, 3489.994
565.917, 3506.537
567.236, 3799.990
568.555, 3823.077
569.874, 3391.885
571.192, 3734.914
572.511, 3008.549
573.829, 3062.247
575.147, 2935.186
576.464, 2624.871
577.782, 2867.750
579.099, 2450.600
580.416, 2728.193
581.733, 2620.983
583.050, 2594.088
584.366, 2867.545
585.683, 2620.242
586.999, 2793.324
588.315, 2575.962
589.630, 2618.719
590.946, 2632.160
592.261, 2334.706
593.576, 2527.566
594.891, 2400.395
596.206, 2372.850
597.520, 2275.276
598.834, 2127.672
600.148, 2250.617
601.462, 1903.100
602.776, 1695.588
604.089, 1749.694
605.402, 1562.323
606.715, 1564.918
608.028, 1477.143
609.341, 1269.899
610.653, 1302.266
611.965, 984.359
613.277, 1039.447
614.589, 931.481
615.901, 693.837
617.212, 798.201
618.523, 700.146
619.834, 646.335
621.145, 648.346
622.456, 520.618
623.766, 555.478
625.076, 447.918
626.386, 455.872
627.696, 548.052
629.006, 576.158
630.315, 831.936
631.624, 783.766
632.933, 855.689
634.242, 968.544
635.551, 940.151
636.859, 1101.812
638.167, 1123.313
639.475, 1337.375
640.783, 1308.854
642.090, 1509.892
643.398, 1517.758
644.705, 1378.953
646.012, 1520.084
647.318, 1384.626
648.625, 1535.907
649.931, 1306.946
651.237, 1168.383
652.543, 1284.261
653.849, 1185.477
655.155, 1026.243
656.460, 927.997
657.765, 689.256
659.070, 888.433
660.375, 570.094
661.679, 730.367
662.984, 541.069
664.288, 512.520
665.592, 583.457
666.895, 434.644
668.199, 504.766
669.502, 304.014
670.805, 295.596
672.108, 355.639
673.411, 329.205
674.713, 260.822
676.016, 192.347
677.318, 124.092
678.620, 265.786
679.921, 71.198
681.223, 172.860
682.524, 114.521
683.825, 126.129
685.126, 227.710
686.427, 30.735
687.727, 130.757
689.028, 142.221
690.328, 53.658
691.628, 125.064
692.927, 80.766
694.227, 30.524
695.526, 28.222
696.825, 62.970
698.124, 34.132
699.423, 25.260
700.721, 56.354
702.020, 147.417
703.318, 21.546
704.616, 109.436
705.913, 59.609
707.211, 8.731
708.508, 122.098
709.805, 26.408
711.102, 194.338
712.399, 104.938
713.695, 105.687
714.992, 216.287
716.288, 23.136
717.584, 207.388
718.879, 37.889
720.175, 118.360
721.470, 21.189
722.765, 99.207
724.060, 179.580
725.355, 60.068
726.649, 200.211
727.944, 40.471
729.238, 30.703
730.532, 290.909
731.825, 78.905
733.119, 171.202
734.412, 221.287
735.705, 48.646
736.998, 231.358
738.291, 81.342
739.584, 21.304
740.876, 181.239
742.168, 61.155
743.460, 281.051
744.752, 120.925
746.043, 10.780
747.334, 260.609
748.626, 70.418
749.916, 70.206
751.207, 159.974
752.498, 149.725
753.788, 169.457
755.078, 19.172
756.368, 108.866
757.658, 98.541
758.947, 11.803
760.237, 47.820
761.526, 47.422
762.815, 127.004
764.104, 6.571
765.392, 76.114
766.680, 215.641
767.969, 34.850
769.257, 174.617
770.544, 44.069
771.832, 26.497
773.119, 182.899
774.406, 57.719
775.693, 91.610
776.980, 20.925
778.267, 39.780
779.553, 0.525
780.839, 91.293
782.125, 7.871
783.411, 57.019
784.697, 46.152
785.982, 65.269
787.267, 34.370
788.552, 16.544
789.837, 92.517
791.122, 71.564
792.406, 160.599
793.690, 40.379
794.974, 68.607
796.258, 147.580
797.542, 103.456
798.825, 75.439
800.108, 4.324
801.391, 56.804
802.674, 162.027
803.957, 0.849
805.239, 149.659
806.522, 91.544
807.804, 57.199
809.085, 135.933
810.367, 15.343
811.649, 73.364
812.930, 142.062
814.211, 19.241
815.492, 119.438
816.772, 148.113
818.053, 296.779
819.333, 34.562
820.613, 54.078
821.893, 162.708
823.173, 111.336
824.452, 229.964
825.732, 138.580
827.011, 52.807
828.290, 155.776
829.568, 44.349
830.847, 42.867
832.125, 81.092
833.403, 80.368
834.681, 177.498
835.959, 35.854
837.236, 163.969
838.514, 172.124
839.791, 100.589
841.068, 264.567
842.345, 192.723
843.621, 270.919
844.898, 298.590
846.174, 73.297
847.450, 247.458
848.726, 24.630
850.001, 88.706
851.277, 416.426
852.552, 43.719
853.827, 360.779
855.102, 188.445
856.376, 66.590
857.651, 241.174
858.925, 129.154
860.199, 201.387
861.473, 246.879
862.746, 35.037
864.020, 299.350
865.293, 97.707
866.566, 357.209
867.839, 365.221
869.112, 143.572
870.384, 358.287
871.656, 156.635
872.928, 174.229
874.200, 322.312
875.472, 197.262
876.744, 355.273
878.015, 163.621
879.286, 156.225
880.557, 364.574
881.828, 82.293
883.098, 319.918
884.369, 318.275
885.639, 289.861
886.909, 408.225
888.178, 146.594
889.448, 370.188
890.717, 358.561
891.987, 236.592
893.256, 364.248
894.524, 142.639
895.793, 440.619
897.061, 429.018
898.330, 247.281
899.598, 484.840
900.865, 403.266
902.133, 351.365
903.401, 679.477
904.668, 287.943
905.935, 416.414
907.202, 514.893
908.468, 352.803
909.735, 761.150
911.001, 349.469
912.267, 596.150
913.533, 664.285
914.799, 542.430
916.064, 660.922
917.330, 438.859
918.595, 597.168
919.860, 705.725
921.124, 651.262
922.389, 619.836
923.653, 838.062
924.918, 634.258
926.182, 892.852
927.445, 627.176
928.709, 1055.652
929.972, 763.844
931.236, 719.424
932.499, 1087.396
933.761, 869.832
935.024, 948.023
936.286, 1146.430
937.549, 824.809
938.811, 1133.281
940.073, 1251.639
941.334, 1119.047
942.596, 1237.678
943.857, 906.240
945.118, 1264.941
946.379, 1361.068
947.640, 1259.668
948.900, 1878.400
950.161, 1200.723
951.421, 1789.406
952.681, 1717.812
953.940, 1713.229
955.200, 1962.020
956.459, 1670.438
957.719, 1929.256
958.978, 2222.715
960.236, 1991.465
961.495, 2570.324
962.753, 2398.379
964.012, 2707.264
965.270, 2966.170
966.527, 2984.174
967.785, 3563.111
969.043, 3322.066
970.300, 3931.037
971.557, 4498.521
972.814, 4427.488
974.071, 5186.510
975.327, 5865.547
976.583, 6284.602
977.840, 7563.678
979.095, 8200.520
980.351, 9699.629
981.607, 11958.730
982.862, 12937.852
984.117, 17057.016
985.372, 19312.482
986.627, 22831.693
987.882, 27993.172
989.136, 28752.426
990.390, 32091.693
991.644, 31460.986
992.898, 28110.322
994.152, 27559.672
995.405, 22789.049
996.659, 21098.447
997.912, 18635.080
999.165, 15374.555
1000.417, 14614.062
1001.670, 11863.609
1002.922, 9613.176
1004.174, 8562.773
1005.426, 6552.400
1006.678, 5772.053
1007.930, 5191.729
1009.181, 4031.447
1010.432, 3901.191
1011.683, 3002.541
1012.934, 2792.377
1014.185, 2581.549
1015.435, 2171.457
1016.685, 2061.389
1017.935, 1981.389
1019.185, 1561.416
1020.435, 1831.473
1021.684, 1271.572
1022.934, 1491.703
1024.183, 1471.865
1025.432, 1142.059
1026.680, 1342.299
1027.929, 1182.887
1029.177, 943.191
1030.425, 1273.553
1031.673, 854.182
1032.921, 1164.609
1034.169, 885.041
1035.416, 855.504
1036.663, 1056.031
1037.911, 696.592
1039.157, 727.189
1040.404, 1087.842
1041.650, 628.531
1042.897, 979.260
1044.143, 890.496
1045.389, 671.303
1046.634, 1101.926
1047.880, 915.125
1049.125, 915.812
1050.371, 1096.535
1051.615, 960.615
1052.860, 1211.402
1054.105, 1064.090
1055.349, 1314.930
1056.593, 1605.791
1057.837, 917.875
1059.081, 1538.797
1060.325, 1189.746
1061.568, 930.721
1062.812, 991.711
1064.055, 712.631
1065.298, 783.578
1066.540, 724.389
1067.783, 505.535
1069.025, 766.168
1070.267, 586.764
1071.509, 338.191
1072.751, 538.688
1073.993, 179.084
1075.234, 459.521
1076.475, 459.629
1077.716, 180.057
1078.957, 419.281
1080.198, 159.600
1081.438, 340.002
1082.679, 420.467
1083.919, 320.967
1085.159, 431.514
1086.398, 452.100
1087.638, 382.736
1088.877, 603.422
1090.116, 444.201
1091.355, 385.041
1092.594, 725.939
1093.833, 456.906
1095.071, 577.939
1096.309, 539.023
1097.547, 600.156
1098.785, 751.340
1100.023, 392.570
1101.260, 653.855
1102.498, 585.184
1103.735, 516.570
1104.972, 848.014
1106.208, 749.508
1107.445, 521.088
1108.681, 732.693
1109.918, 354.348
1111.154, 666.047
1112.389, 657.799
1113.625, 179.631
1114.860, 601.514
1116.096, 173.447
1117.331, 355.428
1118.566, 627.461
1119.800, 249.473
1121.035, 631.473
1122.269, 563.523
1123.503, 325.617
1124.737, 547.756
1125.971, 139.939
1127.205, 192.172
1128.438, 344.441
1129.671, 176.754
1130.904, 249.111
1132.137, 201.510
1133.370, 63.951
1134.602, 426.434
1135.834, 81.047
1137.066, 301.510
1138.298, 294.076
1139.530, 196.662
1140.762, 399.252
1141.993, 71.871
1143.224, 64.512
1144.455, 217.195
1145.686, 279.916
1146.917, 182.684
1148.147, 225.500
1149.377, 148.365
1150.607, 471.289
1151.837, 214.283
1153.067, 167.361
1154.296, 280.533
1155.526, 43.795
1156.755, 217.145
1157.984, 490.584
1159.213, 205.893
1160.441, 607.723
1161.670, 201.426
1162.898, 335.215
1164.126, 399.096
1165.354, 133.061
1166.581, 387.117
1167.809, 371.262
1169.036, 305.500
1170.263, 639.828
1171.490, 214.246
1172.717, 348.758
1173.943, 533.367
1175.170, 18.078
1176.396, 422.891
1177.622, 427.812
1178.848, 52.840
1180.073, 407.982
1181.299, 345.791
1182.524, 180.961
1183.749, 416.252
1184.974, 241.666
1186.199, 407.215
1187.423, 302.904
1188.648, 238.740
1189.872, 434.725
1191.096, 60.867
1192.320, 177.166
1193.543, 251.531
1194.767, 23.895
1195.990, 200.680
1197.213, 485.232
1198.436, 30.254
1199.659, 354.189
1200.881, 3.305
1202.104, 320.811
1203.326, 553.207
1204.548, 17.250
1205.770, 441.027
1206.991, 384.447
1208.213, 217.395
1209.434, 425.562
1210.655, 246.744
1211.876, 330.068
1213.096, 565.094
1214.317, 50.010
1215.537, 187.566
1216.757, 516.793
1217.977, 1.701
1219.197, 414.086
1220.417, 287.098
1221.636, 80.574
1222.855, 450.303
1224.074, 0.389
1225.293, 0.000
##END=



