##NAMES=Paravauxite
##RRUFFID=R040179
##IDEAL CHEMISTRY=Fe^2+^Al_2_(PO_4_)_2_(OH)_2_&#183;8H_2_O
##LOCALITY=Mina Siglo XX, Llallagua, Bolivia
##OWNER=RRUFF
##SOURCE=University of Arizona Mineral Museum
##DESCRIPTION=Colorless short prismatic crystals in subparallel groups
##STATUS=The identification of this mineral has been confirmed by X-ray diffraction and chemical analysis
##URL=rruff.info/R040179
##MEASURED CHEMISTRY=(Fe_0.93_Mg_0.03_Mn_0.02_)Al_1.94_(P_2.05_O_4_)_2_((OH)_0.99_F_0.01_)_2_Â·8H_2_O
##PIN_ID=M00109
##ORIENTATION=Laser parallel to c* (0 0 1). Fiducial mark perpendicular to laser is parallel to a [1 0 0]
54.966, 0.000
56.365, 29.815
57.765, 48.284
59.164, 33.751
60.563, 78.435
61.962, 46.048
63.360, 13.497
64.758, 37.861
66.157, 25.613
67.554, 15.732
68.952, 97.728
70.349, 273.983
71.747, 512.160
73.144, 775.973
74.540, 1007.193
75.937, 1267.643
77.333, 1448.154
78.729, 1563.556
80.125, 1578.695
81.521, 1636.038
82.916, 1621.474
84.311, 1579.202
85.706, 1528.034
87.101, 1413.047
88.496, 1315.170
89.890, 1321.336
91.284, 1326.498
92.678, 1446.665
94.071, 1411.855
95.465, 1423.012
96.858, 1465.069
98.251, 1392.953
99.644, 1483.583
101.036, 1577.895
102.428, 1470.837
103.820, 1430.371
105.212, 1474.461
106.604, 1637.079
107.995, 1701.200
109.387, 1680.804
110.777, 1643.873
112.168, 1697.389
113.559, 1771.339
114.949, 1889.710
116.339, 2054.490
117.729, 2215.668
119.119, 2348.236
120.508, 2423.184
121.897, 2397.505
123.286, 2404.191
124.675, 2459.242
126.063, 2318.693
127.452, 2360.714
128.840, 2211.576
130.228, 2157.568
131.615, 2043.210
133.003, 2057.114
134.390, 1870.241
135.777, 1901.590
137.164, 1748.164
138.550, 1825.898
139.937, 1714.600
141.323, 1735.270
142.709, 1666.930
144.094, 1475.570
145.480, 1525.250
146.865, 1349.993
148.250, 1251.817
149.635, 1258.734
151.019, 1192.757
152.403, 825.894
153.788, 736.154
155.171, 724.543
156.555, 848.069
157.939, 898.736
159.322, 1140.549
160.705, 1453.512
162.088, 1906.627
163.470, 2374.897
164.853, 2856.325
166.235, 3384.914
167.617, 3561.664
168.998, 3731.577
170.380, 3698.653
171.761, 3576.895
173.142, 3455.301
174.523, 3503.874
175.904, 3371.614
177.284, 3201.520
178.664, 2963.592
180.044, 2670.830
181.424, 2381.236
182.803, 2041.810
184.183, 1677.554
185.562, 1453.467
186.940, 1387.551
188.319, 1491.805
189.698, 1742.230
191.076, 2046.824
192.454, 2611.586
193.831, 3293.586
195.209, 3733.230
196.586, 4023.384
197.963, 3978.922
199.340, 3805.284
200.717, 3272.128
202.093, 2727.904
203.470, 2208.769
204.846, 1589.795
206.221, 1302.355
207.597, 1078.496
208.972, 1030.312
210.347, 746.295
211.722, 575.443
213.097, 494.753
214.472, 438.223
215.846, 539.853
217.220, 554.641
218.594, 611.590
219.967, 841.700
221.341, 801.179
222.714, 1134.490
224.087, 1364.750
225.460, 1854.100
226.832, 2316.529
228.204, 2976.469
229.577, 3541.666
230.948, 4310.535
232.320, 4873.912
233.692, 5502.390
235.063, 5755.177
236.434, 5706.264
237.805, 5449.632
239.175, 5016.271
240.545, 4370.170
241.916, 3780.321
243.286, 3153.712
244.655, 2601.334
246.025, 2108.182
247.394, 1674.247
248.763, 1449.523
250.132, 1143.004
251.501, 1098.684
252.869, 942.558
254.237, 808.621
255.605, 846.869
256.973, 648.297
258.340, 792.900
259.708, 656.675
261.075, 750.618
262.442, 691.724
263.808, 753.989
265.175, 723.412
266.541, 809.988
267.907, 918.715
269.273, 870.591
270.639, 1092.613
272.004, 1125.779
273.369, 1455.087
274.734, 1686.536
276.099, 2041.123
277.463, 2465.846
278.828, 3038.706
280.192, 3459.697
281.556, 3777.820
282.919, 4579.074
284.283, 4753.455
285.646, 5254.963
287.009, 5293.597
288.372, 5532.355
289.734, 5952.237
291.097, 6265.239
292.459, 6412.357
293.821, 6897.595
295.183, 6912.940
296.544, 6898.392
297.905, 6659.952
299.266, 6266.627
300.627, 5830.416
301.988, 5293.320
303.348, 4740.353
304.709, 4044.506
306.069, 3426.801
307.428, 2938.227
308.788, 2523.799
310.147, 2042.500
311.507, 1761.345
312.865, 1420.304
314.224, 1221.391
315.583, 996.594
316.941, 904.904
318.299, 673.338
319.657, 496.880
321.015, 469.529
322.372, 229.281
323.729, 109.136
325.086, 16.093
326.443, 161.151
327.800, 14.310
329.156, 72.569
330.512, 2.928
331.868, 35.385
333.224, 21.059
334.579, 32.512
335.935, 39.665
337.290, 47.830
338.645, 93.904
339.999, 68.896
341.354, 217.802
342.708, 148.644
344.062, 159.413
345.416, 289.111
346.769, 250.759
348.123, 271.353
349.476, 337.896
350.829, 298.401
352.182, 227.862
353.534, 131.266
354.887, 144.583
356.239, 100.833
357.591, 9.001
358.942, 20.919
360.294, 137.918
361.645, 357.003
362.996, 475.144
364.347, 642.343
365.698, 806.564
367.048, 995.792
368.398, 1320.058
369.748, 1549.392
371.098, 1858.806
372.448, 2128.348
373.797, 2453.012
375.146, 2616.805
376.495, 2861.705
377.844, 3126.724
379.192, 3110.869
380.540, 3234.175
381.889, 3103.590
383.236, 3062.100
384.584, 3132.776
385.932, 2905.594
387.279, 2680.565
388.626, 2652.672
389.973, 2582.909
391.319, 2400.289
392.666, 2487.828
394.012, 2336.491
395.358, 2358.289
396.704, 2542.217
398.049, 2577.266
399.394, 2672.447
400.740, 2782.742
402.084, 2856.177
403.429, 2923.714
404.774, 2929.354
406.118, 2902.061
407.462, 2773.957
408.806, 2754.898
410.150, 2571.932
411.493, 2448.060
412.836, 2475.276
414.179, 2356.593
415.522, 2314.996
416.865, 2313.490
418.207, 2317.068
419.549, 2318.332
420.891, 2211.475
422.233, 2315.301
423.575, 2322.208
424.916, 2241.193
426.257, 2521.256
427.598, 2629.396
428.939, 2712.614
430.279, 2891.905
431.619, 2798.272
432.959, 2821.712
434.299, 2750.225
435.639, 2780.809
436.978, 2354.466
438.318, 2289.193
439.657, 2066.992
440.996, 2111.860
442.334, 1981.795
443.673, 1990.798
445.011, 2007.869
446.349, 2287.004
447.687, 2324.206
449.024, 2588.478
450.361, 2966.813
451.699, 3082.220
453.036, 3493.687
454.372, 3975.222
455.709, 4522.826
457.045, 4919.494
458.381, 5589.226
459.717, 6171.954
461.053, 7087.624
462.388, 7874.773
463.724, 8907.537
465.059, 9931.263
466.394, 10930.597
467.728, 11893.433
469.063, 13311.679
470.397, 14323.224
471.731, 15171.010
473.065, 16401.242
474.398, 16507.537
475.732, 17731.348
477.065, 17499.166
478.398, 17740.951
479.731, 17658.377
481.063, 17648.740
482.396, 17032.520
483.728, 16547.352
485.060, 16207.229
486.391, 15268.146
487.723, 14570.104
489.054, 13892.103
490.385, 13280.139
491.716, 12528.158
493.047, 11851.753
494.377, 11075.962
495.708, 10436.432
497.038, 9734.750
498.368, 9058.890
499.697, 8530.731
501.027, 8104.324
502.356, 7342.829
503.685, 6791.896
505.014, 6288.618
506.342, 5586.360
507.671, 5319.662
508.999, 4569.155
510.327, 4246.867
511.655, 3829.255
512.982, 3551.462
514.310, 3290.965
515.637, 2933.309
516.964, 2731.030
518.291, 2337.302
519.617, 2338.765
520.944, 2103.191
522.270, 1917.575
523.596, 1969.993
524.921, 1914.917
526.247, 1908.156
527.572, 1978.168
528.897, 1912.300
530.222, 2190.218
531.547, 2226.841
532.871, 2481.109
534.196, 2506.969
535.520, 2541.843
536.844, 2799.074
538.167, 2939.540
539.491, 3173.396
540.814, 3131.687
542.137, 3287.343
543.460, 3324.206
544.783, 3461.294
546.105, 3329.892
547.427, 3396.291
548.749, 3325.570
550.071, 3132.564
551.393, 3082.590
552.714, 3005.238
554.035, 2897.786
555.356, 2809.108
556.677, 2825.206
557.998, 2760.099
559.318, 2830.345
560.638, 2856.013
561.958, 3013.941
563.278, 3102.059
564.597, 3513.032
565.917, 3766.750
567.236, 4353.672
568.555, 4950.428
569.874, 5482.708
571.192, 6306.452
572.511, 7009.563
573.829, 7704.667
575.147, 8204.798
576.464, 8760.875
577.782, 9005.410
579.099, 9093.638
580.416, 8980.143
581.733, 8954.255
583.050, 8647.257
584.366, 8100.408
585.683, 7802.452
586.999, 6940.406
588.315, 6453.345
589.630, 6185.256
590.946, 5513.147
592.261, 5123.018
593.576, 4525.917
594.891, 3988.966
596.206, 3477.772
597.520, 3121.757
598.834, 2684.516
600.148, 2364.250
601.462, 2036.960
602.776, 1718.645
604.089, 1450.533
605.402, 1173.025
606.715, 961.607
608.028, 727.354
609.341, 549.176
610.653, 358.779
611.965, 336.187
613.277, 230.409
614.589, 133.102
615.901, 100.715
617.212, 15.581
618.523, 20.128
619.834, 11.840
621.145, 34.557
622.456, 13.991
623.766, 91.052
625.076, 46.724
626.386, 103.328
627.696, 36.800
629.006, 89.369
630.315, 29.695
631.624, 24.870
632.933, 20.604
634.242, 89.984
635.551, 9.405
636.859, 70.819
638.167, 75.995
639.475, 269.200
640.783, 156.021
642.090, 271.343
643.398, 349.345
644.705, 365.306
646.012, 401.223
647.318, 362.098
648.625, 395.929
649.931, 428.717
651.237, 438.461
652.543, 451.165
653.849, 369.827
655.155, 408.451
656.460, 324.034
657.765, 326.321
659.070, 251.098
660.375, 303.597
661.679, 282.068
662.984, 254.516
664.288, 155.959
665.592, 230.392
666.895, 191.817
668.199, 135.248
669.502, 148.673
670.805, 7.084
672.108, 158.429
673.411, 50.746
674.713, 53.008
676.016, 98.205
677.318, 5.656
678.620, 12.390
679.921, 3.649
681.223, 26.781
682.524, 15.020
683.825, 74.358
685.126, 11.830
686.427, 27.600
687.727, 82.052
689.028, 75.840
690.328, 84.762
691.628, 20.824
692.927, 57.991
694.227, 93.284
695.526, 226.720
696.825, 26.371
698.124, 16.869
699.423, 130.979
700.721, 38.989
702.020, 79.116
703.318, 12.379
704.616, 5.256
705.913, 54.201
707.211, 118.782
708.508, 38.480
709.805, 32.335
711.102, 29.261
712.399, 10.296
713.695, 55.431
714.992, 20.312
716.288, 101.027
717.584, 55.487
718.879, 47.931
720.175, 12.697
721.470, 107.576
722.765, 92.791
724.060, 100.943
725.355, 73.036
726.649, 98.063
727.944, 12.031
729.238, 190.917
730.532, 34.749
731.825, 217.509
733.119, 103.216
734.412, 131.865
735.705, 100.459
736.998, 139.996
738.291, 160.478
739.584, 127.907
740.876, 140.283
742.168, 156.394
743.460, 153.875
744.752, 198.094
746.043, 229.261
747.334, 249.375
748.626, 138.439
749.916, 108.451
751.207, 246.409
752.498, 107.317
753.788, 237.171
755.078, 169.976
756.368, 167.729
757.658, 165.433
758.947, 116.087
760.237, 135.690
761.526, 40.243
762.815, 95.737
764.104, 22.181
765.392, 108.563
766.680, 35.896
767.969, 1.828
769.257, 76.382
770.544, 14.542
771.832, 53.643
773.119, 33.243
774.406, 3.073
775.693, 49.620
776.980, 9.293
778.267, 22.162
779.553, 28.364
780.839, 8.393
782.125, 67.984
783.411, 55.663
784.697, 38.587
785.982, 65.958
787.267, 16.600
788.552, 34.345
789.837, 95.296
791.122, 21.772
792.406, 41.205
793.690, 1.286
794.974, 34.196
796.258, 17.150
797.542, 17.856
798.825, 15.828
800.108, 61.764
801.391, 7.665
802.674, 81.533
803.957, 50.367
805.239, 9.167
806.522, 160.933
807.804, 51.667
809.085, 206.370
810.367, 111.040
811.649, 89.679
812.930, 110.286
814.211, 191.862
815.492, 207.409
816.772, 213.925
818.053, 258.411
819.333, 277.950
820.613, 183.295
821.893, 324.693
823.173, 320.045
824.452, 302.386
825.732, 389.970
827.011, 299.254
828.290, 390.615
829.568, 367.004
830.847, 388.516
832.125, 549.066
833.403, 526.662
834.681, 434.224
835.959, 362.283
837.236, 473.029
838.514, 433.005
839.791, 433.862
841.068, 451.937
842.345, 408.309
843.621, 417.721
844.898, 374.177
846.174, 375.304
847.450, 352.076
848.726, 356.486
850.001, 340.904
851.277, 375.483
852.552, 352.834
853.827, 361.981
855.102, 373.904
856.376, 317.315
857.651, 319.927
858.925, 409.657
860.199, 356.673
861.473, 298.655
862.746, 398.014
864.020, 353.473
865.293, 255.154
866.566, 321.058
867.839, 278.164
869.112, 278.915
870.384, 304.240
871.656, 207.304
872.928, 237.174
874.200, 308.185
875.472, 263.449
876.744, 254.502
878.015, 274.720
879.286, 261.407
880.557, 338.627
881.828, 337.475
883.098, 315.326
884.369, 293.145
885.639, 293.010
886.909, 314.414
888.178, 335.120
889.448, 248.543
890.717, 403.354
891.987, 315.266
893.256, 336.024
894.524, 379.882
895.793, 372.825
897.061, 316.775
898.330, 385.746
899.598, 289.730
900.865, 445.728
902.133, 496.688
903.401, 477.491
904.668, 585.531
905.935, 502.384
907.202, 513.458
908.468, 680.549
909.735, 677.656
911.001, 704.780
912.267, 684.832
913.533, 778.991
914.799, 790.200
916.064, 838.245
917.330, 1011.218
918.595, 980.409
919.860, 999.796
921.124, 1146.368
922.389, 1248.475
923.653, 1207.666
924.918, 1318.612
926.182, 1419.866
927.445, 1476.950
928.709, 1545.152
929.972, 1599.378
931.236, 1622.221
932.499, 1836.644
933.761, 1837.963
935.024, 1818.114
936.286, 1943.331
937.549, 2148.872
938.811, 2066.029
940.073, 2253.134
941.334, 2167.310
942.596, 2219.247
943.857, 2357.559
945.118, 2262.909
946.379, 2374.233
947.640, 2483.939
948.900, 2690.135
950.161, 2600.666
951.421, 2622.238
952.681, 2813.844
953.940, 2767.480
955.200, 2786.148
956.459, 2927.869
957.719, 3070.625
958.978, 3225.424
960.236, 3428.264
961.495, 3443.145
962.753, 3685.061
964.012, 3763.022
965.270, 4041.034
966.527, 4361.089
967.785, 4721.181
969.043, 5097.326
970.300, 5384.529
971.557, 5846.768
972.814, 6594.044
974.071, 7036.363
975.327, 8013.720
976.583, 8787.124
977.840, 9974.578
979.095, 11345.078
980.351, 13162.645
981.607, 15419.250
982.862, 17900.908
984.117, 21571.625
985.372, 26362.400
986.627, 29957.244
987.882, 37427.152
989.136, 43477.125
990.390, 47646.176
991.644, 52418.305
992.898, 53808.473
994.152, 51776.738
995.405, 48544.082
996.659, 43759.520
997.912, 38753.012
999.165, 34132.590
1000.417, 29683.273
1001.670, 25104.070
1002.922, 21754.938
1004.174, 18073.867
1005.426, 15364.892
1006.678, 12551.989
1007.930, 10490.183
1009.181, 8791.437
1010.432, 7405.753
1011.683, 6358.148
1012.934, 5470.642
1014.185, 4723.186
1015.435, 4121.818
1016.685, 3537.523
1017.935, 3134.289
1019.185, 2828.135
1020.435, 2539.037
1021.684, 2152.025
1022.934, 2051.066
1024.183, 1787.177
1025.432, 1571.365
1026.680, 1507.598
1027.929, 1271.883
1029.177, 1182.218
1030.425, 1104.603
1031.673, 1078.034
1032.921, 1013.521
1034.169, 964.537
1035.416, 882.629
1036.663, 881.249
1037.911, 873.916
1039.157, 866.625
1040.404, 781.381
1041.650, 805.178
1042.897, 833.640
1044.143, 823.893
1045.389, 930.810
1046.634, 1051.770
1047.880, 1068.768
1049.125, 1232.807
1050.371, 1446.886
1051.615, 1709.005
1052.860, 1896.166
1054.105, 2301.366
1055.349, 2720.604
1056.593, 2872.592
1057.837, 3065.908
1059.081, 3433.263
1060.325, 3437.655
1061.568, 3291.085
1062.812, 2828.552
1064.055, 2579.711
1065.298, 2183.524
1066.540, 1891.511
1067.783, 1470.729
1069.025, 1163.739
1070.267, 1036.249
1071.509, 765.102
1072.751, 694.134
1073.993, 688.591
1075.234, 461.375
1076.475, 367.383
1077.716, 376.348
1078.957, 149.423
1080.198, 229.440
1081.438, 258.267
1082.679, 247.357
1083.919, 238.935
1085.159, 145.681
1086.398, 232.991
1087.638, 178.846
1088.877, 144.354
1090.116, 195.688
1091.355, 90.154
1092.594, 216.642
1093.833, 239.142
1095.071, 250.717
1096.309, 218.799
1097.547, 264.784
1098.785, 376.860
1100.023, 354.920
1101.260, 435.147
1102.498, 486.752
1103.735, 430.481
1104.972, 531.387
1106.208, 307.899
1107.445, 480.602
1108.681, 378.209
1109.918, 459.800
1111.154, 374.800
1112.389, 402.198
1113.625, 421.701
1114.860, 311.547
1116.096, 398.712
1117.331, 444.087
1118.566, 357.319
1119.800, 400.472
1121.035, 349.508
1122.269, 299.314
1123.503, 397.846
1124.737, 360.442
1125.971, 386.743
1127.205, 410.408
1128.438, 421.049
1129.671, 452.893
1130.904, 460.284
1132.137, 503.611
1133.370, 501.089
1134.602, 519.041
1135.834, 553.860
1137.066, 607.996
1138.298, 748.328
1139.530, 601.895
1140.762, 881.107
1141.993, 773.202
1143.224, 843.818
1144.455, 929.500
1145.686, 1019.663
1146.917, 1143.976
1148.147, 1202.561
1149.377, 1375.271
1150.607, 1478.820
1151.837, 1585.771
1153.067, 1665.105
1154.296, 1918.917
1155.526, 2120.855
1156.755, 2203.314
1157.984, 2529.952
1159.213, 2613.171
1160.441, 2930.786
1161.670, 3210.256
1162.898, 3548.032
1164.126, 3727.927
1165.354, 3924.111
1166.581, 4065.884
1167.809, 4184.208
1169.036, 4001.703
1170.263, 4107.125
1171.490, 3932.874
1172.717, 3597.701
1173.943, 3104.427
1175.170, 2919.713
1176.396, 2467.615
1177.622, 2280.632
1178.848, 2015.720
1180.073, 1557.391
1181.299, 1543.762
1182.524, 1226.833
1183.749, 1030.225
1184.974, 940.425
1186.199, 882.086
1187.423, 687.309
1188.648, 627.813
1189.872, 448.850
1191.096, 335.671
1192.320, 367.866
1193.543, 289.380
1194.767, 369.668
1195.990, 200.169
1197.213, 115.776
1198.436, 154.263
1199.659, 166.749
1200.881, 36.102
1202.104, 70.247
1203.326, 31.753
1204.548, 156.729
1205.770, 11.576
1206.991, 112.663
1208.213, 60.619
1209.434, 37.550
1210.655, 51.638
1211.876, 62.879
1213.096, 64.132
1214.317, 46.214
1215.537, 60.149
1216.757, 47.988
1217.977, 70.378
1219.197, 70.867
1220.417, 75.252
1221.636, 44.792
1222.855, 63.303
1224.074, 123.995
1225.293, 75.758
1226.512, 72.581
1227.731, 67.270
1228.949, 16.860
1230.167, 59.102
1231.385, 6.889
1232.603, 16.795
1233.820, 24.878
1235.038, 65.002
1236.255, 35.811
1237.472, 12.228
1238.689, 58.481
1239.906, 8.797
1241.122, 56.154
1242.338, 14.570
1243.555, 6.035
1244.771, 90.469
1245.986, 8.775
1247.202, 6.625
1248.417, 95.114
1249.633, 53.442
1250.848, 47.266
1252.063, 8.961
1253.277, 8.883
1254.492, 5.761
1255.706, 3.915
1256.920, 38.355
1258.134, 13.659
1259.348, 29.715
1260.562, 1.821
1261.775, 38.027
1262.988, 39.154
1264.201, 51.341
1265.414, 54.362
1266.627, 89.187
1267.839, 7.808
1269.052, 38.382
1270.264, 14.920
1271.476, 59.404
1272.688, 16.853
1273.899, 17.749
1275.111, 64.576
1276.322, 46.864
1277.533, 31.108
1278.744, 63.305
1279.955, 20.421
1281.165, 51.479
1282.376, 143.483
1283.586, 101.445
1284.796, 71.364
1286.006, 22.236
1287.215, 52.053
1288.425, 75.826
1289.634, 73.555
1290.843, 55.238
1292.052, 26.872
1293.261, 45.852
1294.469, 43.981
1295.678, 99.459
1296.886, 71.896
1298.094, 147.286
1299.302, 82.636
1300.509, 21.939
1301.717, 125.190
1302.924, 102.399
1304.131, 70.564
1305.338, 58.682
1306.545, 130.753
1307.752, 5.219
1308.958, 90.746
1310.164, 218.667
1311.370, 59.545
1312.576, 172.376
1313.782, 133.164
1314.987, 73.910
1316.193, 0.383
1317.398, 16.147
1318.603, 111.830
1319.807, 51.364
1321.012, 62.849
1322.216, 96.285
1323.421, 93.676
1324.625, 120.022
1325.829, 161.324
1327.032, 96.581
1328.236, 154.792
1329.439, 91.961
1330.642, 123.083
1331.845, 92.162
1333.048, 139.194
1334.251, 236.185
1335.453, 113.135
1336.656, 192.043
1337.858, 136.911
1339.060, 165.736
1340.261, 137.522
1341.463, 128.267
1342.664, 137.718
1343.866, 137.632
1345.067, 152.254
1346.267, 185.836
1347.468, 217.413
1348.669, 135.208
1349.869, 291.674
1351.069, 185.102
1352.269, 213.492
1353.469, 215.845
1354.668, 241.162
1355.868, 244.785
1357.067, 236.762
1358.266, 184.568
1359.465, 305.149
1360.664, 256.692
1361.862, 232.990
1363.061, 271.955
1364.259, 204.269
1365.457, 225.643
1366.655, 244.761
1367.852, 208.607
1369.050, 279.509
1370.247, 276.307
1371.444, 176.175
1372.641, 203.249
1373.838, 300.921
1375.035, 162.065
1376.231, 183.388
1377.427, 335.786
1378.623, 285.645
1379.819, 251.794
1381.015, 170.040
1382.211, 243.107
1383.406, 248.261
1384.601, 218.077
1385.796, 210.162
1386.991, 180.776
1388.185, 284.208
1389.380, 142.661
1390.574, 227.841
1391.768, 165.128
1392.962, 244.197
1394.156, 188.634
1395.350, 201.179
1396.543, 220.454
1397.736, 188.827
1398.929, 253.861
1400.122, 233.349
1401.315, 233.745
1402.507, 192.069
1403.700, 202.995
1404.892, 232.788
1406.084, 225.700
1407.276, 164.841
1408.467, 207.185
1409.659, 139.304
1410.850, 216.835
1412.041, 299.266
1413.232, 209.821
1414.423, 292.184
1415.614, 196.790
1416.804, 272.066
1417.994, 299.055
1419.184, 263.330
1420.374, 242.141
1421.564, 254.048
1422.753, 222.722
1423.943, 220.714
1425.132, 241.640
1426.321, 235.999
1427.510, 246.959
1428.698, 252.900
1429.887, 253.500
1431.075, 245.907
1432.263, 236.433
1433.451, 198.086
1434.639, 267.071
1435.827, 245.045
1437.014, 239.544
1438.201, 300.844
1439.388, 306.802
1440.575, 298.438
1441.762, 167.729
1442.949, 254.386
1444.135, 245.491
1445.321, 196.469
1446.507, 235.178
1447.693, 160.036
1448.879, 246.159
1450.064, 289.840
1451.250, 247.535
1452.435, 239.347
1453.620, 289.416
1454.805, 264.104
1455.989, 143.151
1457.174, 326.071
1458.358, 106.583
1459.542, 319.290
1460.726, 227.223
1461.910, 124.243
1463.093, 304.250
1464.277, 212.243
1465.460, 201.199
1466.643, 174.102
1467.826, 152.822
1469.009, 159.410
1470.191, 171.033
1471.373, 181.805
