##NAMES=Paravauxite
##RRUFFID=R040179
##IDEAL CHEMISTRY=Fe^2+^Al_2_(PO_4_)_2_(OH)_2_&#183;8H_2_O
##LOCALITY=Mina Siglo XX, Llallagua, Bolivia
##OWNER=RRUFF
##SOURCE=University of Arizona Mineral Museum
##DESCRIPTION=Colorless short prismatic crystals in subparallel groups
##STATUS=The identification of this mineral has been confirmed by X-ray diffraction and chemical analysis
##URL=rruff.info/R040179
##MEASURED CHEMISTRY=(Fe_0.93_Mg_0.03_Mn_0.02_)Al_1.94_(P_2.05_O_4_)_2_((OH)_0.99_F_0.01_)_2_Â·8H_2_O
##PIN_ID=M00226
##ORIENTATION=Laser parallel to b* (0 1 0). Fiducial mark perpendicular to laser is parallel to c [0 0 1]
118.891, 0.000
120.287, 3.989
121.683, 193.531
123.079, 432.016
124.475, 405.129
125.870, 688.458
127.265, 768.812
128.660, 1024.354
130.055, 1244.869
131.449, 1289.365
132.843, 1566.055
134.237, 1634.352
135.631, 1584.477
137.024, 1586.142
138.417, 1588.804
139.810, 1612.361
141.203, 1553.337
142.596, 1577.458
143.988, 1568.515
145.380, 1303.789
146.771, 1339.921
148.163, 1186.816
149.554, 1174.366
150.945, 892.485
152.336, 769.812
153.726, 608.521
155.117, 557.640
156.507, 406.392
157.896, 186.930
159.286, 177.027
160.675, 17.383
162.064, 82.032
163.453, 11.248
164.842, 29.720
166.230, 20.853
167.618, 42.140
169.006, 46.361
170.393, 25.550
171.781, 18.941
173.168, 143.315
174.555, 177.745
175.941, 332.118
177.328, 386.443
178.714, 270.728
180.100, 84.977
181.485, 169.203
182.871, 153.408
184.256, 137.598
185.641, 68.229
187.025, 5.929
188.410, 60.071
189.794, 184.197
191.178, 218.307
192.562, 362.401
193.945, 756.479
195.328, 1000.541
196.711, 1154.585
198.094, 1248.612
199.476, 1192.621
200.859, 1126.610
202.241, 990.564
203.623, 824.439
205.004, 798.271
206.385, 942.077
207.766, 695.868
209.147, 899.653
210.528, 883.435
211.908, 967.218
213.288, 1001.006
214.668, 974.797
216.048, 998.594
217.427, 892.396
218.806, 840.795
220.185, 766.846
221.564, 804.729
222.942, 850.065
224.320, 1023.968
225.698, 1203.731
227.076, 1437.750
228.453, 1774.549
229.830, 2247.290
231.207, 2770.557
232.584, 3223.642
233.960, 3696.887
235.337, 3950.244
236.713, 3893.481
238.088, 3707.004
239.464, 3320.430
240.839, 2683.922
242.214, 2287.504
243.589, 1971.170
244.964, 1414.861
246.338, 1168.562
247.712, 872.261
249.086, 705.957
250.459, 429.649
251.833, 373.336
253.206, 267.016
254.579, 390.682
255.951, 264.335
257.324, 267.970
258.696, 151.587
260.068, 215.190
261.439, 328.777
262.811, 202.348
264.182, 395.902
265.553, 409.438
266.924, 482.961
268.294, 596.465
269.665, 699.952
271.035, 1033.420
272.404, 1106.869
273.774, 1420.300
275.143, 1923.711
276.512, 2277.104
277.881, 2890.474
279.250, 3493.826
280.618, 4097.158
281.986, 4620.467
283.354, 4803.757
284.721, 4535.155
286.089, 4106.858
287.456, 3559.146
288.823, 2901.738
290.190, 2554.566
291.556, 2117.581
292.922, 1830.747
294.288, 1484.041
295.654, 1437.438
297.019, 1220.919
298.385, 1164.473
299.750, 1078.091
301.114, 871.766
302.479, 755.490
303.843, 689.259
305.207, 503.066
306.571, 426.833
307.935, 350.637
309.298, 114.443
310.661, 178.281
312.024, 162.145
313.387, 216.033
314.749, 69.939
316.111, 53.862
317.473, 32.239
318.835, 8.341
320.196, 45.562
321.558, 20.336
322.919, 46.427
324.279, 182.331
325.640, 148.069
327.000, 126.406
328.360, 52.485
329.720, 117.915
331.080, 123.849
332.439, 80.582
333.798, 4.968
335.157, 39.206
336.516, 22.162
337.874, 73.147
339.232, 75.546
340.590, 32.888
341.948, 160.209
343.305, 54.960
344.662, 110.953
346.019, 46.386
347.376, 131.407
348.733, 60.441
350.089, 89.389
351.445, 173.019
352.801, 132.629
354.156, 93.483
355.512, 128.829
356.867, 144.156
358.222, 178.173
359.576, 213.728
360.931, 233.224
362.285, 400.828
363.639, 214.498
364.992, 253.279
366.346, 380.064
367.699, 473.704
369.052, 578.090
370.405, 472.005
371.757, 625.280
373.110, 568.655
374.462, 692.314
375.814, 755.563
377.165, 859.094
378.516, 842.336
379.868, 855.569
381.218, 958.785
382.569, 891.963
383.920, 795.112
385.270, 838.205
386.620, 691.126
387.969, 723.971
389.319, 766.684
390.668, 659.374
392.017, 742.034
393.366, 734.682
394.714, 897.345
396.063, 859.992
397.411, 952.620
398.759, 1025.228
400.106, 1277.857
401.454, 1480.468
402.801, 1543.060
404.148, 1945.635
405.495, 2128.188
406.841, 2210.725
408.187, 2203.245
409.533, 2155.742
410.879, 2008.219
412.224, 1950.670
413.570, 1923.100
414.915, 1865.505
416.260, 1847.886
417.604, 1910.244
418.949, 2082.579
420.293, 2324.892
421.637, 2637.178
422.980, 3079.441
424.324, 3551.682
425.667, 4133.896
427.010, 4776.086
428.353, 5778.252
429.695, 6260.393
431.037, 7422.508
432.379, 8004.600
433.721, 8046.664
435.063, 7788.704
436.404, 7420.717
437.745, 6792.705
439.086, 5734.668
440.427, 4766.604
441.767, 4098.514
443.108, 3410.396
444.448, 2922.254
445.787, 2514.084
447.127, 1945.897
448.466, 1657.693
449.805, 1489.466
451.144, 1121.215
452.482, 1172.938
453.821, 1054.639
455.159, 946.312
456.497, 687.957
457.834, 709.574
459.172, 881.164
460.509, 662.724
461.846, 604.267
463.183, 515.780
464.519, 427.277
465.856, 508.744
467.192, 380.180
468.527, 501.585
469.863, 442.959
471.198, 474.303
472.534, 485.614
473.868, 446.895
475.203, 368.141
476.538, 479.354
477.872, 510.534
479.206, 368.898
480.540, 548.601
481.873, 289.683
483.206, 388.531
484.539, 285.667
485.872, 224.214
487.205, 454.822
488.537, 236.820
489.869, 133.400
491.201, 215.786
492.533, 127.744
493.864, 58.583
495.196, 158.444
496.527, 20.802
497.857, 57.128
499.188, 82.235
500.518, 1.711
501.848, 1.505
503.178, 88.888
504.508, 29.153
505.837, 49.946
507.166, 70.066
508.495, 29.201
509.824, 10.804
511.153, 8.837
512.481, 38.754
513.809, 58.739
515.137, 51.476
516.464, 51.968
517.792, 162.054
519.119, 41.744
520.446, 38.014
521.772, 8.090
523.099, 232.923
524.425, 27.184
525.751, 5.110
527.077, 235.703
528.402, 106.040
529.728, 168.626
531.053, 318.886
532.377, 306.444
533.702, 237.688
535.027, 546.857
536.351, 272.767
537.675, 542.660
538.998, 464.077
540.322, 553.492
541.645, 533.697
542.968, 463.172
544.291, 434.430
545.613, 613.779
546.936, 500.459
548.258, 389.972
549.580, 668.974
550.902, 718.672
552.223, 578.550
553.544, 565.525
554.865, 664.794
556.186, 763.308
557.507, 832.067
558.827, 888.814
560.147, 979.441
561.467, 988.272
562.786, 947.679
564.106, 1075.961
565.425, 1106.099
566.744, 1265.486
568.063, 1334.093
569.381, 1282.215
570.700, 1500.445
572.018, 1289.035
573.335, 1557.061
574.653, 1455.109
575.970, 1623.345
577.288, 1701.228
578.604, 1629.553
579.921, 1867.354
581.238, 1685.348
582.554, 1933.655
583.870, 2011.339
585.186, 2138.980
586.501, 2186.855
587.817, 2234.415
589.132, 2042.170
590.447, 2229.650
591.761, 2037.090
593.076, 2274.621
594.390, 2311.979
595.704, 2419.299
597.018, 2416.773
598.331, 2334.012
599.645, 2461.211
600.958, 2518.367
602.271, 2515.559
603.583, 2282.674
604.896, 2339.709
606.208, 2316.723
607.520, 2323.678
608.832, 2370.594
610.143, 2387.467
611.455, 2194.578
612.766, 2101.371
614.077, 1958.125
615.387, 1945.182
616.698, 1798.994
618.008, 1858.484
619.318, 1598.078
620.628, 1624.629
621.937, 1594.410
623.247, 1500.879
624.556, 1397.734
625.865, 1404.123
627.173, 1180.775
628.482, 1127.373
629.790, 1193.742
631.098, 1210.137
632.405, 1126.322
633.713, 962.467
635.020, 848.570
636.327, 1035.111
637.634, 831.148
638.941, 1007.594
640.247, 903.365
641.553, 1049.709
642.859, 861.697
644.165, 1007.211
645.471, 1013.766
646.776, 743.332
648.081, 738.426
649.386, 910.133
650.691, 785.285
651.995, 589.797
653.299, 705.314
654.603, 506.287
655.907, 480.809
657.210, 557.748
658.514, 609.760
659.817, 421.842
661.120, 496.268
662.422, 226.010
663.725, 389.641
665.027, 213.631
666.329, 343.648
667.630, 256.135
668.932, 307.266
670.233, 296.752
671.534, 194.922
672.835, 138.254
674.136, 222.172
675.436, 327.670
676.737, 160.629
678.036, 209.586
679.336, 50.385
680.636, 185.053
681.935, 5.256
683.234, 56.688
684.533, 71.590
685.832, 1.105
687.130, 73.012
688.428, 82.289
689.726, 22.221
691.024, 256.385
692.322, 59.041
693.619, 85.115
694.916, 18.879
696.213, 173.213
697.510, 59.230
698.806, 146.137
700.102, 20.348
701.398, 154.502
702.694, 71.379
703.990, 102.637
705.285, 207.219
706.580, 71.160
707.875, 55.061
709.170, 81.080
710.464, 102.674
711.758, 286.387
713.052, 200.068
714.346, 105.703
715.640, 97.826
716.933, 151.320
718.226, 54.785
719.519, 378.203
720.812, 21.590
722.105, 44.930
723.397, 148.227
724.689, 271.490
725.981, 214.725
727.272, 117.926
728.564, 241.092
729.855, 224.230
731.146, 167.334
732.437, 300.410
733.727, 123.455
735.017, 406.467
736.308, 179.449
737.597, 92.400
738.887, 365.318
740.176, 278.209
741.466, 161.072
742.755, 313.902
744.043, 166.705
745.332, 349.480
746.620, 352.227
747.908, 184.965
749.196, 317.658
750.484, 370.322
751.771, 162.959
753.059, 445.570
754.346, 268.154
755.633, 360.715
756.919, 183.248
758.206, 190.465
759.492, 248.236
760.778, 190.693
762.063, 223.125
763.349, 285.533
764.634, 237.918
765.919, 120.275
767.204, 262.609
768.489, 234.920
769.773, 97.207
771.057, 259.467
772.341, 231.703
773.625, 26.082
774.909, 276.082
776.192, 31.775
777.475, 250.316
778.758, 62.385
780.041, 194.426
781.323, 86.447
782.605, 88.447
783.887, 130.424
785.169, 112.377
786.451, 194.311
787.732, 166.221
789.013, 328.113
790.294, 29.984
791.575, 141.832
792.856, 33.662
794.136, 205.467
795.416, 37.256
796.696, 90.977
797.976, 200.717
799.255, 2.393
800.534, 55.955
801.813, 145.646
803.092, 92.770
804.371, 308.746
805.649, 40.246
806.927, 51.734
808.205, 73.203
809.483, 4.676
810.760, 176.135
812.037, 87.615
813.315, 59.094
814.591, 120.570
815.868, 107.963
817.144, 292.969
818.421, 224.365
819.697, 65.240
820.972, 36.639
822.248, 77.732
823.523, 9.059
824.798, 10.377
826.073, 81.312
827.348, 7.988
828.623, 16.939
829.897, 144.445
831.171, 115.223
832.445, 106.240
833.718, 96.104
834.992, 12.961
836.265, 195.494
837.538, 4.412
838.811, 74.107
840.083, 83.877
841.356, 94.139
842.628, 117.055
843.900, 76.236
845.171, 17.445
846.443, 351.867
847.714, 177.744
848.985, 191.035
850.256, 48.232
851.527, 68.342
852.797, 272.219
854.067, 20.953
855.337, 231.551
856.607, 64.771
857.876, 24.881
859.146, 195.930
860.415, 185.998
861.684, 35.848
862.953, 118.557
864.221, 18.930
865.489, 350.016
866.757, 29.188
868.025, 122.061
869.293, 302.424
870.560, 3.023
871.828, 183.008
873.095, 204.074
874.361, 143.242
875.628, 53.121
876.894, 173.742
878.160, 54.803
879.426, 55.717
880.692, 186.232
881.958, 87.275
883.223, 178.252
884.488, 99.004
885.753, 95.061
887.018, 150.656
888.282, 101.725
889.546, 152.564
890.810, 243.053
892.074, 204.129
893.338, 25.207
894.601, 176.016
895.864, 127.104
897.127, 167.959
898.390, 205.275
899.652, 0.158
900.915, 211.141
902.177, 332.256
903.439, 293.400
904.700, 614.354
905.962, 205.523
907.223, 266.697
908.484, 457.875
909.745, 458.992
911.006, 430.154
912.266, 251.359
913.526, 472.555
914.786, 363.773
916.046, 495.000
917.306, 476.234
918.565, 347.197
919.824, 558.445
921.083, 489.703
922.342, 640.621
923.600, 431.893
924.859, 733.174
926.117, 621.459
927.375, 772.773
928.632, 620.822
929.890, 792.156
931.147, 783.074
932.404, 644.428
933.661, 855.498
934.918, 946.598
936.174, 727.893
937.430, 1049.133
938.686, 850.555
939.942, 1071.988
941.198, 1143.434
942.453, 934.414
943.708, 1055.883
944.963, 936.924
946.218, 1048.418
947.472, 1259.518
948.727, 1104.764
949.981, 1356.299
951.235, 1107.223
952.488, 1264.846
953.742, 1386.418
954.995, 1421.857
956.248, 1353.459
957.501, 1464.773
958.754, 1346.162
960.006, 1547.666
961.258, 1478.906
962.510, 1860.600
963.762, 1512.238
965.014, 1873.783
966.265, 1835.521
967.516, 2110.658
968.767, 2302.428
970.018, 2274.213
971.269, 2635.916
972.519, 2957.525
973.769, 3239.340
975.019, 3370.893
976.269, 4152.475
977.518, 4634.365
978.767, 5215.652
980.017, 6226.629
981.265, 7088.574
982.514, 8740.537
983.762, 10447.777
985.011, 12644.508
986.259, 14835.820
987.507, 17337.854
988.754, 20160.416
990.002, 22048.900
991.249, 23051.004
992.496, 22733.125
993.743, 20985.301
994.989, 18937.502
996.236, 16009.660
997.482, 13901.922
998.728, 11754.830
999.974, 9927.141
1001.219, 8667.746
1002.464, 7337.445
1003.710, 5999.822
1004.954, 4992.227
1006.199, 4154.654
1007.444, 3297.133
1008.688, 3139.027
1009.932, 2671.551
1011.176, 2164.098
1012.420, 1896.670
1013.663, 1639.299
1014.906, 1481.953
1016.149, 1154.627
1017.392, 966.740
1018.635, 891.029
1019.877, 734.754
1021.120, 795.082
1022.362, 717.912
1023.603, 670.766
1024.845, 903.648
1026.086, 506.559
1027.328, 429.490
1028.569, 612.445
1029.809, 315.424
1031.050, 568.424
1032.290, 371.449
1033.530, 454.496
1034.770, 417.566
1036.010, 320.660
1037.250, 333.779
1038.489, 506.920
1039.728, 150.086
1040.967, 703.277
1042.206, 276.490
1043.444, 489.727
1044.683, 463.529
1045.921, 286.816
1047.159, 740.127
1048.396, 695.100
1049.634, 618.945
1050.871, 702.330
1052.108, 811.379
1053.345, 744.811
1054.582, 831.428
1055.818, 834.906
1057.054, 1258.412
1058.290, 863.568
1059.526, 1047.125
1060.762, 950.707
1061.997, 734.670
1063.232, 938.293
1064.467, 621.941
1065.702, 645.617
1066.937, 499.318
1068.171, 273.049
1069.405, 466.805
1070.639, 460.590
1071.873, 194.529
1073.107, 478.369
1074.340, 342.238
1075.573, 279.570
1076.806, 383.508
1078.039, 207.490
1079.272, 341.637
1080.504, 415.678
1081.736, 282.707
1082.968, 496.811
1084.200, 270.939
1085.431, 345.104
1086.663, 459.299
1087.894, 353.654
1089.125, 307.910
1090.355, 382.193
1091.586, 246.506
1092.816, 810.824
1094.046, 355.168
1095.276, 529.455
1096.506, 773.717
1097.735, 558.010
1098.965, 692.326
1100.194, 626.666
1101.423, 661.051
1102.651, 515.461
1103.880, 439.924
1105.108, 787.705
1106.336, 872.145
1107.564, 476.605
1108.792, 731.801
1110.019, 486.229
1111.246, 490.672
1112.473, 615.127
1113.700, 199.590
1114.927, 554.064
1116.153, 358.576
1117.380, 383.344
1118.606, 447.885
1119.831, 182.441
1121.057, 298.336
1122.283, 583.010
1123.508, 297.406
1124.733, 492.082
1125.958, 46.475
1127.182, 280.842
1128.407, 226.135
1129.631, 290.320
1130.855, 154.430
1132.079, 198.469
1133.302, 12.234
1134.526, 435.811
1135.749, 50.789
1136.972, 243.604
1138.195, 248.053
1139.417, 72.537
1140.640, 227.064
1141.862, 211.711
1143.084, 426.430
1144.305, 201.203
1145.527, 486.016
1146.748, 370.875
1147.970, 435.775
1149.191, 250.717
1150.411, 545.703
1151.632, 670.730
1152.852, 385.799
1154.072, 560.908
1155.292, 626.061
1156.512, 531.250
1157.732, 776.480
1158.951, 431.754
1160.170, 1107.066
1161.389, 702.422
1162.608, 887.816
1163.826, 1023.250
1165.045, 1048.723
1166.263, 1194.211
1167.481, 1239.709
1168.699, 1045.199
1169.916, 1170.709
1171.134, 796.238
1172.351, 791.805
1173.568, 967.408
1174.784, 483.049
1176.001, 738.730
1177.217, 654.447
1178.433, 240.205
1179.649, 555.957
1180.865, 441.744
1182.081, 197.549
1183.296, 483.367
1184.511, 159.225
1185.726, 215.111
1186.941, 421.033
1188.155, 156.990
1189.370, 262.982
1190.584, 20.990
1191.798, 105.078
1193.011, 351.180
1194.225, 42.730
1195.438, 16.605
1196.651, 509.551
1197.864, 104.254
1199.077, 171.982
1200.290, 61.746
1201.502, 194.559
1202.714, 250.893
1203.926, 32.729
1205.138, 183.695
1206.349, 140.168
1207.561, 3.287
1208.772, 251.541
1209.983, 148.211
1211.194, 114.947
1212.404, 311.744
1213.614, 48.602
1214.825, 335.520
1216.034, 482.500
1217.244, 29.539
1218.454, 276.639
1219.663, 373.797
1220.872, 38.986
1222.081, 648.291
1223.290, 175.625
1224.498, 53.021
1225.707, 370.482
1226.915, 21.992
1228.123, 415.600
1229.331, 163.260
1230.538, 270.990
1231.746, 578.789
1232.953, 86.668
1234.160, 294.619
1235.366, 402.650
1236.573, 378.988
1237.779, 351.617
1238.986, 347.936
1240.192, 285.910
1241.397, 531.852
1242.603, 282.908
1243.808, 149.947
1245.013, 385.562
1246.218, 172.598
1247.423, 259.604
1248.628, 786.566
1249.832, 17.123
1251.036, 402.992
1252.240, 308.990
1253.444, 34.086
1254.648, 623.180
1255.851, 177.648
1257.054, 220.902
1258.257, 404.400
1259.460, 277.576
1260.663, 531.004
1261.865, 75.480
1263.067, 239.789
1264.269, 443.656
1265.471, 4.578
1266.673, 56.777
1267.874, 499.924
1269.075, 50.424
1270.276, 380.109
1271.477, 134.727
1272.678, 0.555
1273.878, 222.246
1275.078, 105.955
1276.278, 127.219
1277.478, 96.316
1278.678, 30.625
1279.877, 0.000
##END=



