##NAMES=Paravauxite
##RRUFFID=R040179
##IDEAL CHEMISTRY=Fe^2+^Al_2_(PO_4_)_2_(OH)_2_&#183;8H_2_O
##LOCALITY=Mina Siglo XX, Llallagua, Bolivia
##OWNER=RRUFF
##SOURCE=University of Arizona Mineral Museum
##DESCRIPTION=Colorless short prismatic crystals in subparallel groups
##STATUS=The identification of this mineral has been confirmed by X-ray diffraction and chemical analysis
##URL=rruff.info/R040179
##MEASURED CHEMISTRY=(Fe_0.93_Mg_0.03_Mn_0.02_)Al_1.94_(P_2.05_O_4_)_2_((OH)_0.99_F_0.01_)_2_Â·8H_2_O
##PIN_ID=M00312
##ORIENTATION=Laser parallel to a* (1 0 0). Fiducial mark perpendicular to laser is parallel to b [0 1 0]
105.212, 0.000
106.604, 4.133
107.995, 137.328
109.387, 88.590
110.777, 456.589
112.168, 438.757
113.559, 555.757
114.949, 562.952
116.339, 779.192
117.729, 922.180
119.119, 1223.183
120.508, 1536.907
121.897, 1658.440
123.286, 1957.047
124.675, 2146.076
126.063, 2138.959
127.452, 2365.205
128.840, 2364.390
130.228, 2506.154
131.615, 2490.197
133.003, 2446.276
134.390, 2374.298
135.777, 2274.304
137.164, 2276.277
138.550, 2030.045
139.937, 2015.378
141.323, 1762.069
142.709, 1819.944
144.094, 1468.859
145.480, 1358.691
146.865, 1184.333
148.250, 910.677
149.635, 828.635
151.019, 567.143
152.403, 468.147
153.788, 319.605
155.171, 110.480
156.555, 230.741
157.939, 103.360
159.322, 145.312
160.705, 84.056
162.088, 313.800
163.470, 566.193
164.853, 642.279
166.235, 904.887
167.617, 812.650
168.998, 875.955
170.380, 583.394
171.761, 683.641
173.142, 626.679
174.523, 654.521
175.904, 907.182
177.284, 917.673
178.664, 1068.003
180.044, 1120.182
181.424, 1412.214
182.803, 1364.109
184.183, 1355.875
185.562, 1437.514
186.940, 1219.033
188.319, 1160.377
189.698, 981.434
191.076, 962.296
192.454, 1183.022
193.831, 1223.651
195.209, 1404.210
196.586, 1214.723
197.963, 1255.203
199.340, 1035.664
200.717, 1026.117
202.093, 946.567
203.470, 927.023
204.846, 1147.487
206.221, 1167.963
207.597, 1528.453
208.972, 1648.960
210.347, 1849.480
211.722, 1810.021
213.097, 1820.577
214.472, 1853.595
215.846, 1675.210
217.220, 1683.339
218.594, 1422.977
219.967, 1421.506
221.341, 1341.981
222.714, 1403.608
224.087, 1540.547
225.460, 1731.180
226.832, 2028.916
228.204, 2468.725
229.577, 3143.604
230.948, 3876.650
232.320, 4338.867
233.692, 5033.169
235.063, 5072.633
236.434, 5290.111
237.805, 4717.568
239.175, 4025.059
240.545, 3482.578
241.916, 2870.125
243.286, 2467.699
244.655, 2035.292
246.025, 1722.901
247.394, 1490.519
248.763, 1278.135
250.132, 1145.747
251.501, 943.350
252.869, 920.943
254.237, 768.525
255.605, 796.097
256.973, 753.657
258.340, 659.206
259.708, 798.744
261.075, 676.270
262.442, 863.783
263.808, 941.286
265.175, 878.773
266.541, 1096.248
267.907, 1233.710
269.273, 1461.156
270.639, 1482.270
272.004, 1815.163
273.369, 2139.291
274.734, 2534.323
276.099, 3100.072
277.463, 3496.408
278.828, 4403.240
280.192, 4830.495
281.556, 5358.114
282.919, 5186.053
284.283, 4714.270
285.646, 4372.739
287.009, 4141.428
288.372, 3673.095
289.734, 3209.378
291.097, 2928.600
292.459, 2787.962
293.821, 2557.453
295.183, 2577.059
296.544, 2226.771
297.905, 2296.575
299.266, 2026.468
300.627, 1646.434
301.988, 1636.468
303.348, 1266.562
304.709, 1176.704
306.069, 916.891
307.428, 837.117
308.788, 697.376
310.147, 547.663
311.507, 457.976
312.865, 258.310
314.224, 278.661
315.583, 146.028
316.941, 133.409
318.299, 151.800
319.657, 81.199
321.015, 80.604
322.372, 134.985
323.729, 46.246
325.086, 115.361
326.443, 58.471
327.800, 20.308
329.156, 188.815
330.512, 112.231
331.868, 144.258
333.224, 140.820
334.579, 130.230
335.935, 175.116
337.290, 135.274
338.645, 180.774
339.999, 149.164
341.354, 227.209
342.708, 142.604
344.062, 159.205
345.416, 136.527
346.769, 128.586
348.123, 154.581
349.476, 131.715
350.829, 64.932
352.182, 34.311
353.534, 35.179
354.887, 36.273
356.239, 47.590
357.591, 8.940
358.942, 20.183
360.294, 168.339
361.645, 56.838
362.996, 175.302
364.347, 123.738
365.698, 132.146
367.048, 290.521
368.398, 218.876
369.748, 347.200
371.098, 305.496
372.448, 463.765
373.797, 392.005
375.146, 480.229
376.495, 578.422
377.844, 516.528
379.192, 634.554
380.540, 682.521
381.889, 570.330
383.236, 808.002
384.584, 665.521
385.932, 702.873
387.279, 710.050
388.626, 747.064
389.973, 743.936
391.319, 740.669
392.666, 1027.306
394.012, 823.855
395.358, 1110.321
396.704, 1076.737
398.049, 1143.161
399.394, 1289.597
400.740, 1226.013
402.084, 1532.441
403.429, 1538.850
404.774, 1635.241
406.118, 1671.617
407.462, 1537.987
408.806, 1774.341
410.150, 1580.673
411.493, 1636.986
412.836, 1723.279
414.179, 1629.550
415.522, 1955.820
416.865, 1932.068
418.207, 2268.299
419.549, 2424.508
420.891, 2930.690
422.233, 3256.855
423.575, 3682.995
424.916, 4609.113
426.257, 5185.210
427.598, 6091.281
428.939, 7117.330
430.279, 7623.356
431.619, 7911.018
432.959, 7885.369
434.299, 7601.376
435.639, 6847.378
436.978, 5783.367
438.318, 5169.341
439.657, 4225.297
440.996, 3721.230
442.334, 2917.156
443.673, 2443.055
445.011, 2278.929
446.349, 1874.775
447.687, 1780.594
449.024, 1356.383
450.361, 1248.722
451.699, 1084.607
453.036, 983.559
454.372, 939.219
455.709, 794.869
457.045, 940.484
458.381, 826.062
459.717, 751.621
461.053, 767.144
462.388, 662.656
463.724, 708.132
465.059, 593.568
466.394, 578.985
467.728, 684.365
469.063, 569.710
470.397, 665.015
471.731, 430.279
473.065, 405.521
474.398, 490.722
475.732, 435.893
477.065, 501.021
478.398, 396.108
479.731, 471.168
481.063, 436.184
482.396, 311.172
483.728, 157.852
485.060, 187.943
486.391, 250.104
487.723, 200.378
489.054, 244.395
490.385, 246.824
491.716, 213.535
493.047, 231.832
494.377, 162.812
495.708, 227.861
497.038, 170.084
498.368, 174.460
499.697, 225.879
501.027, 175.239
502.356, 178.989
503.685, 120.362
505.014, 142.316
506.342, 95.491
507.671, 78.951
508.999, 56.818
510.327, 83.411
511.655, 81.741
512.982, 99.752
514.310, 106.685
515.637, 124.629
516.964, 111.761
518.291, 91.224
519.617, 169.916
520.944, 161.653
522.270, 148.085
523.596, 242.325
524.921, 296.061
526.247, 409.713
527.572, 294.684
528.897, 478.429
530.222, 432.523
531.547, 536.909
532.871, 660.661
534.196, 447.461
535.520, 760.861
536.844, 664.731
538.167, 848.242
539.491, 824.055
540.814, 818.220
542.137, 1025.735
543.460, 1021.307
544.783, 1155.690
546.105, 1032.512
547.427, 1236.432
548.749, 1361.719
550.071, 1310.680
551.393, 1463.992
552.714, 1508.065
554.035, 1622.090
555.356, 1895.135
556.677, 1786.943
557.998, 2308.075
559.318, 2360.903
560.638, 2621.315
561.958, 2874.195
563.278, 2958.121
564.597, 3402.004
565.917, 3378.495
567.236, 3622.289
568.555, 3644.996
569.874, 3238.703
571.192, 3421.250
572.511, 2893.766
573.829, 2861.965
575.147, 2814.418
576.464, 2397.918
577.782, 2490.342
579.099, 2312.698
580.416, 2525.872
581.733, 2348.162
583.050, 2340.576
584.366, 2613.227
585.683, 2275.421
586.999, 2417.857
588.315, 2329.986
589.630, 2232.494
590.946, 2324.559
592.261, 2186.592
593.576, 2288.900
594.891, 2080.867
596.206, 1932.803
597.520, 2054.926
598.834, 1826.795
600.148, 2011.688
601.462, 1683.491
602.776, 1585.477
604.089, 1647.514
605.402, 1339.684
606.715, 1431.569
608.028, 1293.506
609.341, 1125.449
610.653, 1237.023
611.965, 898.901
613.277, 966.426
614.589, 838.193
615.901, 649.638
617.212, 765.346
618.523, 656.766
619.834, 625.038
621.145, 596.557
622.456, 558.086
623.766, 623.941
625.076, 525.487
626.386, 578.276
627.696, 619.632
629.006, 520.746
630.315, 666.164
631.624, 707.213
632.933, 760.833
634.242, 862.068
635.551, 953.018
636.859, 1107.407
638.167, 988.462
639.475, 1232.325
640.783, 1126.241
642.090, 1194.383
643.398, 1379.566
644.705, 1040.102
646.012, 1269.405
647.318, 1189.855
648.625, 1230.240
649.931, 1092.644
651.237, 1023.349
652.543, 1052.618
653.849, 966.590
655.155, 786.372
656.460, 688.147
657.765, 539.028
659.070, 729.497
660.375, 456.654
661.679, 606.550
662.984, 557.101
664.288, 356.868
665.592, 517.340
666.895, 359.050
668.199, 269.244
669.502, 299.536
670.805, 230.258
672.108, 321.145
673.411, 272.196
674.713, 153.221
676.016, 144.078
677.318, 25.114
678.620, 116.103
679.921, 97.528
681.223, 178.460
682.524, 199.360
683.825, 40.233
685.126, 161.064
686.427, 91.866
687.727, 62.633
689.028, 133.363
690.328, 5.937
691.628, 274.705
692.927, 95.317
694.227, 155.897
695.526, 6.449
696.825, 56.948
698.124, 22.589
699.423, 7.810
700.721, 38.157
702.020, 14.143
703.318, 58.717
704.616, 8.932
705.913, 50.901
707.211, 119.188
708.508, 39.247
709.805, 39.271
711.102, 159.257
712.399, 100.660
713.695, 90.806
714.992, 198.952
716.288, 81.316
717.584, 158.324
718.879, 27.938
720.175, 27.513
721.470, 22.947
722.765, 26.533
724.060, 155.977
725.355, 25.395
726.649, 214.778
727.944, 234.137
729.238, 56.529
730.532, 372.729
731.825, 21.965
733.119, 161.166
734.412, 190.343
735.705, 29.495
736.998, 278.617
738.291, 127.715
739.584, 66.788
740.876, 215.835
742.168, 94.858
743.460, 203.856
744.752, 62.832
746.043, 181.782
747.334, 230.710
748.626, 79.615
749.916, 198.496
751.207, 217.355
752.498, 96.194
753.788, 195.009
755.078, 26.197
756.368, 152.550
757.658, 91.274
758.947, 69.978
760.237, 38.659
761.526, 87.316
762.815, 65.952
764.104, 54.565
765.392, 213.156
766.680, 51.729
767.969, 79.720
769.257, 58.759
770.544, 127.217
771.832, 54.343
773.119, 114.042
774.406, 97.593
775.693, 70.694
776.980, 58.964
778.267, 62.787
779.553, 35.403
780.839, 16.425
782.125, 61.714
783.411, 229.835
784.697, 62.061
785.982, 185.989
787.267, 35.978
788.552, 42.017
789.837, 179.993
791.122, 52.046
792.406, 55.870
793.690, 46.231
794.974, 48.375
796.258, 49.438
797.542, 102.750
798.825, 15.000
800.108, 192.735
801.391, 10.464
802.674, 178.181
803.957, 44.116
805.239, 3.556
806.522, 51.212
807.804, 61.138
809.085, 186.469
810.367, 35.934
811.649, 121.637
812.930, 69.195
814.211, 113.258
815.492, 264.219
816.772, 141.688
818.053, 309.146
819.333, 23.406
820.613, 55.973
821.893, 141.434
823.173, 68.826
824.452, 76.213
825.732, 123.586
827.011, 70.949
828.290, 288.299
829.568, 115.420
830.847, 72.492
832.125, 157.900
833.403, 15.178
834.681, 221.574
835.959, 58.740
837.236, 45.992
838.514, 131.881
839.791, 208.951
841.068, 195.627
842.345, 271.967
843.621, 78.893
844.898, 412.729
846.174, 69.918
847.450, 226.594
848.726, 73.584
850.001, 8.232
851.277, 374.490
852.552, 137.355
853.827, 272.123
855.102, 298.037
856.376, 81.477
857.651, 337.777
858.925, 142.672
860.199, 153.857
861.473, 100.660
862.746, 6.668
864.020, 362.689
865.293, 10.344
866.566, 147.822
867.839, 376.633
869.112, 23.711
870.384, 383.174
871.656, 180.137
872.928, 106.018
874.200, 191.910
875.472, 145.162
876.744, 221.078
878.015, 198.066
879.286, 314.023
880.557, 291.107
881.828, 238.193
883.098, 79.561
884.369, 346.646
885.639, 142.652
886.909, 369.705
888.178, 106.797
889.448, 293.035
890.717, 430.131
891.987, 177.080
893.256, 393.758
894.524, 260.867
895.793, 297.701
897.061, 454.814
898.330, 221.549
899.598, 408.699
900.865, 475.854
902.133, 312.730
903.401, 659.920
904.668, 257.133
905.935, 424.129
907.202, 571.350
908.468, 495.555
909.735, 632.818
911.001, 419.875
912.267, 586.879
913.533, 673.725
914.799, 400.828
916.064, 587.855
917.330, 484.848
918.595, 622.195
919.860, 769.215
921.124, 680.561
922.389, 607.641
923.653, 755.021
924.918, 568.113
926.182, 895.473
927.445, 505.957
928.709, 953.168
929.972, 980.348
931.236, 793.178
932.499, 1070.299
933.761, 946.152
935.024, 923.418
936.286, 1150.904
937.549, 964.070
938.811, 1041.582
940.073, 1176.502
941.334, 1193.791
942.596, 1301.342
943.857, 985.434
945.118, 1302.844
946.379, 1377.424
947.640, 1361.930
948.900, 1639.375
950.161, 1260.594
951.421, 1587.938
952.681, 1635.594
953.940, 1672.963
955.200, 1970.648
956.459, 1855.871
957.719, 1913.273
958.978, 2400.902
960.236, 2055.252
961.495, 2613.008
962.753, 2359.061
964.012, 2786.848
965.270, 2844.648
966.527, 2966.061
967.785, 3463.891
969.043, 3491.752
970.300, 3809.631
971.557, 4466.609
972.814, 4561.980
974.071, 5129.910
975.327, 5787.855
976.583, 6315.814
977.840, 7673.791
979.095, 8301.785
980.351, 9639.793
981.607, 11827.816
982.862, 12905.855
984.117, 16933.920
985.372, 19031.537
986.627, 22739.641
987.882, 27389.662
989.136, 28397.795
990.390, 31285.963
991.644, 31074.145
992.898, 27672.352
994.152, 26870.584
995.405, 22458.834
996.659, 20147.117
997.912, 18315.426
999.165, 14903.750
1000.417, 13932.102
1001.670, 11592.086
1002.922, 9280.492
1004.174, 8258.945
1005.426, 6457.426
1006.678, 5645.936
1007.930, 4994.480
1009.181, 3813.055
1010.432, 3651.662
1011.683, 3021.604
1012.934, 2710.283
1014.185, 2408.990
1015.435, 2087.727
1016.685, 1946.365
1017.935, 1945.189
1019.185, 1494.072
1020.435, 1662.980
1021.684, 1351.945
1022.934, 1480.934
1024.183, 1429.953
1025.432, 1149.000
1026.680, 1188.088
1027.929, 1211.186
1029.177, 1010.330
1030.425, 1299.504
1031.673, 978.703
1032.921, 1127.926
1034.169, 927.199
1035.416, 726.498
1036.663, 915.828
1037.911, 1005.184
1039.157, 784.564
1040.404, 1043.977
1041.650, 674.361
1042.897, 863.826
1044.143, 903.320
1045.389, 582.842
1046.634, 1022.391
1047.880, 738.242
1049.125, 817.852
1050.371, 1067.484
1051.615, 903.842
1052.860, 1113.535
1054.105, 1196.666
1055.349, 1096.418
1056.593, 1217.555
1057.837, 993.572
1059.081, 1233.424
1060.325, 1113.305
1061.568, 1058.688
1062.812, 1178.613
1064.055, 945.430
1065.298, 820.900
1066.540, 698.582
1067.783, 561.260
1069.025, 480.617
1070.267, 410.719
1071.509, 330.877
1072.751, 381.053
1073.993, 121.264
1075.234, 441.523
1076.475, 351.816
1077.716, 122.172
1078.957, 482.562
1080.198, 272.986
1081.438, 333.412
1082.679, 493.875
1083.919, 224.379
1085.159, 364.916
1086.398, 485.490
1087.638, 416.107
1088.877, 506.750
1090.116, 287.439
1091.355, 378.068
1092.594, 938.621
1093.833, 379.160
1095.071, 719.729
1096.309, 660.201
1097.547, 520.611
1098.785, 801.039
1100.023, 541.514
1101.260, 681.959
1102.498, 602.418
1103.735, 542.893
1104.972, 913.373
1106.208, 813.873
1107.445, 574.381
1108.681, 694.893
1109.918, 345.418
1111.154, 515.939
1112.389, 716.467
1113.625, 216.992
1114.860, 537.525
1116.096, 208.100
1117.331, 392.615
1118.566, 563.223
1119.800, 133.850
1121.035, 554.852
1122.269, 575.541
1123.503, 216.262
1124.737, 587.023
1125.971, 7.461
1127.205, 167.832
1128.438, 348.129
1129.671, 158.334
1130.904, 298.494
1132.137, 248.664
1133.370, 49.617
1134.602, 300.611
1135.834, 78.354
1137.066, 132.732
1138.298, 113.867
1139.530, 45.055
1140.762, 266.291
1141.993, 117.562
1143.224, 108.885
1144.455, 200.256
1145.686, 321.678
1146.917, 273.139
1148.147, 234.650
1149.377, 63.785
1150.607, 377.830
1151.837, 419.494
1153.067, 141.209
1154.296, 372.953
1155.526, 124.725
1156.755, 216.545
1157.984, 418.414
1159.213, 49.666
1160.441, 502.301
1161.670, 164.309
1162.898, 276.363
1164.126, 518.434
1165.354, 200.520
1166.581, 332.578
1167.809, 364.646
1169.036, 166.719
1170.263, 418.789
1171.490, 160.840
1172.717, 192.934
1173.943, 525.059
1175.170, 82.785
1176.396, 349.412
1177.622, 211.652
1178.848, 23.934
1180.073, 326.258
1181.299, 58.619
1182.524, 161.021
1183.749, 283.463
1184.974, 45.945
1186.199, 228.467
1187.423, 271.035
1188.648, 16.350
1189.872, 436.318
1191.096, 149.037
1192.320, 141.811
1193.543, 414.639
1194.767, 92.473
1195.990, 240.473
1197.213, 403.480
1198.436, 93.479
1199.659, 289.592
1200.881, 37.277
1202.104, 305.914
1203.326, 389.180
1204.548, 97.469
1205.770, 275.971
1206.991, 349.490
1208.213, 60.854
1209.434, 372.744
1210.655, 196.416
1211.876, 100.158
1213.096, 543.977
1214.317, 4.215
1215.537, 458.105
1216.757, 472.064
1217.977, 126.092
1219.197, 447.027
1220.417, 301.131
1221.636, 245.301
1222.855, 779.547
1224.074, 223.863
1225.293, 398.262
1226.512, 562.744
1227.731, 235.861
1228.949, 550.236
1230.167, 214.688
1231.385, 279.219
1232.603, 823.826
1233.820, 155.422
1235.038, 490.104
1236.255, 544.859
1237.472, 377.311
1238.689, 566.912
1239.906, 417.439
1241.122, 310.455
1242.338, 602.744
1243.555, 211.598
1244.771, 352.525
1245.986, 323.189
1247.202, 204.652
1248.417, 464.459
1249.633, 583.988
1250.848, 153.039
1252.063, 701.521
1253.277, 239.643
1254.492, 237.346
1255.706, 394.221
1256.920, 150.277
1258.134, 315.941
1259.348, 493.246
1260.562, 381.211
1261.775, 811.426
1262.988, 38.156
1264.201, 422.660
1265.414, 433.676
1266.627, 45.158
1267.839, 447.561
1269.052, 491.428
1270.264, 256.711
1271.476, 558.025
1272.688, 278.340
1273.899, 37.020
1275.111, 270.469
1276.322, 113.420
1277.533, 0.000
##END=



