##NAMES=Paravauxite
##RRUFFID=R040179
##IDEAL CHEMISTRY=Fe^2+^Al_2_(PO_4_)_2_(OH)_2_&#183;8H_2_O
##LOCALITY=Mina Siglo XX, Llallagua, Bolivia
##OWNER=RRUFF
##SOURCE=University of Arizona Mineral Museum
##DESCRIPTION=Colorless short prismatic crystals in subparallel groups
##STATUS=The identification of this mineral has been confirmed by X-ray diffraction and chemical analysis
##URL=rruff.info/R040179
##MEASURED CHEMISTRY=(Fe_0.93_Mg_0.03_Mn_0.02_)Al_1.94_(P_2.05_O_4_)_2_((OH)_0.99_F_0.01_)_2_Â·8H_2_O
##PIN_ID=M00109
##ORIENTATION=Laser parallel to c* (0 0 1). Fiducial mark perpendicular to laser is parallel to a [1 0 0]
54.966, 0.000
56.365, 58.856
57.765, 94.285
59.164, 58.068
60.563, 92.379
61.962, 19.724
63.360, 23.835
64.758, 31.226
66.157, 11.760
67.554, 45.470
68.952, 169.347
70.349, 292.920
71.747, 486.790
73.144, 786.621
74.540, 1037.137
75.937, 1170.123
77.333, 1387.379
78.729, 1435.716
80.125, 1486.958
81.521, 1380.949
82.916, 1359.552
84.311, 1444.647
85.706, 1351.129
87.101, 1271.906
88.496, 1305.898
89.890, 1298.033
91.284, 1360.250
92.678, 1365.522
94.071, 1379.861
95.465, 1436.219
96.858, 1367.537
98.251, 1369.738
99.644, 1377.739
101.036, 1439.474
102.428, 1344.890
103.820, 1462.947
105.212, 1495.609
106.604, 1545.846
107.995, 1774.633
109.387, 1926.947
110.777, 2032.769
112.168, 2274.083
113.559, 2599.873
114.949, 2872.124
116.339, 3346.825
117.729, 3635.965
119.119, 4234.532
120.508, 4482.519
121.897, 4447.918
123.286, 4601.724
124.675, 4429.926
126.063, 4154.521
127.452, 3881.522
128.840, 3369.147
130.228, 2944.770
131.615, 2614.104
133.003, 2269.442
134.390, 1989.026
135.777, 1822.415
137.164, 1669.086
138.550, 1658.966
139.937, 1511.828
141.323, 1390.663
142.709, 1287.494
144.094, 1196.339
145.480, 1106.254
146.865, 1078.255
148.250, 1031.361
149.635, 961.585
151.019, 946.938
152.403, 888.428
153.788, 849.066
155.171, 897.858
156.555, 1065.809
157.939, 1313.644
159.322, 1662.975
160.705, 2116.664
162.088, 2626.295
163.470, 3277.103
164.853, 3948.090
166.235, 4359.258
167.617, 4510.609
168.998, 4436.142
170.380, 4271.860
171.761, 3833.763
173.142, 3571.851
174.523, 3413.123
175.904, 3292.580
177.284, 3225.791
178.664, 3343.059
180.044, 3287.083
181.424, 3341.300
182.803, 3536.714
184.183, 3260.327
185.562, 3250.141
186.940, 3006.156
188.319, 2696.371
189.698, 2503.785
191.076, 2182.397
192.454, 1858.206
193.831, 1762.210
195.209, 1581.408
196.586, 1539.799
197.963, 1362.383
199.340, 1299.903
200.717, 1133.450
202.093, 1162.766
203.470, 975.071
204.846, 941.499
206.221, 980.988
207.597, 1050.087
208.972, 1066.352
210.347, 954.939
211.722, 968.711
213.097, 1044.663
214.472, 1027.791
215.846, 1144.093
217.220, 1300.569
218.594, 1501.217
219.967, 1947.035
221.341, 2364.083
222.714, 2872.084
224.087, 3598.997
225.460, 4574.132
226.832, 5785.469
228.204, 7301.906
229.577, 8785.733
230.948, 10691.354
232.320, 12158.378
233.692, 13512.757
235.063, 14244.479
236.434, 14111.522
237.805, 13381.872
239.175, 12039.516
240.545, 10524.438
241.916, 9193.635
243.286, 7617.085
244.655, 6321.784
246.025, 5223.728
247.394, 4358.903
248.763, 3661.305
250.132, 3026.925
251.501, 2725.759
252.869, 2268.800
254.237, 2060.042
255.605, 1809.481
256.973, 1712.112
258.340, 1578.932
259.708, 1436.933
261.075, 1401.113
262.442, 1395.467
263.808, 1418.992
265.175, 1431.683
266.541, 1551.539
267.907, 1693.555
269.273, 1858.730
270.639, 2289.061
272.004, 2690.545
273.369, 3430.180
274.734, 4491.963
276.099, 5621.896
277.463, 7022.972
278.828, 8903.193
280.192, 10228.552
281.556, 11423.054
282.919, 12182.688
284.283, 11570.465
285.646, 10797.371
287.009, 9308.416
288.372, 8177.590
289.734, 7652.889
291.097, 6992.321
292.459, 6708.882
293.821, 6825.577
295.183, 6410.422
296.544, 6418.422
297.905, 6061.583
299.266, 5829.904
300.627, 5253.406
301.988, 4848.080
303.348, 4292.938
304.709, 3764.987
306.069, 3217.245
307.428, 2803.702
308.788, 2274.362
310.147, 1828.203
311.507, 1517.244
312.865, 1198.449
314.224, 956.807
315.583, 674.296
316.941, 536.897
318.299, 386.608
319.657, 142.431
321.015, 125.362
322.372, 55.403
323.729, 91.554
325.086, 84.812
326.443, 129.178
327.800, 93.651
329.156, 182.230
330.512, 109.915
331.868, 154.706
333.224, 151.600
334.579, 255.597
335.935, 31.698
337.290, 113.900
338.645, 303.205
339.999, 50.609
341.354, 79.886
342.708, 92.291
344.062, 70.605
345.416, 214.830
346.769, 254.984
348.123, 230.073
349.476, 359.096
350.829, 235.073
352.182, 182.985
353.534, 143.827
354.887, 190.593
356.239, 164.292
357.591, 156.919
358.942, 149.477
360.294, 40.962
361.645, 81.635
362.996, 40.311
364.347, 219.057
365.698, 374.833
367.048, 542.612
368.398, 610.434
369.748, 734.301
371.098, 951.223
372.448, 1130.214
373.797, 1351.293
375.146, 1373.466
376.495, 1739.728
377.844, 1761.077
379.192, 1792.509
380.540, 1934.034
381.889, 1859.638
383.236, 1793.327
384.584, 1861.133
385.932, 1724.058
387.279, 1642.103
388.626, 1579.268
389.973, 1697.549
391.319, 1602.953
392.666, 1604.479
394.012, 1600.121
395.358, 1596.868
396.704, 1885.723
398.049, 1901.682
399.394, 2211.743
400.740, 2275.905
402.084, 2524.166
403.429, 2702.524
404.774, 2897.980
406.118, 2985.030
407.462, 3039.821
408.806, 3023.936
410.150, 2996.772
411.493, 2841.700
412.836, 2703.715
414.179, 2513.819
415.522, 2357.010
416.865, 2303.291
418.207, 2075.658
419.549, 1876.108
420.891, 1851.643
422.233, 1788.258
423.575, 1673.957
424.916, 1700.088
426.257, 1682.593
427.598, 1743.530
428.939, 1731.545
430.279, 1820.637
431.619, 1774.812
432.959, 1718.063
434.299, 1684.389
435.639, 1605.788
436.978, 1451.261
438.318, 1284.807
439.657, 1173.125
440.996, 995.122
442.334, 914.893
443.673, 750.735
445.011, 648.648
446.349, 603.630
447.687, 488.685
449.024, 475.816
450.361, 549.016
451.699, 341.293
453.036, 434.224
454.372, 408.608
455.709, 559.728
457.045, 438.332
458.381, 587.692
459.717, 571.629
461.053, 640.803
462.388, 739.562
463.724, 871.005
465.059, 1030.777
466.394, 1096.540
467.728, 1208.800
469.063, 1416.798
470.397, 1494.682
471.731, 1584.131
473.065, 1749.198
474.398, 1751.644
475.732, 1884.531
477.065, 1778.078
478.398, 1825.702
479.731, 1859.387
481.063, 1669.134
482.396, 1576.927
483.728, 1546.774
485.060, 1532.672
486.391, 1456.606
487.723, 1346.581
489.054, 1183.589
490.385, 1210.639
491.716, 1078.728
493.047, 1033.848
494.377, 902.999
495.708, 871.178
497.038, 787.387
498.368, 756.623
499.697, 680.887
501.027, 626.817
502.356, 594.965
503.685, 520.452
505.014, 470.494
506.342, 433.245
507.671, 444.629
508.999, 306.861
510.327, 364.300
511.655, 310.357
512.982, 299.154
514.310, 399.219
515.637, 405.753
516.964, 457.016
518.291, 428.816
519.617, 533.714
520.944, 530.564
522.270, 526.214
523.596, 653.260
524.921, 810.900
526.247, 936.232
527.572, 1068.849
528.897, 1202.415
530.222, 1323.892
531.547, 1461.643
532.871, 1594.117
534.196, 1734.217
535.520, 1940.250
536.844, 2109.432
538.167, 2280.598
539.491, 2596.161
540.814, 2685.021
542.137, 2904.975
543.460, 3028.488
544.783, 3115.684
546.105, 3252.627
547.427, 3403.532
548.749, 3429.715
550.071, 3593.763
551.393, 3672.126
552.714, 3709.229
554.035, 3870.171
555.356, 4111.715
556.677, 4189.922
557.998, 4352.042
559.318, 4694.033
560.638, 4921.999
561.958, 5162.125
563.278, 5357.194
564.597, 5681.712
565.917, 5683.094
567.236, 5580.010
568.555, 5677.954
569.874, 5306.858
571.192, 5003.756
572.511, 4719.646
573.829, 4031.528
575.147, 3484.449
576.464, 3127.315
577.782, 2732.170
579.099, 2384.017
580.416, 2038.850
581.733, 1881.863
583.050, 1741.675
584.366, 1521.472
585.683, 1496.256
586.999, 1275.027
588.315, 1215.843
589.630, 1200.054
590.946, 1057.778
592.261, 1102.486
593.576, 1023.178
594.891, 811.896
596.206, 795.646
597.520, 793.002
598.834, 674.110
600.148, 645.201
601.462, 607.195
602.776, 532.901
604.089, 436.943
605.402, 329.588
606.715, 338.187
608.028, 288.321
609.341, 173.529
610.653, 126.303
611.965, 77.192
613.277, 20.132
614.589, 42.904
615.901, 87.187
617.212, 77.416
618.523, 163.908
619.834, 137.066
621.145, 179.655
622.456, 213.097
623.766, 258.108
625.076, 231.532
626.386, 239.068
627.696, 154.040
629.006, 224.389
630.315, 86.414
631.624, 37.195
632.933, 47.680
634.242, 235.194
635.551, 337.033
636.859, 445.910
638.167, 533.222
639.475, 748.831
640.783, 808.197
642.090, 987.378
643.398, 1241.225
644.705, 1237.222
646.012, 1347.831
647.318, 1407.721
648.625, 1445.811
649.931, 1442.216
651.237, 1389.565
652.543, 1430.854
653.849, 1339.099
655.155, 1304.300
656.460, 1184.458
657.765, 1115.570
659.070, 1046.598
660.375, 935.669
661.679, 910.665
662.984, 785.622
664.288, 730.559
665.592, 743.482
666.895, 630.387
668.199, 519.294
669.502, 499.185
670.805, 380.049
672.108, 434.884
673.411, 364.694
674.713, 317.477
676.016, 319.229
677.318, 256.953
678.620, 257.632
679.921, 222.263
681.223, 151.840
682.524, 209.351
683.825, 131.806
685.126, 200.188
686.427, 151.511
687.727, 152.766
689.028, 209.952
690.328, 144.082
691.628, 185.139
692.927, 179.135
694.227, 235.067
695.526, 133.946
696.825, 269.749
698.124, 193.500
699.423, 218.190
700.721, 240.823
702.020, 202.402
703.318, 256.921
704.616, 245.387
705.913, 155.797
707.211, 181.138
708.508, 255.412
709.805, 277.632
711.102, 221.801
712.399, 247.912
713.695, 256.967
714.992, 272.969
716.288, 277.917
717.584, 257.813
718.879, 264.656
720.175, 178.443
721.470, 234.561
722.765, 355.829
724.060, 283.440
725.355, 349.000
726.649, 322.507
727.944, 318.963
729.238, 449.366
730.532, 203.717
731.825, 450.005
733.119, 374.242
734.412, 315.426
735.705, 306.559
736.998, 261.639
738.291, 314.665
739.584, 322.639
740.876, 407.562
742.168, 383.432
743.460, 283.250
744.752, 182.015
746.043, 340.715
747.334, 415.364
748.626, 318.961
749.916, 286.506
751.207, 274.000
752.498, 220.440
753.788, 235.985
755.078, 177.148
756.368, 241.409
757.658, 263.615
758.947, 233.768
760.237, 192.865
761.526, 145.900
762.815, 219.867
764.104, 118.775
765.392, 177.610
766.680, 125.798
767.969, 94.536
769.257, 188.536
770.544, 107.060
771.832, 129.827
773.119, 57.021
774.406, 58.975
775.693, 140.340
776.980, 5.026
778.267, 43.373
779.553, 19.727
780.839, 42.419
782.125, 33.320
783.411, 6.119
784.697, 56.487
785.982, 100.487
787.267, 21.892
788.552, 51.742
789.837, 138.263
791.122, 76.897
792.406, 85.610
793.690, 28.406
794.974, 58.254
796.258, 57.169
797.542, 13.850
798.825, 26.165
800.108, 26.773
801.391, 28.322
802.674, 33.464
803.957, 31.347
805.239, 32.126
806.522, 53.065
807.804, 51.595
809.085, 74.285
810.367, 87.947
811.649, 79.581
812.930, 140.186
814.211, 136.762
815.492, 104.312
816.772, 166.833
818.053, 215.328
819.333, 254.795
820.613, 230.236
821.893, 225.650
823.173, 277.038
824.452, 313.398
825.732, 370.733
827.011, 216.042
828.290, 404.326
829.568, 317.584
830.847, 340.818
832.125, 430.031
833.403, 418.222
834.681, 360.014
835.959, 411.205
837.236, 449.702
838.514, 426.220
839.791, 513.461
841.068, 521.528
842.345, 510.595
843.621, 598.934
844.898, 421.641
846.174, 468.412
847.450, 531.027
848.726, 503.650
850.001, 596.870
851.277, 576.785
852.552, 515.599
853.827, 606.846
855.102, 557.402
856.376, 654.338
857.651, 659.031
858.925, 675.573
860.199, 733.239
861.473, 579.580
862.746, 723.171
864.020, 717.912
865.293, 627.038
866.566, 738.490
867.839, 710.017
869.112, 714.659
870.384, 768.314
871.656, 732.796
872.928, 670.321
874.200, 802.383
875.472, 740.567
876.744, 743.203
878.015, 878.795
879.286, 782.413
880.557, 828.021
881.828, 844.620
883.098, 890.211
884.369, 903.748
885.639, 889.323
886.909, 835.891
888.178, 841.452
889.448, 819.006
890.717, 859.622
891.987, 895.907
893.256, 966.443
894.524, 984.931
895.793, 967.503
897.061, 1045.966
898.330, 1049.014
899.598, 1091.122
900.865, 1032.042
902.133, 1127.551
903.401, 1089.012
904.668, 1082.426
905.935, 1202.215
907.202, 1116.234
908.468, 1227.250
909.735, 1340.345
911.001, 1405.709
912.267, 1264.721
913.533, 1365.106
914.799, 1413.528
916.064, 1403.392
917.330, 1574.159
918.595, 1467.344
919.860, 1564.399
921.124, 1664.636
922.389, 1688.284
923.653, 1767.393
924.918, 1732.376
926.182, 1877.563
927.445, 1883.333
928.709, 1933.459
929.972, 2025.901
931.236, 1994.730
932.499, 2165.393
933.761, 2257.192
935.024, 2215.194
936.286, 2286.484
937.549, 2392.382
938.811, 2323.910
940.073, 2541.720
941.334, 2441.844
942.596, 2567.618
943.857, 2734.346
945.118, 2740.614
946.379, 2796.564
947.640, 2867.731
948.900, 2994.066
950.161, 3201.693
951.421, 3335.158
952.681, 3429.985
953.940, 3640.505
955.200, 3677.798
956.459, 3811.762
957.719, 4115.754
958.978, 4338.786
960.236, 4524.832
961.495, 4667.900
962.753, 4955.982
964.012, 5229.048
965.270, 5430.223
966.527, 5893.376
967.785, 6232.544
969.043, 6579.731
970.300, 7092.942
971.557, 7565.171
972.814, 8139.420
974.071, 8948.689
975.327, 9980.979
976.583, 10868.293
977.840, 12128.625
979.095, 13533.986
980.351, 15348.483
981.607, 17881.920
982.862, 20372.283
984.117, 23880.266
985.372, 29143.885
986.627, 33065.434
987.882, 40043.926
989.136, 46271.656
990.390, 51024.332
991.644, 55839.383
992.898, 56293.133
994.152, 53899.941
995.405, 49914.828
996.659, 44507.086
997.912, 39853.980
999.165, 35116.910
1000.417, 30487.863
1001.670, 25929.859
1002.922, 22510.877
1004.174, 18393.926
1005.426, 15544.996
1006.678, 12948.100
1007.930, 10746.232
1009.181, 8992.389
1010.432, 7610.571
1011.683, 6448.785
1012.934, 5514.028
1014.185, 4746.299
1015.435, 4142.592
1016.685, 3661.914
1017.935, 3112.259
1019.185, 2794.631
1020.435, 2472.026
1021.684, 2247.464
1022.934, 2033.938
1024.183, 1841.436
1025.432, 1666.263
1026.680, 1509.513
1027.929, 1358.086
1029.177, 1154.683
1030.425, 1017.302
1031.673, 894.198
1032.921, 921.604
1034.169, 761.289
1035.416, 709.000
1036.663, 815.734
1037.911, 624.494
1039.157, 559.281
1040.404, 552.097
1041.650, 528.942
1042.897, 513.486
1044.143, 507.420
1045.389, 496.618
1046.634, 509.554
1047.880, 479.516
1049.125, 510.504
1050.371, 516.515
1051.615, 713.546
1052.860, 686.599
1054.105, 823.004
1055.349, 911.098
1056.593, 972.866
1057.837, 1021.007
1059.081, 1212.545
1060.325, 1149.768
1061.568, 1121.063
1062.812, 896.297
1064.055, 855.019
1065.298, 681.384
1066.540, 609.697
1067.783, 474.210
1069.025, 303.566
1070.267, 381.104
1071.509, 251.522
1072.751, 180.174
1073.993, 175.788
1075.234, 55.612
1076.475, 89.625
1077.716, 152.893
1078.957, 85.162
1080.198, 61.421
1081.438, 69.299
1082.679, 16.235
1083.919, 7.749
1085.159, 3.619
1086.398, 6.545
1087.638, 28.525
1088.877, 38.110
1090.116, 66.103
1091.355, 130.013
1092.594, 124.269
1093.833, 148.525
1095.071, 149.693
1096.309, 163.987
1097.547, 279.178
1098.785, 205.522
1100.023, 306.942
1101.260, 304.414
1102.498, 341.770
1103.735, 363.018
1104.972, 407.140
1106.208, 359.600
1107.445, 411.604
1108.681, 247.029
1109.918, 280.988
1111.154, 198.275
1112.389, 247.576
1113.625, 301.443
1114.860, 173.927
1116.096, 195.293
1117.331, 241.748
1118.566, 134.113
1119.800, 171.771
1121.035, 89.396
1122.269, 38.525
1123.503, 80.080
1124.737, 64.637
1125.971, 15.150
1127.205, 7.964
1128.438, 12.562
1129.671, 1.042
1130.904, 53.427
1132.137, 35.030
1133.370, 10.109
1134.602, 32.951
1135.834, 52.002
1137.066, 90.442
1138.298, 50.019
1139.530, 24.600
1140.762, 45.028
1141.993, 0.969
1143.224, 5.889
1144.455, 26.943
1145.686, 16.682
1146.917, 67.656
1148.147, 61.374
1149.377, 73.979
1150.607, 101.005
1151.837, 61.767
1153.067, 83.245
1154.296, 106.248
1155.526, 186.930
1156.755, 147.275
1157.984, 282.813
1159.213, 247.339
1160.441, 252.859
1161.670, 313.542
1162.898, 407.134
1164.126, 461.232
1165.354, 441.653
1166.581, 470.243
1167.809, 503.514
1169.036, 413.936
1170.263, 563.264
1171.490, 529.863
1172.717, 479.075
1173.943, 405.445
1175.170, 400.763
1176.396, 344.595
1177.622, 352.890
1178.848, 276.161
1180.073, 156.466
1181.299, 243.785
1182.524, 271.167
1183.749, 143.519
1184.974, 160.770
1186.199, 77.282
1187.423, 175.944
1188.648, 65.865
1189.872, 137.173
1191.096, 77.187
1192.320, 55.502
1193.543, 67.713
1194.767, 32.237
1195.990, 11.357
1197.213, 23.516
1198.436, 65.517
1199.659, 63.443
1200.881, 31.675
1202.104, 73.181
1203.326, 13.979
1204.548, 92.841
1205.770, 29.355
1206.991, 23.421
1208.213, 21.565
1209.434, 53.168
1210.655, 44.684
1211.876, 23.183
1213.096, 44.845
1214.317, 19.458
1215.537, 48.841
1216.757, 17.732
1217.977, 62.713
1219.197, 33.204
1220.417, 27.267
1221.636, 33.062
1222.855, 18.649
1224.074, 37.167
1225.293, 67.764
1226.512, 0.486
1227.731, 18.867
1228.949, 18.902
1230.167, 25.742
1231.385, 50.412
1232.603, 44.540
1233.820, 42.617
1235.038, 2.716
1236.255, 58.776
1237.472, 103.973
1238.689, 52.014
1239.906, 29.076
1241.122, 0.032
1242.338, 38.111
1243.555, 71.022
1244.771, 42.903
1245.986, 0.762
1247.202, 28.594
1248.417, 55.390
1249.633, 87.166
1250.848, 22.082
1252.063, 46.637
1253.277, 15.331
1254.492, 63.023
1255.706, 18.780
1256.920, 103.331
1258.134, 13.848
1259.348, 11.684
1260.562, 66.719
1261.775, 98.068
1262.988, 80.050
1264.201, 17.638
1265.414, 47.857
1266.627, 54.039
1267.839, 26.193
1269.052, 70.302
1270.264, 18.378
1271.476, 85.420
1272.688, 2.572
1273.899, 99.392
1275.111, 45.793
1276.322, 59.973
1277.533, 5.907
1278.744, 41.157
1279.955, 12.765
1281.165, 3.569
1282.376, 59.843
1283.586, 101.620
1284.796, 57.868
1286.006, 69.245
1287.215, 18.352
1288.425, 35.990
1289.634, 16.245
1290.843, 72.125
1292.052, 17.626
1293.261, 62.576
1294.469, 25.747
1295.678, 43.878
1296.886, 59.972
1298.094, 102.032
1299.302, 0.061
1300.509, 70.046
1301.717, 35.997
1302.924, 87.911
1304.131, 89.792
1305.338, 90.640
1306.545, 28.455
1307.752, 82.232
1308.958, 46.977
1310.164, 111.683
1311.370, 32.357
1312.576, 145.990
1313.782, 35.410
1314.987, 1.866
1316.193, 80.632
1317.398, 155.094
1318.603, 115.520
1319.807, 126.913
1321.012, 61.271
1322.216, 128.595
1323.421, 132.886
1324.625, 122.837
1325.829, 117.373
1327.032, 101.568
1328.236, 105.731
1329.439, 44.863
1330.642, 36.958
1331.845, 33.019
1333.048, 26.552
1334.251, 105.027
1335.453, 52.982
1336.656, 101.904
1337.858, 119.797
1339.060, 77.660
1340.261, 135.492
1341.463, 123.295
1342.664, 158.069
1343.866, 172.816
1345.067, 184.376
1346.267, 198.046
1347.468, 202.559
1348.669, 210.546
1349.869, 189.160
1351.069, 189.377
1352.269, 117.908
1353.469, 220.363
1354.668, 91.878
1355.868, 130.908
1357.067, 249.301
1358.266, 163.747
1359.465, 187.004
1360.664, 211.425
1361.862, 182.674
1363.061, 241.812
1364.259, 214.971
1365.457, 117.178
1366.655, 202.188
1367.852, 142.028
1369.050, 148.634
1370.247, 253.250
1371.444, 135.906
1372.641, 172.825
1373.838, 136.158
1375.035, 202.979
1376.231, 204.896
1377.427, 152.754
1378.623, 153.640
1379.819, 190.827
1381.015, 120.652
1382.211, 210.912
1383.406, 126.311
1384.601, 206.705
1385.796, 118.704
1386.991, 169.043
1388.185, 202.235
1389.380, 212.667
1390.574, 163.266
1391.768, 157.650
1392.962, 234.599
1394.156, 164.445
1395.350, 229.851
1396.543, 212.765
1397.736, 146.191
1398.929, 121.153
1400.122, 213.713
1401.315, 205.345
1402.507, 190.745
1403.700, 152.680
1404.892, 176.414
1406.084, 158.300
1407.276, 147.125
1408.467, 164.186
1409.659, 207.682
1410.850, 171.836
1412.041, 273.743
1413.232, 140.842
1414.423, 275.931
1415.614, 151.283
1416.804, 236.518
1417.994, 142.165
1419.184, 247.156
1420.374, 153.878
1421.564, 226.656
1422.753, 195.684
1423.943, 171.372
1425.132, 217.748
1426.321, 170.648
1427.510, 124.008
1428.698, 265.559
1429.887, 166.278
1431.075, 181.671
1432.263, 279.727
1433.451, 152.119
1434.639, 188.649
1435.827, 233.128
1437.014, 169.560
1438.201, 252.516
1439.388, 234.795
1440.575, 224.983
1441.762, 180.236
1442.949, 173.462
1444.135, 157.981
1445.321, 150.426
1446.507, 166.366
1447.693, 156.366
1448.879, 217.359
1450.064, 229.457
1451.250, 283.503
1452.435, 233.191
1453.620, 323.873
1454.805, 166.370
1455.989, 226.114
1457.174, 298.784
1458.358, 159.373
1459.542, 190.860
1460.726, 200.923
1461.910, 199.526
1463.093, 203.227
1464.277, 250.109
1465.460, 222.093
1466.643, 179.026
1467.826, 197.030
1469.009, 171.880
1470.191, 228.579
1471.373, 173.216
1472.556, 171.414
1473.738, 197.595
1474.919, 102.854
