##NAMES=Paravauxite
##RRUFFID=R040179
##IDEAL CHEMISTRY=Fe^2+^Al_2_(PO_4_)_2_(OH)_2_&#183;8H_2_O
##LOCALITY=Mina Siglo XX, Llallagua, Bolivia
##OWNER=RRUFF
##SOURCE=University of Arizona Mineral Museum
##DESCRIPTION=Colorless short prismatic crystals in subparallel groups
##STATUS=The identification of this mineral has been confirmed by X-ray diffraction and chemical analysis
##URL=rruff.info/R040179
##MEASURED CHEMISTRY=(Fe_0.93_Mg_0.03_Mn_0.02_)Al_1.94_(P_2.05_O_4_)_2_((OH)_0.99_F_0.01_)_2_Â·8H_2_O
##PIN_ID=M00226
##ORIENTATION=Laser parallel to b* (0 1 0). Fiducial mark perpendicular to laser is parallel to c [0 0 1]
116.097, 0.000
117.494, 159.827
118.891, 272.638
120.287, 383.089
121.683, 823.180
123.079, 1258.434
124.475, 1420.683
125.870, 1546.143
127.265, 1642.608
128.660, 1678.812
130.055, 1660.452
131.449, 1539.004
132.843, 1565.467
134.237, 1530.504
135.631, 1344.542
137.024, 1360.856
138.417, 1351.856
139.810, 1126.066
141.203, 1078.878
142.596, 952.455
143.988, 916.754
145.380, 731.730
146.771, 647.461
148.163, 503.926
149.554, 383.133
150.945, 278.655
152.336, 176.745
153.726, 135.224
155.117, 84.038
156.507, 36.855
157.896, 47.500
159.286, 150.923
160.675, 58.146
162.064, 179.190
163.453, 1.934
164.842, 92.209
166.230, 32.619
167.618, 183.184
169.006, 94.116
170.393, 115.377
171.781, 46.686
173.168, 238.285
174.555, 130.923
175.941, 254.552
177.328, 408.756
178.714, 373.184
180.100, 427.521
181.485, 591.702
182.871, 745.739
184.256, 729.642
185.641, 813.420
187.025, 867.080
188.410, 800.631
189.794, 694.078
191.178, 517.426
192.562, 490.682
193.945, 723.849
195.328, 536.934
196.711, 519.939
198.094, 352.870
199.476, 335.729
200.859, 358.549
202.241, 171.355
203.623, 194.166
205.004, 216.981
206.385, 389.800
207.766, 382.618
209.147, 615.436
210.528, 698.248
211.908, 781.037
213.288, 923.806
214.668, 756.555
216.048, 969.288
217.427, 982.391
218.806, 1096.109
220.185, 1169.254
221.564, 1258.122
222.942, 1421.461
224.320, 1663.752
225.698, 1925.834
227.076, 2738.302
228.453, 3263.124
229.830, 4138.035
231.207, 5200.653
232.584, 6271.026
233.960, 7369.585
235.337, 8004.916
236.713, 8080.510
238.088, 8095.944
239.464, 7517.080
240.839, 6283.926
242.214, 5434.606
243.589, 4585.305
244.964, 3646.020
246.338, 3156.749
247.712, 2527.493
249.086, 2098.250
250.459, 1829.021
251.833, 1629.803
253.206, 1330.594
254.579, 1141.394
255.951, 1062.202
257.324, 793.016
258.696, 693.831
260.068, 674.644
261.439, 715.453
262.811, 416.260
264.182, 547.064
265.553, 627.866
266.924, 418.666
268.294, 409.464
269.665, 420.259
271.035, 501.053
272.404, 491.846
273.774, 592.638
275.143, 863.431
276.512, 934.221
277.881, 1245.012
279.250, 1485.801
280.618, 1806.590
281.986, 2157.649
283.354, 2479.558
284.721, 2511.900
286.089, 2364.501
287.456, 2007.259
288.823, 1810.104
290.190, 1572.999
291.556, 1505.929
292.922, 1428.840
294.288, 1261.688
295.654, 1334.495
297.019, 1277.271
298.385, 1350.026
299.750, 1242.768
301.114, 1135.498
302.479, 1058.062
303.843, 910.273
305.207, 902.206
306.571, 614.178
307.935, 546.184
309.298, 548.223
310.661, 370.288
312.024, 282.378
313.387, 344.490
314.749, 226.620
316.111, 208.766
317.473, 70.925
318.835, 263.093
320.196, 45.271
321.558, 65.554
322.919, 115.366
324.279, 70.708
325.640, 31.328
327.000, 20.925
328.360, 93.009
329.720, 155.166
331.080, 77.327
332.439, 169.715
333.798, 132.104
335.157, 64.262
336.516, 107.112
337.874, 0.508
339.232, 111.939
340.590, 32.741
341.948, 46.056
343.305, 43.688
344.662, 121.604
346.019, 109.653
347.376, 147.756
348.733, 85.833
350.089, 43.953
351.445, 101.896
352.801, 109.928
354.156, 107.921
355.512, 3.786
356.867, 5.458
358.222, 7.008
359.576, 71.463
360.931, 20.025
362.285, 91.496
363.639, 37.046
364.992, 204.382
366.346, 235.800
367.699, 307.205
369.052, 308.601
370.405, 369.982
371.757, 601.354
373.110, 642.722
374.462, 884.075
375.814, 875.418
377.165, 936.756
378.516, 1148.081
379.868, 1099.396
381.218, 1050.700
382.569, 1081.992
383.920, 1083.271
385.270, 1104.485
386.620, 1069.946
387.969, 946.881
389.319, 968.066
390.668, 829.240
392.017, 730.393
393.366, 831.494
394.714, 832.521
396.063, 813.416
397.411, 884.232
398.759, 824.938
400.106, 885.620
401.454, 936.297
402.801, 956.924
404.148, 1087.545
405.495, 1148.162
406.841, 1278.776
408.187, 1399.389
409.533, 1390.022
410.879, 1310.654
412.224, 1271.284
413.570, 1291.937
414.915, 1372.587
416.260, 1293.230
417.604, 1313.892
418.949, 1464.548
420.293, 1455.201
421.637, 1725.848
422.980, 1826.491
424.324, 2097.170
425.667, 2267.842
427.010, 2618.531
428.353, 3049.261
429.695, 3439.986
431.037, 4260.706
432.379, 4381.420
433.721, 4342.127
435.063, 4232.831
436.404, 3973.529
437.745, 3784.222
439.086, 3124.908
440.427, 2735.588
441.767, 2466.262
443.108, 2066.930
444.448, 1727.593
445.787, 1438.246
447.127, 1268.888
448.466, 1209.524
449.805, 1070.168
451.144, 960.796
452.482, 911.416
453.821, 752.069
455.159, 722.707
456.497, 563.327
457.834, 553.955
459.172, 664.567
460.509, 655.162
461.846, 555.741
463.183, 546.305
464.519, 506.869
465.856, 567.457
467.192, 448.037
468.527, 378.605
469.863, 519.161
471.198, 419.710
472.534, 570.243
473.868, 540.763
475.203, 461.266
476.538, 441.755
477.872, 396.090
479.206, 542.453
480.540, 362.896
481.873, 372.691
483.206, 442.823
484.539, 293.204
485.872, 177.116
487.205, 353.590
488.537, 323.323
489.869, 233.728
491.201, 254.181
492.533, 124.509
493.864, 124.960
495.196, 225.395
496.527, 45.598
497.857, 125.952
499.188, 104.516
500.518, 25.146
501.848, 48.753
503.178, 96.634
504.508, 152.136
505.837, 282.758
507.166, 154.101
508.495, 123.025
509.824, 115.812
511.153, 61.203
512.481, 62.932
513.809, 34.133
515.137, 85.437
516.464, 88.093
517.792, 182.111
519.119, 160.560
520.446, 134.077
521.772, 212.994
523.099, 187.194
524.425, 138.459
525.751, 228.909
527.077, 298.920
528.402, 378.979
529.728, 338.960
531.053, 449.004
532.377, 450.230
533.702, 560.175
535.027, 710.096
536.351, 541.471
537.675, 701.393
538.998, 611.601
540.322, 842.031
541.645, 692.775
542.968, 743.207
544.291, 887.545
545.613, 907.798
546.936, 908.314
548.258, 1016.396
549.580, 1008.028
550.902, 1098.297
552.223, 1081.553
553.544, 986.832
554.865, 1166.821
556.186, 1237.459
557.507, 1457.310
558.827, 1437.564
560.147, 1982.324
561.467, 1782.239
562.786, 2217.940
564.106, 2447.514
565.425, 2447.575
566.744, 2677.423
568.063, 2993.145
569.381, 3072.978
570.700, 3223.372
572.018, 2908.975
573.335, 3028.952
574.653, 2758.545
575.970, 2842.789
577.288, 3002.283
578.604, 2702.355
579.921, 3111.722
581.238, 2821.567
582.554, 3010.483
583.870, 3049.793
585.186, 3194.064
586.501, 3324.177
587.817, 3183.770
589.132, 3093.186
590.447, 3122.673
591.761, 3022.026
593.076, 2931.707
594.390, 2831.000
595.704, 2830.408
597.018, 2639.683
598.331, 2388.769
599.645, 2358.377
600.958, 2139.258
602.271, 1988.521
603.583, 1896.280
604.896, 1665.578
606.208, 1676.828
607.520, 1540.804
608.832, 1479.947
610.143, 1240.592
611.455, 1051.498
612.766, 1020.345
614.077, 759.170
615.387, 763.848
616.698, 702.625
618.008, 581.381
619.318, 510.564
620.628, 509.271
621.937, 541.969
623.247, 549.293
624.556, 499.326
625.865, 618.412
627.173, 587.277
628.482, 577.408
629.790, 875.947
631.098, 924.461
632.405, 1022.951
633.713, 1031.887
635.020, 1150.328
636.327, 1289.113
637.634, 1437.680
638.941, 1706.236
640.247, 1694.584
641.553, 1892.996
642.859, 1703.363
644.165, 2011.652
645.471, 2081.953
646.776, 2011.334
648.081, 2089.586
649.386, 2000.918
650.691, 2043.658
651.995, 1831.975
653.299, 1800.170
654.603, 1747.865
655.907, 1778.787
657.210, 1486.551
658.514, 1461.896
659.817, 1095.344
661.120, 1183.064
662.422, 989.949
663.725, 1038.004
665.027, 896.072
666.329, 844.072
667.630, 812.076
668.932, 699.861
670.233, 727.693
671.534, 535.449
672.835, 403.465
674.136, 461.479
675.436, 569.576
676.737, 477.654
678.036, 345.736
679.336, 303.799
680.636, 211.838
681.935, 109.867
683.234, 277.869
684.533, 195.844
685.832, 233.795
687.130, 191.721
688.428, 29.619
689.726, 207.479
691.024, 285.312
692.322, 23.121
693.619, 200.891
694.916, 128.635
696.213, 76.350
697.510, 44.033
698.806, 71.688
700.102, 30.693
701.398, 96.861
702.694, 54.385
703.990, 181.879
705.285, 179.346
706.580, 76.787
707.875, 15.803
709.170, 48.447
710.464, 128.830
711.758, 36.082
713.052, 153.299
714.346, 129.510
715.640, 42.436
716.933, 124.568
718.226, 58.455
719.519, 268.441
720.812, 75.314
722.105, 122.158
723.397, 61.023
724.689, 115.713
725.981, 32.424
727.272, 60.902
728.564, 65.699
729.855, 152.268
731.146, 41.186
732.437, 165.291
733.727, 41.744
735.017, 188.166
736.308, 64.564
737.597, 119.064
738.887, 227.197
740.176, 46.561
741.466, 140.389
742.755, 95.666
744.043, 131.697
745.332, 107.701
746.620, 133.682
747.908, 49.635
749.196, 135.562
750.484, 101.467
751.771, 127.348
753.059, 253.201
754.346, 39.035
755.633, 124.842
756.919, 20.625
758.206, 186.379
759.492, 82.113
760.778, 12.180
762.063, 56.514
763.349, 99.086
764.634, 5.338
765.919, 169.799
767.204, 245.617
768.489, 161.010
769.773, 73.617
771.057, 221.686
772.341, 166.967
773.625, 32.227
774.909, 177.467
776.192, 47.316
777.475, 122.152
778.758, 7.084
780.041, 17.951
781.323, 62.965
782.605, 12.045
783.887, 172.914
785.169, 127.852
786.451, 152.773
787.732, 7.676
789.013, 132.555
790.294, 27.418
791.575, 72.262
792.856, 67.086
794.136, 131.889
795.416, 86.676
796.696, 28.553
797.976, 156.182
799.255, 29.104
800.534, 14.422
801.813, 200.230
803.092, 125.133
804.371, 269.418
805.649, 3.957
806.927, 78.477
808.205, 22.980
809.483, 52.531
810.760, 161.916
812.037, 3.652
813.315, 180.773
814.591, 325.205
815.868, 150.375
817.144, 223.951
818.421, 288.268
819.697, 312.566
820.972, 76.852
822.248, 271.125
823.523, 85.381
824.798, 149.627
826.073, 133.859
827.348, 228.078
828.623, 72.285
829.897, 306.480
831.171, 140.658
832.445, 94.824
833.718, 128.977
834.992, 83.115
836.265, 93.393
837.538, 220.945
838.811, 125.000
840.083, 259.107
841.356, 333.123
842.628, 205.932
843.900, 229.994
845.171, 164.055
846.443, 286.633
847.714, 20.639
848.985, 154.332
850.256, 127.779
851.527, 70.887
852.797, 284.279
854.067, 183.742
855.337, 197.268
856.607, 290.500
857.876, 144.365
859.146, 378.215
860.415, 301.625
861.684, 312.023
862.953, 200.377
864.221, 203.996
865.489, 406.945
866.757, 300.660
868.025, 233.949
869.293, 422.711
870.560, 316.301
871.828, 474.084
873.095, 297.975
874.361, 341.355
875.628, 194.936
876.894, 362.619
878.160, 346.174
879.426, 289.146
880.692, 416.895
881.958, 270.248
883.223, 403.971
884.488, 353.021
885.753, 386.805
887.018, 299.990
888.282, 433.865
889.546, 237.244
890.810, 241.535
892.074, 455.416
893.338, 374.318
894.601, 257.363
895.864, 230.912
897.127, 209.299
898.390, 358.240
899.652, 221.977
900.915, 435.373
902.177, 449.143
903.439, 212.807
904.700, 676.592
905.962, 330.551
907.223, 453.973
908.484, 327.785
909.745, 521.084
911.006, 625.072
912.266, 458.746
913.526, 520.494
914.786, 659.506
916.046, 553.332
917.306, 585.650
918.565, 437.691
919.824, 511.789
921.083, 615.898
922.342, 754.141
923.600, 658.277
924.859, 852.428
926.117, 696.137
927.375, 810.316
928.632, 790.494
929.890, 916.035
931.147, 788.863
932.404, 742.627
933.661, 986.602
934.918, 899.301
936.174, 803.574
937.430, 987.863
938.686, 832.164
939.942, 1046.010
941.198, 1290.332
942.453, 1074.297
943.708, 1168.469
944.963, 1062.637
946.218, 1297.002
947.472, 1441.291
948.727, 1233.609
949.981, 1558.008
951.235, 1180.414
952.488, 1573.730
953.742, 1548.162
954.995, 1604.732
956.248, 1699.191
957.501, 1883.295
958.754, 1787.738
960.006, 2051.971
961.258, 2083.438
962.510, 2267.971
963.762, 2082.029
965.014, 2356.594
966.265, 2461.174
967.516, 2866.852
968.767, 3081.467
970.018, 3253.398
971.269, 3380.746
972.519, 3645.412
973.769, 3930.098
975.019, 4244.803
976.269, 5029.525
977.518, 5494.270
978.767, 6549.031
980.017, 7223.812
981.265, 8208.617
982.514, 10133.439
983.762, 11318.281
985.011, 14373.148
986.259, 16869.699
987.507, 19494.611
988.754, 23661.664
990.002, 25496.617
991.249, 27591.600
992.496, 27826.602
993.743, 25731.633
994.989, 24576.691
996.236, 21591.773
997.482, 19826.887
998.728, 17542.021
999.974, 15487.182
1001.219, 13682.375
1002.464, 11867.594
1003.710, 9812.848
1004.954, 8398.141
1006.199, 6743.461
1007.444, 5728.814
1008.688, 5084.193
1009.932, 4079.600
1011.176, 3695.033
1012.420, 3060.510
1013.663, 2806.039
1014.906, 2591.596
1016.149, 2227.184
1017.392, 1792.801
1018.635, 2018.490
1019.877, 1404.230
1021.120, 1520.002
1022.362, 1335.828
1023.603, 1231.684
1024.845, 1437.570
1026.086, 903.490
1027.328, 939.469
1028.569, 1115.479
1029.809, 761.527
1031.050, 947.633
1032.290, 873.771
1033.530, 849.947
1034.770, 826.176
1036.010, 572.441
1037.250, 518.744
1038.489, 795.082
1039.728, 631.455
1040.967, 897.908
1042.206, 754.416
1043.444, 870.914
1044.683, 827.496
1045.921, 834.348
1047.159, 900.775
1048.396, 977.514
1049.634, 954.252
1050.871, 1241.031
1052.108, 1024.383
1053.345, 1151.240
1054.582, 1418.266
1055.818, 1445.203
1057.054, 1842.188
1058.290, 1119.221
1059.526, 1546.295
1060.762, 1503.412
1061.997, 1199.695
1063.232, 1226.916
1064.467, 1024.203
1065.702, 901.906
1066.937, 629.299
1068.171, 558.434
1069.405, 565.973
1070.639, 683.566
1071.873, 452.367
1073.107, 620.092
1074.340, 317.686
1075.573, 386.420
1076.806, 504.100
1078.039, 301.842
1079.272, 521.082
1080.504, 208.590
1081.736, 276.094
1082.968, 393.516
1084.200, 310.865
1085.431, 268.193
1086.663, 355.391
1087.894, 202.387
1089.125, 359.305
1090.355, 286.133
1091.586, 162.854
1092.816, 579.498
1094.046, 196.084
1095.276, 222.650
1096.506, 329.469
1097.735, 206.346
1098.965, 313.287
1100.194, 330.346
1101.423, 367.453
1102.651, 344.629
1103.880, 221.869
1105.108, 479.158
1106.336, 336.582
1107.564, 174.059
1108.792, 411.584
1110.019, 69.166
1111.246, 136.797
1112.473, 444.484
1113.700, 102.225
1114.927, 340.014
1116.153, 147.836
1117.380, 185.705
1118.606, 423.627
1119.831, 31.607
1121.057, 179.645
1122.283, 407.738
1123.508, 115.891
1124.733, 454.102
1125.958, 102.373
1127.182, 160.701
1128.407, 39.092
1129.631, 57.537
1130.855, 96.045
1132.079, 44.611
1133.302, 86.764
1134.526, 131.920
1135.749, 99.340
1136.972, 319.463
1138.195, 58.320
1139.417, 267.240
1140.640, 146.217
1141.862, 115.254
1143.084, 384.346
1144.305, 73.498
1145.527, 452.705
1146.748, 141.971
1147.970, 111.203
1149.191, 150.488
1150.411, 339.828
1151.632, 419.221
1152.852, 248.537
1154.072, 267.900
1155.292, 367.293
1156.512, 276.717
1157.732, 326.166
1158.951, 321.158
1160.170, 361.125
1161.389, 374.699
1162.608, 414.285
1163.826, 583.924
1165.045, 453.633
1166.263, 503.416
1167.481, 493.281
1168.699, 193.242
1169.916, 693.305
1171.134, 273.461
1172.351, 463.717
1173.568, 624.070
1174.784, 244.520
1176.001, 465.064
1177.217, 375.707
1178.433, 106.447
1179.649, 357.291
1180.865, 258.234
1182.081, 119.281
1183.296, 270.430
1184.511, 161.682
1185.726, 213.045
1186.941, 444.510
1188.155, 21.518
1189.370, 357.141
1190.584, 158.684
1191.798, 240.324
1193.011, 442.066
1194.225, 43.912
1195.438, 105.861
1196.651, 477.928
1197.864, 99.891
1199.077, 362.420
1200.290, 54.865
1201.502, 257.449
1202.714, 340.188
1203.926, 103.078
1205.138, 426.129
1206.349, 399.344
1207.561, 117.277
1208.772, 266.270
1209.983, 179.984
1211.194, 73.873
1212.404, 597.930
1213.614, 22.168
1214.825, 306.471
1216.034, 671.631
1217.244, 57.059
1218.454, 352.512
1219.663, 273.893
1220.872, 46.633
1222.081, 550.219
1223.290, 213.707
1224.498, 3.604
1225.707, 383.154
1226.915, 144.648
1228.123, 328.963
1229.331, 163.008
1230.538, 97.885
1231.746, 148.174
1232.953, 82.645
1234.160, 133.539
1235.366, 134.941
1236.573, 142.076
1237.779, 86.676
1238.986, 54.838
1240.192, 0.000
##END=



