##NAMES=Paravauxite
##RRUFFID=R040179
##IDEAL CHEMISTRY=Fe^2+^Al_2_(PO_4_)_2_(OH)_2_&#183;8H_2_O
##LOCALITY=Mina Siglo XX, Llallagua, Bolivia
##OWNER=RRUFF
##SOURCE=University of Arizona Mineral Museum
##DESCRIPTION=Colorless short prismatic crystals in subparallel groups
##STATUS=The identification of this mineral has been confirmed by X-ray diffraction and chemical analysis
##URL=rruff.info/R040179
##MEASURED CHEMISTRY=(Fe_0.93_Mg_0.03_Mn_0.02_)Al_1.94_(P_2.05_O_4_)_2_((OH)_0.99_F_0.01_)_2_Â·8H_2_O
##PIN_ID=M00226
##ORIENTATION=Laser parallel to b* (0 1 0). Fiducial mark perpendicular to laser is parallel to c [0 0 1]
121.683, 0.000
123.079, 131.080
124.475, 249.941
125.870, 268.574
127.265, 325.887
128.660, 391.592
130.055, 550.178
131.449, 514.216
132.843, 668.578
134.237, 643.613
135.631, 611.761
137.024, 704.875
138.417, 584.896
139.810, 684.753
141.203, 625.551
142.596, 597.133
143.988, 640.014
145.380, 456.084
146.771, 565.411
148.163, 544.985
149.554, 468.663
150.945, 356.913
152.336, 291.674
153.726, 206.886
155.117, 83.494
156.507, 5.448
157.896, 1.707
159.286, 5.233
160.675, 32.002
162.064, 6.706
163.453, 69.141
164.842, 36.471
166.230, 4.055
167.618, 39.554
169.006, 4.281
170.393, 58.195
171.781, 61.403
173.168, 69.481
174.555, 75.888
175.941, 21.325
177.328, 125.822
178.714, 79.661
180.100, 64.526
181.485, 15.360
182.871, 163.289
184.256, 41.258
185.641, 136.206
187.025, 127.135
188.410, 94.046
189.794, 126.940
191.178, 293.818
192.562, 391.680
193.945, 433.524
195.328, 521.625
196.711, 526.089
198.094, 568.967
199.476, 510.750
200.859, 442.517
202.241, 404.267
203.623, 316.003
205.004, 237.706
206.385, 319.353
207.766, 230.969
209.147, 452.566
210.528, 344.155
211.908, 435.741
213.288, 517.325
214.668, 368.911
216.048, 470.500
217.427, 502.092
218.806, 428.413
220.185, 408.992
221.564, 404.382
222.942, 485.655
224.320, 597.979
225.698, 775.545
227.076, 971.178
228.453, 1262.699
229.830, 1563.697
231.207, 1904.777
232.584, 2111.417
233.960, 2583.475
235.337, 2684.885
236.713, 2627.574
238.088, 2488.792
239.464, 2329.810
240.839, 1800.860
242.214, 1605.264
243.589, 1299.890
244.964, 942.132
246.338, 793.538
247.712, 574.955
249.086, 536.374
250.459, 457.793
251.833, 339.212
253.206, 320.627
254.579, 242.045
255.951, 220.155
257.324, 234.859
258.696, 206.255
260.068, 197.643
261.439, 209.021
262.811, 160.391
264.182, 151.749
265.553, 263.098
266.924, 244.436
268.294, 315.762
269.665, 417.077
271.035, 518.382
272.404, 619.676
273.774, 900.954
275.143, 1122.224
276.512, 1293.479
277.881, 1664.724
279.250, 2025.955
280.618, 2437.175
281.986, 2668.382
283.354, 2889.575
284.721, 2720.756
286.089, 2521.922
287.456, 2151.460
288.823, 1801.578
290.190, 1562.045
291.556, 1362.754
292.922, 1133.644
294.288, 1024.674
295.654, 865.816
297.019, 857.049
298.385, 718.357
299.750, 689.728
301.114, 631.147
302.479, 442.609
303.843, 484.110
305.207, 365.646
306.571, 307.188
307.935, 178.757
309.298, 260.351
310.661, 121.967
312.024, 113.563
313.387, 5.131
314.749, 33.281
316.111, 28.312
317.473, 80.079
318.835, 28.480
320.196, 13.119
321.558, 15.272
322.919, 63.664
324.279, 62.068
325.640, 0.791
327.000, 69.293
328.360, 2.271
329.720, 33.833
331.080, 34.650
332.439, 16.902
333.798, 18.567
335.157, 100.119
336.516, 50.879
337.874, 80.638
339.232, 22.175
340.590, 45.943
341.948, 58.263
343.305, 69.782
344.662, 17.846
346.019, 14.637
347.376, 56.479
348.733, 8.979
350.089, 11.706
351.445, 24.446
352.801, 32.688
354.156, 45.980
355.512, 84.656
356.867, 66.305
358.222, 78.868
359.576, 70.791
360.931, 11.899
362.285, 153.037
363.639, 10.792
364.992, 34.351
366.346, 181.952
367.699, 193.419
369.052, 245.149
370.405, 307.097
371.757, 398.624
373.110, 300.062
374.462, 451.312
375.814, 382.551
377.165, 453.938
378.516, 585.186
379.868, 516.425
381.218, 557.653
382.569, 548.850
383.920, 480.278
385.270, 561.395
386.620, 502.459
387.969, 503.474
389.319, 434.438
390.668, 425.370
392.017, 436.405
393.366, 397.210
394.714, 488.126
396.063, 509.006
397.411, 559.825
398.759, 610.630
400.106, 781.445
401.454, 752.249
402.801, 773.040
404.148, 1043.818
405.495, 1124.568
406.841, 1345.291
408.187, 1345.995
409.533, 1226.690
410.879, 1117.370
412.224, 1138.036
413.570, 918.688
414.915, 939.325
416.260, 979.947
417.604, 880.556
418.949, 1011.149
420.293, 1061.728
421.637, 1042.289
422.980, 1242.835
424.324, 1453.393
425.667, 1663.934
427.010, 1984.457
428.353, 2304.984
429.695, 2535.493
431.037, 3045.986
432.379, 3176.464
433.721, 3246.923
435.063, 3217.368
436.404, 3017.797
437.745, 2828.208
439.086, 2547.362
440.427, 1918.979
441.767, 1879.340
443.108, 1429.684
444.448, 1130.010
445.787, 1030.318
447.127, 940.609
448.466, 700.884
449.805, 741.148
451.144, 481.401
452.482, 591.641
453.821, 561.879
455.159, 402.103
456.497, 392.308
457.834, 372.496
459.172, 402.668
460.509, 382.821
461.846, 379.282
463.183, 213.125
464.519, 353.252
465.856, 313.360
467.192, 283.464
468.527, 433.550
469.863, 473.615
471.198, 393.671
472.534, 453.704
473.868, 373.716
475.203, 363.311
476.538, 430.885
477.872, 330.831
479.206, 455.343
480.540, 393.026
481.873, 392.713
483.206, 391.032
484.539, 256.315
485.872, 131.662
487.205, 430.674
488.537, 235.477
489.869, 264.591
491.201, 354.371
492.533, 221.203
493.864, 180.769
495.196, 300.340
496.527, 90.045
497.857, 229.728
499.188, 279.395
500.518, 128.977
501.848, 14.817
503.178, 114.395
504.508, 108.562
505.837, 65.927
507.166, 115.065
508.495, 64.533
509.824, 53.631
511.153, 52.461
512.481, 11.667
513.809, 50.966
515.137, 30.635
516.464, 140.028
517.792, 59.660
519.119, 98.982
520.446, 41.499
521.772, 4.783
523.099, 24.504
524.425, 168.549
525.751, 48.326
527.077, 160.888
528.402, 110.273
529.728, 96.801
531.053, 157.505
532.377, 176.448
533.702, 301.212
535.027, 239.923
536.351, 205.783
537.675, 395.055
538.998, 255.004
540.322, 424.004
541.645, 303.090
542.968, 172.353
544.291, 471.209
545.613, 460.742
546.936, 479.479
548.258, 575.073
549.580, 536.584
550.902, 586.556
552.223, 425.206
553.544, 366.767
554.865, 404.979
556.186, 523.516
557.507, 591.661
558.827, 517.403
560.147, 815.866
561.467, 583.935
562.786, 782.085
564.106, 980.100
565.425, 778.698
566.744, 866.661
568.063, 1035.777
569.381, 953.957
570.700, 1071.842
572.018, 940.137
573.335, 1008.120
574.653, 926.051
575.970, 1014.463
577.288, 1032.215
578.604, 1058.798
579.921, 1107.688
581.238, 1125.567
582.554, 1109.380
583.870, 1066.997
585.186, 1134.590
586.501, 1226.134
587.817, 1163.671
589.132, 1233.020
590.447, 1288.863
591.761, 1246.325
593.076, 1154.070
594.390, 1101.472
595.704, 1098.847
597.018, 1076.193
598.331, 1053.514
599.645, 960.805
600.958, 1138.069
602.271, 1095.410
603.583, 1012.620
604.896, 899.804
606.208, 806.960
607.520, 824.219
608.832, 831.321
610.143, 818.477
611.455, 718.854
612.766, 756.198
614.077, 623.191
615.387, 690.476
616.698, 597.668
618.008, 564.578
619.318, 528.097
620.628, 624.952
621.937, 512.833
623.247, 639.810
624.556, 330.218
625.865, 487.827
627.173, 384.544
628.482, 323.415
629.790, 470.076
631.098, 396.709
632.405, 443.312
633.713, 549.892
635.020, 326.453
636.327, 543.182
637.634, 449.711
638.941, 656.328
640.247, 782.813
641.553, 699.297
642.859, 592.514
644.165, 778.637
645.471, 645.222
646.776, 647.612
648.081, 724.009
649.386, 683.949
650.691, 730.302
651.995, 576.518
653.299, 612.817
654.603, 388.371
655.907, 514.672
657.210, 350.891
658.514, 418.037
659.817, 351.512
661.120, 457.201
662.422, 323.699
663.725, 428.795
665.027, 264.482
666.329, 179.477
667.630, 284.549
668.932, 269.223
670.233, 302.520
671.534, 157.088
672.835, 211.031
674.136, 146.645
675.436, 211.305
676.737, 157.078
678.036, 226.914
679.336, 161.441
680.636, 122.342
681.935, 24.230
683.234, 103.613
684.533, 79.092
685.832, 75.732
687.130, 19.158
688.428, 134.420
689.726, 50.262
691.024, 175.178
692.322, 69.406
693.619, 65.795
694.916, 31.098
696.213, 86.361
697.510, 71.602
698.806, 55.363
700.102, 91.123
701.398, 37.537
702.694, 102.660
703.990, 157.758
705.285, 112.832
706.580, 17.883
707.875, 92.896
709.170, 12.117
710.464, 182.820
711.758, 97.734
713.052, 302.625
714.346, 82.506
715.640, 92.277
716.933, 247.039
718.226, 151.777
719.519, 366.494
720.812, 51.193
722.105, 205.865
723.397, 20.516
724.689, 105.137
725.981, 179.734
727.272, 64.314
728.564, 128.871
729.855, 133.406
731.146, 37.920
732.437, 212.408
733.727, 146.881
735.017, 181.332
736.308, 105.766
737.597, 69.822
738.887, 254.520
740.176, 208.840
741.466, 36.855
742.755, 247.395
744.043, 221.627
745.332, 95.846
746.620, 140.041
747.908, 64.221
749.196, 258.379
750.484, 172.521
751.771, 146.646
753.059, 250.756
754.346, 174.848
755.633, 158.926
756.919, 102.988
758.206, 177.029
759.492, 241.059
760.778, 135.072
762.063, 89.070
763.349, 183.051
764.634, 97.018
765.919, 39.033
767.204, 34.873
768.489, 198.762
769.773, 32.635
771.057, 46.492
772.341, 130.336
773.625, 95.838
774.909, 177.918
776.192, 8.340
777.475, 55.379
778.758, 50.916
780.041, 7.256
781.323, 96.381
782.605, 29.996
783.887, 143.596
785.169, 167.174
786.451, 140.742
787.732, 94.297
789.013, 127.842
790.294, 31.375
791.575, 114.896
792.856, 48.402
794.136, 81.898
795.416, 65.387
796.696, 111.139
797.976, 222.268
799.255, 25.664
800.534, 100.953
801.813, 92.369
803.092, 64.318
804.371, 268.951
805.649, 82.211
806.927, 85.461
808.205, 138.705
809.483, 31.938
810.760, 205.166
812.037, 31.619
813.315, 81.578
814.591, 204.779
815.868, 22.027
817.144, 31.152
818.421, 204.328
819.697, 257.498
820.972, 9.656
822.248, 73.506
823.523, 46.666
824.798, 99.830
826.073, 142.607
827.348, 35.623
828.623, 108.367
829.897, 18.613
831.171, 10.316
832.445, 62.699
833.718, 80.146
834.992, 82.857
836.265, 224.047
837.538, 96.842
838.811, 99.449
840.083, 24.887
841.356, 86.113
842.628, 79.074
843.900, 26.184
845.171, 179.318
846.443, 185.275
847.714, 47.793
848.985, 229.604
850.256, 132.338
851.527, 35.043
852.797, 127.369
854.067, 10.160
855.337, 142.250
856.607, 155.109
857.876, 138.203
859.146, 171.115
860.415, 212.664
861.684, 285.504
862.953, 165.412
864.221, 108.643
865.489, 261.527
866.757, 204.775
868.025, 40.404
869.293, 233.289
870.560, 196.545
871.828, 169.695
873.095, 72.957
874.361, 285.613
875.628, 138.883
876.894, 240.975
878.160, 103.980
879.426, 177.262
880.692, 177.785
881.958, 93.244
883.223, 256.412
884.488, 199.076
885.753, 332.381
887.018, 55.643
888.282, 198.959
889.546, 142.074
890.810, 129.236
892.074, 342.570
893.338, 255.912
894.601, 45.279
895.864, 98.637
897.127, 192.000
898.390, 275.172
899.652, 258.557
900.915, 191.641
902.177, 225.049
903.439, 196.043
904.700, 215.863
905.962, 245.375
907.223, 198.838
908.484, 342.307
909.745, 185.688
911.006, 419.182
912.266, 262.684
913.526, 446.195
914.786, 439.588
916.046, 463.123
917.306, 316.588
918.565, 226.816
919.824, 310.059
921.083, 363.643
922.342, 416.914
923.600, 210.268
924.859, 403.883
926.117, 380.875
927.375, 574.516
928.632, 347.113
929.890, 570.604
931.147, 480.658
932.404, 553.494
933.661, 497.207
934.918, 638.754
936.174, 452.494
937.430, 846.250
938.686, 450.014
939.942, 603.791
941.198, 767.580
942.453, 641.184
943.708, 504.990
944.963, 598.707
946.218, 602.537
947.472, 806.365
948.727, 703.461
949.981, 777.328
951.235, 611.051
952.488, 678.973
953.742, 862.881
954.995, 843.230
956.248, 797.166
957.501, 891.117
958.754, 605.082
960.006, 959.062
961.258, 752.998
962.510, 1207.006
963.762, 979.721
965.014, 1073.766
966.265, 927.824
967.516, 1291.070
968.767, 1485.150
970.018, 1169.256
971.269, 1613.381
972.519, 1567.178
973.769, 1761.338
975.019, 1955.516
976.269, 2279.711
977.518, 2573.924
978.767, 2878.156
980.017, 3392.412
981.265, 3736.170
982.514, 4680.465
983.762, 5302.422
985.011, 6736.783
986.259, 7872.949
987.507, 9147.330
988.754, 10865.658
990.002, 11690.082
991.249, 12284.562
992.496, 12599.070
993.743, 11483.598
994.989, 10518.172
996.236, 9162.770
997.482, 8257.414
998.728, 7072.086
999.974, 6086.781
1001.219, 5361.502
1002.464, 4505.574
1003.710, 3560.346
1004.954, 3045.137
1006.199, 2729.953
1007.444, 2004.793
1008.688, 1969.656
1009.932, 1584.541
1011.176, 1339.459
1012.420, 1224.396
1013.663, 939.373
1014.906, 1074.375
1016.149, 849.396
1017.392, 784.443
1018.635, 699.543
1019.877, 564.672
1021.120, 519.824
1022.362, 605.000
1023.603, 500.201
1024.845, 605.430
1026.086, 410.686
1027.328, 455.971
1028.569, 521.285
1029.809, 196.625
1031.050, 341.994
1032.290, 247.389
1033.530, 422.814
1034.770, 318.270
1036.010, 253.752
1037.250, 249.260
1038.489, 534.777
1039.728, 230.270
1040.967, 495.816
1042.206, 291.398
1043.444, 357.002
1044.683, 472.652
1045.921, 238.332
1047.159, 484.041
1048.396, 542.791
1049.634, 368.561
1050.871, 624.359
1052.108, 743.605
1053.345, 469.469
1054.582, 815.891
1055.818, 581.818
1057.054, 967.777
1058.290, 514.018
1059.526, 880.045
1060.762, 866.107
1061.997, 602.201
1063.232, 698.332
1064.467, 594.498
1065.702, 600.705
1066.937, 376.953
1068.171, 353.260
1069.405, 229.508
1070.639, 405.670
1071.873, 313.320
1073.107, 348.268
1074.340, 314.475
1075.573, 260.730
1076.806, 307.006
1078.039, 293.295
1079.272, 341.883
1080.504, 228.203
1081.736, 204.551
1082.968, 215.215
1084.200, 277.010
1085.431, 243.006
1086.663, 348.865
1087.894, 404.637
1089.125, 320.271
1090.355, 225.941
1091.586, 341.646
1092.816, 597.412
1094.046, 323.244
1095.276, 269.168
1096.506, 305.158
1097.735, 131.188
1098.965, 297.254
1100.194, 343.367
1101.423, 319.525
1102.651, 265.732
1103.880, 471.975
1105.108, 258.264
1106.336, 644.594
1107.564, 140.965
1108.792, 437.379
1110.019, 93.848
1111.246, 540.365
1112.473, 386.893
1113.700, 113.438
1114.927, 280.029
1116.153, 166.658
1117.380, 243.326
1118.606, 350.037
1119.831, 76.797
1121.057, 313.594
1122.283, 440.438
1123.508, 197.318
1124.733, 244.240
1125.958, 91.205
1127.182, 108.211
1128.407, 105.256
1129.631, 142.342
1130.855, 189.471
1132.079, 3.361
1133.302, 76.148
1134.526, 221.098
1135.749, 121.611
1136.972, 155.719
1138.195, 113.094
1139.417, 360.508
1140.640, 147.963
1141.862, 45.439
1143.084, 372.936
1144.305, 90.420
1145.527, 257.938
1146.748, 215.486
1147.970, 143.072
1149.191, 200.693
1150.411, 288.350
1151.632, 366.037
1152.852, 343.762
1154.072, 231.521
1155.292, 349.318
1156.512, 407.154
1157.732, 594.992
1158.951, 132.869
1160.170, 590.793
1161.389, 288.773
1162.608, 506.824
1163.826, 504.951
1165.045, 653.152
1166.263, 471.424
1167.481, 649.768
1168.699, 468.186
1169.916, 556.676
1171.134, 305.240
1172.351, 363.877
1173.568, 682.592
1174.784, 351.381
1176.001, 380.248
1177.217, 519.199
1178.433, 178.227
1179.649, 337.336
1180.865, 306.527
1182.081, 115.805
1183.296, 215.082
1184.511, 389.178
1185.726, 106.703
1186.941, 475.885
1188.155, 5.135
1189.370, 264.459
1190.584, 153.861
1191.798, 303.348
1193.011, 432.912
1194.225, 47.436
1195.438, 62.307
1196.651, 392.143
1197.864, 47.924
1199.077, 262.107
1200.290, 2.236
1201.502, 362.461
1202.714, 282.779
1203.926, 23.191
1205.138, 283.689
1206.349, 334.277
1207.561, 114.947
1208.772, 305.689
1209.983, 197.123
1211.194, 219.021
1212.404, 501.180
1213.614, 183.578
1214.825, 223.021
1216.034, 486.234
1217.244, 40.924
1218.454, 409.615
1219.663, 555.287
1220.872, 262.672
1222.081, 589.117
1223.290, 364.057
1224.498, 11.670
1225.707, 572.705
1226.915, 320.918
1228.123, 269.381
1229.331, 180.939
1230.538, 54.908
1231.746, 53.250
1232.953, 0.000
##END=



