##NAMES=Paravauxite
##RRUFFID=R040179
##IDEAL CHEMISTRY=Fe^2+^Al_2_(PO_4_)_2_(OH)_2_&#183;8H_2_O
##LOCALITY=Mina Siglo XX, Llallagua, Bolivia
##OWNER=RRUFF
##SOURCE=University of Arizona Mineral Museum
##DESCRIPTION=Colorless short prismatic crystals in subparallel groups
##STATUS=The identification of this mineral has been confirmed by X-ray diffraction and chemical analysis
##URL=rruff.info/R040179
##MEASURED CHEMISTRY=(Fe_0.93_Mg_0.03_Mn_0.02_)Al_1.94_(P_2.05_O_4_)_2_((OH)_0.99_F_0.01_)_2_Â·8H_2_O
##PIN_ID=M00217
##ORIENTATION=Laser parallel to (0 1 1). Fiducial mark perpendicular to laser is parallel to a [1 0 0]
54.966, 0.000
56.365, 74.251
57.765, 99.146
59.164, 167.145
60.563, 79.498
61.962, 19.551
63.360, 56.578
64.758, 17.001
66.157, 28.306
67.554, 80.525
68.952, 252.951
70.349, 447.977
71.747, 830.090
73.144, 1198.854
74.540, 1704.926
75.937, 2144.038
77.333, 2598.940
78.729, 2837.388
80.125, 3027.154
81.521, 2977.036
82.916, 2980.854
84.311, 2829.453
85.706, 2833.694
87.101, 2638.458
88.496, 2555.638
89.890, 2484.139
91.284, 2436.911
92.678, 2464.969
94.071, 2411.331
95.465, 2331.928
96.858, 2397.664
98.251, 2332.432
99.644, 2414.122
101.036, 2457.649
102.428, 2511.944
103.820, 2568.954
105.212, 2741.631
106.604, 2999.937
107.995, 3344.839
109.387, 3741.306
110.777, 4015.314
112.168, 4421.838
113.559, 4584.860
114.949, 4629.360
116.339, 4491.321
117.729, 4167.728
119.119, 3938.568
120.508, 3575.824
121.897, 3321.488
123.286, 3382.547
124.675, 3227.994
126.063, 3200.115
127.452, 3448.112
128.840, 3429.160
130.228, 3485.320
131.615, 3502.444
133.003, 3588.343
134.390, 3754.969
135.777, 3834.987
137.164, 3829.169
138.550, 4045.445
139.937, 3945.622
141.323, 4044.698
142.709, 3924.671
144.094, 3974.587
145.480, 3822.510
146.865, 3725.465
148.250, 3635.470
149.635, 3449.545
151.019, 3258.703
152.403, 3045.954
153.788, 2974.309
155.171, 2827.777
156.555, 2791.365
157.939, 2730.078
159.322, 2822.923
160.705, 3006.901
162.088, 3302.020
163.470, 3790.278
164.853, 4256.680
166.235, 5084.228
167.617, 5516.922
168.998, 5975.763
170.380, 5717.754
171.761, 5651.895
173.142, 5264.185
174.523, 5086.625
175.904, 5078.216
177.284, 5014.957
178.664, 4801.845
180.044, 4614.881
181.424, 4509.064
182.803, 4150.393
184.183, 3794.866
185.562, 3537.484
186.940, 3543.247
188.319, 3525.152
189.698, 3547.202
191.076, 3524.393
192.454, 3752.726
193.831, 4112.285
195.209, 4392.560
196.586, 4961.864
197.963, 5026.729
199.340, 5199.991
200.717, 4870.180
202.093, 4605.101
203.470, 4126.818
204.846, 3718.959
206.221, 3275.201
207.597, 3178.791
208.972, 3110.763
210.347, 2785.833
211.722, 2559.521
213.097, 2398.348
214.472, 2087.312
215.846, 2051.410
217.220, 1850.643
218.594, 1816.011
219.967, 1658.512
221.341, 1613.309
222.714, 1611.044
224.087, 1521.697
225.460, 1552.100
226.832, 1660.694
228.204, 1687.578
229.577, 1828.418
230.948, 2011.513
232.320, 2165.352
233.692, 2399.581
235.063, 2541.176
236.434, 2584.114
237.805, 2594.377
239.175, 2644.946
240.545, 2413.807
241.916, 2306.945
243.286, 2038.345
244.655, 2010.997
246.025, 1780.889
247.394, 1622.013
248.763, 1600.358
250.132, 1406.916
251.501, 1531.679
252.869, 1390.642
254.237, 1423.796
255.605, 1359.137
256.973, 1392.657
258.340, 1463.352
259.708, 1488.215
261.075, 1406.239
262.442, 1469.422
263.808, 1530.756
265.175, 1516.240
266.541, 1650.868
267.907, 1749.637
269.273, 1756.544
270.639, 1873.586
272.004, 2008.701
273.369, 2037.064
274.734, 2322.496
276.099, 2429.053
277.463, 2561.731
278.828, 3087.530
280.192, 3244.449
281.556, 3538.483
282.919, 4024.633
284.283, 4282.894
285.646, 4651.265
287.009, 4716.747
288.372, 4979.337
289.734, 5267.031
291.097, 5437.828
292.459, 5695.726
293.821, 6108.716
295.183, 6172.796
296.544, 6305.961
297.905, 6134.209
299.266, 5903.538
300.627, 5600.949
301.988, 5142.439
303.348, 4774.013
304.709, 4115.667
306.069, 3593.401
307.428, 3154.220
308.788, 2709.122
310.147, 2291.105
311.507, 1989.717
312.865, 1679.324
314.224, 1467.559
315.583, 1277.875
316.941, 1084.276
318.299, 984.763
319.657, 820.738
321.015, 688.996
322.372, 549.742
323.729, 444.578
325.086, 273.494
326.443, 212.490
327.800, 63.566
329.156, 59.722
330.512, 5.956
331.868, 24.734
333.224, 152.352
334.579, 42.920
335.935, 197.420
337.290, 74.878
338.645, 179.274
339.999, 180.628
341.354, 186.940
342.708, 187.206
344.062, 198.432
345.416, 219.623
346.769, 237.782
348.123, 210.913
349.476, 263.011
350.829, 245.081
352.182, 199.106
353.534, 214.091
354.887, 233.000
356.239, 229.873
357.591, 98.670
358.942, 118.431
360.294, 68.176
361.645, 7.123
362.996, 69.547
364.347, 58.787
365.698, 93.106
367.048, 208.420
368.398, 196.770
369.748, 263.113
371.098, 366.473
372.448, 489.900
373.797, 581.390
375.146, 636.976
376.495, 793.658
377.844, 821.439
379.192, 799.303
380.540, 1033.245
381.889, 901.258
383.236, 843.357
384.584, 973.580
385.932, 981.939
387.279, 975.414
388.626, 1029.023
389.973, 1181.759
391.319, 1024.644
392.666, 1293.670
394.012, 1214.787
395.358, 1339.006
396.704, 1482.312
398.049, 1701.702
399.394, 1901.175
400.740, 1839.735
402.084, 2179.399
403.429, 2123.146
404.774, 2223.977
406.118, 2345.907
407.462, 2135.911
408.806, 1910.990
410.150, 1866.140
411.493, 1720.365
412.836, 1617.660
414.179, 1657.029
415.522, 1523.466
416.865, 1722.971
418.207, 1751.542
419.549, 1732.179
420.891, 2090.881
422.233, 2227.646
423.575, 2448.476
424.916, 2640.367
426.257, 3079.319
427.598, 3515.335
428.939, 4036.409
430.279, 4407.143
431.619, 4766.737
432.959, 5081.990
434.299, 5141.297
435.639, 5212.664
436.978, 4598.086
438.318, 4332.565
439.657, 3755.099
440.996, 3525.687
442.334, 2973.329
443.673, 2763.025
445.011, 2525.772
446.349, 2482.573
447.687, 2354.425
449.024, 2303.329
450.361, 2357.282
451.699, 2364.288
453.036, 2438.343
454.372, 2659.449
455.709, 3003.608
457.045, 3012.814
458.381, 3466.083
459.717, 3746.400
461.053, 4285.763
462.388, 4749.049
463.724, 5066.659
465.059, 5806.178
466.394, 6238.742
467.728, 6776.362
469.063, 7635.028
470.397, 8179.744
471.731, 8722.503
473.065, 9448.306
474.398, 9594.160
475.732, 10440.076
477.065, 10417.036
478.398, 10690.645
479.731, 10816.709
481.063, 10920.479
482.396, 10551.638
483.728, 10442.501
485.060, 10138.742
486.391, 9769.022
487.723, 9440.339
489.054, 9046.439
490.385, 8693.099
491.716, 8179.469
493.047, 7706.112
494.377, 7133.974
495.708, 6783.476
497.038, 6342.246
498.368, 6113.211
499.697, 5683.909
501.027, 5445.542
502.356, 5313.306
503.685, 4705.646
505.014, 4376.457
506.342, 4071.279
507.671, 3881.703
508.999, 3298.957
510.327, 3180.356
511.655, 2872.646
512.982, 2577.071
514.310, 2393.949
515.637, 2011.824
516.964, 2035.355
518.291, 1667.441
519.617, 1574.907
520.944, 1402.200
522.270, 1143.292
523.596, 1158.486
524.921, 967.021
526.247, 821.970
527.572, 724.145
528.897, 594.667
530.222, 698.919
531.547, 584.251
532.871, 636.621
534.196, 496.304
535.520, 447.888
536.844, 532.652
538.167, 586.686
539.491, 639.501
540.814, 502.429
542.137, 613.657
543.460, 600.762
544.783, 690.005
546.105, 700.841
547.427, 718.947
548.749, 732.505
550.071, 769.292
551.393, 801.761
552.714, 859.454
554.035, 921.806
555.356, 1007.622
556.677, 1028.346
557.998, 1096.137
559.318, 1168.046
560.638, 1377.338
561.958, 1374.600
563.278, 1425.001
564.597, 1683.999
565.917, 1691.774
567.236, 1886.553
568.555, 1973.336
569.874, 1961.484
571.192, 2189.346
572.511, 2290.074
573.829, 2485.870
575.147, 2518.107
576.464, 2489.465
577.782, 2497.263
579.099, 2368.061
580.416, 2229.859
581.733, 2017.658
583.050, 2007.454
584.366, 1766.250
585.683, 1783.042
586.999, 1637.119
588.315, 1360.622
589.630, 1408.406
590.946, 1289.187
592.261, 1178.963
593.576, 1032.735
594.891, 1018.738
596.206, 920.264
597.520, 996.021
598.834, 968.771
600.148, 959.514
601.462, 853.250
602.776, 845.979
604.089, 836.701
605.402, 946.414
606.715, 950.141
608.028, 979.836
609.341, 910.924
610.653, 890.600
611.965, 932.565
613.277, 937.229
614.589, 883.875
615.901, 901.200
617.212, 804.261
618.523, 837.050
619.834, 791.752
621.145, 694.336
622.456, 598.348
623.766, 465.905
625.076, 578.914
626.386, 460.248
627.696, 420.539
629.006, 211.136
630.315, 385.238
631.624, 183.664
632.933, 167.747
634.242, 138.412
635.551, 47.619
636.859, 90.045
638.167, 4.360
639.475, 155.638
640.783, 14.925
642.090, 105.969
643.398, 153.311
644.705, 181.559
646.012, 155.765
647.318, 152.396
648.625, 269.596
649.931, 166.739
651.237, 196.637
652.543, 178.768
653.849, 79.885
655.155, 227.011
656.460, 137.128
657.765, 190.393
659.070, 31.526
660.375, 134.656
661.679, 167.796
662.984, 110.946
664.288, 72.114
665.592, 105.294
666.895, 29.488
668.199, 28.310
669.502, 27.868
670.805, 130.959
672.108, 6.132
673.411, 151.786
674.713, 49.794
676.016, 35.864
677.318, 113.987
678.620, 115.212
679.921, 63.551
681.223, 0.034
682.524, 40.440
683.825, 171.995
685.126, 14.699
686.427, 9.471
687.727, 92.308
689.028, 6.746
690.328, 48.614
691.628, 46.349
692.927, 64.525
694.227, 2.798
695.526, 21.242
696.825, 50.479
698.124, 21.953
699.423, 35.459
700.721, 85.046
702.020, 3.740
703.318, 77.501
704.616, 40.364
705.913, 140.312
707.211, 71.397
708.508, 152.416
709.805, 11.198
711.102, 131.384
712.399, 161.613
713.695, 137.272
714.992, 57.899
716.288, 36.517
717.584, 95.984
718.879, 36.449
720.175, 32.135
721.470, 203.201
722.765, 163.506
724.060, 169.778
725.355, 106.019
726.649, 136.223
727.944, 65.395
729.238, 295.524
730.532, 349.621
731.825, 291.056
733.119, 316.721
734.412, 198.724
735.705, 152.691
736.998, 166.629
738.291, 194.533
739.584, 414.406
740.876, 293.247
742.168, 434.055
743.460, 225.832
744.752, 206.576
746.043, 293.290
747.334, 379.970
748.626, 285.619
749.916, 173.235
751.207, 301.821
752.498, 234.374
753.788, 298.896
755.078, 256.386
756.368, 189.846
757.658, 199.272
758.947, 200.669
760.237, 320.033
761.526, 139.367
762.815, 232.670
764.104, 82.940
765.392, 183.177
766.680, 93.382
767.969, 41.554
769.257, 263.685
770.544, 9.214
771.832, 76.830
773.119, 102.839
774.406, 17.184
775.693, 169.738
776.980, 68.630
778.267, 149.491
779.553, 9.678
780.839, 44.101
782.125, 44.842
783.411, 107.548
784.697, 52.229
785.982, 5.124
787.267, 32.517
788.552, 15.027
789.837, 52.467
791.122, 115.380
792.406, 13.218
793.690, 38.482
794.974, 18.803
796.258, 28.421
797.542, 90.670
798.825, 106.893
800.108, 184.087
801.391, 55.745
802.674, 99.356
803.957, 163.431
805.239, 47.521
806.522, 545.469
807.804, 528.433
809.085, 264.127
810.367, 151.040
811.649, 62.928
812.930, 178.789
814.211, 180.220
815.492, 176.032
816.772, 163.819
818.053, 173.299
819.333, 268.862
820.613, 198.515
821.893, 249.586
823.173, 291.553
824.452, 258.466
825.732, 314.200
827.011, 193.035
828.290, 273.325
829.568, 355.788
830.847, 301.021
832.125, 453.487
833.403, 332.815
834.681, 249.303
835.959, 271.478
837.236, 259.247
838.514, 272.799
839.791, 341.015
841.068, 341.510
842.345, 364.934
843.621, 404.331
844.898, 289.425
846.174, 223.626
847.450, 234.316
848.726, 232.426
850.001, 255.424
851.277, 206.318
852.552, 260.921
853.827, 367.655
855.102, 281.259
856.376, 240.924
857.651, 351.973
858.925, 325.343
860.199, 239.431
861.473, 94.843
862.746, 294.036
864.020, 248.577
865.293, 199.659
866.566, 317.838
867.839, 152.954
869.112, 244.957
870.384, 356.580
871.656, 210.239
872.928, 176.761
874.200, 265.690
875.472, 258.846
876.744, 302.999
878.015, 206.151
879.286, 137.943
880.557, 362.023
881.828, 246.238
883.098, 317.389
884.369, 256.539
885.639, 314.690
886.909, 232.841
888.178, 252.994
889.448, 312.147
890.717, 452.303
891.987, 287.460
893.256, 298.619
894.524, 453.780
895.793, 352.943
897.061, 361.109
898.330, 332.277
899.598, 247.450
900.865, 528.627
902.133, 471.807
903.401, 495.991
904.668, 383.181
905.935, 502.374
907.202, 442.578
908.468, 641.789
909.735, 664.025
911.001, 620.269
912.267, 660.519
913.533, 684.775
914.799, 767.017
916.064, 652.299
917.330, 985.186
918.595, 800.482
919.860, 859.489
921.124, 1009.808
922.389, 997.142
923.653, 1091.783
924.918, 1124.533
926.182, 1165.956
927.445, 1173.864
928.709, 1212.283
929.972, 1244.116
931.236, 1275.580
932.499, 1324.566
933.761, 1500.258
935.024, 1432.236
936.286, 1617.992
937.549, 1658.878
938.811, 1594.425
940.073, 1742.336
941.334, 1728.663
942.596, 1671.443
943.857, 1849.010
945.118, 1912.401
946.379, 1806.386
947.640, 1860.078
948.900, 2025.999
950.161, 2003.618
951.421, 2094.626
952.681, 2084.090
953.940, 2192.414
955.200, 2193.170
956.459, 2250.017
957.719, 2509.111
958.978, 2418.006
960.236, 2667.917
961.495, 2751.846
962.753, 2867.793
964.012, 2997.627
965.270, 3213.699
966.527, 3506.661
967.785, 3729.709
969.043, 4053.793
970.300, 4375.894
971.557, 4561.016
972.814, 5282.156
974.071, 5529.333
975.327, 6360.588
976.583, 6914.871
977.840, 7864.221
979.095, 8869.625
980.351, 9932.103
981.607, 11769.630
982.862, 13488.204
984.117, 15682.843
985.372, 19254.553
986.627, 22267.307
987.882, 26946.098
989.136, 31910.938
990.390, 36452.855
991.644, 41298.820
992.898, 43440.828
994.152, 43538.898
995.405, 41377.008
996.659, 38014.160
997.912, 33706.363
999.165, 29791.631
1000.417, 25928.945
1001.670, 22045.281
1002.922, 19205.648
1004.174, 15695.057
1005.426, 13290.522
1006.678, 11113.063
1007.930, 9002.649
1009.181, 7638.290
1010.432, 6379.979
1011.683, 5393.736
1012.934, 4470.550
1014.185, 3999.383
1015.435, 3349.269
1016.685, 2922.174
1017.935, 2474.100
1019.185, 2246.088
1020.435, 1936.749
1021.684, 1742.157
1022.934, 1500.247
1024.183, 1381.365
1025.432, 1167.536
1026.680, 1076.736
1027.929, 913.957
1029.177, 776.202
1030.425, 725.477
1031.673, 663.769
1032.921, 578.094
1034.169, 561.236
1035.416, 468.568
1036.663, 508.211
1037.911, 353.632
1039.157, 304.084
1040.404, 328.563
1041.650, 312.062
1042.897, 284.576
1044.143, 260.104
1045.389, 263.908
1046.634, 221.312
1047.880, 286.791
1049.125, 179.437
1050.371, 208.165
1051.615, 245.816
1052.860, 283.463
1054.105, 466.189
1055.349, 356.012
1056.593, 420.246
1057.837, 474.955
1059.081, 681.646
1060.325, 669.611
1061.568, 670.423
1062.812, 569.617
1064.055, 546.980
1065.298, 489.846
1066.540, 348.867
1067.783, 244.254
1069.025, 211.359
1070.267, 255.307
1071.509, 45.286
1072.751, 53.566
1073.993, 127.920
1075.234, 33.040
1076.475, 50.098
1077.716, 29.284
1078.957, 62.195
1080.198, 0.720
1081.438, 29.335
1082.679, 1.533
1083.919, 28.111
1085.159, 83.759
1086.398, 4.561
1087.638, 106.927
1088.877, 4.619
1090.116, 19.427
1091.355, 75.994
1092.594, 51.184
1093.833, 193.801
1095.071, 190.411
1096.309, 110.431
1097.547, 346.912
1098.785, 280.683
1100.023, 410.520
1101.260, 499.301
1102.498, 625.880
1103.735, 513.521
1104.972, 574.644
1106.208, 604.447
1107.445, 646.329
1108.681, 495.062
1109.918, 700.708
1111.154, 411.654
1112.389, 595.350
1113.625, 566.728
1114.860, 324.233
1116.096, 555.032
1117.331, 431.656
1118.566, 334.070
1119.800, 263.794
1121.035, 351.502
1122.269, 151.874
1123.503, 325.158
1124.737, 240.136
1125.971, 271.010
1127.205, 310.702
1128.438, 100.583
1129.671, 279.212
1130.904, 155.649
1132.137, 277.642
1133.370, 244.724
1134.602, 291.492
1135.834, 354.050
1137.066, 289.840
1138.298, 305.173
1139.530, 145.007
1140.762, 459.829
1141.993, 273.663
1143.224, 384.427
1144.455, 292.675
1145.686, 437.265
1146.917, 460.157
1148.147, 583.346
1149.377, 557.751
1150.607, 615.647
1151.837, 617.430
1153.067, 731.886
1154.296, 878.681
1155.526, 1008.361
1156.755, 1090.656
1157.984, 1181.536
1159.213, 1259.898
1160.441, 1291.090
1161.670, 1394.836
1162.898, 1653.411
1164.126, 1653.177
1165.354, 1803.818
1166.581, 1822.111
1167.809, 1996.075
1169.036, 1840.916
1170.263, 1906.417
1171.490, 1828.131
1172.717, 1755.523
1173.943, 1500.170
1175.170, 1521.738
1176.396, 1272.546
1177.622, 1160.048
1178.848, 1085.289
1180.073, 671.463
1181.299, 747.706
1182.524, 602.146
1183.749, 530.002
1184.974, 607.060
1186.199, 508.318
1187.423, 352.390
1188.648, 400.391
1189.872, 352.884
1191.096, 209.213
1192.320, 279.600
1193.543, 280.718
1194.767, 299.586
1195.990, 74.804
1197.213, 61.764
1198.436, 87.394
1199.659, 105.411
1200.881, 82.513
1202.104, 66.183
1203.326, 24.750
1204.548, 155.124
1205.770, 80.910
1206.991, 57.322
1208.213, 100.583
1209.434, 14.460
1210.655, 3.297
1211.876, 28.831
1213.096, 72.949
1214.317, 5.977
1215.537, 64.610
1216.757, 41.791
1217.977, 107.014
1219.197, 76.480
1220.417, 30.953
1221.636, 92.452
1222.855, 50.188
1224.074, 41.719
1225.293, 14.994
1226.512, 26.367
1227.731, 131.523
1228.949, 18.086
1230.167, 56.979
1231.385, 77.912
1232.603, 85.565
1233.820, 44.540
1235.038, 38.456
1236.255, 10.740
1237.472, 45.923
1238.689, 28.943
1239.906, 47.792
1241.122, 33.503
1242.338, 11.146
1243.555, 95.756
1244.771, 37.292
1245.986, 17.221
1247.202, 41.222
1248.417, 86.606
1249.633, 4.954
1250.848, 129.408
1252.063, 50.804
1253.277, 28.073
1254.492, 72.995
1255.706, 96.000
1256.920, 43.958
1258.134, 6.126
1259.348, 16.258
1260.562, 16.547
1261.775, 70.298
1262.988, 33.995
1264.201, 165.650
1265.414, 93.234
1266.627, 99.106
1267.839, 11.412
1269.052, 105.017
1270.264, 58.433
1271.476, 71.704
1272.688, 46.096
1273.899, 73.034
1275.111, 24.061
1276.322, 30.021
1277.533, 61.913
1278.744, 51.739
1279.955, 90.496
1281.165, 140.190
1282.376, 23.818
1283.586, 37.371
1284.796, 82.836
1286.006, 4.248
1287.215, 82.605
1288.425, 90.906
1289.634, 43.153
1290.843, 123.344
1292.052, 27.518
1293.261, 215.549
1294.469, 161.566
1295.678, 72.533
1296.886, 85.449
1298.094, 3.687
1299.302, 24.885
1300.509, 31.848
1301.717, 75.525
1302.924, 159.150
1304.131, 150.726
1305.338, 188.250
1306.545, 81.725
1307.752, 20.853
1308.958, 76.498
1310.164, 89.790
1311.370, 111.970
1312.576, 220.177
1313.782, 65.273
1314.987, 13.315
1316.193, 73.292
1317.398, 15.216
1318.603, 10.079
1319.807, 83.880
1321.012, 27.627
1322.216, 35.315
1323.421, 115.946
1324.625, 18.520
1325.829, 111.030
1327.032, 12.490
1328.236, 4.617
1329.439, 128.222
1330.642, 2.492
1331.845, 18.729
1333.048, 123.896
1334.251, 239.013
1335.453, 272.086
1336.656, 252.115
1337.858, 98.099
1339.060, 125.037
1340.261, 289.928
1341.463, 107.726
1342.664, 160.410
1343.866, 94.145
1345.067, 274.855
1346.267, 130.458
1347.468, 266.936
1348.669, 94.978
1349.869, 326.517
1351.069, 187.046
1352.269, 172.275
1353.469, 256.636
1354.668, 257.587
1355.868, 240.346
1357.067, 248.580
1358.266, 181.637
1359.465, 300.307
1360.664, 373.239
1361.862, 200.311
1363.061, 360.707
1364.259, 311.792
1365.457, 235.422
1366.655, 347.274
1367.852, 205.371
1369.050, 251.950
1370.247, 337.453
1371.444, 291.921
1372.641, 197.893
1373.838, 442.548
1375.035, 217.888
1376.231, 278.240
1377.427, 318.547
1378.623, 242.442
1379.819, 173.605
1381.015, 169.947
1382.211, 170.844
1383.406, 267.761
1384.601, 277.108
1385.796, 318.930
1386.991, 447.142
1388.185, 256.048
1389.380, 329.506
1390.574, 396.097
1391.768, 319.719
1392.962, 384.320
1394.156, 150.781
1395.350, 270.128
1396.543, 323.668
1397.736, 256.225
1398.929, 345.218
1400.122, 288.074
1401.315, 400.947
1402.507, 240.573
1403.700, 290.915
1404.892, 279.437
1406.084, 397.283
1407.276, 309.681
1408.467, 366.854
1409.659, 131.549
1410.850, 338.321
1412.041, 320.948
1413.232, 169.167
1414.423, 462.018
1415.614, 225.323
1416.804, 323.579
1417.994, 343.524
1419.184, 296.510
1420.374, 302.383
1421.564, 239.048
1422.753, 238.113
1423.943, 262.125
1425.132, 303.413
1426.321, 225.005
1427.510, 350.587
1428.698, 298.563
1429.887, 252.463
1431.075, 243.121
1432.263, 310.736
1433.451, 226.293
1434.639, 175.938
1435.827, 319.980
1437.014, 170.881
1438.201, 481.530
1439.388, 414.575
1440.575, 260.088
1441.762, 275.263
1442.949, 378.910
1444.135, 339.811
1445.321, 281.438
1446.507, 386.363
1447.693, 280.768
1448.879, 428.271
1450.064, 420.980
1451.250, 375.855
1452.435, 188.992
1453.620, 497.420
1454.805, 429.729
1455.989, 307.086
1457.174, 523.361
1458.358, 242.803
1459.542, 313.006
1460.726, 344.252
1461.910, 296.459
1463.093, 369.559
1464.277, 294.604
1465.460, 401.588
1466.643, 485.691
1467.826, 205.363
1469.009, 542.326
1470.191, 261.430
1471.373, 420.738
1472.556, 316.188
1473.738, 281.777
1474.919, 258.619
