##NAMES=Paravauxite
##RRUFFID=R040179
##IDEAL CHEMISTRY=Fe^2+^Al_2_(PO_4_)_2_(OH)_2_&#183;8H_2_O
##LOCALITY=Mina Siglo XX, Llallagua, Bolivia
##OWNER=RRUFF
##SOURCE=University of Arizona Mineral Museum
##DESCRIPTION=Colorless short prismatic crystals in subparallel groups
##STATUS=The identification of this mineral has been confirmed by X-ray diffraction and chemical analysis
##URL=rruff.info/R040179
##MEASURED CHEMISTRY=(Fe_0.93_Mg_0.03_Mn_0.02_)Al_1.94_(P_2.05_O_4_)_2_((OH)_0.99_F_0.01_)_2_Â·8H_2_O
##PIN_ID=M00109
##ORIENTATION=Laser parallel to c* (0 0 1). Fiducial mark perpendicular to laser is parallel to a [1 0 0]
54.966, 0.000
56.365, 58.590
57.765, 103.282
59.164, 100.036
60.563, 41.405
61.962, 4.250
63.360, 28.954
64.758, 16.542
66.157, 54.252
67.554, 203.865
68.952, 302.572
70.349, 670.091
71.747, 1020.961
73.144, 1408.845
74.540, 1647.472
75.937, 1854.145
77.333, 1997.130
78.729, 2064.770
80.125, 2049.372
81.521, 1990.772
82.916, 1943.828
84.311, 1831.315
85.706, 1843.423
87.101, 1601.753
88.496, 1483.324
89.890, 1433.060
91.284, 1335.904
92.678, 1382.870
94.071, 1321.979
95.465, 1311.166
96.858, 1216.355
98.251, 1166.463
99.644, 1190.396
101.036, 1272.085
102.428, 1226.472
103.820, 1276.513
105.212, 1261.167
106.604, 1267.404
107.995, 1422.195
109.387, 1482.516
110.777, 1570.347
112.168, 1707.669
113.559, 1719.466
114.949, 1826.723
116.339, 2047.427
117.729, 2245.564
119.119, 2318.126
120.508, 2363.101
121.897, 2336.479
123.286, 2449.255
124.675, 2448.417
126.063, 2385.025
127.452, 2341.231
128.840, 2167.483
130.228, 2178.912
131.615, 2012.141
133.003, 2029.643
134.390, 1963.374
135.777, 1918.334
137.164, 1780.525
138.550, 1884.880
139.937, 1766.190
141.323, 1809.441
142.709, 1651.644
144.094, 1656.847
145.480, 1482.094
146.865, 1440.405
148.250, 1367.798
149.635, 1206.287
151.019, 1108.884
152.403, 1016.602
153.788, 837.446
155.171, 849.428
156.555, 898.552
157.939, 906.825
159.322, 1091.250
160.705, 1485.834
162.088, 1891.578
163.470, 2364.486
164.853, 2825.561
166.235, 3265.803
167.617, 3468.214
168.998, 3705.796
170.380, 3536.553
171.761, 3585.481
173.142, 3376.583
174.523, 3386.861
175.904, 3326.312
177.284, 3203.939
178.664, 3022.272
180.044, 2719.715
181.424, 2478.866
182.803, 2141.193
184.183, 1740.699
185.562, 1539.381
186.940, 1442.241
188.319, 1409.279
189.698, 1709.496
191.076, 1959.890
192.454, 2508.459
193.831, 2983.206
195.209, 3592.743
196.586, 3986.090
197.963, 4014.664
199.340, 3961.363
200.717, 3531.379
202.093, 3098.977
203.470, 2446.363
204.846, 1859.713
206.221, 1502.074
207.597, 1282.658
208.972, 1151.333
210.347, 915.044
211.722, 729.928
213.097, 589.981
214.472, 559.202
215.846, 566.587
217.220, 587.138
218.594, 671.853
219.967, 766.733
221.341, 1012.658
222.714, 1170.347
224.087, 1345.787
225.460, 1840.821
226.832, 2245.058
228.204, 2883.344
229.577, 3444.919
230.948, 4143.872
232.320, 4720.491
233.692, 5260.473
235.063, 5551.796
236.434, 5618.444
237.805, 5495.400
239.175, 4946.650
240.545, 4325.183
241.916, 3794.986
243.286, 3165.051
244.655, 2612.366
246.025, 2107.922
247.394, 1769.712
248.763, 1439.729
250.132, 1146.964
251.501, 1083.413
252.869, 907.068
254.237, 863.925
255.605, 748.979
256.973, 691.225
258.340, 730.657
259.708, 701.271
261.075, 745.062
262.442, 599.026
263.808, 764.159
265.175, 684.457
266.541, 759.916
267.907, 734.535
269.273, 799.309
270.639, 998.237
272.004, 1004.316
273.369, 1327.545
274.734, 1561.919
276.099, 1803.439
277.463, 2191.101
278.828, 2756.903
280.192, 3269.845
281.556, 3639.924
282.919, 4188.137
284.283, 4529.486
285.646, 4983.965
287.009, 5084.575
288.372, 5287.313
289.734, 5644.179
291.097, 5912.171
292.459, 6194.286
293.821, 6612.518
295.183, 6756.865
296.544, 6812.326
297.905, 6520.902
299.266, 6420.594
300.627, 5987.406
301.988, 5414.337
303.348, 4907.401
304.709, 4325.589
306.069, 3627.935
307.428, 3245.401
308.788, 2648.018
310.147, 2287.755
311.507, 1952.644
312.865, 1691.648
314.224, 1418.790
315.583, 1116.057
316.941, 1045.431
318.299, 756.936
319.657, 583.547
321.015, 556.271
322.372, 403.102
323.729, 267.039
325.086, 244.080
326.443, 187.226
327.800, 26.474
329.156, 60.825
330.512, 54.278
331.868, 21.168
333.224, 6.484
334.579, 31.234
335.935, 103.916
337.290, 23.981
338.645, 57.953
339.999, 172.834
341.354, 180.644
342.708, 229.383
344.062, 247.060
345.416, 253.679
346.769, 303.242
348.123, 261.759
349.476, 357.223
350.829, 218.647
352.182, 312.009
353.534, 296.327
354.887, 140.595
356.239, 60.792
357.591, 42.894
358.942, 3.096
360.294, 231.167
361.645, 241.357
362.996, 453.584
364.347, 631.840
365.698, 845.130
367.048, 1073.427
368.398, 1303.759
369.748, 1579.134
371.098, 1858.592
372.448, 2149.152
373.797, 2396.811
375.146, 2564.566
376.495, 2927.425
377.844, 3044.392
379.192, 3024.473
380.540, 3288.666
381.889, 3187.965
383.236, 3192.366
384.584, 3146.904
385.932, 2878.584
387.279, 2729.407
388.626, 2722.380
389.973, 2621.508
391.319, 2481.799
392.666, 2510.236
394.012, 2407.792
395.358, 2475.487
396.704, 2616.331
398.049, 2631.295
399.394, 2782.397
400.740, 2801.611
402.084, 2920.941
403.429, 2906.378
404.774, 2785.948
406.118, 2903.657
407.462, 2757.462
408.806, 2596.378
410.150, 2619.388
411.493, 2427.487
412.836, 2499.682
414.179, 2491.983
415.522, 2335.368
416.865, 2450.865
418.207, 2442.447
419.549, 2355.111
420.891, 2391.864
422.233, 2435.698
423.575, 2490.613
424.916, 2594.677
426.257, 2679.681
427.598, 2861.831
428.939, 2940.057
430.279, 3136.362
431.619, 3128.741
432.959, 3038.193
434.299, 3066.720
435.639, 2959.319
436.978, 2639.992
438.318, 2443.734
439.657, 2275.549
440.996, 2242.433
442.334, 2123.389
443.673, 2116.413
445.011, 2161.504
446.349, 2360.664
447.687, 2429.890
449.024, 2710.188
450.361, 3071.550
451.699, 3169.999
453.036, 3553.513
454.372, 4052.091
455.709, 4632.757
457.045, 4924.549
458.381, 5689.974
459.717, 6294.358
461.053, 7041.209
462.388, 7942.563
463.724, 8770.751
465.059, 9960.976
466.394, 11021.456
467.728, 11875.546
469.063, 13266.190
470.397, 14089.993
471.731, 15120.458
473.065, 16425.080
474.398, 16643.506
475.732, 17896.557
477.065, 17503.197
478.398, 17996.131
479.731, 18104.920
481.063, 17761.980
482.396, 17343.830
483.728, 16831.014
485.060, 16252.323
486.391, 15461.934
487.723, 14888.953
489.054, 14120.015
490.385, 13331.111
491.716, 12658.246
493.047, 11666.939
494.377, 11151.112
495.708, 10444.360
497.038, 9930.849
498.368, 9140.596
499.697, 8516.491
501.027, 8034.655
502.356, 7338.528
503.685, 6624.568
505.014, 6144.946
506.342, 5520.080
507.671, 5198.162
508.999, 4598.977
510.327, 4222.448
511.655, 3780.563
512.982, 3364.660
514.310, 3212.172
515.637, 2831.070
516.964, 2602.441
518.291, 2332.204
519.617, 2288.671
520.944, 2126.934
522.270, 1820.345
523.596, 1885.196
524.921, 1811.815
526.247, 1784.922
527.572, 1896.358
528.897, 1816.858
530.222, 2051.967
531.547, 2073.571
532.871, 2294.545
534.196, 2310.963
535.520, 2418.428
536.844, 2737.674
538.167, 2743.960
539.491, 2917.905
540.814, 3027.634
542.137, 3041.400
543.460, 3138.538
544.783, 3167.841
546.105, 3028.008
547.427, 3179.548
548.749, 2963.275
550.071, 2940.138
551.393, 2835.427
552.714, 2755.901
554.035, 2564.271
555.356, 2652.921
556.677, 2568.250
557.998, 2604.618
559.318, 2620.618
560.638, 2693.086
561.958, 2775.103
563.278, 2920.029
564.597, 3417.563
565.917, 3658.562
567.236, 4127.847
568.555, 4853.601
569.874, 5459.085
571.192, 6333.663
572.511, 7146.835
573.829, 7737.024
575.147, 8444.883
576.464, 9139.064
577.782, 9473.215
579.099, 9623.556
580.416, 9566.756
581.733, 9296.905
583.050, 9171.004
584.366, 8502.079
585.683, 8291.138
586.999, 7454.178
588.315, 6909.199
589.630, 6564.202
590.946, 5838.185
592.261, 5498.147
593.576, 4812.116
594.891, 4017.116
596.206, 3696.014
597.520, 3391.055
598.834, 2827.908
600.148, 2443.345
601.462, 2074.149
602.776, 1830.929
604.089, 1469.953
605.402, 1243.680
606.715, 936.953
608.028, 779.652
609.341, 588.318
610.653, 446.460
611.965, 271.247
613.277, 228.438
614.589, 33.483
615.901, 49.447
617.212, 22.037
618.523, 4.457
619.834, 9.710
621.145, 40.477
622.456, 21.659
623.766, 144.250
625.076, 2.194
626.386, 109.038
627.696, 11.092
629.006, 119.877
630.315, 44.714
631.624, 63.237
632.933, 3.621
634.242, 134.962
635.551, 30.574
636.859, 106.722
638.167, 49.102
639.475, 212.240
640.783, 89.940
642.090, 239.196
643.398, 238.231
644.705, 277.223
646.012, 215.172
647.318, 337.078
648.625, 380.940
649.931, 368.757
651.237, 310.534
652.543, 380.267
653.849, 257.955
655.155, 395.612
656.460, 246.227
657.765, 306.804
659.070, 226.358
660.375, 189.893
661.679, 287.413
662.984, 151.924
664.288, 201.425
665.592, 159.924
666.895, 87.416
668.199, 88.907
669.502, 102.376
670.805, 69.840
672.108, 100.289
673.411, 11.703
674.713, 15.044
676.016, 24.313
677.318, 101.494
678.620, 60.558
679.921, 13.458
681.223, 88.570
682.524, 31.818
683.825, 68.175
685.126, 36.659
686.427, 19.747
687.727, 11.070
689.028, 24.038
690.328, 37.706
691.628, 1.456
692.927, 13.468
694.227, 45.581
695.526, 39.838
696.825, 20.155
698.124, 4.604
699.423, 10.369
700.721, 28.793
702.020, 26.547
703.318, 48.408
704.616, 67.388
705.913, 101.498
707.211, 44.755
708.508, 41.871
709.805, 46.579
711.102, 99.146
712.399, 1.140
713.695, 63.666
714.992, 25.403
716.288, 2.609
717.584, 53.285
718.879, 74.891
720.175, 101.199
721.470, 94.350
722.765, 3.165
724.060, 109.229
725.355, 131.564
726.649, 62.841
727.944, 4.948
729.238, 218.171
730.532, 33.763
731.825, 166.198
733.119, 225.104
734.412, 63.957
735.705, 148.745
736.998, 156.479
738.291, 163.159
739.584, 170.785
740.876, 214.358
742.168, 252.879
743.460, 241.562
744.752, 251.688
746.043, 198.126
747.334, 226.438
748.626, 149.697
749.916, 135.904
751.207, 155.058
752.498, 117.161
753.788, 177.209
755.078, 75.208
756.368, 206.149
757.658, 155.039
758.947, 95.878
760.237, 149.663
761.526, 16.398
762.815, 133.069
764.104, 50.311
765.392, 67.214
766.680, 92.685
767.969, 63.896
769.257, 62.423
770.544, 5.625
771.832, 89.200
773.119, 30.174
774.406, 108.018
775.693, 42.612
776.980, 29.414
778.267, 49.187
779.553, 22.715
780.839, 30.362
782.125, 17.005
783.411, 15.222
784.697, 23.213
785.982, 73.804
787.267, 34.211
788.552, 3.233
789.837, 108.845
791.122, 12.236
792.406, 5.530
793.690, 39.567
794.974, 28.390
796.258, 10.545
797.542, 35.550
798.825, 18.610
800.108, 66.634
801.391, 15.624
802.674, 59.579
803.957, 15.500
805.239, 23.387
806.522, 235.240
807.804, 6.060
809.085, 252.848
810.367, 147.603
811.649, 117.326
812.930, 190.017
814.211, 147.678
815.492, 140.307
816.772, 243.906
818.053, 243.475
819.333, 298.013
820.613, 238.521
821.893, 336.350
823.173, 358.155
824.452, 227.186
825.732, 420.430
827.011, 318.312
828.290, 447.310
829.568, 393.431
830.847, 376.941
832.125, 457.786
833.403, 421.484
834.681, 446.743
835.959, 388.236
837.236, 470.243
838.514, 371.923
839.791, 412.542
841.068, 385.554
842.345, 453.073
843.621, 516.224
844.898, 406.935
846.174, 466.599
847.450, 511.484
848.726, 398.331
850.001, 416.518
851.277, 407.925
852.552, 418.295
853.827, 438.293
855.102, 422.127
856.376, 408.096
857.651, 458.693
858.925, 429.101
860.199, 355.373
861.473, 301.216
862.746, 391.873
864.020, 378.631
865.293, 283.109
866.566, 452.905
867.839, 422.660
869.112, 337.777
870.384, 318.424
871.656, 360.519
872.928, 259.700
874.200, 392.268
875.472, 403.368
876.744, 244.179
878.015, 362.514
879.286, 319.114
880.557, 383.618
881.828, 396.518
883.098, 344.397
884.369, 296.600
885.639, 338.478
886.909, 318.376
888.178, 367.078
889.448, 284.916
890.717, 461.797
891.987, 282.720
893.256, 354.661
894.524, 434.612
895.793, 363.572
897.061, 445.544
898.330, 462.527
899.598, 433.521
900.865, 467.527
902.133, 527.521
903.401, 496.474
904.668, 615.519
905.935, 572.413
907.202, 550.486
908.468, 629.966
909.735, 768.070
911.001, 743.189
912.267, 787.053
913.533, 757.211
914.799, 871.814
916.064, 884.014
917.330, 1041.245
918.595, 964.998
919.860, 941.111
921.124, 1162.812
922.389, 1189.654
923.653, 1249.569
924.918, 1234.855
926.182, 1439.211
927.445, 1384.890
928.709, 1495.916
929.972, 1650.916
931.236, 1689.298
932.499, 1740.584
933.761, 1835.537
935.024, 1744.116
936.286, 1939.789
937.549, 2110.847
938.811, 1957.449
940.073, 2130.470
941.334, 2089.499
942.596, 2199.641
943.857, 2408.937
945.118, 2275.136
946.379, 2257.574
947.640, 2304.448
948.900, 2571.753
950.161, 2552.278
951.421, 2516.839
952.681, 2699.431
953.940, 2693.055
955.200, 2685.711
956.459, 2880.409
957.719, 3055.141
958.978, 3113.913
960.236, 3306.729
961.495, 3376.578
962.753, 3644.465
964.012, 3721.404
965.270, 4001.418
966.527, 4388.467
967.785, 4650.552
969.043, 4989.673
970.300, 5303.853
971.557, 5829.729
972.814, 6421.324
974.071, 7015.632
975.327, 7781.006
976.583, 8506.434
977.840, 9800.898
979.095, 10871.424
980.351, 12526.999
981.607, 14735.644
982.862, 17037.363
984.117, 19920.188
985.372, 24881.053
986.627, 28282.994
987.882, 34505.023
989.136, 40569.117
990.390, 45852.285
991.644, 51233.520
992.898, 53173.820
994.152, 52257.176
995.405, 49551.578
996.659, 44845.039
997.912, 40017.555
999.165, 35492.137
1000.417, 30951.807
1001.670, 26374.533
1002.922, 23077.338
1004.174, 18925.191
1005.426, 16139.113
1006.678, 13171.104
1007.930, 11104.163
1009.181, 9288.294
1010.432, 7755.506
1011.683, 6559.806
1012.934, 5595.188
1014.185, 4939.622
1015.435, 4394.134
1016.685, 3720.735
1017.935, 3229.395
1019.185, 2968.134
1020.435, 2638.927
1021.684, 2196.788
1022.934, 2098.695
1024.183, 1860.689
1025.432, 1665.768
1026.680, 1627.896
1027.929, 1468.087
1029.177, 1321.324
1030.425, 1188.601
1031.673, 1094.213
1032.921, 1065.304
1034.169, 976.725
1035.416, 921.215
1036.663, 947.746
1037.911, 839.319
1039.157, 804.938
1040.404, 879.607
1041.650, 902.314
1042.897, 1093.061
1044.143, 815.844
1045.389, 998.668
1046.634, 1052.531
1047.880, 1266.434
1049.125, 1256.377
1050.371, 1467.359
1051.615, 1736.380
1052.860, 1872.442
1054.105, 2301.543
1055.349, 2598.682
1056.593, 2875.860
1057.837, 3149.076
1059.081, 3430.333
1060.325, 3403.628
1061.568, 3338.959
1062.812, 2926.497
1064.055, 2647.004
1065.298, 2346.607
1066.540, 1946.824
1067.783, 1511.072
1069.025, 1300.084
1070.267, 1181.896
1071.509, 812.662
1072.751, 615.281
1073.993, 624.188
1075.234, 484.174
1076.475, 320.804
1077.716, 311.286
1078.957, 279.150
1080.198, 184.778
1081.438, 264.790
1082.679, 196.479
1083.919, 171.889
1085.159, 215.347
1086.398, 136.899
1087.638, 193.196
1088.877, 137.278
1090.116, 238.065
1091.355, 191.361
1092.594, 123.702
1093.833, 207.179
1095.071, 145.381
1096.309, 193.611
1097.547, 238.334
1098.785, 222.136
1100.023, 310.843
1101.260, 304.597
1102.498, 424.190
1103.735, 325.923
1104.972, 374.071
1106.208, 392.160
1107.445, 401.206
1108.681, 331.670
1109.918, 371.375
1111.154, 314.056
1112.389, 414.178
1113.625, 329.752
1114.860, 352.663
1116.096, 288.168
1117.331, 361.487
1118.566, 354.386
1119.800, 411.004
1121.035, 365.131
1122.269, 381.086
1123.503, 320.434
1124.737, 350.962
1125.971, 412.136
1127.205, 394.626
1128.438, 324.806
1129.671, 507.522
1130.904, 441.010
1132.137, 544.638
1133.370, 554.558
1134.602, 563.800
1135.834, 481.940
1137.066, 610.009
1138.298, 828.373
1139.530, 639.618
1140.762, 885.786
1141.993, 811.964
1143.224, 900.476
1144.455, 945.799
1145.686, 1070.646
1146.917, 1177.374
1148.147, 1328.167
1149.377, 1375.693
1150.607, 1482.180
1151.837, 1527.562
1153.067, 1769.993
1154.296, 1940.375
1155.526, 2189.908
1156.755, 2243.646
1157.984, 2620.264
1159.213, 2760.364
1160.441, 3027.036
1161.670, 3304.364
1162.898, 3665.587
1164.126, 3776.423
1165.354, 4030.619
1166.581, 4234.737
1167.809, 4391.285
1169.036, 4362.826
1170.263, 4290.536
1171.490, 4047.500
1172.717, 3814.775
1173.943, 3371.131
1175.170, 3072.683
1176.396, 2632.245
1177.622, 2471.543
1178.848, 2177.584
1180.073, 1797.787
1181.299, 1599.127
1182.524, 1252.242
1183.749, 1125.769
1184.974, 990.622
1186.199, 909.082
1187.423, 665.438
1188.648, 643.499
1189.872, 496.372
1191.096, 456.231
1192.320, 392.724
1193.543, 293.966
1194.767, 252.266
1195.990, 210.801
1197.213, 183.056
1198.436, 86.384
1199.659, 129.744
1200.881, 33.977
1202.104, 149.057
1203.326, 32.088
1204.548, 106.231
1205.770, 9.230
1206.991, 26.988
1208.213, 28.958
1209.434, 39.072
1210.655, 3.873
1211.876, 140.039
1213.096, 47.559
1214.317, 45.597
1215.537, 75.192
1216.757, 5.839
1217.977, 28.333
1219.197, 43.994
1220.417, 47.178
1221.636, 26.770
1222.855, 37.587
1224.074, 65.165
1225.293, 53.079
1226.512, 9.911
1227.731, 27.091
1228.949, 59.592
1230.167, 148.464
1231.385, 67.456
1232.603, 1.328
1233.820, 60.730
1235.038, 102.833
1236.255, 1.731
1237.472, 6.406
1238.689, 68.826
1239.906, 36.668
1241.122, 46.945
1242.338, 13.620
1243.555, 16.667
1244.771, 19.065
1245.986, 0.163
1247.202, 27.505
1248.417, 74.652
1249.633, 49.981
1250.848, 15.843
1252.063, 22.228
1253.277, 5.170
1254.492, 15.924
1255.706, 97.895
1256.920, 17.674
1258.134, 37.596
1259.348, 122.961
1260.562, 78.632
1261.775, 30.124
1262.988, 37.735
1264.201, 42.646
1265.414, 33.714
1266.627, 63.270
1267.839, 23.440
1269.052, 60.213
1270.264, 1.950
1271.476, 75.066
1272.688, 10.800
1273.899, 85.210
1275.111, 27.828
1276.322, 38.925
1277.533, 8.088
1278.744, 47.686
1279.955, 15.593
1281.165, 125.058
1282.376, 146.668
1283.586, 88.242
1284.796, 112.765
1286.006, 26.243
1287.215, 136.655
1288.425, 83.027
1289.634, 109.433
1290.843, 68.784
1292.052, 43.145
1293.261, 74.665
1294.469, 93.466
1295.678, 100.592
1296.886, 115.121
1298.094, 111.608
1299.302, 119.263
1300.509, 103.428
1301.717, 89.270
1302.924, 99.064
1304.131, 75.808
1305.338, 33.501
1306.545, 142.140
1307.752, 45.755
1308.958, 92.289
1310.164, 176.775
1311.370, 82.215
1312.576, 115.603
1313.782, 51.944
1314.987, 201.235
1316.193, 58.480
1317.398, 159.673
1318.603, 78.817
1319.807, 72.911
1321.012, 119.954
1322.216, 151.951
1323.421, 212.905
1324.625, 172.938
1325.829, 145.678
1327.032, 92.495
1328.236, 125.354
1329.439, 105.077
1330.642, 131.029
1331.845, 55.382
1333.048, 197.004
1334.251, 271.549
1335.453, 303.040
1336.656, 128.487
1337.858, 153.889
1339.060, 146.243
1340.261, 124.687
1341.463, 149.951
1342.664, 140.262
1343.866, 137.349
1345.067, 149.480
1346.267, 166.570
1347.468, 172.618
1348.669, 156.623
1349.869, 173.570
1351.069, 227.612
1352.269, 173.494
1353.469, 171.334
1354.668, 141.965
1355.868, 189.626
1357.067, 288.191
1358.266, 145.141
1359.465, 330.077
1360.664, 282.270
1361.862, 201.755
1363.061, 235.700
1364.259, 137.316
1365.457, 196.617
1366.655, 277.945
1367.852, 173.686
1369.050, 297.455
1370.247, 203.852
1371.444, 236.477
1372.641, 155.721
1373.838, 183.283
1375.035, 178.041
1376.231, 212.837
1377.427, 167.410
1378.623, 159.317
1379.819, 216.325
1381.015, 133.595
1382.211, 190.637
1383.406, 189.452
1384.601, 230.446
1385.796, 249.204
1386.991, 209.873
1388.185, 202.622
1389.380, 222.551
1390.574, 168.469
1391.768, 211.016
1392.962, 153.826
1394.156, 157.371
1395.350, 174.020
1396.543, 231.422
1397.736, 225.262
1398.929, 227.178
1400.122, 212.117
1401.315, 211.844
1402.507, 167.008
1403.700, 150.460
1404.892, 208.980
1406.084, 123.022
1407.276, 109.667
1408.467, 255.288
1409.659, 102.268
1410.850, 153.520
1412.041, 360.524
1413.232, 170.698
1414.423, 203.662
1415.614, 141.973
1416.804, 165.052
1417.994, 180.544
1419.184, 150.880
1420.374, 176.247
1421.564, 184.675
1422.753, 157.943
1423.943, 257.104
1425.132, 141.908
1426.321, 267.425
1427.510, 197.062
1428.698, 173.610
1429.887, 221.850
1431.075, 181.101
1432.263, 111.552
1433.451, 112.519
1434.639, 96.148
1435.827, 120.186
1437.014, 113.833
1438.201, 123.077
1439.388, 138.252
1440.575, 123.060
1441.762, 197.152
1442.949, 216.849
1444.135, 211.382
1445.321, 170.472
1446.507, 289.562
1447.693, 236.400
1448.879, 212.489
1450.064, 100.129
1451.250, 184.660
1452.435, 186.498
1453.620, 284.392
1454.805, 243.913
1455.989, 203.113
1457.174, 220.438
1458.358, 112.621
1459.542, 220.419
1460.726, 206.802
1461.910, 118.810
1463.093, 174.012
1464.277, 194.278
1465.460, 202.606
1466.643, 189.722
1467.826, 86.643
1469.009, 255.380
1470.191, 60.647
