##NAMES=Paravauxite
##RRUFFID=R040179
##IDEAL CHEMISTRY=Fe^2+^Al_2_(PO_4_)_2_(OH)_2_&#183;8H_2_O
##LOCALITY=Mina Siglo XX, Llallagua, Bolivia
##OWNER=RRUFF
##SOURCE=University of Arizona Mineral Museum
##DESCRIPTION=Colorless short prismatic crystals in subparallel groups
##STATUS=The identification of this mineral has been confirmed by X-ray diffraction and chemical analysis
##URL=rruff.info/R040179
##MEASURED CHEMISTRY=(Fe_0.93_Mg_0.03_Mn_0.02_)Al_1.94_(P_2.05_O_4_)_2_((OH)_0.99_F_0.01_)_2_Â·8H_2_O
##PIN_ID=M00447
##ORIENTATION=Laser parallel to (1 1 0). Fiducial mark perpendicular to laser is parallel to -c [0 0 -1]
117.494, 0.000
118.891, 2.813
120.287, 8.020
121.683, 98.225
123.079, 376.852
124.475, 686.961
125.870, 930.784
127.265, 1184.041
128.660, 1532.808
130.055, 1833.815
131.449, 1984.573
132.843, 2120.969
134.237, 2174.429
135.631, 2177.820
137.024, 2089.586
138.417, 2052.008
139.810, 1921.562
141.203, 1721.496
142.596, 1481.935
143.988, 1352.806
145.380, 1084.158
146.771, 1016.151
148.163, 808.818
149.554, 722.113
150.945, 584.921
152.336, 394.123
153.726, 293.622
155.117, 117.340
156.507, 71.211
157.896, 13.184
159.286, 45.782
160.675, 108.718
162.064, 25.636
163.453, 67.447
164.842, 34.525
166.230, 79.587
167.618, 81.628
169.006, 103.649
170.393, 171.812
171.781, 168.860
173.168, 171.178
174.555, 243.763
175.941, 283.083
177.328, 302.394
178.714, 401.908
180.100, 362.092
181.485, 397.088
182.871, 455.754
184.256, 387.061
185.641, 439.995
187.025, 460.570
188.410, 505.806
189.794, 409.718
191.178, 425.319
192.562, 421.627
193.945, 630.652
195.328, 867.404
196.711, 933.898
198.094, 870.143
199.476, 896.147
200.859, 931.944
202.241, 807.607
203.623, 773.160
205.004, 858.614
206.385, 983.976
207.766, 989.251
209.147, 1114.442
210.528, 1089.552
211.908, 1185.232
213.288, 1379.531
214.668, 1284.400
216.048, 1359.194
217.427, 1293.913
218.806, 1158.561
220.185, 1103.907
221.564, 990.900
222.942, 922.576
224.320, 998.803
225.698, 1203.244
227.076, 1305.251
228.453, 1580.423
229.830, 1823.375
231.207, 2273.606
232.584, 2718.950
233.960, 3072.061
235.337, 3284.936
236.713, 3286.647
238.088, 3138.731
239.464, 2982.263
240.839, 2454.767
242.214, 2223.757
243.589, 1919.158
244.964, 1492.755
246.338, 1394.989
247.712, 1116.551
249.086, 977.672
250.459, 948.418
251.833, 828.567
253.206, 728.672
254.579, 658.751
255.951, 608.801
257.324, 648.812
258.696, 698.784
260.068, 728.711
261.439, 768.593
262.811, 778.427
264.182, 918.212
265.553, 1117.949
266.924, 1187.638
268.294, 1347.278
269.665, 1586.871
271.035, 1896.417
272.404, 2165.916
273.774, 2585.370
275.143, 3124.775
276.512, 3704.139
277.881, 4433.453
279.250, 5042.727
280.618, 5911.955
281.986, 6141.139
283.354, 6333.248
284.721, 5955.141
286.089, 5277.473
287.456, 4509.934
288.823, 3912.481
290.190, 3325.087
291.556, 2917.729
292.922, 2600.396
294.288, 2213.062
295.654, 2035.716
297.019, 1788.358
298.385, 1580.988
299.750, 1453.604
301.114, 1346.203
302.479, 1098.785
303.843, 1041.297
305.207, 963.620
306.571, 785.932
307.935, 658.229
309.298, 700.512
310.661, 552.776
312.024, 545.018
313.387, 517.234
314.749, 429.424
316.111, 561.583
317.473, 443.709
318.835, 425.800
320.196, 427.856
321.558, 299.877
322.919, 311.857
324.279, 172.460
325.640, 63.742
327.000, 60.992
328.360, 30.794
329.720, 106.456
331.080, 83.794
332.439, 14.787
333.798, 94.688
335.157, 61.248
336.516, 103.279
337.874, 93.760
339.232, 98.396
340.590, 82.732
341.948, 92.363
343.305, 66.595
344.662, 92.366
346.019, 19.447
347.376, 1.618
348.733, 22.947
350.089, 5.542
351.445, 16.239
352.801, 70.548
354.156, 130.203
355.512, 49.630
356.867, 9.577
358.222, 130.789
359.576, 48.710
360.931, 38.350
362.285, 121.957
363.639, 22.149
364.992, 52.227
366.346, 131.955
367.699, 91.477
369.052, 250.955
370.405, 130.439
371.757, 269.873
373.110, 269.280
374.462, 288.641
375.814, 367.953
377.165, 327.236
378.516, 406.486
379.868, 395.713
381.218, 404.929
382.569, 454.103
383.920, 563.232
385.270, 612.312
386.620, 601.318
387.969, 610.191
389.319, 748.935
390.668, 697.519
392.017, 865.928
393.366, 984.175
394.714, 1222.288
396.063, 1360.268
397.411, 1468.168
398.759, 1755.986
400.106, 2273.656
401.454, 2371.252
402.801, 2708.764
404.148, 3056.197
405.495, 3103.566
406.841, 3280.891
408.187, 3058.175
409.533, 2875.426
410.879, 2462.647
412.224, 2319.838
413.570, 2287.004
414.915, 2244.144
416.260, 2291.260
417.604, 2448.351
418.949, 2715.418
420.293, 2962.459
421.637, 3369.477
422.980, 4126.468
424.324, 4673.436
425.667, 5610.378
427.010, 6577.297
428.353, 7934.189
429.695, 8961.060
431.037, 10157.902
432.379, 11044.726
433.721, 11331.525
435.063, 10608.297
436.404, 10195.047
437.745, 9191.774
439.086, 7788.474
440.427, 6465.152
441.767, 5631.809
443.108, 4648.440
444.448, 3835.051
445.787, 3351.624
447.127, 2788.165
448.466, 2324.670
449.805, 2231.138
451.144, 1787.567
452.482, 1803.961
453.821, 1530.315
455.159, 1396.633
456.497, 1192.911
457.834, 1149.151
459.172, 1305.354
460.509, 1081.516
461.846, 1017.642
463.183, 1053.728
464.519, 909.775
465.856, 905.784
467.192, 921.757
468.527, 977.692
469.863, 1023.591
471.198, 1009.457
472.534, 1125.287
473.868, 991.080
475.203, 856.836
476.538, 1052.554
477.872, 958.234
479.206, 1003.886
480.540, 819.501
481.873, 745.077
483.206, 830.136
484.539, 725.200
485.872, 579.533
487.205, 712.664
488.537, 555.707
489.869, 527.999
491.201, 522.143
492.533, 427.672
493.864, 449.229
495.196, 523.969
496.527, 220.781
497.857, 294.905
499.188, 389.595
500.518, 143.950
501.848, 229.239
503.178, 133.878
504.508, 160.089
505.837, 234.638
507.166, 173.726
508.495, 214.147
509.824, 115.599
511.153, 196.154
512.481, 57.207
513.809, 22.947
515.137, 74.911
516.464, 67.020
517.792, 146.601
519.119, 99.999
520.446, 107.373
521.772, 95.271
523.099, 111.018
524.425, 121.223
525.751, 198.263
527.077, 265.596
528.402, 380.336
529.728, 326.784
531.053, 329.971
532.377, 427.896
533.702, 501.752
535.027, 525.490
536.351, 382.536
537.675, 619.199
538.998, 527.740
540.322, 679.763
541.645, 684.156
542.968, 758.694
544.291, 853.585
545.613, 877.930
546.936, 957.445
548.258, 1008.094
549.580, 1061.531
550.902, 1086.093
552.223, 1110.699
553.544, 1099.561
554.865, 1363.674
556.186, 1538.125
557.507, 1532.202
558.827, 1659.046
560.147, 2013.076
561.467, 2087.217
562.786, 2341.205
564.106, 2635.175
565.425, 2709.253
566.744, 2993.295
568.063, 3347.225
569.381, 3421.260
570.700, 3815.151
572.018, 3629.452
573.335, 4133.385
574.653, 4137.216
575.970, 4461.373
577.288, 4855.168
578.604, 4989.047
579.921, 5382.803
581.238, 5246.538
582.554, 5580.254
583.870, 5633.951
585.186, 5927.630
586.501, 5921.289
587.817, 5914.928
589.132, 5918.551
590.447, 5842.150
591.761, 5935.734
593.076, 5869.299
594.390, 5732.844
595.704, 5786.371
597.018, 5839.881
598.331, 5613.370
599.645, 5645.240
600.958, 5360.293
602.271, 5463.727
603.583, 5197.143
604.896, 5020.540
606.208, 4833.920
607.520, 4837.281
608.832, 4630.623
610.143, 4433.947
611.455, 4287.346
612.766, 4070.634
614.077, 3693.905
615.387, 3567.160
616.698, 3250.396
618.008, 2923.615
619.318, 2916.816
620.628, 2680.002
621.937, 2303.240
623.247, 2236.391
624.556, 1789.653
625.865, 1812.969
627.173, 1626.214
628.482, 1380.464
629.790, 1373.854
631.098, 1196.907
632.405, 980.161
633.713, 853.260
635.020, 806.265
636.327, 830.859
637.634, 664.124
638.941, 767.081
640.247, 610.024
641.553, 703.081
642.859, 657.598
644.165, 720.503
645.471, 743.401
646.776, 687.565
648.081, 660.460
649.386, 626.857
650.691, 629.811
651.995, 579.298
653.299, 547.811
654.603, 484.729
655.907, 461.002
657.210, 375.062
658.514, 337.355
659.817, 310.236
661.120, 352.623
662.422, 175.234
663.725, 348.299
665.027, 151.011
666.329, 143.913
667.630, 200.116
668.932, 182.979
670.233, 155.255
671.534, 174.046
672.835, 134.975
674.136, 141.979
675.436, 96.125
676.737, 68.779
678.036, 91.511
679.336, 15.730
680.636, 117.147
681.935, 70.032
683.234, 56.842
684.533, 23.627
685.832, 188.213
687.130, 74.855
688.428, 52.016
689.726, 120.995
691.024, 194.439
692.322, 32.572
693.619, 29.624
694.916, 51.902
696.213, 107.602
697.510, 95.177
698.806, 114.170
700.102, 26.918
701.398, 149.648
702.694, 22.363
703.990, 195.061
705.285, 88.136
706.580, 70.805
707.875, 53.456
709.170, 53.908
710.464, 178.673
711.758, 71.332
713.052, 153.884
714.346, 22.979
715.640, 179.521
716.933, 122.009
718.226, 214.530
719.519, 196.993
720.812, 119.442
722.105, 121.877
723.397, 169.132
724.689, 121.542
725.981, 173.939
727.272, 46.324
728.564, 128.693
729.855, 261.050
731.146, 63.395
732.437, 275.724
733.727, 118.041
735.017, 290.347
736.308, 192.641
737.597, 214.923
738.887, 297.193
740.176, 179.452
741.466, 241.700
742.755, 353.936
744.043, 226.161
745.332, 248.375
746.620, 240.579
747.908, 292.771
749.196, 304.953
750.484, 247.124
751.771, 269.286
753.059, 311.436
754.346, 303.577
755.633, 255.708
756.919, 257.828
758.206, 269.939
759.492, 242.041
760.778, 234.133
762.063, 216.215
763.349, 198.288
764.634, 250.351
765.919, 92.405
767.204, 304.449
768.489, 206.484
769.773, 188.510
771.057, 290.527
772.341, 222.535
773.625, 164.535
774.909, 296.526
776.192, 88.510
777.475, 190.484
778.758, 72.450
780.041, 54.407
781.323, 66.354
782.605, 1.707
783.887, 21.281
785.169, 142.118
786.451, 44.019
787.732, 75.910
789.013, 117.792
790.294, 10.332
791.575, 21.519
792.856, 103.361
794.136, 145.197
795.416, 57.026
796.696, 11.153
797.976, 100.646
799.255, 102.438
800.534, 5.776
801.813, 185.988
803.092, 42.252
804.371, 169.470
805.649, 11.186
806.927, 67.111
808.205, 5.459
809.483, 43.821
810.760, 2.223
812.037, 139.360
813.315, 30.938
814.591, 132.510
815.868, 54.078
817.144, 35.641
818.421, 257.197
819.697, 148.697
820.972, 49.835
822.248, 61.673
823.523, 93.174
824.798, 145.360
826.073, 66.054
827.348, 87.316
828.623, 11.393
829.897, 249.688
831.171, 90.651
832.445, 41.710
833.718, 21.249
834.992, 62.409
836.265, 16.185
837.538, 135.437
838.811, 35.568
840.083, 62.997
841.356, 3.938
842.628, 71.036
843.900, 7.833
845.171, 43.462
846.443, 111.746
847.714, 89.789
848.985, 32.925
850.256, 120.376
851.527, 118.688
852.797, 172.248
854.067, 42.822
855.337, 63.911
856.607, 84.461
857.876, 14.389
859.146, 126.442
860.415, 117.204
861.684, 127.895
862.953, 104.307
864.221, 4.557
865.489, 226.219
866.757, 22.658
868.025, 25.674
869.293, 186.799
870.560, 2.209
871.828, 58.916
873.095, 180.039
874.361, 61.035
875.628, 107.957
876.894, 213.123
878.160, 114.078
879.426, 85.160
880.692, 145.812
881.958, 6.812
883.223, 87.896
884.488, 38.635
885.753, 44.240
887.018, 60.703
888.282, 71.791
889.546, 82.883
890.810, 63.973
892.074, 55.066
893.338, 36.162
894.601, 257.260
895.864, 88.359
897.127, 159.461
898.390, 170.566
899.652, 81.695
900.915, 302.842
902.177, 273.994
903.439, 175.150
904.700, 376.309
905.962, 147.471
907.223, 218.637
908.484, 239.807
909.745, 351.002
911.006, 312.203
912.266, 243.408
913.526, 314.621
914.786, 445.838
916.046, 327.057
917.306, 378.283
918.565, 249.420
919.824, 350.672
921.083, 471.930
922.342, 483.189
923.600, 324.459
924.859, 495.732
926.117, 347.012
927.375, 438.299
928.632, 479.520
929.890, 740.816
931.147, 431.994
932.404, 883.105
933.661, 834.279
934.918, 734.439
936.174, 525.449
937.430, 646.787
938.686, 697.916
939.942, 779.191
941.198, 812.082
942.453, 900.316
943.708, 821.398
944.963, 842.783
946.218, 794.174
947.472, 1005.443
948.727, 915.248
949.981, 1116.662
951.235, 998.086
952.488, 1118.252
953.742, 1279.693
954.995, 1327.674
956.248, 1359.129
957.501, 1540.205
958.754, 1276.705
960.006, 1547.010
961.258, 1485.023
962.510, 1875.551
963.762, 1777.074
965.014, 1858.441
966.265, 1949.984
967.516, 2361.480
968.767, 2642.912
970.018, 2544.484
971.269, 3036.064
972.519, 3283.955
973.769, 3725.555
975.019, 3907.162
976.269, 4679.148
977.518, 5280.777
978.767, 6152.412
980.017, 7132.766
981.265, 8384.426
982.514, 10296.096
983.762, 12294.459
985.011, 14839.328
986.259, 17471.037
987.507, 20882.680
988.754, 24244.455
990.002, 26634.027
991.249, 28005.891
992.496, 27877.703
993.743, 25639.615
994.989, 23331.092
996.236, 20533.029
997.482, 17944.990
998.728, 15752.168
999.974, 13552.752
1001.219, 11814.820
1002.464, 10100.676
1003.710, 8282.777
1004.954, 7004.895
1006.199, 5797.025
1007.444, 4719.172
1008.688, 4280.949
1009.932, 3503.129
1011.176, 3145.328
1012.420, 2597.543
1013.663, 2329.797
1014.906, 2021.973
1016.149, 1964.260
1017.392, 1465.963
1018.635, 1558.293
1019.877, 1200.643
1021.120, 1302.955
1022.362, 1125.338
1023.603, 1017.734
1024.845, 1140.145
1026.086, 757.746
1027.328, 720.191
1028.569, 882.656
1029.809, 715.137
1031.050, 697.639
1032.290, 590.158
1033.530, 612.693
1034.770, 525.250
1036.010, 407.822
1037.250, 280.416
1038.489, 593.025
1039.728, 305.656
1040.967, 518.303
1042.206, 330.967
1043.444, 303.650
1044.683, 476.354
1045.921, 369.072
1047.159, 661.814
1048.396, 499.010
1049.634, 525.973
1050.871, 718.773
1052.108, 721.777
1053.345, 664.617
1054.582, 777.477
1055.818, 820.355
1057.054, 913.256
1058.290, 821.668
1059.526, 954.609
1060.762, 947.574
1061.997, 630.852
1063.232, 673.859
1064.467, 596.891
1065.702, 439.943
1066.937, 423.020
1068.171, 420.014
1069.405, 473.137
1070.639, 426.283
1071.873, 309.455
1073.107, 322.648
1074.340, 335.867
1075.573, 419.111
1076.806, 422.379
1078.039, 255.676
1079.272, 338.996
1080.504, 212.342
1081.736, 165.717
1082.968, 209.121
1084.200, 272.555
1085.431, 426.020
1086.663, 459.512
1087.894, 382.961
1089.125, 386.365
1090.355, 289.789
1091.586, 303.246
1092.816, 320.035
1094.046, 460.027
1095.276, 363.441
1096.506, 446.875
1097.735, 400.252
1098.965, 574.594
1100.194, 388.000
1101.423, 371.424
1102.651, 474.861
1103.880, 358.324
1105.108, 464.236
1106.336, 587.713
1107.564, 341.217
1108.792, 445.240
1110.019, 288.785
1111.246, 312.346
1112.473, 475.924
1113.700, 109.467
1114.927, 303.025
1116.153, 156.449
1117.380, 109.867
1118.606, 243.232
1119.831, 256.572
1121.057, 319.889
1122.283, 393.184
1123.508, 206.465
1124.733, 330.104
1125.958, 23.137
1127.182, 186.561
1128.407, 120.025
1129.631, 203.520
1130.855, 17.045
1132.079, 20.615
1133.302, 64.227
1134.526, 27.871
1135.749, 81.545
1136.972, 275.303
1138.195, 129.131
1139.417, 243.016
1140.640, 226.936
1141.862, 110.893
1143.084, 244.881
1144.305, 58.900
1145.527, 402.959
1146.748, 197.053
1147.970, 191.180
1149.191, 245.342
1150.411, 219.586
1151.632, 293.863
1152.852, 398.178
1154.072, 162.525
1155.292, 446.908
1156.512, 441.328
1157.732, 515.781
1158.951, 220.270
1160.170, 634.795
1161.389, 499.281
1162.608, 623.777
1163.826, 618.303
1165.045, 672.863
1166.263, 677.395
1167.481, 701.953
1168.699, 646.545
1169.916, 611.168
1171.134, 415.773
1172.351, 430.414
1173.568, 595.082
1174.784, 259.783
1176.001, 314.514
1177.217, 539.273
1178.433, 44.064
1179.649, 428.885
1180.865, 333.736
1182.081, 228.619
1183.296, 383.537
1184.511, 108.488
1185.726, 133.471
1186.941, 368.486
1188.155, 63.537
1189.370, 288.592
1190.584, 133.680
1191.798, 118.803
1193.011, 373.965
1194.225, 80.832
1195.438, 75.576
1196.651, 409.725
1197.864, 4.916
1199.077, 50.498
1200.290, 115.975
1201.502, 211.512
1202.714, 57.109
1203.926, 87.229
1205.138, 88.494
1206.349, 104.275
1207.561, 0.115
1208.772, 96.016
1209.983, 181.975
1211.194, 127.992
1212.404, 224.070
1213.614, 49.793
1214.825, 146.402
1216.034, 272.662
1217.244, 138.980
1218.454, 305.369
1219.663, 271.824
1220.872, 88.352
1222.081, 324.957
1223.290, 181.639
1224.498, 148.400
1225.707, 425.246
1226.915, 312.182
1228.123, 259.205
1229.331, 306.320
1230.538, 243.531
1231.746, 277.182
1232.953, 181.451
1234.160, 212.053
1235.366, 307.812
1236.573, 124.334
1237.779, 227.033
1238.986, 272.711
1240.192, 166.977
1241.397, 342.471
1242.603, 268.066
1243.808, 2.461
1245.013, 306.621
1246.218, 100.498
1247.423, 264.031
1248.628, 547.141
1249.832, 20.264
1251.036, 311.697
1252.240, 253.439
1253.444, 16.184
1254.648, 439.209
1255.851, 302.727
1257.054, 296.758
1258.257, 350.729
1259.460, 224.408
1260.663, 413.770
1261.865, 103.098
1263.067, 221.898
1264.269, 136.037
1265.471, 137.830
1266.673, 63.010
1267.874, 67.424
1269.075, 0.672
1270.276, 0.000
##END=



