##NAMES=Paravauxite
##RRUFFID=R040179
##IDEAL CHEMISTRY=Fe^2+^Al_2_(PO_4_)_2_(OH)_2_&#183;8H_2_O
##LOCALITY=Mina Siglo XX, Llallagua, Bolivia
##OWNER=RRUFF
##SOURCE=University of Arizona Mineral Museum
##DESCRIPTION=Colorless short prismatic crystals in subparallel groups
##STATUS=The identification of this mineral has been confirmed by X-ray diffraction and chemical analysis
##URL=rruff.info/R040179
##MEASURED CHEMISTRY=(Fe_0.93_Mg_0.03_Mn_0.02_)Al_1.94_(P_2.05_O_4_)_2_((OH)_0.99_F_0.01_)_2_Â·8H_2_O
##PIN_ID=M00447
##ORIENTATION=Laser parallel to (1 1 0). Fiducial mark perpendicular to laser is parallel to -c [0 0 -1]
121.683, 0.000
123.079, 0.029
124.475, 94.293
125.870, 178.295
127.265, 232.717
128.660, 361.918
130.055, 550.101
131.449, 506.075
132.843, 817.991
134.237, 954.661
135.631, 965.262
137.024, 1119.205
138.417, 1166.070
139.810, 1266.437
141.203, 1377.925
142.596, 1391.250
143.988, 1326.128
145.380, 1299.497
146.771, 1099.639
148.163, 1048.351
149.554, 748.065
150.945, 468.927
152.336, 490.948
153.726, 214.015
155.117, 27.935
156.507, 17.436
157.896, 17.729
159.286, 63.307
160.675, 159.209
162.064, 455.357
163.453, 961.688
164.842, 1408.152
166.230, 1724.718
167.618, 1931.358
169.006, 1748.059
170.393, 1624.803
171.781, 1001.854
173.168, 845.839
174.555, 673.432
175.941, 732.375
177.328, 582.829
178.714, 474.854
180.100, 367.954
181.485, 491.649
182.871, 535.876
184.256, 479.918
185.641, 473.551
187.025, 496.736
188.410, 579.613
189.794, 562.367
191.178, 714.290
192.562, 905.696
193.945, 1376.718
195.328, 1747.371
196.711, 1837.673
198.094, 1947.640
199.476, 1727.284
200.859, 1546.620
202.241, 1055.659
203.623, 804.414
205.004, 592.898
206.385, 611.161
207.766, 359.252
209.147, 427.198
210.528, 485.019
211.908, 462.729
213.288, 350.339
214.668, 307.856
216.048, 335.287
217.427, 232.637
218.806, 219.910
220.185, 2.893
221.564, 5.311
222.942, 106.117
224.320, 3.962
225.698, 30.771
227.076, 157.438
228.453, 323.074
229.830, 593.818
231.207, 820.657
232.584, 1238.805
233.960, 1409.888
235.337, 1506.468
236.713, 1539.008
238.088, 1581.640
239.464, 1491.921
240.839, 1148.291
242.214, 1007.275
243.589, 810.738
244.964, 510.054
246.338, 516.041
247.712, 330.352
249.086, 273.485
250.459, 206.822
251.833, 198.813
253.206, 157.529
254.579, 122.832
255.951, 143.355
257.324, 94.820
258.696, 136.261
260.068, 197.673
261.439, 259.045
262.811, 180.374
264.182, 401.654
265.553, 482.882
266.924, 454.057
268.294, 625.179
269.665, 656.244
271.035, 947.259
272.404, 1018.215
273.774, 1259.119
275.143, 1679.969
276.512, 1890.767
277.881, 2371.513
279.250, 2882.207
280.618, 3372.848
281.986, 3753.438
283.354, 3863.627
284.721, 3894.465
286.089, 3754.903
287.456, 3416.070
288.823, 3038.125
290.190, 3060.743
291.556, 3033.763
292.922, 3017.084
294.288, 2940.645
295.654, 2904.396
297.019, 2898.300
298.385, 2742.328
299.750, 2646.459
301.114, 2450.674
302.479, 2164.957
303.843, 1909.294
305.207, 1613.666
306.571, 1428.070
307.935, 1132.498
309.298, 1026.941
310.661, 871.393
312.024, 795.848
313.387, 550.300
314.749, 494.743
316.111, 489.173
317.473, 303.582
318.835, 397.968
320.196, 242.325
321.558, 146.539
322.919, 170.824
324.279, 15.070
325.640, 10.738
327.000, 63.390
328.360, 2.532
329.720, 8.518
331.080, 24.568
332.439, 90.691
333.798, 86.904
335.157, 83.205
336.516, 19.599
337.874, 66.099
339.232, 102.688
340.590, 149.381
341.948, 144.080
343.305, 93.149
344.662, 130.224
346.019, 87.433
347.376, 91.548
348.733, 88.462
350.089, 49.819
351.445, 47.514
352.801, 95.316
354.156, 23.228
355.512, 18.776
356.867, 59.292
358.222, 17.464
359.576, 15.731
360.931, 94.095
362.285, 57.438
363.639, 28.896
364.992, 100.281
366.346, 81.626
367.699, 142.928
369.052, 194.178
370.405, 185.371
371.757, 316.507
373.110, 297.593
374.462, 348.655
375.814, 399.666
377.165, 240.651
378.516, 391.585
379.868, 482.483
381.218, 643.331
382.569, 524.128
383.920, 514.852
385.270, 625.511
386.620, 663.985
387.969, 674.521
389.319, 774.960
390.668, 835.268
392.017, 875.386
393.366, 845.348
394.714, 1045.136
396.063, 1164.693
397.411, 1184.049
398.759, 1393.220
400.106, 1562.229
401.454, 1631.072
402.801, 1669.802
404.148, 1828.409
405.495, 1906.865
406.841, 1965.237
408.187, 1873.542
409.533, 1761.795
410.879, 1580.006
412.224, 1488.177
413.570, 1486.308
414.915, 1444.404
416.260, 1522.467
417.604, 1555.316
418.949, 1598.440
420.293, 1756.202
421.637, 1844.094
422.980, 2061.998
424.324, 2359.869
425.667, 2657.707
427.010, 3035.513
428.353, 3543.285
429.695, 3891.023
431.037, 4398.729
432.379, 4836.402
433.721, 4834.042
435.063, 4761.651
436.404, 4419.227
437.745, 4176.771
439.086, 3554.281
440.427, 3141.761
441.767, 2769.208
443.108, 2396.623
444.448, 2094.006
445.787, 1841.357
447.127, 1658.677
448.466, 1525.966
449.805, 1563.221
451.144, 1270.438
452.482, 1407.616
453.821, 1334.755
455.159, 1271.851
456.497, 1268.900
457.834, 1315.904
459.172, 1312.860
460.509, 1529.770
461.846, 1386.654
463.183, 1653.489
464.519, 1630.279
465.856, 1887.020
467.192, 1833.709
468.527, 1980.382
469.863, 2177.003
471.198, 2173.574
472.534, 2370.103
473.868, 2376.579
475.203, 2333.006
476.538, 2459.381
477.872, 2475.703
479.206, 2491.988
480.540, 2468.223
481.873, 2394.132
483.206, 2239.563
484.539, 2175.031
485.872, 2073.682
487.205, 2038.885
488.537, 1913.067
489.869, 1834.366
491.201, 1785.141
492.533, 1654.771
493.864, 1510.104
495.196, 1575.541
496.527, 1211.065
497.857, 1300.439
499.188, 1166.786
500.518, 1181.219
501.848, 1062.068
503.178, 1043.234
504.508, 967.364
505.837, 939.047
507.166, 853.720
508.495, 927.873
509.824, 752.209
511.153, 810.574
512.481, 667.901
513.809, 695.320
515.137, 746.979
516.464, 781.535
517.792, 758.154
519.119, 676.369
520.446, 634.601
521.772, 719.809
523.099, 851.670
524.425, 753.850
525.751, 803.157
527.077, 911.771
528.402, 927.578
529.728, 872.180
531.053, 936.555
532.377, 1132.439
533.702, 1194.311
535.027, 1399.565
536.351, 1240.826
537.675, 1565.580
538.998, 1274.525
540.322, 1669.785
541.645, 1654.660
542.968, 1521.521
544.291, 1698.205
545.613, 1942.854
546.936, 1817.638
548.258, 1821.787
549.580, 2006.326
550.902, 1940.646
552.223, 1954.998
553.544, 2011.736
554.865, 2015.703
556.186, 2039.859
557.507, 2053.759
558.827, 2138.300
560.147, 2272.607
561.467, 2358.031
562.786, 2414.699
564.106, 2608.441
565.425, 2602.351
566.744, 2696.131
568.063, 2750.116
569.381, 2913.850
570.700, 2917.441
572.018, 2701.418
573.335, 2944.953
574.653, 2748.465
575.970, 2803.234
577.288, 2856.682
578.604, 2580.188
579.921, 2713.577
581.238, 2546.939
582.554, 2460.441
583.870, 2423.744
585.186, 2257.019
586.501, 2410.266
587.817, 2203.482
589.132, 2066.671
590.447, 2169.832
591.761, 2052.964
593.076, 1986.164
594.390, 1899.239
595.704, 1857.258
597.018, 1831.387
598.331, 1768.299
599.645, 1871.263
600.958, 1774.200
602.271, 1907.107
603.583, 1629.989
604.896, 1532.842
606.208, 1575.789
607.520, 1548.589
608.832, 1521.362
610.143, 1494.106
611.455, 1287.430
612.766, 1310.121
614.077, 1262.785
615.387, 1215.488
616.698, 1228.100
618.008, 1000.685
619.318, 898.690
620.628, 961.224
621.937, 814.320
623.247, 876.800
624.556, 679.255
625.865, 739.189
627.173, 721.593
628.482, 603.971
629.790, 668.066
631.098, 570.394
632.405, 572.695
633.713, 464.972
635.020, 397.223
636.327, 542.535
637.634, 364.737
638.941, 497.296
640.247, 459.788
641.553, 481.923
642.859, 396.764
644.165, 398.867
645.471, 394.139
646.776, 296.227
648.081, 468.312
649.386, 493.363
650.691, 365.453
651.995, 269.867
653.299, 362.002
654.603, 254.157
655.907, 333.193
657.210, 105.445
658.514, 267.647
659.817, 202.421
661.120, 244.701
662.422, 244.701
663.725, 120.786
665.027, 153.154
666.329, 125.547
667.630, 7.965
668.932, 40.380
670.233, 27.197
671.534, 24.782
672.835, 32.391
674.136, 19.961
675.436, 72.321
676.737, 69.718
678.036, 2.938
679.336, 59.444
680.636, 1.816
681.935, 75.830
683.234, 73.547
684.533, 11.330
685.832, 20.854
687.130, 23.006
688.428, 5.134
689.726, 92.772
691.024, 19.236
692.322, 78.783
693.619, 13.118
694.916, 45.007
696.213, 26.808
697.510, 48.596
698.806, 9.639
700.102, 7.914
701.398, 63.770
702.694, 35.433
703.990, 187.073
705.285, 58.697
706.580, 100.301
707.875, 81.885
709.170, 16.550
710.464, 234.975
711.758, 96.482
713.052, 187.974
714.346, 19.449
715.640, 30.901
716.933, 102.334
718.226, 46.249
719.519, 245.113
720.812, 86.462
722.105, 107.793
723.397, 49.110
724.689, 100.408
725.981, 201.693
727.272, 22.963
728.564, 144.217
729.855, 115.455
731.146, 3.318
732.437, 247.880
733.727, 89.066
735.017, 250.239
736.308, 251.399
737.597, 62.546
738.887, 193.679
740.176, 154.801
741.466, 105.910
742.755, 137.008
744.043, 248.094
745.332, 159.167
746.620, 160.230
747.908, 61.282
749.196, 142.321
750.484, 133.351
751.771, 134.369
753.059, 275.379
754.346, 106.376
755.633, 197.366
756.919, 108.344
758.206, 99.314
759.492, 80.274
760.778, 31.226
762.063, 112.166
763.349, 143.099
764.634, 154.022
765.919, 5.062
767.204, 145.839
768.489, 66.731
769.773, 27.615
771.057, 108.492
772.341, 59.361
773.625, 89.777
774.909, 131.029
776.192, 8.170
777.475, 62.616
778.758, 43.396
780.041, 125.830
781.323, 74.873
782.605, 25.569
783.887, 33.739
785.169, 106.929
786.451, 57.593
787.732, 68.251
789.013, 28.904
790.294, 60.445
791.575, 190.170
792.856, 9.217
794.136, 8.614
795.416, 151.981
796.696, 57.429
797.976, 173.134
799.255, 66.307
800.534, 4.221
801.813, 154.744
803.092, 64.736
804.371, 215.754
805.649, 53.760
806.927, 56.703
808.205, 127.162
809.483, 132.380
810.760, 1.986
812.037, 127.885
813.315, 61.729
814.591, 238.527
815.868, 41.115
817.144, 129.227
818.421, 179.137
819.697, 189.187
820.972, 9.127
822.248, 97.348
823.523, 166.633
824.798, 12.716
826.073, 108.973
827.348, 164.771
828.623, 113.587
829.897, 273.326
831.171, 123.057
832.445, 10.789
833.718, 150.455
834.992, 58.529
836.265, 151.764
837.538, 215.166
838.811, 2.498
840.083, 131.555
841.356, 230.711
842.628, 149.158
843.900, 161.494
845.171, 60.617
846.443, 223.898
847.714, 132.857
848.985, 218.326
850.256, 167.793
851.527, 170.896
852.797, 295.402
854.067, 163.342
855.337, 173.283
856.607, 163.068
857.876, 43.453
859.146, 123.414
860.415, 153.566
861.684, 73.654
862.953, 131.328
864.221, 191.740
865.489, 251.939
866.757, 92.367
868.025, 62.127
869.293, 222.096
870.560, 112.385
871.828, 188.486
873.095, 108.951
874.361, 139.229
875.628, 189.611
876.894, 329.766
878.160, 295.457
879.426, 170.666
880.692, 280.771
881.958, 241.299
883.223, 221.828
884.488, 151.082
885.753, 173.699
887.018, 72.121
888.282, 202.697
889.546, 133.289
890.810, 133.719
892.074, 184.332
893.338, 214.953
894.601, 205.590
895.864, 146.236
897.127, 226.904
898.390, 367.584
899.652, 128.281
900.915, 438.898
902.177, 319.627
903.439, 220.404
904.700, 451.197
905.962, 312.000
907.223, 272.818
908.484, 433.650
909.745, 254.496
911.006, 535.354
912.266, 326.229
913.526, 566.994
914.786, 537.896
916.046, 548.812
917.306, 399.744
918.565, 430.088
919.824, 611.076
921.083, 662.078
922.342, 743.033
923.600, 504.068
924.859, 845.117
926.117, 510.736
927.375, 731.820
928.632, 722.330
929.890, 963.447
931.147, 844.582
932.404, 738.227
933.661, 919.396
934.918, 1000.582
936.174, 790.041
937.430, 1001.266
938.686, 952.506
939.942, 1043.766
941.198, 1215.045
942.453, 893.258
943.708, 984.576
944.963, 1045.531
946.218, 996.553
947.472, 1267.932
948.727, 1056.600
949.981, 1408.016
951.235, 1176.285
952.488, 1287.742
953.742, 1409.223
954.995, 1367.754
956.248, 1459.275
957.501, 1508.539
958.754, 1610.125
960.006, 1801.732
961.258, 1536.486
962.510, 1928.064
963.762, 1849.740
965.014, 2028.908
966.265, 2140.631
967.516, 2180.943
968.767, 2542.713
970.018, 2644.504
971.269, 2966.320
972.519, 3118.158
973.769, 3520.035
975.019, 3821.939
976.269, 4453.883
977.518, 4905.869
978.767, 5727.902
980.017, 6589.965
981.265, 7442.051
982.514, 9234.164
983.762, 10406.518
985.011, 13018.691
986.259, 15354.102
987.507, 17976.361
988.754, 21168.729
990.002, 23241.078
991.249, 24414.646
992.496, 24517.074
993.743, 22669.529
994.989, 20603.369
996.236, 18105.906
997.482, 16038.504
998.728, 14091.129
999.974, 12083.801
1001.219, 10576.496
1002.464, 9159.223
1003.710, 7311.984
1004.954, 6124.779
1006.199, 4977.598
1007.444, 4020.447
1008.688, 3543.320
1009.932, 2816.221
1011.176, 2509.146
1012.420, 2192.100
1013.663, 1755.090
1014.906, 1688.107
1016.149, 1381.150
1017.392, 1054.219
1018.635, 1147.318
1019.877, 840.445
1021.120, 893.598
1022.362, 806.799
1023.603, 550.027
1024.845, 763.279
1026.086, 396.562
1027.328, 489.871
1028.569, 573.209
1029.809, 166.574
1031.050, 299.969
1032.290, 323.389
1033.530, 276.838
1034.770, 130.318
1036.010, 153.830
1037.250, 167.367
1038.489, 290.936
1039.728, 84.529
1040.967, 378.152
1042.206, 71.805
1043.444, 235.484
1044.683, 459.664
1045.921, 194.863
1047.159, 378.633
1048.396, 413.350
1049.634, 368.252
1050.871, 612.107
1052.108, 604.947
1053.345, 698.861
1054.582, 732.801
1055.818, 806.773
1057.054, 1160.775
1058.290, 714.809
1059.526, 958.871
1060.762, 1022.961
1061.997, 797.082
1063.232, 791.236
1064.467, 445.420
1065.702, 419.602
1066.937, 333.816
1068.171, 294.350
1069.405, 238.604
1070.639, 202.740
1071.873, 107.207
1073.107, 141.555
1074.340, 105.934
1075.573, 50.367
1076.806, 101.094
1078.039, 49.336
1079.272, 123.869
1080.504, 118.434
1081.736, 43.062
1082.968, 137.727
1084.200, 152.424
1085.431, 107.162
1086.663, 206.156
1087.894, 266.742
1089.125, 281.580
1090.355, 296.451
1091.586, 231.375
1092.816, 279.062
1094.046, 261.320
1095.276, 316.326
1096.506, 361.332
1097.735, 366.260
1098.965, 511.221
1100.194, 326.223
1101.423, 591.260
1102.651, 496.324
1103.880, 511.436
1105.108, 622.500
1106.336, 717.576
1107.564, 342.680
1108.792, 517.811
1110.019, 383.004
1111.246, 358.223
1112.473, 333.471
1113.700, 128.758
1114.927, 234.070
1116.153, 299.414
1117.380, 34.783
1118.606, 310.174
1119.831, 135.590
1121.057, 241.037
1122.283, 546.514
1123.508, 202.023
1124.733, 317.355
1125.958, 62.711
1127.182, 118.086
1128.407, 93.480
1129.631, 148.896
1130.855, 15.672
1132.079, 19.770
1133.302, 104.777
1134.526, 160.697
1135.749, 3.797
1136.972, 121.752
1138.195, 51.576
1139.417, 44.090
1140.640, 169.477
1141.862, 55.373
1143.084, 209.949
1144.305, 35.312
1145.527, 300.725
1146.748, 216.180
1147.970, 51.684
1149.191, 7.232
1150.411, 19.256
1151.632, 248.469
1152.852, 124.154
1154.072, 199.889
1155.292, 255.670
1156.512, 201.496
1157.732, 397.369
1158.951, 133.287
1160.170, 399.256
1161.389, 185.270
1162.608, 341.328
1163.826, 337.436
1165.045, 403.588
1166.263, 339.791
1167.481, 416.027
1168.699, 212.297
1169.916, 528.596
1171.134, 134.846
1172.351, 181.141
1173.568, 287.482
1174.784, 153.869
1176.001, 190.303
1177.217, 346.781
1178.433, 93.270
1179.649, 19.766
1180.865, 226.309
1182.081, 152.896
1183.296, 179.527
1184.511, 156.205
1185.726, 115.775
1186.941, 99.689
1188.155, 26.498
1189.370, 73.346
1190.584, 9.764
1191.798, 32.830
1193.011, 254.148
1194.225, 18.830
1195.438, 21.762
1196.651, 205.309
1197.864, 157.613
1199.077, 229.506
1200.290, 76.672
1201.502, 113.883
1202.714, 231.135
1203.926, 108.434
1205.138, 255.777
1206.349, 263.166
1207.561, 90.605
1208.772, 168.098
1209.983, 95.264
1211.194, 76.742
1212.404, 244.207
1213.614, 100.541
1214.825, 74.383
1216.034, 392.008
1217.244, 59.695
1218.454, 137.447
1219.663, 315.270
1220.872, 83.152
1222.081, 561.107
1223.290, 259.125
1224.498, 147.209
1225.707, 535.355
1226.915, 213.570
1228.123, 301.852
1229.331, 180.197
1230.538, 268.615
1231.746, 537.104
1232.953, 165.664
1234.160, 194.299
1235.366, 483.010
1236.573, 411.795
1237.779, 320.660
1238.986, 388.180
1240.192, 272.629
1241.397, 365.199
1242.603, 374.727
1243.808, 202.814
1245.013, 390.924
1246.218, 289.047
1247.423, 257.182
1248.628, 505.336
1249.832, 66.285
1251.036, 516.754
1252.240, 284.475
1253.444, 122.150
1254.648, 519.766
1255.851, 287.305
1257.054, 194.748
1258.257, 332.064
1259.460, 239.229
1260.663, 486.201
1261.865, 252.936
1263.067, 359.432
1264.269, 446.104
1265.471, 164.404
1266.673, 102.646
1267.874, 470.818
1269.075, 110.992
1270.276, 307.367
1271.477, 503.426
1272.678, 199.121
1273.878, 304.395
1275.078, 369.203
1276.278, 113.289
1277.478, 316.012
1278.678, 304.469
1279.877, 213.406
1281.077, 303.455
1282.276, 3.760
1283.475, 292.189
1284.673, 287.307
1285.872, 0.000
##END=



