##NAMES=Pectolite
##RRUFFID=R050396
##IDEAL CHEMISTRY=NaCa_2_Si_3_O_8_(OH)
##LOCALITY=Jeffrey Quarry, Asbestos, Quebec, Canada
##OWNER=RRUFF
##SOURCE=Marcus Origlieri
##DESCRIPTION=Colorless to gray columnar blocky crystals
##STATUS=The identification of this mineral has been confirmed by X-ray diffraction and chemical analysis
##URL=rruff.info/R050396
##MEASURED CHEMISTRY=Na_1.00_Ca_2.00_Si_3.00_O_8_(OH)
##PIN_ID=M00439
##ORIENTATION=Laser parallel to -c* (0 0 -1). Fiducial mark perpendicular to laser is parallel to a [1 0 0]
125.2990, 0.0000000E+00
126.5330, 107.8967
127.7670, 1.819336
129.0000, 70.58789
130.2340, 128.8462
131.4670, 143.1355
132.7000, 157.1006
133.9330, 280.1206
135.1660, 334.8574
136.3990, 419.2209
137.6310, 521.2234
138.8640, 622.2727
140.0960, 742.6455
141.3280, 867.1724
142.5600, 1007.588
143.7910, 1149.036
145.0230, 1303.477
146.2540, 1485.021
147.4850, 1750.343
148.7160, 2024.284
149.9470, 2137.246
151.1780, 2139.341
152.4080, 2038.943
153.6380, 1714.873
154.8690, 1368.443
156.0980, 1000.497
157.3280, 701.5933
158.5580, 517.5911
159.7870, 316.8076
161.0170, 188.5718
162.2460, 92.23755
163.4750, 30.81177
164.7030, 40.30322
165.9320, 35.74512
167.1600, 15.88647
168.3890, 5.483398
169.6170, 4.863770
170.8450, 2.732666
172.0730, 31.37744
173.3000, 10.57104
174.5280, 14.15918
175.7550, 102.8179
176.9820, 8.588867
178.2090, 71.94360
179.4350, 1.421875
180.6620, 143.9888
181.8880, 71.44897
183.1150, 140.2686
184.3410, 274.5559
185.5670, 346.6790
186.7920, 344.4243
188.0180, 252.1660
189.2430, 308.3013
190.4690, 140.2295
191.6940, 120.7126
192.9180, 45.17383
194.1430, 105.6116
195.3680, 79.02417
196.5920, 79.41089
197.8160, 87.77026
199.0400, 184.1106
200.2640, 202.4446
201.4880, 246.7744
202.7110, 211.1060
203.9350, 254.4390
205.1580, 182.7744
206.3810, 175.8059
207.6040, 118.7979
208.8270, 59.10352
210.0490, 68.21411
211.2710, 113.0120
212.4940, 73.61353
213.7160, 81.71240
214.9370, 93.85742
216.1590, 59.04028
217.3810, 127.2742
218.6020, 122.5552
219.8230, 115.8892
221.0440, 173.2344
222.2650, 170.5779
223.4860, 155.9084
224.7060, 254.2402
225.9260, 338.5674
227.1470, 307.9150
228.3670, 232.2644
229.5860, 322.6099
230.8060, 248.9517
232.0260, 147.3364
233.2450, 141.8291
234.4640, 99.25708
235.6830, 138.6279
236.9020, 90.00488
238.1200, 37.39307
239.3390, 38.77393
240.5570, 14.86938
241.7750, 49.54736
242.9930, 31.26074
244.2110, 9.010986
245.4290, 50.20679
246.6460, 19.41162
247.8630, 114.6082
249.0810, 46.78491
250.2980, 1.054932
251.5140, 69.09155
252.7310, 118.2273
253.9470, 199.3503
255.1640, 82.45898
256.3800, 235.5315
257.5960, 220.5173
258.8120, 376.4453
260.0270, 395.3352
261.2430, 331.1804
262.4580, 288.9824
263.6730, 307.7451
264.8880, 194.4690
266.1030, 237.1575
267.3170, 270.8147
268.5320, 351.4446
269.7460, 344.0500
270.9600, 381.6284
272.1740, 398.0457
273.3880, 370.5242
274.6010, 408.4829
275.8150, 400.8796
277.0280, 401.3035
278.2410, 377.3315
279.4540, 315.1965
280.6670, 292.6514
281.8790, 226.1106
283.0920, 164.5664
284.3040, 151.0117
285.5160, 56.44531
286.7280, 21.11792
287.9400, 10.40723
289.1510, 23.49976
290.3630, 18.82373
291.5740, 37.47119
292.7850, 70.51660
293.9960, 5.636475
295.2070, 58.74023
296.4170, 13.82983
297.6280, 79.06323
298.8380, 20.56274
300.0480, 61.82910
301.2580, 123.4192
302.4680, 245.2925
303.6770, 284.3335
304.8870, 392.4551
306.0960, 453.4404
307.3050, 651.3081
308.5140, 720.9873
309.7230, 929.8210
310.9310, 1073.643
312.1400, 1193.414
313.3480, 1477.253
314.5560, 1576.013
315.7640, 1873.876
316.9720, 2028.516
318.1790, 2045.654
319.3870, 2013.647
320.5940, 1902.152
321.8010, 1773.760
323.0080, 1635.794
324.2150, 1528.081
325.4210, 1331.198
326.6280, 1298.156
327.8340, 1145.678
329.0400, 904.2634
330.2460, 737.3894
331.4510, 632.5537
332.6570, 474.9099
333.8620, 326.0972
335.0680, 371.3030
336.2730, 298.4119
337.4780, 227.6125
338.6820, 194.7134
339.8870, 282.6160
341.0910, 207.6094
342.2950, 242.6870
343.5000, 421.7490
344.7030, 407.8828
345.9070, 478.7583
347.1110, 611.3599
348.3140, 685.1326
349.5170, 886.4629
350.7200, 886.0491
351.9230, 954.5911
353.1260, 1121.945
354.3290, 1306.823
355.5310, 1511.492
356.7330, 1565.246
357.9350, 1801.834
359.1370, 1847.402
360.3390, 1692.991
361.5400, 1439.405
362.7420, 1231.985
363.9430, 1204.130
365.1440, 1151.260
366.3450, 1142.219
367.5460, 1246.580
368.7460, 1340.967
369.9470, 1517.149
371.1470, 1718.345
372.3470, 1971.701
373.5470, 2310.758
374.7460, 2579.381
375.9460, 3076.214
377.1450, 3414.359
378.3450, 3787.382
379.5440, 3672.969
380.7430, 3492.573
381.9410, 2813.511
383.1400, 2152.389
384.3380, 1581.793
385.5370, 1184.866
386.7350, 911.7346
387.9320, 847.0244
389.1300, 680.1982
390.3280, 622.2661
391.5250, 479.9600
392.7220, 484.9238
393.9190, 388.3838
395.1160, 387.2393
396.3130, 522.8794
397.5100, 506.6313
398.7060, 650.2461
399.9020, 677.6426
401.0980, 923.2671
402.2940, 1057.880
403.4900, 1177.538
404.6860, 1483.416
405.8810, 1552.204
407.0760, 1770.234
408.2710, 2016.342
409.4660, 2334.449
410.6610, 2508.693
411.8550, 2784.911
413.0500, 3027.769
414.2440, 3039.806
415.4380, 3032.466
416.6320, 2698.825
417.8260, 2413.947
419.0190, 1991.975
420.2130, 1538.555
421.4060, 1318.560
422.5990, 997.2905
423.7920, 723.2690
424.9850, 645.9731
426.1770, 446.7559
427.3700, 398.6470
428.5620, 326.7051
429.7540, 210.8613
430.9460, 255.1509
432.1380, 146.3076
433.3290, 194.2241
434.5210, 33.42822
435.7120, 111.5063
436.9030, 48.65283
438.0940, 45.45508
439.2850, 42.41553
440.4750, 18.35693
441.6660, 11.81738
442.8560, 24.32422
444.0460, 29.81641
445.2360, 34.67920
446.4260, 21.79639
447.6160, 19.21338
448.8050, 33.25000
449.9940, 56.51855
451.1830, 65.31641
452.3720, 56.31738
453.5610, 54.56494
454.7500, 36.08447
455.9380, 37.40820
457.1260, 39.07910
458.3150, 7.221191
459.5020, 50.44385
460.6900, 40.57812
461.8780, 109.3130
463.0650, 74.40527
464.2530, 58.22998
465.4400, 98.27393
466.6270, 124.9355
467.8130, 128.9956
469.0000, 12.61230
470.1870, 51.72217
471.3730, 27.95801
472.5590, 112.3804
473.7450, 93.31299
474.9310, 41.52197
476.1160, 73.48877
477.3020, 63.62744
478.4870, 52.63086
479.6720, 54.02490
480.8570, 53.62939
482.0420, 2.898438
483.2270, 87.59570
484.4110, 62.00098
485.5960, 60.39209
486.7800, 37.73096
487.9640, 94.01465
489.1480, 32.75244
490.3310, 107.4268
491.5150, 13.44629
492.6980, 140.6221
493.8810, 143.6382
495.0640, 174.6025
496.2470, 244.5186
497.4300, 277.3887
498.6120, 277.2144
499.7950, 285.9917
500.9770, 331.7222
502.1590, 366.4058
503.3410, 330.0444
504.5220, 286.6382
505.7040, 145.1836
506.8850, 142.6777
508.0660, 16.87012
509.2470, 74.51318
510.4280, 61.84180
511.6090, 104.1147
512.7890, 94.36670
513.9700, 47.50537
515.1500, 31.64111
516.3300, 56.71973
517.5100, 3.259766
518.6900, 72.69824
519.8690, 7.400879
521.0490, 179.4346
522.2280, 17.78369
523.4070, 69.92627
524.5860, 23.57812
525.7640, 130.1709
526.9430, 70.70898
528.1210, 69.19775
529.3000, 234.6421
530.4780, 110.0474
531.6560, 180.3989
532.8330, 229.6943
534.0110, 252.9365
535.1880, 297.1353
536.3650, 264.2847
537.5430, 259.3730
538.7190, 273.5166
539.8960, 314.9946
541.0730, 309.7524
542.2490, 290.1304
543.4250, 285.4238
544.6020, 267.8052
545.7780, 208.0728
546.9530, 222.5361
548.1290, 157.5957
549.3040, 131.2910
550.4800, 124.4844
551.6550, 84.60449
552.8300, 84.04590
554.0040, 163.3457
555.1790, 113.2930
556.3540, 196.4175
557.5280, 21.56641
558.7020, 11.73584
559.8760, 85.23633
561.0500, 184.2769
562.2230, 75.03711
563.3970, 132.3062
564.5700, 65.25586
565.7430, 8.553711
566.9160, 94.93506
568.0890, 60.28906
569.2620, 14.82080
570.4340, 125.4712
571.6070, 46.79834
572.7790, 21.93213
573.9510, 109.8027
575.1230, 99.60938
576.2940, 76.10547
577.4660, 29.77930
578.6370, 36.07520
579.8080, 88.53906
580.9790, 26.04395
582.1500, 118.0474
583.3210, 117.3247
584.4910, 85.35449
585.6620, 85.86768
586.8320, 119.6357
588.0020, 72.49463
589.1720, 55.36182
590.3410, 145.4844
591.5110, 87.38525
592.6800, 106.5322
593.8500, 194.3628
595.0190, 158.9839
596.1880, 105.6162
597.3560, 51.79785
598.5250, 173.0713
599.6930, 141.8579
600.8620, 151.6221
602.0300, 239.7485
603.1970, 143.7056
604.3650, 196.5664
605.5330, 140.4463
606.7000, 221.2612
607.8680, 115.0005
609.0350, 263.5669
610.2020, 261.5781
611.3680, 274.8999
612.5350, 226.2202
613.7010, 335.9492
614.8680, 255.8564
616.0340, 302.0728
617.2000, 251.4658
618.3660, 432.9326
619.5310, 421.8218
620.6970, 433.2002
621.8620, 472.6768
623.0270, 475.1514
624.1920, 516.1704
625.3570, 514.8975
626.5220, 523.6611
627.6860, 546.6016
628.8500, 627.0688
630.0140, 711.0859
631.1780, 765.4404
632.3420, 851.9224
633.5060, 891.8745
634.6700, 1084.191
635.8330, 1118.863
636.9960, 1342.789
638.1590, 1643.691
639.3220, 1892.889
640.4850, 2500.426
641.6470, 2891.762
642.8100, 3633.651
643.9720, 4315.097
645.1340, 4914.309
646.2960, 5889.121
647.4570, 6960.063
648.6190, 7737.886
649.7800, 8843.121
650.9420, 10108.12
652.1030, 10617.25
653.2640, 10737.17
654.4240, 10275.87
655.5850, 8618.479
656.7450, 6956.916
657.9060, 5581.953
659.0660, 4428.516
660.2260, 3293.191
661.3850, 2589.992
662.5450, 2123.644
663.7040, 1570.729
664.8640, 1388.522
666.0230, 987.7065
667.1820, 1044.920
668.3410, 874.1162
669.4990, 587.8857
670.6580, 645.0688
671.8160, 468.8247
672.9740, 376.6016
674.1320, 360.7090
675.2900, 360.8242
676.4480, 455.1387
677.6050, 338.8896
678.7630, 247.0151
679.9200, 168.1636
681.0770, 247.2139
682.2340, 255.5830
683.3900, 221.7832
684.5470, 236.1675
685.7030, 176.3286
686.8590, 259.1338
688.0150, 333.7383
689.1710, 165.1016
690.3270, 241.3438
691.4830, 113.8564
692.6380, 132.7490
693.7930, 203.1387
694.9480, 150.5791
696.1030, 131.3369
697.2580, 223.7891
698.4130, 140.0430
699.5670, 108.3271
700.7210, 160.9912
701.8750, 23.97852
703.0290, 85.18652
704.1830, 251.0869
705.3370, 161.8213
706.4900, 178.7617
707.6430, 120.5186
708.7970, 75.79395
709.9490, 77.39062
711.1020, 151.6230
712.2550, 91.64258
713.4070, 143.1133
714.5600, 36.40918
715.7120, 69.70703
716.8640, 90.52637
718.0160, 31.48633
719.1670, 13.40039
720.3190, 65.76172
721.4700, 5.191406
722.6210, 18.90430
723.7720, 38.36230
724.9230, 7.520508
726.0740, 45.34277
727.2250, 14.38672
728.3750, 1.428711
729.5250, 19.96680
730.6750, 2.677734
731.8250, 48.91406
732.9750, 29.76074
734.1240, 23.08887
735.2740, 84.92090
736.4230, 45.33594
737.5720, 83.09375
738.7210, 149.1328
739.8700, 14.09570
741.0190, 129.8057
742.1670, 101.2500
743.3150, 59.89844
744.4630, 103.5449
745.6110, 132.2637
746.7590, 164.0947
747.9070, 105.6592
749.0540, 7.608398
750.2020, 58.76562
751.3490, 45.37012
752.4960, 3.975586
753.6430, 83.37891
754.7890, 8.571289
755.9360, 26.40527
757.0820, 154.0293
758.2280, 100.7627
759.3740, 86.74121
760.5200, 137.1387
761.6660, 167.4277
762.8120, 94.00195
763.9570, 67.26660
765.1020, 225.2188
766.2470, 138.4697
767.3920, 72.53613
768.5370, 144.5732
769.6810, 14.93457
770.8260, 238.4502
771.9700, 136.7402
773.1140, 64.93164
774.2580, 56.02246
775.4020, 77.00879
776.5460, 226.8936
777.6890, 136.6836
778.8320, 172.3740
779.9750, 32.96973
781.1180, 110.7549
782.2610, 144.1162
783.4040, 80.13477
784.5460, 25.89160
785.6890, 75.01172
786.8310, 94.76465
787.9730, 120.0205
789.1150, 3.884766
790.2560, 135.8340
791.3980, 82.98047
792.5390, 124.4258
793.6810, 172.1904
794.8220, 109.0742
795.9630, 123.8193
797.1030, 100.7764
798.2440, 137.9990
799.3840, 157.7812
800.5240, 164.6328
801.6650, 173.7256
802.8040, 170.4893
803.9440, 86.01270
805.0840, 309.6270
806.2230, 81.95703
807.3630, 318.7588
808.5020, 234.2236
809.6410, 260.5273
810.7790, 186.6494
811.9180, 210.6680
813.0570, 111.6660
814.1950, 223.4570
815.3330, 128.7227
816.4710, 136.3936
817.6090, 139.2471
818.7470, 40.08887
819.8840, 280.2500
821.0220, 197.7842
822.1590, 170.2822
823.2960, 248.4307
824.4330, 13.83105
825.5690, 19.45605
826.7060, 222.3086
827.8420, 97.38770
828.9790, 222.8340
830.1150, 161.2637
831.2510, 20.11230
832.3860, 63.16992
833.5220, 178.2852
834.6570, 252.7080
835.7930, 238.6973
836.9280, 224.4600
838.0630, 255.3457
839.1980, 236.5703
840.3320, 220.6826
841.4670, 295.9746
842.6010, 197.5156
843.7350, 185.0312
844.8690, 229.2148
846.0030, 243.1162
847.1370, 229.5459
848.2700, 232.9531
849.4040, 190.6406
850.5370, 200.4482
851.6700, 154.2119
852.8030, 200.0156
853.9360, 150.3105
855.0680, 191.2578
856.2000, 237.9854
857.3330, 143.8818
858.4650, 110.0586
859.5970, 211.5361
860.7290, 276.0244
861.8600, 111.7920
862.9920, 242.1133
864.1230, 168.1611
865.2540, 183.9033
866.3850, 241.7998
867.5160, 128.4570
868.6460, 93.09570
869.7770, 117.7715
870.9070, 165.3418
872.0370, 110.1172
873.1670, 48.63770
874.2970, 73.21973
875.4270, 124.9834
876.5570, 155.1895
877.6860, 145.9727
878.8150, 78.95996
879.9440, 81.98242
881.0730, 74.07520
882.2020, 16.81543
883.3300, 108.3057
884.4590, 55.08203
885.5870, 35.78613
886.7150, 89.21191
887.8430, 40.57227
888.9710, 91.79590
890.0990, 114.2578
891.2260, 58.09961
892.3530, 10.65527
893.4810, 152.6934
894.6080, 71.40918
895.7340, 186.9678
896.8610, 191.6377
897.9880, 100.3379
899.1140, 151.6289
900.2400, 202.7080
901.3660, 348.3496
902.4920, 386.5352
903.6180, 323.2598
904.7430, 540.2900
905.8690, 619.4512
906.9940, 743.7012
908.1190, 680.4385
909.2440, 896.7861
910.3690, 794.0059
911.4930, 851.8818
912.6180, 707.1016
913.7420, 652.8408
914.8660, 557.5010
915.9900, 379.4990
917.1140, 218.4863
918.2380, 277.2646
919.3610, 265.2070
920.4850, 252.1455
921.6080, 270.7412
922.7310, 127.2793
923.8540, 144.5996
924.9760, 209.6191
926.0990, 75.88574
927.2210, 64.81641
928.3440, 114.4863
929.4660, 65.49512
930.5880, 76.76074
931.7090, 244.8516
932.8310, 159.3467
933.9520, 33.99121
935.0740, 205.1904
936.1950, 23.01953
937.3160, 5.325195
938.4360, 218.2363
939.5570, 175.2998
940.6780, 30.14062
941.7980, 92.61719
942.9180, 151.2207
944.0380, 167.4229
945.1580, 188.3193
946.2780, 187.9492
947.3970, 170.2510
948.5170, 198.3730
949.6360, 275.0078
950.7550, 308.2578
951.8740, 399.9141
952.9930, 469.8848
954.1110, 365.5117
955.2300, 663.6348
956.3480, 617.5137
957.4660, 530.3535
958.5840, 737.1016
959.7020, 675.2754
960.8190, 1007.199
961.9370, 866.0566
963.0540, 1289.137
964.1710, 1526.619
965.2880, 1639.604
966.4050, 1577.635
967.5220, 1941.600
968.6380, 2032.340
969.7550, 2247.625
970.8710, 2292.969
971.9870, 2275.008
973.1030, 2264.277
974.2190, 2324.273
975.3340, 2338.084
976.4500, 2187.621
977.5650, 2017.238
978.6800, 2092.125
979.7950, 1906.338
980.9100, 1829.951
982.0250, 1659.113
983.1390, 1893.514
984.2530, 1718.652
985.3680, 1715.402
986.4820, 1724.293
987.5950, 1686.418
988.7090, 1841.168
989.8230, 2038.967
990.9360, 1986.980
992.0490, 2304.299
993.1620, 2231.701
994.2750, 2535.680
995.3880, 2355.803
996.5010, 2448.855
997.6130, 2350.566
998.7250, 2380.898
999.8370, 2382.453
1000.949, 2424.139
1002.061, 2593.107
1003.173, 2823.678
1004.284, 2919.111
1005.396, 3057.105
1006.507, 2675.791
1007.618, 2465.984
1008.729, 2028.828
1009.839, 1948.025
1010.950, 1892.203
1012.060, 1705.990
1013.171, 1983.000
1014.281, 2031.611
1015.391, 2364.938
1016.500, 2789.781
1017.610, 3155.898
1018.719, 3572.918
1019.829, 4131.961
1020.938, 4729.264
1022.047, 5079.488
1023.156, 5662.248
1024.264, 6157.242
1025.373, 6038.910
1026.481, 6100.807
1027.589, 5614.520
1028.697, 4977.863
1029.805, 4354.189
1030.913, 3535.617
1032.020, 2894.336
1033.128, 2474.984
1034.235, 1905.695
1035.342, 1627.447
1036.449, 1415.367
1037.556, 994.0312
1038.663, 848.1816
1039.769, 628.0156
1040.875, 647.8789
1041.981, 566.0430
1043.087, 660.0410
1044.193, 320.9531
1045.299, 366.7910
1046.404, 369.8301
1047.510, 164.0449
1048.615, 389.5664
1049.720, 218.9766
1050.825, 278.3281
1051.930, 151.8262
1053.034, 318.3477
1054.139, 0.4785160
1055.243, 434.3711
1056.347, 69.38477
1057.451, 92.07227
1058.555, 229.1973
1059.658, 188.6426
1060.762, 144.1387
1061.865, 62.92773
1062.968, 107.9512
1064.071, 22.97070
1065.174, 216.2090
1066.277, 192.9648
1067.380, 90.93164
1068.482, 134.6543
1069.584, 53.00977
1070.686, 89.65039
1071.788, 29.50977
1072.890, 34.08203
1073.992, 232.5039
1075.093, 174.1562
1076.194, 160.9512
1077.295, 235.7129
1078.396, 47.46289
1079.497, 83.11719
1080.598, 198.0859
1081.698, 162.7422
1082.799, 35.55859
1083.899, 262.1582
1084.999, 168.1719
1086.099, 21.32617
1087.199, 227.9941
1088.298, 40.96289
1089.398, 140.8047
1090.497, 53.53711
1091.596, 40.82422
1092.695, 117.3281
1093.794, 18.01953
1094.892, 138.2637
1095.991, 145.4219
1097.089, 181.9238
1098.187, 11.10352
1099.285, 26.03320
1100.383, 32.20508
1101.481, 20.44531
1102.579, 93.04297
1103.676, 111.4883
1104.773, 8.835938
1105.870, 39.91211
1106.967, 103.2266
1108.064, 202.2754
1109.161, 92.23633
1110.257, 0.1132810
1111.353, 145.8652
1112.449, 280.5293
1113.545, 118.1133
1114.641, 6.611328
1115.737, 79.02148
1116.832, 120.8789
1117.928, 257.1367
1119.023, 225.4043
1120.118, 243.5371
1121.213, 250.7637
1122.308, 224.2637
1123.402, 78.05078
1124.497, 205.3184
1125.591, 154.5059
1126.685, 168.6230
1127.779, 246.6582
1128.873, 204.5137
1129.967, 205.9727
1131.060, 154.1074
1132.153, 165.6602
1133.247, 51.10938
1134.340, 72.48438
1135.433, 118.2207
1136.525, 61.14258
1137.618, 202.2207
1138.710, 26.64258
1139.802, 22.51562
1140.895, 6.378906
1141.987, 315.6621
1143.078, 144.6348
1144.170, 248.5508
1145.261, 23.40234
1146.353, 441.1719
1147.444, 328.8535
1148.535, 198.4551
1149.626, 411.1602
1150.716, 323.4512
1151.807, 112.6758
1152.897, 304.4961
1153.988, 347.0723
1155.078, 382.7188
1156.168, 379.8027
1157.257, 208.7441
1158.347, 188.1113
1159.436, 173.3613
1160.526, 276.0332
1161.615, 236.3340
1162.704, 294.1172
1163.793, 330.2441
1164.881, 349.5391
1165.970, 227.7090
1167.058, 204.3262
1168.147, 194.1016
1169.235, 173.8770
1170.323, 230.1582
1171.410, 202.5000
1172.498, 379.2090
1173.585, 413.9434
1174.673, 515.2715
1175.760, 474.7305
1176.847, 244.7656
1177.934, 167.1504
1179.020, 398.8730
1180.107, 229.3848
1181.193, 360.6504
1182.279, 302.9941
1183.365, 59.08984
1184.451, 88.08008
1185.537, 127.7930
1186.623, 176.0020
1187.708, 250.2539
1188.793, 189.5000
1189.878, 197.6133
1190.963, 90.36133
1192.048, 123.0312
1193.133, 233.5762
1194.217, 218.7500
1195.302, 378.4902
1196.386, 332.1992
1197.470, 241.9121
1198.554, 302.8730
1199.638, 203.8711
1200.721, 169.5039
1201.805, 127.3965
1202.888, 164.1719
1203.971, 143.0918
1205.054, 410.9512
1206.137, 412.5156
1207.219, 350.3477
1208.302, 389.7852
1209.384, 219.0176
1210.466, 69.83398
1211.548, 143.5176
1212.630, 318.7734
1213.712, 238.5488
1214.794, 318.3691
1215.875, 218.0566
1216.956, 209.7734
1218.037, 513.4668
1219.118, 300.1973
1220.199, 390.6875
1221.280, 148.8789
1222.360, 184.8496
1223.441, 216.5371
1224.521, 152.1016
1225.601, 151.6309
1226.681, 28.86523
1227.760, 79.23633
1228.840, 173.8809
1229.919, 110.6445
1230.999, 170.3828
1232.078, 107.9375
1233.157, 160.0801
1234.236, 277.7676
1235.314, 325.0312
1236.393, 341.5371
1237.471, 395.7598
1238.549, 295.8691
1239.627, 341.2266
1240.705, 218.8242
1241.783, 280.2656
1242.860, 132.8633
1243.938, 245.4805
1245.015, 211.3359
1246.092, 9.572266
1247.169, 194.2109
1248.246, 100.3516
1249.323, 244.5586
1250.399, 9.582031
1251.475, 107.6016
1252.552, 0.0000000E+00
##END=



