##NAMES=Pectolite
##RRUFFID=R050396
##IDEAL CHEMISTRY=NaCa_2_Si_3_O_8_(OH)
##LOCALITY=Jeffrey Quarry, Asbestos, Quebec, Canada
##OWNER=RRUFF
##SOURCE=Marcus Origlieri
##DESCRIPTION=Colorless to gray columnar blocky crystals
##STATUS=The identification of this mineral has been confirmed by X-ray diffraction and chemical analysis
##URL=rruff.info/R050396
##MEASURED CHEMISTRY=Na_1.00_Ca_2.00_Si_3.00_O_8_(OH)
##PIN_ID=L01945
##ORIENTATION=Laser parallel to (1 1 0). Fiducial mark perpendicular to laser is parallel to c [0 0 1]
118.9350, 0.0000000E+00
120.1730, 284.2734
121.4100, 7.583984
122.6480, 145.7676
123.8850, 181.1504
125.1230, 59.98047
126.3600, 90.00391
127.5960, 211.7109
128.8330, 151.0273
130.0700, 157.1641
131.3060, 181.5273
132.5420, 264.6484
133.7780, 363.1602
135.0140, 304.7598
136.2500, 411.2070
137.4850, 369.2988
138.7200, 626.8672
139.9550, 764.7598
141.1900, 713.8477
142.4250, 817.0176
143.6600, 838.1797
144.8940, 732.2520
146.1280, 1068.162
147.3620, 860.8457
148.5960, 1022.248
149.8300, 966.3145
151.0630, 980.0098
152.2960, 1157.291
153.5300, 937.1211
154.7620, 990.4688
155.9950, 809.3086
157.2280, 899.5977
158.4600, 887.3008
159.6920, 899.3809
160.9250, 902.0508
162.1560, 837.2305
163.3880, 904.7070
164.6200, 663.1250
165.8510, 739.8457
167.0820, 591.8574
168.3130, 554.1426
169.5440, 797.6934
170.7750, 572.4980
172.0050, 635.5410
173.2350, 540.8145
174.4650, 701.3125
175.6950, 664.0273
176.9250, 554.9473
178.1550, 737.0645
179.3840, 857.3770
180.6130, 711.8984
181.8420, 765.6270
183.0710, 730.5215
184.3000, 919.5781
185.5280, 697.7930
186.7570, 762.1602
187.9850, 789.6758
189.2130, 690.3613
190.4400, 640.2695
191.6680, 651.3105
192.8960, 607.3809
194.1230, 612.0449
195.3500, 612.6953
196.5770, 606.8398
197.8030, 615.5762
199.0300, 611.2148
200.2560, 631.9727
201.4830, 637.8848
202.7090, 655.3984
203.9340, 527.0156
205.1600, 534.7285
206.3860, 531.5820
207.6110, 622.5332
208.8360, 603.4648
210.0610, 714.7090
211.2860, 606.9609
212.5100, 670.3965
213.7350, 640.9023
214.9590, 560.4668
216.1830, 451.0977
217.4070, 531.7773
218.6310, 572.5410
219.8540, 665.3555
221.0780, 649.2324
222.3010, 680.1719
223.5240, 646.1719
224.7470, 662.2305
225.9690, 737.3789
227.1920, 641.6172
228.4140, 690.9121
229.6360, 684.2676
230.8580, 627.6777
232.0800, 667.1406
233.3020, 709.6562
234.5230, 797.2266
235.7440, 550.8516
236.9650, 428.5273
238.1860, 634.2539
239.4070, 781.0293
240.6280, 521.8516
241.8480, 576.4180
243.0680, 427.3145
244.2880, 436.2598
245.5080, 576.2500
246.7280, 331.2812
247.9470, 513.3594
249.1660, 550.4746
250.3860, 470.6289
251.6040, 723.8262
252.8230, 547.0605
254.0420, 611.3613
255.2600, 625.7188
256.4790, 515.1660
257.6970, 759.8574
258.9150, 485.3262
260.1320, 629.3613
261.3500, 646.9707
262.5670, 597.6152
263.7840, 651.2930
265.0010, 748.0352
266.2180, 718.3164
267.4350, 871.7500
268.6510, 796.2246
269.8680, 813.6855
271.0840, 964.8262
272.3000, 969.2520
273.5160, 813.9297
274.7310, 846.8320
275.9470, 970.9492
277.1620, 984.4355
278.3770, 759.5195
279.5920, 972.1504
280.8070, 768.9277
282.0210, 922.6797
283.2360, 804.7227
284.4500, 698.9395
285.6640, 630.2148
286.8780, 526.5469
288.0920, 585.1406
289.3050, 771.7227
290.5180, 546.9492
291.7320, 596.6328
292.9450, 517.0020
294.1570, 347.9141
295.3700, 589.8984
296.5830, 486.6992
297.7950, 377.8379
299.0070, 616.0605
300.2190, 561.8730
301.4310, 589.2129
302.6420, 603.8438
303.8540, 379.9707
305.0650, 452.4102
306.2760, 380.0215
307.4870, 551.6816
308.6980, 381.3867
309.9080, 286.1406
311.1190, 523.9395
312.3290, 445.7812
313.5390, 598.6621
314.7490, 452.5820
315.9580, 561.5391
317.1680, 513.5352
318.3770, 555.5781
319.5860, 536.6602
320.7950, 426.7773
322.0040, 407.9414
323.2130, 462.1328
324.4210, 358.3594
325.6290, 252.6270
326.8380, 168.9199
328.0460, 471.2422
329.2530, 166.6016
330.4610, 445.9883
331.6680, 320.7500
332.8760, 252.6055
334.0830, 144.0723
335.2890, 232.5625
336.4960, 266.0723
337.7030, 3.601563
338.9090, 142.1504
340.1150, 91.72266
341.3210, 220.3125
342.5270, 167.9199
343.7330, 43.55078
344.9380, 149.1973
346.1440, 141.8613
347.3490, 26.54492
348.5540, 137.1855
349.7590, 180.1230
350.9630, 217.8535
352.1680, 198.6016
353.3720, 201.3672
354.5760, 221.8164
355.7800, 113.9355
356.9840, 243.7383
358.1870, 182.5547
359.3910, 171.4219
360.5940, 65.25977
361.7970, 92.89453
363.0000, 162.1055
364.2030, 205.2734
365.4050, 98.13867
366.6080, 279.0117
367.8100, 126.8906
369.0120, 263.7812
370.2140, 272.6777
371.4150, 148.5996
372.6170, 105.5098
373.8180, 214.4258
375.0190, 179.3477
376.2200, 298.2734
377.4210, 211.2070
378.6220, 122.1426
379.8220, 360.0820
381.0230, 128.0254
382.2230, 193.9746
383.4230, 143.9258
384.6220, 139.8789
385.8220, 205.1641
387.0220, 6.683594
388.2210, 23.66211
389.4200, 18.61719
390.6190, 231.0723
391.8180, 1.972656
393.0160, 104.4043
394.2150, 46.33984
395.4130, 120.6367
396.6110, 34.64258
397.8090, 116.4219
399.0060, 56.00391
400.2040, 22.25000
401.4010, 111.7012
402.5980, 75.61719
403.7950, 169.7988
404.9920, 208.9043
406.1890, 166.2832
407.3860, 22.25781
408.5820, 68.33789
409.7780, 57.20703
410.9740, 58.40430
412.1700, 41.19336
413.3650, 44.49609
414.5610, 145.8320
415.7560, 38.73047
416.9510, 89.08789
418.1460, 92.54883
419.3410, 3.470703
420.5360, 2.644531
421.7300, 14.38477
422.9240, 49.52344
424.1180, 125.7676
425.3120, 139.2949
426.5060, 13.01562
427.7000, 65.33203
428.8930, 61.16211
430.0860, 61.57617
431.2790, 3.244141
432.4720, 93.32422
433.6650, 90.86133
434.8580, 16.09375
436.0500, 88.65625
437.2420, 27.72070
438.4340, 151.5566
439.6260, 50.58203
440.8180, 135.0898
442.0090, 83.34180
443.2010, 23.75195
444.3920, 312.4043
445.5830, 125.4121
446.7740, 81.84570
447.9640, 4.439453
449.1550, 64.59766
450.3450, 97.44922
451.5350, 189.2480
452.7250, 223.9648
453.9150, 296.0293
455.1050, 268.3066
456.2940, 186.7910
457.4830, 103.5957
458.6720, 127.2266
459.8610, 180.4219
461.0500, 181.0977
462.2390, 202.7305
463.4270, 257.6738
464.6150, 78.19336
465.8040, 318.7559
466.9910, 127.2812
468.1790, 167.8984
469.3670, 304.7188
470.5540, 86.02148
471.7410, 277.1562
472.9280, 199.4609
474.1150, 49.28906
475.3020, 22.32422
476.4890, 262.2109
477.6750, 276.9727
478.8610, 176.1074
480.0470, 393.3770
481.2330, 244.4707
482.4190, 67.39648
483.6040, 343.4648
484.7900, 87.75781
485.9750, 276.0586
487.1600, 81.08203
488.3450, 307.1719
489.5290, 114.6543
490.7140, 46.61719
491.8980, 269.5547
493.0820, 432.6094
494.2660, 192.0859
495.4500, 96.32617
496.6340, 363.1914
497.8170, 299.0332
499.0010, 152.8535
500.1840, 221.6562
501.3670, 85.43164
502.5500, 186.1875
503.7320, 293.9199
504.9150, 66.36523
506.0970, 55.04688
507.2790, 244.7031
508.4610, 196.3281
509.6430, 146.9258
510.8250, 230.4961
512.0060, 299.0430
513.1870, 120.5664
514.3680, 199.0957
515.5490, 432.6035
516.7300, 240.0879
517.9110, 361.5469
519.0910, 350.9824
520.2710, 276.3945
521.4510, 293.7754
522.6310, 255.1309
523.8110, 402.4570
524.9910, 331.7598
526.1700, 307.0332
527.3490, 84.27734
528.5280, 16.96484
529.7070, 162.1914
530.8860, 253.8750
532.0650, 43.13672
533.2430, 287.1934
534.4210, 84.58203
535.5990, 112.5703
536.7770, 179.3496
537.9550, 175.3711
539.1320, 34.73242
540.3100, 29.21680
541.4870, 116.5215
542.6640, 46.22461
543.8410, 208.9082
545.0170, 136.5586
546.1940, 151.1797
547.3700, 114.7676
548.5470, 61.31641
549.7230, 36.17773
550.8980, 272.2402
552.0740, 98.62500
553.2500, 138.8340
554.4250, 46.29297
555.6000, 113.5781
556.7750, 271.2949
557.9500, 117.7207
559.1250, 100.2344
560.2990, 353.3066
561.4730, 0.6113280
562.6480, 155.3945
563.8220, 77.90234
564.9950, 163.1289
566.1690, 284.1484
567.3430, 56.04883
568.5160, 86.95898
569.6890, 94.61133
570.8620, 56.36914
572.0350, 387.0371
573.2070, 60.82422
574.3800, 379.3574
575.5520, 295.2910
576.7240, 91.81836
577.8960, 90.58008
579.0680, 211.5410
580.2400, 11.12695
581.4110, 301.6406
582.5830, 18.92969
583.7540, 188.7617
584.9250, 125.0938
586.0950, 15.70117
587.2660, 252.8457
588.4370, 125.4629
589.6070, 116.0000
590.7770, 160.4570
591.9470, 233.8223
593.1170, 63.08984
594.2860, 224.1543
595.4560, 77.60938
596.6250, 243.3555
597.7940, 165.5039
598.9630, 303.1133
600.1320, 262.1250
601.3000, 2.734375
602.4690, 59.85352
603.6370, 139.7598
604.8050, 1.882813
605.9730, 227.4297
607.1410, 65.81836
608.3090, 20.89648
609.4760, 159.7812
610.6430, 319.9277
611.8100, 7.837891
612.9770, 274.0508
614.1440, 482.0938
615.3110, 15.31445
616.4770, 114.6055
617.6430, 140.4473
618.8090, 291.4062
619.9750, 251.0859
621.1410, 298.7793
622.3070, 102.8438
623.4720, 311.4082
624.6370, 236.3906
625.8020, 238.4551
626.9670, 352.9180
628.1320, 281.1758
629.2970, 183.9863
630.4610, 405.7637
631.6250, 384.1543
632.7890, 274.3711
633.9530, 169.3047
635.1170, 221.2734
636.2810, 317.0645
637.4440, 427.5234
638.6070, 606.2422
639.7700, 699.4707
640.9330, 901.1016
642.0960, 993.4316
643.2590, 1252.668
644.4210, 1467.193
645.5830, 1556.293
646.7450, 1684.020
647.9070, 1917.479
649.0690, 2247.006
650.2310, 2736.984
651.3920, 2683.727
652.5530, 2496.375
653.7140, 2535.816
654.8750, 2091.383
656.0360, 1696.062
657.1970, 1212.098
658.3570, 1207.207
659.5170, 1085.984
660.6770, 598.4258
661.8370, 660.6230
662.9970, 604.1230
664.1570, 552.7852
665.3160, 438.3770
666.4750, 433.7363
667.6340, 226.3125
668.7930, 583.4746
669.9520, 218.0645
671.1110, 312.3438
672.2690, 565.3594
673.4270, 257.8145
674.5850, 381.2168
675.7430, 449.0879
676.9010, 334.8184
678.0590, 456.3789
679.2160, 394.2676
680.3730, 635.2461
681.5300, 371.9062
682.6870, 522.9961
683.8440, 593.9902
685.0010, 603.4355
686.1570, 627.5645
687.3130, 563.7090
688.4690, 606.1055
689.6250, 486.6211
690.7810, 556.4258
691.9370, 627.5469
693.0920, 438.3340
694.2470, 277.6094
695.4020, 223.0762
696.5570, 284.2910
697.7120, 257.2324
698.8670, 417.4707
700.0210, 286.8438
701.1750, 407.6777
702.3290, 306.9688
703.4830, 269.8262
704.6370, 97.52930
705.7910, 129.9492
706.9440, 315.9902
708.0970, 466.5195
709.2510, 332.4141
710.4030, 415.3574
711.5560, 278.8887
712.7090, 384.1309
713.8610, 451.4297
715.0140, 389.8066
716.1660, 145.7910
717.3180, 214.6133
718.4690, 364.0059
719.6210, 89.73047
720.7730, 303.8262
721.9240, 219.7227
723.0750, 169.9863
724.2260, 53.16602
725.3770, 261.7031
726.5270, 66.29688
727.6780, 218.5098
728.8280, 182.3477
729.9780, 194.2109
731.1280, 208.4375
732.2780, 245.7168
733.4280, 142.3262
734.5770, 300.5254
735.7260, 194.5156
736.8760, 5.828125
738.0250, 208.2129
739.1730, 28.97461
740.3220, 65.20898
741.4700, 191.8066
742.6190, 128.4355
743.7670, 256.5859
744.9150, 76.44922
746.0630, 344.8672
747.2100, 135.5801
748.3580, 300.9590
749.5050, 352.5215
750.6520, 257.3086
751.7990, 291.5117
752.9460, 154.5352
754.0930, 9.728516
755.2390, 301.9727
756.3860, 262.3262
757.5320, 319.6133
758.6780, 100.8301
759.8240, 27.91602
760.9690, 1.822266
762.1150, 203.0215
763.2600, 42.03516
764.4060, 304.3340
765.5510, 103.6641
766.6950, 198.8809
767.8400, 201.0918
768.9850, 55.27344
770.1290, 312.6953
771.2730, 130.6895
772.4170, 351.9688
773.5610, 44.43164
774.7050, 211.9316
775.8480, 136.3594
776.9920, 53.57617
778.1350, 234.9688
779.2780, 4.634766
780.4210, 210.3672
781.5640, 129.1426
782.7060, 185.4766
783.8490, 224.4355
784.9910, 352.6328
786.1330, 329.0566
787.2750, 210.1270
788.4170, 258.7461
789.5580, 79.62109
790.7000, 92.76172
791.8410, 3.953125
792.9820, 75.50391
794.1230, 170.6367
795.2640, 139.9453
796.4040, 48.27734
797.5450, 275.0352
798.6850, 320.7891
799.8250, 235.9375
800.9650, 39.96484
802.1050, 188.1133
803.2450, 231.5820
804.3840, 9.582031
805.5230, 117.1836
806.6630, 446.3750
807.8020, 197.3516
808.9400, 20.97266
810.0790, 414.8477
811.2170, 267.9102
812.3560, 33.31250
813.4940, 257.6484
814.6320, 277.8398
815.7700, 19.05859
816.9070, 377.2383
818.0450, 155.3867
819.1820, 65.52344
820.3190, 415.4648
821.4560, 34.39453
822.5930, 252.2656
823.7300, 196.0703
824.8670, 164.8242
826.0030, 361.5234
827.1390, 328.1914
828.2750, 358.8086
829.4110, 229.3789
830.5470, 224.8867
831.6820, 64.06641
832.8180, 166.9453
833.9530, 12.02344
835.0880, 241.9141
836.2230, 326.1523
837.3580, 212.0586
838.4920, 240.2031
839.6270, 175.1055
840.7610, 368.7969
841.8950, 244.6094
843.0290, 223.6055
844.1630, 250.8750
845.2960, 183.1289
846.4300, 214.8711
847.5630, 160.6172
848.6960, 152.9844
849.8290, 188.6250
850.9620, 161.2031
852.0940, 318.7227
853.2270, 381.3203
854.3590, 98.15625
855.4910, 227.5391
856.6230, 163.6445
857.7550, 296.7305
858.8870, 274.4375
860.0180, 216.8906
861.1500, 481.5078
862.2810, 217.2695
863.4120, 94.94922
864.5430, 55.50391
865.6730, 266.8594
866.8040, 236.1953
867.9340, 224.5391
869.0640, 343.9922
870.1940, 253.9570
871.3240, 237.5234
872.4540, 304.6016
873.5830, 121.1289
874.7130, 255.1602
875.8420, 157.9688
876.9710, 431.2305
878.1000, 375.0547
879.2290, 51.43359
880.3570, 330.6055
881.4860, 187.6523
882.6140, 315.9062
883.7420, 344.2422
884.8700, 151.2148
885.9980, 119.3359
887.1250, 9.972656
888.2530, 47.78906
889.3800, 90.85938
890.5070, 225.6172
891.6340, 210.1367
892.7610, 117.4492
893.8880, 366.9492
895.0140, 135.4688
896.1400, 198.2656
897.2670, 82.58984
898.3930, 298.5117
899.5180, 167.1523
900.6440, 223.2969
901.7700, 213.5664
902.8950, 34.69922
904.0200, 212.8633
905.1450, 138.5625
906.2700, 193.5117
907.3950, 46.32031
908.5190, 203.6367
909.6440, 85.78125
910.7680, 295.6719
911.8920, 90.87109
913.0160, 24.64453
914.1400, 190.6602
915.2630, 157.3281
916.3870, 130.7344
917.5100, 221.4688
918.6330, 300.8789
919.7560, 224.4531
920.8790, 39.44531
922.0010, 86.94531
923.1240, 22.20703
924.2460, 122.8320
925.3680, 66.16406
926.4900, 76.89453
927.6120, 106.3555
928.7340, 103.3477
929.8550, 289.6016
930.9760, 263.6914
932.0980, 143.0234
933.2190, 129.6016
934.3390, 259.3359
935.4600, 273.6758
936.5810, 225.7695
937.7010, 134.8438
938.8210, 269.0703
939.9410, 137.6562
941.0610, 152.3359
942.1810, 65.05078
943.3010, 219.0117
944.4200, 181.6602
945.5390, 265.2773
946.6580, 329.4570
947.7770, 271.1875
948.8960, 344.8203
950.0150, 344.3008
951.1330, 432.7266
952.2510, 478.0000
953.3690, 339.6055
954.4870, 602.3672
955.6050, 464.6680
956.7230, 538.0898
957.8400, 336.7422
958.9580, 548.1289
960.0750, 578.3633
961.1920, 665.3945
962.3090, 879.2578
963.4250, 853.2188
964.5420, 1075.613
965.6580, 993.9688
966.7740, 1132.414
967.8900, 1461.469
969.0060, 1568.273
970.1220, 1503.598
971.2380, 1201.250
972.3530, 1444.410
973.4680, 1176.680
974.5830, 968.6641
975.6980, 1346.398
976.8130, 1171.664
977.9280, 1244.855
979.0420, 1108.168
980.1560, 922.9805
981.2710, 943.1836
982.3850, 712.2812
983.4980, 789.7500
984.6120, 427.0352
985.7260, 661.9414
986.8390, 830.9492
987.9520, 740.4258
989.0650, 611.4492
990.1780, 548.5547
991.2910, 509.0039
992.4030, 399.1914
993.5160, 458.2031
994.6280, 570.4531
995.7400, 525.3125
996.8520, 292.8359
997.9640, 468.2656
999.0750, 620.9102
1000.187, 404.7109
1001.298, 657.4883
1002.409, 668.1094
1003.520, 463.5898
1004.631, 464.1523
1005.741, 597.3867
1006.852, 365.5898
1007.962, 550.2383
1009.072, 230.0469
1010.182, 510.9961
1011.292, 300.8008
1012.402, 485.4258
1013.511, 184.1953
1014.621, 509.4023
1015.730, 429.1055
1016.839, 589.2773
1017.948, 795.3594
1019.056, 654.6758
1020.165, 564.5820
1021.273, 924.0508
1022.382, 626.4648
1023.490, 786.7969
1024.598, 521.8125
1025.706, 862.9258
1026.813, 765.9062
1027.921, 631.5352
1029.028, 483.5664
1030.135, 331.9102
1031.242, 126.1172
1032.349, 200.4023
1033.456, 184.2227
1034.562, 530.0078
1035.668, 119.7812
1036.775, 291.5742
1037.881, 411.3789
1038.987, 204.1680
1040.092, 3.941406
1041.198, 69.67578
1042.303, 35.61328
1043.408, 18.56250
1044.514, 91.80469
1045.618, 116.4922
1046.723, 237.1641
1047.828, 164.8086
1048.932, 67.42578
1050.037, 321.9805
1051.141, 22.51953
1052.245, 210.0625
1053.349, 114.5586
1054.452, 152.0000
1055.556, 193.3945
1056.659, 38.73828
1057.762, 250.0312
1058.865, 63.73438
1059.968, 44.47656
1061.071, 145.7617
1062.174, 168.0195
1063.276, 349.2383
1064.378, 376.4336
1065.480, 380.8516
1066.582, 382.7969
1067.684, 367.0742
1068.786, 312.5938
1069.887, 279.8672
1070.988, 197.8633
1072.090, 214.1758
1073.191, 212.5391
1074.291, 276.9688
1075.392, 148.1602
1076.493, 344.7188
1077.593, 275.9297
1078.693, 475.5547
1079.793, 517.8203
1080.893, 437.1719
1081.993, 513.4492
1083.092, 436.1719
1084.192, 330.1172
1085.291, 288.6016
1086.390, 267.6680
1087.489, 152.5156
1088.588, 301.6641
1089.686, 560.1836
1090.785, 514.6172
1091.883, 297.0508
1092.981, 362.4922
1094.079, 177.9297
1095.177, 319.2852
1096.275, 269.5156
1097.373, 302.5938
1098.470, 145.4922
1099.567, 313.6484
1100.664, 319.9805
1101.761, 197.2734
1102.858, 278.4922
1103.954, 106.5039
1105.051, 187.2773
1106.147, 381.4102
1107.243, 119.0312
1108.339, 193.3711
1109.435, 290.6719
1110.531, 275.3203
1111.626, 14.55469
1112.722, 462.3203
1113.817, 145.5898
1114.912, 235.5781
1116.007, 98.76562
1117.101, 0.0000000E+00
##END=



