##NAMES=Pectolite
##RRUFFID=R060101
##IDEAL CHEMISTRY=NaCa_2_Si_3_O_8_(OH)
##LOCALITY=West Patterson, New Jersey, USA
##OWNER=RRUFF
##SOURCE=University of Arizona Mineral Museum
##DESCRIPTION=Tufts of white acicular sprays
##STATUS=The identification of this mineral has been confirmed by X-ray diffraction and chemical analysis
##URL=rruff.info/R060101
##MEASURED CHEMISTRY=Na_1.02_Ca_2.00_Si_2.99_O_8_(OH)
##PIN_ID=L01384
##ORIENTATION=Laser parallel to (-1 -1 0). Fiducial mark perpendicular to laser is parallel to c [0 0 1]
112.7420, 0.0000000E+00
113.9810, 18.98450
115.2200, 2.704712
116.4580, 46.17798
117.6970, 81.40125
118.9350, 2.050537
120.1730, 30.74976
121.4100, 47.76440
122.6480, 17.95520
123.8850, 18.28918
125.1230, 47.73523
126.3600, 33.27295
127.5960, 45.92212
128.8330, 46.68762
130.0700, 16.52502
131.3060, 29.41699
132.5420, 50.37280
133.7780, 71.36292
135.0140, 20.36951
136.2500, 17.38428
137.4850, 50.44458
138.7200, 36.50220
139.9550, 85.58630
141.1900, 98.16309
142.4250, 114.2002
143.6600, 88.98401
144.8940, 103.9199
146.1280, 93.85303
147.3620, 98.98315
148.5960, 74.31274
149.8300, 57.81580
151.0630, 79.19836
152.2960, 78.82605
153.5300, 80.98535
154.7620, 73.26904
155.9950, 38.48706
157.2280, 32.53552
158.4600, 47.69434
159.6920, 26.86731
160.9250, 36.55286
162.1560, 27.12024
163.3880, 55.94531
164.6200, 57.04492
165.8510, 27.34778
167.0820, 53.59009
168.3130, 5.668213
169.5440, 66.89172
170.7750, 48.88440
172.0050, 36.40320
173.2350, 7.990723
174.4650, 16.80896
175.6950, 10.70105
176.9250, 39.74084
178.1550, 16.80408
179.3840, 45.76758
180.6130, 51.58386
181.8420, 42.62598
183.0710, 78.28955
184.3000, 92.60815
185.5280, 35.17444
186.7570, 56.48132
187.9850, 39.58398
189.2130, 73.13062
190.4400, 44.59937
191.6680, 32.91333
192.8960, 92.72998
194.1230, 60.43042
195.3500, 39.12097
196.5770, 69.09106
197.8030, 53.32520
199.0300, 41.01660
200.2560, 52.74573
201.4830, 56.54187
202.7090, 46.20911
203.9340, 67.42590
205.1600, 57.19043
206.3860, 45.98730
207.6110, 41.31128
208.8360, 21.06238
210.0610, 57.31116
211.2860, 11.37524
212.5100, 72.07715
213.7350, 107.5815
214.9590, 35.51245
216.1830, 87.33984
217.4070, 38.14905
218.6310, 39.98120
219.8540, 32.96118
221.0780, 46.63196
222.3010, 57.92273
223.5240, 34.07141
224.7470, 19.33228
225.9690, 57.19849
227.1920, 25.88354
228.4140, 72.75867
229.6360, 73.23193
230.8580, 70.12952
232.0800, 78.26721
233.3020, 61.44922
234.5230, 64.00513
235.7440, 42.39124
236.9650, 37.88330
238.1860, 57.47351
239.4070, 15.03918
240.6280, 15.33862
241.8480, 21.11743
243.0680, 42.61426
244.2880, 54.33118
245.5080, 15.45557
246.7280, 44.62073
247.9470, 36.57019
249.1660, 35.24561
250.3860, 39.37109
251.6040, 41.47400
252.8230, 26.22681
254.0420, 2.296143
255.2600, 52.80615
256.4790, 39.98083
257.6970, 36.21533
258.9150, 46.26636
260.1320, 58.15186
261.3500, 63.13428
262.5670, 66.85571
263.7840, 5.391113
265.0010, 51.19141
266.2180, 59.42664
267.4350, 5.876587
268.6510, 45.21948
269.8680, 56.77356
271.0840, 22.32166
272.3000, 12.78308
273.5160, 113.2660
274.7310, 106.6930
275.9470, 94.10742
277.1620, 101.4834
278.3770, 52.95886
279.5920, 123.5126
280.8070, 80.93518
282.0210, 28.49426
283.2360, 109.7838
284.4500, 90.29333
285.6640, 10.71301
286.8780, 27.03467
288.0920, 6.243652
289.3050, 16.43213
290.5180, 8.543701
291.7320, 29.34302
292.9450, 63.63818
294.1570, 40.66748
295.3700, 7.707153
296.5830, 14.98450
297.7950, 6.074341
299.0070, 8.538086
300.2190, 49.80103
301.4310, 33.67200
302.6420, 1.229858
303.8540, 70.57690
305.0650, 56.61511
306.2760, 31.62170
307.4870, 84.66089
308.6980, 30.62085
309.9080, 85.62573
311.1190, 86.48999
312.3290, 97.39648
313.5390, 106.0625
314.7490, 84.81116
315.9580, 46.63989
317.1680, 52.22803
318.3770, 93.90430
319.5860, 98.24561
320.7950, 47.78735
322.0040, 104.9231
323.2130, 33.53174
324.4210, 54.11328
325.6290, 55.77539
326.8380, 72.36523
328.0460, 88.86719
329.2530, 58.26880
330.4610, 2.300293
331.6680, 44.46826
332.8760, 21.53418
334.0830, 8.544434
335.2890, 30.82812
336.4960, 37.89771
337.7030, 67.98901
338.9090, 76.37549
340.1150, 60.23462
341.3210, 53.05688
342.5270, 47.11426
343.7330, 73.26050
344.9380, 3.659424
346.1440, 93.15137
347.3490, 74.11816
348.5540, 14.92261
349.7590, 15.66455
350.9630, 90.49780
352.1680, 38.24048
353.3720, 53.00854
354.5760, 80.55371
355.7800, 79.09521
356.9840, 82.52393
358.1870, 61.07031
359.3910, 73.45435
360.5940, 53.72119
361.7970, 54.38257
363.0000, 48.37817
364.2030, 73.76733
365.4050, 44.96460
366.6080, 93.29150
367.8100, 29.31763
369.0120, 17.66187
370.2140, 63.46265
371.4150, 34.92090
372.6170, 63.04443
373.8180, 101.4539
375.0190, 39.59863
376.2200, 16.80225
377.4210, 52.73584
378.6220, 104.4321
379.8220, 99.30005
381.0230, 98.25073
382.2230, 81.16675
383.4230, 58.02759
384.6220, 18.33545
385.8220, 10.92480
387.0220, 8.877686
388.2210, 4.669434
389.4200, 31.06348
390.6190, 50.42627
391.8180, 71.88037
393.0160, 85.48633
394.2150, 89.33618
395.4130, 10.76709
396.6110, 19.02100
397.8090, 51.30981
399.0060, 9.283936
400.2040, 32.83618
401.4010, 13.04150
402.5980, 63.41089
403.7950, 39.41211
404.9920, 2.008057
406.1890, 48.02661
407.3860, 32.15015
408.5820, 69.33301
409.7780, 86.15186
410.9740, 36.11865
412.1700, 20.86694
413.3650, 64.23169
414.5610, 62.50366
415.7560, 79.28760
416.9510, 69.77856
418.1460, 82.75806
419.3410, 81.69043
420.5360, 86.62085
421.7300, 58.29321
422.9240, 34.71094
424.1180, 61.45483
425.3120, 23.82520
426.5060, 83.08276
427.7000, 25.68286
428.8930, 42.12036
430.0860, 60.29834
431.2790, 81.70361
432.4720, 48.73975
433.6650, 123.5696
434.8580, 21.68286
436.0500, 35.45630
437.2420, 93.36133
438.4340, 10.75854
439.6260, 21.85693
440.8180, 60.50171
442.0090, 1.788574
443.2010, 7.037354
444.3920, 94.65308
445.5830, 34.49365
446.7740, 97.57324
447.9640, 35.77075
449.1550, 37.36182
450.3450, 22.82349
451.5350, 35.39038
452.7250, 18.77319
453.9150, 46.16479
455.1050, 29.29932
456.2940, 81.17578
457.4830, 31.36328
458.6720, 29.58081
459.8610, 80.73169
461.0500, 53.77856
462.2390, 104.0850
463.4270, 58.19556
464.6150, 142.2727
465.8040, 42.26294
466.9910, 22.06982
468.1790, 19.76050
469.3670, 30.22949
470.5540, 39.24756
471.7410, 53.27832
472.9280, 134.2378
474.1150, 81.21240
475.3020, 112.4409
476.4890, 109.4844
477.6750, 49.59106
478.8610, 85.72949
480.0470, 62.02319
481.2330, 5.045898
482.4190, 7.613770
483.6040, 8.538086
484.7900, 65.13257
485.9750, 36.12329
487.1600, 32.77588
488.3450, 99.94092
489.5290, 54.54419
490.7140, 74.90991
491.8980, 93.98340
493.0820, 62.25195
494.2660, 64.33960
495.4500, 45.51172
496.6340, 69.93506
497.8170, 99.65625
499.0010, 72.74243
500.1840, 87.64917
501.3670, 119.6907
502.5500, 112.1890
503.7320, 37.60864
504.9150, 162.8440
506.0970, 62.00415
507.2790, 92.21558
508.4610, 66.24854
509.6430, 140.4248
510.8250, 31.27710
512.0060, 137.0193
513.1870, 8.895996
514.3680, 48.59131
515.5490, 32.65747
516.7300, 68.16748
517.9110, 45.78564
519.0910, 101.5925
520.2710, 140.5432
521.4510, 93.67456
522.6310, 63.59814
523.8110, 19.69458
524.9910, 63.66650
526.1700, 114.6641
527.3490, 69.44507
528.5280, 10.87573
529.7070, 79.13208
530.8860, 46.15942
532.0650, 87.04541
533.2430, 86.27490
534.4210, 33.59937
535.5990, 94.34985
536.7770, 61.15649
537.9550, 95.15674
539.1320, 95.12842
540.3100, 43.52246
541.4870, 8.475098
542.6640, 69.50830
543.8410, 17.67627
545.0170, 106.6699
546.1940, 2.565918
547.3700, 99.11377
548.5470, 68.13867
549.7230, 114.9927
550.8980, 105.6909
552.0740, 69.58252
553.2500, 121.1577
554.4250, 19.54492
555.6000, 3.748047
556.7750, 32.57471
557.9500, 83.01270
559.1250, 31.32617
560.2990, 8.766113
561.4730, 25.83350
562.6480, 77.99414
563.8220, 89.66064
564.9950, 40.84180
566.1690, 107.5659
567.3430, 71.38330
568.5160, 45.42285
569.6890, 69.20020
570.8620, 40.55078
572.0350, 0.1381840
573.2070, 48.47852
574.3800, 47.59424
575.5520, 98.11719
576.7240, 9.417480
577.8960, 88.75000
579.0680, 61.13770
580.2400, 77.28271
581.4110, 66.13867
582.5830, 30.22949
583.7540, 0.2905270
584.9250, 74.53809
586.0950, 0.2724610
587.2660, 75.13281
588.4370, 164.3120
589.6070, 44.74023
590.7770, 39.43311
591.9470, 56.21826
593.1170, 34.28906
594.2860, 75.50781
595.4560, 25.58154
596.6250, 48.52539
597.7940, 109.8970
598.9630, 70.18018
600.1320, 40.65283
601.3000, 59.68457
602.4690, 27.13574
603.6370, 67.44531
604.8050, 12.79883
605.9730, 80.33398
607.1410, 40.81396
608.3090, 30.72217
609.4760, 120.0327
610.6430, 2.142090
611.8100, 74.17725
612.9770, 127.4932
614.1440, 122.9712
615.3110, 106.3110
616.4770, 116.3799
617.6430, 30.80371
618.8090, 79.23340
619.9750, 37.15283
621.1410, 10.93848
622.3070, 39.56787
623.4720, 79.76367
624.6370, 139.4766
625.8020, 51.99707
626.9670, 146.2026
628.1320, 84.14062
629.2970, 152.5239
630.4610, 177.7822
631.6250, 175.8452
632.7890, 185.3389
633.9530, 154.7676
635.1170, 137.3853
636.2810, 79.10840
637.4440, 22.78125
638.6070, 160.6011
639.7700, 194.2886
640.9330, 128.1157
642.0960, 257.9199
643.2590, 244.1719
644.4210, 310.9580
645.5830, 324.4263
646.7450, 379.1831
647.9070, 347.1821
649.0690, 429.9116
650.2310, 491.0137
651.3920, 550.2998
652.5530, 533.9331
653.7140, 546.0361
654.8750, 356.9961
656.0360, 347.0972
657.1970, 256.5381
658.3570, 175.0083
659.5170, 163.8101
660.6770, 159.3154
661.8370, 191.2788
662.9970, 135.2021
664.1570, 133.5898
665.3160, 90.63770
666.4750, 91.71924
667.6340, 154.2612
668.7930, 180.1191
669.9520, 112.8701
671.1110, 24.19580
672.2690, 20.67090
673.4270, 99.99707
674.5850, 69.09863
675.7430, 50.10791
676.9010, 149.9136
678.0590, 150.6997
679.2160, 71.41016
680.3730, 120.7666
681.5300, 110.0459
682.6870, 43.68018
683.8440, 121.0200
685.0010, 137.8306
686.1570, 104.7021
687.3130, 54.69922
688.4690, 64.97998
689.6250, 126.4551
690.7810, 83.32666
691.9370, 94.48486
693.0920, 47.27002
694.2470, 37.08496
695.4020, 9.773926
696.5570, 107.3096
697.7120, 30.21289
698.8670, 156.6562
700.0210, 145.8296
701.1750, 112.9917
702.3290, 117.2617
703.4830, 95.85986
704.6370, 145.8784
705.7910, 71.13965
706.9440, 62.06006
708.0970, 54.14795
709.2510, 182.2988
710.4030, 78.77295
711.5560, 167.5405
712.7090, 172.8252
713.8610, 136.6860
715.0140, 2.816895
716.1660, 62.60156
717.3180, 91.95117
718.4690, 125.4141
719.6210, 119.2515
720.7730, 85.78320
721.9240, 9.672363
723.0750, 0.6132810
724.2260, 157.2554
725.3770, 14.53760
726.5270, 30.52490
727.6780, 124.1904
728.8280, 45.84131
729.9780, 16.64404
731.1280, 159.5557
732.2780, 91.12988
733.4280, 137.4385
734.5770, 90.27783
735.7260, 111.0488
736.8760, 32.70605
738.0250, 35.61523
739.1730, 97.33105
740.3220, 192.4707
741.4700, 33.08740
742.6190, 186.9268
743.7670, 8.222168
744.9150, 106.0190
746.0630, 72.70215
747.2100, 10.86865
748.3580, 124.8643
749.5050, 134.6709
750.6520, 65.69873
751.7990, 90.75684
752.9460, 60.43457
754.0930, 30.66504
755.2390, 69.30078
756.3860, 46.70508
757.5320, 90.20020
758.6780, 52.09277
759.8240, 71.37109
760.9690, 29.83301
762.1150, 100.3340
763.2600, 80.40234
764.4060, 118.7109
765.5510, 161.6104
766.6950, 105.1738
767.8400, 72.04004
768.9850, 126.8438
770.1290, 111.4277
771.2730, 147.5137
772.4170, 176.1191
773.5610, 114.1211
774.7050, 132.5576
775.8480, 108.5234
776.9920, 96.08398
778.1350, 64.73730
779.2780, 81.46973
780.4210, 188.5811
781.5640, 18.83496
782.7060, 1.757813
783.8490, 19.82422
784.9910, 164.0654
786.1330, 191.0273
787.2750, 161.0146
788.4170, 230.1846
789.5580, 240.3828
790.7000, 221.8730
791.8410, 277.8760
792.9820, 192.1416
794.1230, 147.0508
795.2640, 99.73145
796.4040, 68.19531
797.5450, 152.3262
798.6850, 28.87500
799.8250, 177.0449
800.9650, 241.7256
802.1050, 108.0391
803.2450, 131.7637
804.3840, 196.4795
805.5230, 63.46973
806.6630, 129.2529
807.8020, 179.3936
808.9400, 163.7158
810.0790, 178.6641
811.2170, 161.3594
812.3560, 224.0527
813.4940, 219.9824
814.6320, 239.9209
815.7700, 237.8193
816.9070, 249.2578
818.0450, 212.0938
819.1820, 167.8438
820.3190, 165.1631
821.4560, 122.9775
822.5930, 186.1807
823.7300, 66.33789
824.8670, 154.6992
826.0030, 135.7188
827.1390, 68.42969
828.2750, 97.79785
829.4110, 244.9453
830.5470, 97.36426
831.6820, 193.6523
832.8180, 58.40039
833.9530, 94.37988
835.0880, 152.7598
836.2230, 144.1455
837.3580, 142.0420
838.4920, 146.6436
839.6270, 280.7754
840.7610, 141.6992
841.8950, 113.5596
843.0290, 135.9590
844.1630, 3.188477
845.2960, 68.01953
846.4300, 150.4639
847.5630, 248.1816
848.6960, 158.9912
849.8290, 237.8711
850.9620, 201.7559
852.0940, 174.5078
853.2270, 101.7568
854.3590, 257.5498
855.4910, 3.521484
856.6230, 202.1846
857.7550, 83.30273
858.8870, 221.4990
860.0180, 116.8135
861.1500, 112.9727
862.2810, 202.1689
863.4120, 122.4014
864.5430, 222.3027
865.6730, 157.0293
866.8040, 123.4004
867.9340, 159.4609
869.0640, 55.85547
870.1940, 279.5049
871.3240, 83.34668
872.4540, 120.3438
873.5830, 290.1641
874.7130, 163.3252
875.8420, 111.7080
876.9710, 33.13574
878.1000, 142.0605
879.2290, 193.2383
880.3570, 115.4893
881.4860, 95.27637
882.6140, 215.6523
883.7420, 72.67285
884.8700, 29.55469
885.9980, 30.81738
887.1250, 192.1641
888.2530, 28.53809
889.3800, 95.04199
890.5070, 204.3555
891.6340, 39.04004
892.7610, 149.1846
893.8880, 49.43652
895.0140, 65.38086
896.1400, 214.9160
897.2670, 25.36816
898.3930, 189.0713
899.5180, 59.33496
900.6440, 185.0811
901.7700, 178.2314
902.8950, 147.8457
904.0200, 17.83203
905.1450, 186.3105
906.2700, 8.399414
907.3950, 5.544922
908.5190, 208.4385
909.6440, 66.43750
910.7680, 81.16309
911.8920, 65.53223
913.0160, 3.701172
914.1400, 130.1387
915.2630, 142.5771
916.3870, 90.53418
917.5100, 2.729492
918.6330, 100.7637
919.7560, 66.16113
920.8790, 24.81445
922.0010, 5.762695
923.1240, 48.39453
924.2460, 15.12109
925.3680, 58.81152
926.4900, 163.4082
927.6120, 92.95410
928.7340, 135.8008
929.8550, 137.3252
930.9760, 94.88770
932.0980, 5.116211
933.2190, 49.41016
934.3390, 94.99609
935.4600, 113.0566
936.5810, 172.3848
937.7010, 55.90918
938.8210, 45.50977
939.9410, 35.15918
941.0610, 61.81934
942.1810, 79.27734
943.3010, 129.4746
944.4200, 34.49414
945.5390, 7.781250
946.6580, 53.54883
947.7770, 20.44434
948.8960, 25.18848
950.0150, 157.0010
951.1330, 271.5840
952.2510, 117.2881
953.3690, 101.5010
954.4870, 106.4072
955.6050, 5.184570
956.7230, 160.6582
957.8400, 38.71875
958.9580, 229.1348
960.0750, 5.370117
961.1920, 158.4072
962.3090, 4.083984
963.4250, 200.5410
964.5420, 298.6729
965.6580, 292.0645
966.7740, 248.7637
967.8900, 137.6260
969.0060, 173.6846
970.1220, 272.9111
971.2380, 111.0049
972.3530, 118.9941
973.4680, 205.9150
974.5830, 36.83496
975.6980, 50.59473
976.8130, 247.6289
977.9280, 252.7656
979.0420, 85.71484
980.1560, 29.57422
981.2710, 88.11719
982.3850, 122.9258
983.4980, 90.12305
984.6120, 59.54688
985.7260, 104.5723
986.8390, 74.53125
987.9520, 166.8926
989.0650, 143.8066
990.1780, 162.0039
991.2910, 50.85156
992.4030, 97.90430
993.5160, 265.2129
994.6280, 231.4434
995.7400, 93.60547
996.8520, 268.5430
997.9640, 182.6777
999.0750, 120.4453
1000.187, 119.2500
1001.298, 94.84766
1002.409, 159.1680
1003.520, 117.8301
1004.631, 231.5605
1005.741, 176.3105
1006.852, 103.8906
1007.962, 165.5391
1009.072, 217.9160
1010.182, 420.4551
1011.292, 195.9414
1012.402, 308.2754
1013.511, 45.24805
1014.621, 32.46289
1015.730, 45.12109
1016.839, 215.9531
1017.948, 122.8926
1019.056, 278.0996
1020.165, 135.3828
1021.273, 139.0645
1022.382, 267.7422
1023.490, 231.6660
1024.598, 171.4727
1025.706, 297.9297
1026.813, 224.6309
1027.921, 275.3848
1029.028, 22.17969
1030.135, 177.2871
1031.242, 62.82422
1032.349, 262.9414
1033.456, 36.20508
1034.562, 83.03906
1035.668, 122.9395
1036.775, 126.0430
1037.881, 192.3906
1038.987, 162.1152
1040.092, 177.2617
1041.198, 220.5996
1042.303, 95.35547
1043.408, 149.6387
1044.514, 232.3770
1045.618, 210.7227
1046.723, 44.71875
1047.828, 33.70703
1048.932, 9.634766
1050.037, 30.14844
1051.141, 14.88281
1052.245, 43.06250
1053.349, 56.65820
1054.452, 293.4453
1055.556, 76.19141
1056.659, 170.2832
1057.762, 19.24414
1058.865, 45.66016
1059.968, 85.02930
1061.071, 157.9922
1062.174, 234.3496
1063.276, 25.41602
1064.378, 198.2109
1065.480, 41.60352
1066.582, 62.47852
1067.684, 129.5605
1068.786, 92.50000
1069.887, 149.0254
1070.988, 83.31055
1072.090, 169.0078
1073.191, 69.04492
1074.291, 277.5645
1075.392, 236.1660
1076.493, 111.6895
1077.593, 14.24609
1078.693, 359.0098
1079.793, 131.3125
1080.893, 240.8535
1081.993, 53.48828
1083.092, 215.4453
1084.192, 16.47266
1085.291, 219.8691
1086.390, 175.9375
1087.489, 161.1523
1088.588, 68.47461
1089.686, 123.4590
1090.785, 76.49219
1091.883, 73.00391
1092.981, 307.0801
1094.079, 114.0898
1095.177, 227.9824
1096.275, 169.7383
1097.373, 148.6426
1098.470, 394.9668
1099.567, 84.45508
1100.664, 139.0371
1101.761, 306.9707
1102.858, 120.5312
1103.954, 119.1680
1105.051, 74.73828
1106.147, 1.195313
1107.243, 57.42773
1108.339, 0.0000000E+00
##END=



