##NAMES=Pectolite
##RRUFFID=R060101
##IDEAL CHEMISTRY=NaCa_2_Si_3_O_8_(OH)
##LOCALITY=West Patterson, New Jersey, USA
##OWNER=RRUFF
##SOURCE=University of Arizona Mineral Museum
##DESCRIPTION=Tufts of white acicular sprays
##STATUS=The identification of this mineral has been confirmed by X-ray diffraction and chemical analysis
##URL=rruff.info/R060101
##MEASURED CHEMISTRY=Na_1.02_Ca_2.00_Si_2.99_O_8_(OH)
##PIN_ID=L00594
##ORIENTATION=Laser parallel to (1 0 1). Fiducial mark perpendicular to laser is parallel to b [0 1 0]
121.4100, 0.0000000E+00
122.6480, 3.328735
123.8850, 30.65405
125.1230, 10.29150
126.3600, 0.8619380
127.5960, 33.65552
128.8330, 12.84473
130.0700, 58.18140
131.3060, 50.66455
132.5420, 3.368042
133.7780, 44.16382
135.0140, 80.97876
136.2500, 25.80835
137.4850, 35.68042
138.7200, 60.62354
139.9550, 44.61047
141.1900, 73.00952
142.4250, 99.52441
143.6600, 62.62061
144.8940, 80.62463
146.1280, 74.63379
147.3620, 64.63135
148.5960, 108.6105
149.8300, 87.59924
151.0630, 72.61194
152.2960, 85.73401
153.5300, 102.2382
154.7620, 66.68884
155.9950, 74.08655
157.2280, 35.41418
158.4600, 29.73730
159.6920, 19.89624
160.9250, 9.118896
162.1560, 17.84302
163.3880, 9.812500
164.6200, 0.6380620
165.8510, 11.02673
167.0820, 43.16382
168.3130, 65.43909
169.5440, 67.29382
170.7750, 29.72620
172.0050, 69.48315
173.2350, 76.26111
174.4650, 41.94727
175.6950, 87.14465
176.9250, 76.26758
178.1550, 73.36975
179.3840, 36.99597
180.6130, 46.94885
181.8420, 43.24744
183.0710, 105.4229
184.3000, 66.54626
185.5280, 119.6816
186.7570, 93.75623
187.9850, 121.7001
189.2130, 72.27161
190.4400, 81.14062
191.6680, 57.38574
192.8960, 50.66064
194.1230, 45.79517
195.3500, 52.82715
196.5770, 57.73376
197.8030, 61.63806
199.0300, 113.5398
200.2560, 20.43164
201.4830, 48.44055
202.7090, 34.65845
203.9340, 92.59338
205.1600, 84.28870
206.3860, 61.87964
207.6110, 19.53247
208.8360, 17.75952
210.0610, 47.85266
211.2860, 85.83093
212.5100, 41.47229
213.7350, 81.24060
214.9590, 32.56274
216.1830, 73.08496
217.4070, 77.10535
218.6310, 33.00964
219.8540, 43.98364
221.0780, 84.27917
222.3010, 81.10852
223.5240, 127.0962
224.7470, 61.26611
225.9690, 125.1177
227.1920, 87.52234
228.4140, 21.86096
229.6360, 89.03076
230.8580, 74.00366
232.0800, 27.57019
233.3020, 39.88806
234.5230, 58.05347
235.7440, 13.86267
236.9650, 32.22949
238.1860, 55.14600
239.4070, 52.16797
240.6280, 14.86658
241.8480, 55.37830
243.0680, 26.08484
244.2880, 7.709839
245.5080, 21.75439
246.7280, 22.89758
247.9470, 75.92358
249.1660, 94.59485
250.3860, 58.33447
251.6040, 5.728149
252.8230, 22.68372
254.0420, 53.39844
255.2600, 83.88037
256.4790, 29.83545
257.6970, 58.69727
258.9150, 18.98291
260.1320, 82.18384
261.3500, 62.22314
262.5670, 110.2012
263.7840, 51.27783
265.0010, 67.27734
266.2180, 87.27930
267.4350, 75.19702
268.6510, 134.8945
269.8680, 97.49951
271.0840, 131.2996
272.3000, 161.0378
273.5160, 130.2354
274.7310, 163.0720
275.9470, 143.6292
277.1620, 134.3176
278.3770, 143.8938
279.5920, 151.5325
280.8070, 79.25415
282.0210, 93.81641
283.2360, 53.35254
284.4500, 2.832764
285.6640, 68.20215
286.8780, 60.66235
288.0920, 18.30322
289.3050, 66.87329
290.5180, 13.12109
291.7320, 29.31079
292.9450, 48.76172
294.1570, 61.18604
295.3700, 74.95459
296.5830, 91.33398
297.7950, 63.47827
299.0070, 106.8945
300.2190, 66.16870
301.4310, 37.18335
302.6420, 34.32886
303.8540, 0.6591800
305.0650, 2.6123000E-02
306.2760, 30.92676
307.4870, 80.02734
308.6980, 63.99878
309.9080, 13.00684
311.1190, 42.04053
312.3290, 113.9175
313.5390, 70.33691
314.7490, 108.0820
315.9580, 83.09839
317.1680, 84.05664
318.3770, 61.95508
319.5860, 50.62231
320.7950, 90.26807
322.0040, 95.22021
323.2130, 96.05713
324.4210, 62.51001
325.6290, 72.98828
326.8380, 52.63989
328.0460, 92.33008
329.2530, 83.98389
330.4610, 28.64258
331.6680, 49.20239
332.8760, 18.38770
334.0830, 64.82202
335.2890, 9.172363
336.4960, 0.4663090
337.7030, 94.51318
338.9090, 42.58813
340.1150, 8.791748
341.3210, 17.79053
342.5270, 24.75464
343.7330, 36.98853
344.9380, 40.14575
346.1440, 43.32471
347.3490, 40.36963
348.5540, 103.1926
349.7590, 4.413330
350.9630, 49.54053
352.1680, 82.29077
353.3720, 28.94580
354.5760, 62.58813
355.7800, 21.59888
356.9840, 62.59155
358.1870, 78.03320
359.3910, 68.79395
360.5940, 102.3157
361.7970, 108.0981
363.0000, 52.71118
364.2030, 51.37109
365.4050, 51.76709
366.6080, 59.89014
367.8100, 90.38257
369.0120, 56.85620
370.2140, 20.81226
371.4150, 36.88672
372.6170, 39.24780
373.8180, 21.30005
375.0190, 77.63867
376.2200, 35.35596
377.4210, 21.36401
378.6220, 71.68359
379.8220, 67.76489
381.0230, 55.47388
382.2230, 13.60059
383.4230, 20.26660
384.6220, 30.16284
385.8220, 42.93359
387.0220, 48.69604
388.2210, 116.1589
389.4200, 74.75806
390.6190, 42.93018
391.8180, 3.021729
393.0160, 70.66089
394.2150, 17.46997
395.4130, 52.07007
396.6110, 46.43481
397.8090, 44.90674
399.0060, 81.47363
400.2040, 68.24341
401.4010, 64.71484
402.5980, 68.35107
403.7950, 33.44141
404.9920, 10.14966
406.1890, 40.96411
407.3860, 77.33057
408.5820, 21.54590
409.7780, 40.74243
410.9740, 68.97290
412.1700, 90.21655
413.3650, 91.45508
414.5610, 33.62646
415.7560, 44.72656
416.9510, 6.246582
418.1460, 15.33374
419.3410, 78.58740
420.5360, 43.35229
421.7300, 66.11279
422.9240, 41.99683
424.1180, 22.49414
425.3120, 56.23218
426.5060, 58.12549
427.7000, 68.83154
428.8930, 90.12939
430.0860, 63.87354
431.2790, 15.28174
432.4720, 26.66113
433.6650, 5.026367
434.8580, 45.86646
436.0500, 35.93726
437.2420, 36.99609
438.4340, 84.03247
439.6260, 13.17773
440.8180, 0.7778320
442.0090, 17.23486
443.2010, 45.52124
444.3920, 101.5342
445.5830, 64.37573
446.7740, 14.01685
447.9640, 11.83789
449.1550, 97.35986
450.3450, 43.54199
451.5350, 76.32666
452.7250, 52.64746
453.9150, 26.88037
455.1050, 26.94409
456.2940, 2.267090
457.4830, 8.489746
458.6720, 34.07788
459.8610, 41.15381
461.0500, 49.33057
462.2390, 98.27319
463.4270, 96.95654
464.6150, 17.14648
465.8040, 38.42065
466.9910, 7.552246
468.1790, 110.1912
469.3670, 62.08130
470.5540, 46.01367
471.7410, 42.72144
472.9280, 26.34155
474.1150, 43.73682
475.3020, 125.8062
476.4890, 59.22339
477.6750, 72.42798
478.8610, 62.30762
480.0470, 6.236572
481.2330, 118.1299
482.4190, 76.21704
483.6040, 123.0940
484.7900, 124.9856
485.9750, 54.05811
487.1600, 65.96777
488.3450, 22.35938
489.5290, 75.30859
490.7140, 107.1709
491.8980, 24.03394
493.0820, 38.39697
494.2660, 118.7673
495.4500, 95.13916
496.6340, 88.33105
497.8170, 23.03052
499.0010, 30.98193
500.1840, 136.0522
501.3670, 69.39062
502.5500, 89.11133
503.7320, 48.20557
504.9150, 80.98682
506.0970, 31.24023
507.2790, 96.55762
508.4610, 5.311035
509.6430, 76.79150
510.8250, 72.96436
512.0060, 182.9507
513.1870, 151.1650
514.3680, 73.53662
515.5490, 92.29297
516.7300, 59.91504
517.9110, 3.287109
519.0910, 13.27148
520.2710, 68.56152
521.4510, 69.80225
522.6310, 105.9316
523.8110, 63.32520
524.9910, 89.32080
526.1700, 70.52100
527.3490, 54.77588
528.5280, 88.93262
529.7070, 140.0747
530.8860, 63.38867
532.0650, 19.30615
533.2430, 23.17725
534.4210, 84.15381
535.5990, 46.84180
536.7770, 64.12549
537.9550, 55.90430
539.1320, 39.13086
540.3100, 37.89160
541.4870, 10.65088
542.6640, 20.36426
543.8410, 0.5283200
545.0170, 81.12500
546.1940, 59.32568
547.3700, 99.17627
548.5470, 54.23877
549.7230, 46.68994
550.8980, 56.33740
552.0740, 59.21680
553.2500, 35.06006
554.4250, 40.95117
555.6000, 47.91504
556.7750, 55.76855
557.9500, 64.01562
559.1250, 75.16797
560.2990, 74.55420
561.4730, 97.14502
562.6480, 88.54150
563.8220, 90.37500
564.9950, 91.22949
566.1690, 48.19482
567.3430, 15.61035
568.5160, 21.66748
569.6890, 24.17383
570.8620, 0.9990230
572.0350, 55.82471
573.2070, 9.579590
574.3800, 63.09766
575.5520, 69.87354
576.7240, 59.32324
577.8960, 70.40674
579.0680, 77.42578
580.2400, 54.16797
581.4110, 83.31982
582.5830, 50.78955
583.7540, 15.85645
584.9250, 30.72363
586.0950, 31.95703
587.2660, 65.82324
588.4370, 8.605957
589.6070, 56.52881
590.7770, 138.0625
591.9470, 31.85205
593.1170, 115.0469
594.2860, 73.58203
595.4560, 14.67969
596.6250, 112.8481
597.7940, 11.77295
598.9630, 8.231934
600.1320, 111.2407
601.3000, 76.09668
602.4690, 97.95557
603.6370, 136.6431
604.8050, 43.61230
605.9730, 15.95166
607.1410, 63.74023
608.3090, 83.69482
609.4760, 47.03516
610.6430, 4.699707
611.8100, 86.69141
612.9770, 86.98877
614.1440, 73.16699
615.3110, 158.9209
616.4770, 33.06104
617.6430, 118.1343
618.8090, 126.2671
619.9750, 13.66553
621.1410, 69.72998
622.3070, 72.04932
623.4720, 73.54102
624.6370, 69.49219
625.8020, 21.07617
626.9670, 59.31641
628.1320, 9.248047
629.2970, 30.98828
630.4610, 35.98486
631.6250, 86.25781
632.7890, 73.24023
633.9530, 123.8354
635.1170, 143.9170
636.2810, 121.0664
637.4440, 20.80859
638.6070, 145.3506
639.7700, 145.3809
640.9330, 84.22266
642.0960, 210.1123
643.2590, 141.1230
644.4210, 208.0684
645.5830, 269.5840
646.7450, 239.6846
647.9070, 312.0518
649.0690, 360.9951
650.2310, 396.3438
651.3920, 528.1714
652.5530, 509.3311
653.7140, 479.8154
654.8750, 459.6040
656.0360, 367.1143
657.1970, 293.5537
658.3570, 287.1426
659.5170, 158.4204
660.6770, 130.3818
661.8370, 139.2275
662.9970, 50.43848
664.1570, 54.97705
665.3160, 34.54102
666.4750, 17.77979
667.6340, 40.09521
668.7930, 36.21729
669.9520, 53.14893
671.1110, 92.74170
672.2690, 60.77832
673.4270, 149.6841
674.5850, 106.9678
675.7430, 136.5273
676.9010, 38.69092
678.0590, 41.44434
679.2160, 119.0225
680.3730, 30.58545
681.5300, 17.02734
682.6870, 126.4092
683.8440, 250.4536
685.0010, 57.36035
686.1570, 167.4077
687.3130, 69.49854
688.4690, 10.68604
689.6250, 120.1499
690.7810, 69.29736
691.9370, 91.59033
693.0920, 86.61865
694.2470, 55.45752
695.4020, 17.37012
696.5570, 16.94922
697.7120, 11.57275
698.8670, 0.7680660
700.0210, 56.26465
701.1750, 52.83545
702.3290, 124.9355
703.4830, 5.037598
704.6370, 88.78662
705.7910, 14.70654
706.9440, 151.3608
708.0970, 113.4639
709.2510, 117.5327
710.4030, 85.95459
711.5560, 33.83008
712.7090, 85.74219
713.8610, 137.0137
715.0140, 91.94531
716.1660, 154.2363
717.3180, 24.75830
718.4690, 152.3438
719.6210, 67.62793
720.7730, 178.4131
721.9240, 59.97070
723.0750, 118.6641
724.2260, 70.74072
725.3770, 104.1416
726.5270, 107.9414
727.6780, 2.448242
728.8280, 140.9561
729.9780, 32.45312
731.1280, 186.0293
732.2780, 64.73633
733.4280, 8.356445
734.5770, 53.12402
735.7260, 188.1514
736.8760, 178.4795
738.0250, 89.41992
739.1730, 116.5977
740.3220, 107.2920
741.4700, 180.7939
742.6190, 96.06250
743.7670, 150.2041
744.9150, 46.56738
746.0630, 75.71094
747.2100, 192.1367
748.3580, 49.75000
749.5050, 2.238281
750.6520, 87.31445
751.7990, 82.99121
752.9460, 187.7207
754.0930, 160.8838
755.2390, 98.81934
756.3860, 80.52344
757.5320, 308.0957
758.6780, 57.17285
759.8240, 266.8037
760.9690, 165.8066
762.1150, 86.77441
763.2600, 158.5889
764.4060, 153.4102
765.5510, 101.6143
766.6950, 85.51465
767.8400, 143.0225
768.9850, 160.9180
770.1290, 94.80469
771.2730, 183.6357
772.4170, 130.2393
773.5610, 72.60840
774.7050, 146.4414
775.8480, 109.2842
776.9920, 22.20508
778.1350, 117.8359
779.2780, 41.99121
780.4210, 232.9082
781.5640, 189.6318
782.7060, 24.88672
783.8490, 102.8555
784.9910, 88.53125
786.1330, 38.88867
787.2750, 58.80469
788.4170, 33.30859
789.5580, 170.3340
790.7000, 39.96973
791.8410, 117.5654
792.9820, 186.0205
794.1230, 153.2158
795.2640, 37.97949
796.4040, 110.3359
797.5450, 38.94531
798.6850, 245.9805
799.8250, 175.8867
800.9650, 283.2568
802.1050, 66.23926
803.2450, 186.7949
804.3840, 169.4629
805.5230, 91.07812
806.6630, 168.6064
807.8020, 151.8779
808.9400, 220.5791
810.0790, 234.7480
811.2170, 186.1465
812.3560, 76.62500
813.4940, 157.7549
814.6320, 43.30273
815.7700, 236.6260
816.9070, 223.0137
818.0450, 203.5195
819.1820, 205.0781
820.3190, 244.8721
821.4560, 105.9414
822.5930, 64.85352
823.7300, 280.0859
824.8670, 191.6074
826.0030, 99.01367
827.1390, 159.4609
828.2750, 105.7217
829.4110, 122.4502
830.5470, 151.3564
831.6820, 117.3984
832.8180, 184.9189
833.9530, 172.7881
835.0880, 225.5342
836.2230, 149.8955
837.3580, 131.7510
838.4920, 212.9189
839.6270, 191.5771
840.7610, 252.1338
841.8950, 146.6807
843.0290, 153.5205
844.1630, 255.4268
845.2960, 255.8408
846.4300, 117.9287
847.5630, 78.61328
848.6960, 208.5957
849.8290, 153.9424
850.9620, 219.5166
852.0940, 105.0879
853.2270, 272.4004
854.3590, 56.11133
855.4910, 266.5898
856.6230, 153.4746
857.7550, 153.0068
858.8870, 300.8438
860.0180, 201.2412
861.1500, 340.5215
862.2810, 254.9277
863.4120, 166.2393
864.5430, 191.4873
865.6730, 8.014648
866.8040, 178.4600
867.9340, 206.9131
869.0640, 2.747070
870.1940, 133.9570
871.3240, 297.6230
872.4540, 2.509766
873.5830, 168.6855
874.7130, 191.8262
875.8420, 153.4092
876.9710, 148.0674
878.1000, 123.2275
879.2290, 77.22461
880.3570, 170.3105
881.4860, 62.53418
882.6140, 173.6719
883.7420, 93.63086
884.8700, 2.511719
885.9980, 94.50781
887.1250, 66.98438
888.2530, 1.593750
889.3800, 158.2422
890.5070, 23.46875
891.6340, 176.8125
892.7610, 189.6006
893.8880, 85.59180
895.0140, 310.0264
896.1400, 201.4541
897.2670, 42.22852
898.3930, 192.8652
899.5180, 23.20996
900.6440, 80.23730
901.7700, 198.8105
902.8950, 124.5020
904.0200, 66.28027
905.1450, 79.25781
906.2700, 255.8379
907.3950, 110.4570
908.5190, 145.7178
909.6440, 57.05078
910.7680, 333.2002
911.8920, 173.3643
913.0160, 5.800781
914.1400, 239.7705
915.2630, 154.9297
916.3870, 115.9248
917.5100, 50.83203
918.6330, 38.19531
919.7560, 31.47852
920.8790, 55.30371
922.0010, 36.47754
923.1240, 13.50781
924.2460, 5.239258
925.3680, 71.19238
926.4900, 9.148438
927.6120, 66.71680
928.7340, 84.00000
929.8550, 122.1592
930.9760, 46.60352
932.0980, 58.53906
933.2190, 91.65430
934.3390, 97.82422
935.4600, 51.69238
936.5810, 152.0801
937.7010, 49.73730
938.8210, 131.8418
939.9410, 137.7480
941.0610, 27.20898
942.1810, 173.8574
943.3010, 102.3291
944.4200, 148.9141
945.5390, 154.4287
946.6580, 92.68750
947.7770, 0.2255860
948.8960, 14.94727
950.0150, 42.04492
951.1330, 11.13965
952.2510, 95.46582
953.3690, 250.8740
954.4870, 79.43066
955.6050, 21.23535
956.7230, 121.3154
957.8400, 25.40820
958.9580, 35.42383
960.0750, 104.9375
961.1920, 172.9297
962.3090, 136.0625
963.4250, 254.8496
964.5420, 176.5820
965.6580, 321.3125
966.7740, 373.7852
967.8900, 253.4141
969.0060, 240.8789
970.1220, 280.4531
971.2380, 213.6016
972.3530, 108.5664
973.4680, 267.7617
974.5830, 383.7637
975.6980, 41.92969
976.8130, 246.5566
977.9280, 352.1367
979.0420, 165.2441
980.1560, 216.9668
981.2710, 257.0449
982.3850, 109.7871
983.4980, 80.18359
984.6120, 261.2188
985.7260, 192.7188
986.8390, 82.20312
987.9520, 274.9258
989.0650, 43.96094
990.1780, 53.04688
991.2910, 162.5879
992.4030, 181.3555
993.5160, 94.01758
994.6280, 71.91992
995.7400, 252.3789
996.8520, 252.9902
997.9640, 105.5078
999.0750, 196.1738
1000.187, 81.18555
1001.298, 187.0098
1002.409, 82.43945
1003.520, 100.0156
1004.631, 155.3945
1005.741, 210.4922
1006.852, 103.0020
1007.962, 51.20703
1009.072, 126.6973
1010.182, 88.34961
1011.292, 237.4941
1012.402, 164.4219
1013.511, 165.9277
1014.621, 241.9824
1015.730, 262.0508
1016.839, 150.5215
1017.948, 231.3516
1019.056, 282.6738
1020.165, 357.3223
1021.273, 220.3613
1022.382, 301.3340
1023.490, 73.47266
1024.598, 187.9668
1025.706, 257.4805
1026.813, 18.81250
1027.921, 345.6426
1029.028, 4.570313
1030.135, 36.97852
1031.242, 139.8516
1032.349, 299.6973
1033.456, 58.38867
1034.562, 64.35352
1035.668, 27.44922
1036.775, 266.4688
1037.881, 168.4727
1038.987, 42.70117
1040.092, 249.0332
1041.198, 27.24414
1042.303, 123.4062
1043.408, 211.5508
1044.514, 142.1582
1045.618, 163.0254
1046.723, 139.0625
1047.828, 289.7539
1048.932, 189.6836
1050.037, 136.7285
1051.141, 113.3477
1052.245, 46.06250
1053.349, 264.2363
1054.452, 24.48242
1055.556, 256.0898
1056.659, 333.4219
1057.762, 292.5918
1058.865, 361.0176
1059.968, 73.81836
1061.071, 259.7910
1062.174, 138.4570
1063.276, 15.90820
1064.378, 103.4648
1065.480, 107.4473
1066.582, 93.86133
1067.684, 175.6465
1068.786, 191.2695
1069.887, 244.2871
1070.988, 208.3789
1072.090, 198.2266
1073.191, 211.5254
1074.291, 275.2461
1075.392, 244.1074
1076.493, 164.0254
1077.593, 248.5547
1078.693, 104.6348
1079.793, 150.5977
1080.893, 228.9785
1081.993, 207.6758
1083.092, 92.65430
1084.192, 324.0078
1085.291, 207.9590
1086.390, 14.50977
1087.489, 116.3223
1088.588, 298.9824
1089.686, 176.2344
1090.785, 141.8340
1091.883, 288.2285
1092.981, 135.4375
1094.079, 190.3066
1095.177, 98.54492
1096.275, 223.0410
1097.373, 29.33203
1098.470, 256.6758
1099.567, 405.0488
1100.664, 169.2734
1101.761, 270.2852
1102.858, 124.4023
1103.954, 98.75586
1105.051, 20.56836
1106.147, 11.17969
1107.243, 115.9180
1108.339, 216.8438
1109.435, 248.6445
1110.531, 0.8242190
1111.626, 0.0000000E+00
##END=



