##NAMES=Pectolite
##RRUFFID=R050396
##IDEAL CHEMISTRY=NaCa_2_Si_3_O_8_(OH)
##LOCALITY=Jeffrey Quarry, Asbestos, Quebec, Canada
##OWNER=RRUFF
##SOURCE=Marcus Origlieri
##DESCRIPTION=Colorless to gray columnar blocky crystals
##STATUS=The identification of this mineral has been confirmed by X-ray diffraction and chemical analysis
##URL=rruff.info/R050396
##MEASURED CHEMISTRY=Na_1.00_Ca_2.00_Si_3.00_O_8_(OH)
##PIN_ID=M00143
##ORIENTATION=Laser parallel to -b* (0 -1 0). Fiducial mark perpendicular to laser is parallel to c [0 0 1]
135.0140, 0.0000000E+00
136.2500, 1.646484
137.4850, 157.3828
138.7200, 150.2246
139.9550, 377.3652
141.1900, 267.0625
142.4250, 433.0371
143.6600, 422.9062
144.8940, 462.8301
146.1280, 468.1914
147.3620, 482.0469
148.5960, 408.3984
149.8300, 584.2344
151.0630, 478.5312
152.2960, 488.5020
153.5300, 206.5840
154.7620, 300.0566
155.9950, 150.9961
157.2280, 42.36133
158.4600, 174.1094
159.6920, 225.2090
160.9250, 28.62500
162.1560, 163.3496
163.3880, 87.35742
164.6200, 235.6309
165.8510, 209.1445
167.0820, 154.8848
168.3130, 65.17188
169.5440, 20.03516
170.7750, 301.2891
172.0050, 11.20703
173.2350, 286.4668
174.4650, 116.2910
175.6950, 139.2520
176.9250, 189.3457
178.1550, 284.5547
179.3840, 216.8789
180.6130, 391.3066
181.8420, 206.8320
183.0710, 175.4434
184.3000, 291.1406
185.5280, 204.9199
186.7570, 361.7734
187.9850, 320.9570
189.2130, 218.1914
190.4400, 189.4746
191.6680, 228.8105
192.8960, 235.2148
194.1230, 252.7500
195.3500, 170.3164
196.5770, 325.9160
197.8030, 70.54492
199.0300, 398.2012
200.2560, 155.9082
201.4830, 200.6660
202.7090, 239.4668
203.9340, 323.3672
205.1600, 341.4590
206.3860, 195.5645
207.6110, 237.6875
208.8360, 256.9199
210.0610, 207.1523
211.2860, 220.4062
212.5100, 249.6523
213.7350, 198.8867
214.9590, 241.0605
216.1830, 383.3594
217.4070, 252.5977
218.6310, 301.8574
219.8540, 251.1934
221.0780, 392.5371
222.3010, 249.8828
223.5240, 466.2363
224.7470, 395.5918
225.9690, 353.9199
227.1920, 223.2598
228.4140, 315.6113
229.6360, 343.9785
230.8580, 469.3516
232.0800, 403.7363
233.3020, 314.1289
234.5230, 275.5352
235.7440, 261.9766
236.9650, 285.4258
238.1860, 207.8789
239.4070, 310.2930
240.6280, 316.6230
241.8480, 378.9570
243.0680, 63.33203
244.2880, 158.6797
245.5080, 139.2695
246.7280, 146.6445
247.9470, 156.0312
249.1660, 128.5996
250.3860, 98.04102
251.6040, 285.4980
252.8230, 209.8789
254.0420, 294.2598
255.2600, 73.63672
256.4790, 243.0234
257.6970, 119.4121
258.9150, 284.7930
260.1320, 444.1680
261.3500, 290.5371
262.5670, 188.9004
263.7840, 242.3594
265.0010, 325.8340
266.2180, 63.38672
267.4350, 529.6113
268.6510, 485.3457
269.8680, 592.7227
271.0840, 388.7051
272.3000, 428.1914
273.5160, 400.6152
274.7310, 402.8711
275.9470, 423.2988
277.1620, 350.0488
278.3770, 243.6035
279.5920, 293.3652
280.8070, 467.8770
282.0210, 350.9043
283.2360, 517.4043
284.4500, 340.5859
285.6640, 252.4121
286.8780, 253.5605
288.0920, 382.6543
289.3050, 306.6719
290.5180, 209.7930
291.7320, 103.7324
292.9450, 167.8359
294.1570, 272.3867
295.3700, 171.9551
296.5830, 139.3750
297.7950, 259.4785
299.0070, 205.9082
300.2190, 353.0215
301.4310, 474.9043
302.6420, 197.6543
303.8540, 173.3926
305.0650, 86.93555
306.2760, 95.64648
307.4870, 444.3301
308.6980, 164.7012
309.9080, 367.1582
311.1190, 294.5371
312.3290, 290.1309
313.5390, 419.5215
314.7490, 361.1484
315.9580, 275.2363
317.1680, 313.3359
318.3770, 436.8652
319.5860, 442.9512
320.7950, 230.7129
322.0040, 131.4492
323.2130, 360.4629
324.4210, 152.9043
325.6290, 252.0508
326.8380, 204.4980
328.0460, 317.1641
329.2530, 202.7812
330.4610, 122.7988
331.6680, 205.7500
332.8760, 348.6289
334.0830, 216.2363
335.2890, 162.6836
336.4960, 330.7637
337.7030, 119.2051
338.9090, 155.7559
340.1150, 170.4316
341.3210, 141.1406
342.5270, 139.4238
343.7330, 131.9102
344.9380, 86.28125
346.1440, 47.84570
347.3490, 226.2383
348.5540, 43.83008
349.7590, 144.4434
350.9630, 218.0195
352.1680, 60.54102
353.3720, 109.9707
354.5760, 16.73047
355.7800, 152.7676
356.9840, 190.5137
358.1870, 32.70898
359.3910, 176.1094
360.5940, 103.5996
361.7970, 370.8008
363.0000, 28.70117
364.2030, 63.47852
365.4050, 205.3535
366.6080, 44.49609
367.8100, 344.8125
369.0120, 222.5410
370.2140, 166.6426
371.4150, 300.7207
372.6170, 106.8535
373.8180, 322.5352
375.0190, 238.2383
376.2200, 274.9453
377.4210, 129.6035
378.6220, 319.5840
379.8220, 327.5488
381.0230, 166.4980
382.2230, 263.4277
383.4230, 266.4336
384.6220, 196.4785
385.8220, 200.4688
387.0220, 141.2910
388.2210, 185.3340
389.4200, 89.27539
390.6190, 7.964844
391.8180, 82.00977
393.0160, 159.2090
394.2150, 64.91211
395.4130, 120.6348
396.6110, 22.36328
397.8090, 255.8516
399.0060, 180.8262
400.2040, 46.33203
401.4010, 315.5566
402.5980, 144.9102
403.7950, 109.4980
404.9920, 16.88281
406.1890, 53.64062
407.3860, 34.03906
408.5820, 78.89258
409.7780, 84.58008
410.9740, 261.1211
412.1700, 200.0273
413.3650, 100.5840
414.5610, 279.7871
415.7560, 26.50195
416.9510, 248.0840
418.1460, 81.28711
419.3410, 181.1582
420.5360, 131.1738
421.7300, 55.91211
422.9240, 76.48828
424.1180, 31.96680
425.3120, 213.9941
426.5060, 136.3457
427.7000, 58.68359
428.8930, 107.5703
430.0860, 54.06641
431.2790, 87.05078
432.4720, 122.6602
433.6650, 110.8184
434.8580, 165.9180
436.0500, 137.3945
437.2420, 40.47461
438.4340, 46.15430
439.6260, 91.89648
440.8180, 188.4414
442.0090, 100.9004
443.2010, 182.4805
444.3920, 19.24219
445.5830, 32.43164
446.7740, 63.23633
447.9640, 116.9043
449.1550, 82.58398
450.3450, 94.78125
451.5350, 174.7109
452.7250, 160.5391
453.9150, 205.9844
455.1050, 158.8613
456.2940, 260.2500
457.4830, 239.8633
458.6720, 308.2773
459.8610, 56.99219
461.0500, 162.3652
462.2390, 64.45117
463.4270, 143.8535
464.6150, 152.5469
465.8040, 89.00977
466.9910, 257.1211
468.1790, 61.79688
469.3670, 277.3477
470.5540, 180.2461
471.7410, 193.7324
472.9280, 100.0840
474.1150, 117.1777
475.3020, 135.4375
476.4890, 2.746094
477.6750, 363.7148
478.8610, 89.14844
480.0470, 358.7344
481.2330, 217.5039
482.4190, 187.4492
483.6040, 258.2383
484.7900, 197.8496
485.9750, 215.7559
487.1600, 301.6641
488.3450, 195.3066
489.5290, 235.8242
490.7140, 187.5430
491.8980, 181.4258
493.0820, 189.0547
494.2660, 201.2812
495.4500, 26.47070
496.6340, 140.5645
497.8170, 72.31836
499.0010, 139.4648
500.1840, 41.44336
501.3670, 218.2500
502.5500, 195.1484
503.7320, 24.99414
504.9150, 188.8164
506.0970, 343.0371
507.2790, 91.72852
508.4610, 318.4199
509.6430, 217.6426
510.8250, 115.2617
512.0060, 261.8457
513.1870, 316.3945
514.3680, 249.9062
515.5490, 115.3828
516.7300, 107.8145
517.9110, 104.2031
519.0910, 112.5469
520.2710, 366.8457
521.4510, 340.1055
522.6310, 426.3242
523.8110, 292.5078
524.9910, 253.6523
526.1700, 229.9062
527.3490, 239.9668
528.5280, 347.9863
529.7070, 219.7539
530.8860, 34.68750
532.0650, 341.5020
533.2430, 226.4453
534.4210, 168.6973
535.5990, 295.6836
536.7770, 274.7422
537.9550, 200.8242
539.1320, 64.23047
540.3100, 196.4180
541.4870, 12.05469
542.6640, 129.1562
543.8410, 94.54297
545.0170, 49.87891
546.1940, 79.08008
547.3700, 12.83984
548.5470, 231.0723
549.7230, 108.4668
550.8980, 36.97852
552.0740, 233.7949
553.2500, 140.7910
554.4250, 219.2324
555.6000, 60.15820
556.7750, 172.0117
557.9500, 190.8340
559.1250, 27.52930
560.2990, 107.9062
561.4730, 69.17383
562.6480, 142.5547
563.8220, 170.4863
564.9950, 190.2637
566.1690, 51.73438
567.3430, 201.1934
568.5160, 56.55664
569.6890, 203.7930
570.8620, 142.3203
572.0350, 260.2363
573.2070, 106.0742
574.3800, 422.1914
575.5520, 126.0215
576.7240, 122.9844
577.8960, 211.8145
579.0680, 63.87109
580.2400, 51.91211
581.4110, 7.447266
582.5830, 71.99219
583.7540, 393.3223
584.9250, 38.00586
586.0950, 232.1016
587.2660, 251.1348
588.4370, 35.07227
589.6070, 239.6699
590.7770, 109.3359
591.9470, 166.7676
593.1170, 17.23438
594.2860, 161.7832
595.4560, 219.6348
596.6250, 14.55078
597.7940, 210.0449
598.9630, 251.9883
600.1320, 173.5117
601.3000, 248.3066
602.4690, 310.0430
603.6370, 226.9219
604.8050, 149.9727
605.9730, 206.7168
607.1410, 53.99414
608.3090, 139.7754
609.4760, 171.5312
610.6430, 81.83203
611.8100, 173.9219
612.9770, 23.00391
614.1440, 251.4238
615.3110, 203.6211
616.4770, 183.8945
617.6430, 251.1602
618.8090, 133.5996
619.9750, 87.63281
621.1410, 51.83008
622.3070, 225.1992
623.4720, 254.3047
624.6370, 350.6914
625.8020, 486.2285
626.9670, 457.1309
628.1320, 258.9082
629.2970, 280.9297
630.4610, 225.8359
631.6250, 173.2910
632.7890, 231.2266
633.9530, 319.0410
635.1170, 319.8574
636.2810, 418.4727
637.4440, 452.9805
638.6070, 529.4980
639.7700, 803.1973
640.9330, 612.7129
642.0960, 861.4199
643.2590, 1059.133
644.4210, 1093.592
645.5830, 1369.828
646.7450, 1563.320
647.9070, 1788.949
649.0690, 2091.920
650.2310, 2042.547
651.3920, 2212.742
652.5530, 2126.463
653.7140, 2177.609
654.8750, 1833.926
656.0360, 1500.369
657.1970, 1254.674
658.3570, 957.8809
659.5170, 697.0723
660.6770, 719.4414
661.8370, 709.0684
662.9970, 608.2695
664.1570, 489.6074
665.3160, 305.1367
666.4750, 350.3574
667.6340, 503.2617
668.7930, 153.1602
669.9520, 494.8203
671.1110, 413.6074
672.2690, 414.7324
673.4270, 208.8516
674.5850, 288.9434
675.7430, 216.9199
676.9010, 248.2773
678.0590, 398.0449
679.2160, 313.9766
680.3730, 306.2832
681.5300, 368.7891
682.6870, 368.3164
683.8440, 553.0371
685.0010, 408.4844
686.1570, 617.5371
687.3130, 454.5781
688.4690, 402.7422
689.6250, 517.2227
690.7810, 378.3848
691.9370, 495.5586
693.0920, 223.3809
694.2470, 295.7188
695.4020, 477.8066
696.5570, 220.6738
697.7120, 134.6777
698.8670, 91.23633
700.0210, 190.4141
701.1750, 77.24414
702.3290, 147.9297
703.4830, 93.89844
704.6370, 214.6836
705.7910, 0.7246090
706.9440, 318.9805
708.0970, 191.8066
709.2510, 225.8145
710.4030, 67.01758
711.5560, 369.1074
712.7090, 301.3164
713.8610, 380.3691
715.0140, 116.4902
716.1660, 458.2461
717.3180, 181.2715
718.4690, 176.4824
719.6210, 90.61523
720.7730, 151.8535
721.9240, 98.49219
723.0750, 320.9922
724.2260, 37.39258
725.3770, 63.04688
726.5270, 20.25391
727.6780, 204.0742
728.8280, 140.2734
729.9780, 195.2402
731.1280, 252.9355
732.2780, 364.9492
733.4280, 220.3398
734.5770, 304.9766
735.7260, 152.4219
736.8760, 298.2578
738.0250, 147.3574
739.1730, 84.26758
740.3220, 75.24023
741.4700, 106.8379
742.6190, 132.2773
743.7670, 65.88672
744.9150, 234.4941
746.0630, 238.4688
747.2100, 75.10742
748.3580, 100.4551
749.5050, 86.35156
750.6520, 87.96289
751.7990, 134.8105
752.9460, 198.4219
754.0930, 184.7129
755.2390, 238.1816
756.3860, 222.4414
757.5320, 153.7559
758.6780, 252.2070
759.8240, 171.0547
760.9690, 189.5430
762.1150, 167.1562
763.2600, 6.890625
764.4060, 246.1777
765.5510, 288.7969
766.6950, 169.4512
767.8400, 17.08984
768.9850, 39.58594
770.1290, 164.5371
771.2730, 133.4180
772.4170, 156.6289
773.5610, 212.1035
774.7050, 144.1602
775.8480, 59.32617
776.9920, 68.30469
778.1350, 229.8750
779.2780, 118.4395
780.4210, 80.34570
781.5640, 64.09961
782.7060, 160.9805
783.8490, 159.8398
784.9910, 185.0879
786.1330, 34.89648
787.2750, 49.52148
788.4170, 6.150391
789.5580, 56.78320
790.7000, 76.26758
791.8410, 100.2832
792.9820, 161.7520
794.1230, 172.1699
795.2640, 186.0254
796.4040, 203.9531
797.5450, 307.0137
798.6850, 233.0391
799.8250, 81.92773
800.9650, 275.8477
802.1050, 193.8027
803.2450, 230.0293
804.3840, 301.0977
805.5230, 326.8203
806.6630, 310.5078
807.8020, 288.6426
808.9400, 233.9922
810.0790, 167.5762
811.2170, 100.1035
812.3560, 24.75781
813.4940, 116.6543
814.6320, 167.1484
815.7700, 299.6992
816.9070, 247.8867
818.0450, 294.6914
819.1820, 338.2910
820.3190, 242.9258
821.4560, 233.5078
822.5930, 118.3477
823.7300, 98.80859
824.8670, 222.2090
826.0030, 36.55078
827.1390, 232.8223
828.2750, 194.0430
829.4110, 169.1953
830.5470, 109.7910
831.6820, 233.6211
832.8180, 144.5859
833.9530, 114.9785
835.0880, 285.9453
836.2230, 8.699219
837.3580, 340.7969
838.4920, 177.5781
839.6270, 237.3809
840.7610, 41.10352
841.8950, 308.8145
843.0290, 157.1621
844.1630, 94.41992
845.2960, 6.082031
846.4300, 72.82031
847.5630, 200.8281
848.6960, 242.9395
849.8290, 219.8477
850.9620, 253.8809
852.0940, 81.90039
853.2270, 330.8164
854.3590, 122.9883
855.4910, 104.0781
856.6230, 388.7480
857.7550, 51.70312
858.8870, 189.3457
860.0180, 304.8535
861.1500, 331.0820
862.2810, 89.44531
863.4120, 152.8301
864.5430, 158.6641
865.6730, 68.17383
866.8040, 174.8496
867.9340, 359.7051
869.0640, 260.8730
870.1940, 98.58008
871.3240, 136.5820
872.4540, 6.095703
873.5830, 312.7617
874.7130, 264.3906
875.8420, 308.2461
876.9710, 204.0078
878.1000, 143.8418
879.2290, 194.7207
880.3570, 88.82812
881.4860, 30.64844
882.6140, 17.14844
883.7420, 84.48828
884.8700, 23.88281
885.9980, 142.1348
887.1250, 349.3359
888.2530, 52.31055
889.3800, 103.2012
890.5070, 16.59961
891.6340, 20.16016
892.7610, 321.5879
893.8880, 227.6797
895.0140, 66.13281
896.1400, 325.1875
897.2670, 70.26953
898.3930, 29.80078
899.5180, 24.71875
900.6440, 357.8262
901.7700, 237.1914
902.8950, 29.87109
904.0200, 209.1191
905.1450, 30.76953
906.2700, 329.8301
907.3950, 327.1055
908.5190, 26.41992
909.6440, 101.9844
910.7680, 300.2109
911.8920, 351.1836
913.0160, 170.9062
914.1400, 158.8398
915.2630, 61.30078
916.3870, 130.8008
917.5100, 218.3438
918.6330, 34.32422
919.7560, 148.0977
920.8790, 239.4180
922.0010, 39.17188
923.1240, 320.8203
924.2460, 158.9414
925.3680, 51.25781
926.4900, 65.03125
927.6120, 33.62891
928.7340, 232.7031
929.8550, 55.97266
930.9760, 153.7031
932.0980, 45.66797
933.2190, 42.58594
934.3390, 283.4180
935.4600, 260.6016
936.5810, 236.5742
937.7010, 121.0000
938.8210, 179.1016
939.9410, 247.2539
941.0610, 2.582031
942.1810, 278.6680
943.3010, 29.93750
944.4200, 21.00000
945.5390, 335.1680
946.6580, 118.6758
947.7770, 17.33984
948.8960, 324.0664
950.0150, 151.6367
951.1330, 204.7148
952.2510, 210.2188
953.3690, 170.4805
954.4870, 377.1758
955.6050, 365.8633
956.7230, 248.2539
957.8400, 342.9141
958.9580, 508.0391
960.0750, 744.5703
961.1920, 501.6758
962.3090, 914.7852
963.4250, 826.5625
964.5420, 834.1953
965.6580, 908.5391
966.7740, 802.3672
967.8900, 946.7812
969.0060, 1101.891
970.1220, 1238.840
971.2380, 1205.367
972.3530, 1262.895
973.4680, 1185.316
974.5830, 1160.352
975.6980, 1115.105
976.8130, 1035.062
977.9280, 1049.750
979.0420, 860.6562
980.1560, 929.5859
981.2710, 791.8828
982.3850, 614.3789
983.4980, 537.2344
984.6120, 549.1992
985.7260, 619.0977
986.8390, 546.7070
987.9520, 678.3867
989.0650, 403.2539
990.1780, 666.8516
991.2910, 306.4102
992.4030, 506.7148
993.5160, 475.5703
994.6280, 740.8672
995.7400, 508.4258
996.8520, 506.0352
997.9640, 720.9102
999.0750, 504.3320
1000.187, 654.4102
1001.298, 493.8867
1002.409, 406.0273
1003.520, 586.8008
1004.631, 485.8477
1005.741, 552.0117
1006.852, 463.0312
1007.962, 212.8711
1009.072, 503.7227
1010.182, 533.4688
1011.292, 472.7266
1012.402, 691.6953
1013.511, 422.8359
1014.621, 771.5078
1015.730, 728.8203
1016.839, 547.9727
1017.948, 737.9805
1019.056, 900.1758
1020.165, 1052.109
1021.273, 1120.984
1022.382, 1176.621
1023.490, 1186.430
1024.598, 1131.398
1025.706, 1131.324
1026.813, 958.4102
1027.921, 791.2305
1029.028, 761.2148
1030.135, 740.5859
1031.242, 752.8984
1032.349, 692.9648
1033.456, 636.8281
1034.562, 275.4414
1035.668, 458.8594
1036.775, 209.2734
1037.881, 59.49219
1038.987, 267.9258
1040.092, 311.5703
1041.198, 310.1445
1042.303, 285.0938
1043.408, 281.6484
1044.514, 245.0039
1045.618, 312.5742
1046.723, 159.4570
1047.828, 147.0820
1048.932, 85.25000
1050.037, 181.9219
1051.141, 60.04688
1052.245, 303.8984
1053.349, 182.4141
1054.452, 141.1016
1055.556, 177.8711
1056.659, 118.8281
1057.762, 239.0469
1058.865, 92.22266
1059.968, 186.5312
1061.071, 117.9453
1062.174, 342.4062
1063.276, 307.1680
1064.378, 237.3086
1065.480, 195.2578
1066.582, 126.1523
1067.684, 116.3203
1068.786, 106.8594
1069.887, 140.6992
1070.988, 237.8594
1072.090, 354.0469
1073.191, 252.6914
1074.291, 452.6406
1075.392, 204.6406
1076.493, 183.6055
1077.593, 84.18750
1078.693, 160.4492
1079.793, 16.99219
1080.893, 21.80469
1081.993, 178.9219
1083.092, 192.0039
1084.192, 48.03906
1085.291, 111.0508
1086.390, 280.0312
1087.489, 10.02344
1088.588, 228.8906
1089.686, 278.7695
1090.785, 137.6445
1091.883, 154.4375
1092.981, 307.2109
1094.079, 52.89453
1095.177, 306.4922
1096.275, 337.0508
1097.373, 288.5820
1098.470, 292.9844
1099.567, 303.0430
1100.664, 87.85156
1101.761, 275.2148
1102.858, 293.5508
1103.954, 174.8555
1105.051, 342.1328
1106.147, 182.7812
1107.243, 321.9961
1108.339, 431.1797
1109.435, 53.65234
1110.531, 313.5117
1111.626, 126.7383
1112.722, 145.9414
1113.817, 219.1758
1114.912, 115.5938
1116.007, 110.6172
1117.101, 149.8164
1118.196, 300.0156
1119.290, 264.0312
1120.385, 241.6016
1121.479, 291.7695
1122.573, 393.9766
1123.666, 307.9297
1124.760, 371.7422
1125.853, 337.8555
1126.947, 11.40625
1128.040, 209.7188
1129.133, 203.7500
1130.226, 96.54297
1131.318, 551.1289
1132.411, 300.7383
1133.503, 406.6094
1134.596, 326.5781
1135.688, 306.0508
1136.780, 468.5625
1137.871, 366.4023
1138.963, 293.4023
1140.054, 54.17188
1141.146, 291.5977
1142.237, 613.5195
1143.328, 300.8320
1144.419, 310.6523
1145.509, 523.9609
1146.600, 430.1602
1147.690, 495.0195
1148.780, 312.9492
1149.870, 494.3750
1150.960, 230.7539
1152.050, 206.8828
1153.139, 469.0742
1154.229, 242.0859
1155.318, 369.1016
1156.407, 255.7070
1157.496, 96.48438
1158.585, 364.5977
1159.674, 281.1367
1160.762, 153.8750
1161.850, 142.4180
1162.939, 167.2266
1164.027, 221.6992
1165.114, 257.1953
1166.202, 383.4570
1167.290, 385.6758
1168.377, 350.0898
1169.464, 485.3320
1170.551, 340.4414
1171.638, 349.0273
1172.725, 75.59375
1173.812, 261.0703
1174.898, 184.5117
1175.984, 560.7734
1177.071, 178.8984
1178.157, 307.1055
1179.242, 503.6094
1180.328, 30.85547
1181.414, 124.9180
1182.499, 373.5234
1183.584, 174.0625
1184.669, 224.3438
1185.754, 478.7148
1186.839, 291.9297
1187.924, 582.4688
1189.008, 592.8867
1190.092, 201.8086
1191.177, 250.4414
1192.260, 16.99609
1193.344, 272.5156
1194.428, 301.3672
1195.512, 158.9453
1196.595, 291.1133
1197.678, 121.8477
1198.761, 106.9766
1199.844, 215.4883
1200.927, 9.503906
1202.009, 0.0000000E+00
##END=



