##NAMES=Pectolite
##RRUFFID=R050396
##IDEAL CHEMISTRY=NaCa_2_Si_3_O_8_(OH)
##LOCALITY=Jeffrey Quarry, Asbestos, Quebec, Canada
##OWNER=RRUFF
##SOURCE=Marcus Origlieri
##DESCRIPTION=Colorless to gray columnar blocky crystals
##STATUS=The identification of this mineral has been confirmed by X-ray diffraction and chemical analysis
##URL=rruff.info/R050396
##MEASURED CHEMISTRY=Na_1.00_Ca_2.00_Si_3.00_O_8_(OH)
##PIN_ID=L00632
##ORIENTATION=Laser parallel to (-1 0 -1). Fiducial mark perpendicular to laser is parallel to b [0 1 0]
111.5030, 0.0000000E+00
112.7420, 38.58252
113.9810, 1.997803
115.2200, 19.82227
116.4580, 118.3472
117.6970, 11.54053
118.9350, 114.7805
120.1730, 184.6428
121.4100, 148.7852
122.6480, 145.9580
123.8850, 121.0288
125.1230, 136.9746
126.3600, 94.55322
127.5960, 162.7515
128.8330, 183.4004
130.0700, 161.4370
131.3060, 153.8101
132.5420, 127.4761
133.7780, 260.4331
135.0140, 318.7485
136.2500, 415.8408
137.4850, 443.1919
138.7200, 527.6050
139.9550, 597.0850
141.1900, 712.5293
142.4250, 947.1455
143.6600, 1143.863
144.8940, 1477.673
146.1280, 1772.568
147.3620, 2059.542
148.5960, 2151.587
149.8300, 2198.696
151.0630, 2272.862
152.2960, 1974.081
153.5300, 1568.348
154.7620, 1203.121
155.9950, 889.4639
157.2280, 581.8486
158.4600, 377.2246
159.6920, 384.8521
160.9250, 266.5620
162.1560, 227.3271
163.3880, 349.5562
164.6200, 134.8501
165.8510, 295.2090
167.0820, 132.6299
168.3130, 211.1074
169.5440, 9.356934
170.7750, 67.39697
172.0050, 34.42676
173.2350, 81.53467
174.4650, 97.65723
175.6950, 51.79150
176.9250, 28.93701
178.1550, 144.0933
179.3840, 218.2593
180.6130, 148.4336
181.8420, 253.6152
183.0710, 310.8042
184.3000, 329.0015
185.5280, 397.1982
186.7570, 344.3760
187.9850, 357.5420
189.2130, 324.7031
190.4400, 205.8638
191.6680, 169.0273
192.8960, 180.1953
194.1230, 98.37109
195.3500, 96.55322
196.5770, 192.7441
197.8030, 8.055664
199.0300, 82.15430
200.2560, 69.37793
201.4830, 186.6221
202.7090, 109.8901
203.9340, 40.18408
205.1600, 49.48877
206.3860, 58.09863
207.6110, 5.653320
208.8360, 40.15527
210.0610, 25.57568
211.2860, 2.939941
212.5100, 9.322266
213.7350, 9.205078
214.9590, 12.07178
216.1830, 47.76953
217.4070, 62.52051
218.6310, 122.3237
219.8540, 120.1299
221.0780, 241.9365
222.3010, 350.7393
223.5240, 397.5425
224.7470, 525.3496
225.9690, 479.1562
227.1920, 530.3584
228.4140, 449.2910
229.6360, 389.8413
230.8580, 321.7910
232.0800, 325.8267
233.3020, 435.3594
234.5230, 432.0137
235.7440, 491.5132
236.9650, 387.0068
238.1860, 271.4941
239.4070, 289.9761
240.6280, 308.4565
241.8480, 324.9346
243.0680, 320.6470
244.2880, 339.0581
245.5080, 301.3530
246.7280, 346.8047
247.9470, 334.2437
249.1660, 308.6714
250.3860, 375.0898
251.6040, 393.5044
252.8230, 418.9224
254.0420, 496.3643
255.2600, 419.8218
256.4790, 604.2759
257.6970, 598.7300
258.9150, 616.4517
260.1320, 766.2095
261.3500, 792.9810
262.5670, 716.9604
263.7840, 836.0229
265.0010, 927.1533
266.2180, 971.3511
267.4350, 1250.598
268.6510, 1351.889
269.8680, 1550.219
271.0840, 1609.582
272.3000, 1683.975
273.5160, 1729.392
274.7310, 1769.833
275.9470, 1806.298
277.1620, 1820.783
278.3770, 1897.286
279.5920, 1837.805
280.8070, 1515.343
282.0210, 1373.897
283.2360, 981.4614
284.4500, 792.0469
285.6640, 595.6592
286.8780, 337.3979
288.0920, 224.2393
289.3050, 279.1816
290.5180, 319.3384
291.7320, 245.4614
292.9450, 197.7021
294.1570, 162.0020
295.3700, 302.2915
296.5830, 258.7754
297.7950, 387.4829
299.0070, 455.7188
300.2190, 445.1792
301.4310, 379.1694
302.6420, 398.5054
303.8540, 377.0059
305.0650, 340.2866
306.2760, 362.7104
307.4870, 485.1763
308.6980, 465.4575
309.9080, 510.6514
311.1190, 705.9395
312.3290, 958.1987
313.5390, 1129.420
314.7490, 1132.517
315.9580, 1307.547
317.1680, 1450.961
318.3770, 1426.162
319.5860, 1271.724
320.7950, 1319.933
322.0040, 1393.802
323.2130, 1430.302
324.4210, 1389.360
325.6290, 1332.993
326.8380, 1226.276
328.0460, 1070.967
329.2530, 887.6074
330.4610, 712.2236
331.6680, 661.8315
332.8760, 374.5776
334.0830, 238.6802
335.2890, 213.6577
336.4960, 175.4434
337.7030, 179.3721
338.9090, 102.9224
340.1150, 60.59229
341.3210, 20.34131
342.5270, 43.84619
343.7330, 8.923340
344.9380, 78.22217
346.1440, 12.66064
347.3490, 87.27979
348.5540, 63.23877
349.7590, 43.86963
350.9630, 15.12402
352.1680, 146.5464
353.3720, 142.7632
354.5760, 104.8433
355.7800, 62.46484
356.9840, 201.6743
358.1870, 151.7441
359.3910, 237.9590
360.5940, 220.1558
361.7970, 201.3340
363.0000, 218.4932
364.2030, 309.6328
365.4050, 408.7534
366.6080, 457.1177
367.8100, 455.5259
369.0120, 648.8228
370.2140, 774.5186
371.4150, 986.3916
372.6170, 1212.566
373.8180, 1558.524
375.0190, 1807.432
376.2200, 2156.296
377.4210, 2702.116
378.6220, 2814.915
379.8220, 2561.692
381.0230, 2072.448
382.2230, 1553.264
383.4230, 1165.978
384.6220, 746.6724
385.8220, 654.5327
387.0220, 383.6260
388.2210, 351.6128
389.4200, 227.2256
390.6190, 210.8037
391.8180, 261.4429
393.0160, 230.2407
394.2150, 217.8848
395.4130, 226.1675
396.6110, 299.2910
397.8090, 365.3779
399.0060, 449.9673
400.2040, 519.2393
401.4010, 670.8711
402.5980, 768.3442
403.7950, 891.8389
404.9920, 1106.181
406.1890, 1373.174
407.3860, 1539.737
408.5820, 1833.098
409.7780, 2183.315
410.9740, 2433.455
412.1700, 2744.392
413.3650, 2924.928
414.5610, 2891.507
415.7560, 2677.385
416.9510, 2312.133
418.1460, 1778.133
419.3410, 1454.482
420.5360, 1149.620
421.7300, 878.5610
422.9240, 771.5952
424.1180, 590.1104
425.3120, 449.7139
426.5060, 341.6782
427.7000, 210.5029
428.8930, 204.7134
430.0860, 166.3096
431.2790, 153.0425
432.4720, 132.1621
433.6650, 83.94531
434.8580, 94.80713
436.0500, 69.93555
437.2420, 58.71436
438.4340, 63.82520
439.6260, 19.65674
440.8180, 10.96143
442.0090, 15.15381
443.2010, 2.588867
444.3920, 8.562988
445.5830, 78.89551
446.7740, 2.369629
447.9640, 10.25488
449.1550, 3.180664
450.3450, 59.56006
451.5350, 94.63574
452.7250, 9.769531
453.9150, 95.66797
455.1050, 103.6797
456.2940, 113.5151
457.4830, 144.3452
458.6720, 117.0093
459.8610, 69.91016
461.0500, 120.8086
462.2390, 36.84766
463.4270, 121.9570
464.6150, 80.55469
465.8040, 51.98047
466.9910, 174.5176
468.1790, 240.5625
469.3670, 101.9551
470.5540, 243.1113
471.7410, 254.0361
472.9280, 314.8730
474.1150, 319.9531
475.3020, 226.3770
476.4890, 140.5361
477.6750, 169.2461
478.8610, 213.5859
480.0470, 177.9873
481.2330, 272.3760
482.4190, 236.6729
483.6040, 215.7129
484.7900, 198.4014
485.9750, 168.2197
487.1600, 178.1006
488.3450, 159.2305
489.5290, 219.6094
490.7140, 250.2559
491.8980, 323.5664
493.0820, 272.0342
494.2660, 183.1924
495.4500, 286.6855
496.6340, 359.1357
497.8170, 470.5479
499.0010, 617.8018
500.1840, 593.1738
501.3670, 644.4199
502.5500, 545.6650
503.7320, 518.8662
504.9150, 459.0254
506.0970, 311.1426
507.2790, 329.2178
508.4610, 137.2490
509.6430, 288.2354
510.8250, 224.1797
512.0060, 125.0771
513.1870, 78.92578
514.3680, 241.7197
515.5490, 286.4678
516.7300, 327.1758
517.9110, 374.8359
519.0910, 329.4531
520.2710, 354.0234
521.4510, 424.5479
522.6310, 363.0244
523.8110, 273.4551
524.9910, 327.8389
526.1700, 441.1758
527.3490, 250.4678
528.5280, 190.7080
529.7070, 211.8955
530.8860, 58.03223
532.0650, 62.10938
533.2430, 43.13184
534.4210, 19.09766
535.5990, 51.99707
536.7770, 114.8164
537.9550, 148.5732
539.1320, 152.2754
540.3100, 32.91992
541.4870, 98.85254
542.6640, 23.38867
543.8410, 41.25293
545.0170, 35.66602
546.1940, 64.40918
547.3700, 143.9473
548.5470, 21.61914
549.7230, 47.33301
550.8980, 17.85547
552.0740, 91.94238
553.2500, 135.3525
554.4250, 14.04590
555.6000, 211.6719
556.7750, 135.0801
557.9500, 161.7852
559.1250, 96.67773
560.2990, 24.86328
561.4730, 52.94043
562.6480, 95.48145
563.8220, 68.15820
564.9950, 5.388672
566.1690, 2.755859
567.3430, 67.78320
568.5160, 33.56836
569.6890, 56.12500
570.8620, 0.9804690
572.0350, 65.42188
573.2070, 45.28613
574.3800, 35.95410
575.5520, 47.94238
576.7240, 10.30078
577.8960, 18.63379
579.0680, 35.61426
580.2400, 35.53027
581.4110, 69.03516
582.5830, 73.29102
583.7540, 59.73047
584.9250, 65.12793
586.0950, 35.64941
587.2660, 39.60449
588.4370, 59.14160
589.6070, 34.07910
590.7770, 56.11719
591.9470, 52.28027
593.1170, 58.72852
594.2860, 103.7031
595.4560, 67.26562
596.6250, 101.2998
597.7940, 94.82617
598.9630, 126.8340
600.1320, 61.92188
601.3000, 53.42871
602.4690, 14.94531
603.6370, 8.395508
604.8050, 124.0039
605.9730, 83.93262
607.1410, 74.35547
608.3090, 183.0137
609.4760, 91.90332
610.6430, 139.4238
611.8100, 186.2256
612.9770, 198.7666
614.1440, 132.0684
615.3110, 41.58203
616.4770, 96.08008
617.6430, 194.0830
618.8090, 273.2510
619.9750, 249.2588
621.1410, 243.2891
622.3070, 256.4258
623.4720, 292.3066
624.6370, 330.0508
625.8020, 413.6338
626.9670, 468.1523
628.1320, 497.8379
629.2970, 660.2988
630.4610, 593.2900
631.6250, 823.9639
632.7890, 809.4414
633.9530, 808.7285
635.1170, 907.7803
636.2810, 1075.127
637.4440, 1258.240
638.6070, 1527.305
639.7700, 1877.195
640.9330, 2304.094
642.0960, 2873.006
643.2590, 3396.919
644.4210, 4100.809
645.5830, 5076.084
646.7450, 5992.446
647.9070, 7343.990
649.0690, 8876.806
650.2310, 10219.13
651.3920, 11302.29
652.5530, 11726.13
653.7140, 11488.31
654.8750, 9782.559
656.0360, 8165.559
657.1970, 6430.582
658.3570, 4908.041
659.5170, 3711.726
660.6770, 2998.406
661.8370, 2325.919
662.9970, 1949.975
664.1570, 1464.488
665.3160, 1295.995
666.4750, 1165.652
667.6340, 962.4902
668.7930, 674.3525
669.9520, 544.7393
671.1110, 554.7812
672.2690, 452.9541
673.4270, 483.9707
674.5850, 441.2021
675.7430, 390.6045
676.9010, 403.2305
678.0590, 385.3398
679.2160, 395.7197
680.3730, 298.1445
681.5300, 439.7305
682.6870, 290.7754
683.8440, 489.4082
685.0010, 291.7520
686.1570, 328.0361
687.3130, 282.1611
688.4690, 257.8848
689.6250, 220.4375
690.7810, 203.7402
691.9370, 282.1777
693.0920, 200.6230
694.2470, 201.6367
695.4020, 240.6270
696.5570, 156.0049
697.7120, 104.5557
698.8670, 259.8711
700.0210, 270.9004
701.1750, 146.3936
702.3290, 99.12012
703.4830, 195.2520
704.6370, 349.0400
705.7910, 246.9814
706.9440, 285.7793
708.0970, 310.8457
709.2510, 124.6230
710.4030, 200.7656
711.5560, 125.9434
712.7090, 97.74219
713.8610, 194.0566
715.0140, 99.45117
716.1660, 62.24414
717.3180, 14.42285
718.4690, 125.2852
719.6210, 159.4639
720.7730, 150.7783
721.9240, 204.0312
723.0750, 205.8975
724.2260, 212.7236
725.3770, 213.0322
726.5270, 224.2090
727.6780, 210.3076
728.8280, 186.3037
729.9780, 15.11621
731.1280, 23.16016
732.2780, 138.7285
733.4280, 199.7119
734.5770, 41.99414
735.7260, 3.928711
736.8760, 4.080078
738.0250, 42.86133
739.1730, 116.1113
740.3220, 120.3594
741.4700, 110.8057
742.6190, 55.92969
743.7670, 71.39062
744.9150, 40.05371
746.0630, 86.90918
747.2100, 95.05957
748.3580, 38.48535
749.5050, 83.41211
750.6520, 139.5186
751.7990, 185.0684
752.9460, 118.6172
754.0930, 84.44238
755.2390, 99.50293
756.3860, 71.44727
757.5320, 139.5264
758.6780, 83.19141
759.8240, 139.3867
760.9690, 154.9512
762.1150, 39.84570
763.2600, 153.3633
764.4060, 128.6855
765.5510, 320.9238
766.6950, 111.1562
767.8400, 15.36914
768.9850, 117.3115
770.1290, 171.6260
771.2730, 204.4609
772.4170, 163.7725
773.5610, 158.1260
774.7050, 225.6172
775.8480, 162.0508
776.9920, 216.4385
778.1350, 196.6650
779.2780, 176.2852
780.4210, 159.3047
781.5640, 147.3975
782.7060, 54.85840
783.8490, 35.82910
784.9910, 178.6240
786.1330, 14.21777
787.2750, 20.25391
788.4170, 168.8779
789.5580, 128.5166
790.7000, 221.4980
791.8410, 110.5908
792.9820, 16.79395
794.1230, 171.3096
795.2640, 63.67285
796.4040, 215.8447
797.5450, 198.9629
798.6850, 220.9443
799.8250, 77.04395
800.9650, 165.5566
802.1050, 168.6846
803.2450, 114.4307
804.3840, 246.2793
805.5230, 160.9922
806.6630, 276.2568
807.8020, 185.6113
808.9400, 137.8252
810.0790, 136.3174
811.2170, 134.3311
812.3560, 120.2314
813.4940, 239.7100
814.6320, 137.1777
815.7700, 294.4980
816.9070, 137.8359
818.0450, 17.46289
819.1820, 166.6816
820.3190, 277.1035
821.4560, 83.81250
822.5930, 101.0234
823.7300, 197.2715
824.8670, 130.2188
826.0030, 192.3828
827.1390, 274.4219
828.2750, 204.7324
829.4110, 238.2578
830.5470, 170.3320
831.6820, 138.3066
832.8180, 185.3301
833.9530, 47.11328
835.0880, 114.0684
836.2230, 84.78906
837.3580, 40.44141
838.4920, 183.4531
839.6270, 21.83984
840.7610, 212.1270
841.8950, 125.6348
843.0290, 283.6113
844.1630, 223.6445
845.2960, 171.6992
846.4300, 200.8984
847.5630, 130.3145
848.6960, 143.3457
849.8290, 218.1504
850.9620, 195.2500
852.0940, 243.8477
853.2270, 107.1816
854.3590, 4.375000
855.4910, 126.9863
856.6230, 112.3789
857.7550, 177.6191
858.8870, 200.9766
860.0180, 125.2305
861.1500, 88.43750
862.2810, 53.55273
863.4120, 79.62109
864.5430, 57.44727
865.6730, 293.1973
866.8040, 45.04297
867.9340, 92.83398
869.0640, 55.00977
870.1940, 123.6797
871.3240, 159.7480
872.4540, 181.6602
873.5830, 164.4551
874.7130, 239.5547
875.8420, 206.8125
876.9710, 152.0586
878.1000, 89.12891
879.2290, 151.8555
880.3570, 93.46484
881.4860, 45.87305
882.6140, 97.67773
883.7420, 80.59961
884.8700, 178.4824
885.9980, 156.4844
887.1250, 80.60742
888.2530, 38.80469
889.3800, 95.39453
890.5070, 49.06055
891.6340, 148.4590
892.7610, 1.628906
893.8880, 25.95312
895.0140, 64.08203
896.1400, 19.93359
897.2670, 213.8887
898.3930, 212.7070
899.5180, 38.42773
900.6440, 171.9238
901.7700, 29.10547
902.8950, 96.28320
904.0200, 223.9961
905.1450, 86.96484
906.2700, 133.0566
907.3950, 232.1875
908.5190, 196.2676
909.6440, 375.5117
910.7680, 363.9121
911.8920, 120.4902
913.0160, 361.4590
914.1400, 241.9141
915.2630, 125.8242
916.3870, 316.8164
917.5100, 204.9199
918.6330, 275.3164
919.7560, 111.4824
920.8790, 113.2734
922.0010, 31.48633
923.1240, 269.5566
924.2460, 68.60742
925.3680, 149.1387
926.4900, 336.5742
927.6120, 93.31836
928.7340, 205.7891
929.8550, 454.5078
930.9760, 233.9512
932.0980, 220.8984
933.2190, 236.9668
934.3390, 182.5977
935.4600, 295.3984
936.5810, 141.0059
937.7010, 187.5996
938.8210, 380.7207
939.9410, 389.1445
941.0610, 231.3828
942.1810, 184.1719
943.3010, 441.6738
944.4200, 348.6621
945.5390, 437.2012
946.6580, 438.2363
947.7770, 550.2715
948.8960, 493.3496
950.0150, 501.9219
951.1330, 472.6035
952.2510, 519.0156
953.3690, 460.1172
954.4870, 615.4043
955.6050, 963.1777
956.7230, 933.7148
957.8400, 1110.299
958.9580, 1278.941
960.0750, 1446.590
961.1920, 1562.898
962.3090, 1843.217
963.4250, 2109.988
964.5420, 2421.760
965.6580, 2807.854
966.7740, 3195.326
967.8900, 3632.605
969.0060, 3940.879
970.1220, 4314.727
971.2380, 4235.555
972.3530, 4493.717
973.4680, 4466.658
974.5830, 4230.910
975.6980, 4143.447
976.8130, 4114.297
977.9280, 3794.766
979.0420, 3565.477
980.1560, 3382.883
981.2710, 3149.264
982.3850, 2987.396
983.4980, 2834.771
984.6120, 2704.439
985.7260, 2679.277
986.8390, 2636.875
987.9520, 2621.477
989.0650, 2570.266
990.1780, 2516.381
991.2910, 2515.281
992.4030, 2465.367
993.5160, 2622.459
994.6280, 2715.152
995.7400, 2662.508
996.8520, 2557.492
997.9640, 2555.590
999.0750, 2725.961
1000.187, 2973.916
1001.298, 3580.457
1002.409, 4064.303
1003.520, 4568.738
1004.631, 4686.539
1005.741, 4395.492
1006.852, 3623.451
1007.962, 2767.736
1009.072, 2394.074
1010.182, 1860.840
1011.292, 1731.084
1012.402, 1461.031
1013.511, 1490.285
1014.621, 1593.062
1015.730, 1680.406
1016.839, 2125.799
1017.948, 2223.295
1019.056, 2329.256
1020.165, 2450.047
1021.273, 2514.258
1022.382, 3047.006
1023.490, 3372.896
1024.598, 3332.578
1025.706, 3377.891
1026.813, 3384.787
1027.921, 2898.943
1029.028, 2396.977
1030.135, 2226.461
1031.242, 1813.213
1032.349, 1432.830
1033.456, 923.0996
1034.562, 808.2324
1035.668, 780.0508
1036.775, 624.5547
1037.881, 565.3789
1038.987, 596.1211
1040.092, 460.3965
1041.198, 346.6641
1042.303, 277.2715
1043.408, 284.2676
1044.514, 154.8145
1045.618, 330.5352
1046.723, 162.5039
1047.828, 247.4922
1048.932, 61.16016
1050.037, 44.50000
1051.141, 158.6191
1052.245, 151.4863
1053.349, 155.2656
1054.452, 95.09961
1055.556, 107.9355
1056.659, 80.91602
1057.762, 91.50586
1058.865, 153.3926
1059.968, 185.8691
1061.071, 169.9141
1062.174, 206.2383
1063.276, 140.5879
1064.378, 152.8574
1065.480, 40.95898
1066.582, 188.1406
1067.684, 216.1562
1068.786, 124.0859
1069.887, 115.9648
1070.988, 6.203125
1072.090, 56.56445
1073.191, 122.2910
1074.291, 288.9355
1075.392, 44.50000
1076.493, 298.9961
1077.593, 150.4277
1078.693, 240.7891
1079.793, 206.1113
1080.893, 294.3965
1081.993, 292.6348
1083.092, 162.8340
1084.192, 290.0098
1085.291, 422.1504
1086.390, 420.2695
1087.489, 236.4316
1088.588, 138.6348
1089.686, 361.8086
1090.785, 174.9551
1091.883, 326.0957
1092.981, 212.2988
1094.079, 272.5801
1095.177, 301.8770
1096.275, 415.1992
1097.373, 168.6758
1098.470, 267.2012
1099.567, 377.8438
1100.664, 289.6133
1101.761, 384.4531
1102.858, 287.3984
1103.954, 357.4551
1105.051, 465.5371
1106.147, 485.1094
1107.243, 192.0020
1108.339, 251.3613
1109.435, 239.0156
1110.531, 436.1074
1111.626, 481.5078
1112.722, 273.8262
1113.817, 514.6406
1114.912, 252.5430
1116.007, 136.5996
1117.101, 361.7969
1118.196, 469.8125
1119.290, 315.5293
1120.385, 300.5801
1121.479, 278.9629
1122.573, 347.2598
1123.666, 464.7168
1124.760, 398.8574
1125.853, 448.6055
1126.947, 334.3047
1128.040, 328.0742
1129.133, 319.8008
1130.226, 99.45117
1131.318, 220.8984
1132.411, 377.4590
1133.503, 479.6523
1134.596, 385.8125
1135.688, 329.7871
1136.780, 412.1172
1137.871, 518.7305
1138.963, 86.52930
1140.054, 112.2168
1141.146, 243.1152
1142.237, 46.29297
1143.328, 237.4980
1144.419, 280.0840
1145.509, 169.0195
1146.600, 63.35547
1147.690, 151.1406
1148.780, 161.4492
1149.870, 340.9766
1150.960, 340.9297
1152.050, 326.8984
1153.139, 375.9883
1154.229, 228.5391
1155.318, 300.6719
1156.407, 242.9531
1157.496, 105.7695
1158.585, 27.08203
1159.674, 142.5547
1160.762, 234.0859
1161.850, 150.2578
1162.939, 163.4062
1164.027, 182.5078
1165.114, 103.0273
1166.202, 89.61719
1167.290, 0.8320310
1168.377, 0.0000000E+00
##END=



