##NAMES=Pectolite
##RRUFFID=R060101
##IDEAL CHEMISTRY=NaCa_2_Si_3_O_8_(OH)
##LOCALITY=West Patterson, New Jersey, USA
##OWNER=RRUFF
##SOURCE=University of Arizona Mineral Museum
##DESCRIPTION=Tufts of white acicular sprays
##STATUS=The identification of this mineral has been confirmed by X-ray diffraction and chemical analysis
##URL=rruff.info/R060101
##MEASURED CHEMISTRY=Na_1.02_Ca_2.00_Si_2.99_O_8_(OH)
##PIN_ID=M00210
##ORIENTATION=Laser parallel to -b* (0 -1 0). Fiducial mark perpendicular to laser is parallel to c [0 0 1]
118.9350, 0.0000000E+00
120.1730, 7.960938
121.4100, 23.84143
122.6480, 0.9302980
123.8850, 18.09973
125.1230, 15.05542
126.3600, 24.33105
127.5960, 0.8239750
128.8330, 27.50232
130.0700, 64.38013
131.3060, 63.47693
132.5420, 19.67151
133.7780, 87.90027
135.0140, 33.13953
136.2500, 164.4143
137.4850, 130.8462
138.7200, 150.3535
139.9550, 173.2632
141.1900, 235.8705
142.4250, 226.2555
143.6600, 236.3628
144.8940, 203.0546
146.1280, 157.5626
147.3620, 235.1027
148.5960, 226.4705
149.8300, 224.8508
151.0630, 169.2058
152.2960, 176.4990
153.5300, 129.8087
154.7620, 87.09485
155.9950, 76.31555
157.2280, 73.32690
158.4600, 77.45410
159.6920, 24.21240
160.9250, 53.97852
162.1560, 44.94885
163.3880, 96.69202
164.6200, 57.46277
165.8510, 3.863037
167.0820, 10.64172
168.3130, 36.27637
169.5440, 63.05432
170.7750, 25.11560
172.0050, 70.08337
173.2350, 32.13452
174.4650, 29.08630
175.6950, 58.01416
176.9250, 48.38733
178.1550, 57.48645
179.3840, 58.73999
180.6130, 101.0446
181.8420, 54.84082
183.0710, 53.52380
184.3000, 59.74182
185.5280, 109.7877
186.7570, 23.22009
187.9850, 18.87683
189.2130, 73.23450
190.4400, 44.32056
191.6680, 66.21399
192.8960, 12.15198
194.1230, 55.40955
195.3500, 43.70410
196.5770, 70.18042
197.8030, 31.05127
199.0300, 75.95508
200.2560, 17.74097
201.4830, 102.9976
202.7090, 41.70569
203.9340, 58.02563
205.1600, 35.21753
206.3860, 70.52222
207.6110, 62.12817
208.8360, 7.712646
210.0610, 67.92505
211.2860, 33.41260
212.5100, 65.31616
213.7350, 63.72290
214.9590, 101.0303
216.1830, 81.90088
217.4070, 69.54150
218.6310, 72.14404
219.8540, 58.72681
221.0780, 55.52661
222.3010, 45.70728
223.5240, 43.97632
224.7470, 60.63623
225.9690, 42.01514
227.1920, 51.53540
228.4140, 49.10278
229.6360, 49.62964
230.8580, 60.15527
232.0800, 40.66992
233.3020, 25.65625
234.5230, 5.995117
235.7440, 1.013428
236.9650, 28.94629
238.1860, 4.701904
239.4070, 37.42334
240.6280, 29.28223
241.8480, 27.90161
243.0680, 50.31787
244.2880, 24.87378
245.5080, 1.029297
246.7280, 23.93457
247.9470, 63.80835
249.1660, 53.65015
250.3860, 78.45825
251.6040, 50.22412
252.8230, 21.30981
254.0420, 59.09204
255.2600, 18.77173
256.4790, 31.03857
257.6970, 36.65967
258.9150, 48.20557
260.1320, 51.75586
261.3500, 58.23120
262.5670, 54.79492
263.7840, 70.25098
265.0010, 65.58008
266.2180, 84.41528
267.4350, 59.20142
268.6510, 98.93945
269.8680, 139.5405
271.0840, 83.24438
272.3000, 72.93018
273.5160, 94.59521
274.7310, 74.27637
275.9470, 41.90430
277.1620, 77.59253
278.3770, 32.73120
279.5920, 42.88843
280.8070, 13.75562
282.0210, 6.816406
283.2360, 5.607422
284.4500, 54.52881
285.6640, 77.43799
286.8780, 20.49292
288.0920, 26.51855
289.3050, 25.45898
290.5180, 84.60840
291.7320, 40.37061
292.9450, 6.321777
294.1570, 55.69336
295.3700, 21.95093
296.5830, 4.503174
297.7950, 111.1296
299.0070, 9.760742
300.2190, 31.48145
301.4310, 16.43433
302.6420, 13.98169
303.8540, 36.44580
305.0650, 34.46021
306.2760, 88.80078
307.4870, 55.23779
308.6980, 68.67334
309.9080, 92.78442
311.1190, 107.0161
312.3290, 125.4751
313.5390, 132.3936
314.7490, 151.7307
315.9580, 167.9441
317.1680, 158.6763
318.3770, 156.5505
319.5860, 158.4021
320.7950, 130.5449
322.0040, 112.5105
323.2130, 105.7847
324.4210, 72.91187
325.6290, 62.75415
326.8380, 115.1506
328.0460, 51.97925
329.2530, 23.85718
330.4610, 98.70264
331.6680, 37.64697
332.8760, 60.45850
334.0830, 47.18262
335.2890, 57.08301
336.4960, 48.42334
337.7030, 62.27124
338.9090, 21.59644
340.1150, 15.15967
341.3210, 2.164795
342.5270, 43.15186
343.7330, 38.75317
344.9380, 97.71167
346.1440, 73.70996
347.3490, 21.03662
348.5540, 75.06616
349.7590, 77.56348
350.9630, 47.48242
352.1680, 93.75317
353.3720, 100.5422
354.5760, 67.19800
355.7800, 125.3843
356.9840, 79.28979
358.1870, 115.0068
359.3910, 113.0542
360.5940, 48.64404
361.7970, 107.5715
363.0000, 96.37598
364.2030, 144.2686
365.4050, 96.13159
366.6080, 106.6472
367.8100, 100.1377
369.0120, 119.2180
370.2140, 183.3196
371.4150, 194.8347
372.6170, 220.8645
373.8180, 277.4465
375.0190, 292.3169
376.2200, 305.5352
377.4210, 283.9680
378.6220, 284.2915
379.8220, 288.5400
381.0230, 221.1953
382.2230, 174.9832
383.4230, 160.7441
384.6220, 102.8123
385.8220, 83.98096
387.0220, 20.12769
388.2210, 68.95752
389.4200, 48.99829
390.6190, 117.3545
391.8180, 82.97925
393.0160, 21.34570
394.2150, 24.67212
395.4130, 107.6799
396.6110, 10.40747
397.8090, 92.07642
399.0060, 105.6702
400.2040, 93.14282
401.4010, 162.5737
402.5980, 147.6174
403.7950, 171.3625
404.9920, 157.5024
406.1890, 209.9902
407.3860, 230.1882
408.5820, 268.3835
409.7780, 241.2959
410.9740, 278.7837
412.1700, 284.2876
413.3650, 302.5820
414.5610, 236.6025
415.7560, 198.8459
416.9510, 242.8708
418.1460, 178.2175
419.3410, 193.6592
420.5360, 172.9729
421.7300, 59.57666
422.9240, 49.25073
424.1180, 112.8821
425.3120, 60.24072
426.5060, 118.6992
427.7000, 81.30127
428.8930, 77.52808
430.0860, 36.10962
431.2790, 36.09204
432.4720, 29.50488
433.6650, 9.944824
434.8580, 74.66504
436.0500, 22.80396
437.2420, 9.680664
438.4340, 74.97437
439.6260, 92.46777
440.8180, 25.52026
442.0090, 60.83447
443.2010, 31.55737
444.3920, 1.862793
445.5830, 83.36182
446.7740, 64.69971
447.9640, 165.3386
449.1550, 69.12744
450.3450, 47.62793
451.5350, 43.56152
452.7250, 22.62109
453.9150, 79.86230
455.1050, 64.51123
456.2940, 38.14111
457.4830, 33.68945
458.6720, 57.24756
459.8610, 151.7402
461.0500, 132.1318
462.2390, 106.5205
463.4270, 34.00244
464.6150, 81.31152
465.8040, 3.561035
466.9910, 24.81494
468.1790, 84.49072
469.3670, 1.774902
470.5540, 75.89990
471.7410, 54.97461
472.9280, 55.44238
474.1150, 25.14893
475.3020, 24.03906
476.4890, 32.45947
477.6750, 16.12891
478.8610, 67.36963
480.0470, 83.75977
481.2330, 117.7539
482.4190, 69.68848
483.6040, 23.21289
484.7900, 113.3130
485.9750, 11.00439
487.1600, 183.4951
488.3450, 63.20703
489.5290, 78.80713
490.7140, 122.9219
491.8980, 18.16650
493.0820, 118.2812
494.2660, 54.97705
495.4500, 144.8647
496.6340, 101.6104
497.8170, 35.14404
499.0010, 53.92480
500.1840, 121.3936
501.3670, 31.95215
502.5500, 147.4409
503.7320, 58.59961
504.9150, 69.94336
506.0970, 43.17773
507.2790, 28.55273
508.4610, 99.66211
509.6430, 86.75439
510.8250, 24.76221
512.0060, 85.78516
513.1870, 48.93848
514.3680, 165.0342
515.5490, 21.07422
516.7300, 182.0537
517.9110, 62.97754
519.0910, 52.84131
520.2710, 19.64551
521.4510, 79.39160
522.6310, 78.69434
523.8110, 123.5527
524.9910, 74.21094
526.1700, 47.31787
527.3490, 6.907227
528.5280, 4.596191
529.7070, 90.07471
530.8860, 6.494629
532.0650, 84.68066
533.2430, 86.25732
534.4210, 105.4961
535.5990, 4.110840
536.7770, 20.05420
537.9550, 50.30371
539.1320, 26.59521
540.3100, 72.38232
541.4870, 51.36768
542.6640, 65.04736
543.8410, 150.3101
545.0170, 153.4194
546.1940, 2.689453
547.3700, 38.60742
548.5470, 10.86621
549.7230, 104.4844
550.8980, 23.52148
552.0740, 30.53223
553.2500, 18.90576
554.4250, 70.64014
555.6000, 134.6611
556.7750, 47.24658
557.9500, 78.94287
559.1250, 15.95215
560.2990, 20.80957
561.4730, 3.302734
562.6480, 145.0757
563.8220, 71.93604
564.9950, 80.42969
566.1690, 105.2588
567.3430, 55.71973
568.5160, 6.643066
569.6890, 143.1499
570.8620, 69.43506
572.0350, 143.7471
573.2070, 34.70361
574.3800, 32.84131
575.5520, 0.2006840
576.7240, 77.64014
577.8960, 85.35205
579.0680, 34.21924
580.2400, 4.637207
581.4110, 26.45312
582.5830, 31.57715
583.7540, 63.15967
584.9250, 112.7183
586.0950, 68.79736
587.2660, 125.3965
588.4370, 65.70850
589.6070, 16.81445
590.7770, 10.07666
591.9470, 21.81885
593.1170, 6.914063
594.2860, 13.66016
595.4560, 54.33252
596.6250, 64.85352
597.7940, 78.63086
598.9630, 68.30029
600.1320, 71.80811
601.3000, 85.10596
602.4690, 75.18408
603.6370, 41.20020
604.8050, 60.56152
605.9730, 44.18262
607.1410, 23.21338
608.3090, 114.9541
609.4760, 78.15234
610.6430, 29.22559
611.8100, 197.4873
612.9770, 62.36621
614.1440, 67.18311
615.3110, 28.29199
616.4770, 25.84131
617.6430, 67.99951
618.8090, 15.39697
619.9750, 25.02686
621.1410, 120.7695
622.3070, 83.32910
623.4720, 160.7515
624.6370, 124.6138
625.8020, 123.0527
626.9670, 153.0913
628.1320, 146.4277
629.2970, 138.6758
630.4610, 188.5034
631.6250, 198.6118
632.7890, 217.9219
633.9530, 274.9214
635.1170, 261.3306
636.2810, 288.9722
637.4440, 292.9507
638.6070, 278.5615
639.7700, 364.8965
640.9330, 299.1167
642.0960, 480.9194
643.2590, 544.7139
644.4210, 657.4751
645.5830, 706.9980
646.7450, 889.2012
647.9070, 904.3174
649.0690, 984.8657
650.2310, 1033.111
651.3920, 1021.101
652.5530, 1021.645
653.7140, 952.4399
654.8750, 821.0811
656.0360, 604.1069
657.1970, 664.8936
658.3570, 415.7949
659.5170, 327.7646
660.6770, 346.3174
661.8370, 164.9912
662.9970, 257.5122
664.1570, 291.8750
665.3160, 161.8579
666.4750, 212.6665
667.6340, 43.15918
668.7930, 237.5059
669.9520, 174.4565
671.1110, 195.5605
672.2690, 156.7817
673.4270, 188.5791
674.5850, 112.2080
675.7430, 171.1094
676.9010, 164.9731
678.0590, 41.93750
679.2160, 230.4531
680.3730, 181.3208
681.5300, 3.444336
682.6870, 141.9360
683.8440, 149.6104
685.0010, 210.8809
686.1570, 82.80615
687.3130, 35.83301
688.4690, 60.55127
689.6250, 131.1597
690.7810, 97.13086
691.9370, 199.8818
693.0920, 185.1938
694.2470, 56.37939
695.4020, 145.9336
696.5570, 103.5957
697.7120, 22.43750
698.8670, 171.3887
700.0210, 99.52051
701.1750, 96.17969
702.3290, 91.28125
703.4830, 153.2607
704.6370, 120.9814
705.7910, 141.3945
706.9440, 73.00879
708.0970, 118.7314
709.2510, 151.8867
710.4030, 87.37109
711.5560, 156.3584
712.7090, 89.91699
713.8610, 98.34277
715.0140, 175.6768
716.1660, 138.6533
717.3180, 17.66699
718.4690, 62.64844
719.6210, 52.31836
720.7730, 41.59766
721.9240, 125.3701
723.0750, 85.00391
724.2260, 88.93848
725.3770, 96.56738
726.5270, 130.7754
727.6780, 27.18945
728.8280, 148.6260
729.9780, 105.4492
731.1280, 152.9141
732.2780, 67.08496
733.4280, 115.3301
734.5770, 195.1777
735.7260, 89.88867
736.8760, 93.52148
738.0250, 138.0459
739.1730, 30.55664
740.3220, 8.893555
741.4700, 71.45996
742.6190, 78.46191
743.7670, 45.45410
744.9150, 85.40527
746.0630, 163.0830
747.2100, 96.47754
748.3580, 76.37988
749.5050, 162.5859
750.6520, 86.53027
751.7990, 83.74512
752.9460, 104.8027
754.0930, 173.0420
755.2390, 159.3545
756.3860, 30.21387
757.5320, 100.1494
758.6780, 32.47363
759.8240, 80.75586
760.9690, 47.35547
762.1150, 117.1396
763.2600, 52.68359
764.4060, 36.87793
765.5510, 111.1699
766.6950, 20.06152
767.8400, 91.00879
768.9850, 49.97754
770.1290, 117.8652
771.2730, 43.06250
772.4170, 149.2617
773.5610, 128.9434
774.7050, 145.1582
775.8480, 13.85938
776.9920, 33.46875
778.1350, 122.1514
779.2780, 115.1328
780.4210, 214.6025
781.5640, 120.2656
782.7060, 170.3223
783.8490, 9.527344
784.9910, 191.6309
786.1330, 148.2617
787.2750, 5.483398
788.4170, 171.6191
789.5580, 82.80176
790.7000, 14.55078
791.8410, 106.2480
792.9820, 90.85742
794.1230, 57.54395
795.2640, 139.3408
796.4040, 94.88281
797.5450, 2.396484
798.6850, 154.2217
799.8250, 170.7324
800.9650, 247.1660
802.1050, 55.49121
803.2450, 267.4600
804.3840, 283.1465
805.5230, 67.42871
806.6630, 217.9961
807.8020, 81.27441
808.9400, 110.7598
810.0790, 194.8760
811.2170, 236.0137
812.3560, 69.46094
813.4940, 299.4707
814.6320, 69.47168
815.7700, 114.7725
816.9070, 295.3545
818.0450, 192.3037
819.1820, 95.94238
820.3190, 118.0879
821.4560, 196.8096
822.5930, 298.4287
823.7300, 335.2852
824.8670, 204.7969
826.0030, 216.2969
827.1390, 162.2920
828.2750, 79.70312
829.4110, 113.6318
830.5470, 188.7500
831.6820, 146.9326
832.8180, 250.1875
833.9530, 25.16309
835.0880, 128.6621
836.2230, 217.7695
837.3580, 3.128906
838.4920, 121.8076
839.6270, 78.23828
840.7610, 103.6992
841.8950, 73.13379
843.0290, 195.5908
844.1630, 200.4932
845.2960, 211.4082
846.4300, 275.3408
847.5630, 206.1221
848.6960, 176.7861
849.8290, 183.6631
850.9620, 134.0742
852.0940, 78.80566
853.2270, 107.0889
854.3590, 115.2285
855.4910, 151.7334
856.6230, 170.0859
857.7550, 172.5459
858.8870, 213.0518
860.0180, 166.8633
861.1500, 172.2793
862.2810, 88.44629
863.4120, 171.8438
864.5430, 330.8594
865.6730, 45.12891
866.8040, 236.8555
867.9340, 93.36426
869.0640, 118.5352
870.1940, 151.4316
871.3240, 170.3174
872.4540, 177.5537
873.5830, 168.9121
874.7130, 150.7324
875.8420, 179.4893
876.9710, 103.0645
878.1000, 163.1914
879.2290, 159.3594
880.3570, 126.7773
881.4860, 145.7412
882.6140, 80.46680
883.7420, 108.2383
884.8700, 85.60840
885.9980, 28.24512
887.1250, 167.4502
888.2530, 183.5352
889.3800, 194.6055
890.5070, 2.868164
891.6340, 29.95215
892.7610, 38.65918
893.8880, 187.2295
895.0140, 265.3809
896.1400, 125.6729
897.2670, 131.9424
898.3930, 127.1494
899.5180, 181.9795
900.6440, 162.4160
901.7700, 224.9795
902.8950, 176.6914
904.0200, 195.2227
905.1450, 198.1885
906.2700, 23.29199
907.3950, 146.4502
908.5190, 230.7236
909.6440, 117.8838
910.7680, 205.7725
911.8920, 170.4189
913.0160, 37.90332
914.1400, 92.29004
915.2630, 150.7227
916.3870, 7.259766
917.5100, 211.2051
918.6330, 156.5449
919.7560, 43.80078
920.8790, 23.31250
922.0010, 111.5654
923.1240, 108.1650
924.2460, 89.50098
925.3680, 127.7646
926.4900, 0.1015630
927.6120, 121.1221
928.7340, 289.1172
929.8550, 85.78320
930.9760, 90.90137
932.0980, 202.1846
933.2190, 197.9355
934.3390, 99.36914
935.4600, 76.36523
936.5810, 52.59180
937.7010, 33.12500
938.8210, 58.68750
939.9410, 119.7988
941.0610, 185.1211
942.1810, 7.750000
943.3010, 345.4258
944.4200, 41.46484
945.5390, 41.19922
946.6580, 10.53906
947.7770, 115.9961
948.8960, 0.5019530
950.0150, 27.92578
951.1330, 153.3105
952.2510, 227.4453
953.3690, 116.1035
954.4870, 32.91406
955.6050, 162.4180
956.7230, 218.8496
957.8400, 245.3379
958.9580, 252.8750
960.0750, 253.2266
961.1920, 176.0293
962.3090, 254.4941
963.4250, 203.6211
964.5420, 354.6445
965.6580, 419.6699
966.7740, 222.6367
967.8900, 217.6895
969.0060, 454.4023
970.1220, 429.6602
971.2380, 332.3457
972.3530, 334.0352
973.4680, 180.4277
974.5830, 203.9551
975.6980, 149.9551
976.8130, 141.5137
977.9280, 163.0645
979.0420, 175.5430
980.1560, 173.8242
981.2710, 354.4883
982.3850, 181.6016
983.4980, 272.4453
984.6120, 292.2754
985.7260, 161.6738
986.8390, 140.6309
987.9520, 303.6426
989.0650, 176.7871
990.1780, 455.7676
991.2910, 334.6660
992.4030, 391.0410
993.5160, 246.8516
994.6280, 313.3477
995.7400, 348.7402
996.8520, 295.5664
997.9640, 248.7090
999.0750, 343.3926
1000.187, 260.9199
1001.298, 153.8496
1002.409, 355.0000
1003.520, 199.1621
1004.631, 249.3125
1005.741, 355.3984
1006.852, 132.3789
1007.962, 350.1934
1009.072, 220.8301
1010.182, 194.8477
1011.292, 365.9355
1012.402, 337.6523
1013.511, 292.6191
1014.621, 353.6680
1015.730, 360.2324
1016.839, 342.0215
1017.948, 408.0938
1019.056, 487.0820
1020.165, 532.5488
1021.273, 624.0918
1022.382, 730.5469
1023.490, 484.3516
1024.598, 723.3047
1025.706, 629.5137
1026.813, 306.2305
1027.921, 601.7715
1029.028, 477.6699
1030.135, 315.3691
1031.242, 434.0176
1032.349, 360.8516
1033.456, 162.2012
1034.562, 182.4043
1035.668, 240.7480
1036.775, 115.1816
1037.881, 162.1426
1038.987, 150.7266
1040.092, 260.8652
1041.198, 101.1250
1042.303, 87.24805
1043.408, 112.1895
1044.514, 190.2910
1045.618, 259.4590
1046.723, 105.2852
1047.828, 80.84766
1048.932, 52.43555
1050.037, 72.42773
1051.141, 21.19141
1052.245, 35.57422
1053.349, 105.7031
1054.452, 253.3926
1055.556, 107.1387
1056.659, 115.4180
1057.762, 247.0117
1058.865, 16.60156
1059.968, 72.26367
1061.071, 223.3750
1062.174, 2.648438
1063.276, 77.03320
1064.378, 338.3750
1065.480, 49.97266
1066.582, 260.5391
1067.684, 463.1367
1068.786, 11.12500
1069.887, 67.67578
1070.988, 212.9531
1072.090, 92.50391
1073.191, 237.5371
1074.291, 88.75781
1075.392, 119.7461
1076.493, 287.4766
1077.593, 164.5879
1078.693, 406.2676
1079.793, 434.9902
1080.893, 239.9746
1081.993, 217.7832
1083.092, 268.4238
1084.192, 238.2168
1085.291, 223.5430
1086.390, 89.20312
1087.489, 129.2598
1088.588, 196.2031
1089.686, 421.5645
1090.785, 323.7969
1091.883, 133.7832
1092.981, 351.5508
1094.079, 460.1016
1095.177, 194.4785
1096.275, 183.8125
1097.373, 242.3496
1098.470, 146.0547
1099.567, 244.6035
1100.664, 162.7402
1101.761, 173.7500
1102.858, 128.0664
1103.954, 198.6855
1105.051, 38.63867
1106.147, 121.4883
1107.243, 210.0840
1108.339, 267.0742
1109.435, 184.8945
1110.531, 204.0488
1111.626, 281.1699
1112.722, 195.5762
1113.817, 210.0430
1114.912, 197.4707
1116.007, 93.15430
1117.101, 208.6289
1118.196, 89.86133
1119.290, 260.6875
1120.385, 37.66211
1121.479, 78.62305
1122.573, 137.7578
1123.666, 17.04688
1124.760, 212.3887
1125.853, 294.5449
1126.947, 195.2734
1128.040, 204.1602
1129.133, 181.2539
1130.226, 142.9082
1131.318, 228.6543
1132.411, 112.3105
1133.503, 11.93945
1134.596, 79.27148
1135.688, 129.6211
1136.780, 13.59180
1137.871, 0.7187500
1138.963, 8.714844
1140.054, 0.0000000E+00
##END=



