##NAMES=Pectolite
##RRUFFID=R050396
##IDEAL CHEMISTRY=NaCa_2_Si_3_O_8_(OH)
##LOCALITY=Jeffrey Quarry, Asbestos, Quebec, Canada
##OWNER=RRUFF
##SOURCE=Marcus Origlieri
##DESCRIPTION=Colorless to gray columnar blocky crystals
##STATUS=The identification of this mineral has been confirmed by X-ray diffraction and chemical analysis
##URL=rruff.info/R050396
##MEASURED CHEMISTRY=Na_1.00_Ca_2.00_Si_3.00_O_8_(OH)
##PIN_ID=M00143
##ORIENTATION=Laser parallel to -b* (0 -1 0). Fiducial mark perpendicular to laser is parallel to c [0 0 1]
128.8330, 0.0000000E+00
130.0700, 34.02148
131.3060, 168.9844
132.5420, 3.341797
133.7780, 306.9258
135.0140, 281.1738
136.2500, 494.6855
137.4850, 860.9668
138.7200, 1210.762
139.9550, 1616.062
141.1900, 2126.295
142.4250, 2280.021
143.6600, 2185.889
144.8940, 1818.619
146.1280, 1424.604
147.3620, 1267.254
148.5960, 795.2109
149.8300, 766.3359
151.0630, 618.5215
152.2960, 554.6680
153.5300, 407.6797
154.7620, 280.4824
155.9950, 112.0078
157.2280, 183.2012
158.4600, 103.0117
159.6920, 140.3965
160.9250, 172.3223
162.1560, 0.2539060
163.3880, 31.36719
164.6200, 67.95117
165.8510, 33.66797
167.0820, 105.7500
168.3130, 131.7207
169.5440, 33.87500
170.7750, 168.8770
172.0050, 66.35352
173.2350, 32.08008
174.4650, 109.0430
175.6950, 140.2305
176.9250, 29.64648
178.1550, 225.2695
179.3840, 76.09570
180.6130, 263.1133
181.8420, 112.3184
183.0710, 180.6992
184.3000, 200.3340
185.5280, 182.1367
186.7570, 299.0898
187.9850, 125.1797
189.2130, 221.4668
190.4400, 59.01758
191.6680, 108.6816
192.8960, 180.4531
194.1230, 189.3672
195.3500, 171.3789
196.5770, 251.4883
197.8030, 264.6895
199.0300, 253.9785
200.2560, 184.3555
201.4830, 166.8125
202.7090, 111.3086
203.9340, 227.7754
205.1600, 50.23828
206.3860, 368.7012
207.6110, 353.1680
208.8360, 82.65430
210.0610, 56.28711
211.2860, 234.9668
212.5100, 64.76562
213.7350, 130.4824
214.9590, 132.3340
216.1830, 254.2949
217.4070, 204.3672
218.6310, 237.4844
219.8540, 372.6953
221.0780, 323.0625
222.3010, 238.5469
223.5240, 92.06445
224.7470, 199.6309
225.9690, 201.2441
227.1920, 157.9258
228.4140, 286.6426
229.6360, 132.3965
230.8580, 260.1855
232.0800, 121.1133
233.3020, 148.0742
234.5230, 175.0664
235.7440, 379.0898
236.9650, 374.1504
238.1860, 396.4082
239.4070, 166.3730
240.6280, 51.49023
241.8480, 41.63672
243.0680, 31.81445
244.2880, 66.02930
245.5080, 352.2695
246.7280, 205.5391
247.9470, 279.8320
249.1660, 16.62695
250.3860, 236.7871
251.6040, 177.0547
252.8230, 102.3555
254.0420, 294.6816
255.2600, 98.02539
256.4790, 152.3828
257.6970, 97.62500
258.9150, 333.0039
260.1320, 368.4004
261.3500, 255.8184
262.5670, 440.2930
263.7840, 127.8027
265.0010, 255.3281
266.2180, 338.8672
267.4350, 179.4141
268.6510, 463.9785
269.8680, 258.5703
271.0840, 238.1895
272.3000, 393.8223
273.5160, 335.4766
274.7310, 207.1562
275.9470, 313.4102
277.1620, 379.3555
278.3770, 206.8301
279.5920, 279.5840
280.8070, 282.6523
282.0210, 199.9883
283.2360, 370.5371
284.4500, 248.2695
285.6640, 395.2012
286.8780, 426.2793
288.0920, 114.4883
289.3050, 200.6172
290.5180, 84.07227
291.7320, 240.6328
292.9450, 281.9199
294.1570, 112.6836
295.3700, 141.1152
296.5830, 113.0371
297.7950, 126.8672
299.0070, 69.18555
300.2190, 266.3027
301.4310, 214.4824
302.6420, 66.44531
303.8540, 48.73047
305.0650, 68.31445
306.2760, 179.7168
307.4870, 290.1680
308.6980, 194.6484
309.9080, 270.7617
311.1190, 390.7539
312.3290, 202.3516
313.5390, 219.6465
314.7490, 329.3086
315.9580, 314.0078
317.1680, 349.7500
318.3770, 427.5156
319.5860, 267.6074
320.7950, 272.4551
322.0040, 334.3203
323.2130, 248.4277
324.4210, 204.3340
325.6290, 158.2656
326.8380, 144.2012
328.0460, 73.17383
329.2530, 172.1543
330.4610, 211.1484
331.6680, 272.1543
332.8760, 146.4688
334.0830, 246.5020
335.2890, 21.81250
336.4960, 253.8652
337.7030, 89.92773
338.9090, 165.0020
340.1150, 71.08203
341.3210, 234.1680
342.5270, 90.75195
343.7330, 226.8457
344.9380, 60.05273
346.1440, 139.9082
347.3490, 14.76172
348.5540, 166.3340
349.7590, 183.4316
350.9630, 183.9375
352.1680, 228.0371
353.3720, 83.18555
354.5760, 334.5000
355.7800, 172.6074
356.9840, 465.8477
358.1870, 246.9512
359.3910, 249.0254
360.5940, 92.55859
361.7970, 172.6328
363.0000, 261.7031
364.2030, 28.77148
365.4050, 311.4336
366.6080, 205.7051
367.8100, 95.24023
369.0120, 68.20703
370.2140, 234.8066
371.4150, 23.81250
372.6170, 265.8145
373.8180, 404.1953
375.0190, 224.1855
376.2200, 310.6191
377.4210, 204.7031
378.6220, 226.6699
379.8220, 128.6289
381.0230, 209.5801
382.2230, 387.5195
383.4230, 27.56445
384.6220, 231.3340
385.8220, 181.8301
387.0220, 24.71094
388.2210, 186.5840
389.4200, 49.44531
390.6190, 232.7832
391.8180, 236.1621
393.0160, 135.3125
394.2150, 251.3594
395.4130, 208.4648
396.6110, 109.7422
397.8090, 62.94141
399.0060, 172.9863
400.2040, 227.7051
401.4010, 247.7031
402.5980, 240.0098
403.7950, 102.3906
404.9920, 213.8594
406.1890, 190.9844
407.3860, 322.3145
408.5820, 218.4609
409.7780, 224.4863
410.9740, 180.0176
412.1700, 196.6328
413.3650, 112.3867
414.5610, 339.3730
415.7560, 114.0605
416.9510, 205.8105
418.1460, 148.7500
419.3410, 100.1113
420.5360, 154.2344
421.7300, 37.98633
422.9240, 36.02734
424.1180, 47.64648
425.3120, 98.83594
426.5060, 112.9844
427.7000, 129.4414
428.8930, 126.1582
430.0860, 94.62500
431.2790, 74.55664
432.4720, 102.3984
433.6650, 159.9668
434.8580, 207.0000
436.0500, 0.3339840
437.2420, 251.3184
438.4340, 124.5879
439.6260, 264.6035
440.8180, 44.88086
442.0090, 175.1348
443.2010, 65.67578
444.3920, 169.3984
445.5830, 124.4922
446.7740, 116.2734
447.9640, 41.79102
449.1550, 187.1816
450.3450, 206.4258
451.5350, 125.7559
452.7250, 89.33984
453.9150, 33.44336
455.1050, 149.9082
456.2940, 51.74414
457.4830, 138.9180
458.6720, 148.8984
459.8610, 351.8555
461.0500, 252.4805
462.2390, 29.27539
463.4270, 158.6406
464.6150, 256.2168
465.8040, 12.41211
466.9910, 135.9062
468.1790, 240.8887
469.3670, 452.5527
470.5540, 238.3359
471.7410, 141.0488
472.9280, 191.3848
474.1150, 169.6660
475.3020, 80.72852
476.4890, 412.5430
477.6750, 90.66797
478.8610, 315.3770
480.0470, 208.4492
481.2330, 344.6094
482.4190, 293.0449
483.6040, 271.0293
484.7900, 71.16602
485.9750, 190.0898
487.1600, 310.2559
488.3450, 57.75000
489.5290, 121.5742
490.7140, 267.7090
491.8980, 384.4688
493.0820, 88.21094
494.2660, 189.9043
495.4500, 179.5645
496.6340, 142.1953
497.8170, 491.7891
499.0010, 56.34961
500.1840, 333.8652
501.3670, 259.3477
502.5500, 94.79688
503.7320, 325.2129
504.9150, 328.6191
506.0970, 218.9941
507.2790, 85.33594
508.4610, 165.6426
509.6430, 231.9180
510.8250, 255.6484
512.0060, 317.6367
513.1870, 443.8164
514.3680, 371.9648
515.5490, 52.08008
516.7300, 250.1484
517.9110, 118.1836
519.0910, 202.1816
520.2710, 352.1445
521.4510, 417.1035
522.6310, 452.3848
523.8110, 319.9141
524.9910, 398.7656
526.1700, 299.6484
527.3490, 100.6016
528.5280, 287.7266
529.7070, 437.4961
530.8860, 305.3105
532.0650, 133.9492
533.2430, 55.77148
534.4210, 32.81836
535.5990, 34.94531
536.7770, 65.38672
537.9550, 134.7793
539.1320, 152.6562
540.3100, 188.0898
541.4870, 354.5176
542.6640, 198.8008
543.8410, 270.9863
545.0170, 193.2793
546.1940, 101.3809
547.3700, 160.4824
548.5470, 116.5391
549.7230, 32.56250
550.8980, 178.5488
552.0740, 50.93555
553.2500, 274.4219
554.4250, 239.7324
555.6000, 181.6523
556.7750, 21.59375
557.9500, 244.0371
559.1250, 77.34961
560.2990, 113.9062
561.4730, 155.2988
562.6480, 239.5469
563.8220, 72.28320
564.9950, 272.6035
566.1690, 7.236328
567.3430, 247.5762
568.5160, 211.6094
569.6890, 63.39844
570.8620, 309.3242
572.0350, 196.6055
573.2070, 11.99414
574.3800, 390.4707
575.5520, 143.9766
576.7240, 230.2871
577.8960, 52.99805
579.0680, 125.6387
580.2400, 382.2812
581.4110, 279.6992
582.5830, 12.96680
583.7540, 210.5469
584.9250, 163.8066
586.0950, 326.7402
587.2660, 119.3555
588.4370, 175.7676
589.6070, 31.10352
590.7770, 232.9395
591.9470, 208.0078
593.1170, 352.4668
594.2860, 240.2051
595.4560, 194.7070
596.6250, 150.8066
597.7940, 298.7266
598.9630, 55.02930
600.1320, 21.64453
601.3000, 288.0996
602.4690, 67.68359
603.6370, 103.4395
604.8050, 283.5156
605.9730, 131.2832
607.1410, 286.5664
608.3090, 165.0840
609.4760, 236.4961
610.6430, 202.6074
611.8100, 212.9453
612.9770, 298.2559
614.1440, 419.4961
615.3110, 54.67969
616.4770, 269.9531
617.6430, 373.4707
618.8090, 154.1055
619.9750, 320.4160
621.1410, 67.30078
622.3070, 202.2109
623.4720, 379.4668
624.6370, 260.5527
625.8020, 379.4023
626.9670, 238.3398
628.1320, 335.8555
629.2970, 371.1953
630.4610, 441.7988
631.6250, 513.5605
632.7890, 304.4258
633.9530, 552.4531
635.1170, 408.4316
636.2810, 641.4004
637.4440, 603.3906
638.6070, 609.5312
639.7700, 826.6641
640.9330, 599.3906
642.0960, 690.5449
643.2590, 790.9414
644.4210, 1087.160
645.5830, 1203.654
646.7450, 1121.486
647.9070, 1557.977
649.0690, 1439.934
650.2310, 1514.898
651.3920, 1517.848
652.5530, 1526.068
653.7140, 1412.676
654.8750, 1377.695
656.0360, 957.3301
657.1970, 713.1289
658.3570, 808.8633
659.5170, 556.0273
660.6770, 579.0781
661.8370, 602.3574
662.9970, 504.3496
664.1570, 375.0234
665.3160, 160.4668
666.4750, 290.2637
667.6340, 239.5332
668.7930, 316.3594
669.9520, 298.0723
671.1110, 416.2188
672.2690, 279.9062
673.4270, 303.0078
674.5850, 374.5332
675.7430, 382.5176
676.9010, 338.4297
678.0590, 204.4551
679.2160, 449.6367
680.3730, 261.0059
681.5300, 89.41211
682.6870, 367.7500
683.8440, 297.0430
685.0010, 419.9648
686.1570, 623.1641
687.3130, 397.0293
688.4690, 338.7285
689.6250, 331.5059
690.7810, 225.3066
691.9370, 187.7285
693.0920, 219.8359
694.2470, 303.4590
695.4020, 43.75586
696.5570, 148.7734
697.7120, 171.1465
698.8670, 444.7734
700.0210, 20.24805
701.1750, 152.2891
702.3290, 55.06055
703.4830, 110.1562
704.6370, 138.2871
705.7910, 197.7773
706.9440, 134.6504
708.0970, 133.3223
709.2510, 163.0957
710.4030, 259.0566
711.5560, 221.4766
712.7090, 231.5645
713.8610, 163.5098
715.0140, 204.6914
716.1660, 182.0254
717.3180, 344.1992
718.4690, 170.1680
719.6210, 113.7539
720.7730, 115.1777
721.9240, 288.8086
723.0750, 114.8242
724.2260, 180.7773
725.3770, 75.77930
726.5270, 62.08008
727.6780, 280.6680
728.8280, 95.95312
729.9780, 351.4883
731.1280, 212.3906
732.2780, 161.3906
733.4280, 437.9824
734.5770, 51.45703
735.7260, 139.7168
736.8760, 195.7012
738.0250, 175.4844
739.1730, 293.2773
740.3220, 9.308594
741.4700, 97.52344
742.6190, 161.3594
743.7670, 33.91797
744.9150, 288.4102
746.0630, 52.12500
747.2100, 59.31836
748.3580, 108.7500
749.5050, 286.2168
750.6520, 280.8809
751.7990, 292.5488
752.9460, 294.9219
754.0930, 190.8477
755.2390, 190.2598
756.3860, 87.73438
757.5320, 24.75586
758.6780, 307.7734
759.8240, 60.89648
760.9690, 195.4590
762.1150, 224.8574
763.2600, 152.2930
764.4060, 237.8027
765.5510, 89.07227
766.6950, 155.1426
767.8400, 230.1992
768.9850, 238.4902
770.1290, 203.0820
771.2730, 294.6055
772.4170, 153.3203
773.5610, 133.0586
774.7050, 316.6914
775.8480, 496.4570
776.9920, 278.1875
778.1350, 158.1562
779.2780, 284.3828
780.4210, 106.2930
781.5640, 76.97656
782.7060, 172.5781
783.8490, 79.39453
784.9910, 37.29688
786.1330, 20.99219
787.2750, 39.79297
788.4170, 38.23438
789.5580, 185.2500
790.7000, 80.44531
791.8410, 211.1367
792.9820, 198.3633
794.1230, 35.30469
795.2640, 134.4570
796.4040, 103.1016
797.5450, 82.49609
798.6850, 80.71875
799.8250, 138.1445
800.9650, 201.3672
802.1050, 244.4219
803.2450, 148.8398
804.3840, 117.7109
805.5230, 116.2227
806.6630, 73.71094
807.8020, 72.95312
808.9400, 32.02734
810.0790, 110.9922
811.2170, 58.51953
812.3560, 182.0312
813.4940, 167.4336
814.6320, 443.0469
815.7700, 294.0547
816.9070, 268.9258
818.0450, 401.3398
819.1820, 42.52734
820.3190, 497.2305
821.4560, 391.9727
822.5930, 146.8750
823.7300, 279.8125
824.8670, 254.2188
826.0030, 262.5586
827.1390, 268.8242
828.2750, 222.5977
829.4110, 259.1719
830.5470, 342.8281
831.6820, 212.7891
832.8180, 363.6250
833.9530, 85.85156
835.0880, 200.1133
836.2230, 119.0273
837.3580, 44.00391
838.4920, 158.0273
839.6270, 245.3945
840.7610, 316.1367
841.8950, 381.2109
843.0290, 82.00391
844.1630, 370.7422
845.2960, 314.7656
846.4300, 75.61719
847.5630, 360.8047
848.6960, 331.7891
849.8290, 81.78906
850.9620, 43.54688
852.0940, 256.1914
853.2270, 176.7852
854.3590, 47.25781
855.4910, 344.7422
856.6230, 371.9414
857.7550, 262.0977
858.8870, 313.9492
860.0180, 266.0195
861.1500, 144.3242
862.2810, 126.1094
863.4120, 97.73438
864.5430, 182.2969
865.6730, 138.0703
866.8040, 250.9922
867.9340, 72.14844
869.0640, 104.0352
870.1940, 81.51562
871.3240, 451.7305
872.4540, 277.3633
873.5830, 230.1797
874.7130, 16.86719
875.8420, 18.01953
876.9710, 112.5977
878.1000, 283.8633
879.2290, 92.15625
880.3570, 127.5156
881.4860, 220.3438
882.6140, 13.06641
883.7420, 205.7852
884.8700, 21.29688
885.9980, 97.28906
887.1250, 36.19922
888.2530, 235.2656
889.3800, 29.69531
890.5070, 174.6289
891.6340, 173.5078
892.7610, 121.9062
893.8880, 252.7930
895.0140, 3.007813
896.1400, 233.0938
897.2670, 119.7383
898.3930, 55.46875
899.5180, 332.8398
900.6440, 50.32031
901.7700, 78.38672
902.8950, 196.7070
904.0200, 325.0859
905.1450, 217.9141
906.2700, 218.1875
907.3950, 161.7969
908.5190, 143.8398
909.6440, 154.7852
910.7680, 110.1055
911.8920, 107.3945
913.0160, 47.67969
914.1400, 10.59375
915.2630, 42.23047
916.3870, 11.12891
917.5100, 71.86719
918.6330, 232.1406
919.7560, 198.3672
920.8790, 233.2891
922.0010, 128.1797
923.1240, 88.47266
924.2460, 73.09375
925.3680, 388.6797
926.4900, 2.496094
927.6120, 239.4570
928.7340, 92.70312
929.8550, 248.0625
930.9760, 115.8047
932.0980, 21.97656
933.2190, 171.7109
934.3390, 106.0820
935.4600, 152.3203
936.5810, 177.1016
937.7010, 146.2383
938.8210, 161.2656
939.9410, 181.6875
941.0610, 109.9336
942.1810, 160.9609
943.3010, 104.9258
944.4200, 290.0234
945.5390, 166.2383
946.6580, 186.0977
947.7770, 201.8203
948.8960, 137.9883
950.0150, 37.23047
951.1330, 337.3633
952.2510, 76.11719
953.3690, 172.7695
954.4870, 292.1016
955.6050, 31.31641
956.7230, 155.2109
957.8400, 15.02734
958.9580, 401.2812
960.0750, 342.3945
961.1920, 455.5078
962.3090, 451.8906
963.4250, 548.7578
964.5420, 502.6562
965.6580, 533.4648
966.7740, 383.9336
967.8900, 516.1211
969.0060, 445.4219
970.1220, 555.5312
971.2380, 550.6406
972.3530, 461.6250
973.4680, 526.9844
974.5830, 514.6875
975.6980, 441.0625
976.8130, 459.7656
977.9280, 328.6992
979.0420, 203.8320
980.1560, 295.6797
981.2710, 447.7266
982.3850, 365.5117
983.4980, 445.2617
984.6120, 441.9961
985.7260, 707.5703
986.8390, 480.9688
987.9520, 202.9844
989.0650, 408.3633
990.1780, 657.8672
991.2910, 389.3359
992.4030, 504.6914
993.5160, 288.2031
994.6280, 498.5312
995.7400, 724.1328
996.8520, 314.3633
997.9640, 283.9531
999.0750, 525.5703
1000.187, 202.9727
1001.298, 537.7734
1002.409, 520.7930
1003.520, 310.9180
1004.631, 485.9180
1005.741, 489.8633
1006.852, 281.6250
1007.962, 663.4766
1009.072, 461.9180
1010.182, 372.3438
1011.292, 271.4531
1012.402, 146.1016
1013.511, 268.6914
1014.621, 374.6875
1015.730, 390.9492
1016.839, 493.1250
1017.948, 621.2695
1019.056, 351.1445
1020.165, 615.7188
1021.273, 690.4414
1022.382, 637.4219
1023.490, 1016.395
1024.598, 608.0586
1025.706, 766.6836
1026.813, 929.0625
1027.921, 817.9492
1029.028, 477.5234
1030.135, 398.4453
1031.242, 354.0664
1032.349, 274.3867
1033.456, 60.87109
1034.562, 235.6484
1035.668, 227.5312
1036.775, 44.87109
1037.881, 163.6289
1038.987, 285.9766
1040.092, 263.3008
1041.198, 227.3398
1042.303, 17.28125
1043.408, 59.69922
1044.514, 55.97266
1045.618, 28.67969
1046.723, 42.37109
1047.828, 9.308594
1048.932, 46.78125
1050.037, 17.83594
1051.141, 62.93750
1052.245, 206.7305
1053.349, 6.253906
1054.452, 159.0898
1055.556, 86.21094
1056.659, 45.15625
1057.762, 97.12500
1058.865, 9.796875
1059.968, 54.95312
1061.071, 196.2617
1062.174, 201.1562
1063.276, 396.6992
1064.378, 71.31641
1065.480, 381.0000
1066.582, 431.5117
1067.684, 89.12891
1068.786, 383.0703
1069.887, 176.0820
1070.988, 56.24609
1072.090, 214.6094
1073.191, 339.0508
1074.291, 391.8828
1075.392, 379.9766
1076.493, 101.9180
1077.593, 179.2266
1078.693, 194.4883
1079.793, 110.7031
1080.893, 390.8672
1081.993, 259.9961
1083.092, 321.1055
1084.192, 149.1875
1085.291, 596.2070
1086.390, 533.7578
1087.489, 509.6094
1088.588, 550.4219
1089.686, 187.2305
1090.785, 217.6523
1091.883, 221.4219
1092.981, 288.1523
1094.079, 151.8438
1095.177, 19.50781
1096.275, 59.13281
1097.373, 41.35156
1098.470, 51.02344
1099.567, 217.4961
1100.664, 188.0273
1101.761, 100.5547
1102.858, 270.3477
1103.954, 405.9141
1105.051, 244.4727
1106.147, 293.0352
1107.243, 118.6289
1108.339, 21.76172
1109.435, 20.84766
1110.531, 92.54297
1111.626, 337.0781
1112.722, 159.6133
1113.817, 291.7266
1114.912, 316.5898
1116.007, 354.4805
1117.101, 360.8398
1118.196, 300.0039
1119.290, 403.2344
1120.385, 378.9258
1121.479, 402.7812
1122.573, 611.5742
1123.666, 180.1094
1124.760, 184.6680
1125.853, 169.8828
1126.947, 265.6172
1128.040, 58.87109
1129.133, 13.00781
1130.226, 409.3711
1131.318, 463.1406
1132.411, 336.1133
1133.503, 340.1680
1134.596, 346.1445
1135.688, 415.5430
1136.780, 195.4453
1137.871, 415.3633
1138.963, 121.5039
1140.054, 465.3203
1141.146, 504.7461
1142.237, 162.4609
1143.328, 203.3906
1144.419, 403.4609
1145.509, 176.5898
1146.600, 435.5391
1147.690, 273.3398
1148.780, 217.4688
1149.870, 533.2578
1150.960, 347.1797
1152.050, 287.9570
1153.139, 430.8945
1154.229, 304.5078
1155.318, 244.0078
1156.407, 266.5273
1157.496, 294.0508
1158.585, 215.5078
1159.674, 347.1953
1160.762, 115.2070
1161.850, 82.52734
1162.939, 320.9180
1164.027, 269.2070
1165.114, 344.2852
1166.202, 602.5625
1167.290, 426.3359
1168.377, 590.9648
1169.464, 505.5625
1170.551, 630.6836
1171.638, 398.8750
1172.725, 254.5469
1173.812, 290.2266
1174.898, 373.8984
1175.984, 165.6680
1177.071, 151.3281
1178.157, 67.20703
1179.242, 267.5469
1180.328, 209.3633
1181.414, 230.4258
1182.499, 93.34766
1183.584, 210.3438
1184.669, 48.76172
1185.754, 116.1445
1186.839, 94.76953
1187.924, 285.1875
1189.008, 320.6602
1190.092, 1.292969
1191.177, 0.0000000E+00
##END=



