##NAMES=Pectolite
##RRUFFID=R060101
##IDEAL CHEMISTRY=NaCa_2_Si_3_O_8_(OH)
##LOCALITY=West Patterson, New Jersey, USA
##OWNER=RRUFF
##SOURCE=University of Arizona Mineral Museum
##DESCRIPTION=Tufts of white acicular sprays
##STATUS=The identification of this mineral has been confirmed by X-ray diffraction and chemical analysis
##URL=rruff.info/R060101
##MEASURED CHEMISTRY=Na_1.02_Ca_2.00_Si_2.99_O_8_(OH)
##PIN_ID=L00538
##ORIENTATION=Laser parallel to (0 -1 -1). Fiducial mark perpendicular to laser is parallel to -a [-1 0 0]
121.4100, 0.0000000E+00
122.6480, 1.737427
123.8850, 14.49170
125.1230, 30.66125
126.3600, 43.52515
127.5960, 43.66406
128.8330, 1.766113
130.0700, 56.80713
131.3060, 51.48267
132.5420, 14.23901
133.7780, 51.31006
135.0140, 12.58826
136.2500, 43.82727
137.4850, 42.01099
138.7200, 61.19019
139.9550, 51.31909
141.1900, 91.38574
142.4250, 98.39600
143.6600, 127.9720
144.8940, 95.00366
146.1280, 86.25635
147.3620, 63.37610
148.5960, 83.17578
149.8300, 116.4182
151.0630, 108.6311
152.2960, 115.3925
153.5300, 104.4231
154.7620, 93.85449
155.9950, 61.82910
157.2280, 67.65833
158.4600, 69.41711
159.6920, 63.08911
160.9250, 68.69861
162.1560, 56.28711
163.3880, 50.03589
164.6200, 41.50806
165.8510, 11.96826
167.0820, 39.57520
168.3130, 30.01807
169.5440, 10.57849
170.7750, 49.75391
172.0050, 14.02087
173.2350, 36.23657
174.4650, 25.41809
175.6950, 37.63513
176.9250, 23.99744
178.1550, 18.50989
179.3840, 37.26343
180.6130, 14.13281
181.8420, 64.41919
183.0710, 42.70093
184.3000, 56.22632
185.5280, 40.16431
186.7570, 42.03613
187.9850, 44.13599
189.2130, 52.59155
190.4400, 61.43689
191.6680, 78.78137
192.8960, 84.65210
194.1230, 84.40991
195.3500, 85.30530
196.5770, 88.55652
197.8030, 100.9886
199.0300, 95.69641
200.2560, 103.7217
201.4830, 59.63184
202.7090, 96.45911
203.9340, 74.01575
205.1600, 45.90198
206.3860, 71.84314
207.6110, 74.11316
208.8360, 77.48120
210.0610, 103.7266
211.2860, 52.03699
212.5100, 88.04053
213.7350, 87.26904
214.9590, 124.8965
216.1830, 101.8414
217.4070, 142.0883
218.6310, 125.0402
219.8540, 129.9702
221.0780, 127.3020
222.3010, 126.2035
223.5240, 96.41382
224.7470, 106.6506
225.9690, 76.34424
227.1920, 82.82532
228.4140, 99.47217
229.6360, 66.06445
230.8580, 50.60400
232.0800, 91.34119
233.3020, 98.69055
234.5230, 33.83752
235.7440, 39.42517
236.9650, 41.46594
238.1860, 36.58423
239.4070, 21.35156
240.6280, 0.2363280
241.8480, 7.800049
243.0680, 48.73730
244.2880, 50.89575
245.5080, 22.97815
246.7280, 38.25757
247.9470, 0.2283940
249.1660, 44.32422
250.3860, 21.58130
251.6040, 49.31042
252.8230, 8.865112
254.0420, 31.23743
255.2600, 50.27148
256.4790, 45.99939
257.6970, 33.75757
258.9150, 37.75659
260.1320, 33.68359
261.3500, 1.459473
262.5670, 40.98608
263.7840, 57.04187
265.0010, 78.96362
266.2180, 30.47437
267.4350, 68.36707
268.6510, 20.64490
269.8680, 79.80212
271.0840, 106.9814
272.3000, 86.86108
273.5160, 59.13025
274.7310, 32.10938
275.9470, 79.07922
277.1620, 46.09802
278.3770, 23.43933
279.5920, 5.655518
280.8070, 77.74854
282.0210, 60.94031
283.2360, 40.19849
284.4500, 123.9824
285.6640, 40.96521
286.8780, 51.14038
288.0920, 40.20117
289.3050, 43.37744
290.5180, 39.39453
291.7320, 11.55688
292.9450, 23.62939
294.1570, 11.66162
295.3700, 6.675781
296.5830, 8.051758
297.7950, 24.59644
299.0070, 4.569580
300.2190, 15.36523
301.4310, 18.14868
302.6420, 48.95386
303.8540, 43.60132
305.0650, 9.045166
306.2760, 55.82056
307.4870, 64.38452
308.6980, 0.8337400
309.9080, 119.8420
311.1190, 65.51855
312.3290, 122.0149
313.5390, 129.7336
314.7490, 168.3447
315.9580, 142.0227
317.1680, 117.5562
318.3770, 103.9817
319.5860, 175.3625
320.7950, 53.64746
322.0040, 171.0415
323.2130, 59.13599
324.4210, 148.1179
325.6290, 102.3218
326.8380, 65.21411
328.0460, 19.28857
329.2530, 67.26172
330.4610, 53.37134
331.6680, 65.43506
332.8760, 38.38599
334.0830, 47.21118
335.2890, 54.10669
336.4960, 36.07764
337.7030, 48.86914
338.9090, 45.67651
340.1150, 11.40332
341.3210, 42.12280
342.5270, 80.03467
343.7330, 38.86792
344.9380, 71.57935
346.1440, 80.48999
347.3490, 5.288330
348.5540, 60.96265
349.7590, 94.62500
350.9630, 69.07104
352.1680, 62.63916
353.3720, 82.07471
354.5760, 74.72949
355.7800, 76.33521
356.9840, 126.9207
358.1870, 113.9417
359.3910, 98.48682
360.5940, 66.70947
361.7970, 42.98511
363.0000, 3.023926
364.2030, 69.97803
365.4050, 44.29492
366.6080, 76.44727
367.8100, 38.57666
369.0120, 13.74756
370.2140, 73.04370
371.4150, 69.05103
372.6170, 66.14307
373.8180, 38.05518
375.0190, 65.16113
376.2200, 28.04248
377.4210, 68.70874
378.6220, 66.85376
379.8220, 66.48730
381.0230, 57.91675
382.2230, 82.42261
383.4230, 55.13867
384.6220, 14.74414
385.8220, 30.63062
387.0220, 46.37646
388.2210, 64.69946
389.4200, 70.28711
390.6190, 57.31665
391.8180, 56.98120
393.0160, 24.08447
394.2150, 27.19092
395.4130, 22.57642
396.6110, 8.864746
397.8090, 15.18237
399.0060, 80.35596
400.2040, 56.45508
401.4010, 67.58887
402.5980, 110.4771
403.7950, 10.51221
404.9920, 8.048096
406.1890, 7.622803
407.3860, 7.426025
408.5820, 95.68091
409.7780, 103.6436
410.9740, 139.1929
412.1700, 83.26050
413.3650, 100.7786
414.5610, 86.59399
415.7560, 143.3801
416.9510, 47.03027
418.1460, 112.6021
419.3410, 52.09863
420.5360, 94.81494
421.7300, 13.34717
422.9240, 38.76733
424.1180, 62.79883
425.3120, 31.84595
426.5060, 18.45703
427.7000, 126.9812
428.8930, 74.18164
430.0860, 28.11523
431.2790, 50.10254
432.4720, 21.34180
433.6650, 53.34644
434.8580, 13.04639
436.0500, 23.18066
437.2420, 27.13940
438.4340, 25.93530
439.6260, 30.62427
440.8180, 29.35327
442.0090, 21.64185
443.2010, 57.94336
444.3920, 12.62476
445.5830, 13.47510
446.7740, 75.06152
447.9640, 6.472412
449.1550, 10.12183
450.3450, 76.61914
451.5350, 18.96680
452.7250, 37.73779
453.9150, 32.20532
455.1050, 46.43335
456.2940, 10.78125
457.4830, 24.65332
458.6720, 25.17993
459.8610, 38.27295
461.0500, 34.44238
462.2390, 62.01660
463.4270, 68.08398
464.6150, 47.76025
465.8040, 102.3762
466.9910, 116.8276
468.1790, 75.61963
469.3670, 112.4194
470.5540, 90.91040
471.7410, 103.2349
472.9280, 65.71875
474.1150, 57.04492
475.3020, 72.38672
476.4890, 94.42578
477.6750, 79.52026
478.8610, 60.40625
480.0470, 96.07959
481.2330, 85.90454
482.4190, 98.69287
483.6040, 93.62329
484.7900, 41.53540
485.9750, 53.87427
487.1600, 76.10938
488.3450, 21.64673
489.5290, 40.19727
490.7140, 64.41016
491.8980, 60.62354
493.0820, 88.99683
494.2660, 69.09106
495.4500, 92.94800
496.6340, 33.01489
497.8170, 36.61816
499.0010, 21.53198
500.1840, 5.614990
501.3670, 27.18530
502.5500, 96.80713
503.7320, 75.94678
504.9150, 124.9302
506.0970, 137.6912
507.2790, 43.67676
508.4610, 75.49365
509.6430, 73.38647
510.8250, 55.56177
512.0060, 17.57104
513.1870, 78.26807
514.3680, 49.89722
515.5490, 84.45215
516.7300, 23.82983
517.9110, 53.25928
519.0910, 117.4707
520.2710, 0.7934570
521.4510, 69.04517
522.6310, 114.5400
523.8110, 89.69238
524.9910, 26.20264
526.1700, 125.7588
527.3490, 24.98242
528.5280, 42.33691
529.7070, 98.43066
530.8860, 28.79248
532.0650, 63.54541
533.2430, 119.6328
534.4210, 40.10107
535.5990, 103.6460
536.7770, 108.7402
537.9550, 48.11377
539.1320, 61.97754
540.3100, 40.05371
541.4870, 68.20703
542.6640, 47.26953
543.8410, 84.91016
545.0170, 51.38574
546.1940, 7.529297
547.3700, 94.21533
548.5470, 76.57666
549.7230, 1.433105
550.8980, 57.23047
552.0740, 98.66504
553.2500, 5.401855
554.4250, 79.14795
555.6000, 57.60254
556.7750, 63.36914
557.9500, 85.72510
559.1250, 66.61328
560.2990, 47.70801
561.4730, 32.85352
562.6480, 36.19385
563.8220, 30.02295
564.9950, 94.47217
566.1690, 44.98096
567.3430, 56.56006
568.5160, 1.891602
569.6890, 94.79492
570.8620, 44.82715
572.0350, 80.63184
573.2070, 35.28125
574.3800, 46.47266
575.5520, 104.5557
576.7240, 123.1982
577.8960, 49.97021
579.0680, 51.69824
580.2400, 29.56006
581.4110, 9.958008
582.5830, 27.33691
583.7540, 85.98047
584.9250, 54.55762
586.0950, 110.3555
587.2660, 33.79199
588.4370, 34.16943
589.6070, 23.97168
590.7770, 14.53027
591.9470, 48.20410
593.1170, 69.72754
594.2860, 40.41162
595.4560, 42.23828
596.6250, 51.65430
597.7940, 75.93945
598.9630, 63.62305
600.1320, 78.91553
601.3000, 49.50977
602.4690, 5.991211
603.6370, 51.48877
604.8050, 73.89453
605.9730, 26.71143
607.1410, 109.3447
608.3090, 72.64941
609.4760, 46.02490
610.6430, 70.94531
611.8100, 52.91406
612.9770, 51.15283
614.1440, 63.43457
615.3110, 59.64355
616.4770, 92.98877
617.6430, 76.74756
618.8090, 121.3477
619.9750, 141.5005
621.1410, 106.0352
622.3070, 99.30273
623.4720, 158.8013
624.6370, 141.2236
625.8020, 204.0952
626.9670, 175.0635
628.1320, 123.0649
629.2970, 115.7949
630.4610, 108.5923
631.6250, 151.3774
632.7890, 134.0161
633.9530, 163.0654
635.1170, 200.8672
636.2810, 156.9961
637.4440, 247.3516
638.6070, 161.4980
639.7700, 214.1875
640.9330, 170.9214
642.0960, 267.9453
643.2590, 307.6572
644.4210, 502.8901
645.5830, 548.1777
646.7450, 650.4277
647.9070, 766.6313
649.0690, 848.2705
650.2310, 897.5298
651.3920, 947.0947
652.5530, 933.2188
653.7140, 937.1982
654.8750, 793.1216
656.0360, 654.3452
657.1970, 539.1987
658.3570, 508.6226
659.5170, 457.9370
660.6770, 366.3760
661.8370, 237.0498
662.9970, 297.0215
664.1570, 222.4912
665.3160, 170.0356
666.4750, 190.7241
667.6340, 172.4233
668.7930, 229.3799
669.9520, 169.5278
671.1110, 67.02344
672.2690, 201.7949
673.4270, 96.71094
674.5850, 31.10791
675.7430, 127.8286
676.9010, 45.42041
678.0590, 138.8462
679.2160, 81.04541
680.3730, 113.0894
681.5300, 96.12158
682.6870, 192.9878
683.8440, 27.13379
685.0010, 111.0356
686.1570, 62.34766
687.3130, 139.7407
688.4690, 213.2163
689.6250, 124.4346
690.7810, 172.2861
691.9370, 120.7241
693.0920, 46.76562
694.2470, 119.0625
695.4020, 25.11475
696.5570, 154.1846
697.7120, 154.1616
698.8670, 155.1504
700.0210, 66.91455
701.1750, 13.42383
702.3290, 72.06592
703.4830, 172.7075
704.6370, 158.1055
705.7910, 107.6343
706.9440, 71.27197
708.0970, 130.3916
709.2510, 135.5591
710.4030, 44.01025
711.5560, 138.8013
712.7090, 165.3892
713.8610, 104.0063
715.0140, 156.7808
716.1660, 120.5957
717.3180, 118.4224
718.4690, 70.86523
719.6210, 169.6465
720.7730, 78.87256
721.9240, 140.3862
723.0750, 98.37354
724.2260, 32.26660
725.3770, 85.96240
726.5270, 116.0557
727.6780, 62.91260
728.8280, 12.84326
729.9780, 23.77637
731.1280, 204.8042
732.2780, 168.6030
733.4280, 111.5586
734.5770, 35.18604
735.7260, 185.7627
736.8760, 87.97607
738.0250, 164.1572
739.1730, 87.94580
740.3220, 89.00781
741.4700, 101.7959
742.6190, 107.7510
743.7670, 72.75391
744.9150, 186.5068
746.0630, 124.6797
747.2100, 48.47266
748.3580, 175.8945
749.5050, 126.3184
750.6520, 57.36328
751.7990, 31.90137
752.9460, 67.94531
754.0930, 84.10547
755.2390, 93.23340
756.3860, 98.11816
757.5320, 168.1172
758.6780, 95.32617
759.8240, 131.4385
760.9690, 70.92188
762.1150, 66.55664
763.2600, 127.6895
764.4060, 99.53809
765.5510, 98.26953
766.6950, 90.33984
767.8400, 59.76074
768.9850, 96.92969
770.1290, 98.08984
771.2730, 34.11328
772.4170, 44.71289
773.5610, 197.2617
774.7050, 64.64844
775.8480, 100.1514
776.9920, 0.8242190
778.1350, 106.0947
779.2780, 70.73242
780.4210, 197.7861
781.5640, 48.94043
782.7060, 58.26367
783.8490, 61.51270
784.9910, 196.3477
786.1330, 106.4180
787.2750, 183.9727
788.4170, 82.86816
789.5580, 132.5889
790.7000, 12.59863
791.8410, 179.1553
792.9820, 123.5742
794.1230, 134.4463
795.2640, 259.6338
796.4040, 92.48633
797.5450, 162.5869
798.6850, 162.3818
799.8250, 118.3682
800.9650, 195.0215
802.1050, 93.98340
803.2450, 138.8164
804.3840, 126.7969
805.5230, 190.2090
806.6630, 180.6055
807.8020, 247.2383
808.9400, 194.8564
810.0790, 195.7285
811.2170, 219.0498
812.3560, 182.7852
813.4940, 197.6133
814.6320, 156.6865
815.7700, 203.1797
816.9070, 197.4229
818.0450, 207.7207
819.1820, 203.9990
820.3190, 153.3311
821.4560, 154.9229
822.5930, 130.9131
823.7300, 68.30566
824.8670, 225.7344
826.0030, 163.8359
827.1390, 82.99414
828.2750, 191.4805
829.4110, 169.7119
830.5470, 159.6035
831.6820, 173.3711
832.8180, 150.7080
833.9530, 171.9141
835.0880, 127.2393
836.2230, 138.4365
837.3580, 124.1846
838.4920, 140.6055
839.6270, 84.80469
840.7610, 173.4014
841.8950, 102.9346
843.0290, 66.16797
844.1630, 74.04102
845.2960, 138.7539
846.4300, 71.81738
847.5630, 166.7197
848.6960, 109.9639
849.8290, 8.581055
850.9620, 11.23828
852.0940, 114.9033
853.2270, 255.3320
854.3590, 2.406250
855.4910, 198.8662
856.6230, 75.00195
857.7550, 306.3516
858.8870, 145.0059
860.0180, 112.4355
861.1500, 32.63281
862.2810, 52.05078
863.4120, 68.22461
864.5430, 34.35352
865.6730, 180.7803
866.8040, 166.5176
867.9340, 219.5264
869.0640, 128.4668
870.1940, 70.82324
871.3240, 94.11719
872.4540, 62.27148
873.5830, 226.7178
874.7130, 90.06543
875.8420, 190.9951
876.9710, 114.7021
878.1000, 167.6758
879.2290, 153.1396
880.3570, 2.9300000E-03
881.4860, 103.4443
882.6140, 126.1738
883.7420, 161.8145
884.8700, 24.61523
885.9980, 40.20215
887.1250, 4.350586
888.2530, 163.1201
889.3800, 107.9551
890.5070, 118.7207
891.6340, 133.4043
892.7610, 124.0820
893.8880, 89.79883
895.0140, 70.08496
896.1400, 144.4033
897.2670, 140.6162
898.3930, 215.8467
899.5180, 96.79492
900.6440, 4.632813
901.7700, 131.4414
902.8950, 253.0215
904.0200, 76.75879
905.1450, 5.562500
906.2700, 79.62500
907.3950, 148.5078
908.5190, 170.4756
909.6440, 149.8096
910.7680, 184.7852
911.8920, 74.68652
913.0160, 15.74707
914.1400, 26.45801
915.2630, 31.49414
916.3870, 151.3350
917.5100, 99.75098
918.6330, 8.001953
919.7560, 146.8574
920.8790, 88.98340
922.0010, 36.34863
923.1240, 43.53027
924.2460, 89.52246
925.3680, 1.961914
926.4900, 55.20117
927.6120, 82.15332
928.7340, 24.75293
929.8550, 74.70703
930.9760, 111.1758
932.0980, 2.748047
933.2190, 89.96973
934.3390, 27.15625
935.4600, 71.37012
936.5810, 102.4229
937.7010, 123.8750
938.8210, 146.6016
939.9410, 99.97363
941.0610, 116.3223
942.1810, 44.88281
943.3010, 98.74023
944.4200, 126.9551
945.5390, 124.7031
946.6580, 215.7725
947.7770, 169.5684
948.8960, 5.220703
950.0150, 246.5752
951.1330, 48.00098
952.2510, 44.45996
953.3690, 216.6270
954.4870, 170.8154
955.6050, 196.5127
956.7230, 28.10059
957.8400, 31.54785
958.9580, 68.24805
960.0750, 144.6709
961.1920, 62.71582
962.3090, 189.2568
963.4250, 168.7715
964.5420, 145.4746
965.6580, 217.1777
966.7740, 258.6309
967.8900, 250.7910
969.0060, 265.4336
970.1220, 265.9844
971.2380, 253.8145
972.3530, 281.4688
973.4680, 328.1387
974.5830, 302.3672
975.6980, 271.9199
976.8130, 69.01172
977.9280, 284.7051
979.0420, 111.3594
980.1560, 240.2695
981.2710, 160.6797
982.3850, 144.6328
983.4980, 82.11523
984.6120, 6.580078
985.7260, 9.568359
986.8390, 35.04297
987.9520, 56.71289
989.0650, 92.81055
990.1780, 229.5625
991.2910, 84.43359
992.4030, 61.04297
993.5160, 55.71484
994.6280, 201.4355
995.7400, 180.9824
996.8520, 241.1133
997.9640, 104.9727
999.0750, 297.6953
1000.187, 149.3223
1001.298, 61.66406
1002.409, 209.7773
1003.520, 262.8164
1004.631, 391.1270
1005.741, 328.8633
1006.852, 133.7266
1007.962, 206.0645
1009.072, 202.1797
1010.182, 230.1973
1011.292, 150.2578
1012.402, 250.9160
1013.511, 329.1738
1014.621, 73.63086
1015.730, 119.8926
1016.839, 269.5449
1017.948, 378.9902
1019.056, 300.3223
1020.165, 305.0645
1021.273, 311.5645
1022.382, 311.1660
1023.490, 450.0312
1024.598, 392.7969
1025.706, 269.9941
1026.813, 482.5117
1027.921, 379.4160
1029.028, 365.7695
1030.135, 230.0742
1031.242, 190.3125
1032.349, 293.1406
1033.456, 258.6406
1034.562, 229.6133
1035.668, 48.05273
1036.775, 148.0645
1037.881, 140.1445
1038.987, 283.9863
1040.092, 26.32617
1041.198, 167.7520
1042.303, 75.16992
1043.408, 210.9629
1044.514, 166.3105
1045.618, 69.61523
1046.723, 224.5410
1047.828, 254.1562
1048.932, 157.6797
1050.037, 0.5781250
1051.141, 93.69141
1052.245, 157.3340
1053.349, 194.1602
1054.452, 181.0723
1055.556, 184.4121
1056.659, 204.6758
1057.762, 131.1582
1058.865, 225.0234
1059.968, 31.54297
1061.071, 282.7461
1062.174, 25.62891
1063.276, 358.3887
1064.378, 97.61719
1065.480, 230.2988
1066.582, 195.8477
1067.684, 109.6934
1068.786, 195.1445
1069.887, 328.5664
1070.988, 159.4062
1072.090, 249.3594
1073.191, 388.0586
1074.291, 291.0586
1075.392, 122.8809
1076.493, 296.2305
1077.593, 52.44922
1078.693, 207.1250
1079.793, 305.1484
1080.893, 289.3672
1081.993, 389.4062
1083.092, 277.6387
1084.192, 120.5566
1085.291, 430.2324
1086.390, 117.7422
1087.489, 165.4355
1088.588, 239.2266
1089.686, 234.5664
1090.785, 174.0352
1091.883, 278.3379
1092.981, 166.3906
1094.079, 191.0410
1095.177, 7.714844
1096.275, 195.9277
1097.373, 77.64648
1098.470, 222.4980
1099.567, 219.0723
1100.664, 178.5195
1101.761, 106.3613
1102.858, 111.6777
1103.954, 194.4922
1105.051, 84.94336
1106.147, 107.8008
1107.243, 82.08008
1108.339, 238.9277
1109.435, 93.46680
1110.531, 187.1172
1111.626, 99.08008
1112.722, 123.9258
1113.817, 3.906250
1114.912, 148.1074
1116.007, 331.3223
1117.101, 248.0488
1118.196, 0.0000000E+00
##END=



