##NAMES=Pectolite
##RRUFFID=R060101
##IDEAL CHEMISTRY=NaCa_2_Si_3_O_8_(OH)
##LOCALITY=West Patterson, New Jersey, USA
##OWNER=RRUFF
##SOURCE=University of Arizona Mineral Museum
##DESCRIPTION=Tufts of white acicular sprays
##STATUS=The identification of this mineral has been confirmed by X-ray diffraction and chemical analysis
##URL=rruff.info/R060101
##MEASURED CHEMISTRY=Na_1.02_Ca_2.00_Si_2.99_O_8_(OH)
##PIN_ID=M00210
##ORIENTATION=Laser parallel to -b* (0 -1 0). Fiducial mark perpendicular to laser is parallel to c [0 0 1]
118.9350, 0.0000000E+00
120.1730, 26.05225
121.4100, 0.4353030
122.6480, 53.20898
123.8850, 45.28613
125.1230, 8.240356
126.3600, 23.55811
127.5960, 1.102783
128.8330, 24.80359
130.0700, 104.6208
131.3060, 43.93945
132.5420, 115.2560
133.7780, 53.58240
135.0140, 82.91687
136.2500, 100.2351
137.4850, 146.5891
138.7200, 178.9557
139.9550, 143.3187
141.1900, 156.7339
142.4250, 219.3711
143.6600, 245.5908
144.8940, 213.1989
146.1280, 181.4166
147.3620, 160.1731
148.5960, 142.3483
149.8300, 171.0211
151.0630, 175.3491
152.2960, 122.6382
153.5300, 74.88379
154.7620, 69.94092
155.9950, 93.23523
157.2280, 131.0750
158.4600, 105.1788
159.6920, 41.64246
160.9250, 71.19250
162.1560, 40.81812
163.3880, 35.19983
164.6200, 9.309570
165.8510, 6.032227
167.0820, 60.20618
168.3130, 36.69714
169.5440, 20.99927
170.7750, 48.29077
172.0050, 36.83179
173.2350, 41.80176
174.4650, 54.50977
175.6950, 11.55249
176.9250, 50.44458
178.1550, 43.29541
179.3840, 28.90967
180.6130, 52.41064
181.8420, 79.77368
183.0710, 65.97852
184.3000, 81.77271
185.5280, 98.34424
186.7570, 134.0623
187.9850, 54.70691
189.2130, 123.2859
190.4400, 6.630005
191.6680, 79.03870
192.8960, 56.92456
194.1230, 87.85046
195.3500, 22.81726
196.5770, 90.37329
197.8030, 94.66748
199.0300, 85.50122
200.2560, 35.64221
201.4830, 59.41821
202.7090, 31.83252
203.9340, 53.97681
205.1600, 30.44653
206.3860, 59.55994
207.6110, 46.03918
208.8360, 64.85864
210.0610, 30.84790
211.2860, 91.28833
212.5100, 37.20276
213.7350, 40.27490
214.9590, 141.4398
216.1830, 51.98694
217.4070, 35.67700
218.6310, 83.90442
219.8540, 22.20996
221.0780, 15.46216
222.3010, 91.90918
223.5240, 80.26709
224.7470, 120.9802
225.9690, 35.73950
227.1920, 99.47144
228.4140, 82.14844
229.6360, 56.48682
230.8580, 79.20410
232.0800, 23.12817
233.3020, 75.00073
234.5230, 38.40283
235.7440, 14.92236
236.9650, 79.66284
238.1860, 7.066406
239.4070, 67.58447
240.6280, 13.85303
241.8480, 0.3911130
243.0680, 8.111084
244.2880, 29.48120
245.5080, 24.94067
246.7280, 23.02686
247.9470, 28.26489
249.1660, 57.02466
250.3860, 52.00098
251.6040, 52.33716
252.8230, 52.39941
254.0420, 33.52319
255.2600, 28.53857
256.4790, 61.73486
257.6970, 40.80591
258.9150, 53.09912
260.1320, 4.727539
261.3500, 101.0981
262.5670, 76.82910
263.7840, 26.81396
265.0010, 75.26636
266.2180, 33.18896
267.4350, 57.34521
268.6510, 90.68188
269.8680, 78.42407
271.0840, 65.06079
272.3000, 100.4500
273.5160, 120.9507
274.7310, 52.41162
275.9470, 49.76709
277.1620, 101.4197
278.3770, 67.77612
279.5920, 66.38135
280.8070, 62.81201
282.0210, 109.0938
283.2360, 73.64014
284.4500, 68.98267
285.6640, 5.598633
286.8780, 89.81494
288.0920, 37.62866
289.3050, 52.73706
290.5180, 30.17676
291.7320, 11.58398
292.9450, 58.78687
294.1570, 35.95605
295.3700, 36.95972
296.5830, 14.94263
297.7950, 5.947266
299.0070, 47.19580
300.2190, 91.03516
301.4310, 52.69434
302.6420, 17.64575
303.8540, 43.69629
305.0650, 103.7529
306.2760, 5.876953
307.4870, 100.7173
308.6980, 42.69580
309.9080, 60.60254
311.1190, 99.58057
312.3290, 96.28491
313.5390, 101.8442
314.7490, 69.41064
315.9580, 164.9644
317.1680, 173.5439
318.3770, 163.8076
319.5860, 107.4641
320.7950, 114.0664
322.0040, 159.6257
323.2130, 141.9900
324.4210, 79.25317
325.6290, 20.69897
326.8380, 26.09790
328.0460, 76.47266
329.2530, 77.86890
330.4610, 83.23828
331.6680, 61.36035
332.8760, 85.50269
334.0830, 59.85693
335.2890, 61.03149
336.4960, 90.16602
337.7030, 25.46118
338.9090, 5.344482
340.1150, 80.50098
341.3210, 53.30103
342.5270, 11.07910
343.7330, 78.98730
344.9380, 60.99072
346.1440, 32.68384
347.3490, 90.56641
348.5540, 89.09717
349.7590, 9.104248
350.9630, 118.5913
352.1680, 51.01685
353.3720, 80.54321
354.5760, 82.88550
355.7800, 103.2700
356.9840, 87.58496
358.1870, 17.77319
359.3910, 28.16699
360.5940, 87.36206
361.7970, 41.64331
363.0000, 86.93701
364.2030, 48.19531
365.4050, 65.29712
366.6080, 61.24854
367.8100, 71.40796
369.0120, 49.01904
370.2140, 59.54517
371.4150, 113.2773
372.6170, 67.08887
373.8180, 68.96191
375.0190, 73.78857
376.2200, 132.5107
377.4210, 104.3962
378.6220, 91.40820
379.8220, 97.29810
381.0230, 67.88818
382.2230, 31.60669
383.4230, 24.32593
384.6220, 18.84814
385.8220, 41.98706
387.0220, 6.1523002E-02
388.2210, 109.1233
389.4200, 23.38184
390.6190, 87.57129
391.8180, 3.667725
393.0160, 47.02271
394.2150, 57.48242
395.4130, 1.025879
396.6110, 72.41821
397.8090, 13.75024
399.0060, 52.83618
400.2040, 65.83032
401.4010, 75.03833
402.5980, 114.6938
403.7950, 38.42041
404.9920, 57.05200
406.1890, 25.05811
407.3860, 116.0229
408.5820, 84.70020
409.7780, 172.6150
410.9740, 82.95068
412.1700, 65.51367
413.3650, 26.38745
414.5610, 45.05591
415.7560, 84.63232
416.9510, 70.53784
418.1460, 51.19629
419.3410, 96.77856
420.5360, 28.52246
421.7300, 86.52100
422.9240, 21.99927
424.1180, 58.20117
425.3120, 88.53687
426.5060, 19.95581
427.7000, 63.22510
428.8930, 39.28394
430.0860, 33.73853
431.2790, 18.97705
432.4720, 90.97070
433.6650, 5.830322
434.8580, 47.81104
436.0500, 8.148682
437.2420, 49.79443
438.4340, 83.57837
439.6260, 84.62524
440.8180, 73.09497
442.0090, 8.507324
443.2010, 100.0940
444.3920, 5.403320
445.5830, 60.32251
446.7740, 29.74194
447.9640, 22.12769
449.1550, 2.310059
450.3450, 118.2441
451.5350, 19.60718
452.7250, 28.89062
453.9150, 110.9773
455.1050, 33.13281
456.2940, 93.32178
457.4830, 83.20850
458.6720, 62.96240
459.8610, 69.36401
461.0500, 134.3652
462.2390, 38.61401
463.4270, 45.53540
464.6150, 17.71191
465.8040, 89.78467
466.9910, 100.5229
468.1790, 31.87964
469.3670, 54.56421
470.5540, 53.14307
471.7410, 11.39624
472.9280, 44.25415
474.1150, 96.45752
475.3020, 84.76514
476.4890, 27.00146
477.6750, 63.10010
478.8610, 15.70020
480.0470, 20.56152
481.2330, 102.6963
482.4190, 35.05273
483.6040, 73.49023
484.7900, 112.3545
485.9750, 73.94336
487.1600, 44.54883
488.3450, 83.15430
489.5290, 11.27246
490.7140, 101.5205
491.8980, 51.97412
493.0820, 43.32568
494.2660, 125.5869
495.4500, 79.05029
496.6340, 132.9858
497.8170, 80.50781
499.0010, 128.3975
500.1840, 116.8740
501.3670, 60.02051
502.5500, 131.0498
503.7320, 81.26855
504.9150, 53.24072
506.0970, 92.34277
507.2790, 69.22705
508.4610, 90.12402
509.6430, 92.09326
510.8250, 0.2431640
512.0060, 79.40918
513.1870, 34.05664
514.3680, 6.129883
515.5490, 117.4399
516.7300, 96.96045
517.9110, 135.4414
519.0910, 31.11182
520.2710, 13.39795
521.4510, 27.02637
522.6310, 35.48389
523.8110, 88.97949
524.9910, 105.4966
526.1700, 105.9092
527.3490, 125.0195
528.5280, 94.83984
529.7070, 129.1543
530.8860, 95.16748
532.0650, 97.66211
533.2430, 9.056152
534.4210, 43.55957
535.5990, 39.00098
536.7770, 5.124023
537.9550, 31.92090
539.1320, 36.81104
540.3100, 28.66309
541.4870, 74.50244
542.6640, 47.40527
543.8410, 149.3545
545.0170, 135.5596
546.1940, 2.978027
547.3700, 89.60840
548.5470, 74.10059
549.7230, 11.62402
550.8980, 66.22754
552.0740, 80.15430
553.2500, 112.3628
554.4250, 62.02393
555.6000, 88.22070
556.7750, 86.17676
557.9500, 33.32520
559.1250, 82.50684
560.2990, 44.79736
561.4730, 4.013184
562.6480, 193.6938
563.8220, 45.67236
564.9950, 99.56787
566.1690, 53.53418
567.3430, 64.73682
568.5160, 59.03076
569.6890, 93.93555
570.8620, 43.39551
572.0350, 38.68652
573.2070, 50.39062
574.3800, 76.00488
575.5520, 13.27295
576.7240, 151.5537
577.8960, 99.06494
579.0680, 32.05762
580.2400, 22.07373
581.4110, 63.85303
582.5830, 55.64209
583.7540, 45.25635
584.9250, 98.46484
586.0950, 0.3613280
587.2660, 20.67432
588.4370, 43.25244
589.6070, 54.20361
590.7770, 45.16797
591.9470, 74.97656
593.1170, 24.28320
594.2860, 77.49414
595.4560, 90.30322
596.6250, 67.08008
597.7940, 9.091309
598.9630, 120.8882
600.1320, 6.939453
601.3000, 92.29834
602.4690, 22.23340
603.6370, 73.08496
604.8050, 6.849609
605.9730, 29.93262
607.1410, 98.26758
608.3090, 131.9419
609.4760, 20.73047
610.6430, 1.683594
611.8100, 31.11816
612.9770, 8.045898
614.1440, 108.1060
615.3110, 49.10059
616.4770, 78.43164
617.6430, 73.20605
618.8090, 4.644531
619.9750, 79.64355
621.1410, 55.85254
622.3070, 146.5273
623.4720, 192.9023
624.6370, 51.26611
625.8020, 63.22266
626.9670, 114.2534
628.1320, 82.83691
629.2970, 52.65088
630.4610, 41.43896
631.6250, 108.0742
632.7890, 82.95654
633.9530, 157.3530
635.1170, 268.4995
636.2810, 172.2363
637.4440, 260.7725
638.6070, 180.4556
639.7700, 250.7998
640.9330, 247.9722
642.0960, 363.1543
643.2590, 345.0635
644.4210, 482.5176
645.5830, 550.3730
646.7450, 568.6602
647.9070, 775.3042
649.0690, 702.4629
650.2310, 761.3901
651.3920, 805.6938
652.5530, 718.6538
653.7140, 768.2041
654.8750, 469.8799
656.0360, 481.5942
657.1970, 415.8447
658.3570, 310.4766
659.5170, 299.1172
660.6770, 272.3604
661.8370, 256.2075
662.9970, 206.3149
664.1570, 151.2476
665.3160, 158.0171
666.4750, 132.3413
667.6340, 132.6963
668.7930, 81.78711
669.9520, 48.41357
671.1110, 203.0576
672.2690, 44.14355
673.4270, 225.5615
674.5850, 64.86523
675.7430, 136.9648
676.9010, 115.5669
678.0590, 177.9043
679.2160, 191.3423
680.3730, 56.17627
681.5300, 118.5142
682.6870, 102.0645
683.8440, 54.23047
685.0010, 178.1211
686.1570, 119.1880
687.3130, 105.5610
688.4690, 233.7188
689.6250, 47.06396
690.7810, 96.28906
691.9370, 174.3989
693.0920, 34.29980
694.2470, 91.35010
695.4020, 151.5742
696.5570, 27.90332
697.7120, 93.46533
698.8670, 33.26660
700.0210, 80.93359
701.1750, 117.8447
702.3290, 97.32764
703.4830, 36.90381
704.6370, 41.24609
705.7910, 7.270996
706.9440, 91.58154
708.0970, 65.32520
709.2510, 92.33984
710.4030, 111.7637
711.5560, 135.2510
712.7090, 60.58838
713.8610, 42.33301
715.0140, 65.44922
716.1660, 196.6445
717.3180, 107.9629
718.4690, 156.3379
719.6210, 122.4092
720.7730, 127.7861
721.9240, 89.59473
723.0750, 22.80957
724.2260, 53.69336
725.3770, 7.725586
726.5270, 56.73242
727.6780, 39.22266
728.8280, 81.55273
729.9780, 42.86816
731.1280, 47.13574
732.2780, 62.93457
733.4280, 4.374023
734.5770, 138.4775
735.7260, 170.1631
736.8760, 104.7979
738.0250, 50.77637
739.1730, 1.000977
740.3220, 116.1045
741.4700, 23.87598
742.6190, 33.30273
743.7670, 150.7607
744.9150, 145.0635
746.0630, 58.12402
747.2100, 55.98828
748.3580, 35.90234
749.5050, 68.73340
750.6520, 44.34473
751.7990, 51.04395
752.9460, 102.7910
754.0930, 9.417969
755.2390, 51.55957
756.3860, 37.87793
757.5320, 120.1172
758.6780, 127.3350
759.8240, 80.61621
760.9690, 77.20703
762.1150, 102.5283
763.2600, 6.886719
764.4060, 148.2881
765.5510, 207.9785
766.6950, 23.31250
767.8400, 132.9697
768.9850, 198.3896
770.1290, 72.08301
771.2730, 163.4570
772.4170, 49.55078
773.5610, 84.50391
774.7050, 168.9766
775.8480, 64.77734
776.9920, 176.1973
778.1350, 1.909180
779.2780, 113.6680
780.4210, 235.2305
781.5640, 38.30859
782.7060, 136.3955
783.8490, 55.64453
784.9910, 170.2227
786.1330, 51.16895
787.2750, 92.69824
788.4170, 109.6221
789.5580, 31.51367
790.7000, 76.60254
791.8410, 56.87109
792.9820, 86.60742
794.1230, 160.0674
795.2640, 89.97168
796.4040, 213.8428
797.5450, 64.94141
798.6850, 126.1230
799.8250, 55.14941
800.9650, 132.1250
802.1050, 2.835938
803.2450, 33.20898
804.3840, 250.7197
805.5230, 36.99121
806.6630, 151.9385
807.8020, 94.17676
808.9400, 211.6133
810.0790, 124.2529
811.2170, 68.47168
812.3560, 93.41016
813.4940, 159.4785
814.6320, 232.0225
815.7700, 193.6943
816.9070, 111.1943
818.0450, 16.02734
819.1820, 120.3369
820.3190, 55.60742
821.4560, 87.54980
822.5930, 132.4346
823.7300, 126.5049
824.8670, 143.7578
826.0030, 88.17969
827.1390, 79.60547
828.2750, 101.3770
829.4110, 163.2324
830.5470, 57.56738
831.6820, 258.9160
832.8180, 165.3281
833.9530, 121.1152
835.0880, 52.63184
836.2230, 257.0107
837.3580, 137.0029
838.4920, 172.2881
839.6270, 219.9346
840.7610, 69.27832
841.8950, 77.23047
843.0290, 30.65234
844.1630, 54.05469
845.2960, 9.566406
846.4300, 363.3828
847.5630, 83.59277
848.6960, 112.8594
849.8290, 258.6904
850.9620, 85.22754
852.0940, 182.9844
853.2270, 81.18066
854.3590, 24.13281
855.4910, 196.9619
856.6230, 208.1768
857.7550, 75.74609
858.8870, 185.7744
860.0180, 8.049805
861.1500, 131.9961
862.2810, 146.5332
863.4120, 136.1768
864.5430, 179.6318
865.6730, 46.68555
866.8040, 279.1348
867.9340, 79.15039
869.0640, 195.5176
870.1940, 50.13281
871.3240, 81.09668
872.4540, 136.8252
873.5830, 258.8828
874.7130, 69.65723
875.8420, 152.0537
876.9710, 139.1836
878.1000, 249.0654
879.2290, 153.8359
880.3570, 192.0000
881.4860, 68.72168
882.6140, 115.0547
883.7420, 258.8545
884.8700, 94.26660
885.9980, 60.95117
887.1250, 176.1797
888.2530, 42.15039
889.3800, 186.2178
890.5070, 75.71094
891.6340, 176.3281
892.7610, 152.9189
893.8880, 26.97656
895.0140, 147.0117
896.1400, 64.05078
897.2670, 36.52148
898.3930, 69.07812
899.5180, 57.69238
900.6440, 228.6582
901.7700, 170.4775
902.8950, 213.4717
904.0200, 147.3516
905.1450, 126.0176
906.2700, 153.3076
907.3950, 60.68555
908.5190, 152.5322
909.6440, 147.7129
910.7680, 133.8887
911.8920, 120.7529
913.0160, 73.48633
914.1400, 102.6689
915.2630, 5.250977
916.3870, 212.4922
917.5100, 195.3428
918.6330, 133.2754
919.7560, 66.21582
920.8790, 158.4873
922.0010, 48.84961
923.1240, 16.32129
924.2460, 120.6680
925.3680, 71.23047
926.4900, 149.0264
927.6120, 126.5039
928.7340, 115.1455
929.8550, 230.7236
930.9760, 50.03809
932.0980, 137.0293
933.2190, 98.16406
934.3390, 96.37695
935.4600, 265.2031
936.5810, 171.4570
937.7010, 150.4561
938.8210, 225.6621
939.9410, 259.4785
941.0610, 259.8818
942.1810, 130.8613
943.3010, 211.7080
944.4200, 221.0156
945.5390, 67.20215
946.6580, 141.0518
947.7770, 155.7617
948.8960, 65.51953
950.0150, 241.5996
951.1330, 83.72559
952.2510, 272.3076
953.3690, 192.9189
954.4870, 159.8926
955.6050, 164.3652
956.7230, 277.4102
957.8400, 148.8340
958.9580, 102.4180
960.0750, 368.8320
961.1920, 155.7070
962.3090, 118.3164
963.4250, 365.7324
964.5420, 323.6836
965.6580, 350.2969
966.7740, 369.5215
967.8900, 479.6094
969.0060, 550.0977
970.1220, 417.7422
971.2380, 293.7480
972.3530, 576.5859
973.4680, 338.4668
974.5830, 325.3105
975.6980, 395.8496
976.8130, 455.3398
977.9280, 313.3926
979.0420, 255.8828
980.1560, 266.2910
981.2710, 255.6973
982.3850, 239.6250
983.4980, 241.8105
984.6120, 267.7031
985.7260, 211.1543
986.8390, 210.3027
987.9520, 152.2812
989.0650, 201.8848
990.1780, 100.6113
991.2910, 185.1504
992.4030, 248.2227
993.5160, 359.0996
994.6280, 150.4883
995.7400, 185.0859
996.8520, 194.5645
997.9640, 337.8535
999.0750, 109.2012
1000.187, 147.7637
1001.298, 224.2383
1002.409, 366.7500
1003.520, 202.6406
1004.631, 242.7168
1005.741, 301.9004
1006.852, 370.0977
1007.962, 355.8574
1009.072, 333.4414
1010.182, 279.3809
1011.292, 217.4336
1012.402, 74.75000
1013.511, 222.3105
1014.621, 104.9961
1015.730, 270.9297
1016.839, 366.9902
1017.948, 414.5391
1019.056, 353.6523
1020.165, 412.0762
1021.273, 573.9531
1022.382, 480.8398
1023.490, 528.4922
1024.598, 456.5254
1025.706, 356.9023
1026.813, 356.9062
1027.921, 338.3828
1029.028, 286.3301
1030.135, 332.8457
1031.242, 330.9805
1032.349, 167.3652
1033.456, 73.98828
1034.562, 101.6562
1035.668, 181.5508
1036.775, 147.9453
1037.881, 193.6445
1038.987, 194.7441
1040.092, 202.5430
1041.198, 184.7266
1042.303, 133.1738
1043.408, 165.7461
1044.514, 130.9961
1045.618, 74.08398
1046.723, 124.7852
1047.828, 56.11523
1048.932, 108.4062
1050.037, 37.83203
1051.141, 214.6797
1052.245, 127.8105
1053.349, 129.3848
1054.452, 171.3652
1055.556, 86.46680
1056.659, 166.0723
1057.762, 24.43164
1058.865, 202.2930
1059.968, 110.6602
1061.071, 36.29297
1062.174, 16.59180
1063.276, 74.37695
1064.378, 124.0840
1065.480, 47.31445
1066.582, 157.5684
1067.684, 71.27539
1068.786, 39.46094
1069.887, 58.65039
1070.988, 193.9316
1072.090, 84.49414
1073.191, 136.0410
1074.291, 289.1523
1075.392, 254.3926
1076.493, 22.70117
1077.593, 5.755859
1078.693, 85.44141
1079.793, 185.1348
1080.893, 215.2695
1081.993, 185.2734
1083.092, 351.9590
1084.192, 145.7656
1085.291, 212.8535
1086.390, 244.3105
1087.489, 96.57617
1088.588, 55.31250
1089.686, 116.7227
1090.785, 245.7734
1091.883, 33.66406
1092.981, 325.8008
1094.079, 354.1992
1095.177, 158.4004
1096.275, 305.8750
1097.373, 254.5176
1098.470, 286.1523
1099.567, 199.4492
1100.664, 278.7578
1101.761, 407.8184
1102.858, 244.8301
1103.954, 444.0938
1105.051, 427.8184
1106.147, 169.8242
1107.243, 307.9062
1108.339, 114.7109
1109.435, 45.06641
1110.531, 290.6230
1111.626, 236.5391
1112.722, 283.6934
1113.817, 130.2930
1114.912, 369.0273
1116.007, 411.4805
1117.101, 456.7852
1118.196, 276.4531
1119.290, 454.0293
1120.385, 210.7246
1121.479, 309.9316
1122.573, 319.4102
1123.666, 254.3086
1124.760, 151.6230
1125.853, 498.5645
1126.947, 317.7520
1128.040, 466.9551
1129.133, 413.5391
1130.226, 406.4883
1131.318, 458.3867
1132.411, 430.3477
1133.503, 431.3008
1134.596, 408.0957
1135.688, 397.0273
1136.780, 360.2773
1137.871, 316.2695
1138.963, 280.3926
1140.054, 243.8770
1141.146, 272.1562
1142.237, 186.3418
1143.328, 196.9375
1144.419, 368.8418
1145.509, 224.9609
1146.600, 251.4648
1147.690, 360.4863
1148.780, 298.4688
1149.870, 144.7734
1150.960, 311.3438
1152.050, 352.2520
1153.139, 50.28320
1154.229, 280.5254
1155.318, 253.2246
1156.407, 352.2949
1157.496, 275.7695
1158.585, 272.8418
1159.674, 186.5488
1160.762, 63.84570
1161.850, 154.7852
1162.939, 128.7520
1164.027, 46.84766
1165.114, 471.2188
1166.202, 52.38477
1167.290, 291.8359
1168.377, 303.2148
1169.464, 283.3379
1170.551, 228.8145
1171.638, 251.8535
1172.725, 277.1387
1173.812, 423.1094
1174.898, 341.7598
1175.984, 447.8945
1177.071, 316.0762
1178.157, 69.20312
1179.242, 373.4961
1180.328, 141.8066
1181.414, 137.3359
1182.499, 207.0098
1183.584, 218.9746
1184.669, 248.9316
1185.754, 139.0352
1186.839, 231.7188
1187.924, 9.746094
1189.008, 219.0195
1190.092, 20.71289
1191.177, 136.4629
1192.260, 88.24609
1193.344, 227.4512
1194.428, 191.2715
1195.512, 0.0000000E+00
##END=



