##NAMES=Pectolite
##RRUFFID=R060101
##IDEAL CHEMISTRY=NaCa_2_Si_3_O_8_(OH)
##LOCALITY=West Patterson, New Jersey, USA
##OWNER=RRUFF
##SOURCE=University of Arizona Mineral Museum
##DESCRIPTION=Tufts of white acicular sprays
##STATUS=The identification of this mineral has been confirmed by X-ray diffraction and chemical analysis
##URL=rruff.info/R060101
##MEASURED CHEMISTRY=Na_1.02_Ca_2.00_Si_2.99_O_8_(OH)
##PIN_ID=M00258
##ORIENTATION=Laser parallel to c* (0 0 1). Fiducial mark perpendicular to laser is parallel to a [1 0 0]
122.6480, 0.0000000E+00
123.8850, 37.98145
125.1230, 39.95190
126.3600, 41.01611
127.5960, 1.291992
128.8330, 72.93018
130.0700, 106.5894
131.3060, 88.39990
132.5420, 88.41821
133.7780, 111.6882
135.0140, 162.7344
136.2500, 155.5991
137.4850, 204.1919
138.7200, 247.5571
139.9550, 272.8660
141.1900, 304.9521
142.4250, 300.6768
143.6600, 239.4614
144.8940, 223.3962
146.1280, 189.0055
147.3620, 161.3922
148.5960, 144.9686
149.8300, 141.9658
151.0630, 120.0442
152.2960, 99.10791
153.5300, 105.2622
154.7620, 98.59448
155.9950, 74.85217
157.2280, 36.28931
158.4600, 39.41260
159.6920, 46.93396
160.9250, 40.20178
162.1560, 2.559814
163.3880, 16.65564
164.6200, 28.87817
165.8510, 1.108154
167.0820, 69.32605
168.3130, 19.18848
169.5440, 24.97339
170.7750, 28.10474
172.0050, 49.18616
173.2350, 18.25415
174.4650, 4.242310
175.6950, 12.20300
176.9250, 31.32666
178.1550, 39.70166
179.3840, 79.31409
180.6130, 77.79626
181.8420, 50.23401
183.0710, 86.62280
184.3000, 55.72437
185.5280, 41.86719
186.7570, 87.81897
187.9850, 66.83447
189.2130, 51.17566
190.4400, 57.16736
191.6680, 50.08826
192.8960, 58.17773
194.1230, 78.59619
195.3500, 82.87988
196.5770, 86.83105
197.8030, 111.7911
199.0300, 94.32458
200.2560, 143.1217
201.4830, 105.4049
202.7090, 101.1752
203.9340, 119.0273
205.1600, 149.1310
206.3860, 100.4321
207.6110, 99.30762
208.8360, 82.73596
210.0610, 98.76001
211.2860, 66.47229
212.5100, 73.40759
213.7350, 45.51184
214.9590, 90.00354
216.1830, 68.64392
217.4070, 113.5112
218.6310, 130.6233
219.8540, 126.8391
221.0780, 109.9851
222.3010, 67.01086
223.5240, 138.1460
224.7470, 79.47437
225.9690, 122.5051
227.1920, 81.16675
228.4140, 85.59924
229.6360, 56.10742
230.8580, 79.50781
232.0800, 8.787354
233.3020, 9.590942
234.5230, 21.11401
235.7440, 66.54956
236.9650, 35.61731
238.1860, 78.64636
239.4070, 11.67444
240.6280, 19.87061
241.8480, 36.60864
243.0680, 49.37146
244.2880, 71.23438
245.5080, 39.04968
246.7280, 45.73584
247.9470, 56.36829
249.1660, 50.02490
250.3860, 67.39001
251.6040, 20.98999
252.8230, 7.444824
254.0420, 39.06311
255.2600, 23.68872
256.4790, 69.33838
257.6970, 27.20020
258.9150, 63.69666
260.1320, 33.36206
261.3500, 46.11072
262.5670, 65.54529
263.7840, 32.51489
265.0010, 78.47192
266.2180, 2.403809
267.4350, 40.35229
268.6510, 34.04041
269.8680, 39.46729
271.0840, 21.44202
272.3000, 49.25623
273.5160, 44.04199
274.7310, 76.63770
275.9470, 41.53491
277.1620, 44.61719
278.3770, 11.65381
279.5920, 10.57642
280.8070, 47.54285
282.0210, 38.33228
283.2360, 6.259155
284.4500, 67.03589
285.6640, 40.06091
286.8780, 1.154785
288.0920, 5.978760
289.3050, 8.210815
290.5180, 38.49622
291.7320, 22.42395
292.9450, 38.30530
294.1570, 2.395264
295.3700, 32.90002
296.5830, 23.54175
297.7950, 33.26099
299.0070, 64.79443
300.2190, 24.64258
301.4310, 46.31274
302.6420, 34.10596
303.8540, 8.660889
305.0650, 70.38062
306.2760, 60.91895
307.4870, 16.57007
308.6980, 89.70630
309.9080, 33.22949
311.1190, 34.52710
312.3290, 102.8730
313.5390, 79.11841
314.7490, 116.1416
315.9580, 43.69312
317.1680, 81.09033
318.3770, 88.52979
319.5860, 102.7441
320.7950, 84.91064
322.0040, 128.1389
323.2130, 49.43921
324.4210, 76.86572
325.6290, 58.11426
326.8380, 71.20117
328.0460, 111.2063
329.2530, 17.22632
330.4610, 55.50391
331.6680, 70.63672
332.8760, 37.86450
334.0830, 65.91431
335.2890, 25.71411
336.4960, 14.89673
337.7030, 91.80127
338.9090, 72.68311
340.1150, 51.77075
341.3210, 22.37061
342.5270, 39.51782
343.7330, 49.37134
344.9380, 18.15796
346.1440, 54.77246
347.3490, 23.33374
348.5540, 63.14502
349.7590, 78.66284
350.9630, 91.46240
352.1680, 53.81934
353.3720, 79.53125
354.5760, 61.87085
355.7800, 113.3594
356.9840, 134.7048
358.1870, 105.2751
359.3910, 135.3435
360.5940, 96.73633
361.7970, 85.33398
363.0000, 81.65039
364.2030, 77.06934
365.4050, 82.83911
366.6080, 80.85522
367.8100, 100.5000
369.0120, 84.78882
370.2140, 89.94922
371.4150, 90.90698
372.6170, 76.88110
373.8180, 117.0151
375.0190, 119.0044
376.2200, 120.1565
377.4210, 91.02246
378.6220, 94.63721
379.8220, 103.3989
381.0230, 84.24536
382.2230, 102.7031
383.4230, 91.72314
384.6220, 77.30835
385.8220, 83.35840
387.0220, 68.78833
388.2210, 77.29614
389.4200, 54.86108
390.6190, 41.30347
391.8180, 111.7004
393.0160, 58.25684
394.2150, 25.57471
395.4130, 19.86353
396.6110, 66.01831
397.8090, 89.57910
399.0060, 116.3018
400.2040, 40.24341
401.4010, 134.6897
402.5980, 123.0139
403.7950, 99.18970
404.9920, 158.0469
406.1890, 150.2000
407.3860, 97.43774
408.5820, 151.9626
409.7780, 91.76709
410.9740, 161.5315
412.1700, 143.6221
413.3650, 63.28271
414.5610, 147.3303
415.7560, 155.9204
416.9510, 160.2766
418.1460, 120.6362
419.3410, 128.5679
420.5360, 80.11743
421.7300, 86.88965
422.9240, 109.1892
424.1180, 93.59790
425.3120, 129.7810
426.5060, 91.35376
427.7000, 121.5029
428.8930, 56.82812
430.0860, 35.12549
431.2790, 93.92334
432.4720, 88.91992
433.6650, 106.2144
434.8580, 47.31226
436.0500, 44.17627
437.2420, 18.79614
438.4340, 67.06445
439.6260, 84.84448
440.8180, 61.77051
442.0090, 101.4839
443.2010, 29.48022
444.3920, 59.24756
445.5830, 25.05566
446.7740, 73.41626
447.9640, 32.51709
449.1550, 71.29297
450.3450, 38.64233
451.5350, 66.13477
452.7250, 34.73291
453.9150, 95.03857
455.1050, 41.43677
456.2940, 110.0032
457.4830, 59.57007
458.6720, 8.297119
459.8610, 42.58984
461.0500, 43.09668
462.2390, 65.59912
463.4270, 54.86475
464.6150, 44.97729
465.8040, 41.49170
466.9910, 12.42944
468.1790, 55.35107
469.3670, 92.66357
470.5540, 101.5234
471.7410, 92.39624
472.9280, 24.97632
474.1150, 43.59888
475.3020, 24.91211
476.4890, 59.60229
477.6750, 110.2756
478.8610, 15.38403
480.0470, 61.45972
481.2330, 68.86646
482.4190, 15.33667
483.6040, 63.26318
484.7900, 46.67334
485.9750, 48.45654
487.1600, 58.34106
488.3450, 93.06714
489.5290, 98.85620
490.7140, 32.47876
491.8980, 95.98071
493.0820, 21.38281
494.2660, 118.6262
495.4500, 27.20117
496.6340, 108.3374
497.8170, 65.45312
499.0010, 92.77759
500.1840, 31.87891
501.3670, 122.8052
502.5500, 59.80591
503.7320, 3.590576
504.9150, 63.27124
506.0970, 31.88208
507.2790, 78.41724
508.4610, 110.9221
509.6430, 58.36621
510.8250, 34.83667
512.0060, 58.18433
513.1870, 99.49658
514.3680, 87.76001
515.5490, 41.90894
516.7300, 52.16968
517.9110, 22.38281
519.0910, 18.28174
520.2710, 66.52490
521.4510, 34.46387
522.6310, 51.53516
523.8110, 105.5234
524.9910, 5.776123
526.1700, 36.18848
527.3490, 91.55273
528.5280, 55.01440
529.7070, 71.37256
530.8860, 11.50366
532.0650, 61.27222
533.2430, 71.35474
534.4210, 36.47095
535.5990, 115.4629
536.7770, 57.42993
537.9550, 71.21021
539.1320, 56.04102
540.3100, 5.787354
541.4870, 34.97144
542.6640, 19.34717
543.8410, 1.359619
545.0170, 63.17188
546.1940, 17.69189
547.3700, 31.55713
548.5470, 23.42236
549.7230, 23.33447
550.8980, 125.2036
552.0740, 48.24512
553.2500, 3.309570
554.4250, 92.46582
555.6000, 33.95508
556.7750, 78.11963
557.9500, 153.3330
559.1250, 7.548340
560.2990, 26.61670
561.4730, 75.54150
562.6480, 16.52051
563.8220, 87.24512
564.9950, 50.80762
566.1690, 132.0742
567.3430, 20.82666
568.5160, 82.26807
569.6890, 91.85889
570.8620, 70.81641
572.0350, 137.6348
573.2070, 88.99805
574.3800, 106.3623
575.5520, 78.69531
576.7240, 108.3682
577.8960, 74.76953
579.0680, 37.02295
580.2400, 54.86670
581.4110, 31.43750
582.5830, 81.60938
583.7540, 26.20020
584.9250, 41.62207
586.0950, 34.30176
587.2660, 118.3643
588.4370, 8.103516
589.6070, 35.03271
590.7770, 117.0029
591.9470, 28.01562
593.1170, 65.90039
594.2860, 68.55176
595.4560, 37.66357
596.6250, 55.65723
597.7940, 21.73926
598.9630, 12.29688
600.1320, 33.45264
601.3000, 9.195313
602.4690, 8.737793
603.6370, 71.72070
604.8050, 82.69336
605.9730, 9.844238
607.1410, 67.07520
608.3090, 86.93066
609.4760, 36.46973
610.6430, 73.53125
611.8100, 99.46387
612.9770, 64.14600
614.1440, 80.90918
615.3110, 158.4727
616.4770, 23.71094
617.6430, 46.29883
618.8090, 130.1367
619.9750, 115.4722
621.1410, 101.8496
622.3070, 55.70557
623.4720, 152.8467
624.6370, 79.76953
625.8020, 154.9058
626.9670, 129.0015
628.1320, 124.0991
629.2970, 134.2275
630.4610, 131.2778
631.6250, 187.8716
632.7890, 215.5801
633.9530, 253.9644
635.1170, 125.4658
636.2810, 243.8008
637.4440, 219.3462
638.6070, 212.7588
639.7700, 295.6196
640.9330, 395.6440
642.0960, 396.2236
643.2590, 471.3555
644.4210, 505.5059
645.5830, 566.3662
646.7450, 655.8125
647.9070, 736.4360
649.0690, 795.7666
650.2310, 913.8145
651.3920, 917.0889
652.5530, 919.0586
653.7140, 973.9512
654.8750, 682.0522
656.0360, 638.2256
657.1970, 602.5332
658.3570, 378.4575
659.5170, 301.0220
660.6770, 312.5054
661.8370, 251.3115
662.9970, 238.8672
664.1570, 181.9966
665.3160, 119.4873
666.4750, 103.3970
667.6340, 76.47168
668.7930, 73.55078
669.9520, 124.3286
671.1110, 168.9648
672.2690, 68.57324
673.4270, 117.9395
674.5850, 80.86719
675.7430, 87.06055
676.9010, 66.86963
678.0590, 87.57910
679.2160, 119.0854
680.3730, 27.40820
681.5300, 130.8076
682.6870, 58.82617
683.8440, 80.77783
685.0010, 113.2310
686.1570, 74.01123
687.3130, 58.06445
688.4690, 139.6377
689.6250, 103.9248
690.7810, 148.9678
691.9370, 193.0488
693.0920, 143.8633
694.2470, 186.9292
695.4020, 130.0903
696.5570, 91.42578
697.7120, 105.1685
698.8670, 37.44922
700.0210, 12.59766
701.1750, 12.37256
702.3290, 65.10938
703.4830, 111.9678
704.6370, 152.7148
705.7910, 58.66357
706.9440, 13.28613
708.0970, 59.03955
709.2510, 74.33203
710.4030, 127.7349
711.5560, 42.08740
712.7090, 21.88818
713.8610, 32.85742
715.0140, 116.6470
716.1660, 163.2329
717.3180, 78.98340
718.4690, 156.4048
719.6210, 125.1631
720.7730, 168.0244
721.9240, 99.35400
723.0750, 44.33105
724.2260, 7.346191
725.3770, 102.0898
726.5270, 23.04834
727.6780, 59.06396
728.8280, 121.1582
729.9780, 63.00195
731.1280, 105.1348
732.2780, 113.5112
733.4280, 47.96826
734.5770, 9.520020
735.7260, 38.24561
736.8760, 5.545898
738.0250, 6.8847999E-02
739.1730, 7.486328
740.3220, 17.00879
741.4700, 23.86279
742.6190, 25.53418
743.7670, 78.58936
744.9150, 39.14014
746.0630, 83.67139
747.2100, 174.9390
748.3580, 90.62402
749.5050, 100.4580
750.6520, 134.8579
751.7990, 31.89893
752.9460, 82.26074
754.0930, 125.1963
755.2390, 15.37402
756.3860, 32.99951
757.5320, 45.60889
758.6780, 65.06250
759.8240, 180.6250
760.9690, 41.67773
762.1150, 26.79395
763.2600, 42.25049
764.4060, 37.00146
765.5510, 30.71338
766.6950, 41.54932
767.8400, 49.07129
768.9850, 74.94336
770.1290, 95.18555
771.2730, 82.43457
772.4170, 135.0059
773.5610, 65.81543
774.7050, 80.74023
775.8480, 31.43262
776.9920, 194.6338
778.1350, 78.08887
779.2780, 20.62402
780.4210, 150.4980
781.5640, 103.5947
782.7060, 90.22070
783.8490, 141.0361
784.9910, 129.0898
786.1330, 36.82422
787.2750, 151.9883
788.4170, 118.8428
789.5580, 197.9258
790.7000, 15.40625
791.8410, 162.3262
792.9820, 88.85352
794.1230, 49.34473
795.2640, 94.60352
796.4040, 159.6826
797.5450, 210.6094
798.6850, 83.11816
799.8250, 142.2988
800.9650, 40.78027
802.1050, 76.00293
803.2450, 152.0781
804.3840, 58.43652
805.5230, 166.0400
806.6630, 234.9873
807.8020, 23.42969
808.9400, 227.1992
810.0790, 36.72266
811.2170, 87.62305
812.3560, 84.35449
813.4940, 103.2666
814.6320, 121.4375
815.7700, 136.0566
816.9070, 110.1885
818.0450, 100.5791
819.1820, 156.2510
820.3190, 132.4639
821.4560, 56.49609
822.5930, 152.2930
823.7300, 80.00781
824.8670, 165.8584
826.0030, 104.7881
827.1390, 114.5371
828.2750, 247.2129
829.4110, 245.8955
830.5470, 254.0342
831.6820, 114.2979
832.8180, 134.3867
833.9530, 91.50781
835.0880, 165.8438
836.2230, 109.6758
837.3580, 129.7705
838.4920, 104.6270
839.6270, 124.6680
840.7610, 93.42285
841.8950, 105.5098
843.0290, 187.2520
844.1630, 158.6338
845.2960, 74.67871
846.4300, 148.5205
847.5630, 126.1152
848.6960, 187.2168
849.8290, 142.1504
850.9620, 135.1523
852.0940, 192.0420
853.2270, 98.29004
854.3590, 119.8594
855.4910, 139.7930
856.6230, 118.6250
857.7550, 130.8516
858.8870, 137.7959
860.0180, 125.6387
861.1500, 159.9668
862.2810, 171.5986
863.4120, 161.8916
864.5430, 249.5488
865.6730, 130.1279
866.8040, 188.2402
867.9340, 145.6914
869.0640, 107.2412
870.1940, 42.66992
871.3240, 222.5225
872.4540, 138.0205
873.5830, 148.2900
874.7130, 125.7256
875.8420, 134.5703
876.9710, 194.9229
878.1000, 222.6006
879.2290, 178.7568
880.3570, 37.40820
881.4860, 56.58203
882.6140, 22.99219
883.7420, 107.4717
884.8700, 2.117188
885.9980, 42.60352
887.1250, 55.91406
888.2530, 13.81152
889.3800, 121.3223
890.5070, 82.88086
891.6340, 89.93848
892.7610, 23.90723
893.8880, 89.35156
895.0140, 44.16699
896.1400, 77.36426
897.2670, 275.0840
898.3930, 286.6631
899.5180, 167.5508
900.6440, 4.972656
901.7700, 67.89355
902.8950, 65.07227
904.0200, 80.54004
905.1450, 14.73926
906.2700, 15.58984
907.3950, 139.2744
908.5190, 167.8789
909.6440, 31.42285
910.7680, 207.0879
911.8920, 110.5225
913.0160, 62.65137
914.1400, 251.6064
915.2630, 145.1855
916.3870, 73.14355
917.5100, 65.37500
918.6330, 91.00586
919.7560, 42.06152
920.8790, 67.94824
922.0010, 173.7520
923.1240, 31.47461
924.2460, 145.9932
925.3680, 51.61719
926.4900, 133.9717
927.6120, 45.42578
928.7340, 190.0596
929.8550, 30.48633
930.9760, 40.11230
932.0980, 45.82129
933.2190, 324.9365
934.3390, 101.9678
935.4600, 237.1816
936.5810, 30.65527
937.7010, 161.7949
938.8210, 70.61426
939.9410, 181.9863
941.0610, 79.28613
942.1810, 216.0586
943.3010, 155.7881
944.4200, 88.82715
945.5390, 54.86035
946.6580, 43.05664
947.7770, 15.36328
948.8960, 75.35156
950.0150, 21.27051
951.1330, 81.74316
952.2510, 137.5176
953.3690, 147.3555
954.4870, 15.66602
955.6050, 195.2988
956.7230, 57.18457
957.8400, 207.7988
958.9580, 129.9697
960.0750, 182.3789
961.1920, 166.7402
962.3090, 200.4980
963.4250, 215.0352
964.5420, 272.3291
965.6580, 261.1270
966.7740, 223.2646
967.8900, 148.8145
969.0060, 323.1553
970.1220, 349.6123
971.2380, 314.8994
972.3530, 267.3838
973.4680, 246.4062
974.5830, 332.1260
975.6980, 264.5088
976.8130, 223.8662
977.9280, 91.23340
979.0420, 106.6348
980.1560, 193.5859
981.2710, 220.6523
982.3850, 222.9834
983.4980, 213.5527
984.6120, 218.3418
985.7260, 220.2510
986.8390, 192.3799
987.9520, 240.7871
989.0650, 201.0713
990.1780, 163.9092
991.2910, 218.7549
992.4030, 153.7012
993.5160, 230.5273
994.6280, 284.9395
995.7400, 85.10547
996.8520, 223.9590
997.9640, 201.6035
999.0750, 224.3809
1000.187, 247.4492
1001.298, 178.5703
1002.409, 133.1055
1003.520, 304.2246
1004.631, 130.9395
1005.741, 216.3594
1006.852, 200.6387
1007.962, 123.8477
1009.072, 244.8477
1010.182, 28.96680
1011.292, 155.7539
1012.402, 225.9219
1013.511, 246.3848
1014.621, 288.8828
1015.730, 241.7012
1016.839, 285.0488
1017.948, 186.2207
1019.056, 326.7305
1020.165, 426.9277
1021.273, 390.6816
1022.382, 535.1484
1023.490, 519.5215
1024.598, 484.0215
1025.706, 480.0371
1026.813, 389.5449
1027.921, 243.4980
1029.028, 236.5137
1030.135, 179.0586
1031.242, 264.2988
1032.349, 317.9355
1033.456, 139.4082
1034.562, 71.56055
1035.668, 146.3262
1036.775, 95.04102
1037.881, 28.81641
1038.987, 176.6602
1040.092, 168.3770
1041.198, 207.1777
1042.303, 358.8730
1043.408, 105.2734
1044.514, 102.4238
1045.618, 81.64648
1046.723, 147.8906
1047.828, 145.8770
1048.932, 11.27148
1050.037, 185.5918
1051.141, 143.6758
1052.245, 70.61328
1053.349, 230.7852
1054.452, 35.03906
1055.556, 10.61914
1056.659, 203.2598
1057.762, 222.5352
1058.865, 99.05078
1059.968, 35.19141
1061.071, 15.32031
1062.174, 59.26367
1063.276, 46.54688
1064.378, 178.2324
1065.480, 117.9180
1066.582, 193.6406
1067.684, 27.28516
1068.786, 62.77344
1069.887, 98.58594
1070.988, 5.218750
1072.090, 42.07227
1073.191, 72.30664
1074.291, 163.9395
1075.392, 154.9180
1076.493, 81.49609
1077.593, 88.65430
1078.693, 151.8965
1079.793, 130.3848
1080.893, 169.4609
1081.993, 71.04492
1083.092, 1.109375
1084.192, 41.91992
1085.291, 36.36914
1086.390, 88.50586
1087.489, 138.5312
1088.588, 205.5625
1089.686, 113.7031
1090.785, 327.5000
1091.883, 113.1895
1092.981, 11.36719
1094.079, 133.4473
1095.177, 246.7598
1096.275, 4.244141
1097.373, 1.832031
1098.470, 31.67773
1099.567, 69.18359
1100.664, 8.521484
1101.761, 62.83789
1102.858, 27.61328
1103.954, 127.5762
1105.051, 179.5801
1106.147, 244.0195
1107.243, 79.83594
1108.339, 74.49219
1109.435, 100.0566
1110.531, 239.4414
1111.626, 38.39453
1112.722, 78.27734
1113.817, 144.7988
1114.912, 358.7734
1116.007, 263.2520
1117.101, 38.55859
1118.196, 141.5332
1119.290, 190.3809
1120.385, 211.6152
1121.479, 307.5020
1122.573, 252.2812
1123.666, 210.0879
1124.760, 63.47852
1125.853, 86.35938
1126.947, 118.6719
1128.040, 156.0859
1129.133, 169.8516
1130.226, 197.9883
1131.318, 219.3633
1132.411, 235.1309
1133.503, 302.6230
1134.596, 331.5488
1135.688, 319.5898
1136.780, 309.7910
1137.871, 229.3086
1138.963, 225.1621
1140.054, 219.7754
1141.146, 169.3730
1142.237, 270.7715
1143.328, 176.1758
1144.419, 271.2344
1145.509, 305.4434
1146.600, 234.7969
1147.690, 370.5371
1148.780, 371.5215
1149.870, 306.7578
1150.960, 206.1289
1152.050, 304.3496
1153.139, 73.50586
1154.229, 253.2383
1155.318, 323.8770
1156.407, 257.4434
1157.496, 239.6152
1158.585, 330.7285
1159.674, 53.24023
1160.762, 436.0195
1161.850, 433.5801
1162.939, 41.24023
1164.027, 391.1348
1165.114, 343.2266
1166.202, 294.8398
1167.290, 650.8164
1168.377, 184.0352
1169.464, 394.0020
1170.551, 289.3242
1171.638, 160.5898
1172.725, 163.1934
1173.812, 262.2168
1174.898, 339.0645
1175.984, 71.92969
1177.071, 273.1055
1178.157, 240.3535
1179.242, 128.5371
1180.328, 487.6582
1181.414, 320.2051
1182.499, 173.1680
1183.584, 304.9922
1184.669, 258.7441
1185.754, 351.9551
1186.839, 313.3379
1187.924, 197.0410
1189.008, 255.1914
1190.092, 141.1953
1191.177, 178.5957
1192.260, 167.9336
1193.344, 75.47070
1194.428, 198.3086
1195.512, 170.6699
1196.595, 202.0488
1197.678, 2.847656
1198.761, 179.0508
1199.844, 268.7344
1200.927, 132.8555
1202.009, 418.5195
1203.092, 419.1074
1204.174, 212.5000
1205.256, 235.8262
1206.338, 281.8828
1207.420, 311.5039
1208.502, 21.39258
1209.583, 278.3633
1210.665, 271.4531
1211.746, 87.04492
1212.827, 311.0000
1213.908, 158.9824
1214.988, 445.5762
1216.069, 257.6699
1217.149, 229.1250
1218.230, 117.3457
1219.310, 215.9609
1220.390, 222.3613
1221.470, 78.48047
1222.549, 4.919922
1223.629, 280.3965
1224.708, 1.138672
1225.787, 116.4961
1226.866, 215.6133
1227.945, 72.03711
1229.024, 241.9688
1230.103, 0.8066410
1231.181, 197.7812
1232.259, 0.0000000E+00
##END=



