##NAMES=Pectolite
##RRUFFID=R060101
##IDEAL CHEMISTRY=NaCa_2_Si_3_O_8_(OH)
##LOCALITY=West Patterson, New Jersey, USA
##OWNER=RRUFF
##SOURCE=University of Arizona Mineral Museum
##DESCRIPTION=Tufts of white acicular sprays
##STATUS=The identification of this mineral has been confirmed by X-ray diffraction and chemical analysis
##URL=rruff.info/R060101
##MEASURED CHEMISTRY=Na_1.02_Ca_2.00_Si_2.99_O_8_(OH)
##PIN_ID=L01710
##ORIENTATION=Laser parallel to -a* (-1 0 0). Fiducial mark perpendicular to laser is parallel to b [0 1 0]
148.5960, 0.0000000E+00
149.8300, 17.75928
151.0630, 24.95349
152.2960, 72.13879
153.5300, 51.64929
154.7620, 23.63843
155.9950, 36.65076
157.2280, 48.82959
158.4600, 51.20508
159.6920, 5.246338
160.9250, 45.46851
162.1560, 1.499756
163.3880, 67.45288
164.6200, 54.50403
165.8510, 41.62805
167.0820, 66.81909
168.3130, 71.09265
169.5440, 27.43201
170.7750, 47.89954
172.0050, 70.48572
173.2350, 29.08313
174.4650, 22.71436
175.6950, 63.37170
176.9250, 60.05090
178.1550, 77.75879
179.3840, 35.46899
180.6130, 49.21277
181.8420, 71.79199
183.0710, 44.58020
184.3000, 74.17969
185.5280, 122.1042
186.7570, 70.00330
187.9850, 77.05127
189.2130, 103.9094
190.4400, 75.80432
191.6680, 62.52478
192.8960, 55.53064
194.1230, 96.36877
195.3500, 58.41174
196.5770, 77.13806
197.8030, 56.67859
199.0300, 94.65112
200.2560, 83.22827
201.4830, 46.92871
202.7090, 137.8553
203.9340, 67.77124
205.1600, 69.86096
206.3860, 79.15625
207.6110, 57.79272
208.8360, 43.98608
210.0610, 65.21875
211.2860, 41.42786
212.5100, 81.48926
213.7350, 61.50403
214.9590, 55.46973
216.1830, 37.93799
217.4070, 108.0122
218.6310, 81.89587
219.8540, 97.60022
221.0780, 58.71118
222.3010, 116.3501
223.5240, 108.7015
224.7470, 85.88733
225.9690, 52.42554
227.1920, 93.03149
228.4140, 121.1024
229.6360, 105.4818
230.8580, 82.42578
232.0800, 90.11462
233.3020, 62.91675
234.5230, 20.62317
235.7440, 35.23328
236.9650, 21.01318
238.1860, 32.42456
239.4070, 29.20251
240.6280, 58.83911
241.8480, 57.92847
243.0680, 65.94324
244.2880, 74.14697
245.5080, 101.0934
246.7280, 81.02722
247.9470, 56.31445
249.1660, 63.91431
250.3860, 27.90649
251.6040, 40.06702
252.8230, 94.88013
254.0420, 59.54614
255.2600, 51.57080
256.4790, 68.87134
257.6970, 49.14832
258.9150, 69.58875
260.1320, 87.13208
261.3500, 19.28857
262.5670, 43.18835
263.7840, 37.67004
265.0010, 55.90881
266.2180, 83.00281
267.4350, 94.50085
268.6510, 107.8029
269.8680, 86.44873
271.0840, 113.6094
272.3000, 101.4541
273.5160, 85.32910
274.7310, 100.9048
275.9470, 98.83569
277.1620, 169.7534
278.3770, 112.3652
279.5920, 131.1925
280.8070, 139.8423
282.0210, 68.43433
283.2360, 68.91956
284.4500, 9.255005
285.6640, 53.75122
286.8780, 54.34436
288.0920, 22.59290
289.3050, 33.82483
290.5180, 2.725952
291.7320, 43.04297
292.9450, 7.711182
294.1570, 12.79895
295.3700, 36.82922
296.5830, 29.33398
297.7950, 68.54126
299.0070, 62.59314
300.2190, 53.77649
301.4310, 13.57532
302.6420, 55.47559
303.8540, 30.46704
305.0650, 33.23926
306.2760, 1.372803
307.4870, 41.59766
308.6980, 47.05371
309.9080, 33.85181
311.1190, 0.4099120
312.3290, 32.57275
313.5390, 27.78906
314.7490, 56.01562
315.9580, 54.67163
317.1680, 87.25342
318.3770, 66.66064
319.5860, 86.20239
320.7950, 93.45264
322.0040, 71.19531
323.2130, 108.0227
324.4210, 82.89966
325.6290, 84.32617
326.8380, 55.79492
328.0460, 40.41016
329.2530, 95.74512
330.4610, 84.04321
331.6680, 70.54126
332.8760, 64.96729
334.0830, 18.35889
335.2890, 15.49854
336.4960, 74.71289
337.7030, 26.08618
338.9090, 31.44971
340.1150, 10.48657
341.3210, 80.50073
342.5270, 30.30615
343.7330, 58.28809
344.9380, 2.373047
346.1440, 30.93018
347.3490, 17.66870
348.5540, 1.543701
349.7590, 64.26733
350.9630, 2.959229
352.1680, 72.75781
353.3720, 19.42651
354.5760, 1.780273
355.7800, 67.12427
356.9840, 62.57251
358.1870, 36.93945
359.3910, 7.406006
360.5940, 23.02734
361.7970, 2.902344
363.0000, 39.67822
364.2030, 78.79785
365.4050, 73.51807
366.6080, 34.73413
367.8100, 86.54565
369.0120, 17.32349
370.2140, 17.91797
371.4150, 75.03198
372.6170, 80.80566
373.8180, 128.9250
375.0190, 68.67310
376.2200, 63.42017
377.4210, 18.34692
378.6220, 43.10938
379.8220, 76.72974
381.0230, 59.73853
382.2230, 81.20679
383.4230, 54.46973
384.6220, 3.996582
385.8220, 72.23096
387.0220, 16.50464
388.2210, 28.71777
389.4200, 55.93677
390.6190, 31.19678
391.8180, 57.49463
393.0160, 58.73999
394.2150, 84.98071
395.4130, 48.03320
396.6110, 80.97070
397.8090, 70.11255
399.0060, 111.9897
400.2040, 40.78296
401.4010, 58.87329
402.5980, 89.63770
403.7950, 5.641113
404.9920, 65.90918
406.1890, 83.60181
407.3860, 18.06885
408.5820, 76.04492
409.7780, 53.73926
410.9740, 71.71436
412.1700, 74.29590
413.3650, 57.36987
414.5610, 98.52051
415.7560, 46.81812
416.9510, 106.2952
418.1460, 62.41431
419.3410, 30.51904
420.5360, 91.55225
421.7300, 8.515869
422.9240, 83.18481
424.1180, 58.28809
425.3120, 103.4377
426.5060, 76.49756
427.7000, 86.47021
428.8930, 81.93701
430.0860, 18.25757
431.2790, 17.54980
432.4720, 16.54053
433.6650, 70.69458
434.8580, 33.81934
436.0500, 77.26514
437.2420, 42.68726
438.4340, 45.78247
439.6260, 8.271729
440.8180, 67.53931
442.0090, 89.96997
443.2010, 48.09448
444.3920, 114.5417
445.5830, 82.05225
446.7740, 27.73804
447.9640, 104.0686
449.1550, 39.82104
450.3450, 46.24609
451.5350, 86.16040
452.7250, 76.95068
453.9150, 89.60742
455.1050, 25.10791
456.2940, 101.3091
457.4830, 51.83984
458.6720, 81.44727
459.8610, 92.74878
461.0500, 128.3530
462.2390, 89.83862
463.4270, 73.36621
464.6150, 104.6204
465.8040, 4.722168
466.9910, 0.8857420
468.1790, 83.70923
469.3670, 66.74634
470.5540, 24.53247
471.7410, 84.23950
472.9280, 86.29370
474.1150, 30.94653
475.3020, 40.52026
476.4890, 40.91406
477.6750, 93.41724
478.8610, 67.54053
480.0470, 21.01147
481.2330, 14.20312
482.4190, 83.20679
483.6040, 80.28223
484.7900, 122.4875
485.9750, 72.30420
487.1600, 39.16406
488.3450, 5.190186
489.5290, 104.6138
490.7140, 83.84106
491.8980, 69.10303
493.0820, 88.83740
494.2660, 54.34692
495.4500, 76.45459
496.6340, 36.73486
497.8170, 5.185059
499.0010, 96.83862
500.1840, 114.0339
501.3670, 81.78613
502.5500, 112.1040
503.7320, 69.04004
504.9150, 25.09351
506.0970, 125.2263
507.2790, 35.82910
508.4610, 72.17480
509.6430, 157.7683
510.8250, 71.51221
512.0060, 32.61865
513.1870, 40.93359
514.3680, 123.4165
515.5490, 29.85400
516.7300, 108.4199
517.9110, 97.66455
519.0910, 40.98682
520.2710, 62.44043
521.4510, 44.10303
522.6310, 3.019043
523.8110, 61.81396
524.9910, 112.6885
526.1700, 36.31201
527.3490, 125.7124
528.5280, 107.2002
529.7070, 112.4009
530.8860, 110.4185
532.0650, 92.87939
533.2430, 74.31055
534.4210, 54.38525
535.5990, 51.67139
536.7770, 49.25781
537.9550, 78.00391
539.1320, 59.54590
540.3100, 90.18457
541.4870, 91.81396
542.6640, 25.88721
543.8410, 73.57080
545.0170, 25.61523
546.1940, 2.730469
547.3700, 24.69482
548.5470, 92.11719
549.7230, 3.924316
550.8980, 28.18359
552.0740, 21.74707
553.2500, 67.24365
554.4250, 5.521973
555.6000, 141.5269
556.7750, 103.0020
557.9500, 49.70312
559.1250, 115.8267
560.2990, 118.3579
561.4730, 124.6055
562.6480, 130.5752
563.8220, 23.91943
564.9950, 75.31885
566.1690, 53.37354
567.3430, 34.45752
568.5160, 44.06445
569.6890, 93.95996
570.8620, 161.3374
572.0350, 156.6538
573.2070, 24.51953
574.3800, 145.7217
575.5520, 46.31055
576.7240, 71.69971
577.8960, 118.5464
579.0680, 110.7017
580.2400, 12.91895
581.4110, 44.73975
582.5830, 32.03760
583.7540, 90.45068
584.9250, 2.393066
586.0950, 162.7432
587.2660, 25.05127
588.4370, 75.48779
589.6070, 78.38428
590.7770, 65.84668
591.9470, 22.17676
593.1170, 45.13721
594.2860, 34.53613
595.4560, 24.70166
596.6250, 130.4844
597.7940, 47.00928
598.9630, 29.38721
600.1320, 86.92969
601.3000, 34.47119
602.4690, 30.39941
603.6370, 25.72070
604.8050, 83.97510
605.9730, 84.22021
607.1410, 91.31445
608.3090, 132.3711
609.4760, 68.18555
610.6430, 85.23096
611.8100, 73.84229
612.9770, 32.03662
614.1440, 102.1021
615.3110, 92.53955
616.4770, 114.8818
617.6430, 27.48291
618.8090, 101.6108
619.9750, 63.09082
621.1410, 66.96094
622.3070, 101.8149
623.4720, 49.15869
624.6370, 72.77637
625.8020, 101.0889
626.9670, 104.5596
628.1320, 78.35010
629.2970, 59.12451
630.4610, 169.0098
631.6250, 79.67139
632.7890, 64.10400
633.9530, 36.40479
635.1170, 191.5474
636.2810, 81.53467
637.4440, 193.6821
638.6070, 247.5117
639.7700, 99.21729
640.9330, 164.2773
642.0960, 223.1001
643.2590, 315.5776
644.4210, 183.4604
645.5830, 253.6494
646.7450, 339.6675
647.9070, 280.7134
649.0690, 354.1836
650.2310, 459.8838
651.3920, 451.0244
652.5530, 525.7881
653.7140, 480.4951
654.8750, 447.2197
656.0360, 339.7432
657.1970, 377.5039
658.3570, 291.3501
659.5170, 198.8550
660.6770, 157.3379
661.8370, 123.6099
662.9970, 99.90869
664.1570, 95.31006
665.3160, 112.3052
666.4750, 94.12256
667.6340, 129.9561
668.7930, 79.87500
669.9520, 166.4497
671.1110, 107.2021
672.2690, 16.61426
673.4270, 131.6968
674.5850, 66.50635
675.7430, 251.0879
676.9010, 142.4673
678.0590, 6.110352
679.2160, 165.6719
680.3730, 30.23145
681.5300, 165.4463
682.6870, 91.18066
683.8440, 257.2432
685.0010, 21.86377
686.1570, 105.1460
687.3130, 105.7949
688.4690, 133.9902
689.6250, 139.2656
690.7810, 107.9751
691.9370, 121.8252
693.0920, 48.59717
694.2470, 56.30469
695.4020, 9.888184
696.5570, 95.37842
697.7120, 38.10400
698.8670, 114.5693
700.0210, 132.6963
701.1750, 85.28418
702.3290, 169.2119
703.4830, 129.4092
704.6370, 129.5068
705.7910, 128.9229
706.9440, 16.60498
708.0970, 131.3105
709.2510, 232.1206
710.4030, 140.5913
711.5560, 50.17041
712.7090, 140.1865
713.8610, 93.38037
715.0140, 12.64795
716.1660, 25.76855
717.3180, 9.382813
718.4690, 11.90137
719.6210, 129.5156
720.7730, 55.02148
721.9240, 32.72070
723.0750, 81.07812
724.2260, 39.05273
725.3770, 18.44043
726.5270, 150.0293
727.6780, 67.81152
728.8280, 88.20117
729.9780, 107.1768
731.1280, 15.24219
732.2780, 100.7529
733.4280, 107.6562
734.5770, 131.8076
735.7260, 32.05762
736.8760, 219.7559
738.0250, 190.3086
739.1730, 0.3212890
740.3220, 9.676758
741.4700, 192.1162
742.6190, 170.7744
743.7670, 131.5811
744.9150, 148.7822
746.0630, 66.69434
747.2100, 205.3496
748.3580, 117.1895
749.5050, 166.6484
750.6520, 71.19141
751.7990, 89.29492
752.9460, 162.6338
754.0930, 176.6367
755.2390, 93.87305
756.3860, 35.23047
757.5320, 106.4824
758.6780, 8.872070
759.8240, 160.8789
760.9690, 95.91211
762.1150, 252.2256
763.2600, 109.1582
764.4060, 43.84863
765.5510, 114.4072
766.6950, 28.90625
767.8400, 117.2842
768.9850, 127.9619
770.1290, 146.8848
771.2730, 176.6094
772.4170, 164.2334
773.5610, 213.1631
774.7050, 113.9062
775.8480, 138.4521
776.9920, 49.13281
778.1350, 161.2559
779.2780, 169.0840
780.4210, 62.13965
781.5640, 101.5811
782.7060, 199.6543
783.8490, 4.308594
784.9910, 135.6650
786.1330, 114.7422
787.2750, 124.9180
788.4170, 152.4639
789.5580, 189.6318
790.7000, 190.0664
791.8410, 247.3467
792.9820, 180.9648
794.1230, 180.2471
795.2640, 126.0977
796.4040, 128.9414
797.5450, 132.5303
798.6850, 140.8252
799.8250, 164.9199
800.9650, 175.9111
802.1050, 202.3975
803.2450, 143.9580
804.3840, 206.2422
805.5230, 142.6270
806.6630, 208.1436
807.8020, 139.5586
808.9400, 178.7676
810.0790, 213.3379
811.2170, 56.24316
812.3560, 261.7979
813.4940, 80.91992
814.6320, 51.70508
815.7700, 199.0195
816.9070, 205.2842
818.0450, 262.4551
819.1820, 286.7402
820.3190, 230.4736
821.4560, 263.4082
822.5930, 257.4023
823.7300, 203.6377
824.8670, 117.9336
826.0030, 18.27246
827.1390, 168.1592
828.2750, 243.3105
829.4110, 104.8838
830.5470, 184.5264
831.6820, 28.41797
832.8180, 115.4902
833.9530, 209.9141
835.0880, 309.9834
836.2230, 127.1289
837.3580, 235.4365
838.4920, 132.6562
839.6270, 16.53027
840.7610, 221.0830
841.8950, 110.4229
843.0290, 222.7598
844.1630, 198.2588
845.2960, 195.7119
846.4300, 101.9248
847.5630, 72.88379
848.6960, 154.0010
849.8290, 84.96582
850.9620, 207.7021
852.0940, 110.5605
853.2270, 67.37891
854.3590, 183.0830
855.4910, 90.65625
856.6230, 163.1016
857.7550, 180.0742
858.8870, 98.03223
860.0180, 139.8135
861.1500, 182.6260
862.2810, 204.9824
863.4120, 183.6016
864.5430, 67.84082
865.6730, 96.05566
866.8040, 0.4238280
867.9340, 110.6992
869.0640, 45.72656
870.1940, 113.2881
871.3240, 29.89551
872.4540, 171.7510
873.5830, 31.38086
874.7130, 57.79395
875.8420, 11.10547
876.9710, 64.89648
878.1000, 63.75781
879.2290, 59.55859
880.3570, 116.6924
881.4860, 29.93457
882.6140, 55.68164
883.7420, 24.63770
884.8700, 51.43457
885.9980, 23.76465
887.1250, 37.66406
888.2530, 119.3457
889.3800, 4.476563
890.5070, 106.6006
891.6340, 38.20117
892.7610, 248.2744
893.8880, 25.67285
895.0140, 46.26953
896.1400, 17.35449
897.2670, 43.38086
898.3930, 5.887695
899.5180, 33.68066
900.6440, 42.99219
901.7700, 28.01270
902.8950, 6.203125
904.0200, 137.8447
905.1450, 47.02832
906.2700, 37.15137
907.3950, 36.52637
908.5190, 71.85547
909.6440, 29.63574
910.7680, 10.60059
911.8920, 81.51758
913.0160, 61.41504
914.1400, 22.13574
915.2630, 105.3496
916.3870, 92.27148
917.5100, 225.4961
918.6330, 130.6006
919.7560, 243.8320
920.8790, 66.90430
922.0010, 63.79004
923.1240, 25.47852
924.2460, 15.62207
925.3680, 200.0439
926.4900, 66.53027
927.6120, 64.71680
928.7340, 293.4736
929.8550, 370.7666
930.9760, 133.7148
932.0980, 202.9863
933.2190, 218.2871
934.3390, 230.6523
935.4600, 201.4492
936.5810, 290.8262
937.7010, 262.1699
938.8210, 86.23633
939.9410, 261.9531
941.0610, 152.1191
942.1810, 234.2598
943.3010, 193.6309
944.4200, 211.2969
945.5390, 63.91016
946.6580, 219.2090
947.7770, 240.0156
948.8960, 181.8926
950.0150, 339.7520
951.1330, 270.2285
952.2510, 356.9434
953.3690, 190.1777
954.4870, 235.9453
955.6050, 313.0469
956.7230, 254.1699
957.8400, 263.3613
958.9580, 219.0586
960.0750, 203.1367
961.1920, 259.4336
962.3090, 440.8594
963.4250, 230.1660
964.5420, 352.1035
965.6580, 262.8184
966.7740, 436.8047
967.8900, 316.7656
969.0060, 294.7715
970.1220, 345.4648
971.2380, 260.3281
972.3530, 184.1621
973.4680, 341.3398
974.5830, 389.9863
975.6980, 354.0449
976.8130, 229.1973
977.9280, 355.8965
979.0420, 137.1309
980.1560, 364.2500
981.2710, 173.5859
982.3850, 388.6270
983.4980, 279.9648
984.6120, 165.4199
985.7260, 314.6074
986.8390, 125.8398
987.9520, 303.4258
989.0650, 189.7656
990.1780, 301.7324
991.2910, 341.4121
992.4030, 152.6289
993.5160, 261.0566
994.6280, 108.3848
995.7400, 133.5859
996.8520, 344.2188
997.9640, 159.1602
999.0750, 141.6074
1000.187, 83.34961
1001.298, 246.1582
1002.409, 76.92383
1003.520, 159.5215
1004.631, 131.3340
1005.741, 152.4492
1006.852, 138.8965
1007.962, 121.3691
1009.072, 99.20117
1010.182, 109.4805
1011.292, 147.9863
1012.402, 233.4355
1013.511, 138.3691
1014.621, 403.7441
1015.730, 254.0137
1016.839, 241.0039
1017.948, 111.8828
1019.056, 147.9102
1020.165, 192.4883
1021.273, 140.1621
1022.382, 272.2773
1023.490, 171.5156
1024.598, 275.2129
1025.706, 271.3574
1026.813, 229.4766
1027.921, 298.5020
1029.028, 193.3105
1030.135, 234.3594
1031.242, 215.9141
1032.349, 5.587891
1033.456, 290.7070
1034.562, 115.3223
1035.668, 0.0000000E+00
##END=



