##NAMES=Pectolite
##RRUFFID=R060101
##IDEAL CHEMISTRY=NaCa_2_Si_3_O_8_(OH)
##LOCALITY=West Patterson, New Jersey, USA
##OWNER=RRUFF
##SOURCE=University of Arizona Mineral Museum
##DESCRIPTION=Tufts of white acicular sprays
##STATUS=The identification of this mineral has been confirmed by X-ray diffraction and chemical analysis
##URL=rruff.info/R060101
##MEASURED CHEMISTRY=Na_1.02_Ca_2.00_Si_2.99_O_8_(OH)
##PIN_ID=L00594
##ORIENTATION=Laser parallel to (1 0 1). Fiducial mark perpendicular to laser is parallel to b [0 1 0]
121.4100, 0.0000000E+00
122.6480, 1.819702
123.8850, 55.14197
125.1230, 13.96985
126.3600, 47.89856
127.5960, 14.62024
128.8330, 34.70203
130.0700, 4.937012
131.3060, 82.65283
132.5420, 40.45447
133.7780, 75.42639
135.0140, 57.55518
136.2500, 67.78796
137.4850, 87.74585
138.7200, 94.50879
139.9550, 111.9863
141.1900, 147.6167
142.4250, 138.3621
143.6600, 106.1781
144.8940, 100.9998
146.1280, 124.8140
147.3620, 107.7386
148.5960, 159.0181
149.8300, 139.7528
151.0630, 101.5361
152.2960, 157.5406
153.5300, 75.42493
154.7620, 110.4133
155.9950, 81.44995
157.2280, 34.63489
158.4600, 90.54041
159.6920, 29.91565
160.9250, 43.37878
162.1560, 56.12781
163.3880, 66.86914
164.6200, 57.11328
165.8510, 67.76575
167.0820, 65.52405
168.3130, 65.10388
169.5440, 45.66675
170.7750, 45.18896
172.0050, 31.85742
173.2350, 33.62634
174.4650, 21.04272
175.6950, 28.67322
176.9250, 54.92578
178.1550, 38.85095
179.3840, 55.68201
180.6130, 45.53687
181.8420, 34.42114
183.0710, 47.61230
184.3000, 133.5355
185.5280, 71.88550
186.7570, 76.25916
187.9850, 117.5518
189.2130, 81.12207
190.4400, 86.50342
191.6680, 59.68115
192.8960, 40.58020
194.1230, 80.00513
195.3500, 61.60510
196.5770, 33.18225
197.8030, 42.74780
199.0300, 7.702515
200.2560, 33.82202
201.4830, 46.69946
202.7090, 93.69055
203.9340, 30.69421
205.1600, 6.432373
206.3860, 62.53955
207.6110, 11.03516
208.8360, 35.90027
210.0610, 3.599854
211.2860, 60.75842
212.5100, 41.64978
213.7350, 73.64929
214.9590, 50.64490
216.1830, 71.42944
217.4070, 50.07214
218.6310, 0.4790040
219.8540, 38.93555
221.0780, 88.10840
222.3010, 64.18384
223.5240, 116.2329
224.7470, 77.25476
225.9690, 45.44678
227.1920, 122.1207
228.4140, 86.91541
229.6360, 26.23413
230.8580, 34.16089
232.0800, 20.23364
233.3020, 6.587646
234.5230, 101.0679
235.7440, 25.96362
236.9650, 70.13428
238.1860, 9.401123
239.4070, 45.38867
240.6280, 34.88330
241.8480, 49.03149
243.0680, 16.58740
244.2880, 2.927002
245.5080, 15.31763
246.7280, 32.95093
247.9470, 8.074707
249.1660, 22.82617
250.3860, 9.904785
251.6040, 19.69409
252.8230, 27.51660
254.0420, 56.55005
255.2600, 93.47632
256.4790, 14.64478
257.6970, 72.77368
258.9150, 60.41455
260.1320, 100.1912
261.3500, 52.12646
262.5670, 81.84888
263.7840, 99.22974
265.0010, 36.82812
266.2180, 77.93311
267.4350, 103.4814
268.6510, 170.0811
269.8680, 178.6096
271.0840, 171.0806
272.3000, 154.3484
273.5160, 187.4214
274.7310, 161.5818
275.9470, 203.6272
277.1620, 167.1455
278.3770, 160.2551
279.5920, 78.41406
280.8070, 98.48901
282.0210, 127.5081
283.2360, 47.45850
284.4500, 58.56104
285.6640, 99.55225
286.8780, 13.66162
288.0920, 42.68799
289.3050, 15.60571
290.5180, 1.371826
291.7320, 50.40527
292.9450, 30.34180
294.1570, 80.31543
295.3700, 87.44312
296.5830, 85.37964
297.7950, 105.6926
299.0070, 30.06201
300.2190, 92.90381
301.4310, 105.6980
302.6420, 54.49902
303.8540, 90.38013
305.0650, 52.01880
306.2760, 68.71094
307.4870, 71.62451
308.6980, 80.72339
309.9080, 89.26245
311.1190, 80.67407
312.3290, 108.8298
313.5390, 91.32007
314.7490, 144.6306
315.9580, 114.9834
317.1680, 100.5930
318.3770, 123.8335
319.5860, 158.1018
320.7950, 177.2822
322.0040, 182.1204
323.2130, 179.1411
324.4210, 154.0527
325.6290, 153.1309
326.8380, 144.4983
328.0460, 124.4353
329.2530, 125.8308
330.4610, 96.25830
331.6680, 66.68652
332.8760, 67.60596
334.0830, 69.52686
335.2890, 34.12988
336.4960, 8.918213
337.7030, 52.60742
338.9090, 29.87329
340.1150, 28.56519
341.3210, 33.02881
342.5270, 10.68335
343.7330, 19.49170
344.9380, 71.18726
346.1440, 78.42871
347.3490, 38.74561
348.5540, 27.19971
349.7590, 12.69775
350.9630, 45.33789
352.1680, 43.54785
353.3720, 85.08447
354.5760, 37.08496
355.7800, 20.70435
356.9840, 63.39453
358.1870, 42.21436
359.3910, 92.94702
360.5940, 73.00879
361.7970, 64.71826
363.0000, 13.32764
364.2030, 8.884033
365.4050, 78.36719
366.6080, 83.98364
367.8100, 38.43262
369.0120, 15.02832
370.2140, 19.45923
371.4150, 16.06763
372.6170, 3.857666
373.8180, 14.63574
375.0190, 33.35767
376.2200, 58.74609
377.4210, 54.83276
378.6220, 32.73389
379.8220, 53.38135
381.0230, 18.74268
382.2230, 37.29419
383.4230, 14.35571
384.6220, 59.18188
385.8220, 24.82520
387.0220, 68.55640
388.2210, 10.14087
389.4200, 21.42773
390.6190, 12.91089
391.8180, 11.24951
393.0160, 65.19336
394.2150, 53.87378
395.4130, 47.21924
396.6110, 30.65137
397.8090, 29.84326
399.0060, 2.877441
400.2040, 33.96948
401.4010, 37.14551
402.5980, 42.60669
403.7950, 99.14697
404.9920, 50.61646
406.1890, 35.26172
407.3860, 139.1294
408.5820, 54.36499
409.7780, 56.28296
410.9740, 21.09595
412.1700, 37.08521
413.3650, 36.24316
414.5610, 36.96191
415.7560, 72.19312
416.9510, 95.82983
418.1460, 57.49854
419.3410, 98.84009
420.5360, 77.28149
421.7300, 76.49194
422.9240, 60.19580
424.1180, 75.79443
425.3120, 84.42651
426.5060, 95.97168
427.7000, 54.19434
428.8930, 75.19043
430.0860, 41.35352
431.2790, 55.23145
432.4720, 75.33911
433.6650, 105.0781
434.8580, 34.61377
436.0500, 51.28052
437.2420, 40.01050
438.4340, 6.898926
439.6260, 42.07275
440.8180, 40.83691
442.0090, 69.39282
443.2010, 44.89160
444.3920, 49.60742
445.5830, 41.22559
446.7740, 17.55078
447.9640, 65.95850
449.1550, 45.82739
450.3450, 96.61084
451.5350, 57.75049
452.7250, 58.10474
453.9150, 81.53662
455.1050, 134.7222
456.2940, 47.88989
457.4830, 83.83154
458.6720, 67.13135
459.8610, 8.791016
461.0500, 76.20850
462.2390, 63.91260
463.4270, 64.82129
464.6150, 126.4341
465.8040, 53.27100
466.9910, 191.7754
468.1790, 74.45898
469.3670, 77.93555
470.5540, 82.99561
471.7410, 127.3340
472.9280, 194.7153
474.1150, 186.0176
475.3020, 59.99316
476.4890, 47.39014
477.6750, 115.1973
478.8610, 62.83594
480.0470, 78.27197
481.2330, 98.51318
482.4190, 117.5708
483.6040, 103.8774
484.7900, 116.4238
485.9750, 142.8115
487.1600, 107.7949
488.3450, 100.8838
489.5290, 87.01416
490.7140, 56.72217
491.8980, 103.7227
493.0820, 83.25000
494.2660, 85.05322
495.4500, 186.6133
496.6340, 91.73779
497.8170, 140.9536
499.0010, 170.8594
500.1840, 111.0542
501.3670, 144.6313
502.5500, 41.88135
503.7320, 131.5957
504.9150, 129.0723
506.0970, 79.26758
507.2790, 127.3589
508.4610, 115.6968
509.6430, 140.9902
510.8250, 102.0273
512.0060, 131.8984
513.1870, 85.72119
514.3680, 230.2285
515.5490, 80.81445
516.7300, 142.2793
517.9110, 38.89453
519.0910, 85.54688
520.2710, 214.3057
521.4510, 110.0005
522.6310, 101.9390
523.8110, 91.37598
524.9910, 98.28564
526.1700, 95.04492
527.3490, 117.5527
528.5280, 99.85010
529.7070, 91.71240
530.8860, 89.32031
532.0650, 53.89746
533.2430, 58.44043
534.4210, 69.42529
535.5990, 14.43213
536.7770, 71.18555
537.9550, 44.61719
539.1320, 3.080566
540.3100, 60.68018
541.4870, 38.55322
542.6640, 55.02881
543.8410, 29.57520
545.0170, 18.56885
546.1940, 33.52148
547.3700, 22.28809
548.5470, 136.9639
549.7230, 55.69336
550.8980, 58.15527
552.0740, 114.1411
553.2500, 86.22266
554.4250, 36.62695
555.6000, 129.8687
556.7750, 4.858887
557.9500, 126.1636
559.1250, 107.1401
560.2990, 22.54004
561.4730, 3.615234
562.6480, 77.32275
563.8220, 111.2207
564.9950, 33.16992
566.1690, 33.12354
567.3430, 59.72754
568.5160, 58.53906
569.6890, 117.5732
570.8620, 106.0063
572.0350, 75.55957
573.2070, 36.49805
574.3800, 85.02637
575.5520, 90.34619
576.7240, 111.3525
577.8960, 31.81885
579.0680, 108.6792
580.2400, 49.77002
581.4110, 68.87695
582.5830, 125.0420
583.7540, 49.78564
584.9250, 47.33252
586.0950, 69.86279
587.2660, 75.43799
588.4370, 77.57666
589.6070, 48.92822
590.7770, 44.61328
591.9470, 82.39209
593.1170, 26.25586
594.2860, 10.85791
595.4560, 38.32617
596.6250, 57.33350
597.7940, 80.25684
598.9630, 23.43018
600.1320, 143.8262
601.3000, 4.448242
602.4690, 113.2173
603.6370, 66.61279
604.8050, 123.8223
605.9730, 56.91846
607.1410, 123.0156
608.3090, 67.06982
609.4760, 103.0200
610.6430, 188.7139
611.8100, 91.33252
612.9770, 67.67920
614.1440, 44.27295
615.3110, 79.46094
616.4770, 0.9291990
617.6430, 93.11572
618.8090, 83.65771
619.9750, 87.87158
621.1410, 168.5610
622.3070, 134.8560
623.4720, 99.97217
624.6370, 30.73682
625.8020, 62.63574
626.9670, 124.4448
628.1320, 137.1704
629.2970, 119.7871
630.4610, 166.7485
631.6250, 70.21045
632.7890, 151.5674
633.9530, 182.0322
635.1170, 71.28857
636.2810, 39.93262
637.4440, 193.8232
638.6070, 236.4702
639.7700, 195.8452
640.9330, 309.5479
642.0960, 183.9082
643.2590, 276.5117
644.4210, 385.6812
645.5830, 444.0801
646.7450, 519.2764
647.9070, 542.4775
649.0690, 567.3838
650.2310, 633.9766
651.3920, 722.8887
652.5530, 569.9248
653.7140, 666.9551
654.8750, 476.4858
656.0360, 473.0664
657.1970, 384.1577
658.3570, 437.5278
659.5170, 272.9941
660.6770, 168.4717
661.8370, 197.6890
662.9970, 170.0132
664.1570, 157.0454
665.3160, 236.2437
666.4750, 164.1143
667.6340, 244.7773
668.7930, 137.9277
669.9520, 122.5908
671.1110, 25.05127
672.2690, 116.1758
673.4270, 258.8604
674.5850, 27.23096
675.7430, 54.85107
676.9010, 109.2061
678.0590, 107.2842
679.2160, 7.845703
680.3730, 169.2734
681.5300, 9.648438
682.6870, 222.2598
683.8440, 136.5840
685.0010, 115.6318
686.1570, 28.69824
687.3130, 212.1182
688.4690, 185.5020
689.6250, 147.4658
690.7810, 19.62402
691.9370, 171.2793
693.0920, 93.53613
694.2470, 113.8779
695.4020, 157.5771
696.5570, 99.65039
697.7120, 190.5010
698.8670, 52.85156
700.0210, 165.8867
701.1750, 122.8418
702.3290, 113.7393
703.4830, 67.85938
704.6370, 64.60645
705.7910, 25.04785
706.9440, 82.70410
708.0970, 52.05371
709.2510, 118.6553
710.4030, 38.00195
711.5560, 181.1631
712.7090, 41.39160
713.8610, 103.6982
715.0140, 90.91602
716.1660, 133.8945
717.3180, 175.6123
718.4690, 101.4971
719.6210, 93.99609
720.7730, 189.0371
721.9240, 61.95996
723.0750, 66.29590
724.2260, 56.26367
725.3770, 27.96777
726.5270, 77.52832
727.6780, 59.04688
728.8280, 45.97070
729.9780, 83.70898
731.1280, 111.1416
732.2780, 155.9941
733.4280, 192.1045
734.5770, 96.86035
735.7260, 25.75488
736.8760, 4.296875
738.0250, 116.4814
739.1730, 188.5889
740.3220, 31.79590
741.4700, 31.23828
742.6190, 81.16797
743.7670, 151.1396
744.9150, 58.45605
746.0630, 187.4297
747.2100, 75.39746
748.3580, 120.1826
749.5050, 124.2090
750.6520, 213.9385
751.7990, 4.150391
752.9460, 39.93555
754.0930, 36.45605
755.2390, 131.0879
756.3860, 68.97656
757.5320, 78.92871
758.6780, 7.429688
759.8240, 58.24512
760.9690, 106.2012
762.1150, 156.8691
763.2600, 117.2910
764.4060, 146.4307
765.5510, 111.6494
766.6950, 111.3447
767.8400, 25.61523
768.9850, 65.31445
770.1290, 117.4951
771.2730, 55.41699
772.4170, 87.72852
773.5610, 76.00586
774.7050, 140.3955
775.8480, 228.2236
776.9920, 65.33203
778.1350, 2.644531
779.2780, 34.88184
780.4210, 66.15332
781.5640, 32.34473
782.7060, 164.5742
783.8490, 150.1416
784.9910, 4.635742
786.1330, 217.5957
787.2750, 63.49707
788.4170, 166.2246
789.5580, 149.2393
790.7000, 85.07910
791.8410, 102.8447
792.9820, 161.0615
794.1230, 83.94141
795.2640, 133.0322
796.4040, 137.3721
797.5450, 243.2402
798.6850, 184.3906
799.8250, 131.6807
800.9650, 173.1279
802.1050, 119.2822
803.2450, 175.1826
804.3840, 230.6777
805.5230, 79.68457
806.6630, 12.21875
807.8020, 32.31348
808.9400, 189.0469
810.0790, 72.68848
811.2170, 131.5410
812.3560, 232.8096
813.4940, 91.18750
814.6320, 111.2324
815.7700, 117.6777
816.9070, 41.11621
818.0450, 91.78223
819.1820, 141.5684
820.3190, 162.6943
821.4560, 163.8672
822.5930, 188.1172
823.7300, 217.6338
824.8670, 169.1357
826.0030, 165.3916
827.1390, 98.17773
828.2750, 250.5488
829.4110, 72.61914
830.5470, 200.6641
831.6820, 184.2480
832.8180, 175.8984
833.9530, 30.74512
835.0880, 172.7705
836.2230, 71.59180
837.3580, 59.77637
838.4920, 208.7080
839.6270, 133.4395
840.7610, 119.8604
841.8950, 190.1504
843.0290, 90.63477
844.1630, 22.76855
845.2960, 93.30957
846.4300, 143.6992
847.5630, 132.6494
848.6960, 292.0967
849.8290, 74.63281
850.9620, 75.77539
852.0940, 2.912109
853.2270, 73.84961
854.3590, 88.67188
855.4910, 61.30566
856.6230, 196.2236
857.7550, 55.58789
858.8870, 75.39453
860.0180, 117.0420
861.1500, 177.0840
862.2810, 191.7900
863.4120, 83.82031
864.5430, 135.1826
865.6730, 69.33691
866.8040, 128.2764
867.9340, 25.93359
869.0640, 86.12402
870.1940, 171.9512
871.3240, 131.8291
872.4540, 224.6631
873.5830, 226.1846
874.7130, 101.6514
875.8420, 92.08301
876.9710, 78.67578
878.1000, 108.3105
879.2290, 53.52148
880.3570, 85.69727
881.4860, 190.7344
882.6140, 110.7783
883.7420, 170.0889
884.8700, 172.9385
885.9980, 121.1016
887.1250, 196.2168
888.2530, 8.6914003E-02
889.3800, 92.81055
890.5070, 6.360352
891.6340, 51.33105
892.7610, 6.937500
893.8880, 46.48438
895.0140, 38.27148
896.1400, 12.00684
897.2670, 116.0625
898.3930, 93.86328
899.5180, 152.3662
900.6440, 168.6172
901.7700, 74.54395
902.8950, 103.2373
904.0200, 61.31836
905.1450, 61.56445
906.2700, 130.0850
907.3950, 3.567383
908.5190, 149.4189
909.6440, 86.12988
910.7680, 97.48438
911.8920, 80.14746
913.0160, 13.29297
914.1400, 202.4961
915.2630, 112.7422
916.3870, 40.94141
917.5100, 191.7891
918.6330, 22.94727
919.7560, 95.38086
920.8790, 175.7969
922.0010, 30.95703
923.1240, 35.57227
924.2460, 13.36328
925.3680, 106.4121
926.4900, 54.31250
927.6120, 190.1328
928.7340, 60.29297
929.8550, 165.0078
930.9760, 96.82812
932.0980, 117.5566
933.2190, 157.1445
934.3390, 21.80859
935.4600, 73.34766
936.5810, 87.74805
937.7010, 33.82422
938.8210, 16.69922
939.9410, 5.410156
941.0610, 22.87891
942.1810, 61.91211
943.3010, 100.8066
944.4200, 178.6133
945.5390, 58.66016
946.6580, 115.7734
947.7770, 104.1699
948.8960, 1.025391
950.0150, 92.66797
951.1330, 159.2051
952.2510, 260.1328
953.3690, 69.33398
954.4870, 273.6270
955.6050, 137.8984
956.7230, 18.92969
957.8400, 305.1992
958.9580, 177.3418
960.0750, 180.1387
961.1920, 224.8047
962.3090, 154.0801
963.4250, 360.8711
964.5420, 258.7383
965.6580, 389.1055
966.7740, 371.2969
967.8900, 341.3516
969.0060, 385.9707
970.1220, 351.4961
971.2380, 386.0410
972.3530, 337.0820
973.4680, 371.7891
974.5830, 384.0996
975.6980, 452.2734
976.8130, 374.6699
977.9280, 359.0488
979.0420, 354.3770
980.1560, 253.7520
981.2710, 254.2734
982.3850, 254.9590
983.4980, 307.7168
984.6120, 200.1895
985.7260, 163.8809
986.8390, 227.7578
987.9520, 276.4570
989.0650, 258.8750
990.1780, 355.7598
991.2910, 352.9355
992.4030, 311.6152
993.5160, 400.0820
994.6280, 200.9453
995.7400, 217.7480
996.8520, 174.3164
997.9640, 290.4336
999.0750, 302.4746
1000.187, 127.4004
1001.298, 194.5391
1002.409, 383.4375
1003.520, 164.5898
1004.631, 269.0625
1005.741, 66.45703
1006.852, 172.1348
1007.962, 316.4531
1009.072, 123.1074
1010.182, 130.7871
1011.292, 125.2559
1012.402, 225.6406
1013.511, 331.4844
1014.621, 156.2949
1015.730, 285.0273
1016.839, 25.47656
1017.948, 201.5977
1019.056, 99.61719
1020.165, 159.6836
1021.273, 220.7266
1022.382, 213.9219
1023.490, 196.1660
1024.598, 220.0176
1025.706, 279.1562
1026.813, 230.1660
1027.921, 226.7715
1029.028, 76.04297
1030.135, 46.19727
1031.242, 87.12305
1032.349, 90.71289
1033.456, 152.5684
1034.562, 168.9258
1035.668, 188.1738
1036.775, 190.8379
1037.881, 193.8848
1038.987, 154.6543
1040.092, 77.14648
1041.198, 236.4922
1042.303, 334.9473
1043.408, 118.2852
1044.514, 76.32031
1045.618, 184.0371
1046.723, 7.318359
1047.828, 146.4785
1048.932, 190.0957
1050.037, 19.50195
1051.141, 265.9707
1052.245, 158.4297
1053.349, 9.552734
1054.452, 239.4082
1055.556, 158.5137
1056.659, 193.0645
1057.762, 85.35742
1058.865, 179.0078
1059.968, 90.44141
1061.071, 348.4492
1062.174, 244.3945
1063.276, 243.2090
1064.378, 237.0234
1065.480, 46.52734
1066.582, 272.1250
1067.684, 119.8496
1068.786, 230.2715
1069.887, 414.9766
1070.988, 4.644531
1072.090, 397.9883
1073.191, 366.5234
1074.291, 185.6465
1075.392, 226.2266
1076.493, 117.2891
1077.593, 241.7051
1078.693, 230.5352
1079.793, 145.9746
1080.893, 78.38281
1081.993, 301.3398
1083.092, 296.7070
1084.192, 220.4727
1085.291, 152.0645
1086.390, 99.61914
1087.489, 189.8340
1088.588, 162.7051
1089.686, 114.4570
1090.785, 338.7559
1091.883, 176.5000
1092.981, 95.83008
1094.079, 100.5977
1095.177, 245.6250
1096.275, 88.97266
1097.373, 237.9902
1098.470, 110.6133
1099.567, 292.2988
1100.664, 157.7988
1101.761, 196.3750
1102.858, 87.90625
1103.954, 235.9180
1105.051, 157.6270
1106.147, 96.09375
1107.243, 104.6328
1108.339, 315.5898
1109.435, 1.578125
1110.531, 205.8340
1111.626, 0.0000000E+00
##END=



