##NAMES=Pectolite
##RRUFFID=R060101
##IDEAL CHEMISTRY=NaCa_2_Si_3_O_8_(OH)
##LOCALITY=West Patterson, New Jersey, USA
##OWNER=RRUFF
##SOURCE=University of Arizona Mineral Museum
##DESCRIPTION=Tufts of white acicular sprays
##STATUS=The identification of this mineral has been confirmed by X-ray diffraction and chemical analysis
##URL=rruff.info/R060101
##MEASURED CHEMISTRY=Na_1.02_Ca_2.00_Si_2.99_O_8_(OH)
##PIN_ID=M00258
##ORIENTATION=Laser parallel to c* (0 0 1). Fiducial mark perpendicular to laser is parallel to a [1 0 0]
122.6480, 0.0000000E+00
123.8850, 48.71118
125.1230, 39.65845
126.3600, 0.9947510
127.5960, 63.96582
128.8330, 49.35486
130.0700, 34.11035
131.3060, 42.13977
132.5420, 16.36646
133.7780, 83.72546
135.0140, 75.20532
136.2500, 150.0107
137.4850, 112.9014
138.7200, 105.7993
139.9550, 98.79236
141.1900, 171.7782
142.4250, 150.7460
143.6600, 130.7041
144.8940, 107.6649
146.1280, 83.64526
147.3620, 77.23987
148.5960, 111.2498
149.8300, 81.92957
151.0630, 62.44849
152.2960, 92.39087
153.5300, 66.30347
154.7620, 90.59814
155.9950, 41.66357
157.2280, 54.76782
158.4600, 61.74438
159.6920, 41.70142
160.9250, 38.59338
162.1560, 43.44946
163.3880, 17.47620
164.6200, 25.34631
165.8510, 19.31372
167.0820, 42.65100
168.3130, 30.82434
169.5440, 47.95471
170.7750, 6.884521
172.0050, 5.716797
173.2350, 9.482178
174.4650, 8.652954
175.6950, 1.147705
176.9250, 0.7434080
178.1550, 2.540161
179.3840, 5.873047
180.6130, 18.16919
181.8420, 26.61890
183.0710, 34.61499
184.3000, 28.32080
185.5280, 50.35229
186.7570, 8.019653
187.9850, 4.222900
189.2130, 2.199463
190.4400, 17.53809
191.6680, 29.47278
192.8960, 40.55505
194.1230, 52.48279
195.3500, 71.35681
196.5770, 81.35156
197.8030, 102.2281
199.0300, 63.41113
200.2560, 63.70166
201.4830, 60.33899
202.7090, 70.34058
203.9340, 28.13464
205.1600, 67.93127
206.3860, 40.50452
207.6110, 98.36047
208.8360, 34.37463
210.0610, 22.28735
211.2860, 70.84705
212.5100, 64.10291
213.7350, 34.96423
214.9590, 45.38574
216.1830, 42.26733
217.4070, 48.82788
218.6310, 76.17554
219.8540, 81.88916
221.0780, 96.86023
222.3010, 58.83008
223.5240, 101.4490
224.7470, 86.22363
225.9690, 42.84729
227.1920, 44.81055
228.4140, 73.69116
229.6360, 32.69592
230.8580, 68.03223
232.0800, 63.55664
233.3020, 27.38367
234.5230, 21.36389
235.7440, 6.416992
236.9650, 14.01660
238.1860, 29.45740
239.4070, 26.66211
240.6280, 31.95581
241.8480, 35.04089
243.0680, 61.09412
244.2880, 9.253052
245.5080, 0.5159910
246.7280, 6.075073
247.9470, 39.79736
249.1660, 61.66589
250.3860, 52.78674
251.6040, 18.56519
252.8230, 33.75635
254.0420, 26.29370
255.2600, 6.756958
256.4790, 7.401489
257.6970, 59.72876
258.9150, 42.25513
260.1320, 26.42676
261.3500, 38.43762
262.5670, 10.66028
263.7840, 2.882446
265.0010, 40.83081
266.2180, 6.538818
267.4350, 48.26538
268.6510, 73.67395
269.8680, 81.30566
271.0840, 90.78479
272.3000, 91.09082
273.5160, 62.40881
274.7310, 68.77527
275.9470, 74.44141
277.1620, 42.89453
278.3770, 43.79956
279.5920, 27.64258
280.8070, 18.36230
282.0210, 5.158813
283.2360, 4.313110
284.4500, 17.44226
285.6640, 34.02515
286.8780, 8.740479
288.0920, 42.23706
289.3050, 28.64441
290.5180, 20.06702
291.7320, 9.509155
292.9450, 39.06702
294.1570, 0.4416500
295.3700, 45.10791
296.5830, 18.26978
297.7950, 34.63306
299.0070, 17.93213
300.2190, 44.20093
301.4310, 50.44995
302.6420, 32.88916
303.8540, 9.054443
305.0650, 6.283447
306.2760, 58.53198
307.4870, 43.24390
308.6980, 102.5950
309.9080, 144.7307
311.1190, 7.877441
312.3290, 65.91406
313.5390, 87.97681
314.7490, 60.96582
315.9580, 131.9651
317.1680, 85.22388
318.3770, 143.1658
319.5860, 112.1401
320.7950, 119.8438
322.0040, 71.67993
323.2130, 146.5325
324.4210, 53.41602
325.6290, 105.0693
326.8380, 78.61157
328.0460, 103.3025
329.2530, 42.14233
330.4610, 80.89917
331.6680, 65.69897
332.8760, 69.31763
334.0830, 18.93945
335.2890, 60.72632
336.4960, 20.74438
337.7030, 15.49414
338.9090, 35.41479
340.1150, 39.13281
341.3210, 51.56641
342.5270, 59.94824
343.7330, 29.55884
344.9380, 50.89526
346.1440, 50.12207
347.3490, 12.63306
348.5540, 69.77637
349.7590, 72.71143
350.9630, 84.09106
352.1680, 85.18237
353.3720, 81.55713
354.5760, 132.6611
355.7800, 69.64062
356.9840, 122.6060
358.1870, 158.3762
359.3910, 96.77734
360.5940, 102.6055
361.7970, 129.3960
363.0000, 101.4561
364.2030, 107.2556
365.4050, 138.7781
366.6080, 58.71216
367.8100, 53.24414
369.0120, 68.06445
370.2140, 45.58301
371.4150, 43.21045
372.6170, 22.47974
373.8180, 31.85718
375.0190, 107.2454
376.2200, 95.73486
377.4210, 126.0559
378.6220, 148.4902
379.8220, 78.87866
381.0230, 99.89673
382.2230, 100.2524
383.4230, 5.228027
384.6220, 66.55908
385.8220, 40.85693
387.0220, 55.03784
388.2210, 8.068359
389.4200, 55.12842
390.6190, 66.81787
391.8180, 140.7983
393.0160, 1.404785
394.2150, 91.76367
395.4130, 49.71021
396.6110, 76.57764
397.8090, 94.38696
399.0060, 90.16260
400.2040, 98.72876
401.4010, 57.23291
402.5980, 1.843018
403.7950, 100.5039
404.9920, 61.93506
406.1890, 133.4041
407.3860, 80.27612
408.5820, 73.73438
409.7780, 130.9871
410.9740, 112.4490
412.1700, 191.9736
413.3650, 105.6787
414.5610, 133.5645
415.7560, 169.0420
416.9510, 130.6675
418.1460, 147.3013
419.3410, 81.00903
420.5360, 129.3284
421.7300, 149.6421
422.9240, 137.8323
424.1180, 55.70581
425.3120, 33.79224
426.5060, 93.65967
427.7000, 33.99194
428.8930, 70.65405
430.0860, 34.39111
431.2790, 82.00610
432.4720, 98.79224
433.6650, 90.46484
434.8580, 80.88159
436.0500, 47.97119
437.2420, 86.48706
438.4340, 60.96680
439.6260, 66.91602
440.8180, 64.61475
442.0090, 75.11621
443.2010, 77.45801
444.3920, 76.30151
445.5830, 24.58374
446.7740, 110.8533
447.9640, 43.91309
449.1550, 60.17529
450.3450, 0.2641600
451.5350, 25.24951
452.7250, 71.15479
453.9150, 63.03662
455.1050, 83.66455
456.2940, 71.29614
457.4830, 83.22827
458.6720, 75.00513
459.8610, 5.934814
461.0500, 67.61401
462.2390, 57.43018
463.4270, 34.27759
464.6150, 70.57104
465.8040, 56.10107
466.9910, 48.98608
468.1790, 99.42114
469.3670, 131.0645
470.5540, 92.67383
471.7410, 51.07764
472.9280, 63.17114
474.1150, 46.46509
475.3020, 65.68311
476.4890, 53.64966
477.6750, 99.56226
478.8610, 79.99023
480.0470, 17.90796
481.2330, 166.5327
482.4190, 45.92456
483.6040, 66.45630
484.7900, 73.32666
485.9750, 12.88745
487.1600, 72.26782
488.3450, 90.78198
489.5290, 19.24976
490.7140, 98.69971
491.8980, 130.1816
493.0820, 27.56421
494.2660, 89.72021
495.4500, 14.84277
496.6340, 64.76001
497.8170, 65.03149
499.0010, 85.83594
500.1840, 125.7490
501.3670, 190.4978
502.5500, 90.98804
503.7320, 89.29370
504.9150, 23.65625
506.0970, 81.84570
507.2790, 141.0039
508.4610, 28.77197
509.6430, 125.0466
510.8250, 48.78906
512.0060, 113.5347
513.1870, 67.12842
514.3680, 5.345459
515.5490, 124.0300
516.7300, 77.38940
517.9110, 75.00830
519.0910, 100.6379
520.2710, 29.79053
521.4510, 26.59619
522.6310, 90.46484
523.8110, 11.38794
524.9910, 110.5828
526.1700, 15.23413
527.3490, 20.89795
528.5280, 44.46973
529.7070, 98.92041
530.8860, 32.52026
532.0650, 47.96704
533.2430, 31.51538
534.4210, 102.4109
535.5990, 25.70923
536.7770, 61.75122
537.9550, 39.37012
539.1320, 60.57129
540.3100, 52.84375
541.4870, 75.16699
542.6640, 82.14307
543.8410, 100.7388
545.0170, 61.35254
546.1940, 92.37061
547.3700, 86.68262
548.5470, 33.35254
549.7230, 28.03760
550.8980, 116.7715
552.0740, 24.74023
553.2500, 43.25732
554.4250, 17.67920
555.6000, 0.6469730
556.7750, 64.92920
557.9500, 21.56006
559.1250, 118.1953
560.2990, 59.20557
561.4730, 55.60693
562.6480, 17.95410
563.8220, 39.24316
564.9950, 89.48193
566.1690, 19.19775
567.3430, 46.67578
568.5160, 57.07471
569.6890, 88.80615
570.8620, 77.57520
572.0350, 70.89258
573.2070, 53.50732
574.3800, 56.99658
575.5520, 99.15088
576.7240, 156.1133
577.8960, 73.16406
579.0680, 3.114258
580.2400, 35.05273
581.4110, 89.09717
582.5830, 30.08594
583.7540, 41.13281
584.9250, 176.1841
586.0950, 67.13037
587.2660, 41.59619
588.4370, 57.57812
589.6070, 3.441406
590.7770, 80.94922
591.9470, 77.95557
593.1170, 145.1963
594.2860, 143.2241
595.4560, 93.95850
596.6250, 140.2251
597.7940, 78.83398
598.9630, 78.19531
600.1320, 78.82178
601.3000, 102.5850
602.4690, 84.11621
603.6370, 65.66064
604.8050, 1.770996
605.9730, 84.98096
607.1410, 12.62354
608.3090, 71.73975
609.4760, 62.06592
610.6430, 32.21631
611.8100, 94.38330
612.9770, 95.58447
614.1440, 74.41748
615.3110, 65.63672
616.4770, 117.6821
617.6430, 71.05322
618.8090, 153.9800
619.9750, 51.56689
621.1410, 104.1875
622.3070, 32.16797
623.4720, 126.7607
624.6370, 45.88916
625.8020, 116.3486
626.9670, 116.6694
628.1320, 93.97803
629.2970, 92.24512
630.4610, 48.22266
631.6250, 85.91895
632.7890, 100.7520
633.9530, 153.5430
635.1170, 150.6147
636.2810, 182.9502
637.4440, 134.2686
638.6070, 175.2920
639.7700, 189.5049
640.9330, 226.3633
642.0960, 241.3442
643.2590, 278.8818
644.4210, 294.4067
645.5830, 397.7280
646.7450, 394.8682
647.9070, 553.1035
649.0690, 608.7153
650.2310, 567.0225
651.3920, 609.4351
652.5530, 648.7051
653.7140, 493.1772
654.8750, 488.2407
656.0360, 435.9351
657.1970, 459.6167
658.3570, 257.2061
659.5170, 149.2944
660.6770, 237.7720
661.8370, 143.4136
662.9970, 138.4443
664.1570, 60.37793
665.3160, 75.42920
666.4750, 127.0386
667.6340, 109.5518
668.7930, 138.9893
669.9520, 40.77100
671.1110, 113.2935
672.2690, 87.66162
673.4270, 64.64502
674.5850, 220.9971
675.7430, 191.8384
676.9010, 8.825684
678.0590, 110.7188
679.2160, 97.78418
680.3730, 67.67041
681.5300, 145.4868
682.6870, 108.1660
683.8440, 154.6597
685.0010, 94.93506
686.1570, 211.9634
687.3130, 113.4355
688.4690, 3.497070
689.6250, 73.42529
690.7810, 60.52539
691.9370, 135.2617
693.0920, 192.2866
694.2470, 62.73682
695.4020, 98.01611
696.5570, 99.91357
697.7120, 290.0444
698.8670, 61.49756
700.0210, 154.4673
701.1750, 14.42529
702.3290, 78.17773
703.4830, 62.50488
704.6370, 90.00000
705.7910, 110.2334
706.9440, 173.8511
708.0970, 20.66064
709.2510, 33.33301
710.4030, 89.59961
711.5560, 51.16797
712.7090, 82.45605
713.8610, 139.0244
715.0140, 160.2920
716.1660, 91.80371
717.3180, 139.1812
718.4690, 100.9805
719.6210, 71.60645
720.7730, 69.80957
721.9240, 49.93799
723.0750, 35.37988
724.2260, 44.52783
725.3770, 91.61670
726.5270, 75.98633
727.6780, 24.30371
728.8280, 56.68506
729.9780, 44.72949
731.1280, 53.65918
732.2780, 116.7085
733.4280, 198.6060
734.5770, 58.44238
735.7260, 187.1069
736.8760, 11.63428
738.0250, 154.0488
739.1730, 29.87695
740.3220, 137.3462
741.4700, 107.5220
742.6190, 47.70703
743.7670, 35.12842
744.9150, 45.94336
746.0630, 68.48877
747.2100, 111.3047
748.3580, 167.8901
749.5050, 108.5830
750.6520, 41.96143
751.7990, 125.3403
752.9460, 10.77344
754.0930, 44.97607
755.2390, 24.31836
756.3860, 75.37354
757.5320, 27.58447
758.6780, 41.11133
759.8240, 89.25195
760.9690, 48.45703
762.1150, 163.4492
763.2600, 73.39941
764.4060, 28.58789
765.5510, 73.97363
766.6950, 85.32910
767.8400, 15.34375
768.9850, 25.01465
770.1290, 109.4658
771.2730, 66.04004
772.4170, 43.22168
773.5610, 127.1973
774.7050, 163.7314
775.8480, 21.41602
776.9920, 173.7578
778.1350, 46.85254
779.2780, 62.22363
780.4210, 51.33105
781.5640, 35.91602
782.7060, 15.33496
783.8490, 86.66016
784.9910, 105.9258
786.1330, 133.1826
787.2750, 39.36719
788.4170, 160.4482
789.5580, 242.5059
790.7000, 131.3662
791.8410, 52.07324
792.9820, 101.7725
794.1230, 41.09277
795.2640, 43.09473
796.4040, 170.9062
797.5450, 10.89746
798.6850, 167.6201
799.8250, 119.8184
800.9650, 46.97754
802.1050, 99.49316
803.2450, 91.19922
804.3840, 100.6738
805.5230, 123.3848
806.6630, 77.07227
807.8020, 52.98340
808.9400, 86.20117
810.0790, 142.2129
811.2170, 104.5234
812.3560, 133.9453
813.4940, 116.0762
814.6320, 97.20703
815.7700, 58.41211
816.9070, 73.30566
818.0450, 93.43262
819.1820, 113.6357
820.3190, 155.8652
821.4560, 150.7168
822.5930, 11.36914
823.7300, 89.87793
824.8670, 61.77734
826.0030, 120.9102
827.1390, 148.2158
828.2750, 122.4805
829.4110, 51.76855
830.5470, 6.718750
831.6820, 118.6455
832.8180, 43.54785
833.9530, 160.8838
835.0880, 161.4062
836.2230, 10.07715
837.3580, 140.8613
838.4920, 199.3506
839.6270, 265.6641
840.7610, 254.5566
841.8950, 17.42480
843.0290, 141.0459
844.1630, 84.84277
845.2960, 127.5039
846.4300, 191.5664
847.5630, 91.72754
848.6960, 119.6973
849.8290, 43.26562
850.9620, 128.6104
852.0940, 106.7129
853.2270, 43.19824
854.3590, 76.87988
855.4910, 134.5996
856.6230, 13.80664
857.7550, 204.8779
858.8870, 118.9219
860.0180, 64.91211
861.1500, 186.4375
862.2810, 72.51562
863.4120, 46.28320
864.5430, 71.67090
865.6730, 120.3994
866.8040, 123.4775
867.9340, 141.9297
869.0640, 154.0527
870.1940, 98.66406
871.3240, 162.9424
872.4540, 113.0146
873.5830, 116.9346
874.7130, 28.87598
875.8420, 84.19824
876.9710, 114.0312
878.1000, 169.5693
879.2290, 247.3945
880.3570, 93.96875
881.4860, 129.6211
882.6140, 55.59961
883.7420, 74.90918
884.8700, 37.11133
885.9980, 123.3496
887.1250, 101.7051
888.2530, 55.70508
889.3800, 8.541992
890.5070, 22.00684
891.6340, 2.636719
892.7610, 117.7168
893.8880, 68.60840
895.0140, 14.23730
896.1400, 118.9678
897.2670, 35.51172
898.3930, 148.5674
899.5180, 138.0488
900.6440, 69.42969
901.7700, 49.77051
902.8950, 40.92188
904.0200, 5.305664
905.1450, 162.2314
906.2700, 123.1211
907.3950, 246.4551
908.5190, 50.53809
909.6440, 141.6621
910.7680, 33.38574
911.8920, 5.070313
913.0160, 176.0762
914.1400, 124.2188
915.2630, 182.4482
916.3870, 94.24609
917.5100, 116.4688
918.6330, 113.8809
919.7560, 104.6631
920.8790, 85.00000
922.0010, 86.49512
923.1240, 94.99414
924.2460, 85.48340
925.3680, 104.4482
926.4900, 117.8975
927.6120, 96.05664
928.7340, 160.7100
929.8550, 216.8711
930.9760, 211.6631
932.0980, 77.15039
933.2190, 174.7051
934.3390, 180.3154
935.4600, 23.50684
936.5810, 40.91699
937.7010, 154.3301
938.8210, 234.7061
939.9410, 134.3623
941.0610, 143.5615
942.1810, 204.3213
943.3010, 178.9277
944.4200, 177.2344
945.5390, 296.1514
946.6580, 26.59570
947.7770, 174.8525
948.8960, 38.03320
950.0150, 67.94336
951.1330, 296.9229
952.2510, 35.72852
953.3690, 217.2715
954.4870, 385.7471
955.6050, 66.19727
956.7230, 218.3291
957.8400, 108.6973
958.9580, 121.5127
960.0750, 111.0654
961.1920, 33.98730
962.3090, 143.1426
963.4250, 186.1484
964.5420, 163.4053
965.6580, 279.0596
966.7740, 166.2354
967.8900, 276.7646
969.0060, 157.3330
970.1220, 114.8252
971.2380, 152.0996
972.3530, 111.5010
973.4680, 134.3330
974.5830, 193.3203
975.6980, 200.1680
976.8130, 250.1914
977.9280, 244.1582
979.0420, 334.4336
980.1560, 223.2305
981.2710, 229.6328
982.3850, 208.6836
983.4980, 97.50391
984.6120, 151.4746
985.7260, 202.0908
986.8390, 252.7832
987.9520, 57.96094
989.0650, 148.2930
990.1780, 124.4609
991.2910, 303.0801
992.4030, 169.4941
993.5160, 32.69922
994.6280, 230.0391
995.7400, 123.3984
996.8520, 146.6797
997.9640, 19.58594
999.0750, 113.2031
1000.187, 208.9473
1001.298, 26.67773
1002.409, 244.7383
1003.520, 123.7090
1004.631, 296.5918
1005.741, 205.9336
1006.852, 81.26758
1007.962, 145.6680
1009.072, 137.9355
1010.182, 113.5664
1011.292, 343.6250
1012.402, 199.8262
1013.511, 205.7012
1014.621, 210.7969
1015.730, 109.4355
1016.839, 76.13281
1017.948, 65.19727
1019.056, 210.3496
1020.165, 109.8535
1021.273, 223.5586
1022.382, 33.84180
1023.490, 449.0430
1024.598, 261.8242
1025.706, 270.0430
1026.813, 112.8516
1027.921, 150.2441
1029.028, 150.1777
1030.135, 66.51758
1031.242, 53.24219
1032.349, 214.5938
1033.456, 42.63086
1034.562, 186.5449
1035.668, 57.79492
1036.775, 117.8281
1037.881, 138.4043
1038.987, 201.8125
1040.092, 75.92188
1041.198, 266.5820
1042.303, 308.0293
1043.408, 169.9844
1044.514, 200.0273
1045.618, 87.67578
1046.723, 26.22266
1047.828, 18.59180
1048.932, 78.32812
1050.037, 24.61719
1051.141, 111.0312
1052.245, 92.53906
1053.349, 37.87109
1054.452, 11.01758
1055.556, 65.04688
1056.659, 136.7930
1057.762, 6.574219
1058.865, 58.03320
1059.968, 176.5723
1061.071, 99.89844
1062.174, 15.92773
1063.276, 29.65820
1064.378, 77.89258
1065.480, 108.7109
1066.582, 225.7500
1067.684, 65.61328
1068.786, 23.26367
1069.887, 111.9863
1070.988, 308.3867
1072.090, 225.7246
1073.191, 107.8105
1074.291, 125.7441
1075.392, 28.90625
1076.493, 47.50391
1077.593, 98.75781
1078.693, 123.1445
1079.793, 168.4297
1080.893, 141.9922
1081.993, 160.3496
1083.092, 100.6543
1084.192, 116.0234
1085.291, 162.6465
1086.390, 172.9453
1087.489, 194.5918
1088.588, 237.4180
1089.686, 224.0566
1090.785, 199.0430
1091.883, 207.1953
1092.981, 152.7246
1094.079, 333.7305
1095.177, 102.8926
1096.275, 43.24414
1097.373, 127.9531
1098.470, 22.35156
1099.567, 67.64258
1100.664, 103.5039
1101.761, 26.83789
1102.858, 142.9199
1103.954, 251.5273
1105.051, 180.0039
1106.147, 180.5996
1107.243, 175.9375
1108.339, 316.9531
1109.435, 332.1836
1110.531, 170.4453
1111.626, 170.2832
1112.722, 90.83984
1113.817, 256.8398
1114.912, 473.7422
1116.007, 43.14844
1117.101, 317.2324
1118.196, 238.3242
1119.290, 259.4062
1120.385, 234.9277
1121.479, 307.1973
1122.573, 419.7695
1123.666, 259.8633
1124.760, 191.5566
1125.853, 285.8398
1126.947, 117.8984
1128.040, 228.2891
1129.133, 222.4961
1130.226, 41.97266
1131.318, 64.17188
1132.411, 315.6777
1133.503, 121.8691
1134.596, 124.6309
1135.688, 64.46680
1136.780, 343.8184
1137.871, 141.1660
1138.963, 93.42578
1140.054, 273.5293
1141.146, 179.6445
1142.237, 75.54102
1143.328, 67.01953
1144.419, 194.5605
1145.509, 274.7148
1146.600, 77.47852
1147.690, 309.2656
1148.780, 227.2578
1149.870, 103.1055
1150.960, 174.7383
1152.050, 62.99023
1153.139, 73.15234
1154.229, 81.58008
1155.318, 56.51562
1156.407, 88.68359
1157.496, 125.8477
1158.585, 160.7930
1159.674, 148.1777
1160.762, 155.3613
1161.850, 145.3066
1162.939, 93.96875
1164.027, 146.6191
1165.114, 46.94336
1166.202, 128.1445
1167.290, 106.6387
1168.377, 228.2910
1169.464, 214.1836
1170.551, 106.0781
1171.638, 45.60156
1172.725, 201.2871
1173.812, 37.42969
1174.898, 195.9160
1175.984, 378.6953
1177.071, 104.2578
1178.157, 82.98438
1179.242, 86.17773
1180.328, 113.4199
1181.414, 50.08984
1182.499, 161.4316
1183.584, 170.1953
1184.669, 135.8711
1185.754, 102.5312
1186.839, 138.7500
1187.924, 73.81836
1189.008, 104.3125
1190.092, 27.03516
1191.177, 49.14648
1192.260, 11.31641
1193.344, 106.7012
1194.428, 56.14844
1195.512, 149.5332
1196.595, 79.85352
1197.678, 49.88867
1198.761, 202.7832
1199.844, 268.8477
1200.927, 0.0000000E+00
##END=



