##NAMES=Pectolite
##RRUFFID=R050396
##IDEAL CHEMISTRY=NaCa_2_Si_3_O_8_(OH)
##LOCALITY=Jeffrey Quarry, Asbestos, Quebec, Canada
##OWNER=RRUFF
##SOURCE=Marcus Origlieri
##DESCRIPTION=Colorless to gray columnar blocky crystals
##STATUS=The identification of this mineral has been confirmed by X-ray diffraction and chemical analysis
##URL=rruff.info/R050396
##MEASURED CHEMISTRY=Na_1.00_Ca_2.00_Si_3.00_O_8_(OH)
##PIN_ID=L01067
##ORIENTATION=Laser parallel to a* (1 0 0). Fiducial mark perpendicular to laser is parallel to -b [0 -1 0]
111.5030, 0.0000000E+00
112.7420, 56.42578
113.9810, 4.252441
115.2200, 48.78857
116.4580, 32.22559
117.6970, 102.4683
118.9350, 113.4478
120.1730, 76.41895
121.4100, 136.8472
122.6480, 148.3301
123.8850, 172.5566
125.1230, 242.2827
126.3600, 289.2119
127.5960, 289.4912
128.8330, 430.6860
130.0700, 435.7983
131.3060, 501.7319
132.5420, 615.4019
133.7780, 551.7383
135.0140, 751.6836
136.2500, 786.1831
137.4850, 704.1914
138.7200, 787.6680
139.9550, 919.5786
141.1900, 1052.895
142.4250, 925.5898
143.6600, 896.6406
144.8940, 979.0283
146.1280, 854.7861
147.3620, 755.8330
148.5960, 686.1543
149.8300, 796.7266
151.0630, 639.5264
152.2960, 639.5361
153.5300, 531.7402
154.7620, 474.1299
155.9950, 523.7373
157.2280, 443.5527
158.4600, 453.5205
159.6920, 373.6357
160.9250, 285.8994
162.1560, 157.3047
163.3880, 280.8545
164.6200, 162.5449
165.8510, 299.3721
167.0820, 201.3340
168.3130, 222.4277
169.5440, 157.6523
170.7750, 109.0010
172.0050, 159.4697
173.2350, 156.0547
174.4650, 219.7520
175.6950, 268.5576
176.9250, 168.4658
178.1550, 308.6484
179.3840, 284.0557
180.6130, 231.2266
181.8420, 341.4883
183.0710, 406.8389
184.3000, 364.2725
185.5280, 296.7637
186.7570, 396.2305
187.9850, 372.6875
189.2130, 290.1523
190.4400, 391.6348
191.6680, 332.1426
192.8960, 238.6807
194.1230, 346.2529
195.3500, 454.8633
196.5770, 454.5146
197.8030, 548.2061
199.0300, 518.9404
200.2560, 694.7217
201.4830, 627.5615
202.7090, 697.4414
203.9340, 572.3213
205.1600, 570.2695
206.3860, 463.3008
207.6110, 471.3936
208.8360, 418.5947
210.0610, 496.7812
211.2860, 397.1025
212.5100, 429.5703
213.7350, 531.1406
214.9590, 546.7949
216.1830, 716.4854
217.4070, 553.2109
218.6310, 727.9824
219.8540, 544.8486
221.0780, 565.7773
222.3010, 713.7637
223.5240, 611.8154
224.7470, 717.9961
225.9690, 408.1729
227.1920, 417.3828
228.4140, 457.6191
229.6360, 291.8994
230.8580, 281.2275
232.0800, 292.5869
233.3020, 188.9961
234.5230, 87.42871
235.7440, 179.8848
236.9650, 62.36328
238.1860, 106.8623
239.4070, 22.38379
240.6280, 69.92871
241.8480, 56.49316
243.0680, 11.92285
244.2880, 126.6836
245.5080, 95.30859
246.7280, 51.04199
247.9470, 150.6289
249.1660, 124.3291
250.3860, 203.0479
251.6040, 136.7832
252.8230, 201.5312
254.0420, 175.3047
255.2600, 153.1074
256.4790, 309.9434
257.6970, 249.8047
258.9150, 310.9346
260.1320, 185.9561
261.3500, 231.8760
262.5670, 324.3779
263.7840, 236.0645
265.0010, 161.9443
266.2180, 227.9658
267.4350, 248.1553
268.6510, 139.4600
269.8680, 167.8701
271.0840, 139.3760
272.3000, 213.9717
273.5160, 159.6523
274.7310, 102.4111
275.9470, 64.24414
277.1620, 61.60547
278.3770, 46.60059
279.5920, 71.13379
280.8070, 73.21484
282.0210, 53.35156
283.2360, 89.54102
284.4500, 79.78027
285.6640, 166.0674
286.8780, 200.4023
288.0920, 97.22070
289.3050, 167.1982
290.5180, 5.339844
291.7320, 53.16211
292.9450, 4.288086
294.1570, 120.3252
295.3700, 116.9443
296.5830, 111.5977
297.7950, 158.7900
299.0070, 141.2832
300.2190, 119.7441
301.4310, 145.5361
302.6420, 9.437500
303.8540, 10.30273
305.0650, 5.825195
306.2760, 170.0732
307.4870, 68.99902
308.6980, 102.3613
309.9080, 139.7979
311.1190, 54.80566
312.3290, 59.79785
313.5390, 184.8447
314.7490, 212.0752
315.9580, 314.1621
317.1680, 199.2695
318.3770, 200.3926
319.5860, 180.5322
320.7950, 190.6895
322.0040, 270.8604
323.2130, 153.0459
324.4210, 272.3818
325.6290, 163.2676
326.8380, 313.6953
328.0460, 146.9307
329.2530, 111.1758
330.4610, 235.3750
331.6680, 249.6426
332.8760, 67.19922
334.0830, 35.97363
335.2890, 3.587891
336.4960, 138.8506
337.7030, 85.16992
338.9090, 169.4980
340.1150, 101.1797
341.3210, 120.5244
342.5270, 94.88281
343.7330, 93.42090
344.9380, 83.82031
346.1440, 33.86523
347.3490, 46.37793
348.5540, 51.30176
349.7590, 181.1172
350.9630, 83.71973
352.1680, 209.1484
353.3720, 213.8135
354.5760, 275.2227
355.7800, 176.6240
356.9840, 161.0293
358.1870, 143.4375
359.3910, 274.8467
360.5940, 238.2578
361.7970, 211.6748
363.0000, 176.1621
364.2030, 108.7100
365.4050, 227.2080
366.6080, 213.7373
367.8100, 263.1504
369.0120, 181.5615
370.2140, 242.9707
371.4150, 413.5732
372.6170, 227.9785
373.8180, 279.7402
375.0190, 124.1396
376.2200, 383.6367
377.4210, 392.0400
378.6220, 367.7188
379.8220, 426.9229
381.0230, 323.3047
382.2230, 162.9619
383.4230, 330.4199
384.6220, 139.9893
385.8220, 180.5361
387.0220, 115.1758
388.2210, 12.44824
389.4200, 189.3193
390.6190, 184.6875
391.8180, 164.4170
393.0160, 116.8311
394.2150, 144.2627
395.4130, 124.5771
396.6110, 164.3340
397.8090, 270.7686
399.0060, 367.2959
400.2040, 278.0859
401.4010, 226.1641
402.5980, 285.9014
403.7950, 287.4160
404.9920, 437.2168
406.1890, 447.6387
407.3860, 566.1699
408.5820, 585.4541
409.7780, 637.2188
410.9740, 868.9941
412.1700, 734.4893
413.3650, 876.2373
414.5610, 797.9062
415.7560, 810.5234
416.9510, 817.4033
418.1460, 565.1631
419.3410, 521.8311
420.5360, 474.5186
421.7300, 322.9766
422.9240, 318.2344
424.1180, 162.6719
425.3120, 76.32520
426.5060, 153.8037
427.7000, 59.52246
428.8930, 158.0166
430.0860, 56.09180
431.2790, 65.42969
432.4720, 129.1055
433.6650, 58.14062
434.8580, 85.98438
436.0500, 57.08496
437.2420, 6.066406
438.4340, 103.4551
439.6260, 74.08496
440.8180, 53.07715
442.0090, 8.140625
443.2010, 32.79590
444.3920, 115.1953
445.5830, 10.52051
446.7740, 27.86719
447.9640, 110.5254
449.1550, 125.2246
450.3450, 127.0508
451.5350, 1.909180
452.7250, 212.2998
453.9150, 79.42383
455.1050, 43.75879
456.2940, 78.65527
457.4830, 109.2344
458.6720, 133.1094
459.8610, 222.9053
461.0500, 207.5859
462.2390, 139.6025
463.4270, 189.4365
464.6150, 77.66211
465.8040, 197.4199
466.9910, 5.680664
468.1790, 15.14844
469.3670, 71.40625
470.5540, 174.6719
471.7410, 116.0879
472.9280, 17.51855
474.1150, 101.5371
475.3020, 26.46191
476.4890, 72.21484
477.6750, 64.04102
478.8610, 33.60742
480.0470, 107.4971
481.2330, 125.6855
482.4190, 23.85645
483.6040, 147.5283
484.7900, 109.6533
485.9750, 70.76270
487.1600, 107.8486
488.3450, 22.08691
489.5290, 84.93359
490.7140, 6.930664
491.8980, 119.8955
493.0820, 73.83789
494.2660, 9.239258
495.4500, 65.64453
496.6340, 129.5059
497.8170, 184.3438
499.0010, 218.2793
500.1840, 178.9521
501.3670, 234.7207
502.5500, 203.4648
503.7320, 143.1875
504.9150, 128.8838
506.0970, 116.5977
507.2790, 130.5371
508.4610, 124.8320
509.6430, 181.4316
510.8250, 203.0059
512.0060, 192.5547
513.1870, 114.0781
514.3680, 243.5713
515.5490, 79.03809
516.7300, 213.4736
517.9110, 144.8818
519.0910, 168.2637
520.2710, 103.6201
521.4510, 26.95410
522.6310, 215.2559
523.8110, 111.5312
524.9910, 21.80078
526.1700, 134.0332
527.3490, 140.2373
528.5280, 118.4150
529.7070, 227.5605
530.8860, 64.67676
532.0650, 184.7598
533.2430, 238.2061
534.4210, 175.2363
535.5990, 10.76270
536.7770, 218.1797
537.9550, 94.20801
539.1320, 6.175781
540.3100, 149.0049
541.4870, 86.12109
542.6640, 13.87988
543.8410, 98.59277
545.0170, 154.2705
546.1940, 14.08496
547.3700, 182.4990
548.5470, 30.05176
549.7230, 84.43945
550.8980, 105.9688
552.0740, 123.5898
553.2500, 172.6670
554.4250, 112.8887
555.6000, 132.6104
556.7750, 145.7559
557.9500, 83.41797
559.1250, 113.1279
560.2990, 135.0371
561.4730, 130.4170
562.6480, 186.0498
563.8220, 234.1006
564.9950, 191.9746
566.1690, 140.7305
567.3430, 182.2803
568.5160, 124.7715
569.6890, 178.1992
570.8620, 58.48438
572.0350, 214.9238
573.2070, 12.19629
574.3800, 63.57422
575.5520, 83.93555
576.7240, 4.454102
577.8960, 74.29492
579.0680, 209.7061
580.2400, 150.7568
581.4110, 9.153320
582.5830, 236.9541
583.7540, 56.38965
584.9250, 25.48145
586.0950, 201.4062
587.2660, 193.7490
588.4370, 117.2646
589.6070, 95.84473
590.7770, 81.07910
591.9470, 76.30664
593.1170, 5.220703
594.2860, 64.10352
595.4560, 303.4658
596.6250, 108.8535
597.7940, 179.4980
598.9630, 99.45215
600.1320, 37.97168
601.3000, 253.2070
602.4690, 169.4834
603.6370, 73.43457
604.8050, 252.4570
605.9730, 222.3516
607.1410, 30.14160
608.3090, 314.7705
609.4760, 207.8135
610.6430, 108.3281
611.8100, 331.1895
612.9770, 325.2773
614.1440, 99.80664
615.3110, 127.2412
616.4770, 330.9570
617.6430, 282.0986
618.8090, 228.2627
619.9750, 56.37598
621.1410, 335.5850
622.3070, 388.8369
623.4720, 143.9971
624.6370, 401.9355
625.8020, 374.6475
626.9670, 419.9131
628.1320, 364.2637
629.2970, 644.1582
630.4610, 448.3516
631.6250, 675.2871
632.7890, 535.4639
633.9530, 668.5137
635.1170, 657.2930
636.2810, 809.4287
637.4440, 990.4365
638.6070, 1036.798
639.7700, 1320.513
640.9330, 1668.460
642.0960, 1821.174
643.2590, 2287.116
644.4210, 2600.773
645.5830, 3338.875
646.7450, 3713.708
647.9070, 4299.230
649.0690, 5067.265
650.2310, 5683.609
651.3920, 5733.146
652.5530, 5929.205
653.7140, 5249.039
654.8750, 4522.027
656.0360, 3761.674
657.1970, 2935.613
658.3570, 2246.020
659.5170, 1697.289
660.6770, 1538.820
661.8370, 1100.715
662.9970, 947.7461
664.1570, 854.1602
665.3160, 754.9805
666.4750, 537.8809
667.6340, 400.2402
668.7930, 571.5039
669.9520, 579.8223
671.1110, 339.9004
672.2690, 217.9141
673.4270, 336.3770
674.5850, 455.0664
675.7430, 367.1602
676.9010, 284.6914
678.0590, 291.0273
679.2160, 348.1641
680.3730, 235.9531
681.5300, 381.1641
682.6870, 547.5859
683.8440, 481.1016
685.0010, 660.6250
686.1570, 344.8613
687.3130, 330.8711
688.4690, 374.1113
689.6250, 420.9980
690.7810, 293.4043
691.9370, 315.9316
693.0920, 313.2773
694.2470, 172.9082
695.4020, 329.7949
696.5570, 170.8379
697.7120, 109.0742
698.8670, 303.4395
700.0210, 323.9766
701.1750, 153.8926
702.3290, 60.38477
703.4830, 81.58008
704.6370, 100.9844
705.7910, 141.9805
706.9440, 147.2461
708.0970, 152.9434
709.2510, 178.4785
710.4030, 130.7383
711.5560, 161.4629
712.7090, 123.8750
713.8610, 117.0957
715.0140, 84.01562
716.1660, 215.2676
717.3180, 68.64258
718.4690, 144.9590
719.6210, 291.4512
720.7730, 184.1562
721.9240, 39.30664
723.0750, 115.9922
724.2260, 125.5254
725.3770, 236.2383
726.5270, 199.6621
727.6780, 179.1074
728.8280, 250.6973
729.9780, 241.5312
731.1280, 207.2598
732.2780, 188.0078
733.4280, 170.6738
734.5770, 164.6328
735.7260, 84.32422
736.8760, 200.3281
738.0250, 94.43164
739.1730, 153.2129
740.3220, 133.9316
741.4700, 202.2129
742.6190, 173.8281
743.7670, 194.6602
744.9150, 210.7559
746.0630, 204.6621
747.2100, 205.5254
748.3580, 195.0254
749.5050, 150.8477
750.6520, 374.3418
751.7990, 10.76562
752.9460, 224.2012
754.0930, 80.94531
755.2390, 159.9805
756.3860, 42.06055
757.5320, 44.19141
758.6780, 35.86133
759.8240, 45.06055
760.9690, 166.0059
762.1150, 295.0352
763.2600, 7.988281
764.4060, 164.1719
765.5510, 169.2383
766.6950, 111.6816
767.8400, 160.0059
768.9850, 252.5137
770.1290, 173.5703
771.2730, 17.20312
772.4170, 50.69922
773.5610, 94.73047
774.7050, 171.6309
775.8480, 88.92383
776.9920, 226.0645
778.1350, 159.2754
779.2780, 203.3555
780.4210, 138.3242
781.5640, 193.4551
782.7060, 80.88477
783.8490, 101.4727
784.9910, 175.6270
786.1330, 68.70898
787.2750, 217.1016
788.4170, 159.9902
789.5580, 263.4395
790.7000, 259.3105
791.8410, 259.1953
792.9820, 244.1758
794.1230, 248.5078
795.2640, 102.4629
796.4040, 144.1094
797.5450, 2.634766
798.6850, 59.80469
799.8250, 167.4453
800.9650, 66.61719
802.1050, 173.7520
803.2450, 115.3496
804.3840, 50.07227
805.5230, 222.5801
806.6630, 264.3594
807.8020, 184.4805
808.9400, 85.62695
810.0790, 192.7129
811.2170, 106.5293
812.3560, 230.9746
813.4940, 141.0605
814.6320, 306.2109
815.7700, 176.9707
816.9070, 223.1719
818.0450, 282.5664
819.1820, 149.8652
820.3190, 192.7188
821.4560, 232.7461
822.5930, 44.25391
823.7300, 115.7617
824.8670, 260.6641
826.0030, 152.2812
827.1390, 18.46875
828.2750, 99.50977
829.4110, 190.5938
830.5470, 286.6211
831.6820, 229.0430
832.8180, 189.9277
833.9530, 13.80078
835.0880, 30.86523
836.2230, 252.7891
837.3580, 141.4062
838.4920, 283.3203
839.6270, 20.71680
840.7610, 275.1914
841.8950, 86.68945
843.0290, 229.2930
844.1630, 314.8281
845.2960, 211.3262
846.4300, 311.8652
847.5630, 403.1445
848.6960, 141.4922
849.8290, 279.6250
850.9620, 139.6699
852.0940, 202.4434
853.2270, 183.7754
854.3590, 328.4199
855.4910, 211.3320
856.6230, 98.79297
857.7550, 113.7520
858.8870, 68.11328
860.0180, 295.3730
861.1500, 134.8125
862.2810, 179.5918
863.4120, 93.13672
864.5430, 247.4941
865.6730, 150.0859
866.8040, 148.5703
867.9340, 141.0488
869.0640, 143.3047
870.1940, 68.21094
871.3240, 169.1211
872.4540, 147.6270
873.5830, 72.89258
874.7130, 3.703125
875.8420, 251.8652
876.9710, 60.28125
878.1000, 299.9023
879.2290, 179.3359
880.3570, 59.78320
881.4860, 99.23047
882.6140, 129.5801
883.7420, 143.8672
884.8700, 200.0449
885.9980, 28.97266
887.1250, 85.56250
888.2530, 103.6465
889.3800, 25.65234
890.5070, 42.98633
891.6340, 69.41602
892.7610, 131.3906
893.8880, 115.8574
895.0140, 26.81641
896.1400, 151.3438
897.2670, 20.48633
898.3930, 43.85742
899.5180, 1.109375
900.6440, 76.80859
901.7700, 184.6797
902.8950, 34.24805
904.0200, 136.9512
905.1450, 228.9805
906.2700, 87.61719
907.3950, 426.0703
908.5190, 181.8691
909.6440, 195.2402
910.7680, 423.1367
911.8920, 12.92969
913.0160, 308.5430
914.1400, 365.9844
915.2630, 96.64453
916.3870, 276.0098
917.5100, 30.11328
918.6330, 13.80469
919.7560, 218.3945
920.8790, 40.63867
922.0010, 128.8691
923.1240, 232.7676
924.2460, 90.55078
925.3680, 35.53320
926.4900, 29.07422
927.6120, 63.68750
928.7340, 165.5566
929.8550, 124.3145
930.9760, 179.4766
932.0980, 255.6035
933.2190, 189.1152
934.3390, 123.6348
935.4600, 68.14258
936.5810, 136.4785
937.7010, 419.5176
938.8210, 261.5918
939.9410, 292.8555
941.0610, 212.9531
942.1810, 114.1836
943.3010, 94.87109
944.4200, 233.0078
945.5390, 14.53906
946.6580, 203.5293
947.7770, 66.96680
948.8960, 213.9531
950.0150, 385.5352
951.1330, 196.6660
952.2510, 415.5391
953.3690, 137.5996
954.4870, 226.9238
955.6050, 167.3262
956.7230, 272.7480
957.8400, 55.97070
958.9580, 141.6172
960.0750, 192.2168
961.1920, 379.3086
962.3090, 458.7422
963.4250, 357.3945
964.5420, 672.9277
965.6580, 765.2070
966.7740, 479.5078
967.8900, 583.3223
969.0060, 735.9824
970.1220, 814.0469
971.2380, 897.0488
972.3530, 921.9824
973.4680, 1034.006
974.5830, 849.9863
975.6980, 817.7148
976.8130, 654.3945
977.9280, 621.3359
979.0420, 544.6406
980.1560, 533.5020
981.2710, 408.2012
982.3850, 432.2773
983.4980, 330.6895
984.6120, 367.7109
985.7260, 355.9766
986.8390, 417.5391
987.9520, 254.1055
989.0650, 268.6562
990.1780, 265.9648
991.2910, 361.4512
992.4030, 434.0117
993.5160, 411.0586
994.6280, 448.3789
995.7400, 579.5078
996.8520, 336.6836
997.9640, 592.6992
999.0750, 490.8301
1000.187, 424.0430
1001.298, 170.3652
1002.409, 489.8516
1003.520, 300.3516
1004.631, 365.2070
1005.741, 293.9043
1006.852, 129.3281
1007.962, 540.9180
1009.072, 580.3535
1010.182, 375.9863
1011.292, 223.8301
1012.402, 238.3730
1013.511, 444.4785
1014.621, 391.4844
1015.730, 548.4512
1016.839, 492.4434
1017.948, 698.1367
1019.056, 787.1074
1020.165, 923.9688
1021.273, 867.0547
1022.382, 1164.168
1023.490, 1377.064
1024.598, 1045.447
1025.706, 1474.498
1026.813, 1280.670
1027.921, 1054.174
1029.028, 1077.600
1030.135, 943.9434
1031.242, 656.2324
1032.349, 707.4395
1033.456, 299.5332
1034.562, 539.4746
1035.668, 314.2910
1036.775, 399.0488
1037.881, 376.7559
1038.987, 380.3516
1040.092, 251.8555
1041.198, 314.3164
1042.303, 101.6484
1043.408, 48.93750
1044.514, 172.1816
1045.618, 249.6836
1046.723, 87.44922
1047.828, 65.29492
1048.932, 55.52148
1050.037, 220.2793
1051.141, 2.996094
1052.245, 250.7832
1053.349, 58.61719
1054.452, 15.46680
1055.556, 337.4824
1056.659, 110.4414
1057.762, 167.4297
1058.865, 29.54492
1059.968, 9.765625
1061.071, 115.9375
1062.174, 29.74805
1063.276, 123.5547
1064.378, 209.8613
1065.480, 257.1816
1066.582, 250.5391
1067.684, 56.94531
1068.786, 168.0586
1069.887, 138.8379
1070.988, 14.39648
1072.090, 118.2129
1073.191, 9.097656
1074.291, 119.4434
1075.392, 263.3477
1076.493, 286.9727
1077.593, 269.1211
1078.693, 186.8184
1079.793, 204.5371
1080.893, 276.1582
1081.993, 160.3789
1083.092, 14.02539
1084.192, 131.8906
1085.291, 36.12695
1086.390, 66.74414
1087.489, 28.22461
1088.588, 126.0332
1089.686, 86.37500
1090.785, 102.1484
1091.883, 40.39648
1092.981, 83.00391
1094.079, 0.0000000E+00
##END=



