##NAMES=Pectolite
##RRUFFID=R050396
##IDEAL CHEMISTRY=NaCa_2_Si_3_O_8_(OH)
##LOCALITY=Jeffrey Quarry, Asbestos, Quebec, Canada
##OWNER=RRUFF
##SOURCE=Marcus Origlieri
##DESCRIPTION=Colorless to gray columnar blocky crystals
##STATUS=The identification of this mineral has been confirmed by X-ray diffraction and chemical analysis
##URL=rruff.info/R050396
##MEASURED CHEMISTRY=Na_1.00_Ca_2.00_Si_3.00_O_8_(OH)
##PIN_ID=M00439
##ORIENTATION=Laser parallel to -c* (0 0 -1). Fiducial mark perpendicular to laser is parallel to a [1 0 0]
125.2990, 0.0000000E+00
126.5330, 15.05933
127.7670, 1.539063
129.0000, 4.593018
130.2340, 14.92798
131.4670, 56.61255
132.7000, 124.9998
133.9330, 232.6018
135.1660, 315.1958
136.3990, 629.7368
137.6310, 803.1826
138.8640, 977.2739
140.0960, 1169.662
141.3280, 1301.142
142.5600, 1558.034
143.7910, 1732.467
145.0230, 2216.819
146.2540, 2497.218
147.4850, 3068.709
148.7160, 3327.290
149.9470, 3614.661
151.1780, 3582.911
152.4080, 3196.425
153.6380, 2796.239
154.8690, 2069.696
156.0980, 1439.861
157.3280, 977.8936
158.5580, 714.5081
159.7870, 510.3770
161.0170, 346.2659
162.2460, 233.3105
163.4750, 211.0542
164.7030, 171.3408
165.9320, 196.9597
167.1600, 134.7021
168.3890, 113.4021
169.6170, 130.1785
170.8450, 152.0139
172.0730, 153.3301
173.3000, 148.4956
174.5280, 144.6101
175.7550, 71.19043
176.9820, 98.63721
178.2090, 94.03076
179.4350, 38.40991
180.6620, 111.8013
181.8880, 110.1628
183.1150, 107.7612
184.3410, 172.6912
185.5670, 104.8660
186.7920, 166.2290
188.0180, 145.2800
189.2430, 91.43823
190.4690, 99.39087
191.6940, 47.29858
192.9180, 43.16016
194.1430, 21.02490
195.3680, 0.2570800
196.5920, 33.46240
197.8160, 47.13354
199.0400, 13.76978
200.2640, 51.40967
201.4880, 63.05176
202.7110, 41.70068
203.9350, 89.35645
205.1580, 10.98267
206.3810, 2.406006
207.6040, 51.95044
208.8270, 52.59766
210.0490, 3.900146
211.2710, 72.99854
212.4940, 43.99243
213.7160, 44.93457
214.9370, 36.95410
216.1590, 33.02563
217.3810, 109.1362
218.6020, 100.2700
219.8230, 3.571533
221.0440, 92.61279
222.2650, 110.8455
223.4860, 202.1084
224.7060, 287.4084
225.9260, 294.7207
227.1470, 254.0422
228.3670, 205.3689
229.5860, 281.6917
230.8060, 253.2046
232.0260, 239.4336
233.2450, 259.1379
234.4640, 271.9883
235.6830, 284.5591
236.9020, 270.1802
238.1200, 220.4846
239.3390, 194.7500
240.5570, 144.9185
241.7750, 129.0117
242.9930, 152.0134
244.2110, 117.9639
245.4290, 133.8789
246.6460, 150.4106
247.8630, 251.5986
249.0810, 181.4497
250.2980, 179.2988
251.5140, 163.1382
252.7310, 276.9766
253.9470, 324.8037
255.1640, 456.6172
256.3800, 466.3979
257.5960, 619.1431
258.8120, 574.8467
260.0270, 621.5010
261.2430, 681.1079
262.4580, 524.6670
263.6730, 511.1777
264.8880, 482.6406
266.1030, 460.0581
267.3170, 389.4316
268.5320, 547.7681
269.7460, 554.0713
270.9600, 607.3384
272.1740, 759.2812
273.3880, 564.1719
274.6010, 569.0078
275.8150, 626.8149
277.0280, 580.7632
278.2410, 639.7197
279.4540, 598.6743
280.6670, 441.6201
281.8790, 401.5518
283.0920, 245.4644
284.3040, 254.3535
285.5160, 130.2153
286.7280, 39.04688
287.9400, 48.84521
289.1510, 20.61182
290.3630, 49.75879
291.5740, 52.97021
292.7850, 59.33984
293.9960, 94.03857
295.2070, 87.52881
296.4170, 12.03955
297.6280, 24.40967
298.8380, 32.76562
300.0480, 16.85693
301.2580, 57.11035
302.4680, 110.5171
303.6770, 205.9575
304.8870, 264.2695
306.0960, 257.0088
307.3050, 282.5332
308.5140, 440.7246
309.7230, 536.7070
310.9310, 679.7217
312.1400, 713.9814
313.3480, 801.9375
314.5560, 987.8296
315.7640, 1202.889
316.9720, 1275.563
318.1790, 1357.430
319.3870, 1244.820
320.5940, 1200.017
321.8010, 1123.266
323.0080, 1061.751
324.2150, 1080.105
325.4210, 983.8936
326.6280, 842.2734
327.8340, 855.5674
329.0400, 639.9883
330.2460, 482.9951
331.4510, 421.7412
332.6570, 359.9707
333.8620, 290.2080
335.0680, 234.0688
336.2730, 199.2227
337.4780, 178.2959
338.6820, 149.8667
339.8870, 142.4438
341.0910, 130.9858
342.2950, 146.8574
343.5000, 161.9751
344.7030, 177.0376
345.9070, 231.0566
347.1110, 295.8374
348.3140, 347.3789
349.5170, 428.0410
350.7200, 357.1567
351.9230, 510.6133
353.1260, 625.8701
354.3290, 609.2793
355.5310, 793.5283
356.7330, 912.4194
357.9350, 982.1719
359.1370, 909.8203
360.3390, 889.3643
361.5400, 1052.835
362.7420, 941.4707
363.9430, 1049.608
365.1440, 1075.433
366.3450, 1326.591
367.5460, 1678.210
368.7460, 2119.720
369.9470, 2407.154
371.1470, 2734.972
372.3470, 3242.466
373.5470, 3892.383
374.7460, 4776.021
375.9460, 5678.944
377.1450, 6254.582
378.3450, 6687.436
379.5440, 6429.308
380.7430, 5722.612
381.9410, 4601.513
383.1400, 3657.719
384.3380, 2661.788
385.5370, 2105.866
386.7350, 1570.882
387.9320, 1148.194
389.1300, 1005.021
390.3280, 858.9961
391.5250, 823.9985
392.7220, 807.0684
393.9190, 775.0986
395.1160, 896.0889
396.3130, 951.4302
397.5100, 965.8779
398.7060, 1221.750
399.9020, 1356.581
401.0980, 1566.375
402.2940, 1879.125
403.4900, 2012.840
404.6860, 2480.895
405.8810, 3049.882
407.0760, 3246.481
408.2710, 3807.818
409.4660, 4247.424
410.6610, 4977.695
411.8550, 5162.964
413.0500, 5532.113
414.2440, 5306.233
415.4380, 5285.528
416.6320, 4623.894
417.8260, 4058.400
419.0190, 3316.032
420.2130, 2728.547
421.4060, 2110.071
422.5990, 1616.288
423.7920, 1253.457
424.9850, 931.7749
426.1770, 838.2871
427.3700, 589.4531
428.5620, 548.2710
429.7540, 555.5571
430.9460, 365.6572
432.1380, 346.2085
433.3290, 239.0674
434.5210, 200.9839
435.7120, 97.65576
436.9030, 156.7051
438.0940, 82.85254
439.2850, 46.79834
440.4750, 88.11963
441.6660, 81.34521
442.8560, 3.148438
444.0460, 87.24023
445.2360, 41.57520
446.4260, 27.46924
447.6160, 54.25684
448.8050, 0.4531250
449.9940, 3.646973
451.1830, 45.43848
452.3720, 87.54688
453.5610, 72.65967
454.7500, 15.07764
455.9380, 36.72070
457.1260, 40.39160
458.3150, 13.09326
459.5020, 60.50928
460.6900, 58.97607
461.8780, 109.3906
463.0650, 149.7715
464.2530, 36.13477
465.4400, 114.9878
466.6270, 50.95801
467.8130, 16.50244
469.0000, 77.95166
470.1870, 92.10938
471.3730, 55.44922
472.5590, 2.305664
473.7450, 202.8818
474.9310, 81.03516
476.1160, 72.77295
477.3020, 146.6123
478.4870, 76.89062
479.6720, 35.95654
480.8570, 1.866699
482.0420, 11.41455
483.2270, 67.79590
484.4110, 37.65186
485.5960, 55.90283
486.7800, 99.48779
487.9640, 29.12549
489.1480, 55.39111
490.3310, 83.06738
491.5150, 93.68018
492.6980, 149.2280
493.8810, 187.7158
495.0640, 199.1445
496.2470, 329.5264
497.4300, 340.8662
498.6120, 446.1543
499.7950, 433.3877
500.9770, 511.5830
502.1590, 529.7202
503.3410, 393.8027
504.5220, 176.8315
505.7040, 278.7969
506.8850, 207.7007
508.0660, 18.54639
509.2470, 149.3228
510.4280, 2.032227
511.6090, 6.670898
512.7890, 21.73438
513.9700, 0.2246090
515.1500, 87.22217
516.3300, 4.401855
517.5100, 68.89551
518.6900, 21.88135
519.8690, 66.25244
521.0490, 52.31543
522.2280, 18.69287
523.4070, 26.21387
524.5860, 184.0488
525.7640, 207.8149
526.9430, 169.5132
528.1210, 159.1411
529.3000, 340.6978
530.4780, 174.1875
531.6560, 389.6064
532.8330, 424.9639
534.0110, 467.2568
535.1880, 452.4819
536.3650, 531.6426
537.5430, 584.7358
538.7190, 583.4658
539.8960, 493.7402
541.0730, 585.9424
542.2490, 531.3408
543.4250, 485.2905
544.6020, 490.8799
545.7780, 301.2471
546.9530, 308.6211
548.1290, 402.2876
549.3040, 208.6064
550.4800, 136.3740
551.6550, 207.3350
552.8300, 199.2388
554.0040, 218.9131
555.1790, 217.1719
556.3540, 167.4082
557.5280, 140.5156
558.7020, 96.58643
559.8760, 56.28271
561.0500, 74.78467
562.2230, 61.66992
563.3970, 125.5537
564.5700, 126.2695
565.7430, 163.8486
566.9160, 178.2803
568.0890, 95.10254
569.2620, 167.5059
570.4340, 204.6201
571.6070, 141.9404
572.7790, 35.36328
573.9510, 136.5020
575.1230, 162.3848
576.2940, 161.1904
577.4660, 200.3242
578.6370, 120.1729
579.8080, 17.20605
580.9790, 38.85156
582.1500, 0.8564450
583.3210, 135.7383
584.4910, 106.6562
585.6620, 182.0547
586.8320, 87.94531
588.0020, 51.85547
589.1720, 109.6455
590.3410, 95.00488
591.5110, 177.0791
592.6800, 88.22070
593.8500, 111.4912
595.0190, 193.6455
596.1880, 161.4834
597.3560, 143.1123
598.5250, 174.9336
599.6930, 143.9639
600.8620, 159.8555
602.0300, 177.6182
603.1970, 165.6182
604.3650, 226.5576
605.5330, 198.1641
606.7000, 221.6240
607.8680, 310.4414
609.0350, 314.9229
610.2020, 371.3447
611.3680, 313.3447
612.5350, 322.2666
613.7010, 319.7959
614.8680, 314.5068
616.0340, 399.8643
617.2000, 361.1221
618.3660, 473.6260
619.5310, 558.8311
620.6970, 507.6514
621.8620, 598.0195
623.0270, 744.3721
624.1920, 682.1182
625.3570, 840.3838
626.5220, 933.9229
627.6860, 952.2979
628.8500, 1101.465
630.0140, 1062.110
631.1780, 1102.157
632.3420, 1260.315
633.5060, 1386.176
634.6700, 1666.211
635.8330, 1968.048
636.9960, 2350.491
638.1590, 2623.269
639.3220, 3268.898
640.4850, 3820.406
641.6470, 4711.361
642.8100, 5711.706
643.9720, 6980.318
645.1340, 8231.691
646.2960, 9751.046
647.4570, 11319.08
648.6190, 13144.48
649.7800, 14773.33
650.9420, 16479.79
652.1030, 17157.83
653.2640, 17104.46
654.4240, 15539.94
655.5850, 13509.18
656.7450, 10830.13
657.9060, 8489.305
659.0660, 6518.046
660.2260, 5147.825
661.3850, 3786.541
662.5450, 3088.180
663.7040, 2464.689
664.8640, 2059.292
666.0230, 1763.259
667.1820, 1367.638
668.3410, 1220.517
669.4990, 971.9004
670.6580, 876.7051
671.8160, 833.0898
672.9740, 763.6201
674.1320, 648.4443
675.2900, 478.1934
676.4480, 656.9971
677.6050, 625.0537
678.7630, 235.2822
679.9200, 404.7715
681.0770, 342.7842
682.2340, 434.5449
683.3900, 266.6846
684.5470, 304.4180
685.7030, 286.9385
686.8590, 201.0928
688.0150, 267.8682
689.1710, 142.9863
690.3270, 317.2500
691.4830, 312.5938
692.6380, 349.8965
693.7930, 192.0967
694.9480, 179.8398
696.1030, 192.9092
697.2580, 182.9883
698.4130, 253.9277
699.5670, 111.1445
700.7210, 201.1826
701.8750, 52.81055
703.0290, 172.8154
704.1830, 185.9531
705.3370, 102.2559
706.4900, 189.3096
707.6430, 171.1348
708.7970, 220.7979
709.9490, 152.5508
711.1020, 109.4297
712.2550, 157.2100
713.4070, 99.30273
714.5600, 59.63770
715.7120, 5.091797
716.8640, 12.74902
718.0160, 96.65137
719.1670, 72.47168
720.3190, 71.00098
721.4700, 137.7305
722.6210, 94.35449
723.7720, 150.3770
724.9230, 4.110352
726.0740, 94.73242
727.2250, 13.29297
728.3750, 148.4834
729.5250, 18.02539
730.6750, 34.62598
731.8250, 13.07715
732.9750, 24.87988
734.1240, 15.24902
735.2740, 10.45898
736.4230, 62.54883
737.5720, 55.57129
738.7210, 63.55664
739.8700, 62.29004
741.0190, 31.02734
742.1670, 36.55469
743.3150, 20.47949
744.4630, 28.07324
745.6110, 77.24707
746.7590, 11.42480
747.9070, 157.1777
749.0540, 270.9551
750.2020, 27.13477
751.3490, 162.1953
752.4960, 151.1426
753.6430, 95.38867
754.7890, 88.82129
755.9360, 89.08691
757.0820, 69.62500
758.2280, 100.5303
759.3740, 120.3604
760.5200, 151.9502
761.6660, 147.4131
762.8120, 151.7666
763.9570, 96.53809
765.1020, 145.4053
766.2470, 69.66309
767.3920, 232.2324
768.5370, 141.2285
769.6810, 102.0957
770.8260, 205.8340
771.9700, 179.4473
773.1140, 214.9316
774.2580, 177.2891
775.4020, 85.51660
776.5460, 120.6094
777.6890, 127.5693
778.8320, 236.4004
779.9750, 120.1064
781.1180, 47.68262
782.2610, 115.5195
783.4040, 199.3994
784.5460, 181.7354
785.6890, 113.1338
786.8310, 122.0039
787.9730, 44.25586
789.1150, 95.62402
790.2560, 89.31152
791.3980, 27.27441
792.5390, 99.42578
793.6810, 204.4980
794.8220, 288.3164
795.9630, 190.1084
797.1030, 97.13574
798.2440, 75.63574
799.3840, 11.85742
800.5240, 59.45605
801.6650, 164.8574
802.8040, 79.61816
803.9440, 158.2021
805.0840, 243.7773
806.2230, 283.7490
807.3630, 231.5947
808.5020, 54.94922
809.6410, 222.4668
810.7790, 368.0879
811.9180, 124.2314
813.0570, 326.4316
814.1950, 243.0840
815.3330, 177.5430
816.4710, 327.7930
817.6090, 177.3877
818.7470, 211.5801
819.8840, 95.71484
821.0220, 166.0107
822.1590, 99.33398
823.2960, 166.4512
824.4330, 313.0820
825.5690, 257.8643
826.7060, 360.9990
827.8420, 385.1406
828.9790, 120.3457
830.1150, 375.9824
831.2510, 215.8359
832.3860, 65.54785
833.5220, 240.1943
834.6570, 200.6758
835.7930, 69.32617
836.9280, 97.25781
838.0630, 153.4375
839.1980, 335.8730
840.3320, 275.6914
841.4670, 244.4375
842.6010, 288.7070
843.7350, 33.22461
844.8690, 312.5312
846.0030, 298.9219
847.1370, 176.9531
848.2700, 302.7188
849.4040, 299.5645
850.5370, 238.0605
851.6700, 222.2637
852.8030, 231.5391
853.9360, 306.1719
855.0680, 327.1641
856.2000, 262.9395
857.3330, 239.6055
858.4650, 170.4336
859.5970, 256.9492
860.7290, 372.5801
861.8600, 57.32227
862.9920, 266.4727
864.1230, 195.2070
865.2540, 208.3652
866.3850, 246.7598
867.5160, 200.1660
868.6460, 270.4121
869.7770, 223.5000
870.9070, 241.3926
872.0370, 156.4453
873.1670, 188.1094
874.2970, 44.91211
875.4270, 167.3184
876.5570, 35.50781
877.6860, 20.47070
878.8150, 42.02930
879.9440, 67.88477
881.0730, 160.6836
882.2020, 5.666016
883.3300, 89.27148
884.4590, 152.6660
885.5870, 37.37891
886.7150, 135.6094
887.8430, 131.1582
888.9710, 46.53516
890.0990, 51.55469
891.2260, 45.58203
892.3530, 233.1152
893.4810, 60.60742
894.6080, 167.0996
895.7340, 130.5488
896.8610, 371.0000
897.9880, 133.3145
899.1140, 242.5215
900.2400, 193.3691
901.3660, 308.2988
902.4920, 444.7910
903.6180, 775.8477
904.7430, 666.4121
905.8690, 780.7031
906.9940, 759.3223
908.1190, 1233.725
909.2440, 1097.162
910.3690, 1167.330
911.4930, 1109.006
912.6180, 1023.779
913.7420, 946.2227
914.8660, 592.7852
915.9900, 625.8984
917.1140, 458.8008
918.2380, 179.6855
919.3610, 280.2129
920.4850, 235.4004
921.6080, 93.82031
922.7310, 26.18750
923.8540, 26.92969
924.9760, 17.25000
926.0990, 70.68555
927.2210, 16.83594
928.3440, 80.81055
929.4660, 113.8125
930.5880, 98.69336
931.7090, 46.35938
932.8310, 113.0898
933.9520, 149.5020
935.0740, 54.08203
936.1950, 287.1602
937.3160, 5.435547
938.4360, 182.6387
939.5570, 154.7773
940.6780, 12.30273
941.7980, 270.2754
942.9180, 3.718750
944.0380, 304.3574
945.1580, 250.1367
946.2780, 95.72656
947.3970, 290.0957
948.5170, 151.8125
949.6360, 406.0605
950.7550, 420.9004
951.8740, 477.3496
952.9930, 481.0645
954.1110, 699.0020
955.2300, 809.1719
956.3480, 578.3223
957.4660, 957.6992
958.5840, 1081.805
959.7020, 1251.740
960.8190, 1578.688
961.9370, 1805.492
963.0540, 1779.467
964.1710, 2208.240
965.2880, 2409.738
966.4050, 2949.828
967.5220, 3144.246
968.6380, 3313.367
969.7550, 3407.705
970.8710, 3799.973
971.9870, 4030.377
973.1030, 3966.088
974.2190, 3838.688
975.3340, 3804.484
976.4500, 3898.244
977.5650, 3495.566
978.6800, 3472.393
979.7950, 3149.332
980.9100, 3055.209
982.0250, 2948.201
983.1390, 3042.152
984.2530, 2935.480
985.3680, 2907.744
986.4820, 3088.633
987.5950, 3168.043
988.7090, 3339.277
989.8230, 3446.207
990.9360, 3672.807
992.0490, 3861.141
993.1620, 3922.152
994.2750, 3942.578
995.3880, 4165.422
996.5010, 4080.227
997.6130, 3885.350
998.7250, 3965.896
999.8370, 4160.934
1000.949, 4243.527
1002.061, 4649.455
1003.173, 5160.020
1004.284, 5391.598
1005.396, 5123.762
1006.507, 4818.256
1007.618, 4069.260
1008.729, 3389.236
1009.839, 3147.502
1010.950, 2980.207
1012.060, 2976.213
1013.171, 3138.445
1014.281, 3407.535
1015.391, 3745.391
1016.500, 4344.949
1017.610, 5046.385
1018.719, 5728.414
1019.829, 6492.061
1020.938, 7404.883
1022.047, 8476.416
1023.156, 8914.906
1024.264, 9434.877
1025.373, 9781.654
1026.481, 9010.305
1027.589, 8532.938
1028.697, 7788.385
1029.805, 6239.855
1030.913, 5216.959
1032.020, 4072.979
1033.128, 3123.371
1034.235, 2671.602
1035.342, 2127.293
1036.449, 1922.699
1037.556, 1355.721
1038.663, 1030.818
1039.769, 1147.418
1040.875, 830.3691
1041.981, 662.5508
1043.087, 839.6426
1044.193, 685.5371
1045.299, 544.3340
1046.404, 274.2832
1047.510, 270.6855
1048.615, 383.1680
1049.720, 580.8613
1050.825, 139.5352
1051.930, 277.9316
1053.034, 313.5527
1054.139, 158.9863
1055.243, 149.7578
1056.347, 283.7363
1057.451, 108.5332
1058.555, 136.3262
1059.658, 359.7793
1060.762, 296.0645
1061.865, 133.4141
1062.968, 28.42188
1064.071, 136.0762
1065.174, 66.50195
1066.277, 253.4824
1067.380, 104.1484
1068.482, 76.22070
1069.584, 283.2500
1070.686, 182.6875
1071.788, 246.2637
1072.890, 129.5684
1073.992, 201.0234
1075.093, 10.36523
1076.194, 88.04102
1077.295, 71.32617
1078.396, 159.8281
1079.497, 175.9219
1080.598, 265.5039
1081.698, 264.5566
1082.799, 267.4336
1083.899, 245.5918
1084.999, 74.72852
1086.099, 4.769531
1087.199, 247.8926
1088.298, 103.0137
1089.398, 149.0156
1090.497, 81.91797
1091.596, 175.7012
1092.695, 120.3770
1093.794, 201.9316
1094.892, 46.91602
1095.991, 45.57422
1097.089, 210.8438
1098.187, 109.4355
1099.285, 0.6328130
1100.383, 118.5039
1101.481, 209.1973
1102.579, 23.78906
1103.676, 93.25586
1104.773, 71.61914
1105.870, 176.8613
1106.967, 281.9707
1108.064, 232.8125
1109.161, 35.92578
1110.257, 150.5586
1111.353, 179.0566
1112.449, 138.5957
1113.545, 118.4414
1114.641, 117.5449
1115.737, 23.60547
1116.832, 371.1016
1117.928, 53.67383
1119.023, 278.1016
1120.118, 39.16406
1121.213, 198.5586
1122.308, 187.6055
1123.402, 200.5352
1124.497, 181.2461
1125.591, 144.3594
1126.685, 138.5078
1127.779, 80.17188
1128.873, 149.3477
1129.967, 199.4375
1131.060, 315.4258
1132.153, 202.2969
1133.247, 25.05078
1134.340, 198.7227
1135.433, 5.332031
1136.525, 15.87891
1137.618, 99.31250
1138.710, 186.6289
1139.802, 178.9688
1140.895, 321.2422
1141.987, 279.4375
1143.078, 119.5898
1144.170, 382.6680
1145.261, 89.67578
1146.353, 45.38281
1147.444, 178.4883
1148.535, 127.2695
1149.626, 161.9414
1150.716, 290.5078
1151.807, 237.9727
1152.897, 282.7383
1153.988, 164.6211
1155.078, 279.5469
1156.168, 275.8164
1157.257, 274.4531
1158.347, 314.2617
1159.436, 457.7148
1160.526, 389.6836
1161.615, 578.6758
1162.704, 456.3555
1163.793, 442.9375
1164.881, 411.6680
1165.970, 394.6992
1167.058, 335.3633
1168.147, 251.9648
1169.235, 211.4062
1170.323, 113.9492
1171.410, 205.8398
1172.498, 360.4922
1173.585, 360.0859
1174.673, 383.6133
1175.760, 383.6719
1176.847, 322.6133
1177.934, 189.4062
1179.020, 349.5547
1180.107, 274.9414
1181.193, 407.1016
1182.279, 419.2539
1183.365, 181.7578
1184.451, 494.5742
1185.537, 347.7188
1186.623, 446.7461
1187.708, 126.3203
1188.793, 372.3086
1189.878, 257.0898
1190.963, 172.0938
1192.048, 250.4609
1193.133, 300.2188
1194.217, 171.3789
1195.302, 97.61719
1196.386, 252.0703
1197.470, 339.4531
1198.554, 316.7188
1199.638, 341.9688
1200.721, 344.4922
1201.805, 264.9219
1202.888, 248.2227
1203.971, 521.8320
1205.054, 375.5742
1206.137, 359.9648
1207.219, 245.0156
1208.302, 127.0117
1209.384, 338.4414
1210.466, 509.3984
1211.548, 159.6719
1212.630, 471.1797
1213.712, 44.62109
1214.794, 308.1367
1215.875, 386.9062
1216.956, 64.02734
1218.037, 334.2812
1219.118, 386.6445
1220.199, 268.2344
1221.280, 588.3047
1222.360, 258.6445
1223.441, 237.0352
1224.521, 101.4531
1225.601, 147.5312
1226.681, 204.0742
1227.760, 73.24219
1228.840, 184.6758
1229.919, 201.0234
1230.999, 249.6836
1232.078, 280.3164
1233.157, 230.4805
1234.236, 437.6289
1235.314, 414.6914
1236.393, 241.6211
1237.471, 436.0820
1238.549, 76.44141
1239.627, 158.4297
1240.705, 610.0312
1241.783, 189.0508
1242.860, 245.1992
1243.938, 183.6406
1245.015, 387.0273
1246.092, 156.4102
1247.169, 186.7773
1248.246, 161.8086
1249.323, 4.300781
1250.399, 5.449219
1251.475, 235.0977
1252.552, 280.8867
1253.628, 272.1367
1254.703, 131.4219
1255.779, 0.1914060
1256.855, 0.0000000E+00
##END=



