##NAMES=Pectolite
##RRUFFID=R060101
##IDEAL CHEMISTRY=NaCa_2_Si_3_O_8_(OH)
##LOCALITY=West Patterson, New Jersey, USA
##OWNER=RRUFF
##SOURCE=University of Arizona Mineral Museum
##DESCRIPTION=Tufts of white acicular sprays
##STATUS=The identification of this mineral has been confirmed by X-ray diffraction and chemical analysis
##URL=rruff.info/R060101
##MEASURED CHEMISTRY=Na_1.02_Ca_2.00_Si_2.99_O_8_(OH)
##PIN_ID=L01384
##ORIENTATION=Laser parallel to (-1 -1 0). Fiducial mark perpendicular to laser is parallel to c [0 0 1]
112.7420, 0.0000000E+00
113.9810, 3.1738002E-02
115.2200, 12.56934
116.4580, 26.80896
117.6970, 3.742432
118.9350, 30.06799
120.1730, 2.292480
121.4100, 23.60278
122.6480, 37.72681
123.8850, 46.04297
125.1230, 47.51465
126.3600, 55.11487
127.5960, 50.80786
128.8330, 68.60400
130.0700, 63.53601
131.3060, 86.59436
132.5420, 64.72571
133.7780, 64.92090
135.0140, 72.15967
136.2500, 116.4294
137.4850, 137.7175
138.7200, 92.09424
139.9550, 150.3788
141.1900, 90.66760
142.4250, 166.9640
143.6600, 114.4010
144.8940, 177.1711
146.1280, 132.1519
147.3620, 102.0807
148.5960, 134.9363
149.8300, 124.7539
151.0630, 153.5227
152.2960, 143.3097
153.5300, 107.0717
154.7620, 112.7759
155.9950, 82.42847
157.2280, 113.0571
158.4600, 65.65991
159.6920, 41.22522
160.9250, 59.73999
162.1560, 33.19714
163.3880, 17.59387
164.6200, 41.93359
165.8510, 25.98193
167.0820, 61.48071
168.3130, 35.72644
169.5440, 45.92554
170.7750, 61.89868
172.0050, 45.08167
173.2350, 27.70605
174.4650, 64.63635
175.6950, 57.81226
176.9250, 52.65784
178.1550, 49.38928
179.3840, 61.59802
180.6130, 95.62195
181.8420, 90.44910
183.0710, 97.24512
184.3000, 136.4478
185.5280, 133.9309
186.7570, 136.0288
187.9850, 105.1056
189.2130, 121.2590
190.4400, 97.94995
191.6680, 43.21582
192.8960, 139.0693
194.1230, 120.2744
195.3500, 162.8302
196.5770, 133.7871
197.8030, 145.4519
199.0300, 138.5178
200.2560, 153.7040
201.4830, 160.1979
202.7090, 166.2151
203.9340, 152.3943
205.1600, 122.3185
206.3860, 131.0109
207.6110, 107.4965
208.8360, 91.28613
210.0610, 101.5233
211.2860, 65.83777
212.5100, 78.06421
213.7350, 108.2949
214.9590, 124.5262
216.1830, 126.7538
217.4070, 78.97534
218.6310, 73.28345
219.8540, 115.1324
221.0780, 76.98706
222.3010, 100.8640
223.5240, 83.16089
224.7470, 11.74084
225.9690, 74.75598
227.1920, 61.63574
228.4140, 48.17786
229.6360, 73.61426
230.8580, 75.92261
232.0800, 45.95837
233.3020, 34.98071
234.5230, 23.01270
235.7440, 10.01379
236.9650, 51.04211
238.1860, 14.90808
239.4070, 35.66333
240.6280, 83.86987
241.8480, 19.92419
243.0680, 32.31091
244.2880, 2.439453
245.5080, 27.72046
246.7280, 40.70435
247.9470, 47.12012
249.1660, 69.44006
250.3860, 39.76550
251.6040, 67.30298
252.8230, 45.93335
254.0420, 32.13831
255.2600, 33.77429
256.4790, 29.46631
257.6970, 3.745972
258.9150, 42.81799
260.1320, 33.18860
261.3500, 50.48987
262.5670, 26.85718
263.7840, 45.08826
265.0010, 21.28992
266.2180, 88.50903
267.4350, 44.60266
268.6510, 10.80884
269.8680, 38.00610
271.0840, 21.80701
272.3000, 56.36218
273.5160, 19.61157
274.7310, 27.88647
275.9470, 77.05652
277.1620, 56.35107
278.3770, 38.65686
279.5920, 40.86865
280.8070, 71.39209
282.0210, 48.89233
283.2360, 45.17249
284.4500, 19.68005
285.6640, 3.230591
286.8780, 45.66113
288.0920, 100.2186
289.3050, 4.263916
290.5180, 34.26099
291.7320, 36.80530
292.9450, 25.11475
294.1570, 21.64026
295.3700, 41.97644
296.5830, 42.29504
297.7950, 52.64233
299.0070, 66.97681
300.2190, 78.26025
301.4310, 73.98364
302.6420, 43.66614
303.8540, 61.68005
305.0650, 97.02454
306.2760, 96.23950
307.4870, 142.3918
308.6980, 84.37756
309.9080, 161.5876
311.1190, 111.4613
312.3290, 195.3794
313.5390, 183.2920
314.7490, 212.2460
315.9580, 222.4668
317.1680, 192.5630
318.3770, 154.5771
319.5860, 179.6375
320.7950, 138.4443
322.0040, 113.3696
323.2130, 90.17651
324.4210, 68.01758
325.6290, 34.04907
326.8380, 35.72070
328.0460, 64.11768
329.2530, 49.59937
330.4610, 44.21191
331.6680, 7.812744
332.8760, 7.079590
334.0830, 0.2563480
335.2890, 1.944824
336.4960, 17.42480
337.7030, 43.01172
338.9090, 45.04834
340.1150, 39.54565
341.3210, 69.05640
342.5270, 78.53223
343.7330, 100.1375
344.9380, 65.56494
346.1440, 94.04419
347.3490, 94.50269
348.5540, 134.0388
349.7590, 123.4861
350.9630, 139.9011
352.1680, 157.6228
353.3720, 168.4587
354.5760, 199.6931
355.7800, 173.8328
356.9840, 220.8445
358.1870, 151.7690
359.3910, 113.4590
360.5940, 175.6877
361.7970, 112.8132
363.0000, 84.82764
364.2030, 113.2815
365.4050, 77.13672
366.6080, 58.21655
367.8100, 69.21167
369.0120, 133.9568
370.2140, 67.52222
371.4150, 122.4531
372.6170, 126.1287
373.8180, 56.99683
375.0190, 96.76855
376.2200, 107.3352
377.4210, 138.0288
378.6220, 113.9470
379.8220, 92.54028
381.0230, 52.13281
382.2230, 118.7949
383.4230, 38.08887
384.6220, 101.0112
385.8220, 37.74854
387.0220, 9.682129
388.2210, 70.19922
389.4200, 43.04883
390.6190, 7.378418
391.8180, 104.5537
393.0160, 37.17651
394.2150, 20.42749
395.4130, 15.81689
396.6110, 45.07324
397.8090, 5.862549
399.0060, 41.29224
400.2040, 143.2424
401.4010, 105.2778
402.5980, 41.93750
403.7950, 161.9795
404.9920, 117.8921
406.1890, 117.1184
407.3860, 144.1943
408.5820, 209.2712
409.7780, 196.1604
410.9740, 175.3010
412.1700, 223.9065
413.3650, 230.5669
414.5610, 189.1562
415.7560, 243.1895
416.9510, 126.9636
418.1460, 118.4241
419.3410, 140.8215
420.5360, 108.5796
421.7300, 103.0200
422.9240, 122.5940
424.1180, 44.96338
425.3120, 47.61743
426.5060, 97.15479
427.7000, 39.48706
428.8930, 25.59766
430.0860, 50.63623
431.2790, 16.96484
432.4720, 23.58789
433.6650, 17.26855
434.8580, 8.685791
436.0500, 60.42896
437.2420, 4.557617
438.4340, 45.41870
439.6260, 44.90771
440.8180, 33.91992
442.0090, 33.14355
443.2010, 41.00146
444.3920, 45.79297
445.5830, 63.69849
446.7740, 94.38989
447.9640, 11.20288
449.1550, 37.84424
450.3450, 48.77441
451.5350, 84.08423
452.7250, 22.66309
453.9150, 9.455566
455.1050, 87.96167
456.2940, 10.79761
457.4830, 77.06689
458.6720, 8.357178
459.8610, 33.86719
461.0500, 49.55786
462.2390, 33.98047
463.4270, 83.40967
464.6150, 47.82178
465.8040, 66.32886
466.9910, 41.59033
468.1790, 7.533691
469.3670, 80.58276
470.5540, 5.840576
471.7410, 116.8760
472.9280, 80.74731
474.1150, 78.36426
475.3020, 35.61743
476.4890, 78.22485
477.6750, 10.91699
478.8610, 10.21777
480.0470, 49.81030
481.2330, 59.02368
482.4190, 20.11572
483.6040, 53.80078
484.7900, 56.90601
485.9750, 20.81104
487.1600, 57.93872
488.3450, 39.61938
489.5290, 38.60596
490.7140, 14.23364
491.8980, 29.58398
493.0820, 31.76978
494.2660, 53.36548
495.4500, 59.03125
496.6340, 58.38525
497.8170, 75.68237
499.0010, 26.10791
500.1840, 116.0376
501.3670, 4.862793
502.5500, 32.12842
503.7320, 51.12939
504.9150, 72.01953
506.0970, 2.257324
507.2790, 97.52905
508.4610, 37.11377
509.6430, 50.56689
510.8250, 103.0132
512.0060, 88.66772
513.1870, 44.00537
514.3680, 97.52002
515.5490, 31.00024
516.7300, 62.14209
517.9110, 42.60059
519.0910, 30.38672
520.2710, 1.121582
521.4510, 113.9849
522.6310, 63.96338
523.8110, 34.87744
524.9910, 49.22729
526.1700, 59.29785
527.3490, 12.85181
528.5280, 40.73291
529.7070, 15.76685
530.8860, 71.22437
532.0650, 42.11938
533.2430, 85.09448
534.4210, 1.615479
535.5990, 81.19019
536.7770, 11.07642
537.9550, 62.93848
539.1320, 79.47607
540.3100, 35.47754
541.4870, 78.03857
542.6640, 44.99854
543.8410, 101.7292
545.0170, 42.12842
546.1940, 55.83276
547.3700, 0.6162110
548.5470, 6.4452998E-02
549.7230, 5.500732
550.8980, 19.08301
552.0740, 8.582520
553.2500, 95.13086
554.4250, 40.51245
555.6000, 76.83618
556.7750, 54.17847
557.9500, 35.85059
559.1250, 66.25586
560.2990, 81.65796
561.4730, 37.26587
562.6480, 84.22778
563.8220, 26.48120
564.9950, 69.62085
566.1690, 22.69873
567.3430, 19.28442
568.5160, 56.16382
569.6890, 74.72656
570.8620, 64.92676
572.0350, 30.34912
573.2070, 0.3061520
574.3800, 37.19092
575.5520, 24.28027
576.7240, 74.31250
577.8960, 13.48828
579.0680, 64.35986
580.2400, 164.2236
581.4110, 30.26562
582.5830, 1.778320
583.7540, 72.79639
584.9250, 90.75244
586.0950, 16.50586
587.2660, 60.86670
588.4370, 40.50342
589.6070, 106.7446
590.7770, 31.31543
591.9470, 171.6675
593.1170, 83.49805
594.2860, 19.41992
595.4560, 118.8521
596.6250, 152.3086
597.7940, 51.99658
598.9630, 119.9360
600.1320, 57.47656
601.3000, 5.439453
602.4690, 58.90820
603.6370, 47.37109
604.8050, 42.47461
605.9730, 9.881348
607.1410, 42.53564
608.3090, 85.75928
609.4760, 16.12646
610.6430, 120.4614
611.8100, 103.4160
612.9770, 41.42920
614.1440, 86.75293
615.3110, 126.4541
616.4770, 30.16064
617.6430, 201.2656
618.8090, 167.8286
619.9750, 143.8721
621.1410, 115.0400
622.3070, 190.6709
623.4720, 156.1226
624.6370, 129.6182
625.8020, 176.1484
626.9670, 133.6426
628.1320, 195.0229
629.2970, 139.1538
630.4610, 214.5723
631.6250, 201.8608
632.7890, 191.0112
633.9530, 202.8779
635.1170, 187.8833
636.2810, 251.7227
637.4440, 254.7012
638.6070, 289.9375
639.7700, 442.7593
640.9330, 476.6831
642.0960, 534.6353
643.2590, 729.0552
644.4210, 847.4922
645.5830, 845.0020
646.7450, 1085.954
647.9070, 1095.304
649.0690, 1518.404
650.2310, 1340.352
651.3920, 1487.558
652.5530, 1351.405
653.7140, 1340.232
654.8750, 984.4746
656.0360, 800.1333
657.1970, 627.2910
658.3570, 560.9614
659.5170, 480.4751
660.6770, 406.3696
661.8370, 283.6646
662.9970, 239.8428
664.1570, 190.0552
665.3160, 165.9995
666.4750, 105.4546
667.6340, 173.7905
668.7930, 131.1426
669.9520, 61.43359
671.1110, 156.9766
672.2690, 89.43506
673.4270, 98.85986
674.5850, 134.6196
675.7430, 85.99170
676.9010, 73.93506
678.0590, 168.7134
679.2160, 130.3809
680.3730, 133.2861
681.5300, 126.4434
682.6870, 131.0239
683.8440, 134.2334
685.0010, 150.6860
686.1570, 148.9033
687.3130, 134.4033
688.4690, 144.5024
689.6250, 128.6406
690.7810, 135.2407
691.9370, 110.0176
693.0920, 137.0420
694.2470, 137.8481
695.4020, 121.2246
696.5570, 30.61865
697.7120, 59.13721
698.8670, 37.72168
700.0210, 8.803223
701.1750, 106.3892
702.3290, 18.90674
703.4830, 50.20605
704.6370, 212.5005
705.7910, 79.45898
706.9440, 44.43799
708.0970, 48.26855
709.2510, 107.2241
710.4030, 65.09424
711.5560, 35.86182
712.7090, 22.50049
713.8610, 69.06006
715.0140, 59.56982
716.1660, 63.50684
717.3180, 65.63623
718.4690, 93.81006
719.6210, 38.04248
720.7730, 33.15674
721.9240, 107.8115
723.0750, 19.15283
724.2260, 52.43262
725.3770, 140.1006
726.5270, 92.18066
727.6780, 88.80859
728.8280, 35.74268
729.9780, 69.42188
731.1280, 215.4443
732.2780, 29.12109
733.4280, 59.54541
734.5770, 27.65576
735.7260, 3.545410
736.8760, 94.55762
738.0250, 104.1523
739.1730, 22.49463
740.3220, 131.3086
741.4700, 102.4297
742.6190, 7.435547
743.7670, 97.49463
744.9150, 40.28662
746.0630, 101.9556
747.2100, 26.10840
748.3580, 82.38721
749.5050, 7.718262
750.6520, 166.2422
751.7990, 39.24951
752.9460, 169.3716
754.0930, 110.2070
755.2390, 40.79980
756.3860, 88.07617
757.5320, 35.64697
758.6780, 1.658203
759.8240, 83.16309
760.9690, 18.72754
762.1150, 79.26709
763.2600, 58.11768
764.4060, 29.56494
765.5510, 61.83594
766.6950, 87.33252
767.8400, 23.61719
768.9850, 19.24951
770.1290, 35.73779
771.2730, 77.83447
772.4170, 49.98779
773.5610, 79.01367
774.7050, 38.73779
775.8480, 9.711426
776.9920, 77.43066
778.1350, 52.46680
779.2780, 80.61182
780.4210, 12.90625
781.5640, 55.31250
782.7060, 47.32373
783.8490, 50.37158
784.9910, 72.16211
786.1330, 55.31055
787.2750, 88.26074
788.4170, 62.62891
789.5580, 124.3647
790.7000, 67.71484
791.8410, 32.14551
792.9820, 10.02441
794.1230, 9.674805
795.2640, 102.5967
796.4040, 69.46094
797.5450, 140.4307
798.6850, 163.6572
799.8250, 124.4053
800.9650, 69.08887
802.1050, 129.0801
803.2450, 237.8418
804.3840, 206.3926
805.5230, 214.2959
806.6630, 186.2080
807.8020, 162.7637
808.9400, 139.0234
810.0790, 170.5928
811.2170, 29.53027
812.3560, 154.5381
813.4940, 168.8828
814.6320, 45.40039
815.7700, 273.7539
816.9070, 159.8652
818.0450, 125.8818
819.1820, 217.4980
820.3190, 220.7939
821.4560, 82.40918
822.5930, 51.74512
823.7300, 98.38184
824.8670, 179.3955
826.0030, 198.5586
827.1390, 229.5771
828.2750, 219.5654
829.4110, 212.7617
830.5470, 188.9561
831.6820, 82.28711
832.8180, 258.3047
833.9530, 187.8076
835.0880, 180.3066
836.2230, 76.51660
837.3580, 105.4189
838.4920, 146.7002
839.6270, 118.5615
840.7610, 140.4512
841.8950, 153.8486
843.0290, 124.4619
844.1630, 174.4229
845.2960, 140.9434
846.4300, 129.5752
847.5630, 100.2324
848.6960, 86.45996
849.8290, 104.5020
850.9620, 92.40918
852.0940, 55.34473
853.2270, 116.1221
854.3590, 134.0752
855.4910, 36.14941
856.6230, 87.98828
857.7550, 107.6875
858.8870, 59.91992
860.0180, 64.59766
861.1500, 114.2852
862.2810, 244.1973
863.4120, 91.13574
864.5430, 155.3535
865.6730, 116.9619
866.8040, 70.45117
867.9340, 86.68750
869.0640, 152.8203
870.1940, 124.1484
871.3240, 208.1709
872.4540, 190.8213
873.5830, 178.0527
874.7130, 26.66992
875.8420, 202.8633
876.9710, 29.28809
878.1000, 153.3633
879.2290, 113.9854
880.3570, 119.2500
881.4860, 157.2354
882.6140, 88.99414
883.7420, 175.4463
884.8700, 60.91895
885.9980, 29.56250
887.1250, 191.8008
888.2530, 184.3291
889.3800, 74.27344
890.5070, 204.8320
891.6340, 186.9365
892.7610, 89.11230
893.8880, 51.89941
895.0140, 50.81055
896.1400, 62.85938
897.2670, 191.2578
898.3930, 92.97070
899.5180, 181.1660
900.6440, 154.1475
901.7700, 135.1348
902.8950, 113.1152
904.0200, 95.80566
905.1450, 85.89844
906.2700, 134.9590
907.3950, 107.4238
908.5190, 102.1152
909.6440, 190.7568
910.7680, 21.65039
911.8920, 150.3223
913.0160, 87.35547
914.1400, 60.96777
915.2630, 131.3467
916.3870, 164.6689
917.5100, 188.6377
918.6330, 152.6426
919.7560, 187.6123
920.8790, 99.88379
922.0010, 178.0068
923.1240, 126.7734
924.2460, 36.03711
925.3680, 159.4355
926.4900, 118.5420
927.6120, 5.576172
928.7340, 142.6826
929.8550, 8.265625
930.9760, 32.29590
932.0980, 67.20215
933.2190, 64.38770
934.3390, 108.0625
935.4600, 280.6396
936.5810, 128.8779
937.7010, 131.1582
938.8210, 19.17383
939.9410, 14.08887
941.0610, 55.08691
942.1810, 50.83789
943.3010, 2.648438
944.4200, 170.6221
945.5390, 84.89258
946.6580, 89.29688
947.7770, 30.16797
948.8960, 6.024414
950.0150, 15.13086
951.1330, 15.75977
952.2510, 0.1503910
953.3690, 48.93359
954.4870, 68.09863
955.6050, 148.1270
956.7230, 200.4023
957.8400, 21.28613
958.9580, 48.33789
960.0750, 143.5811
961.1920, 250.7686
962.3090, 236.7852
963.4250, 250.3447
964.5420, 247.7783
965.6580, 185.3848
966.7740, 213.0605
967.8900, 215.7139
969.0060, 214.7998
970.1220, 230.8447
971.2380, 239.6846
972.3530, 233.2725
973.4680, 220.8115
974.5830, 163.1895
975.6980, 91.27734
976.8130, 76.73535
977.9280, 126.1211
979.0420, 210.0488
980.1560, 253.6553
981.2710, 115.4521
982.3850, 190.4150
983.4980, 165.5908
984.6120, 249.9717
985.7260, 207.8369
986.8390, 222.8203
987.9520, 158.2012
989.0650, 32.59473
990.1780, 343.5713
991.2910, 116.1416
992.4030, 266.2930
993.5160, 274.1973
994.6280, 51.27539
995.7400, 91.70996
996.8520, 214.0635
997.9640, 371.1914
999.0750, 168.2793
1000.187, 205.2734
1001.298, 35.13379
1002.409, 16.27832
1003.520, 152.7402
1004.631, 161.3633
1005.741, 148.4385
1006.852, 134.6064
1007.962, 74.14160
1009.072, 242.6738
1010.182, 82.50977
1011.292, 304.4775
1012.402, 76.83203
1013.511, 200.2949
1014.621, 171.2734
1015.730, 255.5645
1016.839, 212.9023
1017.948, 224.2324
1019.056, 289.7480
1020.165, 304.7422
1021.273, 430.9805
1022.382, 384.3496
1023.490, 493.0879
1024.598, 503.2617
1025.706, 364.9199
1026.813, 459.5391
1027.921, 420.3457
1029.028, 510.3926
1030.135, 215.1074
1031.242, 189.6094
1032.349, 283.4258
1033.456, 241.8926
1034.562, 330.8516
1035.668, 257.6914
1036.775, 211.6094
1037.881, 223.5430
1038.987, 180.4141
1040.092, 331.3730
1041.198, 137.1504
1042.303, 146.8398
1043.408, 363.1836
1044.514, 206.1680
1045.618, 196.1133
1046.723, 378.2949
1047.828, 64.48242
1048.932, 362.5059
1050.037, 49.70508
1051.141, 244.2461
1052.245, 191.2324
1053.349, 102.9980
1054.452, 86.23438
1055.556, 166.2754
1056.659, 32.35156
1057.762, 229.5508
1058.865, 186.9219
1059.968, 106.4062
1061.071, 35.25781
1062.174, 99.26953
1063.276, 101.8945
1064.378, 161.7031
1065.480, 169.7266
1066.582, 139.9297
1067.684, 91.62695
1068.786, 87.26172
1069.887, 105.3652
1070.988, 88.47070
1072.090, 115.1270
1073.191, 213.6250
1074.291, 312.1016
1075.392, 290.1328
1076.493, 139.2051
1077.593, 88.58594
1078.693, 1.476563
1079.793, 222.0176
1080.893, 137.8691
1081.993, 313.3848
1083.092, 164.4395
1084.192, 214.8438
1085.291, 91.84570
1086.390, 170.9043
1087.489, 102.6855
1088.588, 248.6230
1089.686, 130.1484
1090.785, 202.0332
1091.883, 103.5312
1092.981, 286.0234
1094.079, 205.0215
1095.177, 207.7266
1096.275, 74.81250
1097.373, 199.9551
1098.470, 2.419922
1099.567, 264.5234
1100.664, 5.300781
1101.761, 0.0000000E+00
##END=



