##NAMES=Pectolite
##RRUFFID=R060101
##IDEAL CHEMISTRY=NaCa_2_Si_3_O_8_(OH)
##LOCALITY=West Patterson, New Jersey, USA
##OWNER=RRUFF
##SOURCE=University of Arizona Mineral Museum
##DESCRIPTION=Tufts of white acicular sprays
##STATUS=The identification of this mineral has been confirmed by X-ray diffraction and chemical analysis
##URL=rruff.info/R060101
##MEASURED CHEMISTRY=Na_1.02_Ca_2.00_Si_2.99_O_8_(OH)
##PIN_ID=L01384
##ORIENTATION=Laser parallel to (-1 -1 0). Fiducial mark perpendicular to laser is parallel to c [0 0 1]
116.4580, 0.0000000E+00
117.6970, 12.58984
118.9350, 32.27612
120.1730, 32.68433
121.4100, 5.243164
122.6480, 1.467651
123.8850, 19.47986
125.1230, 13.58020
126.3600, 10.32422
127.5960, 42.50952
128.8330, 3.123901
130.0700, 41.35449
131.3060, 15.82800
132.5420, 14.27905
133.7780, 41.71277
135.0140, 5.227295
136.2500, 36.70898
137.4850, 68.15356
138.7200, 85.25366
139.9550, 71.38635
141.1900, 94.84351
142.4250, 92.96167
143.6600, 108.5619
144.8940, 94.06018
146.1280, 99.49890
147.3620, 98.87012
148.5960, 101.2152
149.8300, 96.53687
151.0630, 71.06738
152.2960, 65.86597
153.5300, 46.12512
154.7620, 65.29346
155.9950, 67.86938
157.2280, 45.84790
158.4600, 81.14270
159.6920, 14.75171
160.9250, 43.58594
162.1560, 43.30225
163.3880, 31.78992
164.6200, 36.41113
165.8510, 29.28296
167.0820, 28.94824
168.3130, 59.88892
169.5440, 78.51025
170.7750, 72.00439
172.0050, 75.31250
173.2350, 88.36682
174.4650, 92.73560
175.6950, 110.8406
176.9250, 105.9860
178.1550, 116.1162
179.3840, 114.5500
180.6130, 101.6978
181.8420, 115.3037
183.0710, 97.12683
184.3000, 46.06116
185.5280, 79.20276
186.7570, 51.10413
187.9850, 5.751221
189.2130, 66.82275
190.4400, 74.40015
191.6680, 70.46667
192.8960, 83.24683
194.1230, 63.91858
195.3500, 32.53369
196.5770, 90.44507
197.8030, 74.06567
199.0300, 38.35498
200.2560, 92.92346
201.4830, 40.06494
202.7090, 2.915283
203.9340, 59.02991
205.1600, 68.62756
206.3860, 14.35315
207.6110, 31.15820
208.8360, 14.09631
210.0610, 22.29053
211.2860, 16.15271
212.5100, 32.03589
213.7350, 88.43311
214.9590, 27.85291
216.1830, 60.49097
217.4070, 55.95129
218.6310, 29.08569
219.8540, 59.88403
221.0780, 33.25256
222.3010, 82.55029
223.5240, 56.72852
224.7470, 63.25391
225.9690, 55.68445
227.1920, 79.32690
228.4140, 24.13306
229.6360, 74.59094
230.8580, 34.22717
232.0800, 58.42224
233.3020, 62.21387
234.5230, 3.490234
235.7440, 92.05286
236.9650, 33.13660
238.1860, 37.09143
239.4070, 71.78906
240.6280, 11.41943
241.8480, 66.57935
243.0680, 0.9726560
244.2880, 5.170044
245.5080, 19.07751
246.7280, 63.53247
247.9470, 8.425781
249.1660, 48.83740
250.3860, 7.492798
251.6040, 30.98291
252.8230, 28.95496
254.0420, 47.52783
255.2600, 3.574707
256.4790, 32.99463
257.6970, 41.58081
258.9150, 5.996582
260.1320, 51.39331
261.3500, 55.23389
262.5670, 90.20105
263.7840, 75.64722
265.0010, 85.92749
266.2180, 21.27075
267.4350, 85.57275
268.6510, 56.83154
269.8680, 82.84399
271.0840, 73.00024
272.3000, 66.00415
273.5160, 97.00146
274.7310, 85.05273
275.9470, 38.87012
277.1620, 90.82593
278.3770, 71.68262
279.5920, 152.5725
280.8070, 97.23730
282.0210, 57.04126
283.2360, 127.4805
284.4500, 48.20898
285.6640, 41.08179
286.8780, 61.60474
288.0920, 41.35815
289.3050, 85.90845
290.5180, 24.57153
291.7320, 81.85815
292.9450, 75.37549
294.1570, 57.53345
295.3700, 34.83032
296.5830, 80.17163
297.7950, 83.66577
299.0070, 91.02490
300.2190, 35.15967
301.4310, 23.55933
302.6420, 7.478760
303.8540, 4.766357
305.0650, 9.885742
306.2760, 29.89648
307.4870, 56.88794
308.6980, 75.10010
309.9080, 83.95581
311.1190, 106.8276
312.3290, 44.87085
313.5390, 57.82983
314.7490, 54.73413
315.9580, 51.77979
317.1680, 85.44946
318.3770, 136.1702
319.5860, 55.95337
320.7950, 140.8401
322.0040, 108.8052
323.2130, 53.27148
324.4210, 88.01782
325.6290, 89.21973
326.8380, 58.47705
328.0460, 85.75513
329.2530, 77.27075
330.4610, 45.74902
331.6680, 51.13989
332.8760, 60.39990
334.0830, 46.31543
335.2890, 37.81909
336.4960, 24.18457
337.7030, 7.292480
338.9090, 22.63770
340.1150, 41.80542
341.3210, 38.65088
342.5270, 17.46265
343.7330, 21.16089
344.9380, 76.64331
346.1440, 35.08716
347.3490, 121.4932
348.5540, 57.54199
349.7590, 44.35767
350.9630, 34.15625
352.1680, 1.212646
353.3720, 32.33496
354.5760, 46.51587
355.7800, 20.86670
356.9840, 65.60522
358.1870, 41.85962
359.3910, 100.3577
360.5940, 50.36914
361.7970, 92.81567
363.0000, 64.27490
364.2030, 14.65454
365.4050, 27.17236
366.6080, 9.931641
367.8100, 0.2341310
369.0120, 9.021729
370.2140, 18.07422
371.4150, 4.088867
372.6170, 67.10352
373.8180, 75.89624
375.0190, 75.94824
376.2200, 31.50684
377.4210, 17.35791
378.6220, 85.27197
379.8220, 57.48169
381.0230, 58.13086
382.2230, 21.55200
383.4230, 44.02368
384.6220, 61.62500
385.8220, 22.92310
387.0220, 109.5596
388.2210, 55.51367
389.4200, 26.27100
390.6190, 91.13379
391.8180, 77.43604
393.0160, 36.64575
394.2150, 40.70581
395.4130, 2.306396
396.6110, 39.37476
397.8090, 20.16504
399.0060, 29.19385
400.2040, 15.00537
401.4010, 13.22070
402.5980, 14.54980
403.7950, 5.457520
404.9920, 7.465576
406.1890, 2.175049
407.3860, 9.165283
408.5820, 40.96240
409.7780, 16.44580
410.9740, 14.64404
412.1700, 17.36084
413.3650, 50.54175
414.5610, 24.11597
415.7560, 54.59790
416.9510, 49.06689
418.1460, 30.43091
419.3410, 22.86597
420.5360, 41.94678
421.7300, 11.73877
422.9240, 44.50635
424.1180, 91.68628
425.3120, 41.73022
426.5060, 131.7031
427.7000, 55.73193
428.8930, 13.35278
430.0860, 89.11597
431.2790, 25.81616
432.4720, 66.47412
433.6650, 32.22437
434.8580, 114.6565
436.0500, 52.38989
437.2420, 130.5413
438.4340, 89.65063
439.6260, 72.40820
440.8180, 33.78442
442.0090, 57.14014
443.2010, 103.4163
444.3920, 32.60010
445.5830, 50.59131
446.7740, 120.4365
447.9640, 33.04517
449.1550, 124.6233
450.3450, 89.11035
451.5350, 24.05859
452.7250, 87.56006
453.9150, 79.47559
455.1050, 22.98877
456.2940, 34.45996
457.4830, 56.71777
458.6720, 17.25342
459.8610, 102.0146
461.0500, 82.20972
462.2390, 59.84375
463.4270, 27.04688
464.6150, 5.348145
465.8040, 111.5220
466.9910, 36.33472
468.1790, 158.2542
469.3670, 135.1270
470.5540, 122.0356
471.7410, 57.22607
472.9280, 48.06396
474.1150, 66.21582
475.3020, 78.51807
476.4890, 89.02319
477.6750, 12.97656
478.8610, 38.17261
480.0470, 91.62476
481.2330, 26.73193
482.4190, 61.10938
483.6040, 98.47754
484.7900, 130.5786
485.9750, 149.7974
487.1600, 165.1992
488.3450, 194.4253
489.5290, 167.3193
490.7140, 101.3433
491.8980, 69.93408
493.0820, 74.67578
494.2660, 141.2168
495.4500, 19.51270
496.6340, 97.89746
497.8170, 33.30029
499.0010, 45.46289
500.1840, 103.6323
501.3670, 78.02637
502.5500, 137.8628
503.7320, 56.55127
504.9150, 38.97705
506.0970, 21.21729
507.2790, 9.159180
508.4610, 22.13770
509.6430, 27.95264
510.8250, 71.50879
512.0060, 81.18701
513.1870, 71.84277
514.3680, 84.35156
515.5490, 71.08594
516.7300, 48.79053
517.9110, 115.5562
519.0910, 59.15479
520.2710, 37.65820
521.4510, 122.6265
522.6310, 102.2305
523.8110, 91.35498
524.9910, 72.80322
526.1700, 66.82080
527.3490, 30.83057
528.5280, 66.40332
529.7070, 47.47705
530.8860, 148.8916
532.0650, 135.2070
533.2430, 64.65332
534.4210, 17.36768
535.5990, 28.38916
536.7770, 140.6060
537.9550, 46.67969
539.1320, 55.77686
540.3100, 48.80615
541.4870, 28.74561
542.6640, 74.54785
543.8410, 71.22998
545.0170, 127.4502
546.1940, 78.87549
547.3700, 77.55225
548.5470, 16.91602
549.7230, 36.25684
550.8980, 109.7207
552.0740, 101.0303
553.2500, 29.41602
554.4250, 116.6396
555.6000, 36.66309
556.7750, 36.99756
557.9500, 20.93945
559.1250, 65.19971
560.2990, 24.12695
561.4730, 16.02490
562.6480, 35.32764
563.8220, 17.03760
564.9950, 60.18896
566.1690, 66.52832
567.3430, 31.17969
568.5160, 62.10352
569.6890, 82.86182
570.8620, 29.55908
572.0350, 53.14697
573.2070, 30.05371
574.3800, 40.74414
575.5520, 42.55225
576.7240, 15.83789
577.8960, 135.8691
579.0680, 116.1782
580.2400, 7.147949
581.4110, 49.27881
582.5830, 45.14160
583.7540, 58.84033
584.9250, 12.35205
586.0950, 33.91602
587.2660, 33.30518
588.4370, 70.09766
589.6070, 12.53613
590.7770, 12.19873
591.9470, 13.67480
593.1170, 28.69434
594.2860, 22.93506
595.4560, 131.1460
596.6250, 65.91064
597.7940, 116.2324
598.9630, 18.29443
600.1320, 23.42627
601.3000, 119.0698
602.4690, 46.88574
603.6370, 61.31641
604.8050, 100.7686
605.9730, 93.40771
607.1410, 113.7920
608.3090, 108.9888
609.4760, 108.0708
610.6430, 59.31641
611.8100, 9.080566
612.9770, 67.61523
614.1440, 4.540527
615.3110, 142.1489
616.4770, 90.60596
617.6430, 195.3252
618.8090, 114.5347
619.9750, 26.23193
621.1410, 72.67188
622.3070, 14.25195
623.4720, 21.38037
624.6370, 68.48828
625.8020, 10.38574
626.9670, 127.4438
628.1320, 102.0190
629.2970, 61.64551
630.4610, 103.8911
631.6250, 130.6021
632.7890, 67.32617
633.9530, 90.53369
635.1170, 88.87646
636.2810, 88.71680
637.4440, 93.08643
638.6070, 220.7163
639.7700, 139.1406
640.9330, 292.2153
642.0960, 225.6318
643.2590, 198.8579
644.4210, 407.2324
645.5830, 293.6567
646.7450, 507.7744
647.9070, 521.1807
649.0690, 536.4854
650.2310, 555.6011
651.3920, 532.0894
652.5530, 545.2588
653.7140, 457.5181
654.8750, 445.0962
656.0360, 362.2173
657.1970, 266.0381
658.3570, 246.8286
659.5170, 240.6909
660.6770, 182.3428
661.8370, 226.9487
662.9970, 88.59668
664.1570, 199.8613
665.3160, 71.02246
666.4750, 74.72852
667.6340, 215.1240
668.7930, 76.21240
669.9520, 165.1914
671.1110, 146.0239
672.2690, 165.4546
673.4270, 71.84082
674.5850, 128.3730
675.7430, 168.6626
676.9010, 85.45801
678.0590, 112.6797
679.2160, 98.38379
680.3730, 112.7734
681.5300, 115.5029
682.6870, 145.5449
683.8440, 224.3384
685.0010, 291.3315
686.1570, 188.5845
687.3130, 125.9775
688.4690, 127.2354
689.6250, 113.5386
690.7810, 110.3262
691.9370, 75.02832
693.0920, 100.1069
694.2470, 165.0757
695.4020, 48.04785
696.5570, 155.5410
697.7120, 56.92090
698.8670, 101.6504
700.0210, 96.30371
701.1750, 2.170898
702.3290, 130.2949
703.4830, 12.00391
704.6370, 220.4180
705.7910, 80.46094
706.9440, 88.50977
708.0970, 35.52734
709.2510, 11.53027
710.4030, 76.15430
711.5560, 158.8525
712.7090, 14.09180
713.8610, 154.6602
715.0140, 105.5312
716.1660, 86.78125
717.3180, 82.71484
718.4690, 176.9824
719.6210, 94.63672
720.7730, 134.6484
721.9240, 75.05664
723.0750, 148.5957
724.2260, 48.99023
725.3770, 91.40137
726.5270, 47.87207
727.6780, 45.42969
728.8280, 125.5889
729.9780, 180.6074
731.1280, 155.1465
732.2780, 1.320313
733.4280, 18.63672
734.5770, 63.48926
735.7260, 163.2832
736.8760, 131.8271
738.0250, 6.832031
739.1730, 126.9541
740.3220, 25.53320
741.4700, 64.18750
742.6190, 24.36035
743.7670, 159.9395
744.9150, 24.34863
746.0630, 157.1045
747.2100, 157.9170
748.3580, 28.72070
749.5050, 171.4463
750.6520, 142.5332
751.7990, 43.43066
752.9460, 76.74902
754.0930, 8.525391
755.2390, 62.81445
756.3860, 91.32715
757.5320, 16.07520
758.6780, 77.22949
759.8240, 200.3672
760.9690, 84.57324
762.1150, 107.5703
763.2600, 1.725586
764.4060, 135.1113
765.5510, 31.54688
766.6950, 247.6611
767.8400, 54.29297
768.9850, 95.95117
770.1290, 51.97656
771.2730, 154.8730
772.4170, 170.8779
773.5610, 81.11621
774.7050, 92.30273
775.8480, 185.2881
776.9920, 27.91113
778.1350, 114.8350
779.2780, 27.00684
780.4210, 8.182617
781.5640, 181.3486
782.7060, 133.6865
783.8490, 172.8799
784.9910, 74.01465
786.1330, 94.25977
787.2750, 128.2109
788.4170, 69.28906
789.5580, 132.6309
790.7000, 93.55371
791.8410, 42.39355
792.9820, 249.5430
794.1230, 199.6055
795.2640, 175.6094
796.4040, 83.11426
797.5450, 92.82715
798.6850, 168.7256
799.8250, 118.8203
800.9650, 11.13477
802.1050, 164.8711
803.2450, 247.4209
804.3840, 264.6729
805.5230, 119.0029
806.6630, 105.0000
807.8020, 34.31152
808.9400, 65.62695
810.0790, 208.8164
811.2170, 105.9346
812.3560, 213.6533
813.4940, 125.6006
814.6320, 147.2910
815.7700, 95.74316
816.9070, 241.3818
818.0450, 194.4570
819.1820, 15.85742
820.3190, 196.1045
821.4560, 184.3379
822.5930, 75.23242
823.7300, 238.5488
824.8670, 188.9170
826.0030, 175.7217
827.1390, 111.2178
828.2750, 100.2188
829.4110, 155.6748
830.5470, 246.6748
831.6820, 144.7822
832.8180, 236.3643
833.9530, 225.1484
835.0880, 162.2441
836.2230, 116.4150
837.3580, 85.44629
838.4920, 36.45410
839.6270, 65.17285
840.7610, 10.94141
841.8950, 31.69141
843.0290, 130.6670
844.1630, 145.7266
845.2960, 146.3252
846.4300, 159.1562
847.5630, 141.3984
848.6960, 205.1172
849.8290, 112.4766
850.9620, 260.7100
852.0940, 119.7588
853.2270, 80.60156
854.3590, 177.1455
855.4910, 119.2949
856.6230, 134.0762
857.7550, 64.25098
858.8870, 210.1133
860.0180, 34.91016
861.1500, 169.1992
862.2810, 130.4297
863.4120, 122.3740
864.5430, 229.1777
865.6730, 243.1396
866.8040, 238.6465
867.9340, 104.4160
869.0640, 164.4707
870.1940, 138.6855
871.3240, 128.9258
872.4540, 215.3184
873.5830, 237.2354
874.7130, 117.9141
875.8420, 136.8613
876.9710, 260.3506
878.1000, 25.47949
879.2290, 84.06738
880.3570, 221.9795
881.4860, 273.8018
882.6140, 159.3213
883.7420, 58.33203
884.8700, 207.5605
885.9980, 148.5762
887.1250, 231.3887
888.2530, 55.49805
889.3800, 90.87012
890.5070, 22.01953
891.6340, 116.4561
892.7610, 186.1074
893.8880, 213.8184
895.0140, 62.62891
896.1400, 139.6191
897.2670, 171.4258
898.3930, 9.908203
899.5180, 143.9141
900.6440, 111.5811
901.7700, 27.14844
902.8950, 171.8838
904.0200, 182.2197
905.1450, 3.040039
906.2700, 276.0234
907.3950, 68.51660
908.5190, 45.98047
909.6440, 152.9902
910.7680, 179.6641
911.8920, 137.6133
913.0160, 196.5557
914.1400, 258.5596
915.2630, 74.63477
916.3870, 79.97363
917.5100, 138.8379
918.6330, 37.63477
919.7560, 137.0439
920.8790, 67.00293
922.0010, 57.78613
923.1240, 104.7578
924.2460, 10.20605
925.3680, 18.71094
926.4900, 94.48340
927.6120, 192.7686
928.7340, 188.4971
929.8550, 146.2715
930.9760, 219.4766
932.0980, 136.1895
933.2190, 244.9766
934.3390, 216.1875
935.4600, 236.7168
936.5810, 217.9121
937.7010, 120.4297
938.8210, 155.1914
939.9410, 72.94727
941.0610, 163.9434
942.1810, 12.22461
943.3010, 117.7852
944.4200, 128.3770
945.5390, 76.26172
946.6580, 143.7832
947.7770, 119.4766
948.8960, 294.6914
950.0150, 122.9141
951.1330, 52.28516
952.2510, 147.2090
953.3690, 82.85156
954.4870, 106.7773
955.6050, 134.4160
956.7230, 253.8750
957.8400, 260.1836
958.9580, 157.1348
960.0750, 265.2754
961.1920, 297.2500
962.3090, 382.8379
963.4250, 213.0762
964.5420, 318.6367
965.6580, 111.4434
966.7740, 309.7031
967.8900, 341.2402
969.0060, 501.6191
970.1220, 581.6211
971.2380, 425.3262
972.3530, 335.7285
973.4680, 323.6094
974.5830, 248.0332
975.6980, 207.5059
976.8130, 221.2285
977.9280, 180.2598
979.0420, 208.2715
980.1560, 318.1738
981.2710, 275.9941
982.3850, 215.6230
983.4980, 348.8477
984.6120, 16.21484
985.7260, 236.4961
986.8390, 243.2207
987.9520, 34.79688
989.0650, 39.65430
990.1780, 193.3184
991.2910, 124.7949
992.4030, 120.3477
993.5160, 178.3281
994.6280, 175.1426
995.7400, 207.3105
996.8520, 209.3242
997.9640, 215.6953
999.0750, 234.4355
1000.187, 136.5625
1001.298, 264.3418
1002.409, 203.8359
1003.520, 215.4297
1004.631, 215.8594
1005.741, 247.2715
1006.852, 305.5508
1007.962, 183.5234
1009.072, 244.8340
1010.182, 215.4062
1011.292, 105.8555
1012.402, 130.7910
1013.511, 177.0918
1014.621, 185.0332
1015.730, 206.9375
1016.839, 224.0918
1017.948, 225.0156
1019.056, 251.1250
1020.165, 244.5684
1021.273, 283.3281
1022.382, 218.3633
1023.490, 338.8496
1024.598, 120.6992
1025.706, 98.53711
1026.813, 170.8828
1027.921, 218.0840
1029.028, 270.9766
1030.135, 172.1816
1031.242, 238.1523
1032.349, 32.77930
1033.456, 164.9531
1034.562, 75.02930
1035.668, 190.4043
1036.775, 69.84766
1037.881, 200.1816
1038.987, 70.61914
1040.092, 321.9844
1041.198, 251.5059
1042.303, 253.5918
1043.408, 84.37109
1044.514, 41.09766
1045.618, 99.09766
1046.723, 182.2285
1047.828, 330.2441
1048.932, 52.89844
1050.037, 203.1582
1051.141, 146.1699
1052.245, 265.6719
1053.349, 209.9512
1054.452, 236.6152
1055.556, 7.277344
1056.659, 286.5918
1057.762, 101.7656
1058.865, 40.00195
1059.968, 109.5332
1061.071, 266.1895
1062.174, 124.1328
1063.276, 236.1797
1064.378, 368.7832
1065.480, 167.7031
1066.582, 114.0273
1067.684, 227.9668
1068.786, 73.25586
1069.887, 220.0234
1070.988, 426.9043
1072.090, 181.7754
1073.191, 231.6016
1074.291, 382.9062
1075.392, 28.46094
1076.493, 118.3848
1077.593, 468.1523
1078.693, 130.1270
1079.793, 456.6934
1080.893, 224.3320
1081.993, 130.5605
1083.092, 189.6680
1084.192, 87.91211
1085.291, 239.7012
1086.390, 314.9961
1087.489, 178.3594
1088.588, 199.3184
1089.686, 220.7812
1090.785, 230.6992
1091.883, 260.0605
1092.981, 238.0215
1094.079, 203.6309
1095.177, 18.55859
1096.275, 286.1836
1097.373, 165.9531
1098.470, 152.8379
1099.567, 360.4062
1100.664, 229.9355
1101.761, 184.0078
1102.858, 110.8887
1103.954, 150.1738
1105.051, 157.3262
1106.147, 98.47461
1107.243, 147.9980
1108.339, 70.99609
1109.435, 73.26172
1110.531, 52.96289
1111.626, 48.01367
1112.722, 50.62500
1113.817, 65.18164
1114.912, 0.8339840
1116.007, 34.29883
1117.101, 0.0000000E+00
##END=



