##NAMES=Pectolite
##RRUFFID=R050396
##IDEAL CHEMISTRY=NaCa_2_Si_3_O_8_(OH)
##LOCALITY=Jeffrey Quarry, Asbestos, Quebec, Canada
##OWNER=RRUFF
##SOURCE=Marcus Origlieri
##DESCRIPTION=Colorless to gray columnar blocky crystals
##STATUS=The identification of this mineral has been confirmed by X-ray diffraction and chemical analysis
##URL=rruff.info/R050396
##MEASURED CHEMISTRY=Na_1.00_Ca_2.00_Si_3.00_O_8_(OH)
##PIN_ID=M00091
##ORIENTATION=Laser parallel to (0 -1 -1). Fiducial mark perpendicular to laser is parallel to a [1 0 0]
116.4580, 0.0000000E+00
117.6970, 58.10620
118.9350, 27.79883
120.1730, 12.78076
121.4100, 2.827637
122.6480, 21.19751
123.8850, 50.54907
125.1230, 27.88867
126.3600, 181.8914
127.5960, 218.4126
128.8330, 218.4500
130.0700, 373.3328
131.3060, 492.7529
132.5420, 661.1714
133.7780, 744.6099
135.0140, 883.0747
136.2500, 1102.581
137.4850, 1286.186
138.7200, 1530.343
139.9550, 1661.895
141.1900, 1704.328
142.4250, 1756.738
143.6600, 1768.286
144.8940, 1524.871
146.1280, 1401.408
147.3620, 1296.934
148.5960, 1078.607
149.8300, 831.3047
151.0630, 736.0894
152.2960, 597.8760
153.5300, 525.5732
154.7620, 384.7109
155.9950, 293.4131
157.2280, 90.89648
158.4600, 115.8618
159.6920, 57.12744
160.9250, 65.04541
162.1560, 45.68701
163.3880, 56.35547
164.6200, 96.60938
165.8510, 28.22363
167.0820, 11.07471
168.3130, 30.89404
169.5440, 80.68408
170.7750, 29.55469
172.0050, 48.33105
173.2350, 61.34814
174.4650, 87.51660
175.6950, 52.53418
176.9250, 87.99121
178.1550, 86.97168
179.3840, 16.99561
180.6130, 95.20996
181.8420, 157.6616
183.0710, 134.2539
184.3000, 160.1323
185.5280, 220.6187
186.7570, 104.2822
187.9850, 146.7446
189.2130, 104.3652
190.4400, 64.67920
191.6680, 110.9810
192.8960, 7.274902
194.1230, 28.56689
195.3500, 77.86035
196.5770, 136.1543
197.8030, 39.45459
199.0300, 11.23096
200.2560, 35.09912
201.4830, 101.0249
202.7090, 141.8047
203.9340, 35.78320
205.1600, 35.96680
206.3860, 9.721191
207.6110, 82.90674
208.8360, 19.68945
210.0610, 46.59766
211.2860, 36.09668
212.5100, 69.79590
213.7350, 38.11084
214.9590, 30.41797
216.1830, 140.7212
217.4070, 157.0010
218.6310, 176.2583
219.8540, 173.5000
221.0780, 257.7314
222.3010, 167.9541
223.5240, 238.1621
224.7470, 252.4580
225.9690, 241.4600
227.1920, 199.5923
228.4140, 197.8672
229.6360, 261.0474
230.8580, 178.7139
232.0800, 73.31885
233.3020, 108.7085
234.5230, 184.8799
235.7440, 107.8477
236.9650, 40.82324
238.1860, 25.71973
239.4070, 47.20850
240.6280, 76.70410
241.8480, 104.2314
243.0680, 8.257324
244.2880, 48.77051
245.5080, 43.25635
246.7280, 4.714355
247.9470, 39.85596
249.1660, 21.54590
250.3860, 54.92139
251.6040, 97.95459
252.8230, 48.90039
254.0420, 33.95410
255.2600, 2.024902
256.4790, 60.44336
257.6970, 112.1685
258.9150, 91.03564
260.1320, 134.5786
261.3500, 70.26855
262.5670, 144.5767
263.7840, 126.7993
265.0010, 186.8169
266.2180, 128.8560
267.4350, 241.9258
268.6510, 206.2417
269.8680, 198.5825
271.0840, 259.8794
272.3000, 153.2778
273.5160, 234.7251
274.7310, 279.0166
275.9470, 256.4897
277.1620, 257.0298
278.3770, 265.7954
279.5920, 211.6904
280.8070, 187.4043
282.0210, 270.3994
283.2360, 122.1694
284.4500, 6.087402
285.6640, 64.22607
286.8780, 109.5371
288.0920, 86.26514
289.3050, 13.84814
290.5180, 101.1333
291.7320, 110.6426
292.9450, 63.73779
294.1570, 19.42920
295.3700, 52.59814
296.5830, 51.38477
297.7950, 93.79834
299.0070, 65.29248
300.2190, 143.9385
301.4310, 115.6440
302.6420, 75.73926
303.8540, 110.0791
305.0650, 171.5005
306.2760, 79.88037
307.4870, 183.0522
308.6980, 187.5127
309.9080, 215.5229
311.1190, 270.3955
312.3290, 344.8354
313.5390, 317.0225
314.7490, 373.8394
315.9580, 424.7979
317.1680, 393.7515
318.3770, 367.5835
319.5860, 270.4771
320.7950, 315.9595
322.0040, 383.5957
323.2130, 309.6592
324.4210, 219.2827
325.6290, 403.1113
326.8380, 245.2495
328.0460, 231.6943
329.2530, 193.1763
330.4610, 150.9082
331.6680, 188.3564
332.8760, 77.90479
334.0830, 117.0815
335.2890, 59.46387
336.4960, 115.5449
337.7030, 43.95557
338.9090, 71.93262
340.1150, 88.15186
341.3210, 40.29395
342.5270, 43.11719
343.7330, 14.15186
344.9380, 4.159180
346.1440, 123.2539
347.3490, 121.3730
348.5540, 139.4683
349.7590, 110.6289
350.9630, 174.3232
352.1680, 134.6895
353.3720, 226.3091
354.5760, 175.6997
355.7800, 135.9990
356.9840, 303.7441
358.1870, 141.3345
359.3910, 82.49561
360.5940, 120.5894
361.7970, 56.79053
363.0000, 138.9604
364.2030, 93.09863
365.4050, 90.83301
366.6080, 121.4395
367.8100, 161.4824
369.0120, 295.8677
370.2140, 306.0283
371.4150, 264.9736
372.6170, 266.1387
373.8180, 318.2725
375.0190, 318.1484
376.2200, 362.2588
377.4210, 369.9229
378.6220, 309.9927
379.8220, 305.0977
381.0230, 316.1851
382.2230, 228.6445
383.4230, 276.2290
384.6220, 50.82178
385.8220, 109.0005
387.0220, 158.8789
388.2210, 141.7207
389.4200, 96.28369
390.6190, 73.05127
391.8180, 165.3135
393.0160, 146.8408
394.2150, 199.3359
395.4130, 147.1860
396.6110, 135.8530
397.8090, 117.6987
399.0060, 127.4771
400.2040, 140.5327
401.4010, 173.3271
402.5980, 60.73193
403.7950, 232.4126
404.9920, 230.3652
406.1890, 146.9121
407.3860, 153.6987
408.5820, 222.5293
409.7780, 230.7979
410.9740, 287.2451
412.1700, 153.0879
413.3650, 166.8740
414.5610, 179.8076
415.7560, 156.2534
416.9510, 144.9009
418.1460, 181.4409
419.3410, 136.9907
420.5360, 122.5273
421.7300, 66.21875
422.9240, 39.11572
424.1180, 79.50146
425.3120, 21.41162
426.5060, 62.52734
427.7000, 65.48730
428.8930, 3.151855
430.0860, 29.19238
431.2790, 58.73145
432.4720, 96.79834
433.6650, 10.61914
434.8580, 97.52686
436.0500, 67.46631
437.2420, 27.86719
438.4340, 157.7939
439.6260, 19.05420
440.8180, 90.74902
442.0090, 67.18848
443.2010, 28.92676
444.3920, 19.46289
445.5830, 147.5059
446.7740, 84.35400
447.9640, 56.60986
449.1550, 67.89355
450.3450, 95.09424
451.5350, 52.61719
452.7250, 124.4624
453.9150, 154.6802
455.1050, 24.61377
456.2940, 65.32520
457.4830, 157.9956
458.6720, 119.9463
459.8610, 126.8398
461.0500, 141.3887
462.2390, 124.2876
463.4270, 220.5000
464.6150, 179.3472
465.8040, 72.24316
466.9910, 172.1211
468.1790, 110.5078
469.3670, 37.74707
470.5540, 196.8252
471.7410, 174.7231
472.9280, 109.9058
474.1150, 171.9365
475.3020, 141.0811
476.4890, 224.5093
477.6750, 169.9858
478.8610, 257.8584
480.0470, 114.2925
481.2330, 200.0698
482.4190, 156.8447
483.6040, 182.6982
484.7900, 21.78467
485.9750, 192.0361
487.1600, 196.0181
488.3450, 157.6245
489.5290, 153.0625
490.7140, 152.5415
491.8980, 231.9414
493.0820, 309.1895
494.2660, 248.6748
495.4500, 228.9443
496.6340, 237.3555
497.8170, 313.6934
499.0010, 153.8130
500.1840, 209.0767
501.3670, 331.1079
502.5500, 293.8438
503.7320, 318.6890
504.9150, 310.2153
506.0970, 381.0352
507.2790, 133.6108
508.4610, 157.1226
509.6430, 293.7061
510.8250, 196.4053
512.0060, 243.1797
513.1870, 311.9072
514.3680, 215.5859
515.5490, 215.2158
516.7300, 268.7930
517.9110, 204.3223
519.0910, 298.7988
520.2710, 198.2246
521.4510, 182.5986
522.6310, 179.9238
523.8110, 275.1963
524.9910, 222.4189
526.1700, 233.5898
527.3490, 114.1416
528.5280, 191.8057
529.7070, 93.62305
530.8860, 208.3496
532.0650, 146.1572
533.2430, 180.4883
534.4210, 169.0928
535.5990, 165.6162
536.7770, 106.4082
537.9550, 184.4180
539.1320, 84.69141
540.3100, 77.14648
541.4870, 90.25977
542.6640, 82.37207
543.8410, 207.5576
545.0170, 122.2119
546.1940, 60.44336
547.3700, 116.6143
548.5470, 84.44336
549.7230, 65.23340
550.8980, 191.2178
552.0740, 140.1465
553.2500, 25.77344
554.4250, 42.67188
555.6000, 13.01562
556.7750, 107.1445
557.9500, 50.03125
559.1250, 66.76562
560.2990, 56.27832
561.4730, 25.28906
562.6480, 15.36133
563.8220, 48.35840
564.9950, 56.43945
566.1690, 18.19531
567.3430, 100.3936
568.5160, 127.5693
569.6890, 127.7881
570.8620, 119.7480
572.0350, 40.76465
573.2070, 60.09766
574.3800, 10.46777
575.5520, 3.822266
576.7240, 30.87402
577.8960, 99.95801
579.0680, 0.7207030
580.2400, 89.77930
581.4110, 0.7431640
582.5830, 64.23926
583.7540, 191.5371
584.9250, 65.85449
586.0950, 144.6455
587.2660, 142.6035
588.4370, 68.13867
589.6070, 41.62305
590.7770, 27.75391
591.9470, 63.96582
593.1170, 90.66016
594.2860, 14.22559
595.4560, 105.0674
596.6250, 146.7793
597.7940, 23.90723
598.9630, 68.25879
600.1320, 71.01660
601.3000, 144.3262
602.4690, 14.63086
603.6370, 20.54492
604.8050, 41.37891
605.9730, 18.32812
607.1410, 14.44922
608.3090, 117.9092
609.4760, 142.2285
610.6430, 169.1240
611.8100, 201.8809
612.9770, 122.8340
614.1440, 129.8438
615.3110, 109.7070
616.4770, 176.6357
617.6430, 192.4570
618.8090, 267.7021
619.9750, 334.5889
621.1410, 255.5498
622.3070, 272.2764
623.4720, 264.5156
624.6370, 149.3701
625.8020, 366.1758
626.9670, 411.8525
628.1320, 424.3154
629.2970, 362.6006
630.4610, 316.0957
631.6250, 429.3516
632.7890, 477.8125
633.9530, 701.7314
635.1170, 729.0713
636.2810, 698.0723
637.4440, 949.2939
638.6070, 819.9668
639.7700, 1002.076
640.9330, 1141.434
642.0960, 1406.012
643.2590, 1820.905
644.4210, 2200.552
645.5830, 2451.502
646.7450, 2869.133
647.9070, 3199.411
649.0690, 3357.837
650.2310, 3468.211
651.3920, 3531.338
652.5530, 3304.832
653.7140, 3052.498
654.8750, 2496.695
656.0360, 2128.379
657.1970, 1817.996
658.3570, 1229.371
659.5170, 1065.869
660.6770, 994.3555
661.8370, 728.8818
662.9970, 680.4521
664.1570, 553.0176
665.3160, 574.9385
666.4750, 341.0322
667.6340, 383.9736
668.7930, 358.7002
669.9520, 349.2266
671.1110, 271.1592
672.2690, 348.1650
673.4270, 368.7227
674.5850, 356.8350
675.7430, 330.9121
676.9010, 213.3955
678.0590, 414.8125
679.2160, 288.6084
680.3730, 437.2139
681.5300, 619.5049
682.6870, 399.6318
683.8440, 599.6221
685.0010, 500.3018
686.1570, 438.8516
687.3130, 441.6035
688.4690, 384.2197
689.6250, 410.5146
690.7810, 392.1104
691.9370, 321.3496
693.0920, 145.4307
694.2470, 168.2236
695.4020, 216.4053
696.5570, 236.9697
697.7120, 246.6445
698.8670, 82.22754
700.0210, 280.0449
701.1750, 190.2949
702.3290, 206.2812
703.4830, 265.0449
704.6370, 153.9961
705.7910, 251.0098
706.9440, 145.0576
708.0970, 122.9980
709.2510, 28.47852
710.4030, 122.1533
711.5560, 43.05762
712.7090, 208.0957
713.8610, 88.41406
715.0140, 72.41211
716.1660, 257.7090
717.3180, 183.3984
718.4690, 331.0713
719.6210, 186.8164
720.7730, 127.4775
721.9240, 135.3623
723.0750, 74.59180
724.2260, 165.1309
725.3770, 23.96484
726.5270, 34.06250
727.6780, 61.42383
728.8280, 14.38281
729.9780, 62.55469
731.1280, 96.67090
732.2780, 82.54004
733.4280, 49.69922
734.5770, 38.17090
735.7260, 168.8408
736.8760, 34.93848
738.0250, 78.86523
739.1730, 176.6455
740.3220, 10.06934
741.4700, 191.1201
742.6190, 64.83203
743.7670, 244.2197
744.9150, 78.51562
746.0630, 90.68750
747.2100, 51.83398
748.3580, 69.95215
749.5050, 18.95020
750.6520, 161.2305
751.7990, 66.38867
752.9460, 147.6201
754.0930, 85.52344
755.2390, 180.0957
756.3860, 20.54980
757.5320, 168.0654
758.6780, 37.72754
759.8240, 134.6475
760.9690, 57.23340
762.1150, 54.44141
763.2600, 121.7842
764.4060, 75.85938
765.5510, 115.7266
766.6950, 106.1387
767.8400, 36.08496
768.9850, 76.44336
770.1290, 91.11328
771.2730, 248.1660
772.4170, 105.2520
773.5610, 150.3232
774.7050, 89.16992
775.8480, 245.6904
776.9920, 240.0869
778.1350, 220.9482
779.2780, 11.37500
780.4210, 132.3047
781.5640, 181.2168
782.7060, 94.13867
783.8490, 154.7461
784.9910, 73.60449
786.1330, 46.12305
787.2750, 175.4014
788.4170, 129.5107
789.5580, 71.39648
790.7000, 60.04004
791.8410, 83.91113
792.9820, 189.4990
794.1230, 26.15039
795.2640, 220.2139
796.4040, 259.4434
797.5450, 156.5352
798.6850, 9.246094
799.8250, 83.13281
800.9650, 171.1162
802.1050, 255.5098
803.2450, 207.9834
804.3840, 113.7852
805.5230, 225.1572
806.6630, 396.5322
807.8020, 157.1807
808.9400, 300.2236
810.0790, 185.0674
811.2170, 42.06445
812.3560, 249.0088
813.4940, 74.60840
814.6320, 150.2549
815.7700, 180.5664
816.9070, 200.4434
818.0450, 47.35645
819.1820, 282.6533
820.3190, 183.2539
821.4560, 153.1289
822.5930, 102.8535
823.7300, 91.47070
824.8670, 310.9834
826.0030, 349.3926
827.1390, 144.7070
828.2750, 158.9180
829.4110, 312.8115
830.5470, 126.8828
831.6820, 207.9492
832.8180, 17.11621
833.9530, 99.25488
835.0880, 117.3516
836.2230, 267.6543
837.3580, 137.6846
838.4920, 133.2510
839.6270, 345.7754
840.7610, 153.4717
841.8950, 221.6211
843.0290, 133.0840
844.1630, 164.9961
845.2960, 253.7090
846.4300, 177.9297
847.5630, 94.43164
848.6960, 151.1406
849.8290, 119.8438
850.9620, 115.9434
852.0940, 73.87109
853.2270, 264.4609
854.3590, 123.6348
855.4910, 22.32031
856.6230, 325.2891
857.7550, 102.9082
858.8870, 126.4492
860.0180, 143.6230
861.1500, 353.0684
862.2810, 68.76367
863.4120, 117.4395
864.5430, 209.1211
865.6730, 80.51562
866.8040, 104.0098
867.9340, 175.5371
869.0640, 278.8984
870.1940, 40.97852
871.3240, 210.9434
872.4540, 86.30273
873.5830, 57.00195
874.7130, 64.77148
875.8420, 176.8340
876.9710, 148.0469
878.1000, 120.9609
879.2290, 22.75586
880.3570, 229.1367
881.4860, 71.77148
882.6140, 33.80078
883.7420, 33.14062
884.8700, 118.4414
885.9980, 76.64648
887.1250, 224.3828
888.2530, 23.61133
889.3800, 41.06055
890.5070, 1.132813
891.6340, 128.4707
892.7610, 15.98047
893.8880, 68.03516
895.0140, 128.2969
896.1400, 181.9746
897.2670, 242.7773
898.3930, 20.89453
899.5180, 172.1738
900.6440, 197.1465
901.7700, 70.17188
902.8950, 130.0371
904.0200, 221.4922
905.1450, 147.9648
906.2700, 270.4258
907.3950, 50.13086
908.5190, 219.1816
909.6440, 250.0215
910.7680, 82.83203
911.8920, 86.44531
913.0160, 22.86914
914.1400, 259.1172
915.2630, 112.3066
916.3870, 30.66211
917.5100, 89.24805
918.6330, 123.4805
919.7560, 72.63867
920.8790, 101.3535
922.0010, 27.06641
923.1240, 143.8047
924.2460, 173.3457
925.3680, 5.617188
926.4900, 138.3965
927.6120, 182.6016
928.7340, 26.32422
929.8550, 76.15820
930.9760, 207.7031
932.0980, 2.662109
933.2190, 177.7383
934.3390, 354.3770
935.4600, 47.34766
936.5810, 102.5547
937.7010, 268.2910
938.8210, 16.15234
939.9410, 245.1172
941.0610, 218.5703
942.1810, 358.8438
943.3010, 37.48633
944.4200, 260.6602
945.5390, 212.4609
946.6580, 431.9121
947.7770, 224.7090
948.8960, 102.6816
950.0150, 274.2617
951.1330, 276.0176
952.2510, 325.6445
953.3690, 446.8223
954.4870, 350.1348
955.6050, 498.4043
956.7230, 728.7773
957.8400, 547.7578
958.9580, 525.2578
960.0750, 651.4316
961.1920, 797.7598
962.3090, 695.7266
963.4250, 861.6680
964.5420, 955.1328
965.6580, 1192.248
966.7740, 1462.021
967.8900, 1417.918
969.0060, 1552.059
970.1220, 1469.072
971.2380, 1596.732
972.3530, 1432.494
973.4680, 1447.254
974.5830, 1359.430
975.6980, 1259.951
976.8130, 1323.500
977.9280, 1046.109
979.0420, 977.4668
980.1560, 1175.799
981.2710, 926.7852
982.3850, 1024.977
983.4980, 970.3418
984.6120, 868.0410
985.7260, 860.3125
986.8390, 922.4883
987.9520, 916.3984
989.0650, 862.4824
990.1780, 697.4238
991.2910, 806.3301
992.4030, 655.4688
993.5160, 842.3652
994.6280, 703.2188
995.7400, 694.8594
996.8520, 990.1797
997.9640, 1008.773
999.0750, 897.8906
1000.187, 681.1348
1001.298, 905.2598
1002.409, 987.4590
1003.520, 819.3105
1004.631, 947.5254
1005.741, 885.5645
1006.852, 629.1016
1007.962, 821.7402
1009.072, 772.8340
1010.182, 805.3223
1011.292, 944.6152
1012.402, 910.6680
1013.511, 908.2246
1014.621, 865.5332
1015.730, 791.0703
1016.839, 934.5547
1017.948, 1160.979
1019.056, 1457.420
1020.165, 1558.451
1021.273, 1709.617
1022.382, 1884.982
1023.490, 1944.332
1024.598, 1987.252
1025.706, 2059.445
1026.813, 1790.209
1027.921, 1452.348
1029.028, 1408.777
1030.135, 1084.328
1031.242, 838.0586
1032.349, 1025.438
1033.456, 639.6738
1034.562, 537.9219
1035.668, 740.3984
1036.775, 525.1426
1037.881, 221.1719
1038.987, 476.7910
1040.092, 280.8164
1041.198, 263.6094
1042.303, 117.2168
1043.408, 247.8203
1044.514, 182.5469
1045.618, 192.1992
1046.723, 52.27734
1047.828, 409.4863
1048.932, 114.9805
1050.037, 14.63086
1051.141, 170.4766
1052.245, 218.7031
1053.349, 213.4766
1054.452, 188.3984
1055.556, 207.3691
1056.659, 211.4727
1057.762, 244.4531
1058.865, 74.52148
1059.968, 38.08984
1061.071, 65.20312
1062.174, 25.26367
1063.276, 125.4531
1064.378, 70.01953
1065.480, 1.523438
1066.582, 0.6875000
1067.684, 40.31055
1068.786, 53.98633
1069.887, 145.0234
1070.988, 118.5781
1072.090, 14.17188
1073.191, 111.8340
1074.291, 287.1758
1075.392, 175.1758
1076.493, 164.6738
1077.593, 121.1484
1078.693, 70.34766
1079.793, 135.3789
1080.893, 135.3633
1081.993, 282.2461
1083.092, 249.0156
1084.192, 22.31836
1085.291, 194.2363
1086.390, 152.6406
1087.489, 84.92969
1088.588, 53.12695
1089.686, 226.1719
1090.785, 99.11328
1091.883, 345.9414
1092.981, 107.6816
1094.079, 47.33594
1095.177, 184.9043
1096.275, 192.3848
1097.373, 19.77734
1098.470, 56.09570
1099.567, 157.3320
1100.664, 57.51367
1101.761, 65.56445
1102.858, 57.56641
1103.954, 84.53906
1105.051, 255.4492
1106.147, 348.3047
1107.243, 51.90430
1108.339, 110.8691
1109.435, 208.6602
1110.531, 85.46484
1111.626, 30.23047
1112.722, 381.9727
1113.817, 191.7031
1114.912, 192.4160
1116.007, 301.1113
1117.101, 140.7891
1118.196, 433.4570
1119.290, 422.1230
1120.385, 134.2168
1121.479, 226.4395
1122.573, 560.2070
1123.666, 271.1836
1124.760, 416.9902
1125.853, 441.5488
1126.947, 365.5469
1128.040, 418.6309
1129.133, 297.9219
1130.226, 54.49219
1131.318, 250.1914
1132.411, 278.5957
1133.503, 427.5918
1134.596, 194.2773
1135.688, 310.0605
1136.780, 249.3398
1137.871, 221.3281
1138.963, 114.7598
1140.054, 235.0977
1141.146, 436.4297
1142.237, 353.9121
1143.328, 355.5215
1144.419, 227.1406
1145.509, 311.4004
1146.600, 12.57422
1147.690, 298.5508
1148.780, 291.6992
1149.870, 330.3809
1150.960, 217.9375
1152.050, 69.16602
1153.139, 256.4727
1154.229, 249.5098
1155.318, 140.6758
1156.407, 59.61914
1157.496, 346.5508
1158.585, 256.4844
1159.674, 219.7090
1160.762, 206.2852
1161.850, 250.6328
1162.939, 230.2266
1164.027, 373.4805
1165.114, 343.9453
1166.202, 500.9688
1167.290, 251.6836
1168.377, 176.6016
1169.464, 271.9258
1170.551, 236.7734
1171.638, 159.0430
1172.725, 328.9766
1173.812, 209.3789
1174.898, 318.6953
1175.984, 222.2344
1177.071, 65.97656
1178.157, 318.2500
1179.242, 158.7227
1180.328, 62.88672
1181.414, 277.0664
1182.499, 216.1758
1183.584, 314.3711
1184.669, 163.7031
1185.754, 258.1172
1186.839, 25.63281
1187.924, 94.81250
1189.008, 441.2383
1190.092, 355.3633
1191.177, 423.9805
1192.260, 142.0664
1193.344, 11.14844
1194.428, 324.9844
1195.512, 145.2266
1196.595, 347.7383
1197.678, 103.3008
1198.761, 153.9180
1199.844, 0.0000000E+00
##END=



