##NAMES=Pectolite
##RRUFFID=R050396
##IDEAL CHEMISTRY=NaCa_2_Si_3_O_8_(OH)
##LOCALITY=Jeffrey Quarry, Asbestos, Quebec, Canada
##OWNER=RRUFF
##SOURCE=Marcus Origlieri
##DESCRIPTION=Colorless to gray columnar blocky crystals
##STATUS=The identification of this mineral has been confirmed by X-ray diffraction and chemical analysis
##URL=rruff.info/R050396
##MEASURED CHEMISTRY=Na_1.00_Ca_2.00_Si_3.00_O_8_(OH)
##PIN_ID=L01067
##ORIENTATION=Laser parallel to a* (1 0 0). Fiducial mark perpendicular to laser is parallel to -b [0 -1 0]
118.9350, 0.0000000E+00
120.1730, 35.98682
121.4100, 88.29248
122.6480, 67.09766
123.8850, 5.196289
125.1230, 35.66162
126.3600, 52.61719
127.5960, 38.97998
128.8330, 135.2817
130.0700, 224.1729
131.3060, 259.3916
132.5420, 356.7334
133.7780, 356.0410
135.0140, 375.1924
136.2500, 493.1045
137.4850, 626.6846
138.7200, 664.8535
139.9550, 698.5439
141.1900, 736.5801
142.4250, 727.0566
143.6600, 760.2305
144.8940, 673.5332
146.1280, 709.1523
147.3620, 636.0674
148.5960, 606.2607
149.8300, 605.7158
151.0630, 572.5107
152.2960, 382.6094
153.5300, 366.8896
154.7620, 313.3438
155.9950, 302.9609
157.2280, 281.7275
158.4600, 220.6250
159.6920, 184.6455
160.9250, 174.7764
162.1560, 94.01758
163.3880, 152.3691
164.6200, 179.8477
165.8510, 118.4375
167.0820, 128.1240
168.3130, 191.9004
169.5440, 194.7646
170.7750, 141.7119
172.0050, 135.7363
173.2350, 132.8340
174.4650, 168.0830
175.6950, 117.4346
176.9250, 126.8682
178.1550, 55.37598
179.3840, 113.0225
180.6130, 201.7070
181.8420, 173.4287
183.0710, 376.2227
184.3000, 215.9209
185.5280, 319.6562
186.7570, 266.4248
187.9850, 199.2246
189.2130, 217.0908
190.4400, 80.09277
191.6680, 198.1162
192.8960, 162.1455
194.1230, 26.14355
195.3500, 141.1211
196.5770, 163.0879
197.8030, 193.0537
199.0300, 213.0244
200.2560, 105.0059
201.4830, 274.0029
202.7090, 233.0352
203.9340, 263.1250
205.1600, 100.3457
206.3860, 234.6602
207.6110, 123.9834
208.8360, 188.9043
210.0610, 184.2471
211.2860, 53.01758
212.5100, 96.48438
213.7350, 227.9883
214.9590, 181.5039
216.1830, 134.0537
217.4070, 196.6143
218.6310, 183.2109
219.8540, 314.7861
221.0780, 266.3887
222.3010, 285.0010
223.5240, 369.6230
224.7470, 183.2549
225.9690, 358.9004
227.1920, 243.5547
228.4140, 136.0938
229.6360, 191.8887
230.8580, 165.6572
232.0800, 120.2969
233.3020, 116.9473
234.5230, 16.83691
235.7440, 105.4785
236.9650, 94.12207
238.1860, 2.022461
239.4070, 97.62793
240.6280, 74.23730
241.8480, 36.85352
243.0680, 155.4766
244.2880, 58.10352
245.5080, 74.26562
246.7280, 29.37207
247.9470, 152.0195
249.1660, 90.66699
250.3860, 28.31055
251.6040, 119.9531
252.8230, 24.59570
254.0420, 81.23340
255.2600, 110.8750
256.4790, 169.5010
257.6970, 134.1475
258.9150, 159.5654
260.1320, 191.3174
261.3500, 219.9277
262.5670, 152.5498
263.7840, 246.1650
265.0010, 146.7822
266.2180, 179.7432
267.4350, 345.9521
268.6510, 292.3281
269.8680, 383.8555
271.0840, 466.4277
272.3000, 331.1914
273.5160, 383.0498
274.7310, 427.9902
275.9470, 395.0635
277.1620, 342.2178
278.3770, 267.4961
279.5920, 240.8066
280.8070, 287.2520
282.0210, 156.7881
283.2360, 203.1562
284.4500, 153.1230
285.6640, 175.5166
286.8780, 152.9375
288.0920, 89.14160
289.3050, 69.07617
290.5180, 7.950195
291.7320, 193.5723
292.9450, 71.11914
294.1570, 3.838867
295.3700, 89.42676
296.5830, 4.645508
297.7950, 10.85938
299.0070, 58.80469
300.2190, 12.59863
301.4310, 8.637695
302.6420, 211.4385
303.8540, 38.07617
305.0650, 169.8975
306.2760, 186.8936
307.4870, 164.9980
308.6980, 118.7891
309.9080, 227.0078
311.1190, 160.2227
312.3290, 197.2598
313.5390, 242.2588
314.7490, 366.0947
315.9580, 278.5879
317.1680, 376.6143
318.3770, 128.7686
319.5860, 373.6182
320.7950, 243.4688
322.0040, 236.3213
323.2130, 232.3838
324.4210, 129.5107
325.6290, 344.3906
326.8380, 292.2402
328.0460, 218.0859
329.2530, 122.3477
330.4610, 215.2822
331.6680, 219.7646
332.8760, 182.5811
334.0830, 39.48242
335.2890, 154.5947
336.4960, 46.48633
337.7030, 158.6367
338.9090, 19.03613
340.1150, 71.74902
341.3210, 18.41016
342.5270, 71.78906
343.7330, 123.8389
344.9380, 90.93652
346.1440, 52.83984
347.3490, 173.8496
348.5540, 35.14648
349.7590, 164.6475
350.9630, 180.3672
352.1680, 60.08105
353.3720, 81.78711
354.5760, 46.47949
355.7800, 62.83496
356.9840, 26.82324
358.1870, 55.47363
359.3910, 94.11328
360.5940, 120.5342
361.7970, 99.86523
363.0000, 141.7832
364.2030, 146.6240
365.4050, 161.4121
366.6080, 207.1904
367.8100, 228.9414
369.0120, 146.7158
370.2140, 159.5098
371.4150, 147.4033
372.6170, 146.4160
373.8180, 100.3838
375.0190, 132.2783
376.2200, 131.8711
377.4210, 155.3203
378.6220, 221.7578
379.8220, 189.1699
381.0230, 121.6904
382.2230, 189.0889
383.4230, 39.74121
384.6220, 81.10938
385.8220, 130.4395
387.0220, 122.9033
388.2210, 70.65039
389.4200, 109.5254
390.6190, 102.3545
391.8180, 78.92480
393.0160, 209.5566
394.2150, 35.88867
395.4130, 52.60547
396.6110, 88.17773
397.8090, 105.7627
399.0060, 57.52246
400.2040, 38.34668
401.4010, 154.9375
402.5980, 188.1523
403.7950, 190.3467
404.9920, 135.5957
406.1890, 66.88477
407.3860, 95.72656
408.5820, 101.0625
409.7780, 114.8125
410.9740, 118.5957
412.1700, 125.2725
413.3650, 113.1025
414.5610, 127.1328
415.7560, 120.4521
416.9510, 103.4170
418.1460, 101.2217
419.3410, 67.61816
420.5360, 66.55371
421.7300, 51.99707
422.9240, 44.36914
424.1180, 54.19922
425.3120, 30.69141
426.5060, 81.90723
427.7000, 7.598633
428.8930, 110.6797
430.0860, 13.09375
431.2790, 8.826172
432.4720, 19.71191
433.6650, 129.5762
434.8580, 2.647461
436.0500, 107.5166
437.2420, 71.53125
438.4340, 140.8184
439.6260, 36.68750
440.8180, 79.91602
442.0090, 162.6875
443.2010, 96.81152
444.3920, 40.06055
445.5830, 37.57812
446.7740, 5.499023
447.9640, 23.97852
449.1550, 67.82617
450.3450, 50.34180
451.5350, 194.1641
452.7250, 47.55176
453.9150, 9.839844
455.1050, 96.96680
456.2940, 108.3975
457.4830, 184.0645
458.6720, 29.38672
459.8610, 109.1172
461.0500, 80.74707
462.2390, 215.3867
463.4270, 192.8760
464.6150, 163.1758
465.8040, 109.4805
466.9910, 96.00879
468.1790, 156.3262
469.3670, 168.1455
470.5540, 167.2061
471.7410, 62.29590
472.9280, 141.4238
474.1150, 34.79883
475.3020, 189.9053
476.4890, 152.1484
477.6750, 102.7236
478.8610, 149.8262
480.0470, 96.76367
481.2330, 48.46777
482.4190, 198.7373
483.6040, 163.2656
484.7900, 76.17969
485.9750, 111.6553
487.1600, 100.4756
488.3450, 147.1357
489.5290, 121.5312
490.7140, 122.8984
491.8980, 169.0068
493.0820, 255.8535
494.2660, 268.3916
495.4500, 292.4170
496.6340, 367.9541
497.8170, 234.1914
499.0010, 271.9258
500.1840, 200.1035
501.3670, 197.2559
502.5500, 138.3818
503.7320, 130.2783
504.9150, 122.5430
506.0970, 139.5771
507.2790, 151.5801
508.4610, 151.9707
509.6430, 157.3350
510.8250, 150.4092
512.0060, 144.2881
513.1870, 119.1367
514.3680, 88.85352
515.5490, 94.74219
516.7300, 102.5000
517.9110, 186.2236
519.0910, 249.9170
520.2710, 324.5791
521.4510, 256.2080
522.6310, 186.8037
523.8110, 214.3662
524.9910, 146.8975
526.1700, 213.3965
527.3490, 246.8613
528.5280, 186.2959
529.7070, 117.0684
530.8860, 84.82422
532.0650, 52.30078
533.2430, 153.9463
534.4210, 137.2109
535.5990, 206.8721
536.7770, 163.7568
537.9550, 88.35742
539.1320, 133.4775
540.3100, 99.91113
541.4870, 56.58594
542.6640, 117.5469
543.8410, 78.48340
545.0170, 203.3945
546.1940, 183.2393
547.3700, 171.0518
548.5470, 48.82910
549.7230, 154.5654
550.8980, 95.26465
552.0740, 57.92383
553.2500, 140.0469
554.4250, 145.2139
555.6000, 52.67480
556.7750, 91.16699
557.9500, 34.47461
559.1250, 48.73535
560.2990, 127.1152
561.4730, 39.39355
562.6480, 52.81543
563.8220, 182.4092
564.9950, 40.92676
566.1690, 91.01172
567.3430, 154.2686
568.5160, 84.39355
569.6890, 128.1689
570.8620, 137.3389
572.0350, 118.9561
573.2070, 148.2070
574.3800, 133.5615
575.5520, 81.88867
576.7240, 160.4268
577.8960, 122.8174
579.0680, 55.73535
580.2400, 8.780273
581.4110, 16.38672
582.5830, 28.01270
583.7540, 13.77441
584.9250, 72.42969
586.0950, 119.3740
587.2660, 101.3398
588.4370, 188.2383
589.6070, 107.1836
590.7770, 26.36426
591.9470, 79.36816
593.1170, 40.93652
594.2860, 213.3574
595.4560, 35.02051
596.6250, 174.6768
597.7940, 112.8418
598.9630, 192.5283
600.1320, 88.39062
601.3000, 107.4688
602.4690, 98.85938
603.6370, 129.7715
604.8050, 170.4258
605.9730, 165.4590
607.1410, 106.7139
608.3090, 150.9717
609.4760, 308.1572
610.6430, 201.6846
611.8100, 189.3594
612.9770, 173.7158
614.1440, 109.8193
615.3110, 167.3379
616.4770, 129.2344
617.6430, 52.43164
618.8090, 150.9355
619.9750, 148.5137
621.1410, 233.1113
622.3070, 123.4590
623.4720, 329.2031
624.6370, 217.6191
625.8020, 330.4590
626.9670, 196.6445
628.1320, 229.2500
629.2970, 452.6328
630.4610, 384.1094
631.6250, 321.8633
632.7890, 332.8203
633.9530, 244.7031
635.1170, 492.2773
636.2810, 447.3359
637.4440, 543.7500
638.6070, 527.9961
639.7700, 699.9375
640.9330, 901.7598
642.0960, 840.3066
643.2590, 1137.125
644.4210, 1346.621
645.5830, 1587.303
646.7450, 1714.406
647.9070, 1899.109
649.0690, 2158.299
650.2310, 2517.889
651.3920, 2594.559
652.5530, 2463.023
653.7140, 2313.252
654.8750, 1979.838
656.0360, 1692.119
657.1970, 1336.307
658.3570, 1143.387
659.5170, 1039.533
660.6770, 700.3027
661.8370, 562.5977
662.9970, 670.6113
664.1570, 497.4688
665.3160, 422.3535
666.4750, 420.5625
667.6340, 390.8945
668.7930, 228.4121
669.9520, 224.1875
671.1110, 281.7305
672.2690, 236.6094
673.4270, 331.9629
674.5850, 217.1523
675.7430, 151.0488
676.9010, 303.1660
678.0590, 343.9609
679.2160, 238.8555
680.3730, 168.8145
681.5300, 343.4160
682.6870, 456.2402
683.8440, 458.8164
685.0010, 501.3926
686.1570, 413.7324
687.3130, 411.6191
688.4690, 422.6895
689.6250, 440.5781
690.7810, 324.4844
691.9370, 202.3613
693.0920, 186.3008
694.2470, 106.9297
695.4020, 91.24609
696.5570, 125.7891
697.7120, 126.9434
698.8670, 339.9258
700.0210, 471.5234
701.1750, 286.1328
702.3290, 226.8750
703.4830, 226.3379
704.6370, 88.91602
705.7910, 252.1250
706.9440, 324.2500
708.0970, 365.3594
709.2510, 295.2070
710.4030, 124.4805
711.5560, 87.75977
712.7090, 122.4512
713.8610, 139.5254
715.0140, 147.6660
716.1660, 195.5547
717.3180, 262.7812
718.4690, 153.0137
719.6210, 339.2969
720.7730, 332.9180
721.9240, 160.2363
723.0750, 125.7539
724.2260, 186.1816
725.3770, 99.87891
726.5270, 222.2812
727.6780, 160.2227
728.8280, 228.1680
729.9780, 73.21289
731.1280, 248.4668
732.2780, 11.58398
733.4280, 51.61523
734.5770, 102.9453
735.7260, 220.1250
736.8760, 2.466797
738.0250, 156.0332
739.1730, 206.6406
740.3220, 329.7344
741.4700, 268.0723
742.6190, 81.31445
743.7670, 30.76172
744.9150, 102.8750
746.0630, 314.7402
747.2100, 142.7715
748.3580, 296.4043
749.5050, 250.0957
750.6520, 211.1406
751.7990, 100.0664
752.9460, 97.49219
754.0930, 163.1465
755.2390, 281.3574
756.3860, 153.6367
757.5320, 171.0996
758.6780, 349.9668
759.8240, 104.4668
760.9690, 142.9277
762.1150, 179.2305
763.2600, 33.44727
764.4060, 12.60547
765.5510, 61.28125
766.6950, 128.3281
767.8400, 78.01562
768.9850, 103.4434
770.1290, 33.79297
771.2730, 44.93555
772.4170, 79.40430
773.5610, 180.5195
774.7050, 323.2461
775.8480, 364.2188
776.9920, 177.2305
778.1350, 26.60156
779.2780, 49.91016
780.4210, 116.4688
781.5640, 171.4121
782.7060, 106.7500
783.8490, 249.1562
784.9910, 104.5371
786.1330, 35.81055
787.2750, 114.8867
788.4170, 314.4805
789.5580, 105.0078
790.7000, 122.9297
791.8410, 6.761719
792.9820, 76.56445
794.1230, 89.83398
795.2640, 180.9414
796.4040, 178.1113
797.5450, 255.6211
798.6850, 410.1680
799.8250, 143.2793
800.9650, 193.6719
802.1050, 105.6738
803.2450, 320.2754
804.3840, 69.72070
805.5230, 189.9238
806.6630, 282.7930
807.8020, 291.7148
808.9400, 16.09375
810.0790, 136.8789
811.2170, 145.2266
812.3560, 279.2422
813.4940, 178.3242
814.6320, 171.9844
815.7700, 179.6387
816.9070, 115.1738
818.0450, 146.8496
819.1820, 141.1621
820.3190, 69.79297
821.4560, 61.66406
822.5930, 72.30469
823.7300, 121.2539
824.8670, 168.0664
826.0030, 89.89648
827.1390, 235.6484
828.2750, 185.3340
829.4110, 1.558594
830.5470, 196.3887
831.6820, 43.92773
832.8180, 140.3281
833.9530, 215.7988
835.0880, 71.20312
836.2230, 208.3691
837.3580, 28.54102
838.4920, 45.73242
839.6270, 248.7324
840.7610, 70.12500
841.8950, 183.8789
843.0290, 58.25781
844.1630, 168.8613
845.2960, 262.4570
846.4300, 153.8145
847.5630, 119.3945
848.6960, 274.7598
849.8290, 155.1855
850.9620, 6.615234
852.0940, 211.0059
853.2270, 156.5273
854.3590, 146.2637
855.4910, 294.4727
856.6230, 323.4121
857.7550, 205.2812
858.8870, 401.3867
860.0180, 370.2969
861.1500, 96.40039
862.2810, 56.92969
863.4120, 86.14648
864.5430, 212.8906
865.6730, 235.8477
866.8040, 98.05469
867.9340, 206.0352
869.0640, 73.91602
870.1940, 108.0176
871.3240, 104.1953
872.4540, 225.7793
873.5830, 46.90039
874.7130, 101.3203
875.8420, 225.6465
876.9710, 142.7754
878.1000, 180.2266
879.2290, 153.8047
880.3570, 208.8926
881.4860, 191.2754
882.6140, 28.79297
883.7420, 132.3262
884.8700, 277.4258
885.9980, 163.2695
887.1250, 21.88477
888.2530, 196.9648
889.3800, 181.9766
890.5070, 47.19922
891.6340, 113.8438
892.7610, 158.8105
893.8880, 71.78125
895.0140, 197.4062
896.1400, 283.9668
897.2670, 54.55664
898.3930, 157.2949
899.5180, 218.1406
900.6440, 39.67578
901.7700, 27.36914
902.8950, 154.8965
904.0200, 172.0762
905.1450, 86.64453
906.2700, 89.42188
907.3950, 28.02539
908.5190, 72.66992
909.6440, 132.7773
910.7680, 297.4219
911.8920, 59.14648
913.0160, 168.1934
914.1400, 162.1250
915.2630, 85.27734
916.3870, 213.0156
917.5100, 101.8320
918.6330, 80.50195
919.7560, 75.37305
920.8790, 17.94336
922.0010, 99.85938
923.1240, 208.5547
924.2460, 208.4473
925.3680, 95.48047
926.4900, 39.51758
927.6120, 29.86133
928.7340, 39.49805
929.8550, 35.12305
930.9760, 24.08984
932.0980, 86.98828
933.2190, 294.5840
934.3390, 143.3457
935.4600, 297.1191
936.5810, 133.8945
937.7010, 211.2480
938.8210, 231.4707
939.9410, 270.4688
941.0610, 243.5312
942.1810, 210.1621
943.3010, 141.0664
944.4200, 217.3398
945.5390, 147.4238
946.6580, 60.54492
947.7770, 67.20117
948.8960, 239.6230
950.0150, 46.47852
951.1330, 168.1914
952.2510, 360.6191
953.3690, 268.0547
954.4870, 173.4043
955.6050, 103.2461
956.7230, 250.9375
957.8400, 171.7734
958.9580, 73.74805
960.0750, 538.8555
961.1920, 409.5117
962.3090, 486.7773
963.4250, 489.7793
964.5420, 542.9551
965.6580, 659.8984
966.7740, 701.7480
967.8900, 850.3125
969.0060, 871.0469
970.1220, 1081.691
971.2380, 979.3926
972.3530, 947.0156
973.4680, 931.2188
974.5830, 723.1523
975.6980, 850.0078
976.8130, 797.6855
977.9280, 1102.555
979.0420, 646.9395
980.1560, 834.5684
981.2710, 601.5137
982.3850, 436.2168
983.4980, 590.9902
984.6120, 380.4980
985.7260, 433.1367
986.8390, 449.3184
987.9520, 616.3105
989.0650, 594.2422
990.1780, 334.6152
991.2910, 336.8750
992.4030, 296.2578
993.5160, 448.3926
994.6280, 424.8418
995.7400, 487.5215
996.8520, 561.8809
997.9640, 416.2422
999.0750, 582.2422
1000.187, 618.6582
1001.298, 417.5430
1002.409, 158.5254
1003.520, 489.0000
1004.631, 447.1777
1005.741, 277.3379
1006.852, 266.0371
1007.962, 162.4453
1009.072, 362.7930
1010.182, 133.8965
1011.292, 326.1504
1012.402, 315.0879
1013.511, 356.8262
1014.621, 464.4160
1015.730, 370.6074
1016.839, 588.9941
1017.948, 574.4316
1019.056, 606.4766
1020.165, 611.4160
1021.273, 621.3809
1022.382, 681.2305
1023.490, 887.0137
1024.598, 779.2832
1025.706, 706.4805
1026.813, 704.4648
1027.921, 507.9297
1029.028, 468.2871
1030.135, 330.9668
1031.242, 334.6543
1032.349, 489.7891
1033.456, 282.8926
1034.562, 274.9961
1035.668, 265.0684
1036.775, 115.1270
1037.881, 243.2070
1038.987, 92.24805
1040.092, 153.1953
1041.198, 319.0781
1042.303, 175.8574
1043.408, 188.5723
1044.514, 158.2676
1045.618, 131.2832
1046.723, 263.4766
1047.828, 147.9766
1048.932, 99.42188
1050.037, 121.8184
1051.141, 34.82031
1052.245, 237.4863
1053.349, 4.998047
1054.452, 107.3457
1055.556, 85.97070
1056.659, 162.3008
1057.762, 133.5957
1058.865, 135.9141
1059.968, 283.3750
1061.071, 342.9707
1062.174, 312.4121
1063.276, 214.0820
1064.378, 272.9121
1065.480, 54.09961
1066.582, 94.34180
1067.684, 105.6816
1068.786, 223.0312
1069.887, 234.4512
1070.988, 139.4551
1072.090, 186.5078
1073.191, 92.83984
1074.291, 145.3457
1075.392, 241.6523
1076.493, 229.0664
1077.593, 217.8086
1078.693, 222.2676
1079.793, 165.2988
1080.893, 211.9238
1081.993, 64.07227
1083.092, 285.9141
1084.192, 74.30273
1085.291, 323.1113
1086.390, 474.0000
1087.489, 224.9844
1088.588, 191.0723
1089.686, 37.88477
1090.785, 158.3184
1091.883, 195.9531
1092.981, 119.5762
1094.079, 190.9531
1095.177, 155.2578
1096.275, 217.7539
1097.373, 68.66797
1098.470, 3.371094
1099.567, 256.4922
1100.664, 225.4336
1101.761, 0.0000000E+00
##END=



