##NAMES=Pectolite
##RRUFFID=R050396
##IDEAL CHEMISTRY=NaCa_2_Si_3_O_8_(OH)
##LOCALITY=Jeffrey Quarry, Asbestos, Quebec, Canada
##OWNER=RRUFF
##SOURCE=Marcus Origlieri
##DESCRIPTION=Colorless to gray columnar blocky crystals
##STATUS=The identification of this mineral has been confirmed by X-ray diffraction and chemical analysis
##URL=rruff.info/R050396
##MEASURED CHEMISTRY=Na_1.00_Ca_2.00_Si_3.00_O_8_(OH)
##PIN_ID=M00091
##ORIENTATION=Laser parallel to (0 -1 -1). Fiducial mark perpendicular to laser is parallel to a [1 0 0]
115.2200, 0.0000000E+00
116.4580, 2.370605
117.6970, 106.8076
118.9350, 33.97168
120.1730, 14.52051
121.4100, 28.29688
122.6480, 2.834961
123.8850, 1.777344
125.1230, 60.87500
126.3600, 69.30566
127.5960, 91.99658
128.8330, 254.0293
130.0700, 210.0073
131.3060, 310.9473
132.5420, 532.8770
133.7780, 559.8027
135.0140, 695.7139
136.2500, 706.6016
137.4850, 951.4756
138.7200, 1023.404
139.9550, 1097.574
141.1900, 1173.292
142.4250, 1213.180
143.6600, 1183.994
144.8940, 1121.783
146.1280, 1041.623
147.3620, 991.5361
148.5960, 1023.498
149.8300, 777.5610
151.0630, 798.5674
152.2960, 530.5186
153.5300, 516.4170
154.7620, 433.2690
155.9950, 251.0786
157.2280, 164.8501
158.4600, 85.59668
159.6920, 105.7520
160.9250, 163.0747
162.1560, 68.92480
163.3880, 19.66748
164.6200, 51.94482
165.8510, 33.00977
167.0820, 71.37939
168.3130, 8.770996
169.5440, 57.16748
170.7750, 14.59863
172.0050, 81.08301
173.2350, 126.6582
174.4650, 91.47461
175.6950, 183.6577
176.9250, 134.1865
178.1550, 103.5967
179.3840, 113.7065
180.6130, 215.6641
181.8420, 107.0435
183.0710, 205.4146
184.3000, 156.9360
185.5280, 209.2026
186.7570, 179.4580
187.9850, 108.6987
189.2130, 125.9258
190.4400, 66.15088
191.6680, 84.37598
192.8960, 62.60254
194.1230, 98.82959
195.3500, 49.05957
196.5770, 150.2910
197.8030, 53.52539
199.0300, 54.76904
200.2560, 107.0190
201.4830, 30.78271
202.7090, 5.209961
203.9340, 88.35400
205.1600, 28.69482
206.3860, 4.023926
207.6110, 1.088379
208.8360, 46.28809
210.0610, 54.64355
211.2860, 82.04346
212.5100, 120.4722
213.7350, 48.06982
214.9590, 10.61963
216.1830, 1.166992
217.4070, 76.28662
218.6310, 117.7393
219.8540, 45.26074
221.0780, 68.77588
222.3010, 134.3921
223.5240, 163.8970
224.7470, 129.1973
225.9690, 86.06494
227.1920, 146.7861
228.4140, 77.28613
229.6360, 77.10938
230.8580, 148.3223
232.0800, 32.48389
233.3020, 112.8662
234.5230, 96.23389
235.7440, 5.418945
236.9650, 175.9102
238.1860, 106.1997
239.4070, 9.438965
240.6280, 18.65625
241.8480, 17.14697
243.0680, 20.02637
244.2880, 63.18555
245.5080, 4.332520
246.7280, 118.4639
247.9470, 82.57275
249.1660, 20.34375
250.3860, 12.72070
251.6040, 40.75781
252.8230, 86.76514
254.0420, 101.7417
255.2600, 153.7715
256.4790, 117.8267
257.6970, 139.7207
258.9150, 100.5952
260.1320, 157.4453
261.3500, 222.2725
262.5670, 151.4580
263.7840, 128.7100
265.0010, 200.9937
266.2180, 187.2949
267.4350, 213.6138
268.6510, 217.9648
269.8680, 241.2437
271.0840, 388.6274
272.3000, 322.9858
273.5160, 315.3428
274.7310, 407.6973
275.9470, 352.0420
277.1620, 334.3765
278.3770, 350.7031
279.5920, 290.2603
280.8070, 258.8179
282.0210, 240.5474
283.2360, 297.8345
284.4500, 91.55518
285.6640, 154.2847
286.8780, 22.20557
288.0920, 5.970215
289.3050, 16.51758
290.5180, 19.60010
291.7320, 108.1899
292.9450, 84.93457
294.1570, 212.4561
295.3700, 35.20361
296.5830, 16.26318
297.7950, 22.11914
299.0070, 137.5464
300.2190, 101.3833
301.4310, 201.3027
302.6420, 123.8906
303.8540, 190.6763
305.0650, 272.1025
306.2760, 290.7983
307.4870, 363.2979
308.6980, 310.7803
309.9080, 356.1294
311.1190, 456.3354
312.3290, 435.7529
313.5390, 486.4102
314.7490, 495.9160
315.9580, 610.5044
317.1680, 581.0806
318.3770, 594.6914
319.5860, 475.0015
320.7950, 393.5474
322.0040, 455.8027
323.2130, 333.2539
324.4210, 339.3003
325.6290, 233.8462
326.8380, 213.3228
328.0460, 120.5562
329.2530, 161.0679
330.4610, 192.9917
331.6680, 89.07178
332.8760, 50.26660
334.0830, 26.90088
335.2890, 29.14062
336.4960, 10.47363
337.7030, 116.8447
338.9090, 30.71484
340.1150, 86.70361
341.3210, 7.067871
342.5270, 8.533203
343.7330, 41.34814
344.9380, 119.3740
346.1440, 77.37598
347.3490, 91.04932
348.5540, 172.9023
349.7590, 180.8960
350.9630, 217.5425
352.1680, 226.1309
353.3720, 314.4536
354.5760, 344.7705
355.7800, 371.5195
356.9840, 293.9043
358.1870, 339.0303
359.3910, 300.8584
360.5940, 326.0415
361.7970, 277.2075
363.0000, 356.4814
364.2030, 298.4482
365.4050, 284.8057
366.6080, 300.8877
367.8100, 472.7808
369.0120, 579.0459
370.2140, 622.4932
371.4150, 683.1680
372.6170, 842.7461
373.8180, 881.2368
375.0190, 991.5527
376.2200, 889.6069
377.4210, 908.6450
378.6220, 961.4795
379.8220, 768.4902
381.0230, 724.7686
382.2230, 579.0439
383.4230, 303.2876
384.6220, 372.5977
385.8220, 182.1328
387.0220, 198.2349
388.2210, 176.7842
389.4200, 200.8960
390.6190, 195.8237
391.8180, 164.9517
393.0160, 244.3232
394.2150, 150.7842
395.4130, 203.3184
396.6110, 275.6958
397.8090, 200.4863
399.0060, 211.1069
400.2040, 270.1191
401.4010, 352.2837
402.5980, 417.9946
403.7950, 521.3823
404.9920, 592.7393
406.1890, 751.2998
407.3860, 793.9990
408.5820, 888.7837
409.7780, 889.9629
410.9740, 904.7632
412.1700, 789.2329
413.3650, 843.7334
414.5610, 784.2046
415.7560, 567.5889
416.9510, 587.3374
418.1460, 432.9902
419.3410, 392.4512
420.5360, 299.7754
421.7300, 325.3589
422.9240, 147.9976
424.1180, 146.3184
425.3120, 103.4453
426.5060, 214.7554
427.7000, 101.9487
428.8930, 98.04883
430.0860, 50.25684
431.2790, 71.56885
432.4720, 121.5283
433.6650, 41.68604
434.8580, 63.50391
436.0500, 1.370605
437.2420, 123.4951
438.4340, 67.75098
439.6260, 70.65430
440.8180, 39.50244
442.0090, 138.8848
443.2010, 38.85791
444.3920, 22.67139
445.5830, 0.3520510
446.7740, 44.13770
447.9640, 29.35840
449.1550, 60.41211
450.3450, 15.11230
451.5350, 104.1421
452.7250, 2.731445
453.9150, 27.82764
455.1050, 51.32324
456.2940, 38.52100
457.4830, 70.59668
458.6720, 49.57129
459.8610, 49.88965
461.0500, 39.17334
462.2390, 108.3608
463.4270, 50.21826
464.6150, 78.65332
465.8040, 64.96436
466.9910, 157.7920
468.1790, 31.42871
469.3670, 44.07373
470.5540, 100.5361
471.7410, 26.95557
472.9280, 162.6602
474.1150, 122.1372
475.3020, 91.16748
476.4890, 72.23145
477.6750, 72.34521
478.8610, 45.75830
480.0470, 32.04980
481.2330, 147.7861
482.4190, 115.1943
483.6040, 53.83496
484.7900, 196.6553
485.9750, 140.2617
487.1600, 84.92285
488.3450, 85.86035
489.5290, 158.5732
490.7140, 83.29492
491.8980, 68.24609
493.0820, 140.1523
494.2660, 122.0146
495.4500, 130.8311
496.6340, 208.6045
497.8170, 100.3340
499.0010, 182.0146
500.1840, 238.6475
501.3670, 291.2354
502.5500, 240.7949
503.7320, 129.3135
504.9150, 181.7861
506.0970, 285.2119
507.2790, 150.5967
508.4610, 210.9365
509.6430, 250.2266
510.8250, 155.4746
512.0060, 105.6748
513.1870, 43.82520
514.3680, 59.75781
515.5490, 73.97266
516.7300, 105.9688
517.9110, 161.9121
519.0910, 136.8086
520.2710, 201.6572
521.4510, 153.4590
522.6310, 163.2109
523.8110, 77.91602
524.9910, 79.57031
526.1700, 246.1719
527.3490, 194.7295
528.5280, 234.2412
529.7070, 178.7129
530.8860, 80.69141
532.0650, 59.47754
533.2430, 65.13770
534.4210, 239.4619
535.5990, 61.45996
536.7770, 134.6592
537.9550, 193.5088
539.1320, 116.4170
540.3100, 150.9219
541.4870, 51.25684
542.6640, 247.7295
543.8410, 110.9990
545.0170, 181.9131
546.1940, 183.1748
547.3700, 128.5596
548.5470, 8.292969
549.7230, 61.27930
550.8980, 0.1748050
552.0740, 44.86523
553.2500, 70.54395
554.4250, 103.7959
555.6000, 104.1768
556.7750, 118.6162
557.9500, 24.66211
559.1250, 41.00098
560.2990, 80.09277
561.4730, 106.2285
562.6480, 37.11523
563.8220, 16.12012
564.9950, 84.51270
566.1690, 122.4941
567.3430, 74.82324
568.5160, 95.46484
569.6890, 109.6514
570.8620, 75.48242
572.0350, 209.8447
573.2070, 29.66309
574.3800, 16.99902
575.5520, 34.94727
576.7240, 50.64062
577.8960, 87.49414
579.0680, 6.086914
580.2400, 83.30469
581.4110, 25.42578
582.5830, 80.85352
583.7540, 15.07031
584.9250, 36.85645
586.0950, 65.74707
587.2660, 28.44434
588.4370, 86.28516
589.6070, 4.665039
590.7770, 65.48242
591.9470, 103.0029
593.1170, 18.33594
594.2860, 42.30273
595.4560, 94.15625
596.6250, 75.97559
597.7940, 95.55566
598.9630, 110.2393
600.1320, 22.95117
601.3000, 21.37305
602.4690, 34.44141
603.6370, 13.26758
604.8050, 28.29980
605.9730, 123.7568
607.1410, 63.96973
608.3090, 100.0049
609.4760, 87.89453
610.6430, 13.87012
611.8100, 102.6514
612.9770, 280.2295
614.1440, 85.86230
615.3110, 130.8213
616.4770, 183.6475
617.6430, 134.6016
618.8090, 164.7490
619.9750, 115.9014
621.1410, 152.4336
622.3070, 133.6006
623.4720, 127.1201
624.6370, 199.5645
625.8020, 211.4639
626.9670, 318.6768
628.1320, 298.6475
629.2970, 373.4854
630.4610, 392.6025
631.6250, 561.3672
632.7890, 424.2783
633.9530, 593.5869
635.1170, 519.2842
636.2810, 607.0664
637.4440, 780.7324
638.6070, 807.8691
639.7700, 1056.020
640.9330, 1285.373
642.0960, 1513.146
643.2590, 1877.478
644.4210, 2229.613
645.5830, 2459.900
646.7450, 3018.883
647.9070, 3324.273
649.0690, 3514.740
650.2310, 3676.775
651.3920, 3513.176
652.5530, 3374.755
653.7140, 3133.220
654.8750, 2739.732
656.0360, 2178.641
657.1970, 1776.551
658.3570, 1327.099
659.5170, 995.7998
660.6770, 922.4893
661.8370, 739.5449
662.9970, 552.5557
664.1570, 395.6562
665.3160, 454.3281
666.4750, 326.0977
667.6340, 432.5635
668.7930, 309.8213
669.9520, 170.1973
671.1110, 206.8662
672.2690, 224.9561
673.4270, 275.3574
674.5850, 120.6006
675.7430, 269.8008
676.9010, 133.9912
678.0590, 108.4248
679.2160, 193.3691
680.3730, 221.3262
681.5300, 175.9219
682.6870, 213.6729
683.8440, 286.8320
685.0010, 191.3115
686.1570, 150.3193
687.3130, 194.4473
688.4690, 332.5557
689.6250, 70.92090
690.7810, 177.2139
691.9370, 32.48730
693.0920, 65.46777
694.2470, 49.24512
695.4020, 22.22949
696.5570, 103.6787
697.7120, 19.80664
698.8670, 65.75586
700.0210, 42.27734
701.1750, 89.40723
702.3290, 287.2080
703.4830, 123.2617
704.6370, 207.7334
705.7910, 41.52246
706.9440, 82.97070
708.0970, 71.59961
709.2510, 138.0186
710.4030, 186.9863
711.5560, 86.03613
712.7090, 237.0264
713.8610, 205.5869
715.0140, 78.52344
716.1660, 247.0547
717.3180, 107.1250
718.4690, 125.1797
719.6210, 21.53516
720.7730, 47.41211
721.9240, 147.3281
723.0750, 134.7305
724.2260, 72.26465
725.3770, 180.8135
726.5270, 81.25977
727.6780, 261.5889
728.8280, 73.89648
729.9780, 174.7812
731.1280, 49.68945
732.2780, 67.37988
733.4280, 101.8936
734.5770, 6.695313
735.7260, 34.61816
736.8760, 27.94824
738.0250, 45.33789
739.1730, 40.14258
740.3220, 99.21973
741.4700, 99.66504
742.6190, 214.9346
743.7670, 12.69141
744.9150, 25.05371
746.0630, 147.6230
747.2100, 41.68750
748.3580, 195.1650
749.5050, 165.6572
750.6520, 316.5117
751.7990, 186.7998
752.9460, 52.33496
754.0930, 42.18164
755.2390, 127.1875
756.3860, 83.51855
757.5320, 189.1709
758.6780, 9.646484
759.8240, 185.8613
760.9690, 36.02051
762.1150, 13.76953
763.2600, 26.75391
764.4060, 123.7539
765.5510, 112.4229
766.6950, 132.0654
767.8400, 123.6787
768.9850, 118.4463
770.1290, 53.18359
771.2730, 22.91895
772.4170, 128.3809
773.5610, 101.8105
774.7050, 191.7480
775.8480, 195.1504
776.9920, 257.8330
778.1350, 250.5801
779.2780, 143.7441
780.4210, 228.0586
781.5640, 148.0332
782.7060, 148.8965
783.8490, 35.36230
784.9910, 61.87988
786.1330, 327.5615
787.2750, 7.083008
788.4170, 257.5352
789.5580, 148.7920
790.7000, 98.93848
791.8410, 88.63867
792.9820, 232.4355
794.1230, 247.7734
795.2640, 136.5840
796.4040, 59.37988
797.5450, 110.9922
798.6850, 198.9541
799.8250, 203.3594
800.9650, 80.31152
802.1050, 169.1641
803.2450, 57.37988
804.3840, 63.21875
805.5230, 146.7666
806.6630, 286.2207
807.8020, 102.9150
808.9400, 203.4395
810.0790, 356.1875
811.2170, 74.21973
812.3560, 128.4375
813.4940, 187.8037
814.6320, 169.9707
815.7700, 191.9189
816.9070, 205.7344
818.0450, 174.1807
819.1820, 75.53613
820.3190, 61.96191
821.4560, 277.3633
822.5930, 133.2568
823.7300, 269.8506
824.8670, 215.5303
826.0030, 108.6250
827.1390, 244.5889
828.2750, 74.89941
829.4110, 196.4990
830.5470, 46.82617
831.6820, 311.6318
832.8180, 93.88086
833.9530, 226.3662
835.0880, 46.39844
836.2230, 146.5254
837.3580, 37.45312
838.4920, 32.47266
839.6270, 134.2363
840.7610, 5.753906
841.8950, 275.4941
843.0290, 46.04883
844.1630, 227.5625
845.2960, 271.9277
846.4300, 325.4707
847.5630, 182.1191
848.6960, 35.24219
849.8290, 271.8828
850.9620, 134.3027
852.0940, 307.1016
853.2270, 197.5059
854.3590, 92.22070
855.4910, 84.90625
856.6230, 244.0508
857.7550, 156.2148
858.8870, 192.6914
860.0180, 163.0137
861.1500, 167.9707
862.2810, 137.2754
863.4120, 24.06055
864.5430, 111.4922
865.6730, 50.03125
866.8040, 119.8809
867.9340, 114.7461
869.0640, 49.92969
870.1940, 103.8496
871.3240, 149.7637
872.4540, 84.39453
873.5830, 11.88477
874.7130, 129.0840
875.8420, 26.40039
876.9710, 105.8535
878.1000, 195.2031
879.2290, 221.9336
880.3570, 161.7148
881.4860, 3.558594
882.6140, 15.55664
883.7420, 271.1094
884.8700, 68.20898
885.9980, 105.9219
887.1250, 207.3730
888.2530, 171.0156
889.3800, 12.00977
890.5070, 110.7930
891.6340, 35.84180
892.7610, 141.5938
893.8880, 113.6758
895.0140, 27.83789
896.1400, 7.320313
897.2670, 5.154297
898.3930, 4.818359
899.5180, 5.687500
900.6440, 95.72656
901.7700, 43.62500
902.8950, 144.6230
904.0200, 236.1367
905.1450, 220.7695
906.2700, 198.6680
907.3950, 241.0527
908.5190, 227.0000
909.6440, 321.0488
910.7680, 187.3906
911.8920, 337.9062
913.0160, 215.3906
914.1400, 272.0273
915.2630, 128.4551
916.3870, 187.6328
917.5100, 192.0957
918.6330, 264.4531
919.7560, 228.4219
920.8790, 166.5000
922.0010, 183.4297
923.1240, 176.5391
924.2460, 202.1855
925.3680, 206.2383
926.4900, 85.14453
927.6120, 62.90820
928.7340, 334.5547
929.8550, 43.06641
930.9760, 184.0273
932.0980, 205.8477
933.2190, 111.0742
934.3390, 221.6777
935.4600, 308.1855
936.5810, 102.7598
937.7010, 204.2305
938.8210, 81.12695
939.9410, 52.15820
941.0610, 104.2129
942.1810, 21.64062
943.3010, 151.0664
944.4200, 331.2676
945.5390, 121.0801
946.6580, 129.4434
947.7770, 199.6230
948.8960, 325.3125
950.0150, 228.9141
951.1330, 301.7227
952.2510, 522.9785
953.3690, 475.9766
954.4870, 471.2852
955.6050, 525.1074
956.7230, 526.2676
957.8400, 538.1582
958.9580, 565.1953
960.0750, 629.7871
961.1920, 572.6914
962.3090, 818.0684
963.4250, 914.5234
964.5420, 807.2109
965.6580, 1008.117
966.7740, 1164.594
967.8900, 1224.824
969.0060, 1223.385
970.1220, 1129.523
971.2380, 1214.328
972.3530, 1241.975
973.4680, 1361.025
974.5830, 1178.393
975.6980, 1234.361
976.8130, 1188.385
977.9280, 1136.033
979.0420, 1069.029
980.1560, 952.8984
981.2710, 887.8145
982.3850, 933.3809
983.4980, 891.6602
984.6120, 776.8887
985.7260, 932.4668
986.8390, 921.7812
987.9520, 980.4688
989.0650, 1094.367
990.1780, 878.5098
991.2910, 938.1602
992.4030, 907.9668
993.5160, 954.6816
994.6280, 1021.092
995.7400, 1004.096
996.8520, 1147.143
997.9640, 1092.607
999.0750, 1101.080
1000.187, 1121.170
1001.298, 1081.492
1002.409, 1181.910
1003.520, 1365.637
1004.631, 1351.094
1005.741, 1086.168
1006.852, 1022.805
1007.962, 828.7676
1009.072, 635.6230
1010.182, 762.8633
1011.292, 621.5996
1012.402, 795.0879
1013.511, 940.8594
1014.621, 956.9648
1015.730, 1038.771
1016.839, 1209.580
1017.948, 1268.252
1019.056, 1415.473
1020.165, 1578.400
1021.273, 1880.969
1022.382, 1894.385
1023.490, 2064.410
1024.598, 2121.334
1025.706, 1760.055
1026.813, 1707.160
1027.921, 1504.727
1029.028, 1121.498
1030.135, 1401.242
1031.242, 889.4590
1032.349, 679.0762
1033.456, 436.6777
1034.562, 601.5723
1035.668, 456.9219
1036.775, 296.8438
1037.881, 475.0762
1038.987, 318.0918
1040.092, 243.9102
1041.198, 224.3398
1042.303, 482.0703
1043.408, 510.0879
1044.514, 174.4316
1045.618, 218.3008
1046.723, 0.4531250
1047.828, 115.8594
1048.932, 176.4609
1050.037, 239.1855
1051.141, 236.6348
1052.245, 215.5664
1053.349, 150.0996
1054.452, 193.2520
1055.556, 90.31055
1056.659, 150.2324
1057.762, 152.1484
1058.865, 129.9727
1059.968, 126.6816
1061.071, 82.46875
1062.174, 88.77344
1063.276, 28.09766
1064.378, 61.23633
1065.480, 126.3535
1066.582, 56.00000
1067.684, 108.9277
1068.786, 3.746094
1069.887, 210.3535
1070.988, 206.9082
1072.090, 78.64844
1073.191, 129.5508
1074.291, 197.3086
1075.392, 221.6289
1076.493, 131.0234
1077.593, 278.8203
1078.693, 48.50977
1079.793, 20.68750
1080.893, 357.8477
1081.993, 54.58594
1083.092, 291.3320
1084.192, 177.2012
1085.291, 64.96875
1086.390, 232.6426
1087.489, 156.2344
1088.588, 216.7402
1089.686, 224.3184
1090.785, 172.4258
1091.883, 203.5254
1092.981, 240.5020
1094.079, 243.3867
1095.177, 273.6270
1096.275, 119.8594
1097.373, 263.4668
1098.470, 206.9883
1099.567, 93.42383
1100.664, 300.7754
1101.761, 21.03516
1102.858, 141.2148
1103.954, 84.30859
1105.051, 51.66602
1106.147, 80.70898
1107.243, 246.2617
1108.339, 271.1777
1109.435, 412.0352
1110.531, 91.83008
1111.626, 316.5605
1112.722, 339.2539
1113.817, 258.8789
1114.912, 361.5508
1116.007, 519.1738
1117.101, 433.7617
1118.196, 366.3203
1119.290, 526.8691
1120.385, 212.4395
1121.479, 366.6445
1122.573, 507.7500
1123.666, 240.0898
1124.760, 276.2676
1125.853, 300.6953
1126.947, 680.2754
1128.040, 306.5684
1129.133, 89.10352
1130.226, 508.8496
1131.318, 344.6465
1132.411, 370.0645
1133.503, 324.0527
1134.596, 361.8398
1135.688, 396.1777
1136.780, 366.8965
1137.871, 351.8848
1138.963, 321.3809
1140.054, 294.4297
1141.146, 253.5020
1142.237, 255.8301
1143.328, 374.2207
1144.419, 230.3574
1145.509, 311.1816
1146.600, 194.7871
1147.690, 84.41602
1148.780, 32.24219
1149.870, 382.1523
1150.960, 231.7910
1152.050, 508.8672
1153.139, 70.76562
1154.229, 77.88672
1155.318, 67.34180
1156.407, 127.8359
1157.496, 139.0234
1158.585, 342.3164
1159.674, 289.4746
1160.762, 172.1465
1161.850, 78.24023
1162.939, 285.0039
1164.027, 19.60156
1165.114, 315.2500
1166.202, 324.5957
1167.290, 483.6289
1168.377, 161.4648
1169.464, 374.4258
1170.551, 201.7539
1171.638, 33.37891
1172.725, 353.0000
1173.812, 284.4492
1174.898, 290.6797
1175.984, 206.6641
1177.071, 241.3789
1178.157, 180.0352
1179.242, 193.1875
1180.328, 184.0977
1181.414, 185.9102
1182.499, 194.7109
1183.584, 133.7617
1184.669, 201.7305
1185.754, 142.8164
1186.839, 179.3516
1187.924, 99.86328
1189.008, 218.7930
1190.092, 230.2266
1191.177, 191.2695
1192.260, 333.9570
1193.344, 96.86719
1194.428, 356.0742
1195.512, 92.55469
1196.595, 24.62109
1197.678, 114.3438
1198.761, 7.500000
1199.844, 209.4883
1200.927, 67.41797
1202.009, 161.5273
1203.092, 28.12109
1204.174, 274.2656
1205.256, 1.097656
1206.338, 0.0000000E+00
##END=



