##NAMES=Pectolite
##RRUFFID=R050396
##IDEAL CHEMISTRY=NaCa_2_Si_3_O_8_(OH)
##LOCALITY=Jeffrey Quarry, Asbestos, Quebec, Canada
##OWNER=RRUFF
##SOURCE=Marcus Origlieri
##DESCRIPTION=Colorless to gray columnar blocky crystals
##STATUS=The identification of this mineral has been confirmed by X-ray diffraction and chemical analysis
##URL=rruff.info/R050396
##MEASURED CHEMISTRY=Na_1.00_Ca_2.00_Si_3.00_O_8_(OH)
##PIN_ID=M00439
##ORIENTATION=Laser parallel to -c* (0 0 -1). Fiducial mark perpendicular to laser is parallel to a [1 0 0]
125.2990, 0.0000000E+00
126.5330, 1.698242
127.7670, 29.33301
129.0000, 87.34521
130.2340, 143.0283
131.4670, 214.7625
132.7000, 335.6658
133.9330, 516.3760
135.1660, 525.2239
136.3990, 634.2874
137.6310, 604.7900
138.8640, 610.4160
140.0960, 721.6174
141.3280, 739.7217
142.5600, 833.7471
143.7910, 871.6914
145.0230, 884.5576
146.2540, 744.0996
147.4850, 670.8301
148.7160, 689.2478
149.9470, 617.5583
151.1780, 710.3701
152.4080, 775.3130
153.6380, 763.3806
154.8690, 659.8372
156.0980, 539.8530
157.3280, 398.7551
158.5580, 297.5625
159.7870, 199.2898
161.0170, 143.9485
162.2460, 126.5491
163.4750, 47.10034
164.7030, 81.60986
165.9320, 58.09106
167.1600, 2.342285
168.3890, 4.789063
169.6170, 0.7387700
170.8450, 5.252197
172.0730, 64.24927
173.3000, 60.23877
174.5280, 45.28271
175.7550, 50.18750
176.9820, 24.65234
178.2090, 65.11670
179.4350, 146.5864
180.6620, 159.0659
181.8880, 157.7383
183.1150, 204.6904
184.3410, 324.3562
185.5670, 475.4744
186.7920, 603.1274
188.0180, 562.8228
189.2430, 578.5571
190.4690, 554.3279
191.6940, 525.1306
192.9180, 547.9592
194.1430, 497.8123
195.3680, 592.6875
196.5920, 630.5859
197.8160, 748.5090
199.0400, 834.4521
200.2640, 1051.410
201.4880, 1271.395
202.7110, 1326.407
203.9350, 1438.449
205.1580, 1210.521
206.3810, 1175.982
207.6040, 945.0371
208.8270, 827.9351
210.0490, 777.1709
211.2710, 801.3464
212.4940, 762.5537
213.7160, 780.7932
214.9370, 808.2620
216.1590, 884.5696
217.3810, 926.9072
218.6020, 1045.278
219.8230, 1196.680
221.0440, 1231.095
222.2650, 1416.504
223.4860, 1463.895
224.7060, 1454.289
225.9260, 1395.706
227.1470, 1084.169
228.3670, 952.6704
229.5860, 715.1995
230.8060, 554.7954
232.0260, 346.4524
233.2450, 228.3127
234.4640, 132.9480
235.6830, 71.74243
236.9020, 5.552246
238.1200, 44.38989
239.3390, 19.77197
240.5570, 81.93335
241.7750, 56.10400
242.9930, 120.2883
244.2110, 40.51538
245.4290, 6.687988
246.6460, 60.10034
247.8630, 65.88745
249.0810, 131.6680
250.2980, 188.4409
251.5140, 205.2048
252.7310, 223.9626
253.9470, 254.7166
255.1640, 320.4629
256.3800, 326.1611
257.5960, 274.7554
258.8120, 359.3093
260.0270, 372.8574
261.2430, 275.4019
262.4580, 340.9446
263.6730, 318.4858
264.8880, 380.0332
266.1030, 299.6287
267.3170, 247.2522
268.5320, 337.9038
269.7460, 257.5647
270.9600, 282.2188
272.1740, 258.5955
273.3880, 235.1526
274.6010, 206.8911
275.8150, 240.7310
277.0280, 239.6392
278.2410, 226.5947
279.4540, 61.59399
280.6670, 121.6162
281.8790, 70.66187
283.0920, 77.71875
284.3040, 56.78467
285.5160, 27.84521
286.7280, 32.90137
287.9400, 24.58008
289.1510, 101.5884
290.3630, 24.73877
291.5740, 1.039307
292.7850, 81.45044
293.9960, 49.96997
295.2070, 196.1736
296.4170, 96.56348
297.6280, 98.85327
298.8380, 174.1372
300.0480, 102.5613
301.2580, 122.0625
302.4680, 42.80029
303.6770, 143.4233
304.8870, 132.9492
306.0960, 180.2949
307.3050, 244.7700
308.5140, 296.3159
309.7230, 420.9160
310.9310, 443.6006
312.1400, 597.2432
313.3480, 629.5879
314.5560, 818.4297
315.7640, 862.6553
316.9720, 945.7480
318.1790, 1026.264
319.3870, 1030.655
320.5940, 970.2749
321.8010, 979.6074
323.0080, 992.5796
324.2150, 1054.941
325.4210, 1008.559
326.6280, 934.8960
327.8340, 840.7925
329.0400, 726.8208
330.2460, 598.9160
331.4510, 531.8804
332.6570, 388.3960
333.8620, 253.7988
335.0680, 317.0190
336.2730, 164.2344
337.4780, 223.4780
338.6820, 201.0811
339.8870, 149.4385
341.0910, 132.8345
342.2950, 145.2598
343.5000, 163.7373
344.7030, 199.8652
345.9070, 216.1450
347.1110, 303.3267
348.3140, 380.3672
349.5170, 442.0400
350.7200, 455.8638
351.9230, 480.9673
353.1260, 571.7227
354.3290, 649.4824
355.5310, 714.7651
356.7330, 919.9185
357.9350, 979.1089
359.1370, 995.2285
360.3390, 939.5688
361.5400, 784.6494
362.7420, 776.2642
363.9430, 655.6519
365.1440, 720.9424
366.3450, 561.4624
367.5460, 540.2197
368.7460, 645.9429
369.9470, 689.3179
371.1470, 595.5698
372.3470, 650.9634
373.5470, 723.3838
374.7460, 719.6650
375.9460, 876.8984
377.1450, 916.2881
378.3450, 915.8306
379.5440, 999.4116
380.7430, 870.8008
381.9410, 789.2471
383.1400, 582.4341
384.3380, 505.2036
385.5370, 473.4634
386.7350, 443.7261
387.9320, 360.6938
389.1300, 315.2671
390.3280, 283.9741
391.5250, 277.5669
392.7220, 250.5332
393.9190, 269.9238
395.1160, 240.5762
396.3130, 321.8145
397.5100, 319.0127
398.7060, 352.7944
399.9020, 373.9316
401.0980, 442.2471
402.2940, 484.6807
403.4900, 685.2915
404.6860, 749.3286
405.8810, 969.9443
407.0760, 1094.167
408.2710, 1197.759
409.4660, 1408.705
410.6610, 1571.315
411.8550, 1804.449
413.0500, 1876.488
414.2440, 2065.021
415.4380, 2125.909
416.6320, 2065.291
417.8260, 1874.717
419.0190, 1595.606
420.2130, 1253.675
421.4060, 1011.700
422.5990, 914.2188
423.7920, 764.0371
424.9850, 577.2505
426.1770, 488.1172
427.3700, 386.1406
428.5620, 242.9253
429.7540, 291.6621
430.9460, 110.2012
432.1380, 191.3911
433.3290, 195.8623
434.5210, 160.3730
435.7120, 133.9971
436.9030, 104.2100
438.0940, 160.2690
439.2850, 102.7817
440.4750, 128.7222
441.6660, 138.1929
442.8560, 106.4214
444.0460, 89.04541
445.2360, 31.93457
446.4260, 59.05225
447.6160, 82.22461
448.8050, 125.4312
449.9940, 94.43018
451.1830, 76.94873
452.3720, 63.88574
453.5610, 43.29639
454.7500, 53.03223
455.9380, 62.56738
457.1260, 158.2720
458.3150, 122.7070
459.5020, 182.0977
460.6900, 180.0474
461.8780, 108.8809
463.0650, 198.5513
464.2530, 120.4863
465.4400, 205.2729
466.6270, 111.1108
467.8130, 48.89893
469.0000, 114.3027
470.1870, 40.26807
471.3730, 166.9482
472.5590, 121.3682
473.7450, 3.497070
474.9310, 26.57324
476.1160, 42.59912
477.3020, 112.3813
478.4870, 84.48193
479.6720, 76.31494
480.8570, 54.89990
482.0420, 19.20264
483.2270, 36.42529
484.4110, 32.00244
485.5960, 5.471680
486.7800, 5.8590001E-03
487.9640, 53.40234
489.1480, 74.76025
490.3310, 14.93311
491.5150, 191.3052
492.6980, 152.4976
493.8810, 82.64062
495.0640, 159.7329
496.2470, 154.7778
497.4300, 265.7744
498.6120, 337.7261
499.7950, 281.6338
500.9770, 295.4946
502.1590, 239.3120
503.3410, 300.0820
504.5220, 166.8076
505.7040, 217.4819
506.8850, 237.1182
508.0660, 178.7075
509.2470, 118.2466
510.4280, 122.7314
511.6090, 202.1606
512.7890, 227.5386
513.9700, 189.8662
515.1500, 179.1426
516.3300, 208.3662
517.5100, 215.5396
518.6900, 173.6592
519.8690, 132.7241
521.0490, 118.7354
522.2280, 159.6895
523.4070, 124.5894
524.5860, 198.4399
525.7640, 210.2373
526.9430, 124.9863
528.1210, 268.7007
529.3000, 89.37744
530.4780, 81.02734
531.6560, 136.6177
532.8330, 66.15039
534.0110, 210.6226
535.1880, 104.0366
536.3650, 42.38867
537.5430, 129.6782
538.7190, 85.90723
539.8960, 43.07471
541.0730, 137.1772
542.2490, 89.21875
543.4250, 16.80322
544.6020, 35.90674
545.7780, 27.10400
546.9530, 22.61035
548.1290, 46.74170
549.3040, 5.190918
550.4800, 5.282227
551.6550, 6.314941
552.8300, 79.00977
554.0040, 95.27148
555.1790, 15.46680
556.3540, 28.40820
557.5280, 22.93066
558.7020, 16.93311
559.8760, 2.114258
561.0500, 50.56934
562.2230, 53.17969
563.3970, 25.16406
564.5700, 89.15625
565.7430, 5.296875
566.9160, 63.90674
568.0890, 35.16064
569.2620, 68.71045
570.4340, 49.78418
571.6070, 90.92676
572.7790, 42.58057
573.9510, 113.2183
575.1230, 62.60449
576.2940, 5.518555
577.4660, 151.8804
578.6370, 9.632813
579.8080, 63.82129
580.9790, 192.2876
582.1500, 33.01807
583.3210, 106.9521
584.4910, 31.85449
585.6620, 175.8989
586.8320, 83.55469
588.0020, 97.49658
589.1720, 80.39697
590.3410, 121.6768
591.5110, 227.1592
592.6800, 117.7388
593.8500, 234.3926
595.0190, 146.6699
596.1880, 185.0430
597.3560, 135.2695
598.5250, 190.3452
599.6930, 191.5801
600.8620, 287.7095
602.0300, 310.1440
603.1970, 339.2021
604.3650, 276.0889
605.5330, 303.8350
606.7000, 282.2725
607.8680, 283.8521
609.0350, 365.3477
610.2020, 348.6860
611.3680, 379.0479
612.5350, 319.8120
613.7010, 383.8916
614.8680, 459.3232
616.0340, 397.0059
617.2000, 372.4194
618.3660, 459.9126
619.5310, 501.8560
620.6970, 558.5332
621.8620, 449.5059
623.0270, 628.5430
624.1920, 741.9253
625.3570, 623.1123
626.5220, 759.4854
627.6860, 688.1890
628.8500, 870.3462
630.0140, 899.4795
631.1780, 932.4951
632.3420, 1312.144
633.5060, 1195.103
634.6700, 1504.117
635.8330, 1605.659
636.9960, 2002.900
638.1590, 2237.552
639.3220, 2661.038
640.4850, 2998.177
641.6470, 3811.772
642.8100, 4618.050
643.9720, 5642.287
645.1340, 6513.876
646.2960, 7788.108
647.4570, 8911.078
648.6190, 10428.74
649.7800, 12047.37
650.9420, 13646.00
652.1030, 14768.98
653.2640, 14595.30
654.4240, 13528.36
655.5850, 11613.35
656.7450, 9350.714
657.9060, 7330.074
659.0660, 5638.500
660.2260, 4350.222
661.3850, 3257.257
662.5450, 2596.658
663.7040, 2125.165
664.8640, 1794.551
666.0230, 1417.800
667.1820, 1301.605
668.3410, 1062.676
669.4990, 988.1777
670.6580, 841.5845
671.8160, 766.4731
672.9740, 631.5049
674.1320, 576.6123
675.2900, 515.3857
676.4480, 602.0894
677.6050, 558.9443
678.7630, 638.7202
679.9200, 627.7397
681.0770, 590.4126
682.2340, 644.4556
683.3900, 802.9570
684.5470, 1010.463
685.7030, 859.8184
686.8590, 948.4902
688.0150, 912.6660
689.1710, 810.2393
690.3270, 715.6270
691.4830, 685.9912
692.6380, 573.0820
693.7930, 494.2510
694.9480, 485.0273
696.1030, 312.1025
697.2580, 376.0146
698.4130, 316.5742
699.5670, 232.2021
700.7210, 178.9238
701.8750, 152.4189
703.0290, 209.0215
704.1830, 138.9863
705.3370, 201.7070
706.4900, 250.2861
707.6430, 239.3701
708.7970, 174.1279
709.9490, 141.0449
711.1020, 129.9053
712.2550, 199.6533
713.4070, 16.61914
714.5600, 76.12695
715.7120, 141.5049
716.8640, 73.28809
718.0160, 112.7637
719.1670, 34.28809
720.3190, 5.833008
721.4700, 140.4805
722.6210, 45.98242
723.7720, 36.50391
724.9230, 54.78906
726.0740, 69.62695
727.2250, 14.97754
728.3750, 4.581055
729.5250, 84.44141
730.6750, 26.26953
731.8250, 0.4833980
732.9750, 29.38867
734.1240, 8.991211
735.2740, 25.38477
736.4230, 139.6357
737.5720, 48.36133
738.7210, 115.0996
739.8700, 23.52832
741.0190, 25.29199
742.1670, 58.87305
743.3150, 18.04688
744.4630, 40.71680
745.6110, 82.03711
746.7590, 22.89062
747.9070, 77.83691
749.0540, 75.66406
750.2020, 178.8896
751.3490, 9.635742
752.4960, 58.19727
753.6430, 87.87598
754.7890, 5.672852
755.9360, 171.7061
757.0820, 65.72461
758.2280, 86.84570
759.3740, 163.7773
760.5200, 188.7217
761.6660, 79.17676
762.8120, 100.2617
763.9570, 26.96777
765.1020, 19.89844
766.2470, 93.63184
767.3920, 104.4434
768.5370, 146.1074
769.6810, 63.34375
770.8260, 171.9346
771.9700, 71.39844
773.1140, 18.33203
774.2580, 53.41211
775.4020, 48.34766
776.5460, 97.58301
777.6890, 149.8408
778.8320, 35.91406
779.9750, 37.27246
781.1180, 87.87012
782.2610, 93.35156
783.4040, 36.03711
784.5460, 36.38184
785.6890, 34.27051
786.8310, 202.8818
787.9730, 188.9756
789.1150, 168.4443
790.2560, 92.32910
791.3980, 100.3379
792.5390, 87.96094
793.6810, 21.58008
794.8220, 238.2842
795.9630, 162.1895
797.1030, 33.02441
798.2440, 163.8379
799.3840, 99.66895
800.5240, 17.28223
801.6650, 104.7676
802.8040, 131.0146
803.9440, 132.5107
805.0840, 194.0908
806.2230, 131.3623
807.3630, 127.3594
808.5020, 288.1113
809.6410, 164.4248
810.7790, 271.3740
811.9180, 224.8730
813.0570, 155.0527
814.1950, 192.9150
815.3330, 148.8799
816.4710, 261.4277
817.6090, 185.5234
818.7470, 268.7041
819.8840, 105.8086
821.0220, 275.6680
822.1590, 184.4639
823.2960, 184.1973
824.4330, 131.8496
825.5690, 162.4375
826.7060, 95.98340
827.8420, 156.4482
828.9790, 70.87695
830.1150, 288.2178
831.2510, 237.4785
832.3860, 294.6582
833.5220, 189.4600
834.6570, 237.4473
835.7930, 322.1270
836.9280, 230.3809
838.0630, 135.3291
839.1980, 228.0898
840.3320, 149.2686
841.4670, 85.61816
842.6010, 174.3945
843.7350, 227.2969
844.8690, 335.0967
846.0030, 254.6025
847.1370, 290.9102
848.2700, 239.0947
849.4040, 247.4932
850.5370, 284.0049
851.6700, 220.7197
852.8030, 265.6455
853.9360, 334.2002
855.0680, 197.8496
856.2000, 300.0889
857.3330, 358.0508
858.4650, 174.5947
859.5970, 295.9131
860.7290, 250.8604
861.8600, 305.7998
862.9920, 277.4062
864.1230, 277.9932
865.2540, 158.2236
866.3850, 288.9600
867.5160, 66.37207
868.6460, 235.4922
869.7770, 198.7432
870.9070, 36.78516
872.0370, 18.85352
873.1670, 150.3193
874.2970, 127.3145
875.4270, 43.50195
876.5570, 197.2109
877.6860, 69.16406
878.8150, 91.82812
879.9440, 109.2529
881.0730, 171.6133
882.2020, 37.06152
883.3300, 13.83105
884.4590, 53.40234
885.5870, 12.53223
886.7150, 73.99707
887.8430, 38.25586
888.9710, 46.93848
890.0990, 29.26074
891.2260, 61.74512
892.3530, 33.68457
893.4810, 16.00781
894.6080, 107.6016
895.7340, 93.93066
896.8610, 3.475586
897.9880, 37.45996
899.1140, 91.43652
900.2400, 36.00098
901.3660, 63.58789
902.4920, 30.02246
903.6180, 257.5801
904.7430, 102.2256
905.8690, 234.4297
906.9940, 244.0010
908.1190, 349.0625
909.2440, 292.0693
910.3690, 304.8828
911.4930, 481.9619
912.6180, 422.9824
913.7420, 444.9521
914.8660, 354.7383
915.9900, 275.4375
917.1140, 281.3418
918.2380, 229.3857
919.3610, 246.8701
920.4850, 112.6982
921.6080, 157.5234
922.7310, 261.4150
923.8540, 151.8271
924.9760, 48.91016
926.0990, 222.7783
927.2210, 294.2480
928.3440, 273.4424
929.4660, 231.1113
930.5880, 163.8555
931.7090, 160.9043
932.8310, 384.4238
933.9520, 121.1201
935.0740, 287.3301
936.1950, 264.2559
937.3160, 196.8320
938.4360, 358.7441
939.5570, 322.0801
940.6780, 377.7852
941.7980, 185.9600
942.9180, 225.2832
944.0380, 310.4424
945.1580, 377.9629
946.2780, 481.1270
947.3970, 284.6650
948.5170, 342.4150
949.6360, 300.0205
950.7550, 379.3369
951.8740, 469.5020
952.9930, 429.2100
954.1110, 429.3037
955.2300, 575.9727
956.3480, 613.8945
957.4660, 667.9326
958.5840, 731.3691
959.7020, 599.9375
960.8190, 769.3291
961.9370, 750.0830
963.0540, 1016.445
964.1710, 1123.244
965.2880, 1354.446
966.4050, 1580.395
967.5220, 1640.689
968.6380, 1765.152
969.7550, 2023.299
970.8710, 2050.201
971.9870, 2027.377
973.1030, 2176.461
974.2190, 2132.104
975.3340, 1829.125
976.4500, 1946.633
977.5650, 1563.814
978.6800, 1474.412
979.7950, 1357.734
980.9100, 1337.131
982.0250, 1294.072
983.1390, 1080.381
984.2530, 1066.266
985.3680, 1072.424
986.4820, 853.6543
987.5950, 739.1875
988.7090, 860.9180
989.8230, 819.9160
990.9360, 778.6816
992.0490, 895.3867
993.1620, 1046.375
994.2750, 1058.252
995.3880, 1003.529
996.5010, 1344.471
997.6130, 1296.264
998.7250, 1078.967
999.8370, 1191.689
1000.949, 1016.570
1002.061, 1063.576
1003.173, 997.2051
1004.284, 1083.311
1005.396, 1157.879
1006.507, 822.1211
1007.618, 786.8926
1008.729, 703.4805
1009.839, 614.5293
1010.950, 749.9941
1012.060, 777.7188
1013.171, 839.9336
1014.281, 1004.574
1015.391, 1325.980
1016.500, 1371.676
1017.610, 1547.137
1018.719, 1840.393
1019.829, 1958.016
1020.938, 2438.375
1022.047, 2652.494
1023.156, 3085.682
1024.264, 3330.852
1025.373, 3506.852
1026.481, 3548.600
1027.589, 3462.949
1028.697, 2987.945
1029.805, 2713.426
1030.913, 2385.291
1032.020, 2012.391
1033.128, 1811.615
1034.235, 1501.600
1035.342, 1363.492
1036.449, 1045.105
1037.556, 850.0508
1038.663, 839.0547
1039.769, 729.5918
1040.875, 607.1094
1041.981, 446.6934
1043.087, 628.2012
1044.193, 432.2363
1045.299, 474.8730
1046.404, 569.7617
1047.510, 429.2949
1048.615, 430.3848
1049.720, 409.9062
1050.825, 359.8047
1051.930, 350.6504
1053.034, 309.4961
1054.139, 285.2656
1055.243, 415.0195
1056.347, 255.5684
1057.451, 106.2012
1058.555, 81.64844
1059.658, 324.1211
1060.762, 356.3164
1061.865, 381.3906
1062.968, 125.3320
1064.071, 147.7891
1065.174, 156.0801
1066.277, 198.2344
1067.380, 226.1406
1068.482, 64.62891
1069.584, 129.2812
1070.686, 23.17383
1071.788, 8.763672
1072.890, 35.93945
1073.992, 46.23242
1075.093, 113.7012
1076.194, 244.1328
1077.295, 249.9668
1078.396, 181.3398
1079.497, 91.85938
1080.598, 43.79688
1081.698, 57.57812
1082.799, 171.9434
1083.899, 109.3613
1084.999, 114.8750
1086.099, 99.20312
1087.199, 65.52734
1088.298, 100.4902
1089.398, 9.390625
1090.497, 90.27734
1091.596, 52.34180
1092.695, 98.99805
1093.794, 93.64844
1094.892, 117.9434
1095.991, 186.5371
1097.089, 101.6680
1098.187, 271.6504
1099.285, 222.5293
1100.383, 105.5684
1101.481, 38.82227
1102.579, 95.65820
1103.676, 125.2930
1104.773, 1.476563
1105.870, 57.61328
1106.967, 82.30469
1108.064, 86.49805
1109.161, 11.18359
1110.257, 123.4062
1111.353, 192.1992
1112.449, 40.99023
1113.545, 20.83789
1114.641, 33.32031
1115.737, 172.7715
1116.832, 141.1172
1117.928, 1.359375
1119.023, 228.5039
1120.118, 234.5508
1121.213, 86.49414
1122.308, 160.3398
1123.402, 218.0840
1124.497, 189.7305
1125.591, 38.28125
1126.685, 170.7227
1127.779, 290.0703
1128.873, 104.3438
1129.967, 107.5840
1131.060, 157.7441
1132.153, 80.83008
1133.247, 204.8516
1134.340, 209.8047
1135.433, 32.70312
1136.525, 78.54883
1137.618, 3.375000
1138.710, 267.1797
1139.802, 272.9375
1140.895, 296.6680
1141.987, 341.3867
1143.078, 255.0098
1144.170, 272.1875
1145.261, 252.2109
1146.353, 198.3867
1147.444, 283.7422
1148.535, 143.5332
1149.626, 383.6387
1150.716, 198.9023
1151.807, 342.7969
1152.897, 331.6895
1153.988, 315.9102
1155.078, 333.9902
1156.168, 342.7148
1157.257, 333.2812
1158.347, 379.8398
1159.436, 328.8711
1160.526, 416.5625
1161.615, 398.4453
1162.704, 389.6348
1163.793, 410.9043
1164.881, 367.8320
1165.970, 394.8008
1167.058, 404.8477
1168.147, 306.5137
1169.235, 325.3809
1170.323, 275.9004
1171.410, 268.5566
1172.498, 338.0645
1173.585, 261.2188
1174.673, 131.6270
1175.760, 332.5938
1176.847, 195.2227
1177.934, 272.0293
1179.020, 191.9531
1180.107, 393.2695
1181.193, 361.0430
1182.279, 411.9219
1183.365, 351.3887
1184.451, 129.5801
1185.537, 148.2422
1186.623, 60.31445
1187.708, 3.619141
1188.793, 249.7910
1189.878, 166.0020
1190.963, 52.40430
1192.048, 275.1387
1193.133, 198.1504
1194.217, 216.9297
1195.302, 316.3906
1196.386, 210.7969
1197.470, 291.8906
1198.554, 351.8398
1199.638, 118.5547
1200.721, 206.1543
1201.805, 162.8398
1202.888, 426.7285
1203.971, 232.8633
1205.054, 157.5312
1206.137, 207.1797
1207.219, 129.7305
1208.302, 37.93945
1209.384, 54.64453
1210.466, 6.234375
1211.548, 27.58398
1212.630, 76.33203
1213.712, 100.5371
1214.794, 311.0273
1215.875, 103.3633
1216.956, 235.1914
1218.037, 426.0527
1219.118, 258.2559
1220.199, 274.6543
1221.280, 37.97461
1222.360, 207.2832
1223.441, 66.62305
1224.521, 331.5723
1225.601, 36.64844
1226.681, 204.2227
1227.760, 94.59961
1228.840, 70.79297
1229.919, 6.296875
1230.999, 125.3145
1232.078, 293.6621
1233.157, 5.330078
1234.236, 236.9629
1235.314, 361.3047
1236.393, 33.75977
1237.471, 545.9395
1238.549, 351.1797
1239.627, 3.226563
1240.705, 559.5098
1241.783, 157.5176
1242.860, 229.9023
1243.938, 0.0000000E+00
##END=



