##NAMES=Pectolite
##RRUFFID=R060101
##IDEAL CHEMISTRY=NaCa_2_Si_3_O_8_(OH)
##LOCALITY=West Patterson, New Jersey, USA
##OWNER=RRUFF
##SOURCE=University of Arizona Mineral Museum
##DESCRIPTION=Tufts of white acicular sprays
##STATUS=The identification of this mineral has been confirmed by X-ray diffraction and chemical analysis
##URL=rruff.info/R060101
##MEASURED CHEMISTRY=Na_1.02_Ca_2.00_Si_2.99_O_8_(OH)
##PIN_ID=L01710
##ORIENTATION=Laser parallel to -a* (-1 0 0). Fiducial mark perpendicular to laser is parallel to b [0 1 0]
137.4850, 0.0000000E+00
138.7200, 27.14868
139.9550, 39.44958
141.1900, 0.9731450
142.4250, 45.21204
143.6600, 33.87585
144.8940, 47.88281
146.1280, 99.17761
147.3620, 79.71387
148.5960, 54.53613
149.8300, 77.41626
151.0630, 100.4324
152.2960, 79.58459
153.5300, 70.87280
154.7620, 80.30676
155.9950, 82.80017
157.2280, 55.37646
158.4600, 0.9693600
159.6920, 51.68140
160.9250, 43.38196
162.1560, 4.090332
163.3880, 2.837646
164.6200, 47.80676
165.8510, 36.79114
167.0820, 59.76721
168.3130, 57.71936
169.5440, 57.54150
170.7750, 46.03381
172.0050, 65.00537
173.2350, 42.88599
174.4650, 63.10022
175.6950, 34.24121
176.9250, 40.81433
178.1550, 37.14612
179.3840, 41.26697
180.6130, 50.84155
181.8420, 55.38123
183.0710, 100.1416
184.3000, 112.9281
185.5280, 51.72583
186.7570, 76.76855
187.9850, 74.05042
189.2130, 49.24268
190.4400, 50.15479
191.6680, 55.03210
192.8960, 54.96570
194.1230, 44.98499
195.3500, 37.84167
196.5770, 41.92737
197.8030, 42.61169
199.0300, 42.09094
200.2560, 20.30432
201.4830, 2.920776
202.7090, 4.023804
203.9340, 34.96558
205.1600, 63.91785
206.3860, 28.19812
207.6110, 46.41931
208.8360, 31.93311
210.0610, 18.80505
211.2860, 34.36243
212.5100, 13.98694
213.7350, 49.55457
214.9590, 16.44434
216.1830, 20.79797
217.4070, 4.144287
218.6310, 58.50354
219.8540, 37.12354
221.0780, 41.95850
222.3010, 63.54480
223.5240, 77.42188
224.7470, 86.70752
225.9690, 82.23816
227.1920, 18.76807
228.4140, 10.28345
229.6360, 92.05017
230.8580, 35.50269
232.0800, 53.02063
233.3020, 44.18787
234.5230, 26.30420
235.7440, 48.63721
236.9650, 26.50183
238.1860, 27.47205
239.4070, 42.56213
240.6280, 21.22888
241.8480, 21.92163
243.0680, 44.78564
244.2880, 3.967407
245.5080, 90.54700
246.7280, 41.97009
247.9470, 57.70337
249.1660, 26.71899
250.3860, 62.09473
251.6040, 67.15625
252.8230, 33.77661
254.0420, 39.79443
255.2600, 35.40015
256.4790, 31.29395
257.6970, 78.12695
258.9150, 37.13208
260.1320, 90.50000
261.3500, 29.10791
262.5670, 25.95776
263.7840, 49.46997
265.0010, 70.16284
266.2180, 125.3323
267.4350, 64.71167
268.6510, 76.19946
269.8680, 126.4978
271.0840, 152.9658
272.3000, 71.03052
273.5160, 56.40723
274.7310, 93.60181
275.9470, 71.69263
277.1620, 79.38574
278.3770, 131.8215
279.5920, 153.5571
280.8070, 101.3215
282.0210, 88.73193
283.2360, 34.58472
284.4500, 68.48926
285.6640, 65.21021
286.8780, 25.79565
288.0920, 53.37793
289.3050, 2.488525
290.5180, 23.58643
291.7320, 29.05127
292.9450, 78.61597
294.1570, 41.21753
295.3700, 46.44946
296.5830, 74.17163
297.7950, 21.45752
299.0070, 94.19824
300.2190, 26.73975
301.4310, 44.13672
302.6420, 91.40161
303.8540, 81.59692
305.0650, 164.9119
306.2760, 62.92505
307.4870, 94.85571
308.6980, 67.56250
309.9080, 16.77026
311.1190, 86.86890
312.3290, 87.95874
313.5390, 121.9685
314.7490, 111.9861
315.9580, 96.13354
317.1680, 99.74268
318.3770, 107.7947
319.5860, 44.62476
320.7950, 122.2900
322.0040, 101.6277
323.2130, 108.2297
324.4210, 113.7627
325.6290, 82.07275
326.8380, 93.50464
328.0460, 152.9966
329.2530, 170.3508
330.4610, 87.75098
331.6680, 153.0813
332.8760, 60.30811
334.0830, 51.61230
335.2890, 71.04907
336.4960, 17.21265
337.7030, 83.13647
338.9090, 25.28638
340.1150, 45.26758
341.3210, 11.88574
342.5270, 45.72974
343.7330, 20.65112
344.9380, 69.35181
346.1440, 25.91187
347.3490, 48.40918
348.5540, 60.10156
349.7590, 34.35010
350.9630, 41.11572
352.1680, 67.44678
353.3720, 66.78687
354.5760, 49.11060
355.7800, 12.13159
356.9840, 47.55273
358.1870, 23.49561
359.3910, 147.9722
360.5940, 23.31494
361.7970, 74.66162
363.0000, 77.72119
364.2030, 69.93848
365.4050, 20.89160
366.6080, 17.97729
367.8100, 84.68555
369.0120, 52.58154
370.2140, 115.1575
371.4150, 91.76782
372.6170, 82.16968
373.8180, 59.34839
375.0190, 39.87769
376.2200, 103.3513
377.4210, 40.39697
378.6220, 57.22437
379.8220, 0.1174320
381.0230, 81.42212
382.2230, 35.73828
383.4230, 117.5642
384.6220, 30.48975
385.8220, 14.22632
387.0220, 3.315186
388.2210, 42.08496
389.4200, 27.21533
390.6190, 57.02466
391.8180, 93.98315
393.0160, 86.54761
394.2150, 14.71826
395.4130, 117.2017
396.6110, 65.35889
397.8090, 22.50220
399.0060, 87.77051
400.2040, 27.01758
401.4010, 37.13428
402.5980, 27.15015
403.7950, 78.18213
404.9920, 62.01196
406.1890, 38.47705
407.3860, 44.03223
408.5820, 54.74341
409.7780, 32.49609
410.9740, 43.39868
412.1700, 52.99976
413.3650, 42.60474
414.5610, 130.6128
415.7560, 29.26660
416.9510, 29.35059
418.1460, 107.6890
419.3410, 24.41992
420.5360, 33.66113
421.7300, 75.80127
422.9240, 69.23022
424.1180, 109.3079
425.3120, 61.04224
426.5060, 12.61597
427.7000, 52.86597
428.8930, 85.64819
430.0860, 105.4375
431.2790, 73.84204
432.4720, 13.68237
433.6650, 4.044678
434.8580, 114.1455
436.0500, 84.39380
437.2420, 23.05908
438.4340, 153.0588
439.6260, 29.38086
440.8180, 106.2227
442.0090, 33.63574
443.2010, 53.60059
444.3920, 80.23828
445.5830, 103.9834
446.7740, 112.5815
447.9640, 74.13623
449.1550, 139.8037
450.3450, 151.0645
451.5350, 2.307129
452.7250, 67.65918
453.9150, 6.040039
455.1050, 77.95410
456.2940, 87.83008
457.4830, 77.06445
458.6720, 35.65381
459.8610, 154.4878
461.0500, 39.58643
462.2390, 83.55322
463.4270, 113.3213
464.6150, 182.1143
465.8040, 108.6182
466.9910, 115.2886
468.1790, 158.9922
469.3670, 119.8071
470.5540, 96.33594
471.7410, 118.8140
472.9280, 98.32275
474.1150, 105.9580
475.3020, 122.0430
476.4890, 92.94824
477.6750, 50.57178
478.8610, 100.7222
480.0470, 145.9727
481.2330, 81.60742
482.4190, 110.4839
483.6040, 131.8394
484.7900, 173.5630
485.9750, 89.84424
487.1600, 131.6167
488.3450, 97.48828
489.5290, 163.2134
490.7140, 63.98730
491.8980, 117.3306
493.0820, 124.1602
494.2660, 133.4771
495.4500, 131.5005
496.6340, 114.8975
497.8170, 161.8525
499.0010, 68.74756
500.1840, 149.7012
501.3670, 40.44922
502.5500, 28.41504
503.7320, 22.36768
504.9150, 56.63379
506.0970, 49.82422
507.2790, 81.28467
508.4610, 40.45312
509.6430, 132.5049
510.8250, 74.76758
512.0060, 137.8081
513.1870, 117.0469
514.3680, 111.1006
515.5490, 142.0381
516.7300, 97.79492
517.9110, 68.40479
519.0910, 174.7217
520.2710, 204.8755
521.4510, 158.5859
522.6310, 68.30469
523.8110, 29.59473
524.9910, 133.0259
526.1700, 105.1899
527.3490, 116.7080
528.5280, 84.56006
529.7070, 180.7842
530.8860, 115.2900
532.0650, 88.69629
533.2430, 235.2773
534.4210, 92.23096
535.5990, 141.8169
536.7770, 88.05469
537.9550, 157.5234
539.1320, 112.7446
540.3100, 74.16504
541.4870, 61.11084
542.6640, 73.92627
543.8410, 130.5425
545.0170, 71.38574
546.1940, 6.168457
547.3700, 40.49463
548.5470, 129.7930
549.7230, 89.17188
550.8980, 85.52539
552.0740, 69.21826
553.2500, 87.47559
554.4250, 83.14307
555.6000, 14.68896
556.7750, 74.13477
557.9500, 88.27881
559.1250, 130.8750
560.2990, 7.524414
561.4730, 70.04541
562.6480, 87.29639
563.8220, 37.83154
564.9950, 108.0947
566.1690, 7.500000
567.3430, 169.6133
568.5160, 41.72412
569.6890, 68.13623
570.8620, 46.93359
572.0350, 84.15039
573.2070, 79.04492
574.3800, 106.1333
575.5520, 105.0068
576.7240, 60.35645
577.8960, 25.20068
579.0680, 17.04736
580.2400, 15.13477
581.4110, 127.9414
582.5830, 54.06885
583.7540, 84.51025
584.9250, 78.11914
586.0950, 52.47559
587.2660, 117.9795
588.4370, 101.4131
589.6070, 118.1660
590.7770, 119.5122
591.9470, 138.0874
593.1170, 65.48096
594.2860, 20.09033
595.4560, 132.9492
596.6250, 143.9155
597.7940, 74.50635
598.9630, 200.9204
600.1320, 107.8906
601.3000, 32.04297
602.4690, 53.17627
603.6370, 25.22363
604.8050, 73.12012
605.9730, 103.9609
607.1410, 53.05762
608.3090, 33.33447
609.4760, 195.8271
610.6430, 25.33057
611.8100, 71.94189
612.9770, 57.22705
614.1440, 6.019043
615.3110, 13.15625
616.4770, 41.55957
617.6430, 81.01416
618.8090, 194.5142
619.9750, 96.68750
621.1410, 53.84961
622.3070, 158.5425
623.4720, 47.13574
624.6370, 122.5537
625.8020, 32.08447
626.9670, 106.4062
628.1320, 111.9766
629.2970, 74.63965
630.4610, 76.61084
631.6250, 171.6025
632.7890, 104.0894
633.9530, 120.6680
635.1170, 198.1030
636.2810, 90.57861
637.4440, 160.3418
638.6070, 109.7158
639.7700, 120.3604
640.9330, 126.4238
642.0960, 179.1904
643.2590, 276.5420
644.4210, 232.7344
645.5830, 233.9648
646.7450, 401.7832
647.9070, 392.7598
649.0690, 544.0928
650.2310, 533.1221
651.3920, 608.7217
652.5530, 639.2021
653.7140, 562.7178
654.8750, 468.8604
656.0360, 467.6064
657.1970, 388.5059
658.3570, 262.2969
659.5170, 223.5215
660.6770, 88.07715
661.8370, 180.3584
662.9970, 173.8828
664.1570, 312.4922
665.3160, 199.2617
666.4750, 168.2842
667.6340, 122.9131
668.7930, 139.9658
669.9520, 11.92676
671.1110, 195.4863
672.2690, 162.2891
673.4270, 90.33496
674.5850, 150.2207
675.7430, 132.8242
676.9010, 166.8350
678.0590, 153.3271
679.2160, 280.2256
680.3730, 199.6025
681.5300, 148.4062
682.6870, 185.9678
683.8440, 101.4209
685.0010, 225.7441
686.1570, 132.2109
687.3130, 202.8408
688.4690, 132.1387
689.6250, 126.5791
690.7810, 240.9600
691.9370, 94.29980
693.0920, 222.8740
694.2470, 219.3574
695.4020, 69.83301
696.5570, 42.02148
697.7120, 73.51270
698.8670, 0.5996090
700.0210, 95.27246
701.1750, 147.6123
702.3290, 98.94922
703.4830, 133.7734
704.6370, 117.0059
705.7910, 113.2832
706.9440, 136.7227
708.0970, 110.2910
709.2510, 134.8613
710.4030, 50.76758
711.5560, 62.23438
712.7090, 40.63574
713.8610, 152.5010
715.0140, 0.6464840
716.1660, 224.2246
717.3180, 208.3105
718.4690, 162.6230
719.6210, 105.6309
720.7730, 115.2607
721.9240, 108.4727
723.0750, 98.04492
724.2260, 160.6182
725.3770, 126.0508
726.5270, 128.7344
727.6780, 32.09375
728.8280, 129.3438
729.9780, 300.8945
731.1280, 126.6182
732.2780, 1.828125
733.4280, 93.64941
734.5770, 275.9678
735.7260, 115.6875
736.8760, 122.4404
738.0250, 163.0938
739.1730, 33.28320
740.3220, 87.79395
741.4700, 128.9277
742.6190, 169.7139
743.7670, 226.6387
744.9150, 76.95996
746.0630, 46.06738
747.2100, 211.5029
748.3580, 147.3389
749.5050, 79.97266
750.6520, 147.5859
751.7990, 228.6895
752.9460, 182.2002
754.0930, 217.7705
755.2390, 224.4795
756.3860, 145.4775
757.5320, 53.14258
758.6780, 270.8252
759.8240, 80.79785
760.9690, 1.673828
762.1150, 132.4590
763.2600, 126.7314
764.4060, 87.07129
765.5510, 264.4180
766.6950, 183.6465
767.8400, 153.0928
768.9850, 266.7715
770.1290, 181.6084
771.2730, 145.5059
772.4170, 165.2051
773.5610, 13.16406
774.7050, 65.00684
775.8480, 130.5928
776.9920, 185.8662
778.1350, 141.7080
779.2780, 97.20020
780.4210, 139.5098
781.5640, 141.6738
782.7060, 147.7227
783.8490, 217.9766
784.9910, 36.75000
786.1330, 274.2559
787.2750, 174.6299
788.4170, 193.9912
789.5580, 63.75000
790.7000, 212.1660
791.8410, 14.20703
792.9820, 132.6240
794.1230, 265.3760
795.2640, 236.3604
796.4040, 17.51758
797.5450, 136.1943
798.6850, 23.44727
799.8250, 193.8945
800.9650, 117.9287
802.1050, 144.7969
803.2450, 3.782227
804.3840, 120.4023
805.5230, 43.83398
806.6630, 279.2148
807.8020, 86.04297
808.9400, 166.4150
810.0790, 225.5908
811.2170, 111.8271
812.3560, 178.7480
813.4940, 237.4336
814.6320, 162.5332
815.7700, 231.2715
816.9070, 92.53906
818.0450, 145.8457
819.1820, 46.87012
820.3190, 68.98047
821.4560, 182.4434
822.5930, 53.33789
823.7300, 136.8418
824.8670, 163.8975
826.0030, 298.3770
827.1390, 89.03711
828.2750, 243.2744
829.4110, 174.7676
830.5470, 162.6123
831.6820, 96.27539
832.8180, 162.1484
833.9530, 105.6426
835.0880, 184.2188
836.2230, 26.04102
837.3580, 236.3711
838.4920, 223.7773
839.6270, 264.8301
840.7610, 205.8760
841.8950, 213.7559
843.0290, 154.4082
844.1630, 338.9873
845.2960, 197.3408
846.4300, 102.6572
847.5630, 173.3496
848.6960, 216.1777
849.8290, 200.9150
850.9620, 68.63379
852.0940, 152.5732
853.2270, 85.30078
854.3590, 64.80762
855.4910, 57.96289
856.6230, 153.0098
857.7550, 116.6816
858.8870, 99.33594
860.0180, 257.9551
861.1500, 67.36328
862.2810, 57.48438
863.4120, 233.4629
864.5430, 71.86133
865.6730, 139.5273
866.8040, 112.1328
867.9340, 340.4941
869.0640, 122.2402
870.1940, 108.1836
871.3240, 4.744141
872.4540, 113.4785
873.5830, 203.1621
874.7130, 42.70117
875.8420, 74.56641
876.9710, 25.13086
878.1000, 121.4395
879.2290, 115.8008
880.3570, 67.95312
881.4860, 195.2871
882.6140, 102.2266
883.7420, 27.88672
884.8700, 170.1230
885.9980, 55.89648
887.1250, 84.95508
888.2530, 249.1055
889.3800, 77.24219
890.5070, 242.3184
891.6340, 178.6836
892.7610, 119.5488
893.8880, 197.6660
895.0140, 35.32031
896.1400, 225.6406
897.2670, 27.51758
898.3930, 5.349609
899.5180, 15.94727
900.6440, 103.1094
901.7700, 21.92578
902.8950, 188.7246
904.0200, 15.26172
905.1450, 13.06250
906.2700, 83.16602
907.3950, 22.95508
908.5190, 288.0977
909.6440, 51.28516
910.7680, 91.59961
911.8920, 89.02930
913.0160, 36.91211
914.1400, 47.41992
915.2630, 67.56641
916.3870, 118.2617
917.5100, 18.62891
918.6330, 9.128906
919.7560, 200.6875
920.8790, 231.5762
922.0010, 233.8301
923.1240, 206.7715
924.2460, 202.0586
925.3680, 21.34766
926.4900, 93.93945
927.6120, 59.99414
928.7340, 193.5410
929.8550, 119.8965
930.9760, 150.8496
932.0980, 173.8027
933.2190, 2.990234
934.3390, 367.8848
935.4600, 189.6836
936.5810, 334.2793
937.7010, 161.9902
938.8210, 185.6055
939.9410, 153.4629
941.0610, 151.1484
942.1810, 108.9062
943.3010, 427.6074
944.4200, 364.5566
945.5390, 243.5078
946.6580, 344.8965
947.7770, 350.2734
948.8960, 253.1094
950.0150, 97.44141
951.1330, 259.2188
952.2510, 139.6973
953.3690, 131.3965
954.4870, 337.3418
955.6050, 363.7793
956.7230, 343.4141
957.8400, 309.2188
958.9580, 218.8164
960.0750, 248.2656
961.1920, 165.0508
962.3090, 456.8145
963.4250, 321.2852
964.5420, 395.5859
965.6580, 380.9043
966.7740, 494.0625
967.8900, 400.3008
969.0060, 452.6582
970.1220, 427.8770
971.2380, 449.3457
972.3530, 434.0488
973.4680, 525.0977
974.5830, 680.0625
975.6980, 261.7969
976.8130, 282.8789
977.9280, 673.3809
979.0420, 490.9590
980.1560, 283.6191
981.2710, 544.8848
982.3850, 198.9414
983.4980, 363.4922
984.6120, 443.7090
985.7260, 148.5742
986.8390, 241.4043
987.9520, 271.9297
989.0650, 273.5723
990.1780, 153.0254
991.2910, 422.2363
992.4030, 178.2812
993.5160, 132.0879
994.6280, 335.5137
995.7400, 273.7734
996.8520, 339.3926
997.9640, 149.9688
999.0750, 257.7930
1000.187, 91.09180
1001.298, 187.5137
1002.409, 79.89844
1003.520, 195.2734
1004.631, 313.5312
1005.741, 326.4434
1006.852, 139.6582
1007.962, 34.32227
1009.072, 36.96094
1010.182, 34.29297
1011.292, 73.64453
1012.402, 0.1054690
1013.511, 253.3613
1014.621, 200.5645
1015.730, 274.7480
1016.839, 215.7891
1017.948, 181.2930
1019.056, 313.2852
1020.165, 90.12695
1021.273, 258.2930
1022.382, 321.9922
1023.490, 232.1484
1024.598, 117.6543
1025.706, 235.5020
1026.813, 129.1250
1027.921, 75.88672
1029.028, 12.95898
1030.135, 281.1797
1031.242, 0.5859380
1032.349, 282.5469
1033.456, 12.64648
1034.562, 0.0000000E+00
##END=



