##NAMES=Pharmacosiderite
##RRUFFID=R050574
##IDEAL CHEMISTRY=KFe^3+^_4_(As^5+^O_4_)_3_(OH)_4_&#183;6-7H_2_O
##LOCALITY=Cornwall, England
##OWNER=RRUFF
##SOURCE=University of Arizona Mineral Museum
##DESCRIPTION=Druse of bluish-green cubes
##STATUS=The identification of this mineral is confirmed by single-crystal X-ray diffraction and chemical analysis.
##URL=rruff.info/R050574
##MEASURED CHEMISTRY=K_1.27_(Fe^3+^_3.73_Fe^2+^_0.27_)_Σ=4_(As_1.00_O_4_)_3_(OH)_4_·6H_2_O
##PIN_ID=M00886
##ORIENTATION=Laser parallel to c* (0 0 1). Fiducial mark perpendicular to laser is parallel to -a [-1 0 0]
164.7980, 0.0000000E+00
166.0340, 50.27661
167.2690, 90.25708
168.5040, 24.69141
169.7390, 130.7817
170.9730, 100.3425
172.2080, 85.66260
173.4420, 0.1787110
174.6760, 10.35791
175.9100, 57.95117
177.1440, 18.33154
178.3770, 5.695313
179.6100, 58.89917
180.8430, 44.14600
182.0760, 96.31641
183.3090, 53.30762
184.5410, 135.0308
185.7740, 174.4238
187.0060, 146.6033
188.2380, 150.6377
189.4690, 201.4067
190.7010, 196.7915
191.9320, 175.6992
193.1630, 264.0581
194.3940, 141.8118
195.6250, 212.9150
196.8550, 169.3325
198.0860, 153.0349
199.3160, 144.9988
200.5460, 101.2046
201.7750, 115.6365
203.0050, 46.27612
204.2340, 143.1038
205.4630, 126.1006
206.6920, 170.7004
207.9210, 157.7341
209.1500, 321.9883
210.3780, 333.7480
211.6060, 468.4983
212.8340, 579.1362
214.0620, 665.6794
215.2900, 848.1445
216.5170, 1079.546
217.7440, 1253.896
218.9710, 1475.208
220.1980, 1850.492
221.4250, 2266.759
222.6510, 2771.018
223.8770, 3137.279
225.1040, 3709.546
226.3290, 4235.828
227.5550, 4708.128
228.7810, 5516.453
230.0060, 6143.809
231.2310, 6716.198
232.4560, 7015.625
233.6810, 7321.093
234.9050, 7572.606
236.1290, 7774.167
237.3540, 7615.777
238.5770, 7657.429
239.8010, 7179.086
241.0250, 6858.734
242.2480, 6430.375
243.4710, 6018.988
244.6940, 5640.596
245.9170, 5149.215
247.1400, 4652.864
248.3620, 4176.245
249.5840, 3806.551
250.8060, 3429.762
252.0280, 3240.641
253.2500, 2950.229
254.4710, 2749.996
255.6920, 2513.542
256.9140, 2404.706
258.1340, 2341.174
259.3550, 2136.723
260.5760, 2048.356
261.7960, 1957.070
263.0160, 1864.866
264.2360, 1720.744
265.4560, 1693.705
266.6750, 1674.748
267.8940, 1702.875
269.1140, 1689.085
270.3330, 1629.378
271.5510, 1735.757
272.7700, 1776.220
273.9880, 1890.769
275.2070, 2114.401
276.4250, 2203.120
277.6420, 2357.925
278.8600, 2409.814
280.0770, 2652.789
281.2950, 2584.846
282.5120, 2635.978
283.7290, 2561.183
284.9450, 2706.462
286.1620, 2495.814
287.3780, 2571.239
288.5940, 2518.737
289.8100, 2411.306
291.0260, 2316.948
292.2410, 2268.661
293.4570, 2239.444
294.6720, 2115.298
295.8870, 2371.220
297.1010, 2273.211
298.3160, 2388.271
299.5300, 2357.399
300.7450, 2314.593
301.9590, 2388.852
303.1730, 2361.179
304.3860, 2262.568
305.6000, 2177.023
306.8130, 2053.542
308.0260, 1903.122
309.2390, 1788.764
310.4510, 1599.468
311.6640, 1393.273
312.8760, 1179.899
314.0880, 1068.333
315.3000, 986.4390
316.5120, 706.6016
317.7240, 650.7900
318.9350, 492.1338
320.1460, 435.4958
321.3570, 360.8406
322.5680, 168.5581
323.7790, 144.5139
324.9890, 98.44702
326.1990, 54.47900
327.4090, 42.39478
328.6190, 32.18579
329.8290, 147.8958
331.0380, 128.5498
332.2480, 186.1470
333.4570, 105.7026
334.6660, 241.2041
335.8740, 162.6846
337.0830, 167.1287
338.2910, 137.5396
339.5000, 168.9136
340.7080, 54.25830
341.9150, 111.5520
343.1230, 84.80713
344.3300, 4.019775
345.5380, 58.17700
346.7450, 38.28784
347.9520, 87.65112
349.1580, 76.64673
350.3650, 114.6948
351.5710, 138.8010
352.7770, 151.9666
353.9830, 198.1851
355.1890, 217.4639
356.3940, 283.6182
357.6000, 409.1689
358.8050, 456.5955
360.0100, 517.0732
361.2150, 674.6067
362.4190, 773.1946
363.6240, 970.8477
364.8280, 1090.558
366.0320, 1229.330
367.2360, 1415.168
368.4400, 1618.065
369.6430, 1748.029
370.8460, 1934.050
372.0500, 2161.136
373.2530, 2473.282
374.4550, 2668.493
375.6580, 2932.768
376.8600, 3177.106
378.0620, 3439.507
379.2650, 3640.569
380.4660, 3779.474
381.6680, 3997.037
382.8690, 4238.674
384.0710, 4346.369
385.2720, 4268.128
386.4730, 4437.954
387.6730, 4363.835
388.8740, 4401.779
390.0740, 4327.785
391.2740, 4199.851
392.4740, 4141.944
393.6740, 4053.996
394.8740, 3868.012
396.0730, 3720.951
397.2730, 3561.650
398.4720, 3388.723
399.6700, 3228.615
400.8690, 3087.536
402.0680, 2956.500
403.2660, 2803.514
404.4640, 2700.573
405.6620, 2578.193
406.8600, 2497.835
408.0570, 2397.025
409.2550, 2316.251
410.4520, 2299.512
411.6490, 2102.807
412.8460, 2202.138
414.0430, 2047.502
415.2390, 2074.900
416.4350, 2087.330
417.6310, 1981.792
418.8270, 1986.287
420.0230, 2030.813
421.2190, 1999.371
422.4140, 2072.958
423.6090, 1995.576
424.8040, 1991.223
425.9990, 2017.900
427.1940, 2149.605
428.3880, 2159.339
429.5820, 2339.100
430.7760, 2236.889
431.9700, 2372.705
433.1640, 2371.548
434.3580, 2459.417
435.5510, 2528.312
436.7440, 2570.231
437.9370, 2760.177
439.1300, 2898.146
440.3230, 2992.140
441.5150, 3220.158
442.7070, 3317.199
443.8990, 3536.263
445.0910, 3624.349
446.2830, 3957.458
447.4750, 4197.588
448.6660, 4527.740
449.8570, 4886.913
451.0480, 5241.106
452.2390, 5619.319
453.4290, 6213.553
454.6200, 6780.806
455.8100, 7549.083
457.0000, 8420.385
458.1900, 9474.713
459.3800, 10702.07
460.5690, 12163.45
461.7590, 13866.86
462.9480, 15897.29
464.1370, 18705.75
465.3260, 21587.25
466.5140, 25092.77
467.7030, 28880.31
468.8910, 32756.88
470.0790, 36729.46
471.2670, 40517.78
472.4550, 42926.44
473.6420, 45189.26
474.8300, 46586.00
476.0170, 47173.96
477.2040, 46512.82
478.3900, 45571.92
479.5770, 43087.14
480.7640, 40285.17
481.9500, 37014.67
483.1360, 33682.74
484.3220, 30193.03
485.5080, 26914.96
486.6930, 23628.12
487.8780, 21001.29
489.0640, 18678.81
490.2490, 16626.37
491.4330, 14981.31
492.6180, 13228.63
493.8030, 12155.25
494.9870, 11058.79
496.1710, 9940.446
497.3550, 9091.100
498.5390, 8352.045
499.7220, 7627.042
500.9060, 7187.030
502.0890, 6674.887
503.2720, 6200.808
504.4550, 5798.349
505.6370, 5437.400
506.8200, 5311.635
508.0020, 4969.440
509.1840, 4586.883
510.3660, 4513.455
511.5480, 4239.734
512.7290, 4086.771
513.9110, 3808.708
515.0920, 3535.538
516.2730, 3393.458
517.4540, 3314.592
518.6350, 3162.938
519.8150, 3004.570
520.9960, 3023.043
522.1760, 2755.111
523.3560, 2608.448
524.5350, 2618.057
525.7150, 2515.819
526.8950, 2379.324
528.0740, 2282.878
529.2530, 2293.850
530.4320, 2193.949
531.6100, 2127.353
532.7890, 2125.881
533.9670, 1988.585
535.1460, 1984.274
536.3240, 1880.618
537.5010, 1878.214
538.6790, 1867.373
539.8570, 1753.129
541.0340, 1734.640
542.2110, 1685.241
543.3880, 1683.470
544.5650, 1611.966
545.7410, 1579.365
546.9180, 1523.405
548.0940, 1478.733
549.2700, 1392.771
550.4460, 1317.805
551.6210, 1244.549
552.7970, 1251.830
553.9720, 1145.852
555.1480, 1155.837
556.3230, 1100.810
557.4970, 1082.772
558.6720, 1123.722
559.8460, 1147.659
561.0210, 1070.584
562.1950, 970.4961
563.3690, 983.3950
564.5420, 922.2810
565.7160, 924.1528
566.8890, 874.0105
568.0630, 775.8545
569.2360, 784.6838
570.4090, 766.4988
571.5810, 815.2986
572.7540, 768.0833
573.9260, 766.8523
575.0980, 698.6060
576.2700, 718.3435
577.4420, 706.0654
578.6140, 628.7703
579.7850, 609.4590
580.9560, 653.1311
582.1270, 571.7856
583.2980, 657.4233
584.4690, 649.0430
585.6400, 671.6453
586.8100, 636.2830
587.9800, 584.7964
589.1500, 533.3440
590.3200, 512.8735
591.4900, 495.3843
592.6590, 499.8760
593.8290, 434.3486
594.9980, 498.8018
596.1670, 433.2354
597.3360, 503.6494
598.5040, 571.0432
599.6730, 491.1003
600.8410, 441.7708
602.0090, 408.1033
603.1770, 329.4150
604.3450, 342.7061
605.5130, 311.9756
606.6800, 335.2234
607.8470, 282.4497
609.0140, 299.6538
610.1810, 271.8359
611.3480, 255.9956
612.5140, 259.1396
613.6810, 185.2664
614.8470, 191.3970
616.0130, 166.5266
617.1790, 200.6677
618.3440, 122.8035
619.5100, 113.9624
620.6750, 132.1272
621.8400, 85.61353
623.0050, 58.46973
624.1700, 54.64502
625.3350, 55.80176
626.4990, 53.95044
627.6640, 43.08447
628.8280, 44.18994
629.9920, 33.27344
631.1550, 26.28516
632.3190, 49.34814
633.4820, 12.33667
634.6460, 2.718018
635.8090, 3.824219
636.9710, 50.98291
638.1340, 23.21924
639.2970, 7.518555
640.4590, 22.87305
641.6210, 20.29102
642.7830, 36.77173
643.9450, 30.32324
645.1070, 69.94336
646.2680, 40.65259
647.4300, 49.43555
648.5910, 75.29712
649.7520, 45.25122
650.9130, 72.28198
652.0730, 36.40356
653.2340, 66.59766
654.3940, 48.87964
655.5540, 66.23975
656.7140, 69.68726
657.8740, 57.19385
659.0330, 61.84106
660.1930, 43.54272
661.3520, 21.31934
662.5110, 25.84839
663.6700, 110.0674
664.8290, 49.08472
665.9870, 77.18018
667.1460, 78.36816
668.3040, 37.64722
669.4620, 71.99780
670.6200, 61.43774
671.7770, 63.96094
672.9350, 19.56836
674.0920, 12.76294
675.2500, 46.94873
676.4070, 19.73511
677.5630, 63.41846
678.7200, 71.45581
679.8770, 36.41626
681.0330, 9.555664
682.1890, 17.51489
683.3450, 6.642090
684.5010, 9.179932
685.6560, 9.039307
686.8120, 2.690674
687.9670, 57.37622
689.1220, 54.03540
690.2770, 63.66846
691.4320, 67.27515
692.5870, 45.85645
693.7410, 67.41138
694.8950, 113.9407
696.0490, 107.4448
697.2030, 79.92383
698.3570, 92.37817
699.5110, 60.80762
700.6640, 112.2124
701.8170, 87.59277
702.9700, 141.9487
704.1230, 179.2800
705.2760, 214.5876
706.4290, 212.8711
707.5810, 158.1311
708.7330, 99.36719
709.8850, 186.5796
711.0370, 261.7690
712.1890, 228.9353
713.3400, 240.0784
714.4920, 221.1990
715.6430, 271.2969
716.7940, 250.3721
717.9450, 281.4250
719.0960, 287.9878
720.2460, 276.4646
721.3960, 302.4521
722.5470, 269.4177
723.6970, 280.3618
724.8460, 278.2847
725.9960, 278.1868
727.1460, 282.0679
728.2950, 285.9285
729.4440, 289.5515
730.5930, 285.7754
731.7420, 305.3884
732.8910, 286.1687
734.0390, 304.9294
735.1870, 328.6704
736.3360, 261.3926
737.4840, 310.0957
738.6310, 288.7805
739.7790, 275.4463
740.9260, 259.0942
742.0740, 255.7241
743.2210, 267.3367
744.3680, 280.9312
745.5150, 292.5088
746.6610, 268.0693
747.8080, 320.6130
748.9540, 262.1404
750.1000, 309.6514
751.2460, 300.1465
752.3920, 251.6257
753.5380, 308.0894
754.6830, 292.5376
755.8280, 316.9705
756.9730, 303.3884
758.1180, 311.7910
759.2630, 260.1792
760.4080, 279.5522
761.5520, 207.8328
762.6960, 318.0205
763.8410, 314.1970
764.9840, 342.3127
766.1280, 319.1653
767.2720, 364.0120
768.4150, 356.5298
769.5590, 389.7827
770.7020, 422.6541
771.8450, 410.2412
772.9870, 441.8977
774.1300, 486.4495
775.2720, 550.0073
776.4150, 528.2766
777.5570, 517.5012
778.6990, 528.7344
779.8400, 636.1038
780.9820, 703.4143
782.1230, 711.1079
783.2650, 768.2949
784.4060, 782.3027
785.5470, 827.7441
786.6870, 808.5503
787.8280, 872.2324
788.9680, 889.2107
790.1090, 847.4365
791.2490, 841.7646
792.3890, 828.3591
793.5280, 784.8022
794.6680, 767.2803
795.8070, 731.2488
796.9470, 705.3687
798.0860, 745.2356
799.2250, 682.4624
800.3630, 704.4351
801.5020, 636.1289
802.6410, 616.6738
803.7790, 666.5190
804.9170, 604.6445
806.0550, 625.9922
807.1930, 615.2170
808.3300, 593.1409
809.4680, 652.9453
810.6050, 686.5771
811.7420, 724.2300
812.8790, 725.2314
814.0160, 698.9871
815.1520, 800.1846
816.2890, 723.7925
817.4250, 816.6516
818.5610, 784.4268
819.6970, 921.5815
820.8330, 837.4756
821.9680, 916.4004
823.1040, 981.2625
824.2390, 985.9214
825.3740, 1012.301
826.5090, 1161.691
827.6440, 1159.106
828.7790, 1373.537
829.9130, 1370.960
831.0470, 1367.427
832.1810, 1464.912
833.3150, 1513.416
834.4490, 1739.938
835.5830, 1842.480
836.7160, 1958.041
837.8500, 2099.621
838.9830, 2204.222
840.1160, 2426.843
841.2480, 2708.484
842.3810, 2899.146
843.5140, 3109.829
844.6460, 3325.533
845.7780, 3702.258
846.9100, 3819.006
848.0420, 4229.776
849.1740, 4632.566
850.3050, 4829.382
851.4360, 5150.218
852.5680, 5492.079
853.6990, 5798.962
854.8290, 6072.869
855.9600, 6434.800
857.0910, 6674.755
858.2210, 6971.735
859.3510, 7256.739
860.4810, 7556.767
861.6110, 7693.821
862.7410, 8056.899
863.8700, 8112.005
865.0000, 8585.141
866.1290, 8748.299
867.2580, 8883.490
868.3870, 9141.713
869.5150, 9309.912
870.6440, 9541.233
871.7720, 9707.540
872.9000, 9896.875
874.0290, 10052.24
875.1560, 10370.64
876.2840, 10328.08
877.4120, 10373.55
878.5390, 10238.04
879.6660, 10110.58
880.7930, 9636.138
881.9200, 9145.734
883.0470, 8624.358
884.1740, 8036.269
885.3000, 7449.713
886.4260, 6772.442
887.5530, 6103.207
888.6780, 5404.009
889.8040, 4896.849
890.9300, 4366.731
892.0550, 3743.656
893.1810, 3292.625
894.3060, 2924.637
895.4310, 2569.689
896.5560, 2209.782
897.6800, 1999.915
898.8050, 1684.089
899.9290, 1390.305
901.0530, 1292.563
902.1770, 1089.864
903.3010, 952.2056
904.4250, 784.5889
905.5480, 745.0149
906.6720, 638.4785
907.7950, 537.9878
908.9180, 413.5520
910.0410, 369.5986
911.1630, 387.8601
912.2860, 286.6118
913.4080, 257.4285
914.5300, 226.2991
915.6530, 169.2283
916.7740, 176.2158
917.8960, 138.2676
919.0180, 44.39185
920.1390, 83.57983
921.2600, 51.82959
922.3820, 22.15186
923.5020, 67.54517
924.6230, 34.01367
925.7440, 19.54932
926.8640, 20.84277
927.9850, 13.17407
929.1050, 37.40967
930.2250, 3.633545
931.3450, 47.75928
932.4640, 7.817627
933.5840, 25.19116
934.7030, 1.267578
935.8220, 6.404297
936.9410, 34.62573
938.0600, 5.087158
939.1790, 39.72388
940.2970, 36.70923
941.4160, 85.20117
942.5340, 17.76758
943.6520, 115.4026
944.7700, 124.1021
945.8870, 129.8623
947.0050, 132.6660
948.1220, 137.5330
949.2400, 146.4575
950.3570, 214.4243
951.4740, 192.4578
952.5900, 231.5488
953.7070, 228.6833
954.8240, 239.8706
955.9400, 259.1089
957.0560, 293.3896
958.1720, 252.7175
959.2880, 312.0916
960.4030, 349.5037
961.5190, 407.9556
962.6340, 331.4431
963.7490, 340.9666
964.8640, 300.5244
965.9790, 347.1174
967.0940, 398.7449
968.2080, 410.4070
969.3230, 420.1082
970.4370, 442.8433
971.5510, 522.6133
972.6650, 457.4199
973.7790, 539.2612
974.8920, 451.1377
976.0060, 553.0479
977.1190, 605.9912
978.2320, 583.9688
979.3450, 540.9795
980.4580, 594.0227
981.5710, 751.0999
982.6830, 630.2100
983.7950, 697.3533
984.9080, 785.5308
986.0200, 730.7405
987.1310, 792.9829
988.2430, 800.2576
989.3550, 841.5637
990.4660, 844.9016
991.5770, 818.2708
992.6880, 884.6709
993.7990, 867.1025
994.9100, 879.5649
996.0200, 851.0576
997.1310, 873.6265
998.2410, 946.1599
999.3510, 909.7444
1000.461, 965.0764
1001.571, 981.5090
1002.681, 1005.183
1003.790, 948.8865
1004.899, 927.5676
1006.009, 950.3330
1007.118, 952.1729
1008.226, 958.5332
1009.335, 884.3535
1010.444, 983.2263
1011.552, 922.0222
1012.660, 928.4946
1013.768, 963.8364
1014.876, 900.9062
1015.984, 957.1890
1017.092, 971.9236
1018.199, 972.0034
1019.306, 990.3145
1020.413, 953.4019
1021.520, 979.1470
1022.627, 987.9321
1023.734, 961.3706
1024.840, 902.5872
1025.947, 965.7581
1027.053, 901.5293
1028.159, 874.8291
1029.265, 920.0994
1030.370, 920.0234
1031.476, 909.0444
1032.581, 900.2888
1033.687, 879.4502
1034.792, 894.4307
1035.897, 915.2188
1037.002, 833.6072
1038.106, 835.7974
1039.211, 904.7747
1040.315, 790.0015
1041.419, 807.4949
1042.523, 826.7234
1043.627, 808.9961
1044.731, 728.8196
1045.834, 723.2563
1046.938, 748.1333
1048.041, 615.2866
1049.144, 690.2375
1050.247, 673.9985
1051.349, 627.2485
1052.452, 616.2068
1053.555, 595.1487
1054.657, 611.0151
1055.759, 566.4360
1056.861, 612.0388
1057.963, 556.0798
1059.064, 555.3933
1060.166, 457.3513
1061.267, 503.0304
1062.368, 563.2292
1063.470, 435.8807
1064.570, 434.9966
1065.671, 470.7087
1066.772, 443.8538
1067.872, 399.9808
1068.972, 377.6747
1070.073, 351.7322
1071.173, 341.0629
1072.272, 334.2972
1073.372, 320.4855
1074.472, 340.2273
1075.571, 308.2908
1076.670, 318.3998
1077.769, 306.2646
1078.868, 288.2239
1079.967, 261.0790
1081.065, 249.4299
1082.164, 243.6411
1083.262, 240.1814
1084.360, 242.6602
1085.458, 227.6987
1086.556, 232.2017
1087.654, 160.1239
1088.751, 187.1094
1089.848, 181.0789
1090.946, 181.6089
1092.043, 196.2306
1093.139, 198.3938
1094.236, 164.6100
1095.333, 168.5205
1096.429, 137.8003
1097.525, 133.9012
1098.622, 160.0371
1099.718, 129.0886
1100.813, 142.2379
1101.909, 129.2394
1103.005, 77.43066
1104.100, 128.1139
1105.195, 123.3323
1106.290, 67.61145
1107.385, 95.68530
1108.480, 93.61731
1109.574, 102.7881
1110.669, 130.7656
1111.763, 74.65564
1112.857, 51.83948
1113.951, 56.86145
1115.045, 62.89783
1116.139, 65.20740
1117.232, 29.24597
1118.326, 77.19067
1119.419, 24.06555
1120.512, 78.95398
1121.605, 91.80554
1122.697, 103.6324
1123.790, 21.48511
1124.883, 71.30872
1125.975, 24.04761
1127.067, 52.83789
1128.159, 56.61560
1129.251, 28.51953
1130.342, 25.21924
1131.434, 19.92700
1132.525, 21.14526
1133.617, 7.401489
1134.708, 14.10803
1135.799, 23.31409
1136.889, 4.232544
1137.980, 24.21460
1139.071, 33.70288
1140.161, 41.22815
1141.251, 10.36536
1142.341, 18.30835
1143.431, 9.943115
1144.521, 5.678711
1145.610, 20.28333
1146.700, 2.002075
1147.789, 11.09937
1148.878, 16.69397
1149.967, 14.53235
1151.056, 18.88330
1152.144, 23.76721
1153.233, 22.97876
1154.321, 31.95178
1155.409, 42.95374
1156.498, 40.85205
1157.585, 33.13342
1158.673, 24.28772
1159.761, 22.50916
1160.848, 15.71021
1161.936, 15.97510
1163.023, 18.27563
1164.110, 15.72192
1165.197, 11.61829
1166.283, 7.351563
1167.370, 0.2044680
1168.456, 4.784424
1169.542, 10.28137
1170.629, 6.760132
1171.714, 12.79895
1172.800, 23.39758
1173.886, 9.957886
1174.971, 30.71606
1176.057, 39.44092
1177.142, 24.77820
1178.227, 1.028564
1179.312, 26.12756
1180.397, 8.742554
1181.481, 0.3450930
1182.566, 6.394775
1183.650, 34.40930
1184.734, 10.39722
1185.818, 14.64929
1186.902, 0.7436520
1187.986, 6.879028
1189.069, 5.941040
1190.153, 38.72266
1191.236, 19.56567
1192.319, 27.12573
1193.402, 2.888428
1194.485, 5.537598
1195.567, 3.148071
1196.650, 18.28357
1197.732, 17.23047
1198.814, 6.707275
1199.896, 21.14221
1200.978, 5.540527
1202.060, 23.89575
1203.142, 50.21631
1204.223, 9.506836
1205.304, 25.75476
1206.386, 65.96582
1207.467, 9.148193
1208.547, 90.28687
1209.628, 35.39832
1210.709, 22.47449
1211.789, 22.51123
1212.869, 57.50793
1213.950, 53.47339
1215.030, 85.40686
1216.109, 54.31189
1217.189, 39.18433
1218.269, 98.02075
1219.348, 102.8291
1220.427, 56.60950
1221.506, 53.35693
1222.585, 35.07043
1223.664, 76.74536
1224.743, 72.38989
1225.821, 124.0033
1226.899, 88.58875
1227.978, 86.14465
1229.056, 95.67053
1230.134, 39.16724
1231.211, 102.6248
1232.289, 84.05347
1233.366, 57.45129
1234.444, 82.81409
1235.521, 79.14575
1236.598, 95.44556
1237.675, 113.7155
1238.751, 87.95654
1239.828, 107.1669
1240.904, 121.3477
1241.981, 87.49988
1243.057, 101.6206
1244.133, 99.71228
1245.209, 79.78210
1246.284, 99.32312
1247.360, 109.8260
1248.435, 117.8032
1249.510, 115.7517
1250.585, 119.6710
1251.660, 122.7971
1252.735, 118.4230
1253.810, 121.2555
1254.884, 138.0590
1255.959, 123.8339
1257.033, 124.5798
1258.107, 113.2969
1259.181, 125.9601
1260.255, 110.6187
1261.328, 116.7122
1262.402, 159.3433
1263.475, 121.9158
1264.548, 146.4592
1265.621, 148.0262
1266.694, 143.5096
1267.767, 146.9191
1268.840, 147.8088
1269.912, 116.2388
1270.984, 170.6160
1272.056, 155.0709
1273.129, 173.8491
1274.200, 137.7584
1275.272, 157.9391
1276.344, 154.9069
1277.415, 164.4218
1278.486, 163.6743
1279.558, 165.9388
1280.629, 157.6899
1281.699, 167.1923
1282.770, 167.6528
1283.841, 163.4598
1284.911, 178.4869
1285.981, 169.5637
1287.051, 175.7698
1288.121, 176.7083
1289.191, 179.9572
1290.261, 172.2739
1291.330, 168.4923
1292.400, 157.4851
1293.469, 141.5579
1294.538, 151.8082
1295.607, 168.2480
1296.676, 137.0846
1297.745, 152.1157
1298.813, 147.3564
1299.881, 159.3435
1300.950, 185.0598
1302.018, 149.0369
1303.086, 209.9647
1304.154, 180.3365
1305.221, 177.0896
1306.289, 191.3969
1307.356, 195.4237
1308.423, 213.6464
1309.490, 177.0527
1310.557, 201.9624
1311.624, 191.1562
1312.691, 195.3574
1313.757, 145.6262
1314.823, 187.3320
1315.890, 162.8475
1316.956, 153.9160
1318.022, 170.7031
1319.087, 167.6829
1320.153, 171.6687
1321.219, 174.5354
1322.284, 174.9133
1323.349, 178.3846
1324.414, 175.6642
1325.479, 176.5499
1326.544, 153.4305
1327.608, 192.7457
1328.673, 196.6857
1329.737, 177.8328
1330.801, 153.7800
1331.865, 200.4489
