##NAMES=Pharmacosiderite
##RRUFFID=R050574
##IDEAL CHEMISTRY=KFe^3+^_4_(As^5+^O_4_)_3_(OH)_4_&#183;6-7H_2_O
##LOCALITY=Cornwall, England
##OWNER=RRUFF
##SOURCE=University of Arizona Mineral Museum
##DESCRIPTION=Druse of bluish-green cubes
##STATUS=The identification of this mineral is confirmed by single-crystal X-ray diffraction and chemical analysis.
##URL=rruff.info/R050574
##MEASURED CHEMISTRY=K_1.27_(Fe^3+^_3.73_Fe^2+^_0.27_)_Σ=4_(As_1.00_O_4_)_3_(OH)_4_·6H_2_O
##PIN_ID=M00886
##ORIENTATION=Laser parallel to c* (0 0 1). Fiducial mark perpendicular to laser is parallel to -a [-1 0 0]
164.7980, 0.0000000E+00
166.0340, 1.633789
167.2690, 20.59155
168.5040, 63.82764
169.7390, 85.44873
170.9730, 9.145752
172.2080, 6.347900
173.4420, 33.48047
174.6760, 70.99805
175.9100, 80.93896
177.1440, 210.1929
178.3770, 366.6433
179.6100, 431.1287
180.8430, 587.4905
182.0760, 755.5864
183.3090, 997.2957
184.5410, 1093.520
185.7740, 1262.233
187.0060, 1363.632
188.2380, 1448.787
189.4690, 1431.576
190.7010, 1517.852
191.9320, 1563.501
193.1630, 1538.436
194.3940, 1390.589
195.6250, 1282.908
196.8550, 1192.353
198.0860, 975.8901
199.3160, 895.4968
200.5460, 706.1521
201.7750, 516.8406
203.0050, 506.5508
204.2340, 324.2744
205.4630, 226.2227
206.6920, 229.3318
207.9210, 205.9812
209.1500, 98.78540
210.3780, 114.0054
211.6060, 55.20654
212.8340, 149.1733
214.0620, 124.8135
215.2900, 166.1533
216.5170, 277.2170
217.7440, 369.0276
218.9710, 444.6050
220.1980, 554.9683
221.4250, 690.9778
222.6510, 764.1172
223.8770, 1003.932
225.1040, 1157.591
226.3290, 1337.104
227.5550, 1597.479
228.7810, 1822.729
230.0060, 1959.859
231.2310, 2154.879
232.4560, 2366.794
233.6810, 2609.614
234.9050, 2685.341
236.1290, 2783.985
237.3540, 2806.549
238.5770, 2904.046
239.8010, 2952.487
241.0250, 2797.879
242.2480, 2693.217
243.4710, 2689.521
244.6940, 2675.356
245.9170, 2450.258
247.1400, 2441.217
248.3620, 2418.458
249.5840, 2428.482
250.8060, 2443.311
252.0280, 2416.208
253.2500, 2418.045
254.4710, 2527.390
255.6920, 2486.458
256.9140, 2540.173
258.1340, 2499.013
259.3550, 2642.325
260.5760, 2577.292
261.7960, 2568.154
263.0160, 2529.052
264.2360, 2534.985
265.4560, 2539.951
266.6750, 2425.950
267.8940, 2554.979
269.1140, 2399.040
270.3330, 2483.129
271.5510, 2407.248
272.7700, 2461.396
273.9880, 2421.573
275.2070, 2512.780
276.4250, 2583.015
277.6420, 2741.279
278.8600, 2640.572
280.0770, 2750.888
281.2950, 2795.226
282.5120, 2878.578
283.7290, 2730.941
284.9450, 2692.316
286.1620, 2616.702
287.3780, 2486.099
288.5940, 2345.508
289.8100, 2132.928
291.0260, 1871.361
292.2410, 1690.806
293.4570, 1534.886
294.6720, 1417.732
295.8870, 1300.213
297.1010, 1293.707
298.3160, 1236.211
299.5300, 1105.728
300.7450, 1014.255
301.9590, 1041.794
303.1730, 1039.345
304.3860, 951.9060
305.6000, 910.4785
306.8130, 823.0610
308.0260, 746.6543
309.2390, 662.2578
310.4510, 588.8716
311.6640, 537.6641
312.8760, 488.6199
314.0880, 383.9004
315.3000, 248.2043
316.5120, 213.6125
317.7240, 174.5000
318.9350, 87.89819
320.1460, 150.5449
321.3570, 81.25244
322.5680, 68.01416
323.7790, 23.82275
324.9890, 11.32788
326.1990, 61.45068
327.4090, 33.56299
328.6190, 96.66089
329.8290, 98.76416
331.0380, 129.8762
332.2480, 160.0076
333.4570, 83.16919
334.6660, 107.3447
335.8740, 94.54370
337.0830, 101.7651
338.2910, 107.0127
339.5000, 63.28931
340.7080, 112.5845
341.9150, 24.91187
343.1230, 63.24902
344.3300, 28.60669
345.5380, 16.02417
346.7450, 4.345947
347.9520, 11.72168
349.1580, 49.10547
350.3650, 19.49292
351.5710, 56.09839
352.7770, 35.69800
353.9830, 118.2886
355.1890, 62.86304
356.3940, 98.42432
357.6000, 223.9734
358.8050, 149.5044
360.0100, 190.0244
361.2150, 192.5503
362.4190, 338.0649
363.6240, 367.5864
364.8280, 377.0994
366.0320, 398.6045
367.2360, 464.0105
368.4400, 581.6121
369.6430, 628.1199
370.8460, 697.6326
372.0500, 830.1455
373.2530, 877.6685
374.4550, 969.2009
375.6580, 1013.750
376.8600, 1052.303
378.0620, 1217.873
379.2650, 1300.449
380.4660, 1427.039
381.6680, 1413.646
382.8690, 1441.275
384.0710, 1577.919
385.2720, 1603.580
386.4730, 1679.260
387.6730, 1697.953
388.8740, 1722.664
390.0740, 1734.443
391.2740, 1722.058
392.4740, 1693.667
393.6740, 1650.160
394.8740, 1564.537
396.0730, 1551.820
397.2730, 1535.002
398.4720, 1550.100
399.6700, 1474.159
400.8690, 1464.213
402.0680, 1424.257
403.2660, 1405.703
404.4640, 1400.025
405.6620, 1395.413
406.8600, 1397.487
408.0570, 1408.567
409.2550, 1417.666
410.4520, 1450.770
411.6490, 1372.886
412.8460, 1467.021
414.0430, 1491.168
415.2390, 1464.325
416.4350, 1596.487
417.6310, 1621.652
418.8270, 1569.821
420.0230, 1730.994
421.2190, 1789.169
422.4140, 1831.349
423.6090, 1934.531
424.8040, 1953.717
425.9990, 2053.905
427.1940, 2112.095
428.3880, 2200.254
429.5820, 2323.483
430.7760, 2434.680
431.9700, 2569.879
433.1640, 2696.787
434.3580, 2844.024
435.5510, 2971.487
436.7440, 3158.693
437.9370, 3315.900
439.1300, 3489.107
440.3230, 3742.317
441.5150, 3967.527
442.7070, 4174.738
443.8990, 4467.949
445.0910, 4753.162
446.2830, 5051.333
447.4750, 5388.587
448.6660, 5765.799
449.8570, 6112.012
451.0480, 6611.224
452.2390, 7128.437
453.4290, 7664.647
454.6200, 8329.858
455.8100, 9172.064
457.0000, 10061.27
458.1900, 11114.47
459.3800, 12218.67
460.5690, 13587.86
461.7590, 15263.06
462.9480, 17428.25
464.1370, 19750.43
465.3260, 22525.61
466.5140, 25456.75
467.7030, 29426.64
468.8910, 32734.13
470.0790, 36467.47
471.2670, 39972.53
472.4550, 42381.63
473.6420, 44614.59
474.8300, 46177.59
476.0170, 46626.67
477.2040, 46296.57
478.3900, 45017.93
479.5770, 42747.09
480.7640, 39867.79
481.9500, 36793.15
483.1360, 33171.26
484.3220, 30084.36
485.5080, 26622.85
486.6930, 23904.00
487.8780, 21203.35
489.0640, 18792.14
490.2490, 16882.89
491.4330, 15077.32
492.6180, 13673.38
493.8030, 12373.98
494.9870, 11267.96
496.1710, 10482.76
497.3550, 9726.029
498.5390, 8824.435
499.7220, 8237.996
500.9060, 7647.140
502.0890, 7134.514
503.2720, 6774.465
504.4550, 6260.171
505.6370, 5814.818
506.8200, 5569.718
508.0020, 5171.452
509.1840, 4945.299
510.3660, 4733.847
511.5480, 4312.718
512.7290, 4148.667
513.9110, 3924.376
515.0920, 3797.297
516.2730, 3512.986
517.4540, 3354.137
518.6350, 3231.424
519.8150, 3058.432
520.9960, 2920.081
522.1760, 2766.074
523.3560, 2694.786
524.5350, 2631.035
525.7150, 2508.308
526.8950, 2429.615
528.0740, 2363.026
529.2530, 2290.404
530.4320, 2206.327
531.6100, 2202.097
532.7890, 2098.224
533.9670, 1943.709
535.1460, 1944.111
536.3240, 1937.563
537.5010, 1824.505
538.6790, 1804.554
539.8570, 1723.720
541.0340, 1688.134
542.2110, 1673.730
543.3880, 1593.507
544.5650, 1554.415
545.7410, 1518.626
546.9180, 1492.085
548.0940, 1438.650
549.2700, 1397.269
550.4460, 1343.806
551.6210, 1296.387
552.7970, 1254.418
553.9720, 1193.834
555.1480, 1150.002
556.3230, 1147.359
557.4970, 1140.874
558.6720, 1039.374
559.8460, 977.8608
561.0210, 872.3335
562.1950, 924.7921
563.3690, 824.2366
564.5420, 846.6671
565.7160, 878.0836
566.8890, 844.4854
568.0630, 781.8730
569.2360, 731.2458
570.4090, 646.6046
571.5810, 664.9487
572.7540, 654.2778
573.9260, 682.5925
575.0980, 640.8921
576.2700, 615.1770
577.4420, 597.4468
578.6140, 572.6797
579.7850, 558.8755
580.9560, 555.1663
582.1270, 531.3757
583.2980, 554.5701
584.4690, 541.7491
585.6400, 478.9126
586.8100, 507.0608
587.9800, 492.1935
589.1500, 468.3108
590.3200, 473.4124
591.4900, 489.4985
592.6590, 432.5688
593.8290, 464.6235
594.9980, 433.6625
596.1670, 404.6855
597.3360, 416.6929
598.5040, 390.6846
599.6730, 335.6602
600.8410, 340.6199
602.0090, 343.5637
603.1770, 348.4916
604.3450, 318.4034
605.5130, 272.2993
606.6800, 281.1791
607.8470, 240.0431
609.0140, 266.8925
610.1810, 248.7345
611.3480, 213.5822
612.5140, 226.4285
613.6810, 239.2897
614.8470, 169.1666
616.0130, 191.0674
617.1790, 147.9998
618.3440, 143.9440
619.5100, 130.9062
620.6750, 158.8831
621.8400, 108.8763
623.0050, 150.8878
624.1700, 61.90576
625.3350, 100.9419
626.4990, 69.97449
627.6640, 63.01270
628.8280, 58.04749
629.9920, 91.06689
631.1550, 52.07751
632.3190, 55.07935
633.4820, 4.917236
634.6460, 69.05310
635.8090, 11.00720
636.9710, 38.93567
638.1340, 1.845215
639.2970, 0.7239990
640.4590, 49.57068
641.6210, 3.399780
642.7830, 53.80139
643.9450, 16.93689
645.1070, 49.34863
646.2680, 11.30786
647.4300, 14.93848
648.5910, 5.455200
649.7520, 16.88367
650.9130, 22.35254
652.0730, 23.86450
653.2340, 4.420288
654.3940, 40.00940
655.5540, 36.65063
656.7140, 60.34192
657.8740, 15.09546
659.0330, 58.88745
660.1930, 21.74060
661.3520, 43.63501
662.5110, 55.58228
663.6700, 80.58826
664.8290, 49.66553
665.9870, 50.79724
667.1460, 68.98438
668.3040, 37.23596
669.4620, 62.53528
670.6200, 28.89514
671.7770, 35.29749
672.9350, 41.74536
674.0920, 25.24194
675.2500, 26.77625
676.4070, 35.35059
677.5630, 5.968994
678.7200, 8.615601
679.8770, 29.29114
681.0330, 33.00623
682.1890, 20.76257
683.3450, 55.55298
684.5010, 29.39526
685.6560, 18.27551
686.8120, 13.81274
687.9670, 19.51648
689.1220, 36.05371
690.2770, 24.96680
691.4320, 16.02563
692.5870, 39.04602
693.7410, 20.10571
694.8950, 8.194458
696.0490, 32.69470
697.2030, 44.57166
698.3570, 51.43628
699.5110, 33.28906
700.6640, 63.12988
701.8170, 10.95898
702.9700, 86.77661
704.1230, 53.58276
705.2760, 44.37756
706.4290, 60.16125
707.5810, 85.93384
708.7330, 50.69556
709.8850, 96.44678
711.0370, 83.18726
712.1890, 81.91748
713.3400, 98.63721
714.4920, 89.34705
715.6430, 67.04700
716.7940, 113.7369
717.9450, 84.41760
719.0960, 103.0885
720.2460, 138.7501
721.3960, 131.4027
722.5470, 64.04626
723.6970, 153.6812
724.8460, 76.30725
725.9960, 137.9250
727.1460, 106.5344
728.2950, 129.1356
729.4440, 94.72900
730.5930, 118.3147
731.7420, 106.8928
732.8910, 117.4636
734.0390, 108.0273
735.1870, 165.5840
736.3360, 116.1340
737.4840, 119.6776
738.6310, 139.2147
739.7790, 73.74573
740.9260, 116.2710
742.0740, 85.79077
743.2210, 158.3049
744.3680, 165.8138
745.5150, 129.3175
746.6610, 118.8163
747.8080, 92.31042
748.9540, 160.7998
750.1000, 103.2848
751.2460, 135.7655
752.3920, 158.2418
753.5380, 112.7139
754.6830, 163.1819
755.8280, 108.6458
756.9730, 176.1056
758.1180, 185.5613
759.2630, 153.0132
760.4080, 171.4614
761.5520, 155.9056
762.6960, 199.2291
763.8410, 182.6663
764.9840, 243.0205
766.1280, 194.3442
767.2720, 190.6460
768.4150, 202.0702
769.5590, 265.3452
770.7020, 316.6322
771.8450, 338.1285
772.9870, 378.0865
774.1300, 400.8958
775.2720, 430.0569
776.4150, 459.9817
777.5570, 495.8389
778.6990, 524.0905
779.8400, 555.1401
780.9820, 583.5879
782.1230, 659.2776
783.2650, 700.0194
784.4060, 776.5022
785.5470, 837.1465
786.6870, 801.6732
787.8280, 756.4946
788.9680, 857.9858
790.1090, 808.3962
791.2490, 886.0427
792.3890, 841.4723
793.5280, 879.1309
794.6680, 798.3223
795.8070, 803.3755
796.9470, 803.7034
798.0860, 778.3875
799.2250, 721.7239
800.3630, 686.3384
801.5020, 686.4580
802.6410, 630.6321
803.7790, 649.6431
804.9170, 598.5483
806.0550, 651.4841
807.1930, 619.8716
808.3300, 687.4116
809.4680, 673.5928
810.6050, 648.4138
811.7420, 693.6167
812.8790, 685.4700
814.0160, 678.8335
815.1520, 707.0908
816.2890, 724.2329
817.4250, 768.1289
818.5610, 820.8450
819.6970, 822.3835
820.8330, 777.7939
821.9680, 957.9038
823.1040, 950.7695
824.2390, 1076.417
825.3740, 1009.113
826.5090, 1076.043
827.6440, 1169.802
828.7790, 1278.113
829.9130, 1315.043
831.0470, 1309.226
832.1810, 1469.222
833.3150, 1545.066
834.4490, 1698.928
835.5830, 1718.809
836.7160, 1887.707
837.8500, 1999.624
838.9830, 2181.559
840.1160, 2350.513
841.2480, 2546.487
842.3810, 2797.479
843.5140, 3042.254
844.6460, 3308.925
845.7780, 3623.572
846.9100, 3905.643
848.0420, 4240.732
849.1740, 4556.432
850.3050, 4875.975
851.4360, 5224.126
852.5680, 5569.298
853.6990, 5926.490
854.8290, 6239.705
855.9600, 6678.940
857.0910, 6951.199
858.2210, 7257.480
859.3510, 7592.834
860.4810, 7772.108
861.6110, 8158.456
862.7410, 8403.825
863.8700, 8607.213
865.0000, 8855.633
866.1290, 9092.078
867.2580, 9326.555
868.3870, 9640.061
869.5150, 9821.597
870.6440, 10173.17
871.7720, 10297.76
872.9000, 10620.39
874.0290, 10823.05
875.1560, 10863.74
876.2840, 10987.21
877.4120, 11060.22
878.5390, 10956.99
879.6660, 10894.79
880.7930, 10750.62
881.9200, 10226.47
883.0470, 9997.342
884.1740, 9288.246
885.3000, 8567.178
886.4260, 7896.141
887.5530, 7243.952
888.6780, 6574.166
889.8040, 6014.227
890.9300, 5405.321
892.0550, 4852.447
893.1810, 4235.607
894.3060, 3773.802
895.4310, 3317.029
896.5560, 2958.288
897.6800, 2627.556
898.8050, 2370.893
899.9290, 2119.235
901.0530, 1895.604
902.1770, 1742.998
903.3010, 1529.420
904.4250, 1379.871
905.5480, 1250.357
906.6720, 1088.881
907.7950, 982.4419
908.9180, 845.0334
910.0410, 756.6621
911.1630, 643.3298
912.2860, 615.0425
913.4080, 538.8018
914.5300, 491.5908
915.6530, 501.4158
916.7740, 383.2910
917.8960, 324.2083
919.0180, 310.1765
920.1390, 328.1819
921.2600, 260.2249
922.3820, 238.3064
923.5020, 186.4329
924.6230, 167.6016
925.7440, 157.3972
926.8640, 178.0811
927.9850, 150.3877
929.1050, 128.7402
930.2250, 120.1523
931.3450, 59.60400
932.4640, 124.1050
933.5840, 40.65112
934.7030, 64.24658
935.8220, 7.102783
936.9410, 18.39624
938.0600, 50.36084
939.1790, 82.16528
940.2970, 59.02148
941.4160, 76.92334
942.5340, 25.87817
943.6520, 72.87476
944.7700, 34.91675
945.8870, 34.99585
947.0050, 54.13403
948.1220, 64.30371
949.2400, 64.51880
950.3570, 6.776611
951.4740, 51.07031
952.5900, 11.40356
953.7070, 145.7783
954.8240, 62.19189
955.9400, 77.65527
957.0560, 147.1575
958.1720, 67.69482
959.2880, 43.26001
960.4030, 56.85132
961.5190, 163.4822
962.6340, 117.1445
963.7490, 109.8430
964.8640, 160.5803
965.9790, 106.3516
967.0940, 180.1543
968.2080, 197.9824
969.3230, 207.8362
970.4370, 265.7156
971.5510, 167.6201
972.6650, 199.5496
973.7790, 216.5032
974.8920, 256.4824
976.0060, 261.4868
977.1190, 259.5161
978.2320, 250.5706
979.3450, 304.6492
980.4580, 318.7654
981.5710, 312.8931
982.6830, 290.0454
983.7950, 367.2227
984.9080, 288.4260
986.0200, 347.6528
987.1310, 372.9033
988.2430, 371.3584
989.3550, 418.6558
990.4660, 428.5709
991.5770, 386.9668
992.6880, 444.3319
993.7990, 422.7200
994.9100, 421.1299
996.0200, 372.5614
997.1310, 397.2483
998.2410, 437.9087
999.3510, 447.2570
1000.461, 496.6536
1001.571, 497.2354
1002.681, 444.3223
1003.790, 489.8525
1004.899, 487.7236
1006.009, 454.2551
1007.118, 532.5369
1008.226, 568.5386
1009.335, 563.8608
1010.444, 507.0779
1011.552, 526.0111
1012.660, 518.7446
1013.768, 547.5150
1014.876, 532.2844
1015.984, 533.0710
1017.092, 585.7445
1018.199, 605.5662
1019.306, 553.1667
1020.413, 552.2949
1021.520, 546.4495
1022.627, 616.1990
1023.734, 560.6255
1024.840, 498.4963
1025.947, 578.2703
1027.053, 573.4612
1028.159, 558.9338
1029.265, 546.2542
1030.370, 535.8483
1031.476, 532.6069
1032.581, 528.5608
1033.687, 536.6277
1034.792, 573.7354
1035.897, 589.9075
1037.002, 557.6008
1038.106, 582.4886
1039.211, 541.4185
1040.315, 517.6099
1041.419, 589.6921
1042.523, 475.0016
1043.627, 507.7394
1044.731, 450.4004
1045.834, 450.4880
1046.938, 476.1519
1048.041, 432.8247
1049.144, 397.3774
1050.247, 410.1738
1051.349, 371.1492
1052.452, 373.5696
1053.555, 329.2787
1054.657, 375.1235
1055.759, 272.7096
1056.861, 338.3097
1057.963, 300.7585
1059.064, 307.3733
1060.166, 269.8881
1061.267, 258.1935
1062.368, 271.0509
1063.470, 241.5438
1064.570, 217.8513
1065.671, 233.3448
1066.772, 233.5518
1067.872, 184.3124
1068.972, 173.9862
1070.073, 237.3126
1071.173, 184.7368
1072.272, 184.1298
1073.372, 129.0341
1074.472, 147.1675
1075.571, 161.7797
1076.670, 128.8779
1077.769, 134.6084
1078.868, 86.15540
1079.967, 134.6460
1081.065, 115.8774
1082.164, 112.4528
1083.262, 136.2542
1084.360, 57.67773
1085.458, 114.4866
1086.556, 61.30933
1087.654, 63.79187
1088.751, 53.22168
1089.848, 109.6646
1090.946, 65.26880
1092.043, 83.63269
1093.139, 24.20410
1094.236, 69.84692
1095.333, 68.86218
1096.429, 37.23816
1097.525, 46.67529
1098.622, 69.25061
1099.718, 30.67969
1100.813, 58.15430
1101.909, 49.59961
1103.005, 56.97009
1104.100, 5.327148
1105.195, 57.61597
1106.290, 24.06702
1107.385, 118.5647
1108.480, 22.00537
1109.574, 46.50464
1110.669, 11.78540
1111.763, 0.3610840
1112.857, 24.59082
1113.951, 14.11682
1115.045, 33.62427
1116.139, 40.48865
1117.232, 17.83960
1118.326, 24.10095
1119.419, 6.578125
1120.512, 17.76733
1121.605, 17.99683
1122.697, 0.9172360
1123.790, 10.31213
1124.883, 23.55530
1125.975, 2.641968
1127.067, 11.74072
1128.159, 4.968994
1129.251, 32.00513
1130.342, 19.92603
1131.434, 38.86890
1132.525, 37.33020
1133.617, 34.68726
1134.708, 19.64990
1135.799, 41.73242
1136.889, 17.73230
1137.980, 45.91040
1139.071, 24.11780
1140.161, 28.33154
1141.251, 25.53345
1142.341, 0.8018800
1143.431, 40.94922
1144.521, 5.660400
1145.610, 21.39246
1146.700, 27.04590
1147.789, 26.27466
1148.878, 14.40149
1149.967, 23.01099
1151.056, 30.38672
1152.144, 13.86462
1153.233, 22.34644
1154.321, 16.22278
1155.409, 22.33142
1156.498, 19.83960
1157.585, 25.55688
1158.673, 13.19617
1159.761, 9.865967
1160.848, 2.294556
1161.936, 8.527954
1163.023, 19.89380
1164.110, 25.10876
1165.197, 20.30701
1166.283, 18.49304
1167.370, 6.703003
1168.456, 12.10254
1169.542, 27.89539
1170.629, 25.16943
1171.714, 3.223389
1172.800, 0.2436520
1173.886, 21.76440
1174.971, 19.81274
1176.057, 25.90063
1177.142, 16.96838
1178.227, 17.81445
1179.312, 22.63794
1180.397, 18.56030
1181.481, 13.20068
1182.566, 4.936157
1183.650, 0.6423340
1184.734, 19.31677
1185.818, 3.966797
1186.902, 29.58594
1187.986, 8.816895
1189.069, 5.386108
1190.153, 37.26978
1191.236, 29.77612
1192.319, 6.740723
1193.402, 42.70422
1194.485, 75.12781
1195.567, 11.53174
1196.650, 18.90552
1197.732, 7.251831
1198.814, 36.56531
1199.896, 14.85571
1200.978, 60.11682
1202.060, 69.35706
1203.142, 32.57678
1204.223, 25.77124
1205.304, 47.93848
1206.386, 28.08301
1207.467, 43.20044
1208.547, 10.29395
1209.628, 61.35535
1210.709, 26.39514
1211.789, 1.593506
1212.869, 43.37793
1213.950, 75.32483
1215.030, 44.25024
1216.109, 44.15100
1217.189, 22.02661
1218.269, 75.87146
1219.348, 73.69495
1220.427, 58.49646
1221.506, 92.27466
1222.585, 62.03186
1223.664, 19.76599
1224.743, 39.46802
1225.821, 89.14270
1226.899, 76.79602
1227.978, 63.42725
1229.056, 78.03503
1230.134, 72.63879
1231.211, 76.18396
1232.289, 87.72473
1233.366, 90.24377
1234.444, 105.7411
1235.521, 75.21729
1236.598, 70.67065
1237.675, 76.10095
1238.751, 70.50879
1239.828, 102.8931
1240.904, 64.25635
1241.981, 112.5835
1243.057, 67.90173
1244.133, 69.19641
1245.209, 48.46777
1246.284, 83.71265
1247.360, 97.93481
1248.435, 86.13562
1249.510, 82.13330
1250.585, 98.28967
1251.660, 104.8293
1252.735, 120.8948
1253.810, 89.99255
1254.884, 124.0682
1255.959, 119.1235
1257.033, 89.15796
1258.107, 134.1707
1259.181, 112.7451
1260.255, 112.8655
1261.328, 73.93774
1262.402, 141.0288
1263.475, 92.20679
1264.548, 116.1459
1265.621, 86.74438
1266.694, 150.6823
1267.767, 119.8702
1268.840, 114.3387
1269.912, 103.4913
1270.984, 111.7485
1272.056, 103.2891
1273.129, 109.8826
1274.200, 101.7322
1275.272, 117.4351
1276.344, 108.1198
1277.415, 99.91663
1278.486, 126.5638
1279.558, 100.4316
1280.629, 122.7704
1281.699, 108.0815
1282.770, 114.8000
1283.841, 82.84021
1284.911, 108.4340
1285.981, 129.1229
1287.051, 99.39258
1288.121, 98.37891
1289.191, 144.5161
1290.261, 103.0706
1291.330, 136.1830
1292.400, 110.5659
1293.469, 106.1670
1294.538, 101.5840
1295.607, 91.55066
1296.676, 89.29468
1297.745, 76.84082
1298.813, 102.3408
1299.881, 96.61340
1300.950, 129.9155
1302.018, 123.0243
1303.086, 106.7007
1304.154, 150.4492
1305.221, 112.7664
1306.289, 128.5028
1307.356, 120.2251
1308.423, 143.0623
1309.490, 104.6504
1310.557, 113.0553
1311.624, 110.0095
1312.691, 102.5342
1313.757, 118.1830
1314.823, 107.9509
1315.890, 104.6981
1316.956, 108.5898
1318.022, 100.3087
1319.087, 101.3503
1320.153, 102.7281
1321.219, 102.5884
1322.284, 136.3995
1323.349, 154.3879
1324.414, 156.1824
1325.479, 131.2551
1326.544, 149.7657
1327.608, 127.3097
1328.673, 110.1111
1329.737, 127.9319
1330.801, 143.7745
1331.865, 117.0967
