##NAMES=Pharmacosiderite
##RRUFFID=R050574
##IDEAL CHEMISTRY=KFe^3+^_4_(As^5+^O_4_)_3_(OH)_4_&#183;6-7H_2_O
##LOCALITY=Cornwall, England
##OWNER=RRUFF
##SOURCE=University of Arizona Mineral Museum
##DESCRIPTION=Druse of bluish-green cubes
##STATUS=The identification of this mineral is confirmed by single-crystal X-ray diffraction and chemical analysis.
##URL=rruff.info/R050574
##MEASURED CHEMISTRY=K_1.27_(Fe^3+^_3.73_Fe^2+^_0.27_)_Σ=4_(As_1.00_O_4_)_3_(OH)_4_·6H_2_O
##PIN_ID=M00719
##ORIENTATION=Laser parallel to a* (1 0 0). Fiducial mark perpendicular to laser is parallel to c [0 0 1]
200.5460, 0.0000000E+00
201.7750, 1.054688
203.0050, 169.2207
204.2340, 120.5332
205.4630, 128.1367
206.6920, 236.7598
207.9210, 173.3535
209.1500, 215.3242
210.3780, 45.25586
211.6060, 39.08203
212.8340, 120.0859
214.0620, 272.5078
215.2900, 170.9551
216.5170, 138.2539
217.7440, 279.3086
218.9710, 309.1094
220.1980, 289.6934
221.4250, 407.1406
222.6510, 664.2891
223.8770, 552.9551
225.1040, 767.0059
226.3290, 1089.346
227.5550, 1038.896
228.7810, 1396.605
230.0060, 1516.428
231.2310, 1837.428
232.4560, 2048.578
233.6810, 2350.992
234.9050, 2824.824
236.1290, 3039.158
237.3540, 3185.281
238.5770, 3471.846
239.8010, 3590.281
241.0250, 3511.051
242.2480, 3632.672
243.4710, 3523.885
244.6940, 3173.738
245.9170, 2979.264
247.1400, 2548.496
248.3620, 2498.459
249.5840, 2249.180
250.8060, 1993.684
252.0280, 1843.982
253.2500, 1691.104
254.4710, 1612.057
255.6920, 1501.859
256.9140, 1451.205
258.1340, 1260.064
259.3550, 1338.484
260.5760, 1405.801
261.7960, 1265.900
263.0160, 1187.311
264.2360, 1114.273
265.4560, 1047.162
266.6750, 1007.469
267.8940, 890.6289
269.1140, 881.1992
270.3330, 817.8633
271.5510, 806.3145
272.7700, 814.6875
273.9880, 834.0273
275.2070, 876.9062
276.4250, 943.1973
277.6420, 1024.883
278.8600, 865.4180
280.0770, 1241.795
281.2950, 1029.256
282.5120, 894.2383
283.7290, 1051.277
284.9450, 1032.375
286.1620, 1091.531
287.3780, 1157.744
288.5940, 1175.014
289.8100, 935.3359
291.0260, 1100.711
292.2410, 1012.135
293.4570, 901.6094
294.6720, 953.1309
295.8870, 1077.693
297.1010, 1074.301
298.3160, 1150.951
299.5300, 1051.641
300.7450, 1075.373
301.9590, 1309.145
303.1730, 1392.955
304.3860, 1289.803
305.6000, 1338.691
306.8130, 1319.617
308.0260, 1066.580
309.2390, 1241.576
310.4510, 880.6094
311.6640, 862.6719
312.8760, 823.7637
314.0880, 561.8789
315.3000, 464.0195
316.5120, 558.1816
317.7240, 345.3672
318.9350, 316.5781
320.1460, 320.8125
321.3570, 6.925781
322.5680, 39.35938
323.7790, 226.6738
324.9890, 40.00781
326.1990, 375.3711
327.4090, 138.7559
328.6190, 128.1660
329.8290, 75.60352
331.0380, 78.93945
332.2480, 41.54492
333.4570, 10.94727
334.6660, 193.5664
335.8740, 23.89844
337.0830, 59.66016
338.2910, 75.24219
339.5000, 36.20508
340.7080, 66.64258
341.9150, 42.07812
343.1230, 56.50000
344.3300, 44.96680
345.5380, 115.4375
346.7450, 80.28320
347.9520, 78.96094
349.1580, 3.246094
350.3650, 57.52344
351.5710, 100.1777
352.7770, 51.08203
353.9830, 91.91016
355.1890, 104.6895
356.3940, 94.53711
357.6000, 218.6172
358.8050, 76.33203
360.0100, 95.02148
361.2150, 68.69727
362.4190, 43.64453
363.6240, 76.01758
364.8280, 202.4199
366.0320, 145.8457
367.2360, 118.2930
368.4400, 54.75391
369.6430, 289.2324
370.8460, 210.7246
372.0500, 406.2246
373.2530, 197.7363
374.4550, 445.2578
375.6580, 313.7871
376.8600, 735.3262
378.0620, 692.8730
379.2650, 902.4238
380.4660, 692.9805
381.6680, 1108.539
382.8690, 1168.096
384.0710, 1406.646
385.2720, 1532.193
386.4730, 1783.723
387.6730, 1852.898
388.8740, 1954.744
390.0740, 1983.273
391.2740, 2047.775
392.4740, 2087.545
393.6740, 2085.883
394.8740, 2083.121
396.0730, 2072.055
397.2730, 1995.637
398.4720, 1900.219
399.6700, 1799.830
400.8690, 1849.459
402.0680, 1681.115
403.2660, 1553.215
404.4640, 1479.441
405.6620, 1237.404
406.8600, 1276.793
408.0570, 1236.504
409.2550, 999.2480
410.4520, 990.0488
411.6490, 1022.801
412.8460, 1086.574
414.0430, 1035.336
415.2390, 938.1426
416.4350, 1019.893
417.6310, 834.6406
418.8270, 842.3105
420.0230, 696.9961
421.2190, 732.6621
422.4140, 789.2676
423.6090, 701.7891
424.8040, 803.1797
425.9990, 670.5684
427.1940, 900.9766
428.3880, 1062.400
429.5820, 608.8809
430.7760, 889.3789
431.9700, 859.9121
433.1640, 851.4629
434.3580, 825.0469
435.5510, 995.6445
436.7440, 945.2754
437.9370, 1023.920
439.1300, 1025.598
440.3230, 1120.287
441.5150, 1126.992
442.7070, 1223.281
443.8990, 1279.104
445.0910, 1403.186
446.2830, 1464.939
447.4750, 1530.701
448.6660, 1739.477
449.8570, 1641.260
451.0480, 1878.055
452.2390, 2140.861
453.4290, 2282.682
454.6200, 2232.512
455.8100, 2537.354
457.0000, 2749.205
458.1900, 2987.062
459.3800, 3454.934
460.5690, 3795.818
461.7590, 4298.709
462.9480, 4808.607
464.1370, 5592.523
465.3260, 6420.973
466.5140, 7533.963
467.7030, 8813.301
468.8910, 10303.46
470.0790, 11913.50
471.2670, 13848.46
472.4550, 15840.43
473.6420, 18349.40
474.8300, 20308.80
476.0170, 22384.67
477.2040, 23187.45
478.3900, 23147.45
479.5770, 21899.52
480.7640, 20076.50
481.9500, 17979.52
483.1360, 15652.97
484.3220, 13407.56
485.5080, 11212.74
486.6930, 10143.77
487.8780, 8377.867
489.0640, 7205.600
490.2490, 6294.561
491.4330, 5499.609
492.6180, 4817.883
493.8030, 4447.467
494.9870, 3830.305
496.1710, 3489.516
497.3550, 3443.674
498.5390, 2907.318
499.7220, 2742.629
500.9060, 2602.254
502.0890, 2419.836
503.2720, 2162.270
504.4550, 2124.379
505.6370, 2031.459
506.8200, 1592.543
508.0020, 1695.629
509.1840, 1648.715
510.3660, 1390.803
511.5480, 1349.889
512.7290, 1518.979
513.9110, 1590.066
515.0920, 1367.156
516.2730, 1145.244
517.4540, 1049.332
518.6350, 1086.418
519.8150, 1055.662
520.9960, 933.7480
522.1760, 941.8340
523.3560, 928.9199
524.5350, 715.4551
525.7150, 919.5391
526.8950, 663.8242
528.0740, 813.1523
529.2530, 535.2891
530.4320, 704.4883
531.6100, 587.5371
532.7890, 568.6855
533.9670, 570.7539
535.1460, 613.8027
536.3240, 455.7402
537.5010, 359.2969
538.6790, 542.5215
539.8570, 306.2148
541.0340, 610.1445
542.2110, 308.3184
543.3880, 470.6953
544.5650, 299.8066
545.7410, 411.8848
546.9180, 315.1582
548.0940, 185.7070
549.2700, 447.5371
550.4460, 304.6309
551.6210, 440.3945
552.7970, 336.9297
553.9720, 286.7949
555.1480, 285.7129
556.3230, 286.2383
557.4970, 480.9434
558.6720, 380.5059
559.8460, 513.6250
561.0210, 357.7246
562.1950, 341.8184
563.3690, 374.6426
564.5420, 191.4160
565.7160, 482.0957
566.8890, 232.9531
568.0630, 320.5117
569.2360, 452.6816
570.4090, 480.0977
571.5810, 467.9492
572.7540, 266.1816
573.9260, 383.3164
575.0980, 363.9473
576.2700, 331.7832
577.4420, 489.7012
578.6140, 345.0410
579.7850, 227.2559
580.9560, 432.2773
582.1270, 323.6328
583.2980, 549.8867
584.4690, 354.1094
585.6400, 302.9512
586.8100, 508.6367
587.9800, 510.3086
589.1500, 411.9668
590.3200, 539.6094
591.4900, 537.6055
592.6590, 469.7598
593.8290, 522.1191
594.9980, 399.0293
596.1670, 475.4766
597.3360, 396.0293
598.5040, 338.5645
599.6730, 385.6523
600.8410, 501.3398
602.0090, 447.0742
603.1770, 487.7402
604.3450, 478.2363
605.5130, 556.0859
606.6800, 228.5098
607.8470, 430.9219
609.0140, 361.5840
610.1810, 156.6211
611.3480, 390.9785
612.5140, 244.3789
613.6810, 331.7031
614.8470, 421.2441
616.0130, 571.5547
617.1790, 493.1172
618.3440, 694.3965
619.5100, 723.0488
620.6750, 599.3027
621.8400, 770.5352
623.0050, 1075.750
624.1700, 895.9570
625.3350, 1103.164
626.4990, 1223.365
627.6640, 1183.549
628.8280, 911.7246
629.9920, 844.9121
631.1550, 777.3496
632.3190, 581.5215
633.4820, 673.6758
634.6460, 460.8086
635.8090, 609.9492
636.9710, 605.0820
638.1340, 340.2207
639.2970, 595.3652
640.4590, 701.5176
641.6210, 567.7031
642.7830, 562.8926
643.9450, 604.0840
645.1070, 538.2695
646.2680, 724.4375
647.4300, 697.5820
648.5910, 877.7051
649.7520, 672.8066
650.9130, 731.8848
652.0730, 689.9395
653.2340, 632.9766
654.3940, 493.9883
655.5540, 471.9785
656.7140, 653.9492
657.8740, 243.9121
659.0330, 183.8516
660.1930, 387.7656
661.3520, 376.6582
662.5110, 278.5293
663.6700, 117.3828
664.8290, 264.2070
665.9870, 179.0078
667.1460, 169.7832
668.3040, 22.53320
669.4620, 20.25000
670.6200, 29.93164
671.7770, 215.6172
672.9350, 46.72266
674.0920, 253.1328
675.2500, 44.28320
676.4070, 118.6660
677.5630, 198.0195
678.7200, 86.34961
679.8770, 74.34961
681.0330, 30.13672
682.1890, 64.98633
683.3450, 31.08594
684.5010, 33.12305
685.6560, 14.87500
686.8120, 15.07031
687.9670, 102.9688
689.1220, 75.10938
690.2770, 165.3379
691.4320, 117.2969
692.5870, 87.09570
693.7410, 45.42188
694.8950, 193.0938
696.0490, 12.24219
697.2030, 18.46484
698.3570, 59.22070
699.5110, 30.94336
700.6640, 58.92969
701.8170, 50.11914
702.9700, 55.13477
704.1230, 65.11719
705.2760, 182.9316
706.4290, 85.87305
707.5810, 176.6445
708.7330, 128.6074
709.8850, 287.0234
711.0370, 46.36133
712.1890, 174.1797
713.3400, 37.30469
714.4920, 239.1426
715.6430, 26.43555
716.7940, 112.9219
717.9450, 31.74805
719.0960, 181.5156
720.2460, 98.75195
721.3960, 118.9570
722.5470, 123.1328
723.6970, 210.2793
724.8460, 345.3984
725.9960, 336.3262
727.1460, 334.5664
728.2950, 367.6113
729.4440, 153.6309
730.5930, 112.6230
731.7420, 60.58789
732.8910, 162.5176
734.0390, 45.42383
735.1870, 268.2969
736.3360, 338.1445
737.4840, 102.9688
738.6310, 23.76367
739.7790, 178.5215
740.9260, 190.2539
742.0740, 28.95898
743.2210, 137.6309
744.3680, 236.2754
745.5150, 302.8945
746.6610, 170.4883
747.8080, 76.05859
748.9540, 270.5039
750.1000, 218.0215
751.2460, 253.5156
752.3920, 174.9863
753.5380, 389.4316
754.6830, 165.8555
755.8280, 362.2559
756.9730, 135.6309
758.1180, 282.9844
759.2630, 295.3125
760.4080, 315.6191
761.5520, 290.9043
762.6960, 471.1699
763.8410, 382.4121
764.9840, 445.6309
766.1280, 354.8320
767.2720, 306.0078
768.4150, 164.1660
769.5590, 373.2969
770.7020, 558.4082
771.8450, 497.4961
772.9870, 597.5664
774.1300, 636.9922
775.2720, 481.6367
776.4150, 721.6406
777.5570, 791.6250
778.6990, 891.4121
779.8400, 803.5234
780.9820, 1032.439
782.1230, 761.3340
783.2650, 870.2090
784.4060, 917.0605
785.5470, 982.9121
786.6870, 1209.701
787.8280, 1309.486
788.9680, 1486.254
790.1090, 1647.002
791.2490, 1538.725
792.3890, 1560.430
793.5280, 1636.727
794.6680, 1325.281
795.8070, 1484.922
796.9470, 1326.387
798.0860, 1289.986
799.2250, 1452.340
800.3630, 1175.193
801.5020, 1112.279
802.6410, 959.7988
803.7790, 958.0938
804.9170, 879.3223
806.0550, 1017.721
807.1930, 749.0371
808.3300, 815.5605
809.4680, 972.8867
810.6050, 777.2676
811.7420, 893.7461
812.8790, 713.2207
814.0160, 793.0488
815.1520, 737.1895
816.2890, 707.8438
817.4250, 642.2344
818.5610, 741.3633
819.6970, 811.2910
820.8330, 926.4395
821.9680, 774.5996
823.1040, 681.5430
824.2390, 497.2852
825.3740, 722.6270
826.5090, 832.6855
827.6440, 791.0508
828.7790, 813.6250
829.9130, 897.9688
831.0470, 709.1172
832.1810, 710.6348
833.3150, 630.9531
834.4490, 851.2852
835.5830, 674.1465
836.7160, 811.0137
837.8500, 1118.850
838.9830, 955.9434
840.1160, 984.0684
841.2480, 1029.268
842.3810, 1172.270
843.5140, 1195.379
844.6460, 1162.203
845.7780, 1317.586
846.9100, 1311.014
848.0420, 1360.547
849.1740, 1561.154
850.3050, 1546.244
851.4360, 1622.111
852.5680, 1951.879
853.6990, 2054.207
854.8290, 2319.637
855.9600, 2519.240
857.0910, 2721.143
858.2210, 2868.824
859.3510, 3131.172
860.4810, 3320.877
861.6110, 3445.439
862.7410, 3499.402
863.8700, 3511.383
865.0000, 3469.207
866.1290, 3426.656
867.2580, 3393.930
868.3870, 3415.977
869.5150, 3458.457
870.6440, 3331.381
871.7720, 3442.180
872.9000, 3433.199
874.0290, 3520.223
875.1560, 3571.838
876.2840, 3625.385
877.4120, 3837.980
878.5390, 3833.730
879.6660, 3956.105
880.7930, 4132.891
881.9200, 4118.734
883.0470, 4152.305
884.1740, 4049.297
885.3000, 3890.090
886.4260, 3665.260
887.5530, 3396.234
888.6780, 3055.070
889.8040, 2674.195
890.9300, 2578.059
892.0550, 2128.186
893.1810, 1938.922
894.3060, 1559.049
895.4310, 1585.174
896.5560, 1399.297
897.6800, 1121.418
898.8050, 1238.576
899.9290, 692.7617
901.0530, 886.9473
902.1770, 704.1289
903.3010, 558.3105
904.4250, 797.2422
905.5480, 337.4199
906.6720, 665.5938
907.7950, 392.7676
908.9180, 337.9375
910.0410, 498.1055
911.1630, 330.2715
912.2860, 375.3750
913.4080, 224.5996
914.5300, 260.7871
915.6530, 322.9707
916.7740, 109.1543
917.8960, 63.33594
919.0180, 284.5254
920.1390, 124.7148
921.2600, 62.90234
922.3820, 108.0898
923.5020, 51.27344
924.6230, 202.4629
925.7440, 87.64648
926.8640, 80.83008
927.9850, 21.98242
929.1050, 77.80469
930.2250, 263.3477
931.3450, 39.50000
932.4640, 105.6523
933.5840, 27.17773
934.7030, 9.464844
935.8220, 120.1562
936.9410, 44.33008
938.0600, 202.5039
939.1790, 206.6797
940.2970, 36.85547
941.4160, 207.0332
942.5340, 164.7793
943.6520, 29.34180
944.7700, 61.46289
945.8870, 2.609375
947.0050, 114.8320
948.1220, 68.05664
949.2400, 73.28711
950.3570, 153.5176
951.4740, 88.75391
952.5900, 210.0156
953.7070, 18.30078
954.8240, 290.6094
955.9400, 354.9258
957.0560, 49.24414
958.1720, 227.4199
959.2880, 37.81836
960.4030, 205.0938
961.5190, 391.4004
962.6340, 205.7617
963.7490, 35.87305
964.8640, 443.5137
965.9790, 175.9043
967.0940, 280.3594
968.2080, 54.18164
969.3230, 187.2793
970.4370, 222.7656
971.5510, 105.2598
972.6650, 118.7793
973.7790, 83.30273
974.8920, 46.83203
976.0060, 73.36328
977.1190, 372.9531
978.2320, 153.5488
979.3450, 109.1406
980.4580, 65.21875
981.5710, 196.3965
982.6830, 217.0371
983.7950, 136.6777
984.9080, 420.4062
986.0200, 292.0684
987.1310, 281.7500
988.2430, 472.4336
989.3550, 261.2051
990.4660, 222.9062
991.5770, 242.6133
992.6880, 558.8672
993.7990, 287.5742
994.9100, 465.2812
996.0200, 333.9883
997.1310, 515.6953
998.2410, 915.4297
999.3510, 519.1328
1000.461, 946.3594
1001.571, 1241.066
1002.681, 962.5020
1003.790, 823.5938
1004.899, 695.3027
1006.009, 610.7617
1007.118, 493.4707
1008.226, 449.5039
1009.335, 298.2188
1010.444, 343.3789
1011.552, 346.4023
1012.660, 448.4648
1013.768, 420.8145
1014.876, 530.6895
1015.984, 475.5410
1017.092, 618.9902
1018.199, 745.7344
1019.306, 507.5723
1020.413, 452.6055
1021.520, 795.5430
1022.627, 720.5723
1023.734, 706.7812
1024.840, 881.6230
1025.947, 761.4805
1027.053, 726.6797
1028.159, 492.3477
1029.265, 593.3379
1030.370, 612.9902
1031.476, 527.1465
1032.581, 650.5762
1033.687, 625.2031
1034.792, 569.2480
1035.897, 720.8555
1037.002, 777.4551
1038.106, 790.0469
1039.211, 573.6270
1040.315, 335.2031
1041.419, 653.8066
1042.523, 652.3613
1043.627, 698.9082
1044.731, 250.4688
1045.834, 358.9961
1046.938, 539.2422
1048.041, 904.8770
1049.144, 566.3770
1050.247, 630.8672
1051.349, 598.3184
1052.452, 408.1094
1053.555, 585.5703
1054.657, 681.0195
1055.759, 498.8613
1056.861, 646.2891
1057.963, 289.8438
1059.064, 465.2500
1060.166, 491.1953
1061.267, 624.2422
1062.368, 538.8145
1063.470, 495.5781
1064.570, 389.9453
1065.671, 413.1582
1066.772, 452.8398
1067.872, 339.7559
1068.972, 625.0625
1070.073, 320.3594
1071.173, 438.6445
1072.272, 259.9180
1073.372, 619.1836
1074.472, 506.3770
1075.571, 561.5371
1076.670, 693.7676
1077.769, 414.7656
1078.868, 533.2051
1079.967, 609.3984
1081.065, 451.5801
1082.164, 754.2793
1083.262, 462.4336
1084.360, 690.5781
1085.458, 761.8262
1086.556, 474.9219
1087.654, 553.0273
1088.751, 478.1191
1089.848, 312.1992
1090.946, 639.1699
1092.043, 707.2227
1093.139, 459.2637
1094.236, 411.2930
1095.333, 385.3086
1096.429, 429.1836
1097.525, 394.1719
1098.622, 439.1445
1099.718, 422.3242
1100.813, 264.1562
1101.909, 422.0898
1103.005, 455.0039
1104.100, 512.6992
1105.195, 380.7988
1106.290, 543.6758
1107.385, 339.5371
1108.480, 217.3828
1109.574, 424.2148
1110.669, 269.0273
1111.763, 410.9531
1112.857, 379.2461
1113.951, 195.0234
1115.045, 539.7852
1116.139, 180.5312
1117.232, 212.2656
1118.326, 332.9805
1119.419, 231.6797
1120.512, 181.3633
1121.605, 431.0312
1122.697, 276.6836
1123.790, 69.31641
1124.883, 377.9336
1125.975, 206.5352
1127.067, 428.1172
1128.159, 307.6836
1129.251, 195.2344
1130.342, 416.7734
1131.434, 78.29297
1132.525, 244.7891
1133.617, 51.27344
1134.708, 113.7305
1135.799, 206.1719
1136.889, 0.5937500
1137.980, 380.9805
1139.071, 129.3477
1140.161, 219.6953
1141.251, 95.03125
1142.341, 114.3477
1143.431, 148.6445
1144.521, 64.92188
1145.610, 179.8281
1146.700, 175.2891
1147.789, 13.60938
1148.878, 160.8477
1149.967, 18.92578
1151.056, 165.4688
1152.144, 339.3086
1153.233, 149.7852
1154.321, 6.621094
1155.409, 171.9844
1156.498, 166.3281
1157.585, 82.65625
1158.673, 271.9766
1159.761, 128.2773
1160.848, 286.5625
1161.936, 106.1719
1163.023, 63.00391
1164.110, 210.0898
1165.197, 103.1641
1166.283, 316.2188
1167.370, 304.2578
1168.456, 272.2812
1169.542, 237.2852
1170.629, 236.0273
1171.714, 193.2500
1172.800, 222.2070
1173.886, 210.1484
1174.971, 195.0742
1176.057, 350.9844
1177.142, 49.12500
1178.227, 168.7031
1179.312, 304.5117
1180.397, 334.3047
1181.481, 10.08203
1182.566, 118.8242
1183.650, 209.5508
1184.734, 398.2617
1185.818, 97.95703
1186.902, 237.6289
1187.986, 159.2891
1189.069, 311.9297
1190.153, 62.55859
1191.236, 124.1641
1192.319, 168.7578
1193.402, 93.35156
1194.485, 184.9219
1195.567, 24.52344
1196.650, 156.9844
1197.732, 25.52344
1198.814, 289.9258
1199.896, 290.3516
1200.978, 249.7695
1202.060, 227.1719
1203.142, 212.5586
1204.223, 26.92578
1205.304, 278.2734
1206.386, 245.6445
1207.467, 32.00391
1208.547, 98.33594
1209.628, 249.6523
1210.709, 225.9531
1211.789, 51.24609
1212.869, 422.5156
1213.950, 262.7695
1215.030, 144.0117
1216.109, 270.2383
1217.189, 281.4531
1218.269, 274.6562
1219.348, 343.8398
1220.427, 194.0117
1221.506, 294.2227
1222.585, 252.4219
1223.664, 319.6094
1224.743, 283.7852
1225.821, 170.9453
1226.899, 304.0977
1227.978, 447.2383
1229.056, 286.3672
1230.134, 203.4805
1231.211, 421.5898
1232.289, 221.6875
1233.366, 448.7695
1234.444, 515.8438
1235.521, 543.9023
1236.598, 247.9492
1237.675, 588.9844
1238.751, 419.0078
1239.828, 570.0195
1240.904, 125.5039
1241.981, 453.4883
1243.057, 431.4805
1244.133, 225.4531
1245.209, 351.4297
1246.284, 370.3320
1247.360, 325.2852
1248.435, 329.2305
1249.510, 217.1602
1250.585, 329.0156
1251.660, 172.9258
1252.735, 259.8359
1253.810, 348.1953
1254.884, 286.0859
1255.959, 489.9805
1257.033, 567.8672
1258.107, 503.7383
1259.181, 547.5859
1260.255, 523.4570
1261.328, 407.7891
1262.402, 597.6406
1263.475, 623.7539
1264.548, 673.2070
1265.621, 560.0234
1266.694, 614.4258
1267.767, 683.2266
1268.840, 708.7227
1269.912, 450.0469
1270.984, 606.3750
1272.056, 314.7695
1273.129, 360.3086
1274.200, 311.4453
1275.272, 371.0508
1276.344, 494.6680
1277.415, 21.32031
1278.486, 452.3789
1279.558, 284.9844
1280.629, 945.2461
1281.699, 451.7266
1282.770, 561.1055
1283.841, 765.3047
1284.911, 735.8555
1285.981, 498.3789
1287.051, 344.2969
1288.121, 555.0000
1289.191, 566.3594
1290.261, 524.0547
1291.330, 704.2344
1292.400, 724.1328
1293.469, 885.8203
1294.538, 806.0781
1295.607, 797.2383
1296.676, 441.4531
1297.745, 619.1445
1298.813, 599.8281
1299.881, 453.5117
1300.950, 982.1562
1302.018, 679.8398
1303.086, 413.5234
1304.154, 700.1875
1305.221, 948.8750
1306.289, 980.8359
1307.356, 635.3984
1308.423, 1002.090
1309.490, 844.7734
1310.557, 756.4883
1311.624, 900.8516
1312.691, 809.5391
1313.757, 826.2266
1314.823, 898.5078
1315.890, 836.1953
1316.956, 659.7422
1318.022, 591.4336
1319.087, 876.5781
1320.153, 662.9922
1321.219, 760.5977
1322.284, 808.8984
1323.349, 626.5859
1324.414, 582.4219
1325.479, 552.0039
1326.544, 533.8203
1327.608, 587.5312
1328.673, 536.2500
1329.737, 530.9688
1330.801, 404.6953
1331.865, 186.4219
1332.929, 296.2148
1333.993, 507.9492
1335.057, 380.6914
1336.120, 700.6562
1337.183, 456.0742
1338.247, 545.8320
1339.310, 573.5938
1340.373, 625.8320
1341.435, 347.5977
1342.498, 489.3672
1343.560, 406.0234
1344.623, 329.8047
1345.685, 403.5938
1346.747, 468.3906
1347.809, 387.1914
1348.871, 249.0000
1349.932, 370.8125
1350.994, 234.6328
1352.055, 470.4609
1353.116, 466.2930
1354.177, 266.1289
1355.238, 186.9688
1356.299, 509.8203
1357.359, 214.6758
1358.420, 316.5352
1359.480, 489.4023
1360.540, 144.2656
1361.600, 348.1289
1362.660, 332.1133
1363.720, 467.9727
