##NAMES=Phenakite
##RRUFFID=R040046
##IDEAL CHEMISTRY=Be_2_SiO_4_
##LOCALITY=San Miguel de Piracicaba, Minas Gerais, Brazil
##OWNER=RRUFF
##SOURCE=University of Arizona Mineral Museum
##DESCRIPTION=Colorless crystal fragments
##STATUS=The identification of this mineral has been confirmed by X-ray diffraction and chemical analysis
##URL=rruff.info/R040046
##MEASURED CHEMISTRY=Be_2.02_Si_0.99_O_4_
##PIN_ID=M00041
##ORIENTATION=Laser parallel to -b* (0 -1 0). Fiducial mark perpendicular to laser is parallel to -c [0 0 -1]
104.405, 0.000
105.801, 20.803
107.197, 37.456
108.592, 79.285
109.987, 127.355
111.382, 96.249
112.777, 131.643
114.171, 211.457
115.565, 244.662
116.959, 320.128
118.353, 394.700
119.747, 446.220
121.140, 325.831
122.533, 221.786
123.926, 199.116
125.318, 200.579
126.711, 189.083
128.103, 180.557
129.495, 181.658
130.886, 189.731
132.278, 182.364
133.669, 154.623
135.060, 168.404
136.451, 150.823
137.841, 170.263
139.231, 154.061
140.621, 145.294
142.011, 143.432
143.401, 156.053
144.790, 119.061
146.179, 137.471
147.568, 126.988
148.957, 106.465
150.345, 95.373
151.733, 62.579
153.121, 83.497
154.509, 81.607
155.896, 58.692
157.284, 81.650
158.671, 105.497
160.058, 152.898
161.444, 397.901
162.830, 327.694
164.217, 651.729
165.602, 306.544
166.988, 98.236
168.374, 32.823
169.759, 10.336
171.144, 3.712
172.528, 4.344
173.913, 13.313
175.297, 2.932
176.681, 27.337
178.065, 19.317
179.449, 1.325
180.832, 18.248
182.215, 1.839
183.598, 2.088
184.981, 10.511
186.363, 36.270
187.745, 8.097
189.127, 17.601
190.509, 18.681
191.891, 7.338
193.272, 45.996
194.653, 12.687
196.034, 25.658
197.414, 39.453
198.795, 2.727
200.175, 48.427
201.555, 30.937
202.935, 11.993
204.314, 7.843
205.693, 39.928
207.072, 70.693
208.451, 42.570
209.830, 72.836
211.208, 49.708
212.586, 39.226
213.964, 7.997
215.342, 6.010
216.719, 45.367
218.096, 112.374
219.473, 201.824
220.850, 585.511
222.226, 1978.596
223.603, 1367.973
224.979, 2899.910
226.355, 944.240
227.730, 365.142
229.105, 360.998
230.481, 805.939
231.856, 1804.212
233.230, 1812.835
234.605, 773.606
235.979, 233.223
237.353, 75.889
238.727, 319.242
240.100, 324.907
241.474, 636.364
242.847, 13.399
244.220, 36.882
245.592, 25.601
246.965, 32.359
248.337, 27.852
249.709, 67.604
251.080, 53.333
252.452, 21.056
253.823, 16.129
255.194, 168.086
256.565, 314.074
257.936, 307.265
259.306, 151.279
260.676, 66.347
262.046, 26.165
263.416, 12.026
264.785, 0.665
266.155, 7.399
267.524, 27.986
268.892, 23.539
270.261, 24.141
271.629, 10.465
272.997, 16.042
274.365, 34.417
275.733, 86.441
277.100, 212.986
278.468, 373.096
279.835, 572.103
281.201, 778.088
282.568, 575.816
283.934, 220.550
285.300, 95.057
286.666, 57.491
288.032, 54.070
289.397, 38.448
290.762, 28.954
292.127, 22.557
293.492, 33.792
294.857, 60.795
296.221, 91.726
297.585, 215.600
298.949, 253.412
300.312, 192.157
301.676, 79.878
303.039, 57.538
304.402, 16.098
305.765, 53.667
307.127, 36.174
308.489, 15.375
309.851, 21.029
311.213, 24.396
312.575, 57.116
313.936, 34.437
315.297, 44.897
316.658, 0.709
318.019, 50.612
319.379, 42.279
320.740, 64.732
322.100, 16.409
323.460, 58.741
324.819, 30.382
326.178, 11.318
327.538, 35.922
328.897, 41.582
330.255, 25.961
331.614, 46.231
332.972, 73.628
334.330, 23.300
335.688, 67.125
337.045, 37.181
338.403, 6.521
339.760, 34.090
341.117, 2.767
342.473, 57.604
343.830, 65.546
345.186, 87.917
346.542, 179.293
347.898, 513.427
349.253, 1007.645
350.609, 985.509
351.964, 543.735
353.319, 203.893
354.673, 132.961
356.028, 79.418
357.382, 7.307
358.736, 55.155
360.090, 87.748
361.443, 55.994
362.797, 45.299
364.150, 49.350
365.503, 68.423
366.856, 52.607
368.208, 46.593
369.560, 9.540
370.912, 18.600
372.264, 41.330
373.616, 44.186
374.967, 57.083
376.318, 49.768
377.669, 78.281
379.020, 101.763
380.370, 77.211
381.720, 214.627
383.070, 416.010
384.420, 854.129
385.770, 1310.444
387.119, 1045.726
388.468, 431.976
389.817, 155.554
391.166, 143.036
392.514, 83.904
393.863, 61.595
395.211, 65.058
396.558, 64.454
397.906, 89.415
399.253, 63.460
400.600, 89.355
401.947, 78.883
403.294, 37.569
404.641, 58.702
405.987, 42.219
407.333, 82.717
408.679, 72.970
410.024, 86.079
411.370, 64.108
412.715, 77.418
414.060, 83.043
415.405, 54.147
416.749, 87.235
418.093, 48.809
419.437, 64.628
420.781, 126.548
422.125, 23.963
423.468, 83.313
424.811, 92.851
426.154, 85.432
427.497, 128.848
428.840, 116.981
430.182, 192.276
431.524, 179.152
432.866, 106.874
434.208, 135.399
435.549, 53.794
436.890, 90.064
438.231, 117.232
439.572, 154.469
440.913, 193.847
442.253, 343.669
443.593, 692.662
444.933, 1861.752
446.273, 1578.154
447.612, 2957.351
448.951, 1504.729
450.290, 618.906
451.629, 332.250
452.968, 223.705
454.306, 151.755
455.644, 166.609
456.982, 66.279
458.320, 144.165
459.657, 105.852
460.995, 12.598
462.332, 122.792
463.668, 115.500
465.005, 175.170
466.341, 290.063
467.678, 306.413
469.014, 230.365
470.349, 115.758
471.685, 50.920
473.020, 88.306
474.355, 97.709
475.690, 111.935
477.025, 28.317
478.359, 69.799
479.693, 116.907
481.027, 230.303
482.361, 330.793
483.695, 286.952
485.028, 276.330
486.361, 239.367
487.694, 152.974
489.027, 65.367
490.359, 14.957
491.692, 106.998
493.024, 61.877
494.356, 92.536
495.687, 162.091
497.019, 64.927
498.350, 105.446
499.681, 18.145
501.012, 128.821
502.342, 105.384
503.672, 68.415
505.002, 154.863
506.332, 64.380
507.662, 36.359
508.992, 77.151
510.321, 53.023
511.650, 82.268
512.979, 97.199
514.307, 57.392
515.636, 123.771
516.964, 89.261
518.292, 73.719
519.619, 114.509
520.947, 205.859
522.274, 182.254
523.601, 374.783
524.928, 842.523
526.255, 1578.246
527.581, 2062.938
528.907, 1345.601
530.233, 714.231
531.559, 259.831
532.885, 228.400
534.210, 179.931
535.535, 107.670
536.860, 104.828
538.185, 93.182
539.509, 53.385
540.834, 81.383
542.158, 29.732
543.482, 35.667
544.805, 30.690
546.129, 13.628
547.452, 74.294
548.775, 19.067
550.098, 1.295
551.420, 112.512
552.742, 26.245
554.065, 71.012
555.386, 38.475
556.708, 23.146
558.030, 87.817
559.351, 9.673
560.672, 60.955
561.993, 5.620
563.313, 106.841
564.634, 50.562
565.954, 4.329
567.274, 59.121
568.594, 45.583
569.913, 66.980
571.233, 2.451
572.552, 75.023
573.871, 105.639
575.189, 94.499
576.508, 233.843
577.826, 230.352
579.144, 367.604
580.462, 330.797
581.780, 160.013
583.097, 164.545
584.414, 50.957
585.731, 63.415
587.048, 42.767
588.365, 25.642
589.681, 99.638
590.997, 68.892
592.313, 41.118
593.629, 55.318
594.944, 23.491
596.260, 149.634
597.575, 76.759
598.890, 321.859
600.204, 750.543
601.519, 1301.568
602.833, 1315.393
604.147, 630.955
605.461, 307.818
606.774, 97.708
608.088, 71.836
609.401, 100.751
610.714, 18.075
612.026, 129.831
613.339, 108.620
614.651, 211.242
615.963, 308.758
617.275, 426.295
618.587, 503.879
619.898, 408.961
621.210, 212.014
622.521, 105.559
623.832, 42.219
625.142, 38.854
626.453, 44.466
627.763, 25.055
629.073, 30.620
630.383, 13.840
631.692, 39.298
633.001, 22.002
634.311, 33.282
635.619, 59.327
636.928, 54.509
638.237, 25.851
639.545, 13.187
640.853, 21.929
642.161, 4.457
643.469, 17.371
644.776, 39.662
646.083, 13.502
647.390, 0.331
648.697, 28.439
650.004, 17.007
651.310, 44.769
652.616, 39.588
653.922, 21.154
655.228, 17.055
656.534, 63.478
657.839, 50.365
659.144, 54.032
660.449, 29.704
661.754, 178.029
663.058, 12.115
664.362, 114.714
665.666, 16.524
666.970, 85.312
668.274, 138.081
669.577, 90.830
670.881, 188.559
672.184, 90.269
673.487, 104.960
674.789, 90.633
676.092, 16.286
677.394, 102.767
678.696, 12.220
679.997, 21.601
681.299, 79.780
682.600, 14.076
683.901, 122.206
685.202, 167.383
686.503, 261.299
687.804, 440.073
689.104, 365.266
690.404, 364.017
691.704, 210.414
693.004, 177.748
694.303, 63.703
695.602, 17.182
696.901, 174.699
698.200, 74.430
699.499, 178.578
700.797, 214.491
702.095, 271.493
703.393, 354.674
704.691, 498.868
705.989, 521.788
707.286, 468.971
708.583, 286.913
709.880, 221.759
711.177, 126.718
712.473, 102.906
713.770, 19.882
715.066, 44.010
716.362, 112.019
717.658, 78.826
718.953, 42.703
720.248, 31.397
721.543, 31.514
722.838, 4.555
724.133, 101.609
725.427, 5.312
726.722, 28.068
728.016, 6.321
729.310, 91.111
730.603, 231.006
731.897, 247.750
733.190, 315.312
734.483, 114.979
735.776, 118.358
737.068, 58.293
738.361, 42.040
739.653, 34.954
740.945, 9.676
742.236, 53.757
743.528, 16.355
744.819, 27.523
746.110, 0.608
747.401, 54.805
748.692, 60.857
749.983, 12.352
751.273, 93.859
752.563, 3.070
753.853, 12.290
755.143, 29.481
756.432, 83.246
757.721, 69.003
759.010, 43.754
760.299, 83.499
761.588, 134.225
762.876, 106.942
764.165, 144.341
765.453, 270.708
766.740, 309.125
768.028, 311.537
769.315, 447.646
770.603, 232.148
771.890, 286.521
773.176, 153.718
774.463, 323.042
775.749, 346.549
777.036, 522.124
778.322, 1032.386
779.607, 1106.929
780.893, 1102.147
782.178, 737.099
783.463, 371.561
784.748, 464.975
786.033, 369.098
787.318, 571.972
788.602, 707.297
789.886, 566.800
791.170, 592.275
792.454, 238.268
793.737, 239.540
795.020, 175.072
796.303, 5.534
797.586, 14.062
798.869, 49.388
800.151, 33.870
801.434, 28.500
802.716, 63.186
803.998, 115.815
805.279, 93.086
806.561, 178.716
807.842, 256.346
809.123, 251.977
810.404, 211.608
811.685, 118.241
812.965, 27.875
814.245, 99.509
815.525, 71.861
816.805, 37.500
818.085, 13.820
819.364, 8.280
820.643, 16.929
821.922, 83.685
823.201, 21.038
824.480, 82.611
825.758, 8.733
827.036, 83.928
828.314, 316.594
829.592, 143.267
830.869, 169.948
832.147, 17.365
833.424, 29.326
834.701, 87.199
835.978, 1.902
837.254, 71.613
838.531, 66.671
839.807, 105.049
841.083, 96.775
842.358, 135.511
843.634, 178.501
844.909, 73.006
846.184, 202.767
847.459, 92.536
848.734, 117.313
850.008, 144.098
851.283, 110.893
852.557, 146.696
853.831, 194.237
855.104, 33.060
856.378, 269.831
857.651, 158.462
858.924, 185.307
860.197, 346.238
861.470, 303.003
862.742, 434.870
864.015, 409.674
865.287, 590.562
866.559, 706.191
867.830, 666.107
869.102, 991.031
870.373, 1100.968
871.644, 1458.915
872.915, 1942.872
874.185, 2496.843
875.456, 4060.822
876.726, 6214.814
877.996, 12108.816
879.266, 23622.828
880.536, 37586.852
881.805, 42620.500
883.074, 28794.545
884.343, 16468.523
885.612, 9501.407
886.881, 5355.492
888.149, 3769.306
889.418, 2741.372
890.686, 1995.395
891.953, 1639.273
893.221, 1343.426
894.488, 1086.590
895.756, 1090.767
897.023, 901.957
898.290, 978.453
899.556, 899.669
900.823, 695.903
902.089, 828.151
903.355, 648.415
904.621, 600.695
905.886, 605.991
907.152, 587.304
908.417, 633.636
909.682, 610.984
910.947, 585.350
912.211, 800.732
913.476, 790.129
914.740, 1114.552
916.004, 1498.991
917.268, 2103.451
918.531, 2887.929
919.795, 3322.424
921.058, 2886.942
922.321, 1961.478
923.584, 1676.030
924.846, 1880.604
926.109, 1975.195
927.371, 2049.809
928.633, 1614.438
929.895, 1039.093
931.156, 863.766
932.418, 828.460
933.679, 713.183
934.940, 877.922
936.201, 981.992
937.461, 1306.773
938.722, 1821.573
939.982, 2086.393
941.242, 2321.231
942.502, 1786.090
943.761, 1440.965
945.021, 1165.859
946.280, 980.771
947.539, 1195.702
948.798, 1350.649
950.056, 1995.617
951.315, 3060.603
952.573, 4225.607
953.831, 4430.631
955.089, 3065.675
956.346, 2140.739
957.604, 1545.822
958.861, 879.729
960.118, 724.650
961.375, 659.792
962.631, 414.878
963.888, 620.060
965.144, 345.260
966.400, 290.479
967.656, 405.719
968.911, 320.826
970.167, 416.104
971.422, 221.408
972.677, 140.726
973.932, 352.068
975.186, 216.628
976.441, 292.011
977.695, 177.415
978.949, 182.956
980.203, 268.402
981.456, 233.868
982.710, 219.354
983.963, 254.861
985.216, 210.390
986.469, 258.259
987.721, 281.508
988.974, 287.665
990.226, 393.336
991.478, 318.975
992.730, 404.645
993.982, 410.340
995.233, 496.059
996.484, 531.806
997.735, 327.571
998.986, 553.357
1000.237, 389.166
1001.487, 254.995
1002.738, 490.850
1003.988, 396.726
1005.237, 342.625
1006.487, 378.545
1007.737, 354.487
1008.986, 340.452
1010.235, 486.440
1011.484, 312.450
1012.732, 698.481
1013.981, 714.535
1015.229, 690.614
1016.477, 716.715
1017.725, 735.260
1018.973, 799.999
1020.220, 846.168
1021.468, 882.365
1022.715, 1048.596
1023.962, 934.840
1025.208, 891.138
1026.455, 727.437
1027.701, 533.758
1028.947, 500.104
1030.193, 376.473
1031.439, 412.863
1032.684, 419.277
1033.930, 245.722
1035.175, 362.901
1036.420, 279.396
1037.665, 185.915
1038.909, 312.629
1040.154, 239.198
1041.398, 265.791
1042.642, 292.417
1043.885, 199.064
1045.129, 395.734
1046.372, 162.431
1047.615, 209.149
1048.858, 275.892
1050.101, 222.655
1051.344, 269.441
1052.586, 206.262
1053.828, 183.103
1055.070, 409.967
1056.312, 206.856
1057.554, 233.768
1058.795, 290.702
1060.036, 137.660
1061.277, 444.641
1062.518, 141.644
1063.759, 168.675
1064.999, 275.729
1066.240, 272.804
1067.480, 229.902
1068.719, 367.022
1069.959, 264.170
1071.199, 341.340
1072.438, 198.534
1073.677, 235.750
1074.916, 372.988
1076.154, 150.249
1077.393, 387.531
1078.631, 234.836
1079.869, 202.163
1081.107, 249.511
1082.345, 196.882
1083.582, 274.274
1084.820, 171.689
1086.057, 169.126
1087.294, 296.585
1088.530, 214.065
1089.767, 264.788
1091.003, 249.093
1092.239, 256.639
1093.475, 234.214
1094.711, 181.812
1095.947, 239.433
1097.182, 157.076
1098.417, 204.739
1099.652, 242.426
1100.887, 310.133
1102.122, 107.862
1103.356, 255.614
1104.590, 173.387
1105.824, 31.183
1107.058, 178.998
1108.292, 46.837
1109.525, 84.700
1110.758, 262.586
1111.991, 19.508
1113.224, 228.419
1114.457, 86.367
1115.689, 164.336
1116.922, 102.327
1118.154, 190.340
1119.385, 98.374
1120.617, 216.430
1121.849, 65.494
1123.080, 7.402
1124.311, 290.709
1125.542, 48.843
1126.773, 166.996
1128.003, 75.172
1129.234, 3.367
1130.464, 251.583
1131.694, 29.821
1132.923, 248.079
1134.153, 76.357
1135.382, 114.787
1136.612, 253.106
1137.841, 101.819
1139.069, 140.181
1140.298, 88.562
1141.526, 67.335
1142.755, 165.758
1143.983, 154.201
1145.210, 62.663
1146.438, 141.147
1147.665, 90.297
1148.893, 178.820
1150.120, 177.363
1151.347, 94.072
1152.573, 254.501
1153.800, 173.094
1155.026, 1.705
1156.252, 120.338
1157.478, 1.011
1158.704, 167.661
1159.929, 136.352
1161.155, 65.412
1162.380, 124.141
1163.605, 112.890
1164.829, 21.753
1166.054, 340.539
1167.278, 70.657
1168.503, 49.382
1169.727, 278.217
1170.950, 21.527
1172.174, 257.344
1173.397, 16.234
1174.621, 77.464
1175.844, 166.392
1177.066, 35.336
1178.289, 145.021
1179.512, 194.002
1180.734, 273.001
1181.956, 312.019
1183.178, 317.043
1184.399, 112.206
1185.621, 301.276
1186.842, 140.364
1188.063, 120.011
1189.284, 209.133
1190.505, 128.272
1191.726, 327.675
1192.946, 196.849
1194.166, 76.038
1195.386, 266.738
1196.606, 235.963
1197.826, 325.205
1199.045, 124.463
1200.264, 133.737
1201.483, 223.642
1202.702, 222.949
1203.921, 192.273
1205.139, 301.614
1206.357, 100.971
1207.575, 200.344
1208.793, 219.733
1210.011, 269.139
1211.228, 248.561
1212.446, 77.998
1213.663, 177.450
1214.880, 386.921
1216.097, 116.406
1217.313, 155.907
1218.529, 335.424
1219.746, 44.955
1220.962, 224.503
1222.177, 94.066
1223.393, 113.646
1224.608, 343.239
1225.824, 62.849
1227.039, 342.472
1228.254, 202.110
1229.468, 111.767
1230.683, 251.437
1231.897, 121.121
1233.111, 130.821
1234.325, 300.535
1235.539, 180.266
1236.752, 200.010
1237.965, 289.769
1239.179, 69.542
1240.392, 249.330
1241.604, 69.133
1242.817, 208.949
1244.029, 228.664
1245.241, 138.512
1246.453, 218.372
1247.665, 188.247
1248.877, 98.136
1250.088, 238.040
1251.300, 237.958
1252.511, 127.891
1253.722, 377.271
1254.932, 187.177
1256.143, 117.150
1257.353, 337.140
1258.563, 87.142
1259.773, 177.158
1260.983, 147.185
1262.192, 127.229
1263.402, 277.288
1264.611, 207.359
1265.820, 12.554
1267.029, 377.545
1268.237, 32.343
1269.446, 97.780
1270.654, 137.917
1271.862, 31.930
1273.070, 148.232
1274.278, 168.405
1275.485, 118.592
1276.692, 148.786
1277.900, 51.008
1279.106, 169.208
1280.313, 309.436
1281.520, 69.674
1282.726, 28.910
1283.932, 179.172
1285.138, 29.444
1286.344, 249.712
1287.550, 49.993
1288.755, 20.264
1289.960, 90.557
1291.165, 29.144
1292.370, 201.165
1293.575, 171.486
1294.779, 8.194
1295.984, 182.133
1297.188, 102.471
1298.392, 87.895
1299.595, 142.447
1300.799, 96.768
1302.002, 123.424
1303.206, 243.788
1304.409, 145.836
1305.611, 34.538
1306.814, 64.924
1308.016, 54.681
1309.219, 105.723
1310.421, 46.137
1311.623, 16.561
1312.824, 166.995
1314.026, 132.561
1315.227, 177.885
1316.428, 48.341
1317.629, 41.195
1318.830, 179.277
1320.031, 129.761
1321.231, 19.747
1322.431, 280.756
1323.631, 101.268
1324.831, 98.211
1326.031, 222.313
1327.230, 32.848
1328.429, 93.392
1329.628, 93.944
1330.827, 45.493
1332.026, 265.077
1333.225, 105.656
1334.423, 26.244
1335.621, 296.842
1336.819, 37.448
1338.017, 108.064
1339.214, 88.689
1340.412, 49.323
1341.609, 96.267
1342.806, 40.620
1344.003, 111.281
1345.200, 221.952
1346.396, 192.632
1347.592, 143.321
1348.788, 154.020
1349.984, 4.729
1351.180, 335.447
1352.376, 6.172
1353.571, 76.905
1354.766, 327.649
1355.961, 188.403
1357.156, 239.169
1358.351, 399.943
1359.545, 50.729
1360.739, 171.525
1361.933, 432.332
1363.127, 73.148
1364.321, 353.977
1365.515, 124.816
1366.708, 125.665
1367.901, 346.525
1369.094, 227.397
1370.287, 218.281
1371.479, 339.175
1372.672, 240.421
1373.864, 246.646
1375.056, 312.127
1376.248, 93.071
1377.440, 374.027
1378.631, 194.997
1379.822, 125.981
1381.014, 396.979
1382.205, 257.990
1383.395, 189.019
1384.586, 380.064
1385.776, 321.124
1386.966, 142.201
1388.157, 363.286
1389.346, 114.388
1390.536, 575.507
1391.725, 156.645
1392.915, 197.802
1394.104, 178.978
1395.293, 330.046
1396.482, 91.270
1397.670, 332.148
1398.858, 143.430
1400.047, 155.145
1401.235, 155.738
1402.422, 176.704
1403.610, 337.682
1404.798, 328.008
1405.985, 199.003
1407.172, 310.021
1408.359, 191.053
1409.546, 222.096
1410.732, 322.771
1411.918, 173.835
1413.105, 134.806
1414.291, 314.535
1415.476, 144.053
1416.662, 375.143
1417.848, 203.574
1419.033, 423.819
1420.218, 374.907
1421.403, 216.006
1422.587, 224.594
1423.772, 375.028
1424.956, 66.126
1426.140, 366.928
1427.324, 316.168
1428.508, 32.728
1429.692, 438.387
1430.875, 248.714
1432.059, 299.840
1433.242, 270.976
1434.425, 212.120
1435.607, 373.273
1436.790, 394.438
1437.972, 245.610
1439.154, 396.793
1440.336, 447.983
1441.518, 269.184
1442.700, 470.393
1443.881, 331.609
1445.062, 462.835
1446.243, 464.067
1447.424, 325.309
1448.605, 306.556
1449.786, 537.812
1450.966, 389.074
1452.146, 330.338
1453.326, 501.608
1454.506, 402.882
1455.685, 534.160
1456.865, 385.443
1458.044, 386.727
1459.223, 448.013
1460.402, 399.299
1461.581, 370.585
1462.759, 388.061
1463.938, 243.159
1465.116, 354.441
1466.294, 415.731
1467.472, 347.043
1468.649, 478.359
1469.827, 379.686
1471.004, 181.021
1472.181, 422.412
1473.358, 393.856
1474.535, 155.358
1475.711, 566.900
1476.887, 258.505
1478.064, 290.156
1479.240, 300.734
1480.415, 142.442
1481.591, 304.172
1482.767, 325.923
1483.942, 107.698
1485.117, 469.495
1486.292, 231.318
1487.467, 113.165
1488.641, 295.040
1489.815, 166.941
1490.990, 278.876
1492.164, 260.842
1493.337, 152.844
1494.511, 244.887
1495.685, 266.973
1496.858, 39.105
1498.031, 311.294
1499.204, 123.539
1500.377, 14.151
1501.549, 168.221
1502.722, 250.651
1503.894, 143.172
1505.066, 235.789
1506.238, 118.479
1507.409, 241.249
1508.581, 244.108
1509.752, 107.068
1510.923, 220.137
1512.094, 73.327
1513.265, 256.653
1514.436, 218.302
1515.606, 171.772
1516.776, 145.392
1517.946, 39.171
1519.116, 103.123
1520.286, 17.258
1521.455, 81.762
1522.625, 76.795
1523.794, 92.349
1524.963, 78.691
1526.132, 3.853
1527.300, 0.000
##END=



