##NAMES=Phenakite
##RRUFFID=R040046
##IDEAL CHEMISTRY=Be_2_SiO_4_
##LOCALITY=San Miguel de Piracicaba, Minas Gerais, Brazil
##OWNER=RRUFF
##SOURCE=University of Arizona Mineral Museum
##DESCRIPTION=Colorless crystal fragments
##STATUS=The identification of this mineral has been confirmed by X-ray diffraction and chemical analysis
##URL=rruff.info/R040046
##MEASURED CHEMISTRY=Be_2.02_Si_0.99_O_4_
##PIN_ID=L00327
##ORIENTATION=Laser parallel to c* (0 0 1). Fiducial mark perpendicular to laser is parallel to a [1 0 0]
89.890, 0.000
91.284, 10.373
92.678, 6.665
94.071, 49.287
95.465, 32.299
96.858, 48.240
98.251, 50.530
99.644, 9.990
101.036, 46.493
102.428, 19.312
103.820, 21.433
105.212, 16.793
106.604, 56.323
107.995, 50.969
109.387, 73.707
110.777, 52.536
112.168, 37.506
113.559, 28.597
114.949, 39.771
116.339, 113.337
117.729, 147.895
119.119, 147.432
120.508, 59.940
121.897, 78.413
123.286, 28.825
124.675, 40.174
126.063, 20.460
127.452, 19.794
128.840, 24.204
130.228, 9.611
131.615, 19.063
133.003, 1.040
134.390, 26.700
135.777, 41.615
137.164, 38.169
138.550, 56.978
139.937, 56.187
141.323, 56.155
142.709, 32.835
144.094, 28.331
145.480, 35.702
146.865, 61.079
148.250, 59.214
149.635, 66.365
151.019, 73.829
152.403, 47.923
153.788, 83.721
155.171, 76.459
156.555, 255.135
157.939, 525.761
159.322, 983.342
160.705, 1304.881
162.088, 1498.388
163.470, 1310.845
164.853, 682.108
166.235, 284.503
167.617, 131.088
168.998, 38.791
170.380, 70.931
171.761, 60.887
173.142, 65.814
174.523, 4.735
175.904, 12.061
177.284, 3.226
178.664, 31.432
180.044, 14.737
181.424, 15.645
182.803, 19.395
184.183, 28.143
185.562, 1.889
186.940, 41.632
188.319, 9.543
189.698, 3.971
191.076, 68.453
192.454, 28.219
193.831, 11.927
195.209, 18.808
196.586, 22.310
197.963, 25.608
199.340, 37.244
200.717, 33.614
202.093, 12.691
203.470, 49.987
204.846, 28.147
206.221, 63.261
207.597, 26.907
208.972, 80.382
210.347, 29.604
211.722, 23.432
213.097, 27.079
214.472, 84.701
215.846, 176.080
217.220, 457.654
218.594, 1413.108
219.967, 2816.354
221.341, 3991.592
222.714, 4287.958
224.087, 3562.386
225.460, 1707.113
226.832, 590.493
228.204, 199.073
229.577, 133.606
230.948, 89.111
232.320, 75.489
233.692, 52.692
235.063, 5.782
236.434, 24.863
237.805, 45.935
239.175, 19.000
240.545, 45.055
241.916, 47.101
243.286, 44.139
244.655, 23.832
246.025, 16.814
247.394, 20.273
248.763, 36.606
250.132, 53.842
251.501, 83.797
252.869, 118.774
254.237, 164.758
255.605, 182.433
256.973, 142.194
258.340, 74.021
259.708, 52.810
261.075, 14.585
262.442, 2.365
263.808, 8.856
265.175, 13.082
266.541, 11.091
267.907, 1.468
269.273, 4.234
270.639, 39.990
272.004, 54.764
273.369, 205.504
274.734, 339.235
276.099, 539.956
277.463, 617.667
278.828, 627.367
280.192, 493.056
281.556, 327.732
282.919, 140.395
284.283, 67.045
285.646, 36.682
287.009, 19.306
288.372, 32.083
289.734, 37.504
291.097, 6.078
292.459, 8.638
293.821, 0.815
295.183, 3.714
296.544, 3.229
297.905, 40.727
299.266, 44.275
300.627, 14.261
301.988, 11.182
303.348, 13.392
304.709, 14.012
306.069, 21.374
307.428, 8.280
308.788, 11.048
310.147, 17.364
311.507, 29.668
312.865, 17.001
314.224, 10.279
315.583, 21.669
316.941, 8.946
318.299, 38.183
319.657, 16.409
321.015, 23.624
322.372, 12.173
323.729, 34.015
325.086, 69.192
326.443, 50.359
327.800, 0.488
329.156, 10.364
330.512, 19.757
331.868, 38.850
333.224, 19.918
334.579, 72.977
335.935, 42.029
337.290, 37.073
338.645, 12.930
339.999, 50.123
341.354, 40.896
342.708, 38.010
344.062, 30.994
345.416, 109.952
346.769, 174.855
348.123, 182.847
349.476, 193.650
350.829, 123.572
352.182, 41.372
353.534, 85.048
354.887, 55.924
356.239, 34.647
357.591, 7.356
358.942, 53.102
360.294, 50.835
361.645, 38.555
362.996, 24.301
364.347, 27.228
365.698, 23.690
367.048, 32.363
368.398, 24.026
369.748, 33.763
371.098, 19.388
372.448, 69.101
373.797, 43.703
375.146, 107.268
376.495, 131.844
377.844, 106.517
379.192, 317.187
380.540, 932.840
381.889, 2078.486
383.236, 3092.127
384.584, 3195.870
385.932, 2276.501
387.279, 1069.125
388.626, 395.741
389.973, 223.352
391.319, 120.956
392.666, 142.553
394.012, 120.144
395.358, 98.823
396.704, 83.506
398.049, 64.748
399.394, 77.196
400.740, 76.802
402.084, 41.708
403.429, 17.235
404.774, 31.765
406.118, 20.278
407.462, 43.178
408.806, 65.149
410.150, 80.371
411.493, 56.844
412.836, 80.390
414.179, 62.932
415.522, 54.292
416.865, 76.851
418.207, 52.388
419.549, 42.918
420.891, 55.383
422.233, 61.024
423.575, 78.342
424.916, 98.841
426.257, 130.279
427.598, 248.098
428.939, 181.968
430.279, 181.021
431.619, 137.161
432.959, 54.590
434.299, 110.122
435.639, 91.607
436.978, 132.087
438.318, 181.560
439.657, 270.029
440.996, 548.490
442.334, 1278.943
443.673, 2173.388
445.011, 2670.824
446.349, 2118.261
447.687, 1186.587
449.024, 539.797
450.361, 276.572
451.699, 156.873
453.036, 116.870
454.372, 122.906
455.709, 111.593
457.045, 114.495
458.381, 108.370
459.717, 38.630
461.053, 198.897
462.388, 190.681
463.724, 332.686
465.059, 428.503
466.394, 363.528
467.728, 169.623
469.063, 98.731
470.397, 94.236
471.731, 55.657
473.065, 40.788
474.398, 88.811
475.732, 19.720
477.065, 43.762
478.398, 75.631
479.731, 135.760
481.063, 225.722
482.396, 265.747
483.728, 301.518
485.060, 289.601
486.391, 206.815
487.723, 109.973
489.054, 77.441
490.385, 72.021
491.716, 52.966
493.047, 58.027
494.377, 66.957
495.708, 54.127
497.038, 49.208
498.368, 34.210
499.697, 23.844
501.027, 17.913
502.356, 13.151
503.685, 20.544
505.014, 24.917
506.342, 40.037
507.671, 25.151
508.999, 29.259
510.327, 45.361
511.655, 58.458
512.982, 97.441
514.310, 87.531
515.637, 122.566
516.964, 109.523
518.291, 131.210
519.617, 242.235
520.944, 252.245
522.270, 770.199
523.596, 1643.072
524.921, 2382.964
526.247, 2312.823
527.572, 1598.733
528.897, 812.585
530.222, 360.492
531.547, 166.298
532.871, 95.327
534.196, 145.261
535.520, 115.281
536.844, 82.297
538.167, 36.308
539.491, 82.314
540.814, 68.315
542.137, 51.311
543.460, 12.302
544.783, 85.288
546.105, 81.269
547.427, 61.245
548.749, 49.216
550.071, 50.183
551.393, 43.145
552.714, 60.102
554.035, 13.055
555.356, 10.002
556.677, 55.944
557.998, 70.957
559.318, 21.071
560.638, 18.000
561.958, 52.851
563.278, 46.563
564.597, 46.364
565.917, 15.905
567.236, 36.112
568.555, 37.976
569.874, 42.486
571.192, 73.002
572.511, 50.877
573.829, 3.802
575.147, 36.026
576.464, 56.196
577.782, 52.026
579.099, 24.793
580.416, 55.473
581.733, 62.305
583.050, 7.344
584.366, 50.553
585.683, 27.901
586.999, 10.978
588.315, 58.107
589.630, 47.041
590.946, 95.819
592.261, 35.567
593.576, 71.334
594.891, 52.833
596.206, 91.590
597.520, 215.593
598.834, 381.340
600.148, 446.083
601.462, 372.820
602.776, 231.552
604.089, 78.220
605.402, 74.943
606.715, 50.660
608.028, 64.374
609.341, 60.093
610.653, 96.407
611.965, 164.521
613.277, 217.230
614.589, 333.937
615.901, 318.754
617.212, 314.051
618.523, 281.972
619.834, 208.666
621.145, 128.361
622.456, 51.054
623.766, 107.749
625.076, 72.441
626.386, 51.129
627.696, 6.819
629.006, 10.500
630.315, 80.174
631.624, 36.803
632.933, 74.471
634.242, 38.008
635.551, 40.643
636.859, 44.303
638.167, 39.959
639.475, 66.613
640.783, 35.264
642.090, 44.917
643.398, 50.567
644.705, 30.213
646.012, 87.856
647.318, 30.502
648.625, 33.118
649.931, 37.737
651.237, 76.352
652.543, 80.964
653.849, 65.573
655.155, 86.180
656.460, 44.730
657.765, 102.247
659.070, 115.736
660.375, 92.192
661.679, 149.688
662.984, 221.215
664.288, 189.790
665.592, 246.300
666.895, 288.825
668.199, 484.409
669.502, 458.759
670.805, 362.337
672.108, 299.913
673.411, 164.513
674.713, 124.084
676.016, 93.654
677.318, 106.221
678.620, 164.785
679.921, 66.348
681.223, 137.909
682.524, 326.468
683.825, 323.025
685.126, 592.580
686.427, 676.134
687.727, 724.686
689.028, 456.236
690.328, 319.785
691.628, 125.331
692.927, 85.875
694.227, 96.417
695.526, 60.947
696.825, 31.485
698.124, 105.021
699.423, 83.555
700.721, 115.980
702.020, 155.511
703.318, 233.040
704.616, 240.568
705.913, 199.094
707.211, 112.618
708.508, 55.141
709.805, 23.663
711.102, 52.088
712.399, 52.496
713.695, 7.014
714.992, 28.471
716.288, 21.958
717.584, 32.375
718.879, 34.868
720.175, 30.361
721.470, 34.854
722.765, 30.036
724.060, 29.433
725.355, 5.922
726.649, 23.455
727.944, 81.996
729.238, 36.553
730.532, 23.064
731.825, 2.522
733.119, 3.903
734.412, 84.328
735.705, 76.306
736.998, 51.077
738.291, 18.539
739.584, 37.550
740.876, 43.198
742.168, 0.517
743.460, 4.775
744.752, 20.450
746.043, 4.858
747.334, 5.173
748.626, 27.438
749.916, 14.245
751.207, 13.066
752.498, 23.623
753.788, 2.678
755.078, 23.980
756.368, 19.283
757.658, 42.587
758.947, 36.108
760.237, 103.181
761.526, 48.472
762.815, 123.764
764.104, 274.057
765.392, 354.352
766.680, 380.648
767.969, 288.946
769.257, 193.246
770.544, 164.547
771.832, 117.850
773.119, 175.155
774.406, 126.462
775.693, 292.770
776.980, 472.081
778.267, 504.394
779.553, 419.720
780.839, 353.048
782.125, 271.378
783.411, 348.163
784.697, 496.109
785.982, 745.446
787.267, 920.774
788.552, 876.116
789.837, 648.458
791.122, 322.805
792.406, 269.155
793.690, 222.508
794.974, 149.863
796.258, 162.216
797.542, 66.576
798.825, 94.939
800.108, 109.284
801.391, 169.653
802.674, 301.286
803.957, 386.657
805.239, 690.035
806.522, 668.417
807.804, 641.801
809.085, 428.190
810.367, 230.583
811.649, 156.979
812.930, 70.379
814.211, 43.783
815.492, 12.340
816.772, 0.488
818.053, 14.019
819.333, 16.438
820.613, 49.862
821.893, 66.289
823.173, 26.279
824.452, 13.148
825.732, 77.580
827.011, 1.984
828.290, 99.455
829.568, 16.898
830.847, 19.345
832.125, 70.796
833.403, 8.252
834.681, 119.712
835.959, 78.176
837.236, 86.646
838.514, 98.120
839.791, 79.599
841.068, 65.082
842.345, 76.229
843.621, 90.071
844.898, 93.578
846.174, 89.098
847.450, 106.626
848.726, 124.158
850.001, 175.704
851.277, 220.255
852.552, 211.811
853.827, 248.387
855.102, 204.969
856.376, 252.559
857.651, 318.157
858.925, 268.760
860.199, 387.371
861.473, 483.987
862.746, 495.608
864.020, 628.235
865.293, 672.868
866.566, 859.507
867.839, 954.077
869.112, 1233.548
870.384, 1704.227
871.656, 2203.912
872.928, 3279.616
874.200, 4978.336
875.472, 9144.064
876.744, 18667.629
878.015, 34383.371
879.286, 45348.559
880.557, 40232.668
881.828, 24848.453
883.098, 13711.783
884.369, 7727.577
885.639, 4842.070
886.909, 3385.870
888.178, 2492.694
889.448, 1935.660
890.717, 1659.498
891.987, 1413.132
893.256, 1196.599
894.524, 993.734
895.793, 926.490
897.061, 812.085
898.330, 784.835
899.598, 748.745
900.865, 626.661
902.133, 639.585
903.401, 623.782
904.668, 564.721
905.935, 570.418
907.202, 596.373
908.468, 535.335
909.735, 666.306
911.001, 679.284
912.267, 835.329
913.533, 997.322
914.799, 1422.323
916.064, 2164.333
917.330, 2651.349
918.595, 2575.374
919.860, 2271.405
921.124, 2001.446
922.389, 2485.494
923.653, 3575.550
924.918, 4182.613
926.182, 3523.685
927.445, 2182.763
928.709, 1422.851
929.972, 865.945
931.236, 622.692
932.499, 615.802
933.761, 598.920
935.024, 674.045
936.286, 790.181
937.549, 948.326
938.811, 947.704
940.073, 1088.641
941.334, 958.809
942.596, 853.984
943.857, 814.167
945.118, 1118.357
946.379, 1348.556
947.640, 2143.761
948.900, 3643.974
950.161, 5760.194
951.421, 7282.423
952.681, 6198.659
953.940, 4240.902
955.200, 2651.164
956.459, 1603.434
957.719, 1103.711
958.978, 756.002
960.236, 566.627
961.495, 563.934
962.753, 406.248
964.012, 397.570
965.270, 262.901
966.527, 279.239
967.785, 225.583
969.043, 172.922
970.300, 259.281
971.557, 156.647
972.814, 128.021
974.071, 146.402
975.327, 159.022
976.583, 100.418
977.840, 184.820
979.095, 98.203
980.351, 103.620
981.607, 97.043
982.862, 94.474
984.117, 134.911
985.372, 95.429
986.627, 99.881
987.882, 160.559
989.136, 92.023
990.390, 156.495
991.644, 221.015
992.898, 263.502
994.152, 243.289
995.405, 272.789
996.659, 300.286
997.912, 309.501
999.165, 240.026
1000.417, 240.469
1001.670, 271.007
1002.922, 333.603
1004.174, 328.835
1005.426, 303.571
1006.678, 343.466
1007.930, 378.826
1009.181, 452.404
1010.432, 667.495
1011.683, 767.087
1012.934, 890.684
1014.185, 985.469
1015.435, 968.165
1016.685, 1278.854
1017.935, 1514.491
1019.185, 1956.227
1020.435, 2334.270
1021.684, 2340.944
1022.934, 2060.822
1024.183, 1622.907
1025.432, 1252.089
1026.680, 915.804
1027.929, 661.596
1029.177, 560.333
1030.425, 439.080
1031.673, 334.434
1032.921, 331.643
1034.169, 256.490
1035.416, 178.897
1036.663, 234.726
1037.911, 87.537
1039.157, 96.336
1040.404, 71.257
1041.650, 112.084
1042.897, 166.935
1044.143, 7.799
1045.389, 121.812
1046.634, 89.786
1047.880, 40.674
1049.125, 150.570
1050.371, 42.468
1051.615, 43.370
1052.860, 90.346
1054.105, 90.258
1055.349, 126.171
1056.593, 114.536
1057.837, 35.208
1059.081, 84.136
1060.325, 52.066
1061.568, 36.009
1062.812, 80.953
1064.055, 89.905
1065.298, 113.859
1066.540, 64.814
1067.783, 20.801
1069.025, 71.759
1070.267, 26.719
1071.509, 35.697
1072.751, 93.662
1073.993, 31.627
1075.234, 101.594
1076.475, 44.562
1077.716, 54.603
1078.957, 104.573
1080.198, 57.457
1081.438, 6.490
1082.679, 74.437
1083.919, 40.386
1085.159, 108.334
1086.398, 22.285
1087.638, 1.244
1088.877, 114.194
1090.116, 56.177
1091.355, 119.127
1092.594, 49.078
1093.833, 4.027
1095.071, 18.977
1096.309, 30.926
1097.547, 41.977
1098.785, 65.924
1100.023, 30.871
1101.260, 86.830
1102.498, 47.775
1103.735, 21.720
1104.972, 53.663
1106.208, 39.606
1107.445, 47.852
1108.681, 10.208
1109.918, 40.095
1111.154, 61.029
1112.389, 76.418
1113.625, 19.411
1114.860, 10.346
1116.096, 24.279
1117.331, 42.211
1118.566, 97.141
1119.800, 103.696
1121.035, 20.238
1122.269, 135.162
1123.503, 199.083
1124.737, 199.058
1125.971, 83.979
1127.205, 63.896
1128.438, 38.812
1129.671, 66.742
1130.904, 26.653
1132.137, 46.561
1133.370, 0.466
1134.602, 40.397
1135.834, 2.700
1137.066, 39.198
1138.298, 39.200
1139.530, 7.090
1140.762, 35.354
1141.993, 35.752
1143.224, 100.110
1144.455, 30.130
1145.686, 9.297
1146.917, 83.212
1148.147, 27.969
1149.377, 38.935
1150.607, 13.888
1151.837, 55.324
1153.067, 1.444
1154.296, 1.201
1155.526, 8.377
1156.755, 80.792
1157.984, 3.324
1159.213, 31.502
1160.441, 45.641
1161.670, 3.265
1162.898, 14.953
1164.126, 21.115
1165.354, 35.792
1166.581, 14.486
1167.809, 77.969
1169.036, 38.890
1170.263, 41.586
1171.490, 28.593
1172.717, 2.028
1173.943, 51.678
1175.170, 37.302
1176.396, 115.094
1177.622, 106.843
1178.848, 46.837
1180.073, 93.460
1181.299, 41.949
1182.524, 27.570
1183.749, 50.042
1184.974, 55.517
1186.199, 147.245
1187.423, 38.026
1188.648, 65.445
1189.872, 98.322
1191.096, 76.726
1192.320, 34.121
1193.543, 45.702
1194.767, 100.248
1195.990, 122.615
1197.213, 78.023
1198.436, 83.569
1199.659, 52.911
1200.881, 70.464
1202.104, 153.787
1203.326, 87.643
1204.548, 30.041
1205.770, 183.334
1206.991, 89.011
1208.213, 72.340
1209.434, 153.033
1210.655, 141.618
1211.876, 123.865
1213.096, 188.104
1214.317, 71.403
1215.537, 131.621
1216.757, 148.123
1217.977, 76.592
1219.197, 119.944
1220.417, 83.223
1221.636, 186.568
1222.855, 167.728
1224.074, 65.917
1225.293, 160.056
1226.512, 121.185
1227.731, 113.660
1228.949, 166.769
1230.167, 124.122
1231.385, 137.211
1232.603, 183.523
1233.820, 82.592
1235.038, 146.649
1236.255, 77.698
1237.472, 100.887
1238.689, 175.917
1239.906, 96.937
1241.122, 178.947
1242.338, 159.947
1243.555, 63.937
1244.771, 96.916
1245.986, 145.885
1247.202, 86.886
1248.417, 132.834
1249.633, 144.776
1250.848, 95.782
1252.063, 204.701
1253.277, 2.605
1254.492, 181.495
1255.706, 29.045
1256.920, 117.954
1258.134, 24.815
1259.348, 78.665
1260.562, 114.085
1261.775, 146.917
1262.988, 128.740
1264.201, 105.765
1265.414, 202.570
1266.627, 44.366
1267.839, 151.152
1269.052, 160.928
1270.264, 85.696
1271.476, 126.448
1272.688, 146.187
1273.899, 112.180
1275.111, 95.899
1276.322, 122.622
1277.533, 122.340
1278.744, 126.024
1279.955, 95.851
1281.165, 148.501
1282.376, 142.005
1283.586, 76.653
1284.796, 114.245
1286.006, 35.758
1287.215, 100.359
1288.425, 100.586
1289.634, 13.090
1290.843, 168.840
1292.052, 17.621
1293.261, 144.084
1294.469, 72.607
1295.678, 60.028
1296.886, 175.388
1298.094, 91.105
1299.302, 16.314
1300.509, 74.355
1301.717, 22.925
1302.924, 55.271
1304.131, 66.088
1305.338, 23.398
1306.545, 6.699
1307.752, 95.801
1308.958, 3.013
1310.164, 118.173
1311.370, 89.406
1312.576, 9.464
1313.782, 36.360
1314.987, 28.454
1316.193, 17.521
1317.398, 67.284
1318.603, 66.058
1319.807, 62.063
1321.012, 4.890
1322.216, 12.204
1323.421, 31.286
1324.625, 2.681
1325.829, 100.373
1327.032, 120.352
1328.236, 44.762
1329.439, 75.732
1330.642, 23.709
1331.845, 17.692
1333.048, 120.566
1334.251, 41.476
1335.453, 96.454
1336.656, 105.373
1337.858, 36.144
1339.060, 41.936
1340.261, 150.804
1341.463, 70.662
1342.664, 35.507
1343.866, 110.339
1345.067, 31.088
1346.267, 86.898
1347.468, 5.699
1348.669, 59.488
1349.869, 110.078
1351.069, 12.848
1352.269, 68.606
1353.469, 10.345
1354.668, 8.918
1355.868, 95.804
1357.067, 134.518
1358.266, 63.221
1359.465, 124.885
1360.664, 20.631
1361.862, 23.306
1363.061, 40.955
1364.259, 55.611
1365.457, 37.258
1366.655, 148.897
1367.852, 69.528
1369.050, 159.081
1370.247, 109.698
1371.444, 101.311
1372.641, 98.929
1373.838, 23.541
1375.035, 120.147
1376.231, 25.749
1377.427, 82.365
1378.623, 138.948
1379.819, 167.657
1381.015, 41.210
1382.211, 230.794
1383.406, 77.650
1384.601, 140.234
1385.796, 143.821
1386.991, 90.408
1388.185, 110.889
1389.380, 147.476
1390.574, 66.039
1391.768, 124.587
1392.962, 163.649
1394.156, 58.210
1395.350, 117.268
1396.543, 123.025
1397.736, 114.700
1398.929, 107.262
1400.122, 65.202
1401.315, 94.183
1402.507, 149.146
1403.700, 16.165
1404.892, 97.708
1406.084, 78.619
1407.276, 25.496
1408.467, 139.372
1409.659, 127.199
1410.850, 109.032
1412.041, 140.729
1413.232, 73.085
1414.423, 105.843
1415.614, 138.846
1416.804, 17.514
1417.994, 162.112
1419.184, 68.171
1420.374, 66.326
1421.564, 131.768
1422.753, 12.141
1423.943, 135.761
1425.132, 49.454
1426.321, 60.476
1427.510, 146.909
1428.698, 133.864
1429.887, 40.711
1431.075, 125.368
1432.263, 89.455
1433.451, 3.829
1434.639, 177.980
1435.827, 142.069
1437.014, 125.736
1438.201, 161.958
1439.388, 73.199
1440.575, 182.315
1441.762, 157.448
1442.949, 143.081
1444.135, 140.368
1445.321, 153.101
1446.507, 120.758
1447.693, 267.111
1448.879, 96.337
1450.064, 232.751
1451.250, 214.625
1452.435, 146.619
1453.620, 177.826
1454.805, 156.088
1455.989, 97.896
1457.174, 281.714
1458.358, 175.927
1459.542, 180.851
1460.726, 252.028
1461.910, 167.188
1463.093, 170.333
1464.277, 282.381
1465.460, 114.490
1466.643, 163.428
1467.826, 271.516
1469.009, 93.498
1470.191, 202.528
1471.373, 64.125
1472.556, 244.562
1473.738, 136.418
1474.919, 156.237
1476.101, 135.029
1477.283, 226.189
1478.464, 118.895
1479.645, 171.562
1480.826, 128.196
1482.007, 77.588
1483.187, 164.411
1484.368, 162.146
1485.548, 105.396
1486.728, 194.292
1487.908, 76.283
1489.088, 164.261
1490.268, 236.235
1491.447, 47.206
1492.626, 78.238
1493.805, 160.265
1494.984, 49.303
1496.163, 176.330
1497.341, 160.360
1498.520, 35.386
1499.698, 196.402
1500.876, 180.407
1502.054, 11.405
1503.232, 188.398
1504.409, 61.450
1505.586, 98.592
1506.763, 200.755
1507.940, 116.972
1509.117, 85.296
1510.294, 161.752
1511.470, 58.279
1512.647, 55.873
1513.823, 97.521
1514.999, 100.231
1516.174, 172.008
1517.350, 30.864
1518.526, 25.813
1519.701, 250.376
1520.876, 3.542
1522.051, 95.854
1523.226, 169.329
1524.400, 4.030
1525.574, 159.792
1526.749, 114.827
1527.923, 64.807
1529.097, 132.203
1530.270, 74.770
1531.444, 95.378
1532.617, 176.369
1533.790, 0.342
1534.963, 123.332
1536.136, 0.000
##END=



