##NAMES=Phenakite
##RRUFFID=R040132
##IDEAL CHEMISTRY=Be_2_SiO_4_
##LOCALITY=Krager√∏, Telemark, Norway
##OWNER=RRUFF
##SOURCE=University of Arizona Mineral Museum
##DESCRIPTION=Colorless fragments
##STATUS=The identification of this mineral has been confirmed by X-ray diffraction and chemical analysis
##URL=rruff.info/R040132
##MEASURED CHEMISTRY=Be_2.02_Si_0.99_O_4_
##PIN_ID=L00303
##ORIENTATION=Laser parallel to -a* (-1 0 0). Fiducial mark perpendicular to laser is parallel to c [0 0 1]
88.298, 0.000
89.697, 0.821
91.097, 42.200
92.496, 59.226
93.895, 6.195
95.293, 69.509
96.692, 53.838
98.090, 159.930
99.488, 176.577
100.885, 166.712
102.283, 203.275
103.680, 188.233
105.077, 225.495
106.473, 173.942
107.870, 202.488
109.266, 248.128
110.662, 135.852
112.057, 216.999
113.453, 206.308
114.848, 347.677
116.243, 353.473
117.638, 341.503
119.032, 413.260
120.426, 263.302
121.820, 259.903
123.214, 188.515
124.608, 258.812
126.001, 192.996
127.394, 171.111
128.787, 157.416
130.179, 157.872
131.571, 130.255
132.963, 149.346
134.355, 102.853
135.747, 133.833
137.138, 176.117
138.529, 133.831
139.920, 123.728
141.311, 149.552
142.701, 95.528
144.091, 151.428
145.481, 115.465
146.870, 120.917
148.260, 65.944
149.649, 85.951
151.038, 151.067
152.426, 25.767
153.815, 118.445
155.203, 92.094
156.591, 29.717
157.979, 68.316
159.366, 48.889
160.753, 123.575
162.140, 61.247
163.527, 111.258
164.913, 46.350
166.300, 55.867
167.686, 32.804
169.071, 32.415
170.457, 87.004
171.842, 10.714
173.227, 38.152
174.612, 10.868
175.996, 58.613
177.381, 19.087
178.765, 13.414
180.149, 46.419
181.532, 19.896
182.915, 2.006
184.299, 1.901
185.681, 34.323
187.064, 37.152
188.446, 20.706
189.828, 31.466
191.210, 8.029
192.592, 32.352
193.973, 9.727
195.355, 31.905
196.736, 45.528
198.116, 38.848
199.497, 56.389
200.877, 7.960
202.257, 39.948
203.637, 47.712
205.016, 0.642
206.395, 51.796
207.774, 21.135
209.153, 33.745
210.532, 18.604
211.910, 14.910
213.288, 62.161
214.666, 58.059
216.043, 87.411
217.421, 113.592
218.798, 279.653
220.175, 695.596
221.551, 2091.576
222.928, 3477.620
224.304, 2715.703
225.680, 1267.824
227.055, 414.702
228.431, 238.677
229.806, 160.524
231.181, 107.646
232.556, 48.918
233.930, 68.658
235.304, 50.617
236.678, 18.712
238.052, 83.671
239.426, 57.541
240.799, 13.245
242.172, 76.188
243.545, 0.164
244.917, 26.782
246.290, 40.684
247.662, 40.584
249.034, 92.543
250.405, 50.925
251.777, 55.771
253.148, 27.481
254.519, 87.120
255.889, 88.171
257.260, 120.280
258.630, 158.873
260.000, 33.449
261.370, 85.062
262.739, 29.449
264.108, 95.072
265.477, 115.459
266.846, 63.939
268.215, 83.397
269.583, 23.769
270.951, 104.218
272.319, 38.571
273.686, 87.029
275.054, 59.740
276.421, 1.845
277.788, 54.119
279.154, 1.593
280.521, 98.677
281.887, 82.931
283.253, 44.167
284.619, 40.386
285.984, 50.587
287.349, 72.771
288.714, 53.940
290.079, 38.093
291.444, 69.237
292.808, 59.361
294.172, 90.825
295.536, 170.919
296.899, 572.012
298.263, 589.371
299.626, 490.405
300.989, 220.400
302.351, 86.379
303.714, 63.345
305.076, 52.289
306.438, 54.219
307.799, 27.109
309.161, 11.954
310.522, 74.954
311.883, 26.767
313.244, 65.568
314.604, 12.342
315.965, 43.104
317.325, 29.806
318.684, 2.548
320.044, 4.279
321.403, 8.037
322.762, 50.669
324.121, 27.365
325.480, 3.052
326.838, 61.727
328.196, 3.609
329.554, 60.040
330.912, 17.891
332.270, 11.484
333.627, 2.225
334.984, 9.500
336.341, 3.963
337.697, 4.120
339.053, 12.306
340.409, 34.907
341.765, 55.353
343.121, 75.029
344.476, 40.725
345.831, 73.757
347.186, 56.037
348.541, 121.286
349.895, 134.748
351.250, 65.361
352.604, 83.722
353.957, 51.773
355.311, 98.438
356.664, 62.859
358.017, 51.114
359.370, 94.355
360.722, 25.852
362.075, 120.533
363.427, 60.969
364.779, 76.562
366.130, 36.899
367.482, 60.257
368.833, 74.313
370.184, 23.360
371.535, 101.820
372.885, 31.053
374.235, 56.808
375.585, 45.900
376.935, 8.672
378.285, 45.553
379.634, 35.782
380.983, 11.854
382.332, 66.340
383.680, 24.527
385.029, 47.749
386.377, 22.927
387.725, 85.167
389.073, 55.375
390.420, 80.620
391.767, 93.760
393.114, 11.892
394.461, 89.007
395.808, 8.072
397.154, 82.174
398.500, 74.232
399.846, 16.139
401.191, 54.234
402.537, 29.314
403.882, 30.208
405.227, 55.611
406.571, 7.410
407.916, 90.372
409.260, 20.609
410.604, 49.394
411.948, 15.472
413.291, 22.489
414.635, 82.526
415.978, 21.438
417.321, 89.080
418.663, 35.883
420.006, 16.155
421.348, 20.148
422.690, 16.997
424.031, 107.966
425.373, 11.213
426.714, 84.762
428.055, 41.708
429.396, 45.631
430.736, 105.558
432.077, 43.272
433.417, 121.180
434.757, 35.954
436.096, 4.843
437.436, 40.678
438.775, 2.235
440.114, 72.546
441.452, 72.615
442.791, 182.453
444.129, 253.282
445.467, 370.987
446.805, 400.666
448.142, 243.376
449.480, 171.167
450.817, 152.870
452.154, 59.496
453.490, 98.242
454.827, 4.937
456.163, 85.727
457.499, 56.458
458.835, 8.180
460.170, 117.890
461.505, 96.591
462.840, 93.283
464.175, 103.967
465.510, 108.592
466.844, 69.161
468.178, 58.729
469.512, 130.152
470.846, 18.407
472.179, 99.033
473.512, 66.426
474.845, 86.995
476.178, 77.220
477.511, 83.679
478.843, 182.062
480.175, 367.016
481.507, 581.031
482.839, 587.319
484.170, 353.769
485.501, 350.091
486.832, 142.025
488.163, 54.497
489.493, 148.023
490.823, 9.472
492.153, 100.667
493.483, 14.767
494.813, 60.613
496.142, 39.727
497.471, 56.181
498.800, 69.618
500.129, 33.693
501.457, 45.973
502.785, 5.333
504.113, 8.772
505.441, 56.096
506.769, 12.526
508.096, 105.876
509.423, 40.385
510.750, 9.799
512.077, 105.043
513.403, 3.559
514.729, 63.730
516.055, 36.112
517.381, 82.438
518.706, 21.448
520.032, 24.817
521.357, 85.973
522.681, 34.340
524.006, 108.662
525.330, 66.018
526.655, 133.231
527.978, 117.537
529.302, 93.874
530.626, 97.185
531.949, 36.509
533.272, 84.668
534.595, 118.941
535.917, 6.163
537.239, 41.408
538.562, 35.615
539.883, 6.775
541.205, 70.804
542.527, 48.079
543.848, 26.172
545.169, 34.357
546.489, 17.390
547.810, 22.679
549.130, 11.878
550.450, 36.117
551.770, 44.349
553.090, 48.330
554.409, 58.551
555.728, 60.603
557.047, 58.226
558.366, 69.480
559.685, 45.550
561.003, 50.870
562.321, 40.358
563.639, 9.393
564.956, 16.492
566.274, 77.501
567.591, 52.714
568.908, 67.084
570.225, 83.168
571.541, 76.071
572.857, 74.681
574.173, 85.810
575.489, 12.138
576.805, 138.964
578.120, 34.298
579.435, 98.149
580.750, 111.027
582.065, 69.875
583.380, 85.929
584.694, 36.762
586.008, 124.751
587.322, 77.127
588.635, 157.097
589.949, 188.140
591.262, 75.492
592.575, 99.838
593.887, 128.748
595.200, 163.390
596.512, 329.310
597.824, 627.662
599.136, 1657.815
600.447, 2880.820
601.759, 2809.821
603.070, 1566.816
604.381, 691.806
605.692, 330.792
607.002, 183.772
608.312, 123.747
609.622, 163.717
610.932, 65.676
612.242, 123.637
613.551, 24.237
614.860, 95.187
616.169, 108.117
617.478, 121.762
618.786, 184.697
620.094, 75.627
621.402, 188.552
622.710, 228.473
624.018, 135.390
625.325, 237.302
626.632, 177.209
627.939, 305.114
629.246, 238.839
630.552, 178.736
631.859, 170.630
633.165, 107.519
634.471, 130.406
635.776, 89.289
637.082, 56.168
638.387, 165.047
639.692, 55.924
640.996, 180.802
642.301, 78.677
643.605, 105.549
644.909, 160.420
646.213, 185.287
647.516, 232.155
648.820, 167.804
650.123, 131.666
651.426, 162.365
652.729, 151.225
654.031, 133.048
655.333, 85.912
656.636, 84.776
657.937, 113.584
659.239, 47.443
660.540, 55.075
661.842, 23.247
663.142, 51.586
664.443, 93.260
665.744, 10.087
667.044, 75.885
668.344, 5.470
669.644, 23.340
670.944, 65.492
672.243, 28.296
673.542, 25.058
674.841, 4.136
676.140, 48.558
677.438, 58.265
678.737, 36.060
680.035, 42.808
681.333, 45.598
682.630, 49.391
683.928, 49.181
685.225, 112.970
686.522, 216.757
687.819, 185.550
689.115, 178.321
690.412, 122.111
691.708, 50.899
693.004, 81.502
694.300, 95.292
695.595, 69.065
696.890, 141.695
698.185, 101.486
699.480, 140.275
700.775, 125.020
702.069, 85.799
703.363, 78.508
704.657, 84.239
705.951, 53.926
707.244, 47.708
708.538, 6.491
709.831, 58.272
711.124, 24.948
712.416, 6.183
713.709, 64.425
715.001, 3.296
716.293, 15.984
717.585, 100.275
718.876, 28.357
720.167, 29.286
721.459, 16.818
722.749, 15.193
724.040, 14.423
725.331, 15.046
726.621, 38.669
727.911, 25.706
729.201, 22.904
730.490, 1.271
731.780, 73.527
733.069, 3.136
734.358, 4.723
735.646, 30.345
736.935, 29.969
738.223, 49.406
739.511, 27.194
740.799, 16.224
742.087, 6.626
743.374, 52.968
744.661, 20.565
745.948, 6.838
747.235, 5.245
748.522, 64.348
749.808, 37.941
751.094, 66.537
752.380, 91.135
753.666, 39.263
754.951, 115.322
756.236, 17.908
757.521, 20.496
758.806, 105.085
760.091, 43.677
761.375, 162.270
762.659, 247.864
763.943, 530.460
765.227, 756.058
766.511, 746.659
767.794, 632.260
769.077, 383.817
770.360, 255.425
771.643, 217.035
772.925, 155.648
774.207, 161.264
775.489, 89.882
776.771, 220.503
778.053, 249.126
779.334, 234.752
780.615, 237.380
781.896, 176.011
783.177, 238.645
784.457, 491.282
785.738, 633.922
787.018, 649.106
788.298, 899.211
789.577, 599.860
790.857, 417.512
792.136, 238.167
793.415, 264.826
794.694, 199.487
795.972, 137.152
797.251, 65.821
798.529, 98.494
799.807, 138.169
801.084, 59.849
802.362, 90.532
803.639, 94.219
804.916, 49.911
806.193, 80.606
807.470, 76.305
808.746, 48.008
810.022, 81.715
811.298, 47.426
812.574, 98.141
813.850, 47.860
815.125, 43.583
816.400, 75.275
817.675, 50.008
818.950, 121.746
820.224, 104.410
821.499, 55.167
822.773, 113.052
824.047, 54.819
825.320, 118.593
826.594, 106.372
827.867, 97.520
829.140, 99.572
830.413, 141.383
831.685, 191.736
832.958, 100.557
834.230, 60.384
835.502, 150.172
836.774, 109.014
838.045, 114.860
839.316, 191.710
840.588, 159.567
841.858, 198.428
843.129, 241.294
844.400, 287.180
845.670, 303.683
846.940, 322.708
848.210, 336.870
849.479, 326.777
850.749, 345.413
852.018, 332.625
853.287, 349.556
854.556, 436.493
855.824, 474.436
857.093, 560.385
858.361, 587.339
859.629, 708.300
860.896, 742.266
862.164, 810.206
863.431, 973.184
864.698, 1016.410
865.965, 1131.813
867.232, 1382.606
868.498, 1645.534
869.764, 2072.404
871.030, 2808.002
872.296, 3731.059
873.562, 5767.157
874.827, 9691.061
876.092, 18155.084
877.357, 36300.176
878.622, 54445.266
879.886, 53450.367
881.151, 38313.848
882.415, 21678.977
883.679, 12514.008
884.942, 7619.167
886.206, 5018.313
887.469, 3803.489
888.732, 2830.671
889.995, 2240.862
891.258, 1932.078
892.520, 1626.285
893.782, 1453.570
895.044, 1282.376
896.306, 1156.606
897.568, 1046.845
898.829, 917.709
900.090, 899.649
901.351, 811.921
902.612, 786.202
903.872, 643.490
905.133, 689.787
906.393, 574.947
907.653, 561.323
908.912, 530.646
910.172, 578.977
911.431, 528.322
912.690, 592.670
913.949, 595.027
915.208, 764.393
916.466, 847.767
917.724, 799.150
918.982, 778.541
920.240, 523.941
921.498, 543.351
922.755, 398.769
924.012, 391.196
925.269, 358.639
926.526, 387.090
927.782, 290.550
929.039, 384.020
930.295, 336.498
931.551, 407.984
932.806, 421.479
934.062, 453.984
935.317, 463.497
936.572, 595.020
937.827, 703.551
939.082, 664.091
940.336, 737.640
941.590, 676.198
942.844, 711.765
944.098, 701.341
945.352, 800.925
946.605, 1128.520
947.859, 1720.239
949.112, 2684.851
950.364, 3324.472
951.617, 3216.101
952.869, 2209.740
954.121, 1347.395
955.373, 856.052
956.625, 543.718
957.877, 388.392
959.128, 259.075
960.379, 221.768
961.630, 208.470
962.881, 107.180
964.131, 201.899
965.381, 144.627
966.631, 131.364
967.881, 123.119
969.131, 85.882
970.380, 125.970
971.630, 74.751
972.879, 98.541
974.128, 26.343
975.376, 3.153
976.625, 63.972
977.873, 51.745
979.121, 86.079
980.369, 95.423
981.616, 27.733
982.864, 46.113
984.111, 70.022
985.358, 40.116
986.605, 79.681
987.851, 61.551
989.097, 99.428
990.344, 133.314
991.589, 22.207
992.835, 132.108
994.081, 92.294
995.326, 51.222
996.571, 200.157
997.816, 114.100
999.061, 167.051
1000.305, 275.635
1001.550, 228.601
1002.794, 370.576
1004.037, 286.558
1005.281, 210.547
1006.525, 176.544
1007.768, 198.547
1009.011, 259.588
1010.254, 369.637
1011.496, 358.691
1012.739, 325.755
1013.981, 256.073
1015.223, 242.399
1016.465, 170.942
1017.706, 190.063
1018.948, 137.204
1020.189, 136.356
1021.430, 109.542
1022.671, 115.735
1023.911, 105.973
1025.152, 185.191
1026.392, 164.420
1027.632, 132.656
1028.872, 196.897
1030.111, 187.045
1031.350, 131.306
1032.590, 197.571
1033.829, 93.582
1035.067, 154.860
1036.306, 54.147
1037.544, 56.440
1038.782, 82.738
1040.020, 64.153
1041.258, 121.474
1042.495, 124.806
1043.733, 72.147
1044.970, 43.496
1046.207, 59.853
1047.443, 0.786
1048.680, 29.263
1049.916, 17.218
1051.152, 65.604
1052.388, 56.995
1053.624, 66.391
1054.859, 29.790
1056.094, 3.598
1057.329, 104.839
1058.564, 40.280
1059.799, 0.765
1061.033, 140.239
1062.268, 106.752
1063.502, 69.268
1064.735, 114.752
1065.969, 38.271
1067.202, 154.793
1068.436, 75.319
1069.669, 104.875
1070.902, 135.434
1072.134, 94.996
1073.367, 140.083
1074.599, 50.650
1075.831, 99.222
1077.062, 186.796
1078.294, 235.373
1079.525, 95.966
1080.757, 184.549
1081.988, 84.134
1083.218, 200.735
1084.449, 156.339
1085.679, 62.948
1086.909, 192.569
1088.139, 109.192
1089.369, 72.817
1090.599, 240.444
1091.828, 34.074
1093.057, 55.718
1094.286, 124.351
1095.515, 4.014
1096.744, 61.627
1097.972, 41.270
1099.200, 103.914
1100.428, 78.561
1101.656, 1.208
1102.883, 192.083
1104.111, 21.732
1105.338, 20.383
1106.565, 110.037
1107.791, 91.690
1109.018, 54.430
1110.244, 114.086
1111.470, 118.743
1112.696, 142.460
1113.922, 35.118
1115.147, 36.777
1116.373, 138.437
1117.598, 41.903
1118.823, 13.737
1120.047, 156.379
1121.272, 15.022
1122.496, 131.665
1123.720, 32.308
1124.944, 9.047
1126.168, 192.230
1127.391, 59.132
1128.615, 125.475
1129.838, 89.545
1131.061, 0.152
1132.283, 157.757
1133.506, 17.595
1134.728, 44.999
1135.950, 165.593
1137.172, 4.186
1138.394, 30.778
1139.615, 93.450
1140.837, 52.959
1142.058, 161.067
1143.279, 19.626
1144.499, 22.185
1145.720, 95.028
1146.940, 24.417
1148.160, 79.122
1149.380, 54.972
1150.600, 15.507
1151.819, 172.040
1153.038, 63.596
1154.257, 78.125
1155.476, 201.745
1156.695, 88.267
1157.913, 144.787
1159.132, 148.477
1160.350, 76.010
1161.568, 116.941
1162.785, 34.598
1164.003, 80.835
1165.220, 74.094
1166.437, 82.520
1167.654, 176.941
1168.871, 60.361
1170.087, 23.774
1171.304, 207.182
1172.520, 39.585
1173.736, 89.984
1174.951, 89.377
1176.167, 50.233
1177.382, 238.116
1178.597, 122.543
1179.812, 0.883
1181.027, 160.209
1182.241, 46.369
1183.455, 165.686
1184.669, 199.058
1185.883, 20.363
1187.097, 176.661
1188.311, 108.314
1189.524, 54.600
1190.737, 177.881
1191.950, 56.890
1193.162, 49.158
1194.375, 179.401
1195.587, 19.631
1196.799, 70.598
1198.011, 103.943
1199.223, 61.159
1200.434, 243.368
1201.646, 28.400
1202.857, 172.533
1204.068, 201.719
1205.279, 61.886
1206.489, 199.051
1207.699, 58.216
1208.909, 59.374
1210.119, 266.524
1211.329, 153.827
1212.539, 179.961
1213.748, 293.089
1214.957, 114.395
1216.166, 223.506
1217.375, 303.609
1218.583, 5.706
1219.792, 286.780
1221.000, 119.858
1222.208, 148.974
1223.415, 279.037
1224.623, 84.133
1225.830, 152.180
1227.037, 321.220
1228.244, 139.407
1229.451, 270.433
1230.658, 191.176
1231.864, 126.250
1233.070, 413.250
1234.276, 99.252
1235.482, 218.236
1236.687, 307.211
1237.893, 95.179
1239.098, 358.141
1240.303, 283.097
1241.508, 167.332
1242.712, 277.277
1243.917, 174.215
1245.121, 264.146
1246.325, 334.072
1247.529, 63.018
1248.732, 378.930
1249.936, 231.836
1251.139, 203.896
1252.342, 297.789
1253.545, 85.676
1254.747, 237.556
1255.950, 323.430
1257.152, 93.298
1258.354, 341.160
1259.556, 272.015
1260.758, 176.864
1261.959, 406.706
1263.160, 155.212
1264.361, 246.512
1265.562, 421.320
1266.763, 181.121
1267.963, 316.169
1269.164, 381.917
1270.364, 164.204
1271.563, 430.943
1272.763, 178.165
1273.963, 218.872
1275.162, 308.575
1276.361, 262.217
1277.560, 291.907
1278.759, 223.660
1279.957, 182.341
1281.155, 323.016
1282.354, 154.679
1283.551, 90.334
1284.749, 335.983
1285.947, 5.660
1287.144, 214.952
1288.341, 156.557
1289.538, 60.143
1290.735, 258.754
1291.931, 274.667
1293.128, 57.200
1294.324, 217.682
1295.520, 121.157
1296.716, 101.573
1297.911, 266.980
1299.107, 79.666
1300.302, 225.650
1301.497, 153.957
1302.692, 72.254
1303.886, 231.542
1305.081, 41.548
1306.275, 177.784
1307.469, 374.308
1308.663, 15.493
1309.856, 190.685
1311.050, 275.853
1312.243, 99.998
1313.436, 275.133
1314.629, 177.228
1315.822, 144.342
1317.014, 374.444
1318.206, 179.535
1319.398, 168.615
1320.590, 402.783
1321.782, 76.840
1322.974, 349.881
1324.165, 253.172
1325.356, 19.187
1326.547, 298.187
1327.738, 80.176
1328.928, 132.153
1330.119, 269.008
1331.309, 4.961
1332.499, 126.898
1333.688, 259.822
1334.878, 21.734
1336.067, 274.629
1337.256, 168.514
1338.445, 1.613
1339.634, 289.988
1340.823, 61.837
1342.011, 147.676
1343.199, 261.508
1344.388, 52.667
1345.575, 195.952
1346.763, 230.745
1347.950, 71.467
1349.138, 299.274
1350.325, 113.027
1351.512, 101.739
1352.698, 413.451
1353.885, 90.806
1355.071, 107.905
1356.257, 344.615
1357.443, 75.675
1358.629, 321.011
1359.814, 182.700
1361.000, 99.392
1362.185, 406.570
1363.370, 177.073
1364.554, 74.789
1365.739, 402.516
1366.923, 75.256
1368.107, 119.000
1369.291, 278.776
1370.475, 27.423
1371.659, 174.391
1372.842, 16.017
1374.025, 10.362
1375.208, 351.241
1376.391, 79.812
1377.574, 116.394
1378.756, 318.010
1379.939, 100.730
1381.121, 315.038
1382.303, 316.342
1383.484, 0.372
1384.666, 462.904
1385.847, 212.931
1387.028, 126.180
1388.209, 324.325
1389.390, 73.547
1390.570, 180.693
1391.751, 388.891
1392.931, 50.086
1394.111, 348.277
1395.291, 263.454
1396.470, 85.621
1397.649, 403.796
1398.829, 123.979
1400.008, 139.152
1401.187, 419.326
1402.365, 98.488
1403.544, 215.544
1404.722, 383.729
1405.900, 23.514
1407.078, 317.645
1408.255, 238.384
1409.433, 38.472
1410.610, 450.518
1411.787, 159.529
1412.964, 172.306
1414.141, 433.718
1415.317, 162.016
1416.494, 145.045
1417.670, 329.068
1418.846, 95.092
1420.022, 268.113
1421.197, 300.157
1422.373, 75.108
1423.548, 482.971
1424.723, 219.944
1425.898, 137.009
1427.072, 500.033
1428.247, 191.960
1429.421, 238.996
1430.595, 408.374
1431.769, 55.220
1432.942, 372.515
1434.116, 474.460
1435.289, 146.542
1436.462, 586.358
1437.635, 396.039
1438.808, 368.685
1439.981, 754.535
1441.153, 242.016
1442.325, 455.492
1443.497, 686.855
1444.669, 268.213
1445.840, 545.696
1447.012, 553.619
1448.183, 236.882
1449.354, 776.058
1450.525, 512.236
1451.696, 412.379
1452.866, 782.567
1454.036, 455.580
1455.206, 440.473
1456.376, 752.395
1457.546, 363.909
1458.716, 573.724
1459.885, 566.484
1461.054, 283.186
1462.223, 685.828
1463.392, 446.280
1464.560, 249.847
1465.729, 736.793
1466.897, 323.421
1468.065, 247.044
1469.233, 616.646
1470.400, 217.179
1471.568, 400.636
1472.735, 568.046
1473.902, 180.398
1475.069, 510.719
1476.236, 414.921
1477.402, 79.347
1478.569, 652.969
1479.735, 232.879
1480.901, 254.074
1482.066, 613.248
1483.232, 87.504
1484.397, 243.972
1485.562, 539.527
1486.727, 62.163
1487.892, 445.898
1489.057, 344.699
1490.221, 78.581
1491.386, 470.555
1492.550, 163.693
1493.714, 118.993
1494.877, 481.443
1496.041, 44.072
1497.204, 135.921
1498.367, 464.037
1499.530, 29.447
1500.693, 313.145
1501.856, 423.146
1503.018, 46.524
1504.180, 401.174
1505.342, 198.296
1506.504, 70.915
1507.666, 423.107
1508.827, 120.971
1509.988, 132.614
1511.149, 496.175
1512.310, 18.421
1513.471, 270.137
1514.631, 468.465
1515.792, 36.404
1516.952, 336.830
1518.112, 278.888
1519.272, 0.000
##END=



