##NAMES=Phenakite
##RRUFFID=R040132
##IDEAL CHEMISTRY=Be_2_SiO_4_
##LOCALITY=Krager√∏, Telemark, Norway
##OWNER=RRUFF
##SOURCE=University of Arizona Mineral Museum
##DESCRIPTION=Colorless fragments
##STATUS=The identification of this mineral has been confirmed by X-ray diffraction and chemical analysis
##URL=rruff.info/R040132
##MEASURED CHEMISTRY=Be_2.02_Si_0.99_O_4_
##PIN_ID=L00330
##ORIENTATION=Laser parallel to -c* (0 0 -1). Fiducial mark perpendicular to laser is parallel to -a [-1 0 0]
105.077, 0.000
106.473, 0.080
107.870, 41.741
109.266, 82.253
110.662, 66.754
112.057, 97.929
113.453, 178.039
114.848, 167.578
116.243, 242.200
117.638, 268.773
119.032, 238.146
120.426, 160.130
121.820, 141.595
123.214, 144.452
124.608, 127.624
126.001, 108.050
127.394, 106.681
128.787, 120.140
130.179, 123.926
131.571, 137.849
132.963, 95.794
134.355, 79.777
135.747, 88.799
137.138, 76.854
138.529, 113.929
139.920, 140.113
141.311, 117.295
142.701, 97.471
144.091, 69.640
145.481, 72.799
146.870, 107.946
148.260, 87.082
149.649, 59.205
151.038, 87.569
152.426, 56.490
153.815, 130.864
155.203, 171.507
156.591, 249.177
157.979, 411.237
159.366, 619.355
160.753, 1375.612
162.140, 1895.937
163.527, 1772.278
164.913, 1074.713
166.300, 461.110
167.686, 255.467
169.071, 95.788
170.457, 75.074
171.842, 10.326
173.227, 54.767
174.612, 46.931
175.996, 25.066
177.381, 13.173
178.765, 11.254
180.149, 12.314
181.532, 11.458
182.915, 43.375
184.299, 20.375
185.681, 27.357
187.064, 35.332
188.446, 8.286
189.828, 34.222
191.210, 5.148
192.592, 42.068
193.973, 17.984
195.355, 65.101
196.736, 0.187
198.116, 8.505
199.497, 63.349
200.877, 26.746
202.257, 21.101
203.637, 23.050
205.016, 31.808
206.395, 119.528
207.774, 6.795
209.153, 36.419
210.532, 44.028
211.910, 5.762
213.288, 83.038
214.666, 92.134
216.043, 235.619
217.421, 478.630
218.798, 989.204
220.175, 1808.761
221.551, 4200.155
222.928, 5998.753
224.304, 4984.425
225.680, 2728.998
227.055, 1079.485
228.431, 535.974
229.806, 209.463
231.181, 137.953
232.556, 151.551
233.930, 99.006
235.304, 64.510
236.678, 95.952
238.052, 23.391
239.426, 44.825
240.799, 12.757
242.172, 62.660
243.545, 6.074
244.917, 55.497
246.290, 50.916
247.662, 55.332
249.034, 53.745
250.405, 54.154
251.777, 131.576
253.148, 66.024
254.519, 189.765
255.889, 208.216
257.260, 194.697
258.630, 190.134
260.000, 80.552
261.370, 76.031
262.739, 58.444
264.108, 87.860
265.477, 38.605
266.846, 12.513
268.215, 46.916
269.583, 34.325
270.951, 49.613
272.319, 79.073
273.686, 125.643
275.054, 290.287
276.421, 535.993
277.788, 729.742
279.154, 759.525
280.521, 700.336
281.887, 481.170
283.253, 312.022
284.619, 165.888
285.984, 53.765
287.349, 83.652
288.714, 5.455
290.079, 27.558
291.444, 20.334
292.808, 34.229
294.172, 37.124
295.536, 8.017
296.899, 20.818
298.263, 21.818
299.626, 19.702
300.989, 18.494
302.351, 21.542
303.714, 13.323
305.076, 0.817
306.438, 13.038
307.799, 31.888
309.161, 30.265
310.522, 7.567
311.883, 13.606
313.244, 7.790
314.604, 13.983
315.965, 15.764
317.325, 37.508
318.684, 4.768
320.044, 9.946
321.403, 21.349
322.762, 5.344
324.121, 2.970
325.480, 18.293
326.838, 24.370
328.196, 4.972
329.554, 6.412
330.912, 5.546
332.270, 2.177
333.627, 12.800
334.984, 1.416
336.341, 50.023
337.697, 45.663
339.053, 49.908
340.409, 36.474
341.765, 17.035
343.121, 51.589
344.476, 23.140
345.831, 121.684
347.186, 155.223
348.541, 166.758
349.895, 264.287
351.250, 130.812
352.604, 125.332
353.957, 66.847
355.311, 93.358
356.664, 23.864
358.017, 52.464
359.370, 46.426
360.722, 62.197
362.075, 86.663
363.427, 28.124
364.779, 85.554
366.130, 114.006
367.482, 35.604
368.833, 64.033
370.184, 3.454
371.535, 8.613
372.885, 39.994
374.235, 83.353
375.585, 77.708
376.935, 153.052
378.285, 206.376
379.634, 364.680
380.983, 796.896
382.332, 1521.181
383.680, 2920.530
385.029, 3896.799
386.377, 3060.043
387.725, 1642.307
389.073, 832.558
390.420, 345.791
391.767, 198.021
393.114, 121.247
394.461, 106.222
395.808, 82.441
397.154, 70.822
398.500, 97.034
399.846, 16.274
401.191, 78.662
402.537, 132.904
403.882, 42.283
405.227, 51.515
406.571, 33.754
407.916, 97.988
409.260, 43.228
410.604, 61.473
411.948, 77.731
413.291, 32.986
414.635, 115.302
415.978, 57.553
417.321, 82.850
418.663, 46.094
420.006, 91.336
421.348, 15.588
422.690, 41.836
424.031, 110.079
425.373, 8.333
426.714, 105.765
428.055, 169.718
429.396, 221.974
430.736, 309.858
432.077, 132.112
433.417, 120.362
434.757, 119.629
436.096, 81.870
437.436, 136.865
438.775, 102.103
440.114, 293.335
441.452, 434.566
442.791, 901.791
444.129, 1916.010
445.467, 2834.230
446.805, 2768.444
448.142, 1560.651
449.480, 780.916
450.817, 421.599
452.154, 180.736
453.490, 185.918
454.827, 82.092
456.163, 102.259
457.499, 112.384
458.835, 47.538
460.170, 116.684
461.505, 161.823
462.840, 284.956
464.175, 311.278
465.510, 426.375
466.844, 492.384
468.178, 289.458
469.512, 251.768
470.846, 107.442
472.179, 144.367
473.512, 90.048
474.845, 83.074
476.178, 125.693
477.511, 53.710
478.843, 126.762
480.175, 160.109
481.507, 126.991
482.839, 267.072
484.170, 341.763
485.501, 354.962
486.832, 263.186
488.163, 131.177
489.493, 113.207
490.823, 14.871
492.153, 64.482
493.483, 77.912
494.813, 85.727
496.142, 96.365
497.471, 16.952
498.800, 88.373
500.129, 40.308
501.457, 39.236
502.785, 101.026
504.113, 38.943
505.441, 106.791
506.769, 73.696
508.096, 66.595
509.423, 40.491
510.750, 53.382
512.077, 44.266
513.403, 70.145
514.729, 64.018
516.055, 121.885
517.381, 96.663
518.706, 218.518
520.032, 164.381
521.357, 385.238
522.681, 683.089
524.006, 1305.896
525.330, 2344.740
526.655, 2882.579
527.978, 2288.411
529.302, 1231.242
530.626, 659.564
531.949, 306.071
533.272, 182.886
534.595, 172.696
535.917, 83.500
537.239, 123.300
538.562, 81.094
539.883, 6.117
541.205, 69.658
542.527, 21.428
543.848, 39.192
545.169, 72.950
546.489, 30.704
547.810, 32.453
549.130, 41.196
550.450, 53.935
551.770, 46.668
553.090, 19.604
554.409, 53.104
555.728, 42.193
557.047, 38.519
558.366, 29.166
559.685, 14.651
561.003, 31.323
562.321, 23.872
563.639, 37.835
564.956, 39.857
566.274, 61.212
567.591, 87.912
568.908, 83.184
570.225, 75.119
571.541, 66.731
572.857, 37.224
574.173, 52.823
575.489, 38.416
576.805, 135.086
578.120, 109.128
579.435, 96.105
580.750, 78.370
582.065, 54.905
583.380, 86.640
584.694, 30.690
586.008, 6.034
587.322, 106.337
588.635, 14.850
589.949, 75.532
591.262, 62.026
592.575, 53.513
593.887, 71.993
595.200, 11.670
596.512, 84.436
597.824, 155.889
599.136, 342.261
600.447, 481.701
601.759, 395.135
603.070, 299.265
604.381, 162.686
605.692, 143.099
607.002, 44.506
608.312, 37.906
609.622, 152.301
610.932, 56.698
612.242, 251.089
613.551, 233.473
614.860, 330.851
616.169, 548.223
617.478, 529.564
618.786, 465.923
620.094, 227.277
621.402, 188.624
622.710, 204.972
624.018, 20.315
625.325, 128.651
626.632, 28.980
627.939, 135.302
629.246, 148.627
630.552, 67.949
631.859, 84.270
633.165, 106.590
634.471, 89.911
635.776, 110.226
637.082, 15.464
638.387, 95.824
639.692, 46.108
640.996, 83.395
642.301, 145.678
643.605, 132.959
644.909, 73.242
646.213, 113.521
647.516, 81.799
648.820, 105.840
650.123, 115.185
651.426, 159.378
652.729, 141.642
654.031, 100.903
655.333, 116.438
656.636, 90.705
657.937, 146.967
659.239, 132.224
660.540, 221.477
661.842, 190.725
663.142, 233.970
664.443, 257.209
665.744, 245.063
667.044, 402.294
668.344, 445.521
669.644, 507.742
670.944, 465.959
672.243, 313.173
673.542, 175.381
674.841, 229.586
676.140, 126.787
677.438, 154.984
678.737, 86.177
680.035, 219.365
681.333, 201.550
682.630, 162.730
683.928, 349.907
685.225, 598.080
686.522, 750.249
687.819, 738.417
689.115, 617.583
690.412, 426.745
691.708, 184.902
693.004, 134.057
694.300, 100.208
695.595, 91.356
696.890, 98.578
698.185, 60.719
699.480, 75.785
700.775, 133.919
702.069, 72.051
703.363, 251.157
704.657, 224.269
705.951, 237.392
707.244, 169.512
708.538, 130.783
709.831, 33.993
711.124, 20.105
712.416, 9.050
713.709, 8.843
715.001, 26.774
716.293, 9.867
717.585, 16.830
718.876, 19.104
720.167, 35.829
721.459, 22.831
722.749, 27.840
724.040, 29.869
725.331, 55.919
726.621, 50.997
727.911, 11.089
729.201, 19.755
730.490, 14.658
731.780, 2.509
733.069, 4.592
734.358, 51.699
735.646, 73.163
736.935, 44.026
738.223, 49.112
739.511, 36.721
740.799, 58.629
742.087, 13.521
743.374, 67.271
744.661, 19.568
745.948, 63.214
747.235, 2.996
748.522, 20.757
749.808, 3.461
751.094, 23.439
752.380, 36.328
753.666, 17.905
754.951, 43.854
756.236, 15.614
757.521, 31.626
758.806, 104.120
760.091, 47.865
761.375, 103.612
762.659, 125.295
763.943, 227.906
765.227, 375.656
766.511, 356.405
767.794, 336.158
769.077, 251.915
770.360, 156.674
771.643, 183.435
772.925, 235.197
774.207, 192.961
775.489, 330.727
776.771, 410.494
778.053, 385.928
779.334, 428.608
780.615, 367.381
781.896, 389.944
783.177, 372.721
784.457, 527.501
785.738, 853.282
787.018, 1010.066
788.298, 1080.852
789.577, 640.643
790.857, 596.436
792.136, 270.032
793.415, 192.830
794.694, 235.626
795.972, 49.430
797.251, 154.241
798.529, 123.056
799.807, 132.873
801.084, 188.693
802.362, 288.517
803.639, 459.345
804.916, 751.176
806.193, 776.010
807.470, 780.848
808.746, 561.689
810.022, 374.547
811.298, 194.410
812.574, 98.274
813.850, 141.143
815.125, 43.016
816.400, 122.892
817.675, 98.771
818.950, 24.345
820.224, 125.537
821.499, 62.423
822.773, 14.316
824.047, 44.213
825.320, 81.115
826.594, 99.024
827.867, 50.937
829.140, 45.854
830.413, 102.783
831.685, 21.717
832.958, 112.656
834.230, 93.599
835.502, 46.547
836.774, 129.502
838.045, 82.463
839.316, 143.428
840.588, 141.406
841.858, 134.388
843.129, 173.377
844.400, 148.370
845.670, 151.368
846.940, 201.372
848.210, 129.380
849.479, 215.395
850.749, 207.419
852.018, 161.449
853.287, 259.516
854.556, 264.587
855.824, 323.666
857.093, 382.756
858.361, 402.853
859.629, 499.956
860.896, 493.079
862.164, 588.208
863.431, 704.353
864.698, 792.511
865.965, 1053.646
867.232, 1144.852
868.498, 1404.951
869.764, 1914.133
871.030, 2509.910
872.296, 3680.566
873.562, 5560.194
874.827, 9562.662
876.092, 18244.840
877.357, 32666.916
878.622, 49907.371
879.886, 48521.641
881.151, 34705.000
882.415, 21199.303
883.679, 12113.616
884.942, 7547.857
886.206, 4931.721
887.469, 3512.664
888.732, 2736.018
889.995, 2062.380
891.258, 1822.581
892.520, 1524.971
893.782, 1311.637
895.044, 1205.202
896.306, 1043.629
897.568, 983.888
898.829, 887.339
900.090, 846.798
901.351, 861.269
902.612, 758.545
903.872, 755.732
905.133, 718.235
906.393, 628.823
907.653, 752.345
908.912, 708.876
910.172, 791.714
911.431, 984.272
912.690, 1175.839
913.949, 1685.418
915.208, 2363.007
916.466, 2952.606
917.724, 3153.217
918.982, 2823.836
920.240, 2500.350
921.498, 3028.989
922.755, 3755.641
924.012, 4871.340
925.269, 4199.012
926.526, 3017.692
927.782, 1936.384
929.039, 1343.085
930.295, 945.796
931.551, 856.521
932.806, 756.254
934.062, 888.000
935.317, 903.755
936.572, 1171.521
937.827, 1283.296
939.082, 1160.083
940.336, 1314.262
941.590, 1056.069
942.844, 1094.886
944.098, 1229.723
945.352, 1517.570
946.605, 2249.427
947.859, 3616.342
949.112, 5878.220
950.364, 7833.107
951.617, 7618.006
952.869, 5622.913
954.121, 3651.832
955.373, 2280.761
956.625, 1586.735
957.877, 1095.684
959.128, 747.643
960.379, 722.876
961.630, 508.855
962.881, 515.845
964.131, 356.844
965.381, 390.854
966.631, 328.873
967.881, 262.901
969.131, 251.940
970.380, 166.371
971.630, 149.435
972.879, 284.333
974.128, 130.417
975.376, 59.511
976.625, 225.010
977.873, 64.123
979.121, 98.246
980.369, 116.079
981.616, 126.221
982.864, 97.373
984.111, 85.534
985.358, 59.704
986.605, 150.421
987.851, 52.612
989.097, 169.811
990.344, 128.701
991.589, 172.919
992.835, 362.148
994.081, 235.385
995.326, 297.633
996.571, 362.890
997.816, 290.167
999.061, 328.453
1000.305, 327.799
1001.550, 334.104
1002.794, 401.582
1004.037, 329.906
1005.281, 450.240
1006.525, 430.152
1007.768, 527.504
1009.011, 695.874
1010.254, 879.747
1011.496, 1087.140
1012.739, 1084.547
1013.981, 1197.651
1015.223, 1545.093
1016.465, 1726.016
1017.706, 2238.478
1018.948, 2613.001
1020.189, 2781.704
1021.430, 2478.229
1022.671, 2008.875
1023.911, 1561.441
1025.152, 1300.023
1026.392, 971.215
1027.632, 794.235
1028.872, 563.874
1030.111, 424.488
1031.350, 374.144
1032.590, 239.400
1033.829, 256.071
1035.067, 207.553
1036.306, 93.342
1037.544, 183.050
1038.782, 181.772
1040.020, 158.581
1041.258, 188.328
1042.495, 133.425
1043.733, 167.208
1044.970, 114.000
1046.207, 45.125
1047.443, 120.935
1048.680, 150.754
1049.916, 27.685
1051.152, 80.516
1052.388, 22.391
1053.624, 215.245
1054.859, 26.104
1056.094, 85.975
1057.329, 228.852
1058.564, 96.732
1059.799, 43.737
1061.033, 101.634
1062.268, 102.793
1063.502, 123.699
1064.735, 55.607
1065.969, 129.523
1067.202, 127.442
1068.436, 29.635
1069.669, 162.419
1070.902, 71.340
1072.134, 2.736
1073.367, 136.194
1074.599, 16.124
1075.831, 112.058
1077.062, 161.996
1078.294, 43.937
1079.525, 61.018
1080.757, 100.966
1081.988, 23.917
1083.218, 186.896
1084.449, 89.878
1085.679, 64.865
1086.909, 112.862
1088.139, 14.139
1089.369, 50.857
1090.599, 147.855
1091.828, 3.855
1093.057, 102.857
1094.286, 74.860
1095.515, 28.135
1096.744, 81.862
1097.972, 41.861
1099.200, 54.862
1100.428, 47.863
1101.656, 65.866
1102.883, 74.972
1104.111, 1.022
1105.338, 59.984
1106.565, 78.992
1107.791, 30.000
1109.018, 142.077
1110.244, 101.076
1111.470, 91.075
1112.696, 117.140
1113.922, 4.140
1115.147, 86.140
1116.373, 98.177
1117.598, 7.177
1118.823, 148.494
1120.047, 18.499
1121.272, 13.501
1122.496, 89.500
1123.720, 8.502
1124.944, 55.492
1126.168, 133.485
1127.391, 32.522
1128.615, 98.454
1129.838, 18.429
1131.061, 16.402
1132.283, 190.374
1133.506, 9.656
1134.728, 401.513
1135.950, 261.473
1137.172, 29.568
1138.394, 73.632
1139.615, 14.788
1140.837, 9.725
1142.058, 118.933
1143.279, 44.865
1144.499, 18.254
1145.720, 90.415
1146.940, 4.339
1148.160, 22.408
1149.380, 113.132
1150.600, 152.729
1151.819, 63.970
1153.038, 22.909
1154.257, 149.044
1155.476, 55.963
1156.695, 52.218
1157.913, 124.275
1159.132, 58.419
1160.350, 21.727
1161.568, 151.655
1162.785, 1.490
1164.003, 164.230
1165.220, 28.664
1166.437, 24.600
1167.654, 188.438
1168.871, 16.711
1170.087, 135.403
1171.304, 86.535
1172.520, 45.214
1173.736, 108.887
1174.951, 68.849
1176.167, 50.437
1177.382, 117.285
1178.597, 4.348
1179.812, 87.946
1181.027, 186.585
1182.241, 0.542
1183.455, 150.026
1184.669, 111.423
1185.883, 18.023
1187.097, 142.503
1188.311, 14.037
1189.524, 90.544
1190.737, 184.044
1191.950, 15.058
1193.162, 116.538
1194.375, 144.956
1195.587, 36.862
1196.799, 106.315
1198.011, 57.270
1199.223, 112.706
1200.434, 166.134
1201.646, 93.676
1202.857, 214.086
1204.068, 106.523
1205.279, 2.079
1206.489, 198.451
1207.699, 21.966
1208.909, 165.317
1210.119, 108.659
1211.329, 141.730
1212.539, 199.054
1213.748, 254.369
1214.957, 43.855
1216.166, 223.150
1217.375, 123.530
1218.583, 77.769
1219.792, 150.038
1221.000, 100.639
1222.208, 109.347
1223.415, 166.589
1224.623, 50.303
1225.830, 253.562
1227.037, 175.776
1228.244, 102.341
1229.451, 182.536
1230.658, 128.320
1231.864, 158.295
1233.070, 318.462
1234.276, 121.239
1235.482, 218.435
1236.687, 163.576
1237.893, 235.822
1239.098, 252.954
1240.303, 107.066
1241.508, 187.385
1242.712, 220.483
1243.917, 111.890
1245.121, 182.002
1246.325, 195.076
1247.529, 78.480
1248.732, 234.537
1249.936, 112.552
1251.139, 183.921
1252.342, 132.949
1253.545, 85.855
1254.747, 327.994
1255.950, 160.996
1257.152, 91.200
1258.354, 267.185
1259.556, 152.161
1260.758, 100.349
1261.959, 320.306
1263.160, 5.253
1264.361, 120.281
1265.562, 290.367
1266.763, 115.266
1267.963, 264.331
1269.164, 234.812
1270.364, 122.009
1271.563, 244.845
1272.763, 115.963
1273.963, 142.901
1275.162, 145.648
1276.361, 142.386
1277.560, 188.104
1278.759, 66.272
1279.957, 192.967
1281.155, 247.651
1282.354, 53.643
1283.551, 64.303
1284.749, 216.941
1285.947, 51.570
1287.144, 224.590
1288.341, 15.817
1289.538, 62.749
1290.735, 169.301
1291.931, 83.782
1293.128, 19.297
1294.324, 111.678
1295.520, 26.169
1296.716, 48.929
1297.911, 83.824
1299.107, 14.722
1300.302, 126.712
1301.497, 10.359
1302.692, 4.953
1303.886, 94.434
1305.081, 57.883
1306.275, 92.410
1307.469, 134.215
1308.663, 59.532
1309.856, 111.665
1311.050, 31.683
1312.243, 11.119
1313.436, 124.960
1314.629, 15.124
1315.822, 149.272
1317.014, 188.409
1318.206, 42.532
1319.398, 100.640
1320.590, 85.765
1321.782, 11.847
1322.974, 284.321
1324.165, 99.363
1325.356, 42.393
1326.547, 230.501
1327.738, 19.500
1328.928, 147.478
1330.119, 179.363
1331.309, 23.681
1332.499, 122.920
1333.688, 184.967
1334.878, 1.883
1336.067, 274.457
1337.256, 7.655
1338.445, 11.219
1339.634, 216.976
1340.823, 17.176
1342.011, 165.625
1343.199, 188.605
1344.388, 11.581
1345.575, 252.219
1346.763, 104.099
1347.950, 73.885
1349.138, 190.553
1350.325, 76.325
1351.512, 112.834
1352.698, 260.644
1353.885, 5.599
1355.071, 171.152
1356.257, 182.280
1357.443, 99.026
1358.629, 276.636
1359.814, 92.990
1361.000, 132.738
1362.185, 324.484
1363.370, 34.491
1364.554, 11.245
1365.739, 248.000
1366.923, 8.764
1368.107, 108.397
1369.291, 131.479
1370.475, 98.744
1371.659, 154.991
1372.842, 1.010
1374.025, 26.261
1375.208, 229.498
1376.391, 472.738
1377.574, 110.515
1378.756, 133.286
1379.939, 99.437
1381.121, 252.114
1382.303, 200.322
1383.484, 62.630
1384.666, 317.925
1385.847, 50.205
1387.028, 119.364
1388.209, 290.610
1389.390, 46.762
1390.570, 256.986
1391.751, 234.124
1392.931, 50.275
1394.111, 285.016
1395.291, 92.156
1396.470, 98.284
1397.649, 346.400
1398.829, 79.509
1400.008, 198.612
1401.187, 254.701
1402.365, 78.544
1403.544, 265.315
1404.722, 302.128
1405.900, 15.148
1407.078, 309.622
1408.255, 159.430
1409.433, 88.762
1410.610, 360.962
1411.787, 48.188
1412.964, 135.020
1414.141, 286.159
1415.317, 87.002
1416.494, 199.725
1417.670, 157.134
1418.846, 119.874
1420.022, 324.098
1421.197, 279.314
1422.373, 223.120
1423.548, 355.333
1424.723, 165.696
1425.898, 150.881
1427.072, 214.705
1428.247, 18.551
1429.421, 262.564
1430.595, 264.913
1431.769, 129.000
1432.942, 407.401
1434.116, 189.347
1435.289, 106.986
1436.462, 362.421
1437.635, 50.878
1438.808, 270.346
1439.981, 480.026
1441.153, 122.594
1442.325, 335.099
1443.497, 348.154
1444.669, 122.975
1445.840, 466.655
1447.012, 320.473
1448.183, 142.755
1449.354, 493.692
1450.525, 123.899
1451.696, 306.949
1452.866, 511.183
1454.036, 173.868
1455.206, 301.318
1456.376, 442.729
1457.546, 192.802
1458.716, 401.129
1459.885, 342.506
1461.054, 227.977
1462.223, 548.873
1463.392, 282.208
1464.560, 207.368
1465.729, 489.145
1466.897, 189.449
1468.065, 350.351
1469.233, 403.796
1470.400, 177.804
1471.568, 423.837
1472.735, 258.851
1473.902, 83.847
1475.069, 413.876
1476.236, 252.703
1477.402, 120.773
1478.569, 522.909
1479.735, 191.909
1480.901, 193.094
1482.066, 464.180
1483.232, 80.245
1484.397, 256.321
1485.562, 364.779
1486.727, 100.382
1487.892, 366.015
1489.057, 200.708
1490.221, 163.478
1491.386, 349.340
1492.550, 117.303
1493.714, 262.432
1494.877, 434.743
1496.041, 44.243
1497.204, 247.889
1498.367, 367.985
1499.530, 6.952
1500.693, 343.144
1501.856, 356.592
1503.018, 91.195
1504.180, 455.180
1505.342, 160.754
1506.504, 247.346
1507.666, 520.873
1508.827, 104.270
1509.988, 190.832
1511.149, 475.274
1512.310, 136.021
1513.471, 322.219
1514.631, 460.417
1515.792, 107.360
1516.952, 378.046
1518.112, 279.677
1519.272, 2.467
1520.431, 415.785
1521.591, 0.000
##END=



