##NAMES=Phenakite
##RRUFFID=R040046
##IDEAL CHEMISTRY=Be_2_SiO_4_
##LOCALITY=San Miguel de Piracicaba, Minas Gerais, Brazil
##OWNER=RRUFF
##SOURCE=University of Arizona Mineral Museum
##DESCRIPTION=Colorless crystal fragments
##STATUS=The identification of this mineral has been confirmed by X-ray diffraction and chemical analysis
##URL=rruff.info/R040046
##MEASURED CHEMISTRY=Be_2.02_Si_0.99_O_4_
##PIN_ID=L00327
##ORIENTATION=Laser parallel to c* (0 0 1). Fiducial mark perpendicular to laser is parallel to a [1 0 0]
87.101, 0.000
88.496, 30.304
89.890, 0.970
91.284, 47.194
92.678, 4.951
94.071, 72.738
95.465, 60.275
96.858, 67.367
98.251, 77.887
99.644, 65.703
101.036, 49.952
102.428, 50.393
103.820, 49.033
105.212, 38.816
106.604, 34.711
107.995, 30.970
109.387, 22.966
110.777, 39.232
112.168, 17.638
113.559, 53.214
114.949, 69.871
116.339, 103.573
117.729, 113.479
119.119, 154.048
120.508, 130.733
121.897, 50.369
123.286, 49.951
124.675, 43.558
126.063, 54.235
127.452, 48.743
128.840, 49.497
130.228, 57.018
131.615, 42.986
133.003, 65.935
134.390, 52.381
135.777, 71.566
137.164, 65.955
138.550, 31.761
139.937, 49.839
141.323, 105.696
142.709, 76.438
144.094, 58.434
145.480, 7.239
146.865, 46.459
148.250, 16.133
149.635, 13.486
151.019, 22.949
152.403, 49.146
153.788, 62.269
155.171, 112.326
156.555, 253.328
157.939, 597.275
159.322, 1053.166
160.705, 1444.032
162.088, 1666.071
163.470, 1467.989
164.853, 750.428
166.235, 271.292
167.617, 102.821
168.998, 49.882
170.380, 40.027
171.761, 2.837
173.142, 20.292
174.523, 15.537
175.904, 58.703
177.284, 31.416
178.664, 3.247
180.044, 32.770
181.424, 26.709
182.803, 8.646
184.183, 41.582
185.562, 20.514
186.940, 6.047
188.319, 4.614
189.698, 11.643
191.076, 4.962
192.454, 34.112
193.831, 31.837
195.209, 38.945
196.586, 45.804
197.963, 31.244
199.340, 42.615
200.717, 18.773
202.093, 15.476
203.470, 10.376
204.846, 21.062
206.221, 27.326
207.597, 42.262
208.972, 46.249
210.347, 54.466
211.722, 63.195
213.097, 37.936
214.472, 74.817
215.846, 182.005
217.220, 507.626
218.594, 1577.047
219.967, 3047.456
221.341, 4371.062
222.714, 4825.513
224.087, 3946.257
225.460, 1896.059
226.832, 659.722
228.204, 230.123
229.577, 97.761
230.948, 70.153
232.320, 54.562
233.692, 78.825
235.063, 46.079
236.434, 20.678
237.805, 14.556
239.175, 5.779
240.545, 14.993
241.916, 19.203
243.286, 2.499
244.655, 9.316
246.025, 25.120
247.394, 19.862
248.763, 10.451
250.132, 19.654
251.501, 61.732
252.869, 138.600
254.237, 202.523
255.605, 164.477
256.973, 157.449
258.340, 95.432
259.708, 57.471
261.075, 46.462
262.442, 8.548
263.808, 1.437
265.175, 16.416
266.541, 31.389
267.907, 21.640
269.273, 31.317
270.639, 20.734
272.004, 47.198
273.369, 195.120
274.734, 383.057
276.099, 540.957
277.463, 696.845
278.828, 669.720
280.192, 538.583
281.556, 420.432
282.919, 177.268
284.283, 19.091
285.646, 35.899
287.009, 31.694
288.372, 12.525
289.734, 19.762
291.097, 3.022
292.459, 8.700
293.821, 12.406
295.183, 34.091
296.544, 0.761
297.905, 45.411
299.266, 6.955
300.627, 4.659
301.988, 11.253
303.348, 37.827
304.709, 28.339
306.069, 10.910
307.428, 4.428
308.788, 31.929
310.147, 3.590
311.507, 45.871
312.865, 2.647
314.224, 27.783
315.583, 29.785
316.941, 60.607
318.299, 30.987
319.657, 1.355
321.015, 46.716
322.372, 16.065
323.729, 13.594
325.086, 50.728
326.443, 27.021
327.800, 44.299
329.156, 24.593
330.512, 26.832
331.868, 17.091
333.224, 48.289
334.579, 51.453
335.935, 45.361
337.290, 48.985
338.645, 31.568
339.999, 36.685
341.354, 16.840
342.708, 21.792
344.062, 37.640
345.416, 72.773
346.769, 159.677
348.123, 180.728
349.476, 130.683
350.829, 114.535
352.182, 54.331
353.534, 50.140
354.887, 57.357
356.239, 74.256
357.591, 47.124
358.942, 27.006
360.294, 21.906
361.645, 41.728
362.996, 19.578
364.347, 76.298
365.698, 76.940
367.048, 53.513
368.398, 18.179
369.748, 78.861
371.098, 48.597
372.448, 83.341
373.797, 64.110
375.146, 47.882
376.495, 135.567
377.844, 172.325
379.192, 411.105
380.540, 1052.848
381.889, 2323.617
383.236, 3458.348
384.584, 3590.172
385.932, 2509.890
387.279, 1195.603
388.626, 474.307
389.973, 215.005
391.319, 99.697
392.666, 136.418
394.012, 87.313
395.358, 105.972
396.704, 47.641
398.049, 74.290
399.394, 72.058
400.740, 59.819
402.084, 125.181
403.429, 33.675
404.774, 30.598
406.118, 58.858
407.462, 57.420
408.806, 65.632
410.150, 70.772
411.493, 76.200
412.836, 75.674
414.179, 75.335
415.522, 80.278
416.865, 67.664
418.207, 78.334
419.549, 67.998
420.891, 47.664
422.233, 84.309
423.575, 102.911
424.916, 102.925
426.257, 181.089
427.598, 211.598
428.939, 260.497
430.279, 229.500
431.619, 170.338
432.959, 95.034
434.299, 93.546
435.639, 50.115
436.978, 108.678
438.318, 187.240
439.657, 255.797
440.996, 573.345
442.334, 1309.896
443.673, 2218.438
445.011, 2632.972
446.349, 2169.257
447.687, 1251.669
449.024, 509.033
450.361, 297.104
451.699, 165.683
453.036, 127.269
454.372, 99.344
455.709, 97.471
457.045, 66.789
458.381, 108.564
459.717, 84.913
461.053, 131.180
462.388, 195.090
463.724, 409.136
465.059, 410.419
466.394, 359.636
467.728, 228.700
469.063, 86.552
470.397, 120.774
471.731, 49.168
473.065, 36.437
474.398, 80.872
475.732, 40.027
477.065, 93.740
478.398, 62.040
479.731, 92.198
481.063, 172.555
482.396, 232.776
483.728, 321.424
485.060, 286.104
486.391, 225.319
487.723, 125.481
489.054, 32.657
490.385, 58.720
491.716, 23.779
493.047, 32.731
494.377, 51.897
495.708, 54.070
497.038, 80.213
498.368, 59.366
499.697, 42.430
501.027, 25.520
502.356, 30.430
503.685, 9.604
505.014, 8.343
506.342, 48.671
507.671, 31.875
508.999, 49.074
510.327, 67.267
511.655, 67.455
512.982, 117.563
514.310, 73.649
515.637, 112.766
516.964, 75.941
518.291, 130.009
519.617, 186.964
520.944, 322.872
522.270, 848.906
523.596, 1848.781
524.921, 2734.932
526.247, 2799.077
527.572, 1867.146
528.897, 878.994
530.222, 378.128
531.547, 215.167
532.871, 147.292
534.196, 80.388
535.520, 74.412
536.844, 94.524
538.167, 21.632
539.491, 147.735
540.814, 20.834
542.137, 62.928
543.460, 5.018
544.783, 80.102
546.105, 36.183
547.427, 69.258
548.749, 58.330
550.071, 59.397
551.393, 17.461
552.714, 17.481
554.035, 32.563
555.356, 47.602
556.677, 18.875
557.998, 35.907
559.318, 3.058
560.638, 7.943
561.958, 10.155
563.278, 17.932
564.597, 19.283
565.917, 13.252
567.236, 30.449
568.555, 41.077
569.874, 34.813
571.192, 41.585
572.511, 33.945
573.829, 37.413
575.147, 46.760
576.464, 37.551
577.782, 83.161
579.099, 38.916
580.416, 76.520
581.733, 37.616
583.050, 4.584
584.366, 27.547
585.683, 17.507
586.999, 10.538
588.315, 7.400
589.630, 7.339
590.946, 28.269
592.261, 74.203
593.576, 74.239
594.891, 121.162
596.206, 122.287
597.520, 231.774
598.834, 310.685
600.148, 441.131
601.462, 351.033
602.776, 204.929
604.089, 95.821
605.402, 33.709
606.715, 66.593
608.028, 24.473
609.341, 30.355
610.653, 103.240
611.965, 133.125
613.277, 198.007
614.589, 320.886
615.901, 449.761
617.212, 445.636
618.523, 292.506
619.834, 215.377
621.145, 85.247
622.456, 81.115
623.766, 64.979
625.076, 19.839
626.386, 80.697
627.696, 71.553
629.006, 67.407
630.315, 36.260
631.624, 41.502
632.933, 51.926
634.242, 34.757
635.551, 64.613
636.859, 57.465
638.167, 15.685
639.475, 41.149
640.783, 0.980
642.090, 84.803
643.398, 32.630
644.705, 14.453
646.012, 88.274
647.318, 21.062
648.625, 30.877
649.931, 78.625
651.237, 39.410
652.543, 40.219
653.849, 28.025
655.155, 95.829
656.460, 64.630
657.765, 83.430
659.070, 73.177
660.375, 191.945
661.679, 207.931
662.984, 234.597
664.288, 200.387
665.592, 244.157
666.895, 338.942
668.199, 433.724
669.502, 509.509
670.805, 362.287
672.108, 262.064
673.411, 114.388
674.713, 112.161
676.016, 53.459
677.318, 49.228
678.620, 119.995
679.921, 97.762
681.223, 125.527
682.524, 244.290
683.825, 419.052
685.126, 534.811
686.427, 560.059
687.727, 730.327
689.028, 528.083
690.328, 302.837
691.628, 185.590
692.927, 123.341
694.227, 50.092
695.526, 67.809
696.825, 31.556
698.124, 55.270
699.423, 99.015
700.721, 42.660
702.020, 114.403
703.318, 189.144
704.616, 239.885
705.913, 187.625
707.211, 107.363
708.508, 42.065
709.805, 52.587
711.102, 66.324
712.399, 16.940
713.695, 66.754
714.992, 12.477
716.288, 24.866
717.584, 15.482
718.879, 76.835
720.175, 2.609
721.470, 13.011
722.765, 33.392
724.060, 7.750
725.355, 4.890
726.649, 14.471
727.944, 27.841
729.238, 38.227
730.532, 36.598
731.825, 28.062
733.119, 25.510
734.412, 11.968
735.705, 10.439
736.998, 0.254
738.291, 18.233
739.584, 19.628
740.876, 28.108
742.168, 39.520
743.460, 35.957
744.752, 27.797
746.043, 29.957
747.334, 13.452
748.626, 1.012
749.916, 10.477
751.207, 30.946
752.498, 11.429
753.788, 31.084
755.078, 45.401
756.368, 25.093
757.658, 60.589
758.947, 13.086
760.237, 46.585
761.526, 33.066
762.815, 173.569
764.104, 254.017
765.392, 345.494
766.680, 383.002
767.969, 336.513
769.257, 195.026
770.544, 169.542
771.832, 106.060
773.119, 163.581
774.406, 167.103
775.693, 325.628
776.980, 487.155
778.267, 464.684
779.553, 411.216
780.839, 277.698
782.125, 285.235
783.411, 400.774
784.697, 516.316
785.982, 763.861
787.267, 1097.408
788.552, 936.958
789.837, 749.512
791.122, 411.068
792.406, 275.627
793.690, 185.471
794.974, 102.036
796.258, 153.945
797.542, 38.516
798.825, 122.091
800.108, 130.588
801.391, 169.169
802.674, 259.738
803.957, 466.328
805.239, 680.923
806.522, 799.522
807.804, 697.123
809.085, 531.729
810.367, 246.347
811.649, 193.969
812.930, 107.594
814.211, 72.224
815.492, 85.858
816.772, 49.499
818.053, 103.145
819.333, 28.794
820.613, 77.448
821.893, 58.106
823.173, 0.769
824.452, 39.435
825.732, 64.105
827.011, 21.220
828.290, 81.454
829.568, 20.868
830.847, 66.809
832.125, 122.491
833.403, 47.178
834.681, 132.869
835.959, 34.564
837.236, 78.264
838.514, 65.976
839.791, 73.701
841.068, 118.430
842.345, 100.170
843.621, 120.922
844.898, 81.679
846.174, 92.451
847.450, 153.238
848.726, 181.030
850.001, 166.837
851.277, 232.650
852.552, 172.468
853.827, 273.292
855.102, 262.123
856.376, 282.960
857.651, 355.802
858.925, 313.650
860.199, 486.502
861.473, 497.377
862.746, 483.258
864.020, 604.163
865.293, 820.073
866.566, 943.666
867.839, 1096.588
869.112, 1413.518
870.384, 1788.460
871.656, 2481.230
872.928, 3585.165
874.200, 5604.783
875.472, 10216.771
876.744, 20630.537
878.015, 38125.930
879.286, 50491.934
880.557, 44916.945
881.828, 27871.148
883.098, 15464.719
884.369, 8628.420
885.639, 5410.680
886.909, 3856.125
888.178, 2794.426
889.448, 2211.830
890.717, 1781.796
891.987, 1573.894
893.256, 1247.002
894.524, 1135.117
895.793, 1004.242
897.061, 939.381
898.330, 849.871
899.598, 780.688
900.865, 742.855
902.133, 728.923
903.401, 733.562
904.668, 593.066
905.935, 657.693
907.202, 607.079
908.468, 639.753
909.735, 776.977
911.001, 720.209
912.267, 963.450
913.533, 1189.698
914.799, 1689.956
916.064, 2479.221
917.330, 3146.496
918.595, 3180.778
919.860, 2609.069
921.124, 2293.650
922.389, 2794.970
923.653, 4152.286
924.918, 4656.611
926.182, 3933.945
927.445, 2434.287
928.709, 1618.637
929.972, 1017.995
931.236, 849.363
932.499, 702.738
933.761, 626.122
935.024, 701.515
936.286, 866.916
937.549, 1035.331
938.811, 1027.207
940.073, 1059.175
941.334, 996.608
942.596, 970.050
943.857, 882.501
945.118, 1177.960
946.379, 1465.435
947.640, 2321.917
948.900, 4125.411
950.161, 6364.914
951.421, 8151.424
952.681, 6837.944
953.940, 4753.472
955.200, 2945.578
956.459, 1736.122
957.719, 1221.675
958.978, 836.239
960.236, 649.812
961.495, 575.325
962.753, 457.913
964.012, 419.510
965.270, 279.114
966.527, 270.726
967.785, 278.346
969.043, 219.974
970.300, 240.609
971.557, 243.252
972.814, 164.903
974.071, 194.562
975.327, 177.223
976.583, 121.897
977.840, 192.578
979.095, 97.717
980.351, 122.414
981.607, 127.589
982.862, 100.301
984.117, 165.020
985.372, 105.747
986.627, 90.482
987.882, 204.225
989.136, 141.460
990.390, 182.078
991.644, 252.844
992.898, 232.704
994.152, 191.205
995.405, 314.001
996.659, 363.904
997.912, 300.136
999.165, 293.954
1000.417, 338.947
1001.670, 317.869
1002.922, 350.707
1004.174, 400.636
1005.426, 327.735
1006.678, 419.618
1007.930, 407.501
1009.181, 550.391
1010.432, 746.286
1011.683, 855.923
1012.934, 922.837
1014.185, 1146.913
1015.435, 1134.841
1016.685, 1352.846
1017.935, 1727.792
1019.185, 2122.873
1020.435, 2567.302
1021.684, 2601.617
1022.934, 2246.603
1024.183, 1795.951
1025.432, 1351.994
1026.680, 966.024
1027.929, 728.648
1029.177, 625.703
1030.425, 478.762
1031.673, 340.832
1032.921, 274.933
1034.169, 225.133
1035.416, 200.265
1036.663, 225.417
1037.911, 141.642
1039.157, 184.810
1040.404, 76.028
1041.650, 169.208
1042.897, 132.393
1044.143, 129.581
1045.389, 114.925
1046.634, 128.187
1047.880, 87.468
1049.125, 139.688
1050.371, 105.914
1051.615, 39.142
1052.860, 110.374
1054.105, 99.612
1055.349, 35.859
1056.593, 10.886
1057.837, 64.456
1059.081, 160.730
1060.325, 26.006
1061.568, 20.285
1062.812, 54.565
1064.055, 28.855
1065.298, 110.147
1066.540, 55.441
1067.783, 97.739
1069.025, 110.038
1070.267, 13.634
1071.509, 0.278
1072.751, 75.023
1073.993, 32.325
1075.234, 85.629
1076.475, 62.934
1077.716, 64.240
1078.957, 87.547
1080.198, 40.912
1081.438, 26.223
1082.679, 69.534
1083.919, 70.868
1085.159, 56.181
1086.398, 0.495
1087.638, 1.810
1088.877, 52.124
1090.116, 45.439
1091.355, 57.761
1092.594, 64.077
1093.833, 59.393
1095.071, 72.709
1096.309, 63.025
1097.547, 11.342
1098.785, 39.657
1100.023, 14.973
1101.260, 32.368
1102.498, 52.683
1103.735, 16.960
1104.972, 117.348
1106.208, 2.736
1107.445, 72.895
1108.681, 40.201
1109.918, 38.494
1111.154, 118.792
1112.389, 104.178
1113.625, 37.463
1114.860, 15.764
1116.096, 42.046
1117.331, 61.326
1118.566, 77.349
1119.800, 85.882
1121.035, 128.204
1122.269, 186.479
1123.503, 202.750
1124.737, 191.088
1125.971, 84.359
1127.205, 53.628
1128.438, 36.902
1129.671, 8.173
1130.904, 11.747
1132.137, 39.714
1133.370, 25.002
1134.602, 26.548
1135.834, 33.810
1137.066, 23.807
1138.298, 29.434
1139.530, 52.871
1140.762, 15.707
1141.993, 25.500
1143.224, 51.687
1144.455, 31.021
1145.686, 35.860
1146.917, 87.502
1148.147, 31.213
1149.377, 2.953
1150.607, 63.141
1151.837, 4.334
1153.067, 0.532
1154.296, 25.522
1155.526, 27.624
1156.755, 42.507
1157.984, 35.784
1159.213, 52.149
1160.441, 132.684
1161.670, 41.833
1162.898, 87.160
1164.126, 21.545
1165.354, 55.525
1166.581, 11.558
1167.809, 12.542
1169.036, 10.414
1170.263, 56.718
1171.490, 9.776
1172.717, 41.131
1173.943, 72.247
1175.170, 12.719
1176.396, 100.482
1177.622, 55.585
1178.848, 77.514
1180.073, 118.047
1181.299, 17.767
1182.524, 100.055
1183.749, 57.958
1184.974, 43.766
1186.199, 108.696
1187.423, 50.917
1188.648, 69.701
1189.872, 129.602
1191.096, 92.514
1192.320, 30.311
1193.543, 56.332
1194.767, 53.407
1195.990, 149.141
1197.213, 80.201
1198.436, 84.919
1199.659, 130.729
1200.881, 72.431
1202.104, 121.233
1203.326, 93.051
1204.548, 54.802
1205.770, 151.468
1206.991, 93.126
1208.213, 116.774
1209.434, 116.514
1210.655, 80.751
1211.876, 138.373
1213.096, 197.018
1214.317, 137.964
1215.537, 165.559
1216.757, 75.145
1217.977, 68.440
1219.197, 159.995
1220.417, 140.552
1221.636, 130.125
1222.855, 145.663
1224.074, 122.192
1225.293, 188.711
1226.512, 72.221
1227.731, 130.891
1228.949, 135.458
1230.167, 81.943
1231.385, 120.418
1232.603, 165.992
1233.820, 121.441
1235.038, 140.887
1236.255, 158.324
1237.472, 88.751
1238.689, 229.170
1239.906, 132.578
1241.122, 155.977
1242.338, 137.366
1243.555, 145.747
1244.771, 130.118
1245.986, 201.480
1247.202, 74.831
1248.417, 223.172
1249.633, 84.502
1250.848, 125.255
1252.063, 75.565
1253.277, 17.869
1254.492, 118.159
1255.706, 116.441
1256.920, 122.782
1258.134, 71.047
1259.348, 118.305
1260.562, 91.554
1261.775, 190.794
1262.988, 145.026
1264.201, 115.250
1265.414, 188.463
1266.627, 86.668
1267.839, 208.863
1269.052, 164.039
1270.264, 83.788
1271.476, 150.945
1272.688, 122.092
1273.899, 138.061
1275.111, 137.174
1276.322, 120.269
1277.533, 129.354
1278.744, 96.419
1279.955, 49.473
1281.165, 128.516
1282.376, 72.532
1283.586, 70.051
1284.796, 80.179
1286.006, 7.846
1287.215, 118.209
1288.425, 128.414
1289.634, 72.316
1290.843, 133.108
1292.052, 48.565
1293.261, 58.433
1294.469, 79.097
1295.678, 72.826
1296.886, 70.634
1298.094, 68.347
1299.302, 23.114
1300.509, 88.628
1301.717, 5.633
1302.924, 50.085
1304.131, 93.792
1305.338, 7.249
1306.545, 25.428
1307.752, 122.941
1308.958, 26.598
1310.164, 129.171
1311.370, 73.805
1312.576, 26.702
1313.782, 46.439
1314.987, 42.688
1316.193, 15.267
1317.398, 143.500
1318.603, 0.966
1319.807, 50.575
1321.012, 27.529
1322.216, 36.049
1323.421, 66.558
1324.625, 56.944
1325.829, 26.524
1327.032, 120.898
1328.236, 0.655
1329.439, 119.773
1330.642, 49.128
1331.845, 18.538
1333.048, 106.888
1334.251, 50.260
1335.453, 45.620
1336.656, 70.970
1337.858, 51.843
1339.060, 24.419
1340.261, 125.655
1341.463, 23.943
1342.664, 153.219
1343.866, 54.487
1345.067, 114.746
1346.267, 51.996
1347.468, 46.236
1348.669, 4.532
1349.869, 127.605
1351.069, 90.817
1352.269, 107.020
1353.469, 53.216
1354.668, 10.597
1355.868, 156.576
1357.067, 68.741
1358.266, 20.899
1359.465, 152.048
1360.664, 88.189
1361.862, 122.296
1363.061, 76.369
1364.259, 94.492
1365.457, 68.609
1366.655, 129.722
1367.852, 189.829
1369.050, 74.931
1370.247, 115.030
1371.444, 36.068
1372.641, 54.831
1373.838, 107.003
1375.035, 108.066
1376.231, 47.149
1377.427, 77.231
1378.623, 199.312
1379.819, 80.394
1381.015, 77.478
1382.211, 166.558
1383.406, 82.647
1384.601, 91.688
1385.796, 221.728
1386.991, 84.085
1388.185, 134.116
1389.380, 115.143
1390.574, 95.111
1391.768, 149.956
1392.962, 132.847
1394.156, 96.303
1395.350, 186.840
1396.543, 110.303
1397.736, 163.664
1398.929, 107.094
1400.122, 99.527
1401.315, 176.945
1402.507, 115.298
1403.700, 92.613
1404.892, 142.977
1406.084, 109.318
1407.276, 127.729
1408.467, 146.613
1409.659, 127.762
1410.850, 128.817
1412.041, 94.572
1413.232, 2.728
1414.423, 120.764
1415.614, 158.825
1416.804, 2.079
1417.994, 133.572
1419.184, 119.588
1420.374, 100.554
1421.564, 140.970
1422.753, 67.707
1423.943, 120.859
1425.132, 119.067
1426.321, 70.244
1427.510, 72.834
1428.698, 146.385
1429.887, 17.145
1431.075, 141.448
1432.263, 113.037
1433.451, 115.921
1434.639, 111.370
1435.827, 110.027
1437.014, 147.817
1438.201, 206.276
1439.388, 200.971
1440.575, 215.470
1441.762, 208.001
1442.949, 201.955
1444.135, 179.806
1445.321, 264.946
1446.507, 140.689
1447.693, 240.913
1448.879, 121.675
1450.064, 250.427
1451.250, 223.125
1452.435, 116.851
1453.620, 206.269
1454.805, 189.825
1455.989, 77.300
1457.174, 218.953
1458.358, 149.589
1459.542, 196.210
1460.726, 238.814
1461.910, 150.397
1463.093, 200.962
1464.277, 319.513
1465.460, 95.045
1466.643, 203.551
1467.826, 221.023
1469.009, 168.459
1470.191, 284.859
1471.373, 100.222
1472.556, 100.556
1473.738, 131.882
1474.919, 119.818
1476.101, 104.067
1477.283, 135.881
1478.464, 104.629
1479.645, 171.920
1480.826, 120.270
1482.007, 114.635
1483.187, 246.572
1484.368, 135.071
1485.548, 157.562
1486.728, 285.191
1487.908, 109.823
1489.088, 121.476
1490.268, 244.179
1491.447, 129.920
1492.626, 92.665
1493.805, 135.407
1494.984, 28.158
1496.163, 66.672
1497.341, 186.679
1498.520, 70.448
1499.698, 138.226
1500.876, 114.016
1502.054, 14.824
1503.232, 161.658
1504.409, 56.525
1505.586, 119.535
1506.763, 150.648
1507.940, 11.826
1509.117, 138.083
1510.294, 192.418
1511.470, 127.819
1512.647, 161.290
1513.823, 107.832
1514.999, 12.544
1516.174, 139.176
1517.350, 43.009
1518.526, 98.976
1519.701, 203.101
1520.876, 53.392
1522.051, 58.858
1523.226, 143.519
1524.400, 42.406
1525.574, 150.493
1526.749, 180.106
1527.923, 1.590
1529.097, 157.021
1530.270, 76.861
1531.444, 6.626
1532.617, 160.467
1533.790, 0.000
##END=



