##NAMES=Phenakite
##RRUFFID=R040046
##IDEAL CHEMISTRY=Be_2_SiO_4_
##LOCALITY=San Miguel de Piracicaba, Minas Gerais, Brazil
##OWNER=RRUFF
##SOURCE=University of Arizona Mineral Museum
##DESCRIPTION=Colorless crystal fragments
##STATUS=The identification of this mineral has been confirmed by X-ray diffraction and chemical analysis
##URL=rruff.info/R040046
##MEASURED CHEMISTRY=Be_2.02_Si_0.99_O_4_
##PIN_ID=L00327
##ORIENTATION=Laser parallel to c* (0 0 1). Fiducial mark perpendicular to laser is parallel to a [1 0 0]
89.890, 0.000
91.284, 54.970
92.678, 34.397
94.071, 43.780
95.465, 68.779
96.858, 52.000
98.251, 39.842
99.644, 1.872
101.036, 7.750
102.428, 24.726
103.820, 7.983
105.212, 31.421
106.604, 37.994
107.995, 58.646
109.387, 33.369
110.777, 23.203
112.168, 20.158
113.559, 31.324
114.949, 51.520
116.339, 75.759
117.729, 79.081
119.119, 123.450
120.508, 35.850
121.897, 16.194
123.286, 45.443
124.675, 45.598
126.063, 45.661
127.452, 31.857
128.840, 22.239
130.228, 41.728
131.615, 34.799
133.003, 56.350
134.390, 9.603
135.777, 44.976
137.164, 48.076
138.550, 5.502
139.937, 29.289
141.323, 59.892
142.709, 39.471
144.094, 54.209
145.480, 30.498
146.865, 46.720
148.250, 39.242
149.635, 59.696
151.019, 67.193
152.403, 107.796
153.788, 53.099
155.171, 123.320
156.555, 255.457
157.939, 529.524
159.322, 1026.531
160.705, 1554.476
162.088, 1851.473
163.470, 1569.698
164.853, 791.621
166.235, 302.019
167.617, 128.443
168.998, 39.720
170.380, 79.208
171.761, 13.353
173.142, 53.398
174.523, 54.439
175.904, 33.256
177.284, 15.793
178.664, 48.279
180.044, 5.505
181.424, 39.774
182.803, 25.552
184.183, 40.330
185.562, 52.109
186.940, 44.886
188.319, 25.071
189.698, 42.279
191.076, 23.135
192.454, 56.920
193.831, 6.734
195.209, 33.182
196.586, 35.147
197.963, 31.048
199.340, 80.270
200.717, 7.100
202.093, 69.820
203.470, 46.602
204.846, 56.542
206.221, 8.470
207.597, 51.440
208.972, 31.323
210.347, 23.007
211.722, 56.179
213.097, 55.886
214.472, 92.801
215.846, 165.559
217.220, 471.108
218.594, 1362.454
219.967, 2918.708
221.341, 4455.950
222.714, 5261.226
224.087, 4252.623
225.460, 1883.472
226.832, 648.879
228.204, 209.441
229.577, 99.824
230.948, 103.327
232.320, 86.783
233.692, 65.929
235.063, 12.000
236.434, 2.939
237.805, 45.120
239.175, 21.832
240.545, 16.208
241.916, 8.761
243.286, 50.259
244.655, 14.701
246.025, 19.419
247.394, 41.568
248.763, 34.489
250.132, 64.516
251.501, 68.447
252.869, 132.324
254.237, 175.252
255.605, 184.258
256.973, 215.240
258.340, 103.224
259.708, 62.215
261.075, 8.794
262.442, 3.811
263.808, 7.838
265.175, 17.104
266.541, 19.944
267.907, 20.011
269.273, 23.900
270.639, 30.799
272.004, 71.683
273.369, 186.553
274.734, 351.410
276.099, 636.252
277.463, 756.080
278.828, 782.891
280.192, 663.682
281.556, 456.457
282.919, 170.214
284.283, 69.956
285.646, 38.679
287.009, 25.385
288.372, 8.072
289.734, 15.741
291.097, 31.393
292.459, 47.026
293.821, 3.358
295.183, 30.235
296.544, 15.806
297.905, 26.357
299.266, 40.920
300.627, 15.578
301.988, 34.895
303.348, 10.803
304.709, 9.624
306.069, 33.031
307.428, 43.413
308.788, 6.225
310.147, 38.109
311.507, 22.574
312.865, 15.146
314.224, 43.124
315.583, 74.374
316.941, 56.609
318.299, 36.830
319.657, 40.037
321.015, 49.230
322.372, 35.410
323.729, 48.577
325.086, 30.731
326.443, 69.872
327.800, 50.987
329.156, 71.066
330.512, 73.485
331.868, 11.145
333.224, 49.306
334.579, 62.280
335.935, 1.926
337.290, 51.025
338.645, 45.973
339.999, 46.819
341.354, 73.586
342.708, 53.408
344.062, 72.785
345.416, 149.519
346.769, 220.169
348.123, 218.900
349.476, 196.662
350.829, 160.385
352.182, 94.025
353.534, 77.710
354.887, 85.272
356.239, 51.982
357.591, 58.274
358.942, 15.858
360.294, 44.416
361.645, 80.912
362.996, 44.575
364.347, 44.695
365.698, 59.278
367.048, 60.754
368.398, 22.264
369.748, 99.276
371.098, 23.745
372.448, 91.088
373.797, 99.344
375.146, 69.804
376.495, 196.255
377.844, 172.782
379.192, 395.302
380.540, 1015.813
381.889, 2180.317
383.236, 3537.816
384.584, 3780.350
385.932, 2682.837
387.279, 1173.402
388.626, 506.229
389.973, 240.694
391.319, 115.172
392.666, 151.681
394.012, 89.124
395.358, 79.561
396.704, 73.942
398.049, 49.989
399.394, 84.446
400.740, 37.049
402.084, 109.476
403.429, 86.580
404.774, 85.461
406.118, 73.176
407.462, 59.168
408.806, 70.561
410.150, 72.825
411.493, 97.318
412.836, 119.750
414.179, 154.104
415.522, 58.963
416.865, 53.348
418.207, 67.728
419.549, 107.107
420.891, 104.555
422.233, 94.945
423.575, 107.924
424.916, 116.214
426.257, 137.263
427.598, 200.305
428.939, 249.578
430.279, 210.818
431.619, 163.859
432.959, 133.947
434.299, 67.223
435.639, 120.541
436.978, 117.863
438.318, 158.185
439.657, 279.497
440.996, 583.807
442.334, 1363.112
443.673, 2464.407
445.011, 3156.693
446.349, 2491.920
447.687, 1366.003
449.024, 518.966
450.361, 260.650
451.699, 162.470
453.036, 146.451
454.372, 62.521
455.709, 126.616
457.045, 95.557
458.381, 92.324
459.717, 49.213
461.053, 147.211
462.388, 200.485
463.724, 418.416
465.059, 509.976
466.394, 453.572
467.728, 235.482
469.063, 127.440
470.397, 95.250
471.731, 96.195
473.065, 14.963
474.398, 79.961
475.732, 70.877
477.065, 93.995
478.398, 101.951
479.731, 120.812
481.063, 199.693
482.396, 204.597
483.728, 205.959
485.060, 312.391
486.391, 169.203
487.723, 111.189
489.054, 78.064
490.385, 112.016
491.716, 64.015
493.047, 9.487
494.377, 81.350
495.708, 45.258
497.038, 102.235
498.368, 43.065
499.697, 63.868
501.027, 26.668
502.356, 51.576
503.685, 66.393
505.014, 51.289
506.342, 61.879
507.671, 40.188
508.999, 50.129
510.327, 47.065
511.655, 34.996
512.982, 100.921
514.310, 96.804
515.637, 121.715
516.964, 71.481
518.291, 99.273
519.617, 236.753
520.944, 287.477
522.270, 809.350
523.596, 1617.067
524.921, 2653.783
526.247, 2816.557
527.572, 1776.332
528.897, 878.877
530.222, 382.744
531.547, 197.302
532.871, 157.161
534.196, 85.017
535.520, 112.814
536.844, 67.661
538.167, 60.502
539.491, 114.339
540.814, 13.828
542.137, 94.990
543.460, 24.805
544.783, 89.614
546.105, 13.418
547.427, 3.783
548.749, 69.008
550.071, 27.794
551.393, 18.576
552.714, 61.353
554.035, 58.125
555.356, 31.895
556.677, 13.633
557.998, 5.355
559.318, 3.265
560.638, 2.458
561.958, 0.704
563.278, 8.863
564.597, 3.030
565.917, 2.405
567.236, 1.356
568.555, 8.070
569.874, 8.790
571.192, 12.521
572.511, 50.247
573.829, 18.412
575.147, 66.239
576.464, 49.719
577.782, 90.478
579.099, 18.908
580.416, 18.301
581.733, 57.491
583.050, 49.890
584.366, 35.977
585.683, 30.750
586.999, 35.427
588.315, 39.244
589.630, 43.067
590.946, 62.749
592.261, 69.426
593.576, 84.468
594.891, 67.288
596.206, 67.884
597.520, 180.541
598.834, 356.696
600.148, 435.097
601.462, 408.739
602.776, 230.375
604.089, 129.043
605.402, 103.669
606.715, 101.292
608.028, 80.910
609.341, 79.525
610.653, 147.138
611.965, 181.746
613.277, 268.350
614.589, 438.955
615.901, 401.313
617.212, 590.153
618.523, 344.713
619.834, 242.303
621.145, 105.897
622.456, 157.488
623.766, 103.081
625.076, 37.671
626.386, 88.258
627.696, 63.842
629.006, 32.427
630.315, 93.008
631.624, 30.550
632.933, 66.017
634.242, 20.580
635.551, 52.139
636.859, 35.694
638.167, 35.246
639.475, 48.795
640.783, 33.340
642.090, 18.883
643.398, 24.421
644.705, 29.956
646.012, 52.488
647.318, 44.016
648.625, 24.541
649.931, 56.062
651.237, 28.420
652.543, 28.937
653.849, 25.447
655.155, 40.962
656.460, 111.466
657.765, 90.976
659.070, 120.409
660.375, 210.913
661.679, 216.413
662.984, 239.912
664.288, 230.406
665.592, 268.887
666.895, 378.376
668.199, 530.862
669.502, 509.315
670.805, 455.795
672.108, 263.272
673.411, 167.747
674.713, 124.219
676.016, 83.688
677.318, 66.157
678.620, 94.624
679.921, 62.088
681.223, 198.550
682.524, 285.011
683.825, 372.469
685.126, 612.926
686.427, 808.381
687.727, 749.834
689.028, 604.286
690.328, 270.735
691.628, 179.182
692.927, 121.628
694.227, 89.071
695.526, 66.512
696.825, 58.951
698.124, 21.391
699.423, 47.826
700.721, 156.219
702.020, 125.650
703.318, 281.995
704.616, 249.069
705.913, 191.496
707.211, 176.900
708.508, 68.266
709.805, 21.688
711.102, 10.109
712.399, 21.528
713.695, 9.127
714.992, 17.172
716.288, 56.257
717.584, 25.397
718.879, 60.371
720.175, 52.216
721.470, 14.170
722.765, 28.833
724.060, 21.310
725.355, 7.547
726.649, 28.789
727.944, 36.047
729.238, 22.605
730.532, 56.260
731.825, 11.407
733.119, 31.083
734.412, 9.778
735.705, 25.555
736.998, 22.639
738.291, 42.086
739.584, 4.841
740.876, 16.624
742.168, 26.560
743.460, 1.236
744.752, 0.982
746.043, 13.209
747.334, 20.436
748.626, 54.337
749.916, 51.139
751.207, 31.969
752.498, 31.185
753.788, 25.660
755.078, 13.520
756.368, 41.615
757.658, 8.749
758.947, 19.115
760.237, 81.011
761.526, 44.139
762.815, 116.267
764.104, 258.396
765.392, 367.526
766.680, 385.657
767.969, 306.790
769.257, 284.923
770.544, 216.058
771.832, 132.194
773.119, 225.332
774.406, 210.471
775.693, 414.612
776.980, 533.756
778.267, 597.901
779.553, 564.053
780.839, 352.188
782.125, 259.344
783.411, 441.501
784.697, 511.623
785.982, 840.785
787.267, 1097.175
788.552, 995.341
789.837, 732.429
791.122, 336.599
792.406, 354.759
793.690, 229.920
794.974, 113.096
796.258, 180.257
797.542, 89.362
798.825, 132.494
800.108, 150.653
801.391, 151.847
802.674, 342.044
803.957, 448.200
805.239, 737.402
806.522, 821.596
807.804, 709.798
809.085, 515.989
810.367, 252.215
811.649, 233.444
812.930, 109.676
814.211, 88.911
815.492, 89.149
816.772, 113.390
818.053, 93.635
819.333, 18.884
820.613, 58.135
821.893, 51.390
823.173, 3.647
824.452, 26.909
825.732, 61.173
827.011, 57.442
828.290, 124.713
829.568, 85.992
830.847, 61.274
832.125, 105.561
833.403, 30.850
834.681, 121.143
835.959, 51.443
837.236, 28.755
838.514, 92.070
839.791, 30.390
841.068, 155.713
842.345, 124.040
843.621, 153.382
844.898, 218.727
846.174, 166.076
847.450, 166.440
848.726, 147.808
850.001, 229.181
851.277, 192.558
852.552, 196.944
853.827, 266.334
855.102, 214.729
856.376, 281.136
857.651, 404.547
858.925, 371.964
860.199, 502.386
861.473, 509.822
862.746, 590.262
864.020, 625.714
865.293, 750.163
866.566, 963.632
867.839, 1115.170
869.112, 1410.656
870.384, 1909.167
871.656, 2465.685
872.928, 3649.104
874.200, 5583.639
875.472, 9886.187
876.744, 19859.686
878.015, 37395.250
879.286, 51520.820
880.557, 47186.391
881.828, 29241.975
883.098, 16145.949
884.369, 8901.548
885.639, 5620.300
886.909, 3972.835
888.178, 2857.716
889.448, 2216.635
890.717, 1856.757
891.987, 1539.680
893.256, 1436.921
894.524, 1230.484
895.793, 1084.146
897.061, 997.621
898.330, 953.214
899.598, 831.896
900.865, 794.586
902.133, 708.913
903.401, 690.463
904.668, 646.913
905.935, 610.959
907.202, 618.183
908.468, 655.162
909.735, 702.903
911.001, 729.652
912.267, 972.372
913.533, 1071.136
914.799, 1503.909
916.064, 2378.688
917.330, 2976.477
918.595, 3012.273
919.860, 2545.079
921.124, 2253.953
922.389, 2789.774
923.653, 4001.603
924.918, 4849.499
926.182, 4120.342
927.445, 2568.193
928.709, 1642.369
929.972, 1077.236
931.236, 756.338
932.499, 683.221
933.761, 646.112
935.024, 790.011
936.286, 1012.917
937.549, 1116.970
938.811, 1348.893
940.073, 1244.833
941.334, 1134.782
942.596, 955.739
943.857, 956.705
945.118, 1196.678
946.379, 1450.658
947.640, 2225.646
948.900, 3953.643
950.161, 6441.647
951.421, 8247.658
952.681, 7165.073
953.940, 4847.099
955.200, 3096.134
956.459, 1798.176
957.719, 1218.053
958.978, 916.109
960.236, 703.174
961.495, 563.300
962.753, 478.378
964.012, 384.463
965.270, 349.556
966.527, 262.656
967.785, 300.764
969.043, 217.015
970.300, 204.138
971.557, 195.269
972.814, 176.414
974.071, 265.565
975.327, 174.724
976.583, 164.894
977.840, 208.069
979.095, 61.251
980.351, 125.215
981.607, 125.412
982.862, 79.616
984.117, 107.826
985.372, 96.046
986.627, 143.751
987.882, 179.820
989.136, 138.062
990.390, 188.319
991.644, 203.574
992.898, 289.837
994.152, 338.416
995.405, 345.691
996.659, 396.974
997.912, 307.546
999.165, 236.841
1000.417, 284.249
1001.670, 267.556
1002.922, 290.956
1004.174, 411.264
1005.426, 353.615
1006.678, 431.464
1007.930, 445.809
1009.181, 573.153
1010.432, 785.535
1011.683, 870.836
1012.934, 965.235
1014.185, 1088.049
1015.435, 1139.473
1016.685, 1410.490
1017.935, 1686.142
1019.185, 2146.672
1020.435, 2636.609
1021.684, 2699.127
1022.934, 2328.675
1024.183, 1840.382
1025.432, 1381.631
1026.680, 1039.203
1027.929, 712.729
1029.177, 641.276
1030.425, 536.816
1031.673, 391.419
1032.921, 350.005
1034.169, 254.679
1035.416, 125.337
1036.663, 224.920
1037.911, 142.535
1039.157, 175.137
1040.404, 166.756
1041.650, 115.593
1042.897, 162.239
1044.143, 77.889
1045.389, 181.547
1046.634, 198.224
1047.880, 78.907
1049.125, 98.593
1050.371, 25.326
1051.615, 14.019
1052.860, 134.729
1054.105, 70.465
1055.349, 120.212
1056.593, 68.961
1057.837, 37.728
1059.081, 178.493
1060.325, 31.260
1061.568, 135.029
1062.812, 72.805
1064.055, 79.587
1065.298, 129.376
1066.540, 56.162
1067.783, 62.205
1069.025, 63.994
1070.267, 4.215
1071.509, 67.576
1072.751, 134.369
1073.993, 3.838
1075.234, 83.956
1076.475, 38.750
1077.716, 13.364
1078.957, 94.429
1080.198, 33.776
1081.438, 38.006
1082.679, 84.790
1083.919, 51.622
1085.159, 62.406
1086.398, 6.809
1087.638, 76.979
1088.877, 86.763
1090.116, 13.547
1091.355, 91.335
1092.594, 28.119
1093.833, 15.070
1095.071, 64.854
1096.309, 83.637
1097.547, 52.420
1098.785, 113.202
1100.023, 56.984
1101.260, 32.192
1102.498, 62.576
1103.735, 3.343
1104.972, 6.108
1106.208, 54.126
1107.445, 6.613
1108.681, 68.351
1109.918, 1.912
1111.154, 78.823
1112.389, 61.556
1113.625, 6.365
1114.860, 25.217
1116.096, 49.947
1117.331, 4.034
1118.566, 59.879
1119.800, 66.602
1121.035, 63.977
1122.269, 134.695
1123.503, 203.412
1124.737, 117.914
1125.971, 20.626
1127.205, 40.336
1128.438, 14.956
1129.671, 72.919
1130.904, 75.614
1132.137, 16.307
1133.370, 14.682
1134.602, 8.168
1135.834, 30.489
1137.066, 69.170
1138.298, 11.827
1139.530, 22.567
1140.762, 76.736
1141.993, 36.618
1143.224, 50.003
1144.455, 36.044
1145.686, 35.343
1146.917, 35.362
1148.147, 1.948
1149.377, 37.550
1150.607, 33.125
1151.837, 5.696
1153.067, 18.754
1154.296, 21.245
1155.526, 25.297
1156.755, 49.843
1157.984, 73.878
1159.213, 23.393
1160.441, 92.450
1161.670, 13.651
1162.898, 40.078
1164.126, 14.376
1165.354, 9.380
1166.581, 5.913
1167.809, 59.787
1169.036, 37.682
1170.263, 32.253
1171.490, 11.101
1172.717, 15.518
1173.943, 37.499
1175.170, 56.044
1176.396, 50.013
1177.622, 53.652
1178.848, 40.105
1180.073, 46.158
1181.299, 31.790
1182.524, 37.077
1183.749, 94.863
1184.974, 56.212
1186.199, 80.525
1187.423, 80.183
1188.648, 19.440
1189.872, 69.932
1191.096, 138.162
1192.320, 73.467
1193.543, 155.275
1194.767, 101.884
1195.990, 139.081
1197.213, 61.541
1198.436, 77.795
1199.659, 73.179
1200.881, 121.385
1202.104, 118.538
1203.326, 92.735
1204.548, 74.988
1205.770, 189.113
1206.991, 163.432
1208.213, 116.540
1209.434, 166.637
1210.655, 118.716
1211.876, 79.795
1213.096, 159.864
1214.317, 30.130
1215.537, 179.179
1216.757, 183.318
1217.977, 86.284
1219.197, 194.303
1220.417, 87.313
1221.636, 151.254
1222.855, 167.244
1224.074, 65.225
1225.293, 205.878
1226.512, 135.839
1227.731, 112.563
1228.949, 167.504
1230.167, 76.436
1231.385, 144.367
1232.603, 138.329
1233.820, 88.094
1235.038, 151.987
1236.255, 116.870
1237.472, 89.812
1238.689, 184.676
1239.906, 51.538
1241.122, 160.390
1242.338, 187.231
1243.555, 119.078
1244.771, 114.902
1245.986, 112.716
1247.202, 84.570
1248.417, 107.966
1249.633, 106.367
1250.848, 134.532
1252.063, 133.295
1253.277, 116.502
1254.492, 130.972
1255.706, 121.748
1256.920, 107.425
1258.134, 117.148
1259.348, 76.863
1260.562, 66.561
1261.775, 196.247
1262.988, 36.924
1264.201, 51.456
1265.414, 220.115
1266.627, 3.242
1267.839, 221.387
1269.052, 121.007
1270.264, 13.716
1271.476, 183.312
1272.688, 122.897
1273.899, 147.602
1275.111, 57.397
1276.322, 138.952
1277.533, 126.659
1278.744, 17.157
1279.955, 26.670
1281.165, 151.626
1282.376, 133.212
1283.586, 122.629
1284.796, 79.014
1286.006, 22.395
1287.215, 165.867
1288.425, 113.910
1289.634, 26.243
1290.843, 144.654
1292.052, 69.673
1293.261, 119.034
1294.469, 92.202
1295.678, 123.443
1296.886, 205.672
1298.094, 20.812
1299.302, 23.978
1300.509, 113.642
1301.717, 94.805
1302.924, 100.038
1304.131, 49.071
1305.338, 2.743
1306.545, 19.662
1307.752, 38.999
1308.958, 46.956
1310.164, 31.493
1311.370, 36.301
1312.576, 7.229
1313.782, 68.746
1314.987, 42.676
1316.193, 12.570
1317.398, 84.317
1318.603, 3.516
1319.807, 36.386
1321.012, 4.306
1322.216, 23.197
1323.421, 73.090
1324.625, 44.912
1325.829, 18.255
1327.032, 130.490
1328.236, 10.756
1329.439, 69.071
1330.642, 75.867
1331.845, 9.328
1333.048, 85.461
1334.251, 31.031
1335.453, 102.795
1336.656, 67.548
1337.858, 44.711
1339.060, 15.004
1340.261, 131.708
1341.463, 28.403
1342.664, 69.045
1343.866, 35.718
1345.067, 20.618
1346.267, 121.027
1347.468, 73.666
1348.669, 58.297
1349.869, 158.911
1351.069, 37.528
1352.269, 105.136
1353.469, 122.738
1354.668, 4.666
1355.868, 123.919
1357.067, 115.492
1358.266, 36.065
1359.465, 148.375
1360.664, 60.937
1361.862, 93.491
1363.061, 171.042
1364.259, 122.588
1365.457, 125.130
1366.655, 162.674
1367.852, 102.210
1369.050, 168.653
1370.247, 109.187
1371.444, 121.719
1372.641, 157.257
1373.838, 127.794
1375.035, 81.284
1376.231, 71.824
1377.427, 83.365
1378.623, 170.905
1379.819, 156.479
1381.015, 67.034
1382.211, 199.591
1383.406, 124.821
1384.601, 113.231
1385.796, 168.822
1386.991, 81.427
1388.185, 147.045
1389.380, 112.683
1390.574, 73.153
1391.768, 215.554
1392.962, 141.374
1394.156, 146.713
1395.350, 162.576
1396.543, 183.542
1397.736, 129.505
1398.929, 76.457
1400.122, 100.188
1401.315, 99.805
1402.507, 152.512
1403.700, 137.644
1404.892, 88.659
1406.084, 166.496
1407.276, 124.129
1408.467, 159.942
1409.659, 113.466
1410.850, 124.254
1412.041, 151.939
1413.232, 59.115
1414.423, 172.402
1415.614, 191.038
1416.804, 52.782
1417.994, 194.542
1419.184, 121.173
1420.374, 44.909
1421.564, 198.204
1422.753, 60.226
1423.943, 84.430
1425.132, 141.280
1426.321, 63.866
1427.510, 99.591
1428.698, 170.268
1429.887, 39.715
1431.075, 143.763
1432.263, 217.385
1433.451, 37.833
1434.639, 216.135
1435.827, 41.629
1437.014, 127.708
1438.201, 200.871
1439.388, 115.641
1440.575, 200.471
1441.762, 160.441
1442.949, 148.631
1444.135, 158.712
1445.321, 184.646
1446.507, 179.332
1447.693, 323.534
1448.879, 143.397
1450.064, 183.413
1451.250, 261.580
1452.435, 136.734
1453.620, 180.878
1454.805, 241.010
1455.989, 134.129
1457.174, 270.127
1458.358, 247.214
1459.542, 167.162
1460.726, 243.204
1461.910, 106.215
1463.093, 185.178
1464.277, 321.049
1465.460, 166.995
1466.643, 223.924
1467.826, 220.825
1469.009, 154.615
1470.191, 245.449
1471.373, 210.287
1472.556, 212.097
1473.738, 188.882
1474.919, 201.641
1476.101, 193.951
1477.283, 196.129
1478.464, 196.197
1479.645, 191.526
1480.826, 200.342
1482.007, 165.303
1483.187, 152.304
1484.368, 192.034
1485.548, 250.846
1486.728, 299.742
1487.908, 138.931
1489.088, 194.195
1490.268, 284.551
1491.447, 200.919
1492.626, 306.341
1493.805, 263.784
1494.984, 85.242
1496.163, 153.715
1497.341, 186.207
1498.520, 87.724
1499.698, 204.270
1500.876, 91.852
1502.054, 97.475
1503.232, 182.145
1504.409, 116.874
1505.586, 158.667
1506.763, 172.543
1507.940, 48.526
1509.117, 120.628
1510.294, 168.826
1511.470, 96.144
1512.647, 133.586
1513.823, 188.136
1514.999, 145.798
1516.174, 205.585
1517.350, 73.512
1518.526, 81.601
1519.701, 285.873
1520.876, 61.353
1522.051, 213.067
1523.226, 224.994
1524.400, 15.753
1525.574, 148.817
1526.749, 178.754
1527.923, 132.121
1529.097, 196.542
1530.270, 150.924
1531.444, 144.885
1532.617, 192.122
1533.790, 0.313
1534.963, 147.506
1536.136, 0.000
##END=



