##NAMES=Phenakite
##RRUFFID=R040046
##IDEAL CHEMISTRY=Be_2_SiO_4_
##LOCALITY=San Miguel de Piracicaba, Minas Gerais, Brazil
##OWNER=RRUFF
##SOURCE=University of Arizona Mineral Museum
##DESCRIPTION=Colorless crystal fragments
##STATUS=The identification of this mineral has been confirmed by X-ray diffraction and chemical analysis
##URL=rruff.info/R040046
##MEASURED CHEMISTRY=Be_2.02_Si_0.99_O_4_
##PIN_ID=M00041
##ORIENTATION=Laser parallel to -b* (0 -1 0). Fiducial mark perpendicular to laser is parallel to -c [0 0 -1]
109.987, 0.000
111.382, 0.241
112.777, 23.573
114.171, 10.568
115.565, 73.888
116.959, 168.129
118.353, 199.104
119.747, 134.693
121.140, 112.591
122.533, 69.172
123.926, 84.621
125.318, 53.063
126.711, 56.307
128.103, 30.207
129.495, 4.357
130.886, 48.663
132.278, 25.913
133.669, 53.986
135.060, 14.286
136.451, 36.284
137.841, 34.823
139.231, 28.541
140.621, 59.647
142.011, 78.417
143.401, 39.224
144.790, 50.982
146.179, 78.742
147.568, 63.298
148.957, 78.032
150.345, 63.762
151.733, 65.538
153.121, 66.747
154.509, 32.272
155.896, 56.061
157.284, 125.161
158.671, 141.582
160.058, 378.935
161.444, 926.513
162.830, 789.148
164.217, 724.006
165.602, 736.919
166.988, 238.562
168.374, 52.139
169.759, 30.640
171.144, 3.120
172.528, 0.228
173.913, 33.457
175.297, 33.416
176.681, 45.566
178.065, 13.661
179.449, 4.537
180.832, 6.208
182.215, 29.075
183.598, 9.535
184.981, 8.042
186.363, 16.674
187.745, 22.902
189.127, 14.422
190.509, 13.424
191.891, 6.659
193.272, 17.161
194.653, 5.361
196.034, 0.563
197.414, 8.759
198.795, 29.070
200.175, 16.134
201.555, 40.861
202.935, 3.628
204.314, 6.059
205.693, 80.086
207.072, 2.024
208.451, 11.289
209.830, 44.461
211.208, 24.483
212.586, 11.526
213.964, 17.368
215.342, 39.288
216.719, 112.177
218.096, 135.577
219.473, 375.939
220.850, 1042.355
222.226, 3468.202
223.603, 2510.559
224.979, 5282.581
226.355, 1813.853
227.730, 483.792
229.105, 146.474
230.481, 94.690
231.856, 134.874
233.230, 113.441
234.605, 71.069
235.979, 55.697
237.353, 22.318
238.727, 14.954
240.100, 2.776
241.474, 34.699
242.847, 26.898
244.220, 2.267
245.592, 25.157
246.965, 13.977
248.337, 16.862
249.709, 6.337
251.080, 19.423
252.452, 25.151
253.823, 97.845
255.194, 110.883
256.565, 177.913
257.936, 147.924
259.306, 86.966
260.676, 95.011
262.046, 2.018
263.416, 3.005
264.785, 5.512
266.155, 22.011
267.524, 12.395
268.892, 17.146
270.261, 32.362
271.629, 14.061
272.997, 6.561
274.365, 69.035
275.733, 169.488
277.100, 476.007
278.468, 657.180
279.835, 614.546
281.201, 591.736
282.568, 425.747
283.934, 179.604
285.300, 45.508
286.666, 29.351
288.032, 47.110
289.397, 50.881
290.762, 18.638
292.127, 17.351
293.492, 12.001
294.857, 17.553
296.221, 21.810
297.585, 26.464
298.949, 33.825
300.312, 44.138
301.676, 41.085
303.039, 42.400
304.402, 22.590
305.765, 25.746
307.127, 16.865
308.489, 12.053
309.851, 22.989
311.213, 33.995
312.575, 23.210
313.936, 28.295
315.297, 25.689
316.658, 40.228
318.019, 21.909
319.379, 30.271
320.740, 34.541
322.100, 15.121
323.460, 54.650
324.819, 44.185
326.178, 61.469
327.538, 34.761
328.897, 34.783
330.255, 43.224
331.614, 7.958
332.972, 24.804
334.330, 36.108
335.688, 79.436
337.045, 9.052
338.403, 72.006
339.760, 39.840
341.117, 23.778
342.473, 60.554
343.830, 41.226
345.186, 85.011
346.542, 51.982
347.898, 134.041
349.253, 198.156
350.609, 179.921
351.964, 133.594
353.319, 58.998
354.673, 77.675
356.028, 58.529
357.382, 59.688
358.736, 48.414
360.090, 62.204
361.443, 45.833
362.797, 57.584
364.150, 36.686
365.503, 39.814
366.856, 29.981
368.208, 39.934
369.560, 48.030
370.912, 52.944
372.264, 62.911
373.616, 23.991
374.967, 48.840
376.318, 68.671
377.669, 143.455
379.020, 108.256
380.370, 195.040
381.720, 369.665
383.070, 816.202
384.420, 2177.522
385.770, 3266.193
387.119, 2787.248
388.468, 1230.426
389.817, 441.720
391.166, 234.717
392.514, 139.965
393.863, 119.727
395.211, 109.958
396.558, 53.662
397.906, 65.802
399.253, 55.993
400.600, 57.525
401.947, 61.122
403.294, 49.810
404.641, 80.435
405.987, 58.027
407.333, 60.684
408.679, 54.557
410.024, 40.513
411.370, 45.407
412.715, 69.732
414.060, 105.134
415.405, 93.162
416.749, 94.616
418.093, 65.399
419.437, 59.153
420.781, 52.405
422.125, 28.062
423.468, 63.353
424.811, 38.584
426.154, 57.210
427.497, 142.426
428.840, 126.076
430.182, 263.131
431.524, 222.955
432.866, 195.615
434.208, 107.502
435.549, 82.225
436.890, 70.712
438.231, 81.157
439.572, 151.556
440.913, 158.097
442.253, 249.535
443.593, 599.227
444.933, 1439.775
446.273, 2647.541
447.612, 2634.228
448.951, 1438.550
450.290, 562.007
451.629, 296.365
452.968, 140.885
454.306, 113.701
455.644, 102.150
456.982, 37.516
458.320, 59.762
459.657, 64.039
460.995, 62.273
462.332, 80.595
463.668, 94.762
465.005, 218.993
466.341, 315.283
467.678, 366.352
469.014, 324.020
470.349, 101.278
471.685, 48.759
473.020, 48.949
474.355, 58.128
475.690, 87.332
477.025, 62.233
478.359, 46.298
479.693, 89.439
481.027, 50.775
482.361, 137.722
483.695, 163.070
485.028, 175.505
486.361, 190.396
487.694, 199.591
489.027, 143.806
490.359, 107.178
491.692, 32.648
493.024, 55.257
494.356, 49.890
495.687, 72.573
497.019, 21.554
498.350, 49.284
499.681, 35.658
501.012, 22.035
502.342, 78.315
503.672, 32.537
505.002, 74.767
506.332, 85.991
507.662, 61.170
508.992, 54.147
510.321, 34.004
511.650, 85.148
512.979, 42.974
514.307, 77.869
515.636, 61.894
516.964, 32.782
518.292, 113.442
519.619, 89.252
520.947, 169.123
522.274, 155.137
523.601, 313.137
524.928, 913.123
526.255, 1721.095
527.581, 2522.053
528.907, 1800.999
530.233, 906.936
531.559, 403.861
532.885, 196.778
534.210, 180.684
535.535, 75.578
536.860, 38.459
538.185, 54.330
539.509, 18.812
540.834, 92.817
542.158, 69.492
543.482, 81.114
544.805, 57.729
546.129, 34.347
547.452, 43.899
548.775, 30.578
550.098, 21.138
551.420, 46.696
552.742, 11.215
554.065, 8.658
555.386, 27.562
556.708, 53.124
558.030, 24.796
559.351, 32.448
560.672, 0.901
561.993, 40.604
563.313, 22.070
564.634, 0.491
565.954, 38.782
567.274, 46.224
568.594, 1.462
569.913, 38.921
571.233, 4.546
572.552, 78.969
573.871, 46.337
575.189, 56.752
576.508, 24.534
577.826, 61.632
579.144, 61.870
580.462, 68.235
581.780, 59.745
583.097, 36.972
584.414, 75.920
585.731, 20.192
587.048, 56.675
588.365, 30.891
589.681, 27.899
590.997, 13.520
592.313, 39.808
593.629, 64.125
594.944, 15.432
596.260, 42.929
597.575, 25.216
598.890, 72.020
600.204, 215.052
601.519, 370.349
602.833, 432.497
604.147, 210.884
605.461, 102.209
606.774, 66.426
608.088, 52.673
609.401, 59.105
610.714, 7.294
612.026, 86.036
613.339, 25.292
614.651, 102.101
615.963, 269.177
617.275, 406.501
618.587, 437.690
619.898, 757.589
621.210, 491.168
622.521, 78.263
623.832, 43.198
625.142, 41.273
626.453, 50.336
627.763, 22.391
629.073, 47.434
630.383, 26.467
631.692, 15.511
633.001, 7.507
634.311, 11.253
635.619, 8.105
636.928, 3.920
638.237, 10.174
639.545, 9.541
640.853, 12.223
642.161, 4.739
643.469, 10.132
644.776, 9.375
646.083, 12.016
647.390, 5.844
648.697, 11.686
650.004, 20.430
651.310, 64.132
652.616, 1.733
653.922, 95.535
655.228, 32.160
656.534, 12.939
657.839, 60.636
659.144, 44.190
660.449, 35.948
661.754, 146.697
663.058, 106.437
664.362, 204.168
665.666, 135.891
666.970, 192.604
668.274, 221.308
669.577, 219.003
670.881, 244.967
672.184, 315.367
673.487, 229.036
674.789, 142.696
676.092, 72.348
677.394, 122.991
678.696, 105.463
679.997, 64.002
681.299, 137.667
682.600, 158.630
683.901, 207.510
685.202, 322.106
686.503, 463.802
687.804, 627.213
689.104, 695.663
690.404, 538.046
691.704, 295.367
693.004, 191.814
694.303, 154.034
695.602, 9.777
696.901, 78.561
698.200, 30.012
699.499, 29.326
700.797, 72.671
702.095, 60.665
703.393, 101.037
704.691, 165.315
705.989, 201.329
707.286, 178.680
708.583, 99.062
709.880, 120.021
711.177, 43.362
712.473, 53.241
713.770, 1.688
715.066, 24.049
716.362, 55.454
717.658, 65.295
718.953, 30.897
720.248, 4.487
721.543, 44.126
722.838, 30.773
724.133, 19.542
725.427, 34.195
726.722, 1.089
728.016, 42.796
729.310, 16.703
730.603, 8.571
731.897, 15.909
733.190, 68.087
734.483, 23.371
735.776, 8.613
737.068, 49.570
738.361, 23.333
739.653, 20.925
740.945, 7.821
742.236, 1.428
743.528, 13.327
744.819, 6.089
746.110, 23.144
747.401, 47.627
748.692, 12.444
749.983, 1.763
751.273, 28.379
752.563, 5.184
753.853, 40.147
755.143, 5.967
756.432, 17.790
757.721, 46.620
759.010, 36.539
760.299, 34.306
761.588, 51.842
762.876, 10.986
764.165, 153.065
765.453, 173.135
766.740, 237.247
768.028, 250.820
769.315, 318.316
770.603, 216.319
771.890, 165.627
773.176, 120.123
774.463, 190.987
775.749, 193.811
777.036, 306.570
778.322, 459.016
779.607, 521.482
780.893, 552.378
782.178, 458.167
783.463, 261.043
784.748, 373.911
786.033, 424.821
787.318, 706.649
788.602, 898.563
789.886, 869.566
791.170, 687.689
792.454, 446.460
793.737, 322.585
795.020, 160.662
796.303, 97.619
797.586, 164.745
798.869, 50.873
800.151, 106.983
801.434, 121.112
802.716, 114.241
803.998, 298.372
805.279, 343.503
806.561, 522.635
807.842, 536.430
809.123, 593.903
810.404, 501.039
811.685, 320.176
812.965, 154.315
814.245, 128.456
815.525, 91.598
816.805, 76.742
818.085, 104.889
819.364, 61.038
820.643, 99.193
821.922, 46.648
823.201, 74.505
824.480, 17.338
825.758, 39.819
827.036, 56.980
828.314, 81.144
829.592, 97.191
830.869, 112.483
832.147, 101.658
833.424, 112.837
834.701, 102.572
835.978, 59.761
837.254, 82.953
838.531, 44.150
839.807, 88.352
841.083, 88.559
842.358, 69.771
843.634, 134.987
844.909, 58.210
846.184, 162.438
847.459, 77.670
848.734, 92.909
850.008, 168.152
851.283, 131.403
852.557, 219.566
853.831, 231.826
855.104, 252.093
856.378, 290.735
857.651, 307.856
858.924, 344.174
860.197, 345.630
861.470, 411.123
862.742, 397.890
864.015, 428.332
865.287, 645.559
866.559, 759.828
867.830, 754.731
869.102, 1018.838
870.373, 1199.189
871.644, 1528.548
872.915, 1962.913
874.185, 2702.085
875.456, 4240.465
876.726, 6624.324
877.996, 12706.719
879.266, 25118.951
880.536, 39431.348
881.805, 46483.508
883.074, 32885.801
884.343, 18368.236
885.612, 10529.639
886.881, 6031.853
888.149, 4169.312
889.418, 2968.214
890.686, 2139.602
891.953, 1834.266
893.221, 1435.663
894.488, 1260.855
895.756, 1108.418
897.023, 967.941
898.290, 958.824
899.556, 900.365
900.823, 786.915
902.089, 837.473
903.355, 770.042
904.621, 640.622
905.886, 631.212
907.152, 630.812
908.417, 639.422
909.682, 604.045
910.947, 682.682
912.211, 738.330
913.476, 738.988
914.740, 1120.660
916.004, 1257.346
917.268, 1870.044
918.531, 2470.754
919.795, 2725.475
921.058, 2548.207
922.321, 2183.952
923.584, 2278.707
924.846, 3146.474
926.109, 3869.252
927.371, 4173.042
928.633, 3025.843
929.895, 1699.655
931.156, 1232.478
932.418, 786.312
933.679, 714.158
934.940, 792.014
936.201, 733.881
937.461, 977.759
938.722, 1177.649
939.982, 1382.549
941.242, 1474.461
942.502, 1281.383
943.761, 1122.317
945.021, 1020.261
946.280, 989.218
947.539, 1337.185
948.798, 1675.164
950.056, 2850.154
951.315, 4461.156
952.573, 6580.169
953.831, 7173.194
955.089, 5146.230
956.346, 3285.279
957.604, 2136.339
958.861, 1417.769
960.118, 1032.852
961.375, 728.777
962.631, 593.884
963.888, 616.004
965.144, 410.135
966.400, 399.279
967.656, 450.435
968.911, 230.602
970.167, 324.782
971.422, 223.977
972.677, 273.184
973.932, 214.403
975.186, 171.634
976.441, 310.878
977.695, 194.134
978.949, 152.403
980.203, 262.684
981.456, 156.978
982.710, 178.284
983.963, 192.603
985.216, 217.934
986.469, 238.277
987.721, 148.634
988.974, 215.005
990.226, 209.812
991.478, 144.208
992.730, 242.625
993.982, 354.058
995.233, 385.504
996.484, 382.968
997.735, 293.449
998.986, 380.577
1000.237, 358.090
1001.487, 329.618
1002.738, 393.163
1003.988, 319.723
1005.237, 343.297
1006.487, 399.885
1007.737, 334.485
1008.986, 388.100
1010.235, 499.728
1011.484, 538.370
1012.732, 649.113
1013.981, 865.788
1015.229, 842.668
1016.477, 939.365
1017.725, 1009.076
1018.973, 1249.112
1020.220, 1401.850
1021.468, 1731.606
1022.715, 1827.997
1023.962, 1615.781
1025.208, 1561.059
1026.455, 1180.875
1027.701, 863.707
1028.947, 676.554
1030.193, 463.414
1031.439, 489.292
1032.684, 393.190
1033.930, 253.105
1035.175, 295.092
1036.420, 181.034
1037.665, 184.988
1038.909, 296.505
1040.154, 163.488
1041.398, 196.484
1042.642, 157.500
1043.885, 168.528
1045.129, 217.719
1046.372, 110.772
1047.615, 119.839
1048.858, 229.357
1050.101, 81.448
1051.344, 184.552
1052.586, 129.678
1053.828, 175.816
1055.070, 221.969
1056.312, 158.138
1057.554, 165.319
1058.795, 168.513
1060.036, 83.723
1061.277, 209.944
1062.518, 94.178
1063.759, 169.424
1064.999, 159.683
1066.240, 68.953
1067.480, 130.236
1068.719, 180.530
1069.959, 104.837
1071.199, 119.157
1072.438, 155.487
1073.677, 160.831
1074.916, 194.186
1076.154, 71.553
1077.393, 179.932
1078.631, 73.324
1079.869, 139.727
1081.107, 145.142
1082.345, 76.568
1083.582, 186.006
1084.820, 112.457
1086.057, 33.919
1087.294, 146.392
1088.530, 166.878
1089.767, 111.379
1091.003, 15.892
1092.239, 97.416
1093.475, 94.956
1094.711, 145.506
1095.947, 42.070
1097.182, 84.646
1098.417, 138.231
1099.652, 6.830
1100.887, 121.439
1102.122, 17.060
1103.356, 84.691
1104.590, 88.334
1105.824, 63.989
1107.058, 102.654
1108.292, 38.331
1109.525, 104.018
1110.758, 139.728
1111.991, 23.438
1113.224, 48.159
1114.457, 43.891
1115.689, 56.633
1116.922, 15.386
1118.154, 65.150
1119.385, 110.925
1120.617, 107.711
1121.849, 20.749
1123.080, 40.445
1124.311, 100.369
1125.542, 24.192
1126.773, 72.027
1128.003, 82.872
1129.234, 4.727
1130.464, 110.593
1131.694, 54.529
1132.923, 122.352
1134.153, 28.243
1135.382, 38.145
1136.612, 65.056
1137.841, 75.978
1139.069, 78.909
1140.298, 75.206
1141.526, 53.149
1142.755, 41.110
1143.983, 21.080
1145.210, 11.133
1146.438, 57.048
1147.665, 21.955
1148.893, 30.050
1150.120, 73.064
1151.347, 29.742
1152.573, 83.288
1153.800, 100.326
1155.026, 51.589
1156.252, 101.462
1157.478, 40.961
1158.704, 64.103
1159.929, 81.176
1161.155, 12.257
1162.380, 75.347
1163.605, 85.446
1164.829, 13.175
1166.054, 70.291
1167.278, 6.585
1168.503, 57.869
1169.727, 85.008
1170.950, 44.262
1172.174, 90.888
1173.397, 57.046
1174.621, 35.690
1175.844, 68.903
1177.066, 14.916
1178.289, 126.273
1179.512, 75.468
1180.734, 35.329
1181.956, 119.876
1183.178, 74.090
1184.399, 28.268
1185.621, 143.496
1186.842, 17.134
1188.063, 52.160
1189.284, 17.409
1190.505, 66.666
1191.726, 163.662
1192.946, 69.932
1194.166, 109.209
1195.386, 117.493
1196.606, 22.784
1197.826, 169.081
1199.045, 48.385
1200.264, 50.695
1201.483, 182.013
1202.702, 149.336
1203.921, 66.667
1205.139, 128.003
1206.357, 119.346
1207.575, 120.695
1208.793, 64.050
1210.011, 104.412
1211.228, 123.779
1212.446, 69.153
1213.663, 161.532
1214.880, 171.917
1216.097, 67.309
1217.313, 111.706
1218.529, 156.109
1219.746, 63.518
1220.962, 189.674
1222.177, 67.095
1223.393, 52.595
1224.608, 137.025
1225.824, 126.462
1227.039, 150.905
1228.254, 158.074
1229.468, 119.805
1230.683, 126.263
1231.897, 136.727
1233.111, 94.196
1234.325, 205.669
1235.539, 10.148
1236.752, 60.633
1237.965, 230.122
1239.179, 92.616
1240.392, 116.116
1241.604, 1.620
1242.817, 152.128
1244.029, 150.642
1245.241, 132.161
1246.453, 137.684
1247.665, 153.212
1248.877, 8.744
1250.088, 135.282
1251.300, 185.823
1252.511, 14.627
1253.722, 121.925
1254.932, 104.058
1256.143, 91.619
1257.353, 173.185
1258.563, 145.755
1259.773, 118.330
1260.983, 139.255
1262.192, 77.839
1263.402, 82.796
1264.611, 125.388
1265.820, 74.984
1267.029, 153.585
1268.237, 61.189
1269.446, 110.797
1270.654, 49.410
1271.862, 19.976
1273.070, 87.642
1274.278, 67.262
1275.485, 49.887
1276.692, 116.423
1277.900, 31.055
1279.106, 126.491
1280.313, 72.127
1281.520, 8.232
1282.726, 16.092
1283.932, 71.730
1285.138, 1.371
1286.344, 140.392
1287.550, 27.973
1288.755, 48.188
1289.960, 24.827
1291.165, 35.470
1292.370, 53.105
1293.575, 30.741
1294.779, 84.625
1295.984, 95.000
1297.188, 101.629
1298.392, 16.798
1299.595, 65.835
1300.799, 30.528
1302.002, 63.561
1303.206, 166.200
1304.409, 77.158
1305.611, 1.480
1306.814, 71.120
1308.016, 5.614
1309.219, 36.260
1310.421, 81.904
1311.623, 44.111
1312.824, 66.759
1314.026, 96.589
1315.227, 67.055
1316.428, 20.298
1317.629, 40.650
1318.830, 64.996
1320.031, 22.644
1321.231, 37.705
1322.431, 86.944
1323.631, 40.597
1324.831, 74.251
1326.031, 184.909
1327.230, 30.567
1328.429, 77.229
1329.628, 86.892
1330.827, 52.555
1332.026, 145.218
1333.225, 62.884
1334.423, 65.552
1335.621, 131.222
1336.819, 82.893
1338.017, 13.567
1339.214, 53.242
1340.412, 54.918
1341.609, 168.596
1342.806, 55.276
1344.003, 115.959
1345.200, 112.643
1346.396, 70.330
1347.592, 124.019
1348.788, 128.710
1349.984, 36.596
1351.180, 196.097
1352.376, 0.208
1353.571, 101.489
1354.766, 140.188
1355.961, 84.891
1357.156, 88.596
1358.351, 216.303
1359.545, 56.014
1360.739, 51.727
1361.933, 220.442
1363.127, 77.161
1364.321, 118.882
1365.515, 58.606
1366.708, 132.333
1367.901, 84.064
1369.094, 100.797
1370.287, 133.535
1371.479, 196.265
1372.672, 182.009
1373.864, 122.758
1375.056, 163.511
1376.248, 39.268
1377.440, 206.029
1378.631, 172.795
1379.822, 71.565
1381.014, 314.016
1382.205, 123.556
1383.395, 155.343
1384.586, 108.138
1385.776, 151.938
1386.966, 102.746
1388.157, 163.561
1389.346, 13.617
1390.536, 206.159
1391.725, 167.935
1392.915, 33.709
1394.104, 205.473
1395.293, 210.334
1396.482, 99.091
1397.670, 248.741
1398.858, 88.562
1400.047, 168.030
1401.235, 89.853
1402.422, 59.678
1403.610, 130.508
1404.798, 179.162
1405.985, 75.959
1407.172, 230.245
1408.359, 73.092
1409.546, 145.942
1410.732, 271.987
1411.918, 85.824
1413.105, 98.297
1414.291, 198.471
1415.476, 174.594
1416.662, 246.373
1417.848, 225.504
1419.033, 194.033
1420.218, 152.494
1421.403, 126.812
1422.587, 54.649
1423.772, 227.529
1424.956, 106.321
1426.140, 98.115
1427.324, 197.910
1428.508, 33.707
1429.692, 215.504
1430.875, 112.304
1432.059, 160.105
1433.242, 185.908
1434.425, 178.712
1435.607, 127.518
1436.790, 215.324
1437.972, 202.045
1439.154, 161.730
1440.336, 182.523
1441.518, 198.316
1442.700, 175.110
1443.881, 149.904
1445.062, 258.698
1446.243, 202.492
1447.424, 155.286
1448.605, 158.080
1449.786, 260.873
1450.966, 117.665
1452.146, 184.455
1453.326, 345.239
1454.506, 187.019
1455.685, 218.795
1456.865, 131.567
1458.044, 211.678
1459.223, 244.432
1460.402, 166.181
1461.581, 230.927
1462.759, 314.672
1463.938, 134.416
1465.116, 154.155
1466.294, 295.897
1467.472, 198.638
1468.649, 293.411
1469.827, 188.193
1471.004, 119.018
1472.181, 248.841
1473.358, 199.724
1474.535, 201.647
1475.711, 308.586
1476.887, 123.528
1478.064, 200.473
1479.240, 244.422
1480.415, 79.375
1481.591, 166.347
1482.767, 124.346
1483.942, 233.353
1485.117, 286.368
1486.292, 131.393
1487.467, 115.427
1488.641, 253.473
1489.815, 52.531
1490.990, 133.605
1492.164, 85.723
1493.337, 63.862
1494.511, 144.028
1495.685, 205.223
1496.858, 214.450
1498.031, 167.709
1499.204, 60.002
1500.377, 61.323
1501.549, 69.675
1502.722, 118.062
1503.894, 93.486
1505.066, 132.951
1506.238, 130.461
1507.409, 22.976
1508.581, 120.645
1509.752, 14.326
1510.923, 34.075
1512.094, 135.896
1513.265, 107.797
1514.436, 106.792
1515.606, 76.892
1516.776, 51.958
1517.946, 64.277
1519.116, 131.865
1520.286, 26.960
1521.455, 0.461
1522.625, 80.073
1523.794, 0.000
##END=



