##NAMES=Phillipsite-Ca
##RRUFFID=R050078
##IDEAL CHEMISTRY=Ca_3_(Si_10_Al_6_)O_32_&#183;12H_2_O
##LOCALITY=Grant County, Oregon, USA
##OWNER=RRUFF
##SOURCE=Rock Currier
##DESCRIPTION=White tabular hexagonal
##STATUS=The identification of this mineral has been confirmed by X-ray diffraction and chemical analysis
##URL=rruff.info/R050078
##MEASURED CHEMISTRY=(Ca_0.90_K_0.75_[box]_0.25_Na_0.10_)_Σ=2_(Si_5.35_Al_2.65_)_Σ=8_O_16_·6H_2_O
##PIN_ID=L01729
##ORIENTATION=Laser parallel to -b* (0 -1 0). Fiducial mark perpendicular to laser is parallel to c [0 0 1]
267.2150, 0.0000000E+00
268.4270, 30.40918
269.6400, 0.8203130
270.8520, 231.5967
272.0640, 196.1562
273.2760, 106.3877
274.4880, 239.0244
275.7000, 152.6289
276.9120, 178.8447
278.1230, 66.27539
279.3340, 123.8760
280.5450, 0.8095700
281.7560, 133.8252
282.9670, 195.8096
284.1780, 283.4727
285.3880, 247.2393
286.5980, 255.2422
287.8090, 160.4131
289.0190, 142.5654
290.2290, 238.3467
291.4380, 123.9590
292.6480, 155.7920
293.8570, 233.9727
295.0670, 192.6045
296.2760, 145.7725
297.4850, 160.5430
298.6930, 216.9736
299.9020, 12.88770
301.1110, 69.99707
302.3190, 37.59668
303.5270, 14.71680
304.7350, 5.842773
305.9430, 122.3809
307.1510, 181.4150
308.3580, 100.9756
309.5660, 338.5664
310.7730, 512.0430
311.9800, 461.3184
313.1870, 374.4609
314.3940, 299.4443
315.6010, 592.5098
316.8070, 482.6904
318.0130, 679.9893
319.2200, 567.3984
320.4260, 532.9131
321.6310, 679.5254
322.8370, 750.2285
324.0430, 785.0186
325.2480, 722.8818
326.4540, 674.8115
327.6590, 548.8027
328.8640, 700.8525
330.0680, 602.9570
331.2730, 778.1172
332.4780, 539.3281
333.6820, 404.5898
334.8860, 439.8994
336.0900, 488.2559
337.2940, 181.6572
338.4980, 109.1035
339.7010, 185.6250
340.9050, 78.27539
342.1080, 31.03418
343.3110, 33.88477
344.5140, 71.81152
345.7170, 81.79297
346.9200, 105.8037
348.1220, 53.13965
349.3240, 26.95117
350.5270, 93.94141
351.7290, 22.80762
352.9310, 75.64941
354.1320, 33.53906
355.3340, 71.88770
356.5350, 32.33105
357.7370, 115.2178
358.9380, 152.2080
360.1390, 221.7021
361.3400, 102.2666
362.5400, 221.0098
363.7410, 219.8203
364.9410, 221.7471
366.1410, 418.8135
367.3410, 586.9727
368.5410, 559.1367
369.7410, 600.3125
370.9400, 678.4893
372.1400, 764.6689
373.3390, 802.8516
374.5380, 961.0332
375.7370, 1024.725
376.9360, 1194.375
378.1350, 1233.533
379.3330, 1303.685
380.5310, 1444.781
381.7300, 1627.790
382.9280, 1858.724
384.1260, 1908.653
385.3230, 2040.506
386.5210, 2440.363
387.7180, 2626.229
388.9160, 2725.104
390.1130, 2933.986
391.3100, 3235.879
392.5060, 3332.780
393.7030, 3446.690
394.9000, 3617.608
396.0960, 3977.537
397.2920, 4095.471
398.4880, 4250.415
399.6840, 4662.367
400.8800, 4671.326
402.0750, 4963.295
403.2710, 5413.275
404.4660, 5397.270
405.6610, 5738.271
406.8560, 6187.289
408.0510, 6625.312
409.2450, 7029.348
410.4400, 7470.392
411.6340, 7652.529
412.8280, 8491.322
414.0220, 8874.457
415.2160, 9621.042
416.4100, 10000.43
417.6030, 10306.52
418.7970, 11025.39
419.9900, 11255.15
421.1830, 11535.77
422.3760, 11845.74
423.5690, 11977.83
424.7610, 11862.55
425.9540, 11752.45
427.1460, 11649.52
428.3380, 11446.40
429.5300, 11434.93
430.7220, 11199.36
431.9140, 10821.37
433.1050, 10822.30
434.2970, 10866.10
435.4880, 10993.15
436.6790, 11030.26
437.8700, 11302.26
439.0610, 11458.72
440.2510, 11989.00
441.4420, 12591.76
442.6320, 12989.42
443.8220, 13877.95
445.0120, 14454.71
446.2020, 15647.41
447.3910, 16367.78
448.5810, 17614.13
449.7700, 18811.54
450.9600, 20194.22
452.1490, 21789.26
453.3370, 23211.16
454.5260, 24691.96
455.7150, 26533.04
456.9030, 28161.80
458.0910, 29643.55
459.2800, 31580.95
460.4670, 33060.80
461.6550, 34386.12
462.8430, 35734.82
464.0300, 37138.06
465.2180, 38505.65
466.4050, 39364.81
467.5920, 40571.33
468.7790, 41023.66
469.9650, 41763.27
471.1520, 42480.75
472.3380, 43099.45
473.5250, 43532.74
474.7110, 44073.10
475.8970, 44260.88
477.0820, 44241.35
478.2680, 44618.86
479.4540, 44295.14
480.6390, 44080.26
481.8240, 43636.09
483.0090, 42671.38
484.1940, 41830.49
485.3780, 40727.54
486.5630, 38870.54
487.7470, 37453.31
488.9320, 35801.32
490.1160, 33251.42
491.3000, 30924.40
492.4830, 28884.96
493.6670, 27029.53
494.8500, 25085.63
496.0340, 22731.50
497.2170, 21015.21
498.4000, 18922.13
499.5820, 17327.89
500.7650, 15861.56
501.9480, 14404.86
503.1300, 13195.29
504.3120, 12108.26
505.4940, 11155.85
506.6760, 10328.30
507.8580, 9532.751
509.0390, 8903.206
510.2210, 8316.662
511.4020, 7758.120
512.5830, 7317.576
513.7640, 6876.035
514.9450, 6764.494
516.1250, 6597.957
517.3060, 6175.418
518.4860, 6325.881
519.6660, 5819.346
520.8460, 5747.807
522.0260, 5605.271
523.2060, 5505.734
524.3850, 5213.199
525.5650, 4895.666
526.7440, 4732.136
527.9230, 4749.607
529.1020, 4271.080
530.2810, 4146.555
531.4590, 3833.029
532.6380, 3561.510
533.8160, 3425.996
534.9940, 3256.862
536.1720, 2909.354
537.3500, 2795.846
538.5270, 2448.793
539.7050, 2278.544
540.8820, 2196.061
542.0590, 1985.934
543.2360, 1796.859
544.4130, 1624.384
545.5900, 1483.030
546.7660, 1384.438
547.9430, 1246.980
549.1190, 1157.867
550.2950, 1059.481
551.4710, 1164.117
552.6470, 1015.838
553.8220, 901.8242
554.9980, 900.5801
556.1730, 715.2754
557.3480, 657.9746
558.5230, 550.6641
559.6980, 580.3750
560.8730, 451.0840
562.0470, 331.7900
563.2220, 349.5352
564.3960, 412.3096
565.5700, 254.1191
566.7440, 280.9541
567.9170, 187.8018
569.0910, 207.6602
570.2640, 250.5293
571.4380, 214.4053
572.6110, 252.2842
573.7840, 156.1689
574.9570, 44.05371
576.1290, 97.92969
577.3020, 125.8027
578.4740, 1.673828
579.6460, 79.53516
580.8180, 79.40137
581.9900, 107.7324
583.1620, 101.9072
584.3330, 87.14258
585.5040, 97.59961
586.6760, 79.66309
587.8470, 12.95703
589.0180, 20.74512
590.1880, 46.46582
591.3590, 40.17773
592.5290, 114.1055
593.7000, 4.542969
594.8700, 10.17969
596.0400, 170.1943
597.2090, 54.67188
598.3790, 6.813477
599.5490, 63.71680
600.7180, 21.29395
601.8870, 140.8975
603.0560, 39.42383
604.2250, 186.2676
605.3940, 14.07324
606.5620, 206.1025
607.7300, 100.2705
608.8990, 6.574219
610.0670, 86.55859
611.2350, 121.6777
612.4020, 70.81152
613.5700, 156.9316
614.7370, 180.0391
615.9050, 64.13281
617.0720, 140.2295
618.2390, 135.3242
619.4060, 210.4365
620.5720, 200.7197
621.7390, 214.6514
622.9050, 166.7627
624.0710, 107.8799
625.2370, 46.98242
626.4030, 75.09863
627.5690, 246.2061
628.7340, 157.3027
629.9000, 165.3848
631.0650, 303.4512
632.2300, 214.5254
633.3950, 254.5918
634.5600, 227.6709
635.7240, 321.7578
636.8890, 332.8516
638.0530, 337.9326
639.2170, 336.9961
640.3810, 200.0449
641.5450, 289.1133
642.7080, 270.1631
643.8720, 322.1953
645.0350, 418.2090
646.1980, 316.2041
647.3610, 431.1787
648.5240, 328.1309
649.6870, 417.0635
650.8490, 435.9736
652.0120, 313.8623
653.1740, 332.7314
654.3360, 349.5771
655.4980, 314.4014
656.6600, 414.2002
657.8210, 420.9775
658.9830, 559.7295
660.1440, 395.4561
661.3050, 284.2510
662.4660, 420.9863
663.6270, 586.6396
664.7870, 490.7754
665.9480, 483.2695
667.1080, 424.9648
668.2680, 359.0166
669.4280, 317.6201
670.5880, 496.4395
671.7480, 464.5967
672.9070, 338.2949
674.0670, 151.0244
675.2260, 252.3564
676.3850, 286.3281
677.5440, 138.3955
678.7030, 190.2168
679.8610, 306.9248
681.0200, 164.7305
682.1780, 153.8975
683.3360, 364.1836
684.4940, 322.1553
685.6520, 271.4277
686.8090, 290.9082
687.9670, 192.2607
689.1240, 329.8213
690.2810, 322.9336
691.4380, 267.6855
692.5950, 209.8311
693.7520, 265.7695
694.9080, 351.1982
696.0650, 525.4980
697.2210, 506.2236
698.3770, 508.4893
699.5330, 529.0801
700.6880, 558.5420
701.8440, 477.8408
702.9990, 587.6807
704.1550, 698.4033
705.3100, 486.1123
706.4650, 658.2012
707.6190, 713.9902
708.7740, 615.4189
709.9290, 858.0547
711.0830, 675.2744
712.2370, 915.0420
713.3910, 781.2773
714.5450, 920.7188
715.6980, 886.4727
716.8520, 857.7158
718.0050, 991.0088
719.1580, 1168.039
720.3110, 1046.426
721.4640, 910.7227
722.6170, 1213.190
723.7700, 1129.533
724.9220, 1342.733
726.0740, 1159.394
727.2260, 1304.672
728.3780, 1124.744
729.5300, 1222.618
730.6810, 1342.729
731.8330, 1361.945
732.9840, 1362.709
734.1350, 1393.635
735.2860, 1402.081
736.4370, 1589.468
737.5880, 1420.741
738.7380, 1512.236
739.8880, 1471.482
741.0390, 1667.758
742.1890, 1655.126
743.3380, 1613.574
744.4880, 1735.997
745.6380, 1837.666
746.7870, 1866.930
747.9360, 1813.268
749.0850, 1833.232
750.2340, 2082.903
751.3830, 1918.585
752.5310, 2057.812
753.6800, 2211.750
754.8280, 2191.438
755.9760, 2272.884
757.1240, 2309.844
758.2720, 2404.730
759.4190, 2349.502
760.5670, 2431.871
761.7140, 2459.503
762.8610, 2490.948
764.0080, 2477.446
765.1550, 2439.965
766.3020, 2212.637
767.4480, 2469.135
768.5950, 2183.239
769.7410, 2218.675
770.8870, 2048.825
772.0330, 1985.681
773.1780, 2113.015
774.3240, 1941.156
775.4690, 1730.366
776.6140, 1566.276
777.7590, 1791.372
778.9040, 1742.962
780.0490, 1630.619
781.1940, 1576.736
782.3380, 1501.439
783.4820, 1403.227
784.6260, 1317.226
785.7700, 1136.722
786.9140, 1096.158
788.0580, 1004.407
789.2010, 861.7090
790.3450, 807.9668
791.4880, 844.1377
792.6310, 890.2812
793.7730, 879.0254
794.9160, 668.7148
796.0590, 587.3506
797.2010, 555.9316
798.3430, 348.4561
799.4850, 355.9248
800.6270, 410.3389
801.7690, 374.6973
802.9100, 243.0020
804.0520, 476.2480
805.1930, 246.4385
806.3340, 346.5684
807.4750, 287.6445
808.6160, 199.6611
809.7560, 90.61816
810.8970, 287.5098
812.0370, 134.9629
813.1770, 213.7334
814.3170, 58.44336
815.4570, 32.63672
816.5960, 71.95898
817.7360, 220.4541
818.8750, 125.5332
820.0140, 99.50098
821.1530, 154.8086
822.2920, 92.05566
823.4310, 10.23828
824.5690, 84.66406
825.7070, 73.05762
826.8460, 19.17383
827.9840, 30.43945
829.1220, 21.87500
830.2590, 36.32715
831.3970, 124.3154
832.5340, 3.985352
833.6710, 110.1992
834.8080, 61.64648
835.9450, 36.38672
837.0820, 38.34961
838.2190, 129.7559
839.3550, 76.01758
840.4910, 107.4043
841.6270, 44.93164
842.7630, 20.56543
843.8990, 17.32520
845.0350, 13.11621
846.1700, 2.027344
847.3060, 22.98047
848.4410, 8.917969
849.5760, 70.77832
850.7100, 130.5801
851.8450, 95.90527
852.9800, 38.01270
854.1140, 71.63770
855.2480, 10.79102
856.3820, 15.69922
857.5160, 56.87598
858.6500, 53.47461
859.7830, 41.20508
860.9170, 115.0449
862.0500, 46.24023
863.1830, 78.40137
864.3160, 45.48730
865.4480, 84.53223
866.5810, 32.50195
867.7130, 26.38086
868.8460, 31.24023
869.9780, 14.04395
871.1100, 99.79395
872.2410, 11.53711
873.3730, 85.23926
874.5050, 106.8916
875.6360, 49.51367
876.7670, 29.90918
877.8980, 36.62988
879.0290, 119.1191
880.1590, 9.389648
881.2900, 65.04492
882.4200, 64.42969
883.5500, 80.76367
884.6800, 92.81348
885.8100, 98.70312
886.9400, 115.4336
888.0690, 56.52539
889.1990, 133.5674
890.3280, 62.43652
891.4570, 39.52246
892.5860, 113.6807
893.7140, 46.94922
894.8430, 109.7100
895.9710, 82.67676
897.1000, 74.15625
898.2280, 55.27930
899.3560, 108.3281
900.4830, 29.03613
901.6110, 43.20020
902.7380, 26.38965
903.8660, 112.5371
904.9930, 25.35645
906.1200, 20.30371
907.2460, 160.6973
908.3730, 64.33984
909.5000, 60.55176
910.6260, 28.40234
911.7520, 84.21094
912.8780, 23.98047
914.0040, 21.29199
915.1290, 96.38965
916.2550, 5.966797
917.3800, 53.63477
918.5050, 17.19824
919.6300, 115.7217
920.7550, 128.2100
921.8800, 52.66504
923.0040, 81.08301
924.1290, 52.46484
925.2530, 46.69336
926.3770, 51.12598
927.5010, 41.40332
928.6250, 139.6455
929.7480, 118.8574
930.8720, 190.0371
931.9950, 219.1885
933.1180, 302.3076
934.2410, 244.3057
935.3640, 245.3076
936.4860, 295.3389
937.6090, 258.3398
938.7310, 355.7988
939.8530, 384.7520
940.9750, 431.1758
942.0970, 473.9922
943.2180, 500.5381
944.3400, 598.2520
945.4610, 628.2529
946.5820, 729.7275
947.7030, 740.5596
948.8240, 663.6992
949.9450, 647.6875
951.0650, 772.8691
952.1860, 753.1094
953.3060, 848.2148
954.4260, 842.9033
955.5460, 977.4189
956.6650, 887.1963
957.7850, 825.6191
958.9040, 1030.780
960.0230, 1073.021
961.1420, 1008.999
962.2610, 935.3809
963.3800, 1010.069
964.4990, 1174.313
965.6170, 1134.711
966.7350, 1168.566
967.8530, 1195.497
968.9710, 1149.952
970.0890, 1181.815
971.2070, 1247.301
972.3240, 1221.864
973.4410, 1366.541
974.5580, 1499.624
975.6750, 1431.773
976.7920, 1566.885
977.9090, 1371.595
979.0250, 1497.552
980.1410, 1482.822
981.2580, 1455.835
982.3740, 1517.217
983.4890, 1644.004
984.6050, 1560.295
985.7200, 1610.860
986.8360, 1532.282
987.9510, 1692.285
989.0660, 1638.638
990.1810, 1786.577
991.2950, 1757.107
992.4100, 1857.271
993.5240, 1944.556
994.6390, 1818.826
995.7530, 1868.434
996.8660, 1826.730
997.9800, 2121.201
999.0940, 1845.460
1000.207, 1877.008
1001.320, 2069.250
1002.433, 1890.529
1003.546, 2109.868
1004.659, 2175.031
1005.772, 2032.722
1006.884, 2081.914
1007.996, 2117.018
1009.108, 2249.345
1010.220, 2209.884
1011.332, 2410.923
1012.444, 2414.483
1013.555, 2527.402
1014.666, 2423.950
1015.777, 2430.671
1016.888, 2601.411
1017.999, 2661.237
1019.110, 2755.130
1020.220, 2841.428
1021.331, 2937.457
1022.441, 3034.256
1023.551, 2936.418
1024.661, 3157.303
1025.770, 3122.704
1026.880, 2976.566
1027.989, 3355.697
1029.098, 3390.900
1030.207, 3458.947
1031.316, 3696.633
1032.425, 3907.721
1033.533, 3695.482
1034.642, 3735.332
1035.750, 3712.518
1036.858, 4081.656
1037.966, 3962.180
1039.073, 4139.479
1040.181, 3901.021
1041.288, 4132.832
1042.396, 4122.125
1043.503, 4199.568
1044.610, 4078.918
1045.716, 4109.527
1046.823, 3976.914
1047.929, 3976.295
1049.036, 4214.473
1050.142, 4011.721
1051.248, 3998.383
1052.353, 4150.916
1053.459, 4075.895
1054.564, 4379.959
1055.670, 4175.734
1056.775, 4285.656
1057.880, 4372.488
1058.985, 4301.324
1060.089, 4538.213
1061.194, 4520.088
1062.298, 4777.324
1063.402, 4731.576
1064.506, 4780.844
1065.610, 4761.125
1066.713, 4807.018
1067.817, 4858.178
1068.920, 4952.082
1070.023, 4971.438
1071.126, 5132.492
1072.229, 5176.891
1073.332, 5363.303
1074.435, 5298.734
1075.537, 5447.188
1076.639, 5365.658
1077.741, 5560.150
1078.843, 5617.668
1079.945, 5705.432
1081.046, 5688.994
1082.148, 5561.578
1083.249, 5476.186
1084.350, 5658.207
1085.451, 5806.070
1086.551, 5748.754
1087.652, 5800.463
1088.752, 5950.195
1089.853, 5858.961
1090.953, 5791.738
1092.053, 5747.088
1093.152, 5673.961
1094.252, 5565.387
1095.351, 5510.357
1096.451, 5570.391
1097.550, 5622.445
1098.649, 5494.531
1099.748, 5567.689
1100.846, 5471.883
1101.945, 5481.102
1103.043, 5255.373
1104.141, 5180.674
1105.239, 5111.000
1106.337, 5124.395
1107.434, 5023.777
1108.532, 4904.539
1109.629, 4866.711
1110.726, 4937.342
1111.823, 4828.197
1112.920, 4725.877
1114.017, 4587.699
1115.113, 4647.439
1116.210, 4656.451
1117.306, 4578.205
1118.402, 4538.059
1119.498, 4467.014
1120.593, 4314.371
1121.689, 4225.131
1122.784, 4234.197
1123.879, 4165.406
1124.974, 3936.508
1126.069, 3877.742
1127.164, 3899.896
1128.259, 3980.977
1129.353, 3774.094
1130.447, 3661.230
1131.541, 3464.324
1132.635, 3573.406
1133.729, 3468.621
1134.822, 3365.883
1135.916, 3386.162
1137.009, 3299.707
1138.102, 3070.088
1139.195, 2936.875
1140.288, 2860.238
1141.380, 2700.682
1142.473, 2711.668
1143.565, 2603.363
1144.657, 2411.992
1145.749, 2487.709
1146.841, 2395.441
1147.932, 2408.535
1149.024, 2201.770
1150.115, 2188.312
1151.206, 1995.123
1152.297, 2115.859
1153.388, 1926.479
1154.479, 1887.682
1155.569, 1703.686
1156.659, 1892.209
1157.750, 1959.609
1158.839, 1703.664
1159.929, 1562.711
1161.019, 1594.822
1162.108, 1524.574
1163.198, 1367.252
1164.287, 1141.762
1165.376, 1281.783
1166.465, 1113.701
1167.553, 1208.715
1168.642, 1126.389
1169.730, 1052.602
1170.818, 1013.730
1171.906, 872.3848
1172.994, 883.7363
1174.082, 715.0039
1175.170, 871.2207
1176.257, 666.2988
1177.344, 667.6875
1178.431, 593.0762
1179.518, 625.1445
1180.605, 513.6348
1181.691, 525.6094
1182.778, 739.8633
1183.864, 354.2480
1184.950, 537.9941
1186.036, 326.1875
1187.122, 323.3457
1188.207, 203.7871
1189.292, 481.9551
1190.378, 164.5938
1191.463, 331.7715
1192.548, 113.9551
1193.632, 278.1426
1194.717, 292.3340
1195.801, 233.5273
1196.886, 223.7227
1197.970, 240.0469
1199.054, 263.6191
1200.137, 201.0859
1201.221, 68.75781
1202.305, 301.5078
1203.388, 23.74609
1204.471, 180.9395
1205.554, 129.1445
1206.637, 68.52734
1207.719, 37.19727
1208.802, 145.4336
1209.884, 94.35938
1210.966, 17.63281
1212.048, 197.8066
1213.130, 17.98242
1214.212, 21.84570
1215.293, 88.67578
1216.374, 186.7480
1217.456, 45.11719
1218.536, 194.2520
1219.617, 2.386719
1220.698, 26.62695
1221.778, 24.15430
1222.859, 102.9707
1223.939, 46.59961
1225.019, 48.50195
1226.099, 1.599609
1227.178, 117.7461
1228.258, 117.1914
1229.337, 108.7031
1230.417, 105.4297
1231.496, 86.64062
1232.574, 47.01758
1233.653, 45.08984
1234.732, 90.14258
1235.810, 195.1895
1236.888, 47.26172
1237.966, 1.707031
1239.044, 104.6875
1240.122, 19.61328
1241.199, 1.222656
1242.277, 42.71680
1243.354, 22.35547
1244.431, 92.55078
1245.508, 91.55469
1246.585, 53.40039
1247.661, 103.2344
1248.738, 17.94141
1249.814, 59.14062
1250.890, 30.38281
1251.966, 19.44727
1253.042, 4.160156
1254.117, 37.00195
1255.193, 14.31250
1256.268, 61.65430
1257.343, 90.24023
1258.418, 68.39453
1259.493, 103.3887
1260.567, 117.8457
1261.642, 20.34375
1262.716, 36.72461
1263.790, 91.70703
1264.864, 162.1191
1265.938, 33.75586
1267.011, 80.51758
1268.085, 23.06445
1269.158, 100.2598
1270.231, 86.56836
1271.304, 70.14258
1272.377, 66.91602
1273.450, 127.2441
1274.522, 51.13867
1275.594, 55.33398
1276.666, 1.566406
1277.738, 15.50195
1278.810, 127.5430
1279.882, 9.435547
1280.953, 91.54883
1282.025, 174.5098
1283.096, 59.54883
1284.167, 45.32617
1285.238, 20.53906
1286.308, 122.5449
1287.379, 65.20898
1288.449, 76.01953
1289.519, 65.83789
1290.589, 43.22461
1291.659, 56.61719
1292.729, 68.90430
1293.798, 91.51758
1294.868, 25.17969
1295.937, 140.1152
1297.006, 257.3730
1298.075, 169.8379
1299.143, 144.1172
1300.212, 0.3339840
1301.280, 84.26172
1302.348, 112.9102
1303.416, 6.619141
1304.484, 225.8184
1305.552, 96.16211
1306.620, 99.34180
1307.687, 40.47461
1308.754, 83.39844
1309.821, 77.70312
1310.888, 146.3340
1311.955, 36.12305
1313.021, 59.12891
1314.088, 169.8516
1315.154, 266.5488
1316.220, 116.2969
1317.286, 211.2539
1318.352, 74.73828
1319.417, 207.3223
1320.483, 225.8750
1321.548, 223.5762
1322.613, 241.2656
1323.678, 221.9570
1324.743, 197.8633
1325.807, 165.5918
1326.872, 108.5215
1327.936, 135.2871
1329.000, 59.62891
1330.064, 181.2617
1331.128, 189.7012
1332.191, 244.9590
1333.255, 403.5605
1334.318, 164.0859
1335.381, 96.57812
1336.444, 200.7363
1337.507, 217.8691
1338.569, 69.74609
1339.632, 368.8242
1340.694, 368.9062
1341.756, 278.9238
1342.818, 241.6621
1343.880, 142.1777
1344.941, 156.1152
1346.003, 235.1836
1347.064, 315.4805
1348.125, 190.4043
1349.186, 195.2324
1350.247, 364.5117
1351.308, 143.3145
1352.368, 368.5625
1353.428, 253.5039
1354.489, 206.3730
1355.549, 135.0078
1356.608, 118.4766
1357.668, 109.8301
1358.727, 147.3477
1359.787, 149.8516
1360.846, 221.3262
1361.905, 281.7715
1362.964, 440.1855
1364.022, 218.7949
1365.081, 313.1523
1366.139, 335.3086
1367.197, 143.0977
1368.255, 174.3438
1369.313, 356.3770
1370.371, 318.5938
1371.428, 300.6699
1372.486, 352.8242
1373.543, 195.7070
1374.600, 266.7070
1375.657, 355.8164
1376.713, 282.7266
1377.770, 476.2422
1378.826, 197.4434
1379.882, 266.3828
1380.938, 28.03320
1381.994, 361.1484
1383.050, 266.8613
1384.106, 152.5938
1385.161, 97.70703
1386.216, 19.46875
1387.271, 185.3867
1388.326, 318.1797
1389.381, 22.97656
1390.435, 286.6504
1391.490, 238.2773
1392.544, 161.8535
1393.598, 128.1582
1394.652, 206.6250
1395.705, 281.7812
1396.759, 338.2520
1397.812, 289.2539
1398.866, 452.6270
1399.919, 209.5586
1400.972, 67.90820
1402.024, 192.9785
1403.077, 310.0332
1404.129, 274.0879
1405.181, 358.1797
1406.233, 300.4961
1407.285, 366.4355
1408.337, 306.5254
1409.389, 233.6934
1410.440, 230.2461
1411.491, 119.9883
1412.542, 184.1953
1413.593, 189.5312
1414.644, 171.2324
1415.695, 162.9473
1416.745, 129.5801
1417.795, 98.58203
1418.845, 198.5781
1419.895, 41.73242
1420.945, 310.5293
1421.995, 20.28516
1423.044, 322.9297
