##NAMES=Phillipsite-Ca
##RRUFFID=R050078
##IDEAL CHEMISTRY=Ca_3_(Si_10_Al_6_)O_32_&#183;12H_2_O
##LOCALITY=Grant County, Oregon, USA
##OWNER=RRUFF
##SOURCE=Rock Currier
##DESCRIPTION=White tabular hexagonal
##STATUS=The identification of this mineral has been confirmed by X-ray diffraction and chemical analysis
##URL=rruff.info/R050078
##MEASURED CHEMISTRY=(Ca_0.90_K_0.75_[box]_0.25_Na_0.10_)_Σ=2_(Si_5.35_Al_2.65_)_Σ=8_O_16_·6H_2_O
##PIN_ID=L01729
##ORIENTATION=Laser parallel to -b* (0 -1 0). Fiducial mark perpendicular to laser is parallel to c [0 0 1]
267.2150, 0.0000000E+00
268.4270, 45.70703
269.6400, 144.4268
270.8520, 103.3477
272.0640, 91.19141
273.2760, 134.4658
274.4880, 32.51465
275.7000, 13.11035
276.9120, 163.9355
278.1230, 17.98438
279.3340, 81.69043
280.5450, 40.68652
281.7560, 73.95703
282.9670, 121.8906
284.1780, 209.1533
285.3880, 168.9248
286.5980, 172.0625
287.8090, 154.3232
289.0190, 127.2617
290.2290, 248.5195
291.4380, 152.4824
292.6480, 283.1191
293.8570, 410.3408
295.0670, 468.3418
296.2760, 516.4082
297.4850, 436.7744
298.6930, 612.6387
299.9020, 553.1670
301.1110, 378.5068
302.3190, 484.6104
303.5270, 615.9043
304.7350, 594.1025
305.9430, 586.7324
307.1510, 692.2588
308.3580, 657.4150
309.5660, 823.4668
310.7730, 766.9736
311.9800, 886.2070
313.1870, 897.7852
314.3940, 887.8926
315.6010, 849.2842
316.8070, 890.7500
318.0130, 852.4434
319.2200, 827.3721
320.4260, 851.2314
321.6310, 836.1709
322.8370, 855.1816
324.0430, 778.2539
325.2480, 727.3750
326.4540, 650.5332
327.6590, 648.4336
328.8640, 622.9111
330.0680, 642.1250
331.2730, 625.3564
332.4780, 593.6055
333.6820, 510.8750
334.8860, 502.1641
336.0900, 277.4766
337.2940, 338.8105
338.4980, 253.1689
339.7010, 215.5811
340.9050, 201.1387
342.1080, 175.8320
343.3110, 12.34473
344.5140, 207.5898
345.7170, 27.36328
346.9200, 157.7852
348.1220, 54.02930
349.3240, 42.64160
350.5270, 2.767578
351.7290, 73.75293
352.9310, 40.78809
354.1320, 37.61035
355.3340, 53.04590
356.5350, 140.1963
357.7370, 1.673828
358.9380, 88.36035
360.1390, 49.30273
361.3400, 77.16504
362.5400, 35.00488
363.7410, 1.845703
364.9410, 14.30176
366.1410, 91.44141
367.3410, 154.5928
368.5410, 141.7334
369.7410, 316.8906
370.9400, 240.0371
372.1400, 328.1738
373.3390, 514.3066
374.5380, 432.4248
375.7370, 563.5273
376.9360, 616.6084
378.1350, 659.6113
379.3330, 718.5293
380.5310, 853.3770
381.7300, 837.0898
382.9280, 1056.696
384.1260, 1087.186
385.3230, 1139.526
386.5210, 1395.716
387.7180, 1535.796
388.9160, 1685.840
390.1130, 1797.890
391.3100, 1975.196
392.5060, 2037.047
393.7030, 2337.162
394.9000, 2488.299
396.0960, 2714.461
397.2920, 2839.646
398.4880, 3099.853
399.6840, 3196.082
400.8800, 3399.335
402.0750, 3603.614
403.2710, 3888.917
404.4660, 4185.244
405.6610, 4445.599
406.8560, 4697.979
408.0510, 5031.163
409.2450, 5350.815
410.4400, 5659.277
411.6340, 6060.585
412.8280, 6326.922
414.0220, 6750.237
415.2160, 7024.521
416.4100, 7383.721
417.6030, 7875.891
418.7970, 8224.017
419.9900, 8142.699
421.1830, 8596.727
422.3760, 8672.696
423.5690, 8855.603
424.7610, 9025.442
425.9540, 8580.209
427.1460, 8892.903
428.3380, 8808.533
429.5300, 8686.099
430.7220, 8914.596
431.9140, 8751.017
433.1050, 8990.350
434.2970, 8951.585
435.4880, 9335.717
436.6790, 9612.771
437.8700, 9830.711
439.0610, 10196.73
440.2510, 10828.06
441.4420, 11292.78
442.6320, 12144.45
443.8220, 12735.04
445.0120, 13500.61
446.2020, 14424.82
447.3910, 15493.16
448.5810, 16867.02
449.7700, 17954.35
450.9600, 19369.46
452.1490, 20721.54
453.3370, 22156.34
454.5260, 23814.06
455.7150, 25434.41
456.9030, 26975.72
458.0910, 28907.41
459.2800, 30267.30
460.4670, 31753.40
461.6550, 33566.26
462.8430, 34846.34
464.0300, 36001.96
465.2180, 37287.14
466.4050, 38651.07
467.5920, 39272.12
468.7790, 39995.17
469.9650, 40359.23
471.1520, 40949.23
472.3380, 41371.24
473.5250, 41621.27
474.7110, 41597.33
475.8970, 41503.40
477.0820, 41252.09
478.2680, 41045.68
479.4540, 40340.31
480.6390, 39815.24
481.8240, 39098.83
483.0090, 37982.26
484.1940, 37089.75
485.3780, 35921.94
486.5630, 34405.21
487.7470, 32772.75
488.9320, 31264.29
490.1160, 29425.49
491.3000, 27634.16
492.4830, 25473.04
493.6670, 23709.87
494.8500, 21730.00
496.0340, 19798.61
497.2170, 18254.18
498.4000, 16391.25
499.5820, 15085.57
500.7650, 13779.87
501.9480, 12347.60
503.1300, 11217.85
504.3120, 10172.43
505.4940, 9008.726
506.6760, 8215.174
507.8580, 7601.569
509.0390, 6623.701
510.2210, 6277.438
511.4020, 5966.098
512.5830, 5445.558
513.7640, 5082.728
514.9450, 4704.207
516.1250, 4389.699
517.3060, 4098.201
518.4860, 3779.713
519.6660, 3714.236
520.8460, 3390.772
522.0260, 3288.323
523.2060, 3156.887
524.3850, 3044.464
525.5650, 2729.055
526.7440, 2818.661
527.9230, 2543.281
529.1020, 2542.938
530.2810, 2304.613
531.4590, 2191.303
532.6380, 2097.014
533.8160, 2051.742
534.9940, 1989.506
536.1720, 2066.288
537.3500, 1779.085
538.5270, 1741.905
539.7050, 1516.754
540.8820, 1475.803
542.0590, 1334.717
543.2360, 1320.653
544.4130, 1138.615
545.5900, 1219.640
546.7660, 1049.698
547.9430, 998.7891
549.1190, 861.9424
550.2950, 953.1143
551.4710, 904.3184
552.6470, 748.5547
553.8220, 498.8223
554.9980, 689.1211
556.1730, 435.4209
557.3480, 502.7344
558.5230, 556.0674
559.6980, 490.3975
560.8730, 366.7266
562.0470, 279.0674
563.2220, 369.4189
564.3960, 196.8184
565.5700, 257.2344
566.7440, 255.6582
567.9170, 248.0811
569.0910, 242.2129
570.2640, 145.9287
571.4380, 158.3818
572.6110, 170.8486
573.7840, 78.33789
574.9570, 158.8662
576.1290, 64.39941
577.3020, 50.93848
578.4740, 132.4893
579.6460, 19.04590
580.8180, 13.37695
581.9900, 82.19531
583.1620, 149.8066
584.3330, 99.58105
585.5040, 81.00195
586.6760, 72.41699
587.8470, 116.8604
589.0180, 42.33008
590.1880, 30.81152
591.3590, 99.69824
592.5290, 184.7900
593.7000, 44.64258
594.8700, 31.89844
596.0400, 27.27832
597.2090, 39.02734
598.3790, 17.49316
599.5490, 117.9834
600.7180, 5.464844
601.8870, 87.94824
603.0560, 17.43457
604.2250, 19.05859
605.3940, 35.55469
606.5620, 96.93945
607.7300, 42.45117
608.8990, 46.96387
610.0670, 55.51855
611.2350, 98.98438
612.4020, 122.4883
613.5700, 123.9941
614.7370, 104.5029
615.9050, 183.0439
617.0720, 47.58691
618.2390, 187.1289
619.4060, 106.6719
620.5720, 91.21680
621.7390, 194.7607
622.9050, 206.3105
624.0710, 41.86230
625.2370, 198.4170
626.4030, 134.9766
627.5690, 259.5625
628.7340, 274.2871
629.9000, 235.7617
631.0650, 243.3779
632.2300, 237.0010
633.3950, 201.3115
634.5600, 127.3145
635.7240, 159.0117
636.8890, 200.7148
638.0530, 227.6602
639.2170, 299.1689
640.3810, 268.9463
641.5450, 309.7354
642.7080, 337.5586
643.8720, 238.4043
645.0350, 226.2803
646.1980, 236.6250
647.3610, 264.0791
648.5240, 250.1426
649.6870, 310.0469
650.8490, 288.9443
652.0120, 191.8369
653.1740, 353.7168
654.3360, 366.8428
655.4980, 295.9219
656.6600, 435.1494
657.8210, 231.0459
658.9830, 197.2119
660.1440, 384.5908
661.3050, 235.6758
662.4660, 345.8086
663.6270, 355.3691
664.7870, 319.5352
665.9480, 392.0996
667.1080, 332.1475
668.2680, 310.1621
669.4280, 144.7598
670.5880, 236.3135
671.7480, 246.2705
672.9070, 277.0410
674.0670, 307.8535
675.2260, 296.3672
676.3850, 213.8252
677.5440, 248.6445
678.7030, 169.9434
679.8610, 99.62500
681.0200, 265.2061
682.1780, 387.9717
683.3360, 414.2783
684.4940, 250.0088
685.6520, 352.6758
686.8090, 342.8750
687.9670, 452.2041
689.1240, 318.3672
690.2810, 310.4434
691.4380, 458.2607
692.5950, 542.8320
693.7520, 436.7314
694.9080, 427.5117
696.0650, 545.3887
697.2210, 523.2168
698.3770, 651.1963
699.5330, 689.3770
700.6880, 768.0645
701.8440, 620.7139
702.9990, 695.3057
704.1550, 799.2754
705.3100, 785.4033
706.4650, 855.0107
707.6190, 830.2666
708.7740, 765.1338
709.9290, 733.2822
711.0830, 812.0391
712.2370, 979.2402
713.3910, 1069.088
714.5450, 987.7129
715.6980, 979.4580
716.8520, 966.5400
718.0050, 978.0840
719.1580, 961.1445
720.3110, 1012.335
721.4640, 1019.253
722.6170, 1114.952
723.7700, 1110.996
724.9220, 1124.223
726.0740, 882.7197
727.2260, 868.5693
728.3780, 815.6953
729.5300, 951.8623
730.6810, 976.1289
731.8330, 898.7305
732.9840, 1125.940
734.1350, 862.6084
735.2860, 778.6914
736.4370, 848.5576
737.5880, 879.2783
738.7380, 888.0117
739.8880, 861.2900
741.0390, 880.4268
742.1890, 859.6895
743.3380, 840.4521
744.4880, 904.2266
745.6380, 998.7139
746.7870, 916.7383
747.9360, 907.3066
749.0850, 827.7510
750.2340, 843.9268
751.3830, 862.9678
752.5310, 789.0820
753.6800, 1100.469
754.8280, 1170.486
755.9760, 1084.265
757.1240, 1134.305
758.2720, 1117.681
759.4190, 1167.301
760.5670, 1078.710
761.7140, 1089.061
762.8610, 1230.219
764.0080, 1091.788
765.1550, 1123.763
766.3020, 1073.931
767.4480, 1033.638
768.5950, 948.2217
769.7410, 823.1035
770.8870, 753.9062
772.0330, 720.7900
773.1780, 869.1055
774.3240, 697.8867
775.4690, 763.3643
776.6140, 767.7920
777.7590, 719.1709
778.9040, 725.0254
780.0490, 697.3604
781.1940, 587.7939
782.3380, 535.9707
783.4820, 408.0957
784.6260, 471.3086
785.7700, 308.3320
786.9140, 361.5449
788.0580, 438.4639
789.2010, 498.3301
790.3450, 405.1445
791.4880, 285.9062
792.6310, 294.6133
793.7730, 256.2666
794.9160, 332.8643
796.0590, 265.4092
797.2010, 211.8984
798.3430, 71.32910
799.4850, 264.6973
800.6270, 159.0088
801.7690, 250.2607
802.9100, 151.4561
804.0520, 271.5918
805.1930, 20.32715
806.3340, 95.65332
807.4750, 139.5723
808.6160, 70.43164
809.7560, 90.22461
810.8970, 22.04492
812.0370, 132.5869
813.1770, 141.1572
814.3170, 29.66699
815.4570, 0.1015630
816.5960, 6.549805
817.7360, 21.46289
818.8750, 27.69629
820.0140, 14.78125
821.1530, 137.2148
822.2920, 25.36719
823.4310, 18.62012
824.5690, 132.9707
825.7070, 38.52441
826.8460, 19.04980
827.9840, 31.71973
829.1220, 76.49121
830.2590, 82.65723
831.3970, 44.58691
832.5340, 20.50391
833.6710, 36.68945
834.8080, 136.0225
835.9450, 82.67383
837.0820, 5.735352
838.2190, 6.230469
839.3550, 149.8105
840.4910, 29.54980
841.6270, 1.385742
842.7630, 164.6973
843.8990, 42.72363
845.0350, 17.68555
846.1700, 70.42285
847.3060, 17.64648
848.4410, 57.95703
849.5760, 117.3750
850.7100, 14.06836
851.8450, 9.442383
852.9800, 14.25391
854.1140, 9.966797
855.2480, 50.88086
856.3820, 53.17188
857.5160, 114.8330
858.6500, 29.03027
859.7830, 11.83105
860.9170, 90.58691
862.0500, 87.28516
863.1830, 38.05859
864.3160, 14.53027
865.4480, 43.06543
866.5810, 32.54883
867.7130, 139.9736
868.8460, 70.61328
869.9780, 102.6963
871.1100, 102.0400
872.2410, 36.11035
873.3730, 159.2051
874.5050, 67.25293
875.6360, 105.2471
876.7670, 185.1904
877.8980, 54.91504
879.0290, 72.89355
880.1590, 168.6514
881.2900, 44.63184
882.4200, 125.0049
883.5500, 1.592773
884.6800, 7.125000
885.8100, 73.61523
886.9400, 93.05469
888.0690, 62.44434
889.1990, 119.2139
890.3280, 59.01172
891.4570, 79.19043
892.5860, 26.31934
893.7140, 171.3994
894.8430, 99.43555
895.9710, 16.57422
897.1000, 136.3613
898.2280, 17.74805
899.3560, 56.08984
900.4830, 11.12012
901.6110, 123.6201
902.7380, 3.682617
903.8660, 0.9667970
904.9930, 149.5684
906.1200, 154.1289
907.2460, 186.6504
908.3730, 215.4531
909.5000, 115.5762
910.6260, 208.9785
911.7520, 210.3447
912.8780, 218.6729
914.0040, 38.96387
915.1290, 148.2129
916.2550, 109.4248
917.3800, 208.5977
918.5050, 187.7354
919.6300, 116.8369
920.7550, 179.9014
921.8800, 85.77344
923.0040, 142.7666
924.1290, 225.7236
925.2530, 264.6484
926.3770, 132.5371
927.5010, 180.1387
928.6250, 129.7432
929.7480, 202.1543
930.8720, 239.8516
931.9950, 147.2354
933.1180, 168.3623
934.2410, 313.7393
935.3640, 222.0254
936.4860, 268.8369
937.6090, 206.0010
938.7310, 354.7217
939.8530, 199.9160
940.9750, 288.2812
942.0970, 476.6582
943.2180, 188.2158
944.3400, 355.3262
945.4610, 375.5791
946.5820, 405.7471
947.7030, 319.1699
948.8240, 444.6025
949.9450, 554.6416
951.0650, 597.1582
952.1860, 482.2480
953.3060, 560.4238
954.4260, 563.3809
955.5460, 519.7812
956.6650, 597.7158
957.7850, 509.6875
958.9040, 673.0889
960.0230, 568.3164
961.1420, 589.6689
962.2610, 574.0664
963.3800, 593.6787
964.4990, 739.4922
965.6170, 742.9668
966.7350, 773.5205
967.8530, 865.9346
968.9710, 719.3516
970.0890, 812.5762
971.2070, 938.5703
972.3240, 926.0166
973.4410, 1034.458
974.5580, 960.9365
975.6750, 1016.995
976.7920, 1065.856
977.9090, 982.2002
979.0250, 1182.857
980.1410, 1103.859
981.2580, 1232.539
982.3740, 1109.570
983.4890, 1285.113
984.6050, 1248.971
985.7200, 1302.011
986.8360, 1239.887
987.9510, 1293.363
989.0660, 1303.443
990.1810, 1292.646
991.2950, 1358.520
992.4100, 1359.900
993.5240, 1408.811
994.6390, 1363.056
995.7530, 1436.110
996.8660, 1338.240
997.9800, 1364.807
999.0940, 1546.473
1000.207, 1562.462
1001.320, 1431.382
1002.433, 1512.820
1003.546, 1463.669
1004.659, 1497.980
1005.772, 1431.992
1006.884, 1519.049
1007.996, 1504.635
1009.108, 1632.849
1010.220, 1687.235
1011.332, 1825.999
1012.444, 1844.403
1013.555, 1837.727
1014.666, 1839.470
1015.777, 1839.736
1016.888, 1907.333
1017.999, 1939.347
1019.110, 1991.185
1020.220, 2047.951
1021.331, 2097.508
1022.441, 2125.391
1023.551, 2145.110
1024.661, 2064.598
1025.770, 2127.192
1026.880, 2149.309
1027.989, 2199.635
1029.098, 2262.390
1030.207, 2228.342
1031.316, 2294.321
1032.425, 2228.344
1033.533, 2372.061
1034.642, 2333.335
1035.750, 2304.381
1036.858, 2419.869
1037.966, 2358.447
1039.073, 2427.693
1040.181, 2539.981
1041.288, 2545.412
1042.396, 2563.877
1043.503, 2440.104
1044.610, 2604.603
1045.716, 2725.113
1046.823, 2461.639
1047.929, 2580.652
1049.036, 2749.148
1050.142, 2756.509
1051.248, 2713.090
1052.353, 2632.686
1053.459, 2945.156
1054.564, 2893.781
1055.670, 3019.179
1056.775, 3081.684
1057.880, 3198.746
1058.985, 3270.355
1060.089, 3420.900
1061.194, 3422.624
1062.298, 3347.367
1063.402, 3429.131
1064.506, 3483.911
1065.610, 3600.711
1066.713, 3696.529
1067.817, 3760.582
1068.920, 3969.230
1070.023, 3989.111
1071.126, 3862.014
1072.229, 4147.936
1073.332, 4265.879
1074.435, 4098.863
1075.537, 4394.869
1076.639, 4457.898
1077.741, 4471.949
1078.843, 4466.023
1079.945, 4467.141
1081.046, 4597.279
1082.148, 4357.493
1083.249, 4743.682
1084.350, 4841.906
1085.451, 4762.496
1086.551, 4753.325
1087.652, 4797.933
1088.752, 4699.311
1089.853, 4802.749
1090.953, 4862.802
1092.053, 4853.334
1093.152, 4865.628
1094.252, 4874.070
1095.351, 4775.639
1096.451, 4852.351
1097.550, 4771.188
1098.649, 4726.008
1099.748, 4785.854
1100.846, 4565.746
1101.945, 4669.680
1103.043, 4738.527
1104.141, 4471.504
1105.239, 4451.518
1106.337, 4379.498
1107.434, 4353.619
1108.532, 4295.534
1109.629, 4248.072
1110.726, 4196.701
1111.823, 4191.969
1112.920, 4170.236
1114.017, 4224.557
1115.113, 3994.909
1116.210, 3838.309
1117.306, 4107.773
1118.402, 3832.262
1119.498, 3859.913
1120.593, 3786.003
1121.689, 3785.681
1122.784, 3554.067
1123.879, 3657.717
1124.974, 3518.434
1126.069, 3500.414
1127.164, 3521.170
1128.259, 3474.947
1129.353, 3282.726
1130.447, 3132.559
1131.541, 3022.609
1132.635, 2913.296
1133.729, 3024.741
1134.822, 2834.660
1135.916, 2828.346
1137.009, 2930.326
1138.102, 2855.359
1139.195, 2754.520
1140.288, 2461.604
1141.380, 2514.755
1142.473, 2445.130
1143.565, 2286.895
1144.657, 2438.787
1145.749, 2173.688
1146.841, 2067.901
1147.932, 2272.181
1149.024, 1937.469
1150.115, 2013.643
1151.206, 1876.501
1152.297, 1907.915
1153.388, 1822.857
1154.479, 1674.565
1155.569, 1598.863
1156.659, 1466.198
1157.750, 1464.551
1158.839, 1245.818
1159.929, 1299.263
1161.019, 1265.012
1162.108, 1382.150
1163.198, 1291.043
1164.287, 1303.798
1165.376, 1137.315
1166.465, 1209.180
1167.553, 968.4990
1168.642, 983.8770
1169.730, 994.4541
1170.818, 860.0488
1171.906, 894.7529
1172.994, 840.3359
1174.082, 708.9863
1175.170, 898.1553
1176.257, 650.0459
1177.344, 658.8623
1178.431, 687.6992
1179.518, 485.3682
1180.605, 538.1934
1181.691, 472.8779
1182.778, 391.6484
1183.864, 395.3477
1184.950, 459.1279
1186.036, 510.8711
1187.122, 372.7832
1188.207, 397.6748
1189.292, 365.6328
1190.378, 166.7480
1191.463, 394.8682
1192.548, 429.1582
1193.632, 142.4092
1194.717, 194.5225
1195.801, 188.4951
1196.886, 227.3008
1197.970, 164.2500
1199.054, 199.0254
1200.137, 121.2920
1201.221, 225.0801
1202.305, 185.0566
1203.388, 199.1270
1204.471, 177.1611
1205.554, 34.20215
1206.637, 45.02246
1207.719, 121.8262
1208.802, 56.62891
1209.884, 186.7139
1210.966, 30.52051
1212.048, 68.52344
1213.130, 134.2656
1214.212, 16.05273
1215.293, 142.0137
1216.374, 74.28223
1217.456, 138.8125
1218.536, 50.07324
1219.617, 98.08594
1220.698, 25.47461
1221.778, 5.686523
1222.859, 13.71094
1223.939, 7.975586
1225.019, 165.6162
1226.099, 124.9199
1227.178, 140.4951
1228.258, 79.02441
1229.337, 10.53906
1230.417, 13.53809
1231.496, 71.11426
1232.574, 66.43359
1233.653, 31.05762
1234.732, 23.54395
1235.810, 97.33789
1236.888, 96.09082
1237.966, 110.6699
1239.044, 34.91504
1240.122, 102.4775
1241.199, 7.864258
1242.277, 157.3164
1243.354, 72.68945
1244.431, 108.0547
1245.508, 100.4131
1246.585, 24.76172
1247.661, 44.09961
1248.738, 3.191406
1249.814, 7.247070
1250.890, 10.08008
1251.966, 10.60547
1253.042, 113.1592
1254.117, 41.44531
1255.193, 194.2803
1256.268, 153.0449
1257.343, 86.18945
1258.418, 75.55176
1259.493, 197.5234
1260.567, 9.587891
1261.642, 52.85449
1262.716, 61.10449
1263.790, 121.3369
1264.864, 17.68848
1265.938, 142.5000
1267.011, 170.4316
1268.085, 53.37207
1269.158, 110.2744
1270.231, 68.25000
1271.304, 88.86914
1272.377, 144.9395
1273.450, 117.7334
1274.522, 8.511719
1275.594, 87.26562
1276.666, 4.091797
1277.738, 85.01074
1278.810, 7.893555
1279.882, 16.82227
1280.953, 9.530273
1282.025, 0.9316410
1283.096, 3.884766
1284.167, 13.16895
1285.238, 22.67676
1286.308, 8.839844
1287.379, 17.86719
1288.449, 123.2832
1289.519, 53.87012
1290.589, 25.46191
1291.659, 54.23340
1292.729, 14.00488
1293.798, 205.2100
1294.868, 43.39746
1295.937, 25.43945
1297.006, 27.99219
1298.075, 200.0723
1299.143, 127.6719
1300.212, 105.7090
1301.280, 41.08691
1302.348, 27.15137
1303.416, 43.08691
1304.484, 78.95410
1305.552, 99.82227
1306.620, 99.35449
1307.687, 203.1758
1308.754, 109.4258
1309.821, 231.1973
1310.888, 128.9531
1311.955, 214.6787
1313.021, 132.3789
1314.088, 144.2295
1315.154, 107.2490
1316.220, 115.0391
1317.286, 101.6416
1318.352, 69.35938
1319.417, 70.60645
1320.483, 61.96387
1321.548, 65.12402
1322.613, 77.58301
1323.678, 113.2051
1324.743, 155.6143
1325.807, 123.1377
1326.872, 243.5029
1327.936, 72.99316
1329.000, 309.5273
1330.064, 126.8252
1331.128, 106.1006
1332.191, 116.3535
1333.255, 116.5830
1334.318, 170.7891
1335.381, 249.9600
1336.444, 185.1094
1337.507, 112.2344
1338.569, 204.3350
1339.632, 145.4102
1340.694, 276.4111
1341.756, 252.3457
1342.818, 147.4375
1343.880, 215.0889
1344.941, 108.5137
1346.003, 7.163086
1347.064, 126.0547
1348.125, 402.1016
1349.186, 67.60547
1350.247, 237.6689
1351.308, 138.2334
1352.368, 208.8486
1353.428, 61.58691
1354.489, 263.2979
1355.549, 207.9160
1356.608, 245.5742
1357.668, 30.20801
1358.727, 257.1611
1359.787, 187.7363
1360.846, 344.8281
1361.905, 284.3389
1362.964, 66.82422
1364.022, 183.3535
1365.081, 40.78711
1366.139, 222.1914
1367.197, 280.0762
1368.255, 236.4355
1369.313, 156.5039
1370.371, 235.9355
1371.428, 295.4219
1372.486, 278.6855
1373.543, 274.9277
1374.600, 311.1367
1375.657, 210.0254
1376.713, 260.1543
1377.770, 272.2910
1378.826, 201.2852
1379.882, 12.58594
1380.938, 280.6230
1381.994, 292.6816
1383.050, 133.4219
1384.106, 410.3887
1385.161, 144.3320
1386.216, 179.2695
1387.271, 183.1914
1388.326, 35.87109
1389.381, 271.0352
1390.435, 74.61133
1391.490, 348.4023
1392.544, 110.5840
1393.598, 178.3340
1394.652, 21.93750
1395.705, 196.0371
1396.759, 152.5215
1397.812, 196.1230
1398.866, 218.4570
1399.919, 167.0098
1400.972, 172.5898
1402.024, 192.4375
1403.077, 146.0586
1404.129, 116.5332
1405.181, 78.93164
1406.233, 151.4336
1407.285, 162.3125
1408.337, 270.5664
1409.389, 169.2852
1410.440, 226.2773
1411.491, 226.6484
1412.542, 226.4766
1413.593, 96.38867
1414.644, 169.6875
1415.695, 66.78711
1416.745, 191.5723
1417.795, 170.9609
1418.845, 178.5820
1419.895, 191.3086
1420.945, 194.2598
1421.995, 178.8516
1423.044, 12.96680
