##NAMES=Phillipsite-Ca
##RRUFFID=R050078
##IDEAL CHEMISTRY=Ca_3_(Si_10_Al_6_)O_32_&#183;12H_2_O
##LOCALITY=Grant County, Oregon, USA
##OWNER=RRUFF
##SOURCE=Rock Currier
##DESCRIPTION=White tabular hexagonal
##STATUS=The identification of this mineral has been confirmed by X-ray diffraction and chemical analysis
##URL=rruff.info/R050078
##MEASURED CHEMISTRY=(Ca_0.90_K_0.75_[box]_0.25_Na_0.10_)_Σ=2_(Si_5.35_Al_2.65_)_Σ=8_O_16_·6H_2_O
##PIN_ID=L01141
##ORIENTATION=Laser parallel to (1 0 1). Fiducial mark perpendicular to laser is parallel to -b [0 -1 0]
273.2760, 0.0000000E+00
274.4880, 23.51660
275.7000, 21.01367
276.9120, 0.4648440
278.1230, 50.61719
279.3340, 41.32227
280.5450, 98.48535
281.7560, 259.7080
282.9670, 82.52637
284.1780, 442.0850
285.3880, 284.9277
286.5980, 284.0049
287.8090, 171.4531
289.0190, 191.9395
290.2290, 184.1152
291.4380, 201.7012
292.6480, 140.9463
293.8570, 238.6748
295.0670, 1.758789
296.2760, 276.1973
297.4850, 257.2998
298.6930, 20.93359
299.9020, 129.5615
301.1110, 68.05566
302.3190, 56.56445
303.5270, 77.88867
304.7350, 50.63184
305.9430, 198.4492
307.1510, 94.78516
308.3580, 10.80371
309.5660, 157.4912
310.7730, 173.4189
311.9800, 27.01074
313.1870, 197.7422
314.3940, 170.6094
315.6010, 361.6045
316.8070, 218.7207
318.0130, 203.9492
319.2200, 97.28516
320.4260, 242.7256
321.6310, 319.2637
322.8370, 206.9023
324.0430, 283.6328
325.2480, 185.4551
326.4540, 130.3613
327.6590, 104.3496
328.8640, 24.57812
330.0680, 68.57422
331.2730, 15.19141
332.4780, 20.87500
333.6820, 68.38867
334.8860, 24.00391
336.0900, 21.71484
337.2940, 61.43945
338.4980, 37.91016
339.7010, 14.28516
340.9050, 13.60547
342.1080, 88.59375
343.3110, 2.685547
344.5140, 18.88086
345.7170, 48.81250
346.9200, 14.38477
348.1220, 103.1406
349.3240, 42.75586
350.5270, 38.44922
351.7290, 238.2109
352.9310, 15.03320
354.1320, 100.9121
355.3340, 72.83594
356.5350, 191.7812
357.7370, 123.7559
358.9380, 17.72266
360.1390, 109.7227
361.3400, 279.7441
362.5400, 306.7949
363.7410, 249.8496
364.9410, 231.9375
366.1410, 239.0566
367.3410, 308.2188
368.5410, 365.4219
369.7410, 439.6719
370.9400, 487.2051
372.1400, 655.3027
373.3390, 576.6738
374.5380, 642.0684
375.7370, 671.4590
376.9360, 909.8496
378.1350, 961.2422
379.3330, 964.6738
380.5310, 1090.156
381.7300, 1156.678
382.9280, 1248.322
384.1260, 1369.092
385.3230, 1533.498
386.5210, 1598.205
387.7180, 1892.963
388.9160, 2010.773
390.1130, 2113.631
391.3100, 2263.537
392.5060, 2511.494
393.7030, 2903.500
394.9000, 2703.555
396.0960, 2977.656
397.2920, 3358.807
398.4880, 3469.006
399.6840, 3838.252
400.8800, 4109.586
402.0750, 4371.984
403.2710, 4940.439
404.4660, 5073.969
405.6610, 5568.574
406.8560, 5781.332
408.0510, 6407.264
409.2450, 6900.336
410.4400, 7283.607
411.6340, 7794.584
412.8280, 8220.625
414.0220, 8722.223
415.2160, 9121.934
416.4100, 9735.711
417.6030, 10042.49
418.7970, 10368.01
419.9900, 10504.27
421.1830, 10518.14
422.3760, 10549.20
423.5690, 10529.04
424.7610, 10132.89
425.9540, 10130.64
427.1460, 9652.191
428.3380, 9174.646
429.5300, 8990.066
430.7220, 8847.285
431.9140, 8757.461
433.1050, 8410.562
434.2970, 8332.645
435.4880, 8326.645
436.6790, 8247.398
437.8700, 8395.949
439.0610, 8529.859
440.2510, 8783.883
441.4420, 9185.932
442.6320, 9526.332
443.8220, 9734.266
445.0120, 10238.81
446.2020, 11233.24
447.3910, 11474.67
448.5810, 12171.66
449.7700, 13292.62
450.9600, 13930.17
452.1490, 15134.78
453.3370, 15938.72
454.5260, 17029.79
455.7150, 18067.52
456.9030, 19476.67
458.0910, 20505.86
459.2800, 21516.09
460.4670, 22912.35
461.6550, 23798.66
462.8430, 25052.86
464.0300, 26291.24
465.2180, 27141.67
466.4050, 28074.12
467.5920, 29288.61
468.7790, 30007.13
469.9650, 31307.70
471.1520, 32035.29
472.3380, 32394.91
473.5250, 33403.52
474.7110, 33891.09
475.8970, 34700.47
477.0820, 34918.04
478.2680, 35373.57
479.4540, 35719.34
480.6390, 35576.86
481.8240, 35484.18
483.0090, 35026.06
484.1940, 34467.91
485.3780, 33328.89
486.5630, 32142.78
487.7470, 30751.79
488.9320, 29310.11
490.1160, 27606.84
491.3000, 25970.97
492.4830, 24152.14
493.6670, 22323.33
494.8500, 20401.56
496.0340, 18876.80
497.2170, 16886.08
498.4000, 15712.38
499.5820, 14118.71
500.7650, 12594.06
501.9480, 11551.44
503.1300, 10318.85
504.3120, 9627.285
505.4940, 8529.746
506.6760, 7796.229
507.8580, 7054.738
509.0390, 6594.273
510.2210, 5944.836
511.4020, 5502.424
512.5830, 5146.035
513.7640, 5155.670
514.9450, 4639.328
516.1250, 4566.014
517.3060, 4102.723
518.4860, 4036.451
519.6660, 3968.209
520.8460, 3938.988
522.0260, 3504.793
523.2060, 3459.621
524.3850, 3502.531
525.5650, 3186.426
526.7440, 3359.195
527.9230, 3280.217
529.1020, 3069.471
530.2810, 2979.273
531.4590, 2719.270
532.6380, 2635.840
533.8160, 2709.875
534.9940, 2336.070
536.1720, 2293.898
537.3500, 2026.326
538.5270, 1919.564
539.7050, 1770.510
540.8820, 1703.531
542.0590, 1509.707
543.2360, 1349.646
544.4130, 1410.129
545.5900, 1242.531
546.7660, 1096.338
547.9430, 1103.957
549.1190, 989.8027
550.2950, 877.8047
551.4710, 1031.666
552.6470, 869.1543
553.8220, 746.4668
554.9980, 662.1719
556.1730, 754.7070
557.3480, 619.2754
558.5230, 559.2363
559.6980, 504.9453
560.8730, 300.4922
562.0470, 385.6055
563.2220, 315.6133
564.3960, 530.2773
565.5700, 314.9570
566.7440, 188.6445
567.9170, 246.4668
569.0910, 134.1816
570.2640, 147.9043
571.4380, 145.6367
572.6110, 120.2051
573.7840, 171.1445
574.9570, 175.9160
576.1290, 158.6934
577.3020, 162.5977
578.4740, 141.3730
579.6460, 115.0762
580.8180, 93.90430
581.9900, 52.74414
583.1620, 16.58789
584.3330, 56.45508
585.5040, 116.3301
586.6760, 158.2129
587.8470, 47.10156
589.0180, 15.00195
590.1880, 85.91211
591.3590, 3.830078
592.5290, 134.7539
593.7000, 150.6934
594.8700, 228.6406
596.0400, 180.5938
597.2090, 236.1074
598.3790, 81.52344
599.5490, 249.4961
600.7180, 158.4727
601.8870, 69.45312
603.0560, 167.4375
604.2250, 196.4258
605.3940, 207.4473
606.5620, 197.4922
607.7300, 206.5742
608.8990, 211.6582
610.0670, 192.7656
611.2350, 209.8770
612.4020, 269.9863
613.5700, 218.1074
614.7370, 288.2285
615.9050, 282.3789
617.0720, 247.5352
618.2390, 202.7090
619.4060, 415.9023
620.5720, 50.10156
621.7390, 173.3145
622.9050, 293.5254
624.0710, 520.7344
625.2370, 530.9668
626.4030, 447.1992
627.5690, 324.4277
628.7340, 219.6738
629.9000, 446.9258
631.0650, 545.1719
632.2300, 434.4160
633.3950, 235.6504
634.5600, 192.8848
635.7240, 386.1445
636.8890, 440.3965
638.0530, 409.6426
639.2170, 374.8867
640.3810, 368.1523
641.5450, 223.3535
642.7080, 349.5762
643.8720, 289.7910
645.0350, 381.9980
646.1980, 398.1992
647.3610, 269.4160
648.5240, 385.6309
649.6870, 315.8359
650.8490, 341.0332
652.0120, 507.2168
653.1740, 462.3926
654.3360, 528.5547
655.4980, 218.7148
656.6600, 241.8633
657.8210, 485.0000
658.9830, 232.1289
660.1440, 487.2422
661.3050, 341.3457
662.4660, 218.4785
663.6270, 73.55859
664.7870, 31.06445
665.9480, 43.63477
667.1080, 70.95312
668.2680, 22.30273
669.4280, 6.742188
670.5880, 115.6133
671.7480, 33.32227
672.9070, 115.5527
674.0670, 77.76953
675.2260, 97.14062
676.3850, 41.04102
677.5440, 243.0293
678.7030, 43.20508
679.8610, 41.60352
681.0200, 57.41406
682.1780, 99.48242
683.3360, 122.3945
684.4940, 120.0039
685.6520, 109.3027
686.8090, 72.32422
687.9670, 41.24414
689.1240, 43.33789
690.2810, 77.12109
691.4380, 179.9688
692.5950, 29.20703
693.7520, 114.3398
694.9080, 224.0469
696.0650, 316.1270
697.2210, 97.45312
698.3770, 178.6504
699.5330, 43.46875
700.6880, 90.51562
701.8440, 119.4082
702.9990, 333.2266
704.1550, 373.6641
705.3100, 279.2383
706.4650, 184.2676
707.6190, 395.6367
708.7740, 478.3555
709.9290, 459.3691
711.0830, 646.2129
712.2370, 553.2148
713.3910, 496.0430
714.5450, 495.2480
715.6980, 495.5215
716.8520, 698.8379
718.0050, 661.9570
719.1580, 646.9336
720.3110, 593.9941
721.4640, 602.0254
722.6170, 506.0273
723.7700, 702.0000
724.9220, 762.9453
726.0740, 693.8574
727.2260, 729.7402
728.3780, 635.5957
729.5300, 612.4180
730.6810, 707.1992
731.8330, 698.9609
732.9840, 704.6914
734.1350, 654.3906
735.2860, 678.0605
736.4370, 625.5312
737.5880, 630.8672
738.7380, 565.1582
739.8880, 641.7832
741.0390, 682.2949
742.1890, 717.1211
743.3380, 866.0352
744.4880, 838.5176
745.6380, 920.6641
746.7870, 930.3906
747.9360, 963.6602
749.0850, 1138.080
750.2340, 931.3320
751.3830, 1064.541
752.5310, 1008.924
753.6800, 1139.289
754.8280, 1064.391
755.9760, 1075.461
757.1240, 1292.268
758.2720, 1147.264
759.4190, 1284.225
760.5670, 1200.150
761.7140, 1366.039
762.8610, 1339.812
764.0080, 1151.719
765.1550, 1026.494
766.3020, 1216.994
767.4480, 1117.697
768.5950, 1221.365
769.7410, 1146.992
770.8870, 992.5840
772.0330, 1138.215
773.1780, 1033.088
774.3240, 1112.566
775.4690, 984.0039
776.6140, 1137.984
777.7590, 1097.387
778.9040, 926.7070
780.0490, 818.9961
781.1940, 796.2402
782.3380, 719.5410
783.4820, 825.7656
784.6260, 750.0586
785.7700, 826.0508
786.9140, 831.1016
788.0580, 644.1152
789.2010, 759.0859
790.3450, 533.0195
791.4880, 598.9141
792.6310, 647.2012
793.7730, 555.8965
794.9160, 420.6699
796.0590, 385.4062
797.2010, 326.1035
798.3430, 331.7598
799.4850, 293.3770
800.6270, 367.9551
801.7690, 227.4297
802.9100, 314.9043
804.0520, 544.5195
805.1930, 206.8340
806.3340, 385.8965
807.4750, 69.39258
808.6160, 259.6660
809.7560, 317.3477
810.8970, 206.5449
812.0370, 110.5645
813.1770, 61.92383
814.3170, 21.37500
815.4570, 36.46484
816.5960, 3.650391
817.7360, 0.2851560
818.8750, 18.47852
820.0140, 29.49219
821.1530, 71.92969
822.2920, 46.42188
823.4310, 4.519531
824.5690, 27.31250
825.7070, 76.62695
826.8460, 25.38477
827.9840, 273.2520
829.1220, 221.4707
830.2590, 178.8359
831.3970, 46.20898
832.5340, 42.14062
833.6710, 0.8496090
834.8080, 109.5938
835.9450, 7.148438
837.0820, 71.00977
838.2190, 90.27539
839.3550, 99.62500
840.4910, 9.287109
841.6270, 141.9004
842.7630, 18.51953
843.8990, 265.8809
845.0350, 82.37109
846.1700, 43.82617
847.3060, 13.24609
848.4410, 38.61914
849.5760, 46.70898
850.7100, 256.2598
851.8450, 138.5352
852.9800, 119.7793
854.1140, 201.9922
855.2480, 2.177734
856.3820, 163.3164
857.5160, 231.4258
858.6500, 317.5078
859.7830, 292.5605
860.9170, 427.5898
862.0500, 213.5918
863.1830, 151.5645
864.3160, 326.5117
865.4480, 156.4316
866.5810, 402.3262
867.7130, 206.1953
868.8460, 255.0391
869.9780, 226.8594
871.1100, 157.6504
872.2410, 73.41992
873.3730, 137.1621
874.5050, 104.8789
875.6360, 98.57227
876.7670, 163.2402
877.8980, 30.88477
879.0290, 86.50000
880.1590, 64.96289
881.2900, 108.7949
882.4200, 15.88477
883.5500, 65.76367
884.6800, 65.51953
885.8100, 94.77930
886.9400, 98.01758
888.0690, 42.23242
889.1990, 74.57422
890.3280, 173.5508
891.4570, 123.6562
892.5860, 54.26172
893.7140, 629.7676
894.8430, 336.1523
895.9710, 202.7598
897.1000, 349.7266
898.2280, 93.32617
899.3560, 44.54883
900.4830, 86.40430
901.6110, 77.75977
902.7380, 243.0137
903.8660, 125.7695
904.9930, 159.5098
906.1200, 117.2285
907.2460, 27.93164
908.3730, 125.3828
909.5000, 88.22070
910.6260, 182.8066
911.7520, 15.62500
912.8780, 21.92188
914.0040, 87.45312
915.1290, 25.96680
916.2550, 101.4668
917.3800, 1.947266
918.5050, 4.416016
919.6300, 117.1328
920.7550, 29.75391
921.8800, 11.60352
923.0040, 9.949219
924.1290, 62.27930
925.2530, 19.59766
926.3770, 51.90234
927.5010, 20.80664
928.6250, 34.53320
929.7480, 193.7207
930.8720, 121.9609
931.9950, 190.1719
933.1180, 120.4102
934.2410, 235.6152
935.3640, 188.7676
936.4860, 227.9551
937.6090, 182.8184
938.7310, 1.003906
939.8530, 239.1797
940.9750, 89.97656
942.0970, 344.1406
943.2180, 154.8984
944.3400, 322.9219
945.4610, 192.1152
946.5820, 257.9473
947.7030, 352.9062
948.8240, 383.7188
949.9450, 298.7598
951.0650, 179.8164
952.1860, 318.0547
953.3060, 259.6660
954.4260, 363.4922
955.5460, 474.0977
956.6650, 566.3418
957.7850, 584.3633
958.9040, 627.8008
960.0230, 523.1309
961.1420, 583.9688
962.2610, 438.5801
963.3800, 293.1035
964.4990, 533.6270
965.6170, 566.0762
966.7350, 554.9434
967.8530, 608.0957
968.9710, 498.9805
970.0890, 551.3965
971.2070, 577.3145
972.3240, 618.4043
973.4410, 708.6309
974.5580, 800.9062
975.6750, 805.0293
976.7920, 859.9434
977.9090, 824.0156
979.0250, 896.6641
980.1410, 907.9395
981.2580, 931.9004
982.3740, 806.0078
983.4890, 787.9395
984.6050, 862.0254
985.7200, 698.7129
986.8360, 891.3223
987.9510, 932.8711
989.0660, 730.5957
990.1810, 834.4434
991.2950, 1025.184
992.4100, 779.9316
993.5240, 935.6895
994.6390, 1076.469
995.7530, 925.2734
996.8660, 951.0898
997.9800, 1038.975
999.0940, 1178.928
1000.207, 1244.906
1001.320, 1353.951
1002.433, 1440.002
1003.546, 1094.064
1004.659, 1265.141
1005.772, 1020.240
1006.884, 1059.133
1007.996, 1144.254
1009.108, 1121.322
1010.220, 1369.385
1011.332, 1233.541
1012.444, 1280.363
1013.555, 1081.074
1014.666, 1268.201
1015.777, 1188.643
1016.888, 1464.492
1017.999, 1402.781
1019.110, 1357.896
1020.220, 1572.166
1021.331, 1400.459
1022.441, 1657.561
1023.551, 1618.660
1024.661, 1644.002
1025.770, 1910.361
1026.880, 1659.965
1027.989, 1662.355
1029.098, 1647.768
1030.207, 1794.195
1031.316, 1819.641
1032.425, 1843.182
1033.533, 1907.984
1034.642, 1990.076
1035.750, 1974.840
1036.858, 2058.379
1037.966, 2118.936
1039.073, 2221.514
1040.181, 1873.113
1041.288, 2098.652
1042.396, 2028.934
1043.503, 2082.592
1044.610, 2359.271
1045.716, 2263.393
1046.823, 2175.074
1047.929, 2209.816
1049.036, 2351.582
1050.142, 2242.367
1051.248, 2132.084
1052.353, 2313.857
1053.459, 2276.547
1054.564, 2466.521
1055.670, 2445.420
1056.775, 2557.340
1057.880, 2603.287
1058.985, 2548.256
1060.089, 2792.246
1061.194, 2670.828
1062.298, 2958.988
1063.402, 2902.053
1064.506, 3086.139
1065.610, 3009.250
1066.713, 3032.387
1067.817, 3241.547
1068.920, 3186.734
1070.023, 3361.264
1071.126, 3335.498
1072.229, 3492.727
1073.332, 3738.012
1074.435, 3956.324
1075.537, 3999.285
1076.639, 3900.662
1077.741, 4098.648
1078.843, 3933.426
1079.945, 4018.318
1081.046, 4106.814
1082.148, 4236.348
1083.249, 4194.420
1084.350, 4137.072
1085.451, 4529.770
1086.551, 4382.516
1087.652, 4362.301
1088.752, 4227.119
1089.853, 4382.971
1090.953, 4234.852
1092.053, 4474.775
1093.152, 4428.746
1094.252, 4450.742
1095.351, 4327.773
1096.451, 4298.828
1097.550, 4497.680
1098.649, 4424.783
1099.748, 4351.934
1100.846, 4265.133
1101.945, 4227.369
1103.043, 4193.020
1104.141, 4151.355
1105.239, 3927.811
1106.337, 4069.201
1107.434, 4280.613
1108.532, 4033.289
1109.629, 4168.732
1110.726, 3770.047
1111.823, 3839.758
1112.920, 3795.316
1114.017, 3714.904
1115.113, 3704.523
1116.210, 3673.980
1117.306, 3649.316
1118.402, 3663.541
1119.498, 3631.289
1120.593, 3638.035
1121.689, 3631.801
1122.784, 3662.605
1123.879, 3651.430
1124.974, 3556.279
1126.069, 3351.293
1127.164, 3310.480
1128.259, 3272.402
1129.353, 3368.705
1130.447, 3442.535
1131.541, 3521.518
1132.635, 3198.961
1133.729, 2981.990
1134.822, 3140.039
1135.916, 3058.143
1137.009, 2994.098
1138.102, 2892.238
1139.195, 2851.404
1140.288, 2741.920
1141.380, 2776.795
1142.473, 2528.021
1143.565, 2493.268
1144.657, 2359.885
1145.749, 2480.852
1146.841, 2326.209
1147.932, 2264.908
1149.024, 2260.344
1150.115, 2065.824
1151.206, 2008.824
1152.297, 2113.355
1153.388, 1882.910
1154.479, 1684.486
1155.569, 1623.107
1156.659, 1651.746
1157.750, 1782.404
1158.839, 1524.100
1159.929, 1455.816
1161.019, 1495.551
1162.108, 1367.305
1163.198, 1210.076
1164.287, 1316.893
1165.376, 1284.729
1166.465, 1237.586
1167.553, 1242.482
1168.642, 1094.396
1169.730, 846.3301
1170.818, 860.2832
1171.906, 874.2520
1172.994, 712.2402
1174.082, 827.2871
1175.170, 526.3496
1176.257, 639.4297
1177.344, 614.5332
1178.431, 673.6504
1179.518, 336.7871
1180.605, 467.9375
1181.691, 354.1074
1182.778, 579.2969
1183.864, 540.4980
1184.950, 232.7480
1186.036, 203.0176
1187.122, 94.30273
1188.207, 165.6055
1189.292, 311.9219
1190.378, 303.2539
1191.463, 204.6035
1192.548, 83.97070
1193.632, 99.35742
1194.717, 93.75977
1195.801, 76.17578
1196.886, 182.6074
1197.970, 142.0547
1199.054, 21.51758
1200.137, 17.00781
1201.221, 135.4805
1202.305, 98.98242
1203.388, 228.4961
1204.471, 155.0273
1205.554, 94.77539
1206.637, 105.7480
1207.719, 91.78125
1208.802, 15.26367
1209.884, 125.7363
1210.966, 99.75586
1212.048, 19.25781
1213.130, 19.22656
1214.212, 28.83398
1215.293, 66.36914
1216.374, 16.91211
1217.456, 35.47070
1218.536, 81.00977
1219.617, 207.6172
1220.698, 118.2070
1221.778, 142.8086
1222.859, 8.466797
1223.939, 28.08984
1225.019, 126.7207
1226.099, 38.36133
1227.178, 42.98438
1228.258, 187.6582
1229.337, 109.3105
1230.417, 11.02539
1231.496, 74.69727
1232.574, 7.613281
1233.653, 143.0801
1234.732, 0.7988280
1235.810, 124.5195
1236.888, 92.25000
1237.966, 31.67969
1239.044, 1.183594
1240.122, 36.42578
1241.199, 0.3203130
1242.277, 55.07031
1243.354, 49.84961
1244.431, 116.6367
1245.508, 64.43164
1246.585, 1.763672
1247.661, 48.95703
1248.738, 7.832031
1249.814, 155.6641
1250.890, 101.4980
1251.966, 144.3398
1253.042, 34.18750
1254.117, 244.0391
1255.193, 53.10547
1256.268, 55.26953
1257.343, 39.53906
1258.418, 233.6484
1259.493, 224.9551
1260.567, 47.37500
1261.642, 200.8164
1262.716, 122.7070
1263.790, 330.2812
1264.864, 213.2207
1265.938, 39.31250
1267.011, 87.13281
1268.085, 114.5840
1269.158, 140.0391
1270.231, 35.56445
1271.304, 135.0898
1272.377, 198.6895
1273.450, 382.1602
1274.522, 547.6309
1275.594, 202.1094
1276.666, 6.414063
1277.738, 55.24023
1278.810, 93.70703
1279.882, 11.66211
1280.953, 38.12891
1282.025, 105.4004
1283.096, 214.8750
1284.167, 168.7168
1285.238, 64.82227
1286.308, 69.29492
1287.379, 58.94727
1288.449, 67.58789
1289.519, 117.0566
1290.589, 139.5273
1291.659, 198.9941
1292.729, 122.6973
1293.798, 177.2402
1294.868, 108.8516
1295.937, 101.3105
1297.006, 254.7695
1298.075, 72.64258
1299.143, 56.09570
1300.212, 96.54297
1301.280, 387.9902
1302.348, 174.0059
1303.416, 303.4434
1304.484, 202.8789
1305.552, 248.3086
1306.620, 129.7344
1307.687, 122.1543
1308.754, 155.5684
1309.821, 108.5703
1310.888, 243.3848
1311.955, 172.7852
1313.021, 204.1797
1314.088, 375.5684
1315.154, 261.9512
1316.220, 434.3379
1317.286, 378.7188
1318.352, 517.0938
1319.417, 374.4629
1320.483, 357.8242
1321.548, 129.1777
1322.613, 180.2500
1323.678, 329.8613
1324.743, 212.1953
1325.807, 322.5312
1326.872, 314.8633
1327.936, 305.1934
1329.000, 280.1973
1330.064, 324.5020
1331.128, 86.80469
1332.191, 160.1016
1333.255, 33.37695
1334.318, 177.0254
1335.381, 10.70898
1336.444, 188.9668
1337.507, 94.87500
1338.569, 362.6895
1339.632, 76.92578
1340.694, 229.1582
1341.756, 40.10547
1342.818, 291.0996
1343.880, 84.30078
1344.941, 139.4961
1346.003, 157.6895
1347.064, 134.8789
1348.125, 155.0625
1349.186, 108.4414
1350.247, 53.61523
1351.308, 265.7832
1352.368, 304.9473
1353.428, 258.1230
1354.489, 573.2559
1355.549, 136.6309
1356.608, 134.7754
1357.668, 56.87109
1358.727, 293.9648
1359.787, 120.5000
1360.846, 89.23242
1361.905, 288.5859
1362.964, 137.5703
1364.022, 164.6387
1365.081, 62.81055
1366.139, 214.8398
1367.197, 214.4395
1368.255, 325.6602
1369.313, 360.8945
1370.371, 145.9766
1371.428, 358.1211
1372.486, 332.4141
1373.543, 172.2344
1374.600, 253.8770
1375.657, 275.7383
1376.713, 188.4121
1377.770, 228.3691
1378.826, 188.3184
1379.882, 250.2656
1380.938, 281.2090
1381.994, 198.1445
1383.050, 305.9375
1384.106, 337.5723
1385.161, 216.6387
1386.216, 254.3027
1387.271, 191.2598
1388.326, 190.5039
1389.381, 52.97266
1390.435, 43.53711
1391.490, 96.22070
1392.544, 175.0039
1393.598, 193.3965
1394.652, 331.2598
1395.705, 183.1191
1396.759, 58.97656
1397.812, 60.83203
1398.866, 44.64062
1399.919, 139.6777
1400.972, 101.7578
1402.024, 256.6035
1403.077, 189.4453
1404.129, 42.00195
1405.181, 339.8086
1406.233, 16.11133
1407.285, 125.1465
1408.337, 5.130859
1409.389, 117.7266
1410.440, 306.3574
1411.491, 184.9668
1412.542, 136.5625
1413.593, 35.05273
1414.644, 161.5020
1415.695, 268.9395
1416.745, 163.3691
1417.795, 295.9434
1418.845, 47.34375
1419.895, 79.72852
1420.945, 64.09180
1421.995, 172.4355
1423.044, 124.7637
1424.093, 35.07422
1425.142, 156.3320
1426.191, 321.5723
1427.240, 156.7871
1428.289, 2.5390999E-02
