##NAMES=Phillipsite-Ca
##RRUFFID=R050078
##IDEAL CHEMISTRY=Ca_3_(Si_10_Al_6_)O_32_&#183;12H_2_O
##LOCALITY=Grant County, Oregon, USA
##OWNER=RRUFF
##SOURCE=Rock Currier
##DESCRIPTION=White tabular hexagonal
##STATUS=The identification of this mineral has been confirmed by X-ray diffraction and chemical analysis
##URL=rruff.info/R050078
##MEASURED CHEMISTRY=(Ca_0.90_K_0.75_[box]_0.25_Na_0.10_)_Σ=2_(Si_5.35_Al_2.65_)_Σ=8_O_16_·6H_2_O
##PIN_ID=L00730
##ORIENTATION=Laser parallel to -c* (0 0 -1). Fiducial mark perpendicular to laser is parallel to a [1 0 0]
241.7140, 0.0000000E+00
242.9300, 89.74023
244.1460, 74.10156
245.3610, 54.59180
246.5770, 193.1855
247.7920, 88.97656
249.0070, 207.6777
250.2220, 15.89062
251.4370, 116.9316
252.6510, 294.1543
253.8660, 172.7324
255.0800, 129.5039
256.2940, 249.1426
257.5080, 379.1250
258.7220, 349.9492
259.9360, 395.1035
261.1490, 361.0703
262.3630, 359.8809
263.5760, 190.6211
264.7890, 161.0801
266.0020, 8.826172
267.2150, 38.24219
268.4270, 121.2480
269.6400, 69.08008
270.8520, 151.7441
272.0640, 396.4453
273.2760, 73.20117
274.4880, 58.73828
275.7000, 34.96484
276.9120, 275.9453
278.1230, 209.8047
279.3340, 241.6680
280.5450, 48.65039
281.7560, 134.8457
282.9670, 368.3320
284.1780, 205.1816
285.3880, 139.4434
286.5980, 249.1699
287.8090, 143.4531
289.0190, 225.1348
290.2290, 136.1621
291.4380, 314.9062
292.6480, 343.2168
293.8570, 397.2520
295.0670, 546.3496
296.2760, 565.6094
297.4850, 608.8203
298.6930, 659.2891
299.9020, 665.9727
301.1110, 713.9805
302.3190, 742.4453
303.5270, 800.6406
304.7350, 786.9434
305.9430, 816.8047
307.1510, 769.9180
308.3580, 736.0781
309.5660, 762.4980
310.7730, 764.6250
311.9800, 821.3594
313.1870, 821.7812
314.3940, 765.2754
315.6010, 764.0293
316.8070, 720.9922
318.0130, 746.5859
319.2200, 746.5293
320.4260, 772.6875
321.6310, 805.1309
322.8370, 737.6602
324.0430, 813.2637
325.2480, 789.9316
326.4540, 751.6348
327.6590, 589.2988
328.8640, 716.9961
330.0680, 659.7090
331.2730, 745.4082
332.4780, 455.1074
333.6820, 617.8066
334.8860, 474.4941
336.0900, 217.1895
337.2940, 570.8848
338.4980, 183.5820
339.7010, 455.2969
340.9050, 156.0371
342.1080, 257.8184
343.3110, 119.6367
344.5140, 23.46484
345.7170, 16.53125
346.9200, 184.6074
348.1220, 238.6113
349.3240, 14.56445
350.5270, 40.44727
351.7290, 81.32227
352.9310, 185.1973
354.1320, 13.08008
355.3340, 62.01953
356.5350, 110.1074
357.7370, 96.18555
358.9380, 148.2461
360.1390, 88.28320
361.3400, 80.29297
362.5400, 89.53320
363.7410, 114.6309
364.9410, 81.07031
366.1410, 171.8262
367.3410, 157.2734
368.5410, 235.1953
369.7410, 202.5352
370.9400, 395.4004
372.1400, 478.2246
373.3390, 564.5430
374.5380, 268.7598
375.7370, 615.4668
376.9360, 620.1543
378.1350, 518.8184
379.3330, 735.4805
380.5310, 994.1367
381.7300, 1074.791
382.9280, 985.4492
384.1260, 1347.117
385.3230, 1212.785
386.5210, 1397.365
387.7180, 1709.318
388.9160, 1733.609
390.1130, 1875.148
391.3100, 2185.193
392.5060, 2363.510
393.7030, 2393.984
394.9000, 2610.344
396.0960, 3000.957
397.2920, 2838.770
398.4880, 3038.906
399.6840, 3466.562
400.8800, 3526.465
402.0750, 3644.275
403.2710, 3784.840
404.4660, 4089.273
405.6610, 4160.537
406.8560, 4640.686
408.0510, 4732.172
409.2450, 4776.402
410.4400, 5430.312
411.6340, 5765.344
412.8280, 6005.051
414.0220, 6336.170
415.2160, 6788.795
416.4100, 7142.186
417.6030, 7336.857
418.7970, 7700.211
419.9900, 7897.051
421.1830, 8008.666
422.3760, 7998.924
423.5690, 8252.240
424.7610, 8103.889
425.9540, 7915.449
427.1460, 8026.105
428.3380, 7838.578
429.5300, 7777.998
430.7220, 7822.363
431.9140, 7801.715
433.1050, 7881.240
434.2970, 7895.354
435.4880, 7870.980
436.6790, 8331.578
437.8700, 8671.309
439.0610, 8750.207
440.2510, 9259.746
441.4420, 9892.715
442.6320, 10288.93
443.8220, 10913.62
445.0120, 11672.96
446.2020, 12565.56
447.3910, 13647.27
448.5810, 14589.84
449.7700, 15686.82
450.9600, 16806.27
452.1490, 17914.89
453.3370, 19170.14
454.5260, 20379.34
455.7150, 21567.72
456.9030, 23115.96
458.0910, 24580.79
459.2800, 25883.25
460.4670, 27231.47
461.6550, 28618.71
462.8430, 29870.95
464.0300, 31151.74
465.2180, 32041.30
466.4050, 33118.85
467.5920, 34036.38
468.7790, 34498.80
469.9650, 34937.04
471.1520, 35134.71
472.3380, 35523.06
473.5250, 35897.56
474.7110, 35760.75
475.8970, 35404.89
477.0820, 35523.02
478.2680, 35399.10
479.4540, 35142.82
480.6390, 34278.79
481.8240, 34187.10
483.0090, 32720.77
484.1940, 31881.10
485.3780, 30987.95
486.5630, 29982.72
487.7470, 28194.96
488.9320, 26532.50
490.1160, 24942.54
491.3000, 23219.42
492.4830, 21664.54
493.6670, 20052.87
494.8500, 18544.58
496.0340, 16745.81
497.2170, 15447.94
498.4000, 13784.17
499.5820, 12888.14
500.7650, 11581.91
501.9480, 10677.12
503.1300, 9479.754
504.3120, 8769.305
505.4940, 7937.982
506.6760, 7229.219
507.8580, 6884.826
509.0390, 6202.998
510.2210, 5653.369
511.4020, 5548.184
512.5830, 5019.873
513.7640, 4736.375
514.9450, 4615.172
516.1250, 4215.967
517.3060, 4033.977
518.4860, 3836.771
519.6660, 3735.572
520.8460, 3543.773
522.0260, 3480.996
523.2060, 3393.020
524.3850, 3246.004
525.5650, 3204.963
526.7440, 3061.332
527.9230, 2878.586
529.1020, 2809.371
530.2810, 2684.436
531.4590, 2548.264
532.6380, 2334.973
533.8160, 2407.660
534.9940, 2295.346
536.1720, 2214.027
537.3500, 1835.719
538.5270, 1747.428
539.7050, 1496.123
540.8820, 1352.324
542.0590, 1432.545
543.2360, 1181.244
544.4130, 1214.191
545.5900, 1264.855
546.7660, 1049.520
547.9430, 986.2070
549.1190, 884.8867
550.2950, 902.5566
551.4710, 792.2461
552.6470, 622.9336
553.8220, 600.7227
554.9980, 433.5879
556.1730, 565.3867
557.3480, 575.1758
558.5230, 503.9688
559.6980, 368.7539
560.8730, 276.5371
562.0470, 333.3184
563.2220, 225.1270
564.3960, 500.9453
565.5700, 374.7734
566.7440, 234.5977
567.9170, 339.4180
569.0910, 72.22656
570.2640, 330.0215
571.4380, 117.8105
572.6110, 337.5879
573.7840, 28.35547
574.9570, 2.865234
576.1290, 62.89844
577.3020, 79.64648
578.4740, 32.37891
579.6460, 36.90625
580.8180, 32.22070
581.9900, 25.56055
583.1620, 33.92773
584.3330, 45.94141
585.5040, 110.7500
586.6760, 21.24219
587.8470, 68.75977
589.0180, 76.67773
590.1880, 2.900391
591.3590, 99.50391
592.5290, 117.1055
593.7000, 39.77734
594.8700, 94.47852
596.0400, 115.7637
597.2090, 127.0098
598.3790, 29.85742
599.5490, 19.73047
600.7180, 12.62891
601.8870, 13.54883
603.0560, 13.47656
604.2250, 12.49219
605.3940, 65.60352
606.5620, 66.61914
607.7300, 69.61523
608.8990, 94.59375
610.0670, 14.44531
611.2350, 34.49023
612.4020, 105.4102
613.5700, 68.49414
614.7370, 145.1992
615.9050, 69.08594
617.0720, 153.9551
618.2390, 105.8086
619.4060, 152.2559
620.5720, 314.4727
621.7390, 189.2832
622.9050, 237.1172
624.0710, 137.9375
625.2370, 241.7480
626.4030, 219.5469
627.5690, 13.65625
628.7340, 199.1738
629.9000, 418.0469
631.0650, 146.0059
632.2300, 118.0703
633.3950, 163.1660
634.5600, 360.3125
635.7240, 270.4883
636.8890, 175.7227
638.0530, 170.9629
639.2170, 160.9199
640.3810, 174.4238
641.5450, 239.6406
642.7080, 303.8945
643.8720, 376.1523
645.0350, 235.3984
646.1980, 131.6328
647.3610, 293.8574
648.5240, 28.06836
649.6870, 437.2598
650.8490, 327.4375
652.0120, 292.5996
653.1740, 326.8047
654.3360, 335.5625
655.4980, 277.7246
656.6600, 320.5840
657.8210, 221.1191
658.9830, 234.7344
660.1440, 102.1074
661.3050, 98.61328
662.4660, 146.3594
663.6270, 157.0117
664.7870, 165.5879
665.9480, 415.3789
667.1080, 295.3691
668.2680, 344.5527
669.4280, 135.0664
670.5880, 184.7656
671.7480, 219.5254
672.9070, 246.7285
674.0670, 289.8301
675.2260, 226.1523
676.3850, 344.9004
677.5440, 222.1250
678.7030, 319.0840
679.8610, 475.4141
681.0200, 283.9355
682.1780, 443.1230
683.3360, 180.6426
684.4940, 277.9238
685.6520, 321.3594
686.8090, 440.3066
687.9670, 291.1270
689.1240, 276.4785
690.2810, 554.9180
691.4380, 352.2363
692.5950, 242.3711
693.7520, 254.8262
694.9080, 521.3105
696.0650, 567.4531
697.2210, 481.7461
698.3770, 641.4199
699.5330, 454.4043
700.6880, 626.9004
701.8440, 808.8867
702.9990, 558.8613
704.1550, 761.4102
705.3100, 574.9629
706.4650, 622.8965
707.6190, 931.4648
708.7740, 918.1367
709.9290, 858.0625
711.0830, 993.3457
712.2370, 720.2227
713.3910, 809.9082
714.5450, 843.3887
715.6980, 937.9980
716.8520, 772.5879
718.0050, 956.0176
719.1580, 1030.000
720.3110, 744.1055
721.4640, 961.4355
722.6170, 877.3008
723.7700, 1018.402
724.9220, 847.8262
726.0740, 1103.600
727.2260, 1075.182
728.3780, 864.8477
729.5300, 794.6660
730.6810, 977.4355
731.8330, 1047.832
732.9840, 926.1484
734.1350, 884.9609
735.2860, 830.9570
736.4370, 1088.949
737.5880, 720.8223
738.7380, 903.5410
739.8880, 1012.646
741.0390, 740.3105
742.1890, 858.8184
743.3380, 842.3867
744.4880, 999.5391
745.6380, 1005.090
746.7870, 975.1250
747.9360, 1004.227
749.0850, 1048.479
750.2340, 1149.016
751.3830, 1154.518
752.5310, 1309.377
753.6800, 1231.566
754.8280, 1387.330
755.9760, 1011.527
757.1240, 1219.793
758.2720, 1257.787
759.4190, 1152.008
760.5670, 1276.221
761.7140, 1331.398
762.8610, 1278.643
764.0080, 1145.594
765.1550, 1152.160
766.3020, 1161.113
767.4480, 1086.988
768.5950, 1021.000
769.7410, 1045.625
770.8870, 901.2930
772.0330, 1026.389
773.1780, 755.4316
774.3240, 832.1113
775.4690, 881.5605
776.6140, 1117.523
777.7590, 798.0879
778.9040, 907.6816
780.0490, 761.2598
781.1940, 718.8477
782.3380, 585.0742
783.4820, 514.2500
784.6260, 371.2402
785.7700, 524.3203
786.9140, 578.6582
788.0580, 567.7598
789.2010, 431.0996
790.3450, 683.7031
791.4880, 225.5410
792.6310, 373.3242
793.7730, 190.1230
794.9160, 262.8027
796.0590, 237.4727
797.2010, 290.0469
798.3430, 263.1621
799.4850, 175.2090
800.6270, 203.0977
801.7690, 69.70312
802.9100, 156.8457
804.0520, 110.0820
805.1930, 45.25977
806.3340, 14.36914
807.4750, 153.0957
808.6160, 130.9727
809.7560, 76.88477
810.8970, 14.26562
812.0370, 2.490234
813.1770, 25.96680
814.3170, 18.28516
815.4570, 14.83984
816.5960, 37.47266
817.7360, 57.21484
818.8750, 201.9258
820.0140, 115.0137
821.1530, 162.7812
822.2920, 22.75586
823.4310, 100.3477
824.5690, 34.41211
825.7070, 112.1016
826.8460, 63.26562
827.9840, 103.2500
829.1220, 47.71094
830.2590, 225.9922
831.3970, 147.9180
832.5340, 107.1133
833.6710, 3.910156
834.8080, 198.9785
835.9450, 39.81836
837.0820, 220.5957
838.2190, 83.68164
839.3550, 21.07812
840.4910, 31.57031
841.6270, 164.8438
842.7630, 74.20703
843.8990, 139.5156
845.0350, 208.7715
846.1700, 57.98242
847.3060, 87.13867
848.4410, 260.2422
849.5760, 56.70117
850.7100, 104.2578
851.8450, 149.1680
852.9800, 159.0332
854.1140, 138.8496
855.2480, 142.9805
856.3820, 148.3516
857.5160, 144.0469
858.6500, 164.8574
859.7830, 211.7129
860.9170, 194.8945
862.0500, 299.4551
863.1830, 301.9824
864.3160, 274.4863
865.4480, 112.9473
866.5810, 238.3672
867.7130, 5.748047
868.8460, 131.0977
869.9780, 348.4102
871.1100, 154.7070
872.2410, 175.9609
873.3730, 51.20312
874.5050, 167.4062
875.6360, 119.5762
876.7670, 36.29102
877.8980, 312.7676
879.0290, 73.79297
880.1590, 214.7754
881.2900, 108.7227
882.4200, 283.6289
883.5500, 255.5020
884.6800, 219.3359
885.8100, 33.13672
886.9400, 100.8984
888.0690, 205.6191
889.1990, 45.69531
890.3280, 254.9160
891.4570, 174.4961
892.5860, 98.03906
893.7140, 247.5430
894.8430, 169.0156
895.9710, 100.5488
897.1000, 153.7871
898.2280, 74.08789
899.3560, 189.3496
900.4830, 1.419922
901.6110, 88.23438
902.7380, 121.1309
903.8660, 109.1348
904.9930, 123.5527
906.1200, 96.13281
907.2460, 117.7227
908.3730, 53.88867
909.5000, 14.53711
910.6260, 224.9941
911.7520, 10.49609
912.8780, 80.96094
914.0040, 73.39453
915.1290, 185.2051
916.2550, 43.93164
917.3800, 216.2891
918.5050, 185.4785
919.6300, 98.64062
920.7550, 221.7734
921.8800, 155.8809
923.0040, 88.96289
924.1290, 16.01562
925.2530, 219.9629
926.3770, 217.9219
927.5010, 532.2051
928.6250, 84.03711
929.7480, 306.1250
930.8720, 81.49219
931.9950, 233.7344
933.1180, 333.1719
934.2410, 265.4746
935.3640, 238.3945
936.4860, 44.40820
937.6090, 204.4512
938.7310, 249.2305
939.8530, 300.7676
940.9750, 65.06445
942.0970, 211.9844
943.2180, 313.6777
944.3400, 326.2617
945.4610, 504.3711
946.5820, 458.1074
947.7030, 456.4395
948.8240, 479.8672
949.9450, 447.7812
951.0650, 595.9121
952.1860, 673.6289
953.3060, 342.1191
954.4260, 619.8984
955.5460, 548.3008
956.6650, 536.8984
957.7850, 641.3008
958.9040, 651.1484
960.0230, 664.0820
961.1420, 705.4395
962.2610, 682.6992
963.3800, 581.0684
964.4990, 595.5742
965.6170, 756.7207
966.7350, 615.8340
967.8530, 758.2695
968.9710, 623.5215
970.0890, 797.3594
971.2070, 1075.852
972.3240, 921.7969
973.4410, 750.2148
974.5580, 826.6055
975.6750, 1026.381
976.7920, 905.1133
977.9090, 1010.428
979.0250, 1027.066
980.1410, 993.0039
981.2580, 1175.207
982.3740, 1124.652
983.4890, 1077.828
984.6050, 1129.422
985.7200, 1011.965
986.8360, 1280.707
987.9510, 1300.498
989.0660, 1505.219
990.1810, 1218.967
991.2950, 1300.752
992.4100, 1295.527
993.5240, 1298.418
994.6390, 1205.518
995.7530, 1559.590
996.8660, 1488.992
997.9800, 1656.400
999.0940, 1337.816
1000.207, 1348.658
1001.320, 1619.041
1002.433, 1675.584
1003.546, 1584.547
1004.659, 1440.029
1005.772, 1638.123
1006.884, 1456.322
1007.996, 1658.014
1009.108, 1684.207
1010.220, 1767.221
1011.332, 1675.621
1012.444, 1701.152
1013.555, 1856.045
1014.666, 1711.547
1015.777, 2056.627
1016.888, 1954.203
1017.999, 1806.789
1019.110, 1668.396
1020.220, 2107.248
1021.331, 2233.443
1022.441, 2016.098
1023.551, 2180.738
1024.661, 2062.551
1025.770, 2199.258
1026.880, 2345.666
1027.989, 2632.535
1029.098, 2535.775
1030.207, 2501.064
1031.316, 2410.824
1032.425, 2373.273
1033.533, 2375.209
1034.642, 2579.285
1035.750, 2611.188
1036.858, 2346.113
1037.966, 2651.875
1039.073, 2468.812
1040.181, 2440.566
1041.288, 2460.051
1042.396, 2543.695
1043.503, 2677.676
1044.610, 2886.793
1045.716, 2472.348
1046.823, 2887.234
1047.929, 2452.117
1049.036, 2471.070
1050.142, 2883.988
1051.248, 2622.273
1052.353, 2804.574
1053.459, 2786.781
1054.564, 2787.125
1055.670, 2595.488
1056.775, 2750.766
1057.880, 2788.781
1058.985, 3225.516
1060.089, 3028.992
1061.194, 3321.492
1062.298, 3147.945
1063.402, 3188.492
1064.506, 3273.023
1065.610, 3587.621
1066.713, 3581.242
1067.817, 3859.891
1068.920, 3488.566
1070.023, 3693.145
1071.126, 4079.875
1072.229, 3712.637
1073.332, 3933.430
1074.435, 4104.258
1075.537, 3829.121
1076.639, 4104.023
1077.741, 4435.832
1078.843, 4424.789
1079.945, 4386.793
1081.046, 4265.844
1082.148, 4373.953
1083.249, 4419.109
1084.350, 4336.309
1085.451, 4508.223
1086.551, 4387.539
1087.652, 4735.887
1088.752, 4626.266
1089.853, 4459.668
1090.953, 4621.117
1092.053, 4751.633
1093.152, 4501.188
1094.252, 4523.824
1095.351, 4359.816
1096.451, 4402.492
1097.550, 4230.203
1098.649, 4424.680
1099.748, 4479.031
1100.846, 4297.625
1101.945, 4488.926
1103.043, 4309.922
1104.141, 4053.480
1105.239, 4210.539
1106.337, 4173.656
1107.434, 3968.824
1108.532, 4284.047
1109.629, 4142.293
1110.726, 4013.566
1111.823, 3900.871
1112.920, 3962.199
1114.017, 3995.559
1115.113, 4015.945
1116.210, 4041.359
1117.306, 3920.824
1118.402, 3791.320
1119.498, 3528.848
1120.593, 3686.395
1121.689, 3885.973
1122.784, 3701.574
1123.879, 3708.211
1124.974, 3446.148
1126.069, 3446.832
1127.164, 3246.785
1128.259, 3095.000
1129.353, 3042.617
1130.447, 2950.852
1131.541, 2884.445
1132.635, 2942.316
1133.729, 2865.207
1134.822, 2939.129
1135.916, 2698.082
1137.009, 3017.051
1138.102, 2651.051
1139.195, 2547.070
1140.288, 2540.121
1141.380, 2658.188
1142.473, 2383.289
1143.565, 2318.703
1144.657, 2244.715
1145.749, 2155.535
1146.841, 2047.133
1147.932, 2130.379
1149.024, 2047.648
1150.115, 2092.320
1151.206, 1755.633
1152.297, 1520.801
1153.388, 1780.164
1154.479, 1948.543
1155.569, 1519.656
1156.659, 1662.102
1157.750, 1657.562
1158.839, 1362.113
1159.929, 1360.953
1161.019, 1266.473
1162.108, 1272.945
1163.198, 1155.656
1164.287, 1321.277
1165.376, 1223.918
1166.465, 1025.582
1167.553, 1206.336
1168.642, 1054.832
1169.730, 890.6445
1170.818, 989.5508
1171.906, 822.9102
1172.994, 956.0078
1174.082, 755.0625
1175.170, 783.1445
1176.257, 689.2461
1177.344, 782.3633
1178.431, 736.4961
1179.518, 536.4258
1180.605, 809.6445
1181.691, 598.2773
1182.778, 456.5352
1183.864, 353.8086
1184.950, 332.3281
1186.036, 280.9180
1187.122, 341.9453
1188.207, 323.9180
1189.292, 407.9375
1190.378, 527.3516
1191.463, 557.7773
1192.548, 559.6055
1193.632, 65.66797
1194.717, 433.1328
1195.801, 293.6133
1196.886, 96.10547
1197.970, 491.6406
1199.054, 189.1562
1200.137, 306.6797
1201.221, 154.2148
1202.305, 163.7656
1203.388, 105.3242
1204.471, 239.8945
1205.554, 256.4766
1206.637, 81.07031
1207.719, 95.32422
1208.802, 196.2617
1209.884, 97.85547
1210.966, 81.45703
1212.048, 52.07031
1213.130, 125.6953
1214.212, 182.3242
1215.293, 31.89844
1216.374, 188.7383
1217.456, 110.3828
1218.536, 218.0391
1219.617, 480.6992
1220.698, 625.3711
1221.778, 141.0430
1222.859, 505.7266
1223.939, 137.5859
1225.019, 140.9453
1226.099, 316.6406
1227.178, 180.3320
1228.258, 158.0703
1229.337, 121.5391
1230.417, 50.05078
1231.496, 41.53516
1232.574, 11.92578
1233.653, 65.61328
1234.732, 198.8359
1235.810, 16.35547
1236.888, 218.8047
1237.966, 40.25391
1239.044, 79.71094
1240.122, 166.1602
1241.199, 5.617188
1242.277, 158.0742
1243.354, 121.5273
1244.431, 228.9844
1245.508, 139.4414
1246.585, 210.8945
1247.661, 178.3516
1248.738, 45.81250
1249.814, 240.2656
1250.890, 124.7188
1251.966, 254.1758
1253.042, 107.6328
1254.117, 58.91406
1255.193, 90.50781
1256.268, 104.0742
1257.343, 24.71484
1258.418, 12.37500
1259.493, 0.9531250
1260.567, 158.7227
1261.642, 155.1953
1262.716, 302.4180
1263.790, 174.6406
1264.864, 152.0547
1265.938, 227.2656
1267.011, 24.48047
1268.085, 101.6914
1269.158, 212.0820
1270.231, 247.2812
1271.304, 75.48047
1272.377, 5.324219
1273.450, 28.95312
1274.522, 203.1875
1275.594, 316.3203
1276.666, 346.4531
1277.738, 66.18750
1278.810, 16.57422
1279.882, 260.5156
1280.953, 117.4062
1282.025, 272.5898
1283.096, 70.42188
1284.167, 319.4961
1285.238, 167.2422
1286.308, 339.1367
1287.379, 52.14062
1288.449, 30.52344
1289.519, 93.17969
1290.589, 157.4375
1291.659, 158.0742
1292.729, 202.3438
1293.798, 103.3203
1294.868, 224.9297
1295.937, 66.75000
1297.006, 29.35156
1298.075, 126.2266
1299.143, 73.80078
1300.212, 49.52734
1301.280, 36.92969
1302.348, 356.6875
1303.416, 270.1641
1304.484, 302.8633
1305.552, 254.0859
1306.620, 311.5312
1307.687, 9.035156
1308.754, 115.3477
1309.821, 49.28125
1310.888, 225.0195
1311.955, 336.3086
1313.021, 77.58203
1314.088, 300.8555
1315.154, 161.1133
1316.220, 1.640625
1317.286, 63.55469
1318.352, 322.7305
1319.417, 506.8945
1320.483, 531.0391
1321.548, 410.1719
1322.613, 425.2852
1323.678, 349.3828
1324.743, 294.4688
1325.807, 134.5430
1326.872, 171.6055
1327.936, 269.6523
1329.000, 398.6875
1330.064, 302.7031
1331.128, 239.7109
1332.191, 243.6992
1333.255, 243.6797
1334.318, 294.6445
1335.381, 272.0430
1336.444, 477.6445
1337.507, 209.5625
1338.569, 301.4648
1339.632, 186.3594
1340.694, 349.2344
1341.756, 413.0977
1342.818, 129.9453
1343.880, 491.1211
1344.941, 457.9453
1346.003, 198.7500
1347.064, 328.5391
1348.125, 319.3164
1349.186, 355.0742
1350.247, 349.8203
1351.308, 416.5469
1352.368, 370.2109
1353.428, 362.8750
1354.489, 138.2461
1355.549, 357.9141
1356.608, 455.8594
1357.668, 555.9961
1358.727, 142.9062
1359.787, 393.1445
1360.846, 267.6914
1361.905, 428.6758
1362.964, 135.1719
1364.022, 448.6523
1365.081, 406.1133
1366.139, 319.5625
1367.197, 331.0000
1368.255, 341.4219
1369.313, 449.8242
1370.371, 358.8125
1371.428, 183.5664
1372.486, 248.9180
1373.543, 320.2539
1374.600, 332.5742
1375.657, 466.7969
1376.713, 367.9531
1377.770, 470.0977
1378.826, 275.0859
1379.882, 207.1992
1380.938, 422.2969
1381.994, 570.1016
1383.050, 395.1680
1384.106, 171.9805
1385.161, 347.5391
1386.216, 224.7070
1387.271, 367.4336
1388.326, 71.51953
1389.381, 198.4336
1390.435, 414.3711
1391.490, 109.4180
1392.544, 188.4219
1393.598, 315.6211
1394.652, 169.5039
1395.705, 112.3750
1396.759, 198.2305
1397.812, 192.2500
1398.866, 209.2812
1399.919, 0.8046880
1400.972, 278.7539
