##NAMES=Phillipsite-Ca
##RRUFFID=R050078
##IDEAL CHEMISTRY=Ca_3_(Si_10_Al_6_)O_32_&#183;12H_2_O
##LOCALITY=Grant County, Oregon, USA
##OWNER=RRUFF
##SOURCE=Rock Currier
##DESCRIPTION=White tabular hexagonal
##STATUS=The identification of this mineral has been confirmed by X-ray diffraction and chemical analysis
##URL=rruff.info/R050078
##MEASURED CHEMISTRY=(Ca_0.90_K_0.75_[box]_0.25_Na_0.10_)_Σ=2_(Si_5.35_Al_2.65_)_Σ=8_O_16_·6H_2_O
##PIN_ID=L00730
##ORIENTATION=Laser parallel to -c* (0 0 -1). Fiducial mark perpendicular to laser is parallel to a [1 0 0]
241.7140, 0.0000000E+00
242.9300, 0.5351560
244.1460, 73.93945
245.3610, 48.80664
246.5770, 74.08398
247.7920, 157.1953
249.0070, 358.4961
250.2220, 212.8457
251.4370, 201.4805
252.6510, 113.8809
253.8660, 3.822266
255.0800, 312.7812
256.2940, 290.2285
257.5080, 277.4121
258.7220, 353.2070
259.9360, 426.7344
261.1490, 361.5645
262.3630, 394.4766
263.5760, 350.4102
264.7890, 222.3418
266.0020, 283.8613
267.2150, 62.81641
268.4270, 201.9941
269.6400, 30.72852
270.8520, 145.2305
272.0640, 312.6113
273.2760, 308.4316
274.4880, 144.5273
275.7000, 377.8770
276.9120, 219.5742
278.1230, 70.69531
279.3340, 141.3066
280.5450, 223.5430
281.7560, 331.5664
282.9670, 260.8984
284.1780, 291.2910
285.3880, 400.6270
286.5980, 310.5684
287.8090, 316.8203
289.0190, 234.1992
290.2290, 250.7422
291.4380, 277.7773
292.6480, 289.1055
293.8570, 309.4551
295.0670, 294.7051
296.2760, 395.0488
297.4850, 455.6074
298.6930, 493.9004
299.9020, 412.2559
301.1110, 291.9668
302.3190, 394.0625
303.5270, 325.5273
304.7350, 443.7383
305.9430, 358.3105
307.1510, 360.8535
308.3580, 450.3809
309.5660, 148.7168
310.7730, 494.1602
311.9800, 554.4961
313.1870, 379.8477
314.3940, 533.2461
315.6010, 383.7812
316.8070, 433.4297
318.0130, 289.1738
319.2200, 276.0020
320.4260, 226.8848
321.6310, 343.8125
322.8370, 377.7871
324.0430, 318.8066
325.2480, 410.8652
326.4540, 421.9551
327.6590, 466.9785
328.8640, 320.0020
330.0680, 139.0547
331.2730, 262.1250
332.4780, 245.2109
333.6820, 106.3008
334.8860, 128.4102
336.0900, 71.46094
337.2940, 178.6895
338.4980, 42.84961
339.7010, 141.0332
340.9050, 52.24219
342.1080, 58.50000
343.3110, 137.7988
344.5140, 163.0996
345.7170, 10.44141
346.9200, 61.82422
348.1220, 116.8027
349.3240, 30.40820
350.5270, 79.01367
351.7290, 39.37891
352.9310, 179.8672
354.1320, 2.355469
355.3340, 2.839844
356.5350, 140.3164
357.7370, 153.7930
358.9380, 4.253906
360.1390, 11.28125
361.3400, 55.14258
362.5400, 50.48047
363.7410, 62.87695
364.9410, 30.78320
366.1410, 134.5371
367.3410, 139.1777
368.5410, 36.06250
369.7410, 193.0352
370.9400, 100.1074
372.1400, 43.16992
373.3390, 201.2129
374.5380, 243.2148
375.7370, 364.1777
376.9360, 220.1250
378.1350, 90.04688
379.3330, 343.9707
380.5310, 463.8984
381.7300, 447.8379
382.9280, 530.7871
384.1260, 427.7461
385.3230, 629.7305
386.5210, 538.1582
387.7180, 763.9277
388.9160, 574.6484
390.1130, 701.0469
391.3100, 991.2910
392.5060, 1064.273
393.7030, 1102.104
394.9000, 1277.805
396.0960, 1316.395
397.2920, 1260.619
398.4880, 1557.289
399.6840, 1766.299
400.8800, 1590.170
402.0750, 1851.008
403.2710, 1774.797
404.4660, 1930.502
405.6610, 2147.156
406.8560, 2379.785
408.0510, 2409.391
409.2450, 2571.814
410.4400, 2738.373
411.6340, 2785.820
412.8280, 3082.230
414.0220, 3251.764
415.2160, 3523.680
416.4100, 3666.857
417.6030, 3840.424
418.7970, 3931.195
419.9900, 3936.473
421.1830, 4045.488
422.3760, 3908.434
423.5690, 3933.041
424.7610, 3916.994
425.9540, 3946.152
427.1460, 3948.223
428.3380, 4024.350
429.5300, 4024.891
430.7220, 3961.691
431.9140, 4089.758
433.1050, 3956.461
434.2970, 4035.199
435.4880, 4153.053
436.6790, 4433.971
437.8700, 4413.812
439.0610, 4690.479
440.2510, 4872.066
441.4420, 5239.650
442.6320, 5666.184
443.8220, 6069.715
445.0120, 6422.203
446.2020, 6757.637
447.3910, 7434.943
448.5810, 7738.797
449.7700, 8406.166
450.9600, 8991.525
452.1490, 9677.062
453.3370, 10497.51
454.5260, 11129.24
455.7150, 11690.64
456.9030, 12487.29
458.0910, 13418.81
459.2800, 14017.37
460.4670, 14854.91
461.6550, 15795.23
462.8430, 16416.50
464.0300, 17202.31
465.2180, 17827.76
466.4050, 17958.23
467.5920, 18630.69
468.7790, 18744.16
469.9650, 19433.63
471.1520, 19220.11
472.3380, 19308.61
473.5250, 19376.44
474.7110, 19444.81
475.8970, 19453.13
477.0820, 19299.41
478.2680, 19018.34
479.4540, 18929.86
480.6390, 18438.96
481.8240, 18337.16
483.0090, 17562.12
484.1940, 17220.39
485.3780, 16475.76
486.5630, 15714.76
487.7470, 14946.88
488.9320, 14113.09
490.1160, 13225.01
491.3000, 12336.20
492.4830, 11373.55
493.6670, 10327.91
494.8500, 9677.250
496.0340, 8835.521
497.2170, 8004.125
498.4000, 7469.807
499.5820, 6734.947
500.7650, 5967.158
501.9480, 5565.053
503.1300, 4897.039
504.3120, 4304.715
505.4940, 4108.328
506.6760, 3676.109
507.8580, 3325.055
509.0390, 3316.299
510.2210, 2745.551
511.4020, 2502.305
512.5830, 2241.812
513.7640, 2161.945
514.9450, 1941.703
516.1250, 1920.289
517.3060, 1790.979
518.4860, 1512.674
519.6660, 1415.377
520.8460, 1331.561
522.0260, 1446.281
523.2060, 1323.070
524.3850, 1214.055
525.5650, 1042.865
526.7440, 1216.043
527.9230, 1099.877
529.1020, 1078.701
530.2810, 1069.518
531.4590, 983.1680
532.6380, 942.0664
533.8160, 900.5371
534.9940, 824.6445
536.1720, 804.4648
537.3500, 798.2812
538.5270, 739.0957
539.7050, 669.9082
540.8820, 510.9336
542.0590, 409.7539
543.2360, 634.5723
544.4130, 342.3926
545.5900, 561.4727
546.7660, 406.3125
547.9430, 629.1543
549.1190, 501.0020
550.2950, 518.8438
551.4710, 484.6797
552.6470, 312.5781
553.8220, 12.58789
554.9980, 410.6152
556.1730, 131.6680
557.3480, 412.7441
558.5230, 297.8301
559.6980, 183.9160
560.8730, 182.0039
562.0470, 143.0918
563.2220, 116.1836
564.3960, 147.4297
565.5700, 299.4062
566.7440, 194.5215
567.9170, 177.6543
569.0910, 159.8027
570.2640, 16.95703
571.4380, 110.1113
572.6110, 309.2910
573.7840, 101.4688
574.9570, 170.6816
576.1290, 44.89453
577.3020, 54.88867
578.4740, 73.30664
579.6460, 41.50195
580.8180, 97.70117
581.9900, 136.0996
583.1620, 79.03906
584.3330, 130.1797
585.5040, 6.322266
586.6760, 157.4629
587.8470, 197.6074
589.0180, 142.2461
590.1880, 64.83594
591.3590, 93.91992
592.5290, 11.00781
593.7000, 218.0938
594.8700, 58.81250
596.0400, 188.2598
597.2090, 6.667969
598.3790, 177.4023
599.5490, 19.47266
600.7180, 22.54297
601.8870, 165.3867
603.0560, 71.60742
604.2250, 19.40039
605.3940, 108.5859
606.5620, 85.57617
607.7300, 208.5625
608.8990, 219.5527
610.0670, 114.5410
611.2350, 252.5293
612.4020, 186.9277
613.5700, 185.5039
614.7370, 151.4922
615.9050, 129.4824
617.0720, 42.52734
618.2390, 28.44922
619.4060, 6.833984
620.5720, 138.4688
621.7390, 24.49609
622.9050, 241.5234
624.0710, 246.5527
625.2370, 252.5879
626.4030, 261.6230
627.5690, 280.6602
628.7340, 173.6953
629.9000, 341.7402
631.0650, 3.183594
632.2300, 132.9258
633.3950, 281.0547
634.5600, 331.2422
635.7240, 449.4492
636.8890, 209.6523
638.0530, 372.8633
639.2170, 227.0742
640.3810, 220.2891
641.5450, 220.5391
642.7080, 123.5195
643.8720, 255.7812
645.0350, 234.0469
646.1980, 469.3242
647.3610, 226.6016
648.5240, 52.89844
649.6870, 178.2891
650.8490, 193.5781
652.0120, 192.8750
653.1740, 178.1719
654.3360, 349.4648
655.4980, 332.8008
656.6600, 368.7617
657.8210, 343.0625
658.9830, 416.4531
660.1440, 87.74609
661.3050, 63.75781
662.4660, 289.1328
663.6270, 31.41016
664.7870, 286.2305
665.9480, 40.50781
667.1080, 337.9102
668.2680, 186.1367
669.4280, 143.3555
670.5880, 8.953125
671.7480, 156.4375
672.9070, 149.0078
674.0670, 198.4727
675.2260, 269.6445
676.3850, 333.9570
677.5440, 314.6289
678.7030, 484.7930
679.8610, 47.77344
681.0200, 336.9141
682.1780, 143.0508
683.3360, 98.04297
684.4940, 36.15625
685.6520, 219.2734
686.8090, 286.4102
687.9670, 157.9375
689.1240, 106.0273
690.2810, 32.87891
691.4380, 120.8945
692.5950, 138.3164
693.7520, 345.4609
694.9080, 388.0352
696.0650, 212.1953
697.2210, 238.4609
698.3770, 208.4219
699.5330, 497.3750
700.6880, 317.6016
701.8440, 511.5273
702.9990, 508.0078
704.1550, 259.5547
705.3100, 582.4336
706.4650, 408.5117
707.6190, 486.7422
708.7740, 378.9297
709.9290, 405.3242
711.0830, 393.5273
712.2370, 457.3164
713.3910, 408.5664
714.5450, 366.3203
715.6980, 560.1953
716.8520, 486.8516
718.0050, 636.5586
719.1580, 440.2969
720.3110, 624.9609
721.4640, 749.6094
722.6170, 373.2461
723.7700, 338.8672
724.9220, 373.2891
726.0740, 224.3164
727.2260, 537.4453
728.3780, 222.5430
729.5300, 246.0781
730.6810, 368.0547
731.8330, 266.3906
732.9840, 233.8789
734.1350, 684.9922
735.2860, 333.4453
736.4370, 774.5156
737.5880, 214.9336
738.7380, 598.2031
739.8880, 260.4688
741.0390, 379.8242
742.1890, 505.1719
743.3380, 427.7812
744.4880, 389.0977
745.6380, 252.3984
746.7870, 463.6758
747.9360, 496.9375
749.0850, 428.1836
750.2340, 318.4141
751.3830, 554.6250
752.5310, 220.8203
753.6800, 350.9961
754.8280, 311.1562
755.9760, 243.6562
757.1240, 604.2539
758.2720, 302.9805
759.4190, 447.0664
760.5670, 663.0234
761.7140, 576.0742
762.8610, 339.1055
764.0080, 389.1211
765.1550, 388.1133
766.3020, 457.0938
767.4480, 484.0508
768.5950, 414.8828
769.7410, 595.4961
770.8870, 769.3984
772.0330, 407.9492
773.1780, 198.4414
774.3240, 257.2852
775.4690, 430.1016
776.6140, 348.9102
777.7590, 268.6875
778.9040, 425.5273
780.0490, 64.26953
781.1940, 348.9805
782.3380, 279.6719
783.4820, 328.3398
784.6260, 182.9883
785.7700, 282.6172
786.9140, 148.1992
788.0580, 393.7812
789.2010, 269.3477
790.3450, 310.8828
791.4880, 396.4023
792.6310, 160.8984
793.7730, 67.37500
794.9160, 278.3945
796.0590, 151.8164
797.2010, 173.2188
798.3430, 67.60156
799.4850, 173.0469
800.6270, 338.1641
801.7690, 34.16016
802.9100, 230.3125
804.0520, 0.9179690
805.1930, 170.1602
806.3340, 182.2188
807.4750, 53.74609
808.6160, 116.3906
809.7560, 86.32812
810.8970, 13.23438
812.0370, 244.4961
813.1770, 130.5312
814.3170, 78.35156
815.4570, 268.1445
816.5960, 24.91797
817.7360, 198.4453
818.8750, 167.1641
820.0140, 54.85156
821.1530, 247.5156
822.2920, 31.10547
823.4310, 49.58203
824.5690, 81.12109
825.7070, 341.6406
826.8460, 125.8633
827.9840, 24.57422
829.1220, 261.0820
830.2590, 20.92578
831.3970, 9.824219
832.5340, 35.78125
833.6710, 10.19531
834.8080, 157.1367
835.9450, 164.0508
837.0820, 78.94922
838.2190, 413.8203
839.3550, 2.675781
840.4910, 19.48438
841.6270, 208.2617
842.7630, 8.984375
843.8990, 12.28125
845.0350, 23.87500
846.1700, 144.0039
847.3060, 57.39453
848.4410, 168.1367
849.5760, 80.35156
850.7100, 137.0781
851.8450, 73.48438
852.9800, 138.8789
854.1140, 301.2617
855.2480, 84.62891
856.3820, 215.9727
857.5160, 207.2969
858.6500, 313.6367
859.7830, 269.9570
860.9170, 347.2617
862.0500, 293.5508
863.1830, 164.8203
864.3160, 203.0781
865.4480, 127.3477
866.5810, 33.60156
867.7130, 142.2695
868.8460, 233.0547
869.9780, 372.2539
871.1100, 326.4492
872.2410, 548.6289
873.3730, 443.7930
874.5050, 260.9414
875.6360, 343.0742
876.7670, 266.1953
877.8980, 451.3359
879.0290, 414.4688
880.1590, 468.5898
881.2900, 409.6914
882.4200, 305.7773
883.5500, 512.8555
884.6800, 380.9180
885.8100, 429.9688
886.9400, 301.0039
888.0690, 355.0273
889.1990, 850.0352
890.3280, 225.0312
891.4570, 508.0117
892.5860, 59.01172
893.7140, 244.9102
894.8430, 127.8242
895.9710, 63.72266
897.1000, 313.6094
898.2280, 101.4844
899.3560, 219.3477
900.4830, 268.1992
901.6110, 64.04297
902.7380, 177.8672
903.8660, 103.3164
904.9930, 135.4297
906.1200, 98.16406
907.2460, 102.1094
908.3730, 54.45312
909.5000, 136.1602
910.6260, 226.7617
911.7520, 152.3555
912.8780, 279.9375
914.0040, 129.4922
915.1290, 265.0000
916.2550, 74.75391
917.3800, 343.2266
918.5050, 241.6953
919.6300, 260.1523
920.7550, 72.60156
921.8800, 156.0469
923.0040, 163.3750
924.1290, 154.8008
925.2530, 185.2227
926.3770, 81.63281
927.5010, 267.0391
928.6250, 31.39844
929.7480, 85.87891
930.8720, 38.46484
931.9950, 316.7148
933.1180, 120.0469
934.2410, 80.64844
935.3640, 143.8867
936.4860, 59.19922
937.6090, 91.67188
938.7310, 172.2734
939.8530, 106.4023
940.9750, 269.7188
942.0970, 299.0352
943.2180, 220.8672
944.3400, 178.9844
945.4610, 406.9102
946.5820, 22.07031
947.7030, 83.76562
948.8240, 242.3750
949.9450, 164.1445
951.0650, 122.4141
952.1860, 105.8594
953.3060, 412.1406
954.4260, 223.4180
955.5460, 354.8320
956.6650, 301.1133
957.7850, 89.61719
958.9040, 297.6133
960.0230, 165.4531
961.1420, 274.7148
962.2610, 334.9688
963.3800, 181.5234
964.4990, 156.4219
965.6170, 153.2070
966.7350, 305.1992
967.8530, 152.4102
968.9710, 331.5039
970.0890, 366.8984
971.2070, 364.3008
972.3240, 504.4258
973.4410, 290.8398
974.5580, 612.6953
975.6750, 241.4727
976.7920, 493.9141
977.9090, 337.1523
979.0250, 352.2305
980.1410, 440.3438
981.2580, 367.8203
982.3740, 658.1992
983.4890, 397.7109
984.6050, 448.7617
985.7200, 259.2969
986.8360, 496.6875
987.9510, 586.2461
989.0660, 496.8164
990.1810, 425.3164
991.2950, 407.9102
992.4100, 427.9570
993.5240, 612.1328
994.6390, 536.7656
995.7530, 642.4648
996.8660, 687.1719
997.9800, 511.8984
999.0940, 688.6367
1000.207, 624.3906
1001.320, 548.7031
1002.433, 693.4805
1003.546, 760.2695
1004.659, 517.0820
1005.772, 553.8984
1006.884, 698.7383
1007.996, 601.5859
1009.108, 709.5000
1010.220, 760.4258
1011.332, 591.3711
1012.444, 727.3281
1013.555, 777.3008
1014.666, 840.2930
1015.777, 599.3047
1016.888, 765.3320
1017.999, 723.3789
1019.110, 937.4375
1020.220, 973.5156
1021.331, 841.6133
1022.441, 873.7227
1023.551, 787.8516
1024.661, 803.5156
1025.770, 795.2422
1026.880, 855.7773
1027.989, 814.9766
1029.098, 854.1992
1030.207, 922.4375
1031.316, 1007.691
1032.425, 836.9688
1033.533, 817.2656
1034.642, 901.5820
1035.750, 827.9141
1036.858, 839.2695
1037.966, 625.7500
1039.073, 854.1445
1040.181, 857.5625
1041.288, 813.3242
1042.396, 605.1758
1043.503, 690.6641
1044.610, 1076.227
1045.716, 803.7969
1046.823, 1027.391
1047.929, 1224.930
1049.036, 1239.566
1050.142, 1010.234
1051.248, 828.9258
1052.353, 840.6328
1053.459, 1048.371
1054.564, 1126.129
1055.670, 1211.914
1056.775, 1274.668
1057.880, 1350.547
1058.985, 1281.398
1060.089, 1456.281
1061.194, 1399.180
1062.298, 1272.102
1063.402, 1519.484
1064.506, 1520.547
1065.610, 1705.551
1066.713, 1790.578
1067.817, 1485.637
1068.920, 1796.781
1070.023, 1462.949
1071.126, 1644.148
1072.229, 1823.379
1073.332, 1570.641
1074.435, 1885.199
1075.537, 1669.516
1076.639, 1826.891
1077.741, 1770.289
1078.843, 1803.148
1079.945, 1655.789
1081.046, 1960.094
1082.148, 1848.613
1083.249, 1991.160
1084.350, 2214.734
1085.451, 2045.262
1086.551, 2022.898
1087.652, 2011.566
1088.752, 1981.266
1089.853, 1999.988
1090.953, 2005.621
1092.053, 2014.992
1093.152, 1996.824
1094.252, 1908.691
1095.351, 2043.629
1096.451, 1959.602
1097.550, 2050.684
1098.649, 2094.574
1099.748, 2031.574
1100.846, 2108.852
1101.945, 1941.441
1103.043, 1779.086
1104.141, 1750.398
1105.239, 1955.742
1106.337, 1791.113
1107.434, 1762.523
1108.532, 1800.176
1109.629, 1731.652
1110.726, 1759.164
1111.823, 1772.727
1112.920, 1798.320
1114.017, 1719.504
1115.113, 1685.609
1116.210, 1802.309
1117.306, 1765.109
1118.402, 1864.934
1119.498, 1758.793
1120.593, 1847.672
1121.689, 1681.586
1122.784, 1951.520
1123.879, 1660.484
1124.974, 1802.473
1126.069, 1533.496
1127.164, 1810.465
1128.259, 1624.539
1129.353, 1436.633
1130.447, 1474.758
1131.541, 1316.910
1132.635, 1298.086
1133.729, 1299.293
1134.822, 1078.523
1135.916, 1155.785
1137.009, 920.0664
1138.102, 1075.391
1139.195, 1050.738
1140.288, 948.3438
1141.380, 1077.746
1142.473, 1025.168
1143.565, 725.6562
1144.657, 800.1719
1145.749, 889.7109
1146.841, 1100.559
1147.932, 804.1484
1149.024, 867.7656
1150.115, 854.4102
1151.206, 557.0820
1152.297, 877.7930
1153.388, 522.5312
1154.479, 640.2891
1155.569, 497.0781
1156.659, 796.8945
1157.750, 830.7344
1158.839, 727.6133
1159.929, 640.6914
1161.019, 685.7695
1162.108, 536.7305
1163.198, 538.7148
1164.287, 584.7227
1165.376, 416.7578
1166.465, 399.9844
1167.553, 671.0664
1168.642, 570.1758
1169.730, 255.3398
1170.818, 642.5273
1171.906, 310.7461
1172.994, 413.0312
1174.082, 531.3398
1175.170, 355.5234
1176.257, 523.8828
1177.344, 210.2656
1178.431, 342.6719
1179.518, 291.1367
1180.605, 466.6211
1181.691, 123.1328
1182.778, 83.66797
1183.864, 37.22656
1184.950, 143.8047
1186.036, 53.40625
1187.122, 335.0352
1188.207, 45.68359
1189.292, 200.3750
1190.378, 430.0820
1191.463, 140.8203
1192.548, 23.57031
1193.632, 240.3516
1194.717, 5.828125
1195.801, 186.0195
1196.886, 396.8789
1197.970, 237.7656
1199.054, 146.6797
1200.137, 154.6055
1201.221, 303.5586
1202.305, 209.5352
1203.388, 237.5312
1204.471, 14.44922
1205.554, 175.5820
1206.637, 103.6406
1207.719, 23.71484
1208.802, 200.8125
1209.884, 219.9336
1210.966, 124.0742
1212.048, 302.2500
1213.130, 142.4492
1214.212, 156.6641
1215.293, 57.10156
1216.374, 308.1406
1217.456, 63.39844
1218.536, 284.6758
1219.617, 87.97266
1220.698, 31.70312
1221.778, 20.36328
1222.859, 404.9922
1223.939, 248.3633
1225.019, 328.7539
1226.099, 280.1680
1227.178, 43.60156
1228.258, 226.9492
1229.337, 122.5820
1230.417, 134.7539
1231.496, 35.89062
1232.574, 10.53125
1233.653, 237.8398
1234.732, 281.2305
1235.810, 123.6367
1236.888, 171.0586
1237.966, 4.507813
1239.044, 7.945313
1240.122, 273.4141
1241.199, 54.89844
1242.277, 333.3945
1243.354, 13.09375
1244.431, 74.56250
1245.508, 201.9453
1246.585, 95.39062
1247.661, 125.9336
1248.738, 11.48828
1249.814, 384.0586
1250.890, 252.6406
1251.966, 91.23828
1253.042, 416.8516
1254.117, 16.48047
1255.193, 107.1172
1256.268, 236.2266
1257.343, 266.3281
1258.418, 251.8945
1259.493, 182.4766
1260.567, 93.07422
1261.642, 33.67969
1262.716, 350.3047
1263.790, 175.9375
1264.864, 264.5859
1265.938, 379.2383
1267.011, 307.2305
1268.085, 264.9141
1269.158, 199.3906
1270.231, 134.2227
1271.304, 113.8438
1272.377, 105.6914
1273.450, 374.3398
1274.522, 75.99609
1275.594, 11.33594
1276.666, 274.3320
1277.738, 204.0078
1278.810, 256.4023
1279.882, 354.1016
1280.953, 232.5156
1282.025, 314.2305
1283.096, 305.9609
1284.167, 311.7188
1285.238, 270.4688
1286.308, 64.23438
1287.379, 98.00781
1288.449, 22.04297
1289.519, 23.58203
1290.589, 83.38281
1291.659, 57.18750
1292.729, 329.0039
1293.798, 156.8320
1294.868, 24.66406
1295.937, 267.5078
1297.006, 241.3594
1298.075, 331.2227
1299.143, 47.65625
1300.212, 253.5391
1301.280, 89.57422
1302.348, 140.2695
1303.416, 85.87891
1304.484, 197.9297
1305.552, 54.74609
1306.620, 159.5742
1307.687, 58.41016
1308.754, 342.2539
1309.821, 429.1055
1310.888, 326.9688
1311.955, 212.8320
1313.021, 63.71094
1314.088, 194.5898
1315.154, 177.4883
1316.220, 337.4062
1317.286, 384.6953
1318.352, 358.6328
1319.417, 428.5781
1320.483, 479.5312
1321.548, 325.4844
1322.613, 119.4414
1323.678, 460.3164
1324.743, 533.2812
1325.807, 379.2578
1326.872, 158.2383
1327.936, 292.2227
1329.000, 138.2109
1330.064, 178.2109
1331.128, 316.2188
1332.191, 114.2266
1333.255, 279.9766
1334.318, 184.0000
1335.381, 266.1445
1336.444, 226.1758
1337.507, 472.2070
1338.569, 107.2500
1339.632, 267.2930
1340.694, 80.34766
1341.756, 254.4062
1342.818, 337.4688
1343.880, 446.6133
1344.941, 256.6875
1346.003, 180.7656
1347.064, 288.8555
1348.125, 176.9414
1349.186, 294.0195
1350.247, 358.5000
1351.308, 577.5586
1352.368, 351.6172
1353.428, 246.9922
1354.489, 335.0586
1355.549, 461.1328
1356.608, 391.0508
1357.668, 156.6562
1358.727, 189.7344
1359.787, 101.4531
1360.846, 102.8125
1361.905, 121.2695
1362.964, 162.3125
1364.022, 344.3594
1365.081, 339.4141
1366.139, 262.2383
1367.197, 239.2773
1368.255, 70.32031
1369.313, 492.3633
1370.371, 130.4141
1371.428, 62.92578
1372.486, 307.5508
1373.543, 132.3828
1374.600, 139.6406
1375.657, 260.6641
1376.713, 476.6992
1377.770, 327.7422
1378.826, 41.13281
1379.882, 386.1836
1380.938, 141.2383
1381.994, 313.2969
1383.050, 211.3633
1384.106, 39.47656
1385.161, 292.5195
1386.216, 224.5703
1387.271, 123.6211
1388.326, 411.6797
1389.381, 355.7383
1390.435, 462.8086
1391.490, 254.8789
1392.544, 280.9492
1393.598, 24.97656
1394.652, 449.0977
1395.705, 146.1680
1396.759, 60.01953
1397.812, 386.1094
1398.866, 129.8008
1399.919, 352.2578
1400.972, 161.3242
