##NAMES=Phillipsite-Ca
##RRUFFID=R050078
##IDEAL CHEMISTRY=Ca_3_(Si_10_Al_6_)O_32_&#183;12H_2_O
##LOCALITY=Grant County, Oregon, USA
##OWNER=RRUFF
##SOURCE=Rock Currier
##DESCRIPTION=White tabular hexagonal
##STATUS=The identification of this mineral has been confirmed by X-ray diffraction and chemical analysis
##URL=rruff.info/R050078
##MEASURED CHEMISTRY=(Ca_0.90_K_0.75_[box]_0.25_Na_0.10_)_Σ=2_(Si_5.35_Al_2.65_)_Σ=8_O_16_·6H_2_O
##PIN_ID=L00730
##ORIENTATION=Laser parallel to -c* (0 0 -1). Fiducial mark perpendicular to laser is parallel to a [1 0 0]
241.7140, 0.0000000E+00
242.9300, 99.57812
244.1460, 116.9531
245.3610, 148.6348
246.5770, 4.029297
247.7920, 201.1562
249.0070, 87.90430
250.2220, 341.9180
251.4370, 175.4531
252.6510, 219.7695
253.8660, 170.3457
255.0800, 279.2812
256.2940, 323.4551
257.5080, 142.7324
258.7220, 402.1367
259.9360, 470.5703
261.1490, 318.8906
262.3630, 286.0137
263.5760, 202.5508
264.7890, 115.5352
266.0020, 467.5156
267.2150, 327.9512
268.4270, 347.7109
269.6400, 70.39258
270.8520, 193.6289
272.0640, 144.9297
273.2760, 226.5820
274.4880, 149.4160
275.7000, 52.10547
276.9120, 144.6953
278.1230, 104.7598
279.3340, 255.2324
280.5450, 166.3477
281.7560, 279.1484
282.9670, 86.33008
284.1780, 146.9414
285.3880, 341.9824
286.5980, 69.82031
287.8090, 241.8301
289.0190, 44.51367
290.2290, 233.2598
291.4380, 100.0039
292.6480, 102.7363
293.8570, 62.70117
295.0670, 112.0762
296.2760, 152.9023
297.4850, 138.0117
298.6930, 92.17773
299.9020, 152.4219
301.1110, 151.2793
302.3190, 147.9375
303.5270, 266.3359
304.7350, 330.8984
305.9430, 112.5020
307.1510, 338.3438
308.3580, 300.2285
309.5660, 196.8867
310.7730, 345.8477
311.9800, 414.5293
313.1870, 51.22852
314.3940, 329.9785
315.6010, 403.8652
316.8070, 318.8457
318.0130, 558.9043
319.2200, 554.0508
320.4260, 325.2734
321.6310, 321.5645
322.8370, 310.9082
324.0430, 424.3066
325.2480, 541.7441
326.4540, 495.2090
327.6590, 481.7070
328.8640, 478.2148
330.0680, 336.7441
331.2730, 294.2812
332.4780, 254.8223
333.6820, 381.3711
334.8860, 303.8848
336.0900, 181.3672
337.2940, 10.84766
338.4980, 155.3281
339.7010, 251.8223
340.9050, 143.3320
342.1080, 248.8496
343.3110, 123.3574
344.5140, 156.9160
345.7170, 171.5508
346.9200, 124.1699
348.1220, 143.8047
349.3240, 24.58203
350.5270, 53.40234
351.7290, 57.75977
352.9310, 55.61914
354.1320, 45.07812
355.3340, 28.19336
356.5350, 94.68945
357.7370, 193.5605
358.9380, 90.43164
360.1390, 57.69922
361.3400, 152.8418
362.5400, 315.9824
363.7410, 109.7910
364.9410, 304.5820
366.1410, 54.35547
367.3410, 104.1113
368.5410, 113.1602
369.7410, 281.5684
370.9400, 113.1992
372.1400, 324.8008
373.3390, 215.3594
374.5380, 405.7832
375.7370, 391.2031
376.9360, 316.6113
378.1350, 204.9395
379.3330, 424.2598
380.5310, 329.5801
381.7300, 659.8984
382.9280, 512.2168
384.1260, 844.5820
385.3230, 415.9492
386.5210, 737.8359
387.7180, 639.0391
388.9160, 909.5449
390.1130, 791.0312
391.3100, 926.9082
392.5060, 1187.223
393.7030, 931.2305
394.9000, 1288.350
396.0960, 1192.375
397.2920, 1247.285
398.4880, 1537.080
399.6840, 1732.789
400.8800, 1781.373
402.0750, 1522.754
403.2710, 1571.131
404.4660, 1738.414
405.6610, 2006.635
406.8560, 2085.582
408.0510, 2013.664
409.2450, 2411.188
410.4400, 2357.980
411.6340, 2560.711
412.8280, 2649.387
414.0220, 2850.176
415.2160, 3026.574
416.4100, 3106.852
417.6030, 3048.688
418.7970, 3353.736
419.9900, 3340.113
421.1830, 3581.150
422.3760, 3495.826
423.5690, 3714.121
424.7610, 3771.051
425.9540, 3493.480
427.1460, 3404.502
428.3380, 3169.760
429.5300, 3362.969
430.7220, 3338.232
431.9140, 3277.381
433.1050, 3188.539
434.2970, 3158.943
435.4880, 3436.939
436.6790, 3532.652
437.8700, 3563.287
439.0610, 3624.303
440.2510, 3911.357
441.4420, 4109.162
442.6320, 4325.543
443.8220, 4659.562
445.0120, 4887.744
446.2020, 5066.668
447.3910, 5466.105
448.5810, 5555.668
449.7700, 6074.617
450.9600, 6704.402
452.1490, 6985.398
453.3370, 7665.969
454.5260, 7928.955
455.7150, 8655.135
456.9030, 9323.008
458.0910, 9547.633
459.2800, 10213.74
460.4670, 10792.23
461.6550, 10960.81
462.8430, 11739.54
464.0300, 12255.03
465.2180, 12379.67
466.4050, 12820.93
467.5920, 13263.57
468.7790, 13287.05
469.9650, 13827.57
471.1520, 13720.14
472.3380, 13785.87
473.5250, 14107.91
474.7110, 13930.67
475.8970, 14139.82
477.0820, 14477.51
478.2680, 14061.95
479.4540, 13948.98
480.6390, 13725.77
481.8240, 13558.71
483.0090, 13196.04
484.1940, 13052.93
485.3780, 12400.26
486.5630, 11853.09
487.7470, 11764.04
488.9320, 11130.05
490.1160, 10006.86
491.3000, 9490.926
492.4830, 8867.902
493.6670, 8499.215
494.8500, 7307.293
496.0340, 6959.098
497.2170, 6310.965
498.4000, 5781.543
499.5820, 5336.211
500.7650, 4887.297
501.9480, 4304.932
503.1300, 3860.805
504.3120, 3559.803
505.4940, 3207.768
506.6760, 2958.061
507.8580, 2807.695
509.0390, 2552.473
510.2210, 2518.164
511.4020, 2387.205
512.5830, 2084.484
513.7640, 1820.479
514.9450, 2032.746
516.1250, 2029.895
517.3060, 1903.150
518.4860, 1833.627
519.6660, 1747.875
520.8460, 1898.379
522.0260, 1375.965
523.2060, 1468.275
524.3850, 1610.863
525.5650, 1430.510
526.7440, 1558.117
527.9230, 1461.359
529.1020, 1543.580
530.2810, 1185.842
531.4590, 1074.104
532.6380, 1233.520
533.8160, 941.7539
534.9940, 960.9961
536.1720, 1026.365
537.3500, 730.5488
538.5270, 1028.078
539.7050, 866.6543
540.8820, 640.8203
542.0590, 674.9707
543.2360, 527.1582
544.4130, 477.7070
545.5900, 595.0039
546.7660, 469.7344
547.9430, 271.2539
549.1190, 100.9883
550.2950, 133.8086
551.4710, 487.8086
552.6470, 274.8477
553.8220, 216.8672
554.9980, 373.3203
556.1730, 194.3438
557.3480, 226.8125
558.5230, 40.80859
559.6980, 312.7930
560.8730, 149.7852
562.0470, 149.0586
563.2220, 338.2930
564.3960, 207.3672
565.5700, 216.8359
566.7440, 127.9141
567.9170, 20.98047
569.0910, 59.07031
570.2640, 234.1445
571.4380, 232.2109
572.6110, 400.2656
573.7840, 124.3047
574.9570, 83.38672
576.1290, 33.44922
577.3020, 103.5078
578.4740, 20.44922
579.6460, 39.57422
580.8180, 62.57812
581.9900, 53.56641
583.1620, 171.5469
584.3330, 73.52734
585.5040, 80.03906
586.6760, 149.8672
587.8470, 111.2344
589.0180, 232.5938
590.1880, 31.40234
591.3590, 99.20703
592.5290, 27.99609
593.7000, 20.23047
594.8700, 133.4805
596.0400, 120.4648
597.2090, 9.234375
598.3790, 47.66406
599.5490, 24.85938
600.7180, 204.3711
601.8870, 147.8672
603.0560, 32.65234
604.2250, 176.7969
605.3940, 132.2305
606.5620, 57.34766
607.7300, 8.972656
608.8990, 217.3750
610.0670, 157.7109
611.2350, 148.0352
612.4020, 107.3398
613.5700, 31.63281
614.7370, 99.90625
615.9050, 4.160156
617.0720, 111.3945
618.2390, 210.6328
619.4060, 226.8516
620.5720, 79.06641
621.7390, 202.2695
622.9050, 189.4609
624.0710, 169.6406
625.2370, 215.8047
626.4030, 164.9492
627.5690, 387.0859
628.7340, 177.2109
629.9000, 226.3242
631.0650, 129.4180
632.2300, 318.5078
633.3950, 279.5898
634.5600, 161.3477
635.7240, 433.6445
636.8890, 81.64844
638.0530, 380.6797
639.2170, 261.7188
640.3810, 176.7461
641.5450, 314.7656
642.7080, 158.7891
643.8720, 140.8203
645.0350, 46.88672
646.1980, 324.9336
647.3610, 163.9648
648.5240, 67.97656
649.6870, 396.9766
650.8490, 41.96094
652.0120, 388.0039
653.1740, 107.0859
654.3360, 211.0898
655.4980, 431.1289
656.6600, 223.1680
657.8210, 119.1797
658.9830, 283.1992
660.1440, 77.64844
661.3050, 89.19922
662.4660, 71.82422
663.6270, 87.08203
664.7870, 77.97656
665.9480, 85.94141
667.1080, 205.3516
668.2680, 271.1875
669.4280, 172.8320
670.5880, 226.0156
671.7480, 155.1250
672.9070, 247.8945
674.0670, 189.6406
675.2260, 155.4023
676.3850, 215.2148
677.5440, 114.6875
678.7030, 100.6484
679.8610, 211.6836
681.0200, 322.7969
682.1780, 188.7930
683.3360, 98.38281
684.4940, 157.8008
685.6520, 63.40625
686.8090, 98.59766
687.9670, 61.51953
689.1240, 181.0742
690.2810, 66.36719
691.4380, 219.2852
692.5950, 394.6719
693.7520, 97.13281
694.9080, 276.4727
696.0650, 2.785156
697.2210, 389.4141
698.3770, 354.3633
699.5330, 305.4648
700.6880, 160.4141
701.8440, 195.8711
702.9990, 488.5547
704.1550, 143.1211
705.3100, 441.5078
706.4650, 509.9492
707.6190, 481.4219
708.7740, 419.2773
709.9290, 498.2891
711.0830, 555.5625
712.2370, 425.5156
713.3910, 576.3438
714.5450, 356.8867
715.6980, 371.2070
716.8520, 424.7812
718.0050, 302.0625
719.1580, 504.3164
720.3110, 348.6367
721.4640, 605.0039
722.6170, 559.3516
723.7700, 134.6406
724.9220, 420.2305
726.0740, 331.7812
727.2260, 297.3438
728.3780, 403.9375
729.5300, 383.4531
730.6810, 469.4531
731.8330, 446.3633
732.9840, 507.2539
734.1350, 449.2148
735.2860, 613.9531
736.4370, 523.2070
737.5880, 779.4570
738.7380, 496.1914
739.8880, 232.5312
741.0390, 487.7383
742.1890, 688.7852
743.3380, 637.0508
744.4880, 543.1211
745.6380, 625.5586
746.7870, 792.5820
747.9360, 460.7539
749.0850, 515.8320
750.2340, 429.8516
751.3830, 584.6719
752.5310, 494.1523
753.6800, 608.5664
754.8280, 770.2148
755.9760, 741.2500
757.1240, 625.2188
758.2720, 526.9375
759.4190, 719.4727
760.5670, 618.3672
761.7140, 606.2383
762.8610, 827.0781
764.0080, 657.8984
765.1550, 563.6680
766.3020, 795.4375
767.4480, 629.1836
768.5950, 686.9102
769.7410, 845.0820
770.8870, 625.7539
772.0330, 729.4062
773.1780, 586.1367
774.3240, 383.9570
775.4690, 863.3945
776.6140, 486.9453
777.7590, 572.9766
778.9040, 656.4727
780.0490, 518.3438
781.1940, 379.7422
782.3380, 395.0352
783.4820, 398.9062
784.6260, 307.2812
785.7700, 434.5938
786.9140, 414.4766
788.0580, 193.7695
789.2010, 396.7812
790.3450, 186.0195
791.4880, 274.9570
792.6310, 434.0078
793.7730, 345.4531
794.9160, 246.5820
796.0590, 393.2891
797.2010, 387.5430
798.3430, 521.1445
799.4850, 413.8203
800.6270, 327.7422
801.7690, 2.347656
802.9100, 181.8555
804.0520, 5.605469
805.1930, 252.2188
806.3340, 25.05469
807.4750, 177.3633
808.6160, 136.2188
809.7560, 253.5977
810.8970, 268.1289
812.0370, 193.6016
813.1770, 168.9023
814.3170, 6.347656
815.4570, 50.95312
816.5960, 13.33984
817.7360, 107.6445
818.8750, 117.9258
820.0140, 185.1250
821.1530, 73.92188
822.2920, 166.9258
823.4310, 86.46094
824.5690, 74.15625
825.7070, 184.6016
826.8460, 175.5898
827.9840, 97.01953
829.1220, 173.0469
830.2590, 147.9922
831.3970, 16.42188
832.5340, 180.4961
833.6710, 107.9180
834.8080, 120.7773
835.9450, 31.37891
837.0820, 110.6055
838.2190, 199.1875
839.3550, 86.16797
840.4910, 25.80859
841.6270, 37.68359
842.7630, 27.07031
843.8990, 47.42188
845.0350, 100.7422
846.1700, 260.0430
847.3060, 97.31641
848.4410, 213.5664
849.5760, 135.2031
850.7100, 318.9062
851.8450, 42.00000
852.9800, 173.0625
854.1140, 227.1016
855.2480, 153.1328
856.3820, 191.1406
857.5160, 32.13281
858.6500, 57.09375
859.7830, 156.0312
860.9170, 134.8711
862.0500, 373.3906
863.1830, 283.2891
864.3160, 376.1953
865.4480, 504.0859
866.5810, 69.95312
867.7130, 240.8008
868.8460, 408.6367
869.9780, 347.4570
871.1100, 518.2969
872.2410, 178.1523
873.3730, 356.9922
874.5050, 309.8320
875.6360, 275.6523
876.7670, 441.4531
877.8980, 599.2422
879.0290, 552.0195
880.1590, 318.7852
881.2900, 368.5273
882.4200, 385.2695
883.5500, 146.0039
884.6800, 398.7188
885.8100, 110.4141
886.9400, 118.1016
888.0690, 221.7656
889.1990, 454.4219
890.3280, 57.05859
891.4570, 29.31641
892.5860, 80.26953
893.7140, 13.83594
894.8430, 137.3828
895.9710, 130.1406
897.1000, 82.42578
898.2280, 141.9258
899.3560, 126.0508
900.4830, 274.5273
901.6110, 132.3438
902.7380, 172.7852
903.8660, 130.2109
904.9930, 8.628906
906.1200, 120.0273
907.2460, 275.4062
908.3730, 10.77734
909.5000, 4.828125
910.6260, 85.45312
911.7520, 206.8477
912.8780, 10.85938
914.0040, 92.40234
915.1290, 74.34375
916.2550, 333.8477
917.3800, 338.0273
918.5050, 478.1953
919.6300, 471.3633
920.7550, 210.5039
921.8800, 243.6445
923.0040, 70.77734
924.1290, 141.1055
925.2530, 188.9219
926.3770, 127.8789
927.5010, 184.1094
928.6250, 30.20703
929.7480, 125.6602
930.8720, 40.48047
931.9950, 57.64062
933.1180, 2.816406
934.2410, 100.9453
935.3640, 112.7227
936.4860, 253.5430
937.6090, 391.3555
938.7310, 30.93359
939.8530, 538.2969
940.9750, 30.92578
942.0970, 34.02734
943.2180, 94.43750
944.3400, 245.8867
945.4610, 142.6562
946.5820, 184.4375
947.7030, 358.1914
948.8240, 394.8438
949.9450, 228.8242
951.0650, 268.2969
952.1860, 229.7188
953.3060, 192.0859
954.4260, 271.5469
955.5460, 280.3906
956.6650, 232.3828
957.7850, 147.1641
958.9040, 192.3281
960.0230, 540.3555
961.1420, 282.2148
962.2610, 439.0625
963.3800, 247.4102
964.4990, 210.2656
965.6170, 306.0234
966.7350, 507.9180
967.8530, 437.9180
968.9710, 391.3711
970.0890, 414.0469
971.2070, 332.1055
972.3240, 280.2109
973.4410, 281.7773
974.5580, 383.1875
975.6750, 429.7031
976.7920, 534.3711
977.9090, 590.7891
979.0250, 622.9375
980.1410, 488.3750
981.2580, 486.3438
982.3740, 668.0234
983.4890, 216.0039
984.6050, 577.9023
985.7200, 476.8945
986.8360, 556.8750
987.9510, 716.8789
989.0660, 581.8867
990.1810, 543.9062
991.2950, 560.9336
992.4100, 448.8594
993.5240, 444.2812
994.6390, 593.3320
995.7530, 836.4414
996.8660, 677.5625
997.9800, 623.6914
999.0940, 280.8242
1000.207, 1247.973
1001.320, 1559.836
1002.433, 1060.016
1003.546, 809.2070
1004.659, 781.4023
1005.772, 645.6094
1006.884, 581.9805
1007.996, 721.0781
1009.108, 624.3203
1010.220, 611.5820
1011.332, 869.8516
1012.444, 685.1328
1013.555, 538.4219
1014.666, 905.7188
1015.777, 919.0430
1016.888, 833.4180
1017.999, 1026.828
1019.110, 872.2539
1020.220, 972.6953
1021.331, 1142.148
1022.441, 1099.613
1023.551, 1060.102
1024.661, 1052.492
1025.770, 1095.137
1026.880, 1083.395
1027.989, 1184.016
1029.098, 1146.570
1030.207, 1076.145
1031.316, 1159.727
1032.425, 1296.324
1033.533, 1346.934
1034.642, 1035.566
1035.750, 1144.207
1036.858, 1029.863
1037.966, 1089.531
1039.073, 1452.570
1040.181, 1138.273
1041.288, 1325.992
1042.396, 1442.180
1043.503, 952.7148
1044.610, 1399.242
1045.716, 1389.027
1046.823, 1108.328
1047.929, 1265.148
1049.036, 1150.586
1050.142, 1326.445
1051.248, 1346.316
1052.353, 1082.211
1053.459, 1627.121
1054.564, 1335.051
1055.670, 1410.000
1056.775, 1643.969
1057.880, 1443.672
1058.985, 1535.684
1060.089, 1442.711
1061.194, 1341.902
1062.298, 1319.688
1063.402, 1266.777
1064.506, 1249.594
1065.610, 1281.719
1066.713, 1431.762
1067.817, 1416.941
1068.920, 1492.625
1070.023, 1641.848
1071.126, 1676.105
1072.229, 1695.074
1073.332, 1501.680
1074.435, 1622.555
1075.537, 1604.746
1076.639, 1453.215
1077.741, 1890.707
1078.843, 1651.672
1079.945, 1666.211
1081.046, 1907.848
1082.148, 1879.430
1083.249, 1897.055
1084.350, 1870.211
1085.451, 1883.473
1086.551, 1918.184
1087.652, 1869.074
1088.752, 1852.672
1089.853, 1821.453
1090.953, 1775.262
1092.053, 1777.094
1093.152, 1761.949
1094.252, 1932.832
1095.351, 1726.738
1096.451, 1918.668
1097.550, 1850.617
1098.649, 1878.215
1099.748, 1923.230
1100.846, 1930.273
1101.945, 1646.340
1103.043, 1473.945
1104.141, 1572.082
1105.239, 1631.285
1106.337, 1686.055
1107.434, 1514.371
1108.532, 1558.730
1109.629, 1867.125
1110.726, 1640.547
1111.823, 1835.000
1112.920, 1443.477
1114.017, 1777.977
1115.113, 1388.504
1116.210, 1910.059
1117.306, 1562.680
1118.402, 1892.328
1119.498, 2004.008
1120.593, 2174.711
1121.689, 2269.445
1122.784, 2236.195
1123.879, 2012.977
1124.974, 1892.785
1126.069, 1779.199
1127.164, 1857.188
1128.259, 1668.074
1129.353, 1700.984
1130.447, 1404.996
1131.541, 1470.957
1132.635, 1168.668
1133.729, 1042.680
1134.822, 1302.719
1135.916, 1356.777
1137.009, 1147.867
1138.102, 914.9961
1139.195, 1232.152
1140.288, 659.3359
1141.380, 988.5430
1142.473, 1022.777
1143.565, 1122.039
1144.657, 978.3281
1145.749, 1005.637
1146.841, 874.6406
1147.932, 801.3281
1149.024, 798.1289
1150.115, 724.5430
1151.206, 707.4297
1152.297, 913.8945
1153.388, 755.3867
1154.479, 985.8711
1155.569, 848.4062
1156.659, 615.9766
1157.750, 457.5820
1158.839, 917.2148
1159.929, 561.8711
1161.019, 636.5625
1162.108, 400.2734
1163.198, 926.0078
1164.287, 626.7695
1165.376, 691.5586
1166.465, 779.3750
1167.553, 169.2148
1168.642, 407.0781
1169.730, 266.9727
1170.818, 645.8906
1171.906, 326.8398
1172.994, 404.2344
1174.082, 452.2383
1175.170, 72.27344
1176.257, 321.3633
1177.344, 354.4805
1178.431, 257.6328
1179.518, 337.8125
1180.605, 378.0391
1181.691, 356.2930
1182.778, 225.7305
1183.864, 305.0391
1184.950, 428.3750
1186.036, 244.7383
1187.122, 246.7148
1188.207, 341.1289
1189.292, 527.6133
1190.378, 420.1250
1191.463, 151.6680
1192.548, 312.2852
1193.632, 60.93750
1194.717, 63.38281
1195.801, 173.3125
1196.886, 18.04688
1197.970, 164.8125
1199.054, 120.3906
1200.137, 34.37500
1201.221, 546.1680
1202.305, 55.98438
1203.388, 266.8438
1204.471, 80.26953
1205.554, 47.39062
1206.637, 28.48828
1207.719, 362.4023
1208.802, 59.66406
1209.884, 79.26953
1210.966, 13.22656
1212.048, 264.2109
1213.130, 304.2227
1214.212, 192.7383
1215.293, 230.7617
1216.374, 359.1289
1217.456, 167.0547
1218.536, 417.0039
1219.617, 283.9766
1220.698, 186.9805
1221.778, 196.0117
1222.859, 46.06641
1223.939, 183.1523
1225.019, 142.2617
1226.099, 61.40234
1227.178, 152.5703
1228.258, 158.2422
1229.337, 196.9062
1230.417, 240.0781
1231.496, 85.28516
1232.574, 60.48828
1233.653, 61.73047
1234.732, 56.98828
1235.810, 2.261719
1236.888, 405.5625
1237.966, 325.8867
1239.044, 378.2383
1240.122, 136.6133
1241.199, 177.0430
1242.277, 289.4531
1243.354, 82.91016
1244.431, 359.4023
1245.508, 246.9141
1246.585, 301.4531
1247.661, 335.0234
1248.738, 296.7109
1249.814, 45.24219
1250.890, 314.8906
1251.966, 94.56641
1253.042, 133.2695
1254.117, 249.0000
1255.193, 1.242188
1256.268, 207.4688
1257.343, 155.2383
1258.418, 79.97656
1259.493, 11.73828
1260.567, 238.5234
1261.642, 47.66016
1262.716, 20.16016
1263.790, 205.0039
1264.864, 52.87891
1265.938, 131.0508
1267.011, 30.91016
1268.085, 81.02734
1269.158, 115.9961
1270.231, 66.98047
1271.304, 99.00391
1272.377, 40.05078
1273.450, 144.1328
1274.522, 169.2305
1275.594, 46.63281
1276.666, 157.1602
1277.738, 121.8398
1278.810, 267.9922
1279.882, 1.085938
1280.953, 113.1992
1282.025, 335.3438
1283.096, 54.48438
1284.167, 91.69141
1285.238, 269.8945
1286.308, 66.12891
1287.379, 57.39062
1288.449, 153.6836
1289.519, 78.00391
1290.589, 61.35547
1291.659, 235.7344
1292.729, 47.14453
1293.798, 235.5859
1294.868, 22.05859
1295.937, 147.5586
1297.006, 200.0898
1298.075, 235.6523
1299.143, 142.2461
1300.212, 123.8711
1301.280, 3.468750
1302.348, 198.2109
1303.416, 247.9258
1304.484, 266.6719
1305.552, 91.45312
1306.620, 378.2617
1307.687, 549.1055
1308.754, 85.98047
1309.821, 135.8906
1310.888, 1.835938
1311.955, 332.8125
1313.021, 418.8203
1314.088, 149.8594
1315.154, 11.06250
1316.220, 411.0508
1317.286, 406.1914
1318.352, 77.37500
1319.417, 414.5977
1320.483, 215.8594
1321.548, 503.1602
1322.613, 234.4961
1323.678, 235.3281
1324.743, 337.7070
1325.807, 425.1172
1326.872, 430.5469
1327.936, 377.5156
1329.000, 84.99219
1330.064, 232.4883
1331.128, 240.0117
1332.191, 414.5586
1333.255, 382.6836
1334.318, 343.4688
1335.381, 227.0898
1336.444, 345.7422
1337.507, 473.9688
1338.569, 413.6719
1339.632, 525.3242
1340.694, 504.8398
1341.756, 220.8594
1342.818, 399.1602
1343.880, 415.4141
1344.941, 235.2773
1346.003, 392.1719
1347.064, 476.0938
1348.125, 107.0430
1349.186, 262.0234
1350.247, 510.0312
1351.308, 259.0664
1352.368, 367.1289
1353.428, 381.2227
1354.489, 244.3477
1355.549, 503.5039
1356.608, 169.0703
1357.668, 219.2852
1358.727, 45.50391
1359.787, 648.7539
1360.846, 212.5234
1361.905, 366.8398
1362.964, 143.1836
1364.022, 469.0820
1365.081, 86.48828
1366.139, 316.9297
1367.197, 214.4023
1368.255, 619.9102
1369.313, 345.4492
1370.371, 591.0273
1371.428, 424.6367
1372.486, 334.2812
1373.543, 398.9609
1374.600, 3.675781
1375.657, 291.4219
1376.713, 295.2070
1377.770, 240.0234
1378.826, 662.8750
1379.882, 352.7656
1380.938, 209.6914
1381.994, 352.6484
1383.050, 520.0625
1384.106, 179.9688
1385.161, 483.0352
1386.216, 483.1367
1387.271, 110.1992
1388.326, 262.3789
1389.381, 166.8672
1390.435, 373.1133
1391.490, 305.4023
1392.544, 205.7305
1393.598, 151.9102
1394.652, 487.4844
1395.705, 206.9062
1396.759, 385.3750
1397.812, 474.8789
1398.866, 226.4258
1399.919, 240.0156
1400.972, 258.6484
