##NAMES=Phillipsite-Ca
##RRUFFID=R050078
##IDEAL CHEMISTRY=Ca_3_(Si_10_Al_6_)O_32_&#183;12H_2_O
##LOCALITY=Grant County, Oregon, USA
##OWNER=RRUFF
##SOURCE=Rock Currier
##DESCRIPTION=White tabular hexagonal
##STATUS=The identification of this mineral has been confirmed by X-ray diffraction and chemical analysis
##URL=rruff.info/R050078
##MEASURED CHEMISTRY=(Ca_0.90_K_0.75_[box]_0.25_Na_0.10_)_Σ=2_(Si_5.35_Al_2.65_)_Σ=8_O_16_·6H_2_O
##PIN_ID=L01141
##ORIENTATION=Laser parallel to (1 0 1). Fiducial mark perpendicular to laser is parallel to -b [0 -1 0]
273.2760, 0.0000000E+00
274.4880, 48.83203
275.7000, 294.7871
276.9120, 245.2129
278.1230, 180.9590
279.3340, 201.9590
280.5450, 209.8164
281.7560, 365.5195
282.9670, 133.5449
284.1780, 323.6387
285.3880, 7.640625
286.5980, 121.2012
287.8090, 187.2070
289.0190, 41.78711
290.2290, 305.6816
291.4380, 284.9785
292.6480, 309.1621
293.8570, 97.43945
295.0670, 6.705078
296.2760, 245.9648
297.4850, 236.3555
298.6930, 7.322266
299.9020, 70.19531
301.1110, 48.70117
302.3190, 52.07227
303.5270, 101.7051
304.7350, 170.8613
305.9430, 194.0645
307.1510, 191.6699
308.3580, 239.1445
309.5660, 54.36719
310.7730, 316.8301
311.9800, 397.2910
313.1870, 469.7559
314.3940, 237.3262
315.6010, 548.0664
316.8070, 565.0117
318.0130, 454.0801
319.2200, 657.4688
320.4260, 645.6738
321.6310, 434.5273
322.8370, 630.6934
324.0430, 480.9531
325.2480, 475.3008
326.4540, 627.7305
327.6590, 384.2285
328.8640, 308.7930
330.0680, 567.4141
331.2730, 322.0781
332.4780, 198.7695
333.6820, 136.4941
334.8860, 190.2500
336.0900, 145.0352
337.2940, 185.8516
338.4980, 60.29688
339.7010, 178.5879
340.9050, 288.5195
342.1080, 60.50781
343.3110, 157.5547
344.5140, 196.6641
345.7170, 100.8770
346.9200, 151.2832
348.1220, 16.13086
349.3240, 59.38672
350.5270, 104.5059
351.7290, 42.46484
352.9310, 0.6757810
354.1320, 39.91211
355.3340, 86.74023
356.5350, 12.30664
357.7370, 156.7832
358.9380, 68.20312
360.1390, 151.5859
361.3400, 19.93164
362.5400, 15.76172
363.7410, 32.48242
364.9410, 85.22656
366.1410, 6.988281
367.3410, 207.7617
368.5410, 214.5352
369.7410, 283.3125
370.9400, 536.0938
372.1400, 429.8770
373.3390, 373.6699
374.5380, 487.4609
375.7370, 421.2441
376.9360, 487.0117
378.1350, 849.7266
379.3330, 788.3906
380.5310, 973.0430
381.7300, 1092.691
382.9280, 921.3105
384.1260, 1273.836
385.3230, 1309.289
386.5210, 1361.682
387.7180, 1592.943
388.9160, 1980.029
390.1130, 1666.027
391.3100, 2024.027
392.5060, 1960.023
393.7030, 2290.043
394.9000, 2532.088
396.0960, 2462.160
397.2920, 2609.254
398.4880, 2768.371
399.6840, 2932.514
400.8800, 3142.688
402.0750, 3386.887
403.2710, 3485.154
404.4660, 3815.732
405.6610, 3770.973
406.8560, 4344.654
408.0510, 4504.484
409.2450, 4609.422
410.4400, 4854.424
411.6340, 5297.586
412.8280, 5506.879
414.0220, 5996.229
415.2160, 6500.707
416.4100, 6735.340
417.6030, 6892.824
418.7970, 7110.271
419.9900, 7271.514
421.1830, 7298.779
422.3760, 7555.922
423.5690, 7509.910
424.7610, 7576.715
425.9540, 7337.844
427.1460, 6948.121
428.3380, 6885.111
429.5300, 6671.508
430.7220, 6508.256
431.9140, 6462.285
433.1050, 6409.121
434.2970, 6375.867
435.4880, 6403.875
436.6790, 6457.291
437.8700, 6563.949
439.0610, 6713.525
440.2510, 6739.066
441.4420, 7009.973
442.6320, 7346.742
443.8220, 7759.242
445.0120, 8196.441
446.2020, 8788.723
447.3910, 9392.750
448.5810, 10016.33
449.7700, 10787.28
450.9600, 11487.56
452.1490, 12211.92
453.3370, 13174.37
454.5260, 13639.61
455.7150, 14893.71
456.9030, 15781.66
458.0910, 16868.11
459.2800, 17505.67
460.4670, 18524.99
461.6550, 19593.25
462.8430, 20201.50
464.0300, 20882.73
465.2180, 22015.97
466.4050, 22514.23
467.5920, 23314.50
468.7790, 23775.78
469.9650, 24429.55
471.1520, 25600.85
472.3380, 25613.89
473.5250, 26458.22
474.7110, 26601.37
475.8970, 26608.03
477.0820, 27144.24
478.2680, 27132.92
479.4540, 27230.30
480.6390, 27271.01
481.8240, 27057.34
483.0090, 27006.07
484.1940, 26422.28
485.3780, 25864.96
486.5630, 24706.67
487.7470, 23719.57
488.9320, 22419.89
490.1160, 21286.65
491.3000, 20309.78
492.4830, 18426.31
493.6670, 17294.79
494.8500, 16109.61
496.0340, 14371.23
497.2170, 13222.14
498.4000, 12212.48
499.5820, 11067.60
500.7650, 9869.734
501.9480, 8830.520
503.1300, 7981.168
504.3120, 7767.168
505.4940, 6800.986
506.6760, 6283.074
507.8580, 5535.676
509.0390, 5336.469
510.2210, 4795.672
511.4020, 4473.912
512.5830, 4348.414
513.7640, 3918.918
514.9450, 3581.422
516.1250, 3448.926
517.3060, 3431.430
518.4860, 3355.936
519.6660, 3231.441
520.8460, 2833.947
522.0260, 2939.457
523.2060, 2768.158
524.3850, 2708.689
525.5650, 2868.955
526.7440, 2652.625
527.9230, 2504.043
529.1020, 2339.217
530.2810, 2148.645
531.4590, 1824.746
532.6380, 1781.445
533.8160, 1974.385
534.9940, 1564.514
536.1720, 1582.346
537.3500, 1236.197
538.5270, 1133.340
539.7050, 1455.219
540.8820, 1238.723
542.0590, 1216.092
543.2360, 958.3223
544.4130, 658.9434
545.5900, 964.2637
546.7660, 880.8633
547.9430, 738.2480
549.1190, 653.7617
550.2950, 668.7129
551.4710, 710.1816
552.6470, 605.6973
553.8220, 727.1523
554.9980, 462.3613
556.1730, 472.0078
557.3480, 463.6504
558.5230, 527.8027
559.6980, 573.1875
560.8730, 27.41016
562.0470, 507.1211
563.2220, 244.2559
564.3960, 236.8691
565.5700, 365.6953
566.7440, 141.1152
567.9170, 78.78906
569.0910, 99.47656
570.2640, 243.8594
571.4380, 188.2676
572.6110, 231.4375
573.7840, 200.2637
574.9570, 253.3125
576.1290, 10.69336
577.3020, 201.0781
578.4740, 334.1914
579.6460, 48.42383
580.8180, 187.7363
581.9900, 79.14648
583.1620, 35.12891
584.3330, 405.2656
585.5040, 280.1973
586.6760, 224.8867
587.8470, 405.7754
589.0180, 231.6406
590.1880, 209.4824
591.3590, 255.2969
592.5290, 318.0898
593.7000, 207.4766
594.8700, 424.2266
596.0400, 374.9512
597.2090, 479.6543
598.3790, 482.3340
599.5490, 397.9941
600.7180, 632.6309
601.8870, 295.2500
603.0560, 650.8496
604.2250, 570.4277
605.3940, 427.9863
606.5620, 503.5254
607.7300, 442.0430
608.8990, 710.5391
610.0670, 159.0137
611.2350, 306.4629
612.4020, 486.8906
613.5700, 346.2969
614.7370, 612.6836
615.9050, 602.0469
617.0720, 975.3887
618.2390, 716.7148
619.4060, 714.0195
620.5720, 977.3066
621.7390, 1367.572
622.9050, 1062.848
624.0710, 1491.105
625.2370, 1670.338
626.4030, 1372.551
627.5690, 1540.742
628.7340, 1298.154
629.9000, 1359.062
631.0650, 852.1914
632.2300, 708.3145
633.3950, 488.4395
634.5600, 519.5449
635.7240, 529.6465
636.8890, 585.7363
638.0530, 636.1641
639.2170, 727.8828
640.3810, 799.9492
641.5450, 857.0430
642.7080, 904.9043
643.8720, 1007.273
645.0350, 983.4648
646.1980, 1063.639
647.3610, 1134.789
648.5240, 1088.961
649.6870, 1247.113
650.8490, 1114.268
652.0120, 1224.500
653.1740, 877.7012
654.3360, 882.9082
655.4980, 841.0879
656.6600, 681.2500
657.8210, 548.3945
658.9830, 553.8242
660.1440, 304.9141
661.3050, 438.3027
662.4660, 257.3340
663.6270, 298.3340
664.7870, 124.3027
665.9480, 360.3438
667.1080, 290.3555
668.2680, 150.5957
669.4280, 90.68945
670.5880, 92.33789
671.7480, 56.67969
672.9070, 8.533203
674.0670, 106.4004
675.2260, 44.64844
676.3850, 290.5859
677.5440, 188.0488
678.7030, 64.47656
679.8610, 217.1484
681.0200, 137.4277
682.1780, 20.41211
683.3360, 91.57812
684.4940, 52.22266
685.6520, 151.7793
686.8090, 18.09961
687.9670, 131.3672
689.1240, 61.00781
690.2810, 18.59766
691.4380, 18.76367
692.5950, 97.49609
693.7520, 109.3496
694.9080, 129.7988
696.0650, 2.087891
697.2210, 45.94922
698.3770, 33.98242
699.5330, 25.36328
700.6880, 85.65039
701.8440, 19.57031
702.9990, 104.5293
704.1550, 76.03125
705.3100, 120.3750
706.4650, 86.21289
707.6190, 268.7363
708.7740, 112.4277
709.9290, 320.5508
711.0830, 131.3984
712.2370, 205.3750
713.3910, 146.1797
714.5450, 152.1562
715.6980, 194.7090
716.8520, 398.3730
718.0050, 274.2305
719.1580, 103.4062
720.3110, 248.8809
721.4640, 592.8555
722.6170, 298.6094
723.7700, 393.2578
724.9220, 154.8672
726.0740, 385.2832
727.2260, 622.8125
728.3780, 666.1758
729.5300, 544.4102
730.6810, 514.7930
731.8330, 189.1660
732.9840, 602.2637
734.1350, 542.5566
735.2860, 802.8125
736.4370, 621.0293
737.5880, 660.2109
738.7380, 452.3496
739.8880, 422.4531
741.0390, 476.5195
742.1890, 500.5449
743.3380, 606.5332
744.4880, 636.1328
745.6380, 628.3945
746.7870, 739.9668
747.9360, 736.1016
749.0850, 788.4297
750.2340, 834.1914
751.3830, 867.9102
752.5310, 903.5957
753.6800, 836.2402
754.8280, 788.8477
755.9760, 990.4160
757.1240, 994.9453
758.2720, 1107.439
759.4190, 1121.895
760.5670, 1091.311
761.7140, 1193.689
762.8610, 1213.029
764.0080, 1296.332
765.1550, 1385.598
766.3020, 1225.822
767.4480, 1119.012
768.5950, 1516.162
769.7410, 1246.275
770.8870, 1106.350
772.0330, 857.3848
773.1780, 1056.383
774.3240, 779.3438
775.4690, 1019.266
776.6140, 1035.152
777.7590, 1010.998
778.9040, 988.8047
780.0490, 988.6113
781.1940, 774.4863
782.3380, 628.9902
783.4820, 818.1094
784.6260, 873.7246
785.7700, 732.8125
786.9140, 525.3457
788.0580, 452.2461
789.2010, 646.2617
790.3450, 486.6719
791.4880, 771.4629
792.6310, 423.5820
793.7730, 446.0039
794.9160, 486.4297
796.0590, 269.6328
797.2010, 728.6758
798.3430, 264.7949
799.4850, 416.4473
800.6270, 667.2852
801.7690, 487.2500
802.9100, 310.4453
804.0520, 314.0293
805.1930, 250.3262
806.3340, 278.9141
807.4750, 296.7793
808.6160, 258.0918
809.7560, 299.9316
810.8970, 200.8496
812.0370, 186.8555
813.1770, 24.12109
814.3170, 19.69141
815.4570, 231.1445
816.5960, 93.19531
817.7360, 124.5859
818.8750, 78.06641
820.0140, 45.64453
821.1530, 68.78125
822.2920, 100.8906
823.4310, 33.74609
824.5690, 183.4805
825.7070, 355.5312
826.8460, 317.1133
827.9840, 177.1328
829.1220, 89.06250
830.2590, 193.0078
831.3970, 40.83594
832.5340, 41.80859
833.6710, 116.4141
834.8080, 42.53516
835.9450, 237.2031
837.0820, 88.04297
838.2190, 123.6641
839.3550, 39.10156
840.4910, 123.3281
841.6270, 256.2852
842.7630, 182.5977
843.8990, 297.5977
845.0350, 120.5273
846.1700, 782.7070
847.3060, 489.8086
848.4410, 234.1016
849.5760, 586.6758
850.7100, 185.9844
851.8450, 694.2969
852.9800, 575.7734
854.1140, 570.8633
855.2480, 699.6328
856.3820, 669.5703
857.5160, 815.2109
858.6500, 1081.230
859.7830, 1108.047
860.9170, 941.0234
862.0500, 1059.207
863.1830, 982.1445
864.3160, 734.0586
865.4480, 669.9531
866.5810, 684.8281
867.7130, 597.6875
868.8460, 556.9062
869.9780, 552.7188
871.1100, 444.5195
872.2410, 428.2969
873.3730, 335.0625
874.5050, 519.8008
875.6360, 380.5273
876.7670, 480.2305
877.8980, 314.9180
879.0290, 152.5898
880.1590, 327.2383
881.2900, 229.8750
882.4200, 89.49219
883.5500, 287.0977
884.6800, 296.6797
885.8100, 258.2500
886.9400, 158.8047
888.0690, 338.3438
889.1990, 413.8672
890.3280, 583.3711
891.4570, 341.8711
892.5860, 412.3477
893.7140, 270.8125
894.8430, 234.2617
895.9710, 256.6992
897.1000, 128.1211
898.2280, 177.5273
899.3560, 285.9258
900.4830, 160.3125
901.6110, 285.6797
902.7380, 239.0391
903.8660, 389.3867
904.9930, 380.7227
906.1200, 540.0430
907.2460, 448.3555
908.3730, 249.6602
909.5000, 364.9531
910.6260, 89.23438
911.7520, 59.50391
912.8780, 103.7656
914.0040, 92.01562
915.1290, 32.74609
916.2550, 3.464844
917.3800, 271.3398
918.5050, 4.300781
919.6300, 79.73438
920.7550, 173.2461
921.8800, 142.6719
923.0040, 109.4141
924.1290, 399.5664
925.2530, 132.0664
926.3770, 128.3047
927.5010, 14.75391
928.6250, 42.18359
929.7480, 43.64062
930.8720, 90.87500
931.9950, 18.92578
933.1180, 97.57031
934.2410, 13.26953
935.3640, 37.23438
936.4860, 119.7656
937.6090, 24.33594
938.7310, 58.20703
939.8530, 52.26172
940.9750, 44.58203
942.0970, 164.7773
943.2180, 29.81641
944.3400, 102.4727
945.4610, 251.9531
946.5820, 226.0469
947.7030, 134.1797
948.8240, 314.5820
949.9450, 72.98828
951.0650, 423.5352
952.1860, 397.1758
953.3060, 386.4609
954.4260, 504.1289
955.5460, 539.9141
956.6650, 461.4570
957.7850, 404.6992
958.9040, 437.3320
960.0230, 421.9258
961.1420, 442.5312
962.2610, 485.6406
963.3800, 403.5938
964.4990, 424.1953
965.6170, 423.3242
966.7350, 163.9727
967.8530, 528.3828
968.9710, 667.4336
970.0890, 702.4492
971.2070, 433.8086
972.3240, 790.8438
973.4410, 197.9922
974.5580, 363.7461
975.6750, 570.0352
976.7920, 641.5000
977.9090, 648.9805
979.0250, 763.5234
980.1410, 510.8555
981.2580, 818.3789
982.3740, 694.9180
983.4890, 605.4688
984.6050, 978.0312
985.7200, 691.6133
986.8360, 917.2109
987.9510, 741.8281
989.0660, 935.4492
990.1810, 975.0898
991.2950, 1001.750
992.4100, 763.4219
993.5240, 702.1094
994.6390, 849.8125
995.7530, 783.3828
996.8660, 1276.266
997.9800, 1119.016
999.0940, 1306.777
1000.207, 1906.555
1001.320, 1996.344
1002.433, 2019.156
1003.546, 1773.984
1004.659, 1696.824
1005.772, 1460.684
1006.884, 953.5586
1007.996, 1092.449
1009.108, 1323.355
1010.220, 1003.277
1011.332, 1391.223
1012.444, 1232.180
1013.555, 1370.156
1014.666, 1423.152
1015.777, 1436.164
1016.888, 1589.195
1017.999, 1483.246
1019.110, 1552.312
1020.220, 1793.398
1021.331, 1908.500
1022.441, 1921.625
1023.551, 2220.766
1024.661, 1801.934
1025.770, 1983.117
1026.880, 2236.316
1027.989, 1921.543
1029.098, 1981.785
1030.207, 2177.051
1031.316, 2146.332
1032.425, 2146.641
1033.533, 2148.973
1034.642, 2324.316
1035.750, 2288.688
1036.858, 2378.082
1037.966, 2107.496
1039.073, 2314.934
1040.181, 2254.395
1041.288, 2354.875
1042.396, 2405.375
1043.503, 2658.898
1044.610, 2649.453
1045.716, 2488.023
1046.823, 2536.516
1047.929, 2304.238
1049.036, 2476.840
1050.142, 2292.367
1051.248, 2492.242
1052.353, 2603.492
1053.459, 2619.234
1054.564, 2721.027
1055.670, 2491.277
1056.775, 2704.691
1057.880, 2644.973
1058.985, 2433.328
1060.089, 2862.809
1061.194, 2575.062
1062.298, 2688.883
1063.402, 2830.695
1064.506, 3126.711
1065.610, 2955.875
1066.713, 3037.953
1067.817, 3037.910
1068.920, 3123.203
1070.023, 3249.086
1071.126, 3398.629
1072.229, 3534.457
1073.332, 3685.945
1074.435, 3852.309
1075.537, 3869.367
1076.639, 3750.562
1077.741, 4151.941
1078.843, 4320.012
1079.945, 4222.133
1081.046, 4460.102
1082.148, 4289.621
1083.249, 4408.391
1084.350, 4502.855
1085.451, 4438.688
1086.551, 4505.172
1087.652, 4403.875
1088.752, 4301.621
1089.853, 4200.406
1090.953, 4386.227
1092.053, 3947.105
1093.152, 4320.008
1094.252, 4282.945
1095.351, 4099.906
1096.451, 3949.938
1097.550, 3962.980
1098.649, 3766.078
1099.748, 3980.215
1100.846, 3852.473
1101.945, 3880.711
1103.043, 3963.992
1104.141, 3763.301
1105.239, 3932.645
1106.337, 3656.098
1107.434, 3653.582
1108.532, 3617.090
1109.629, 3668.633
1110.726, 3751.203
1111.823, 3607.828
1112.920, 3661.750
1114.017, 3721.434
1115.113, 3591.145
1116.210, 3659.879
1117.306, 3378.645
1118.402, 3845.457
1119.498, 3338.297
1120.593, 3596.164
1121.689, 3498.062
1122.784, 3363.980
1123.879, 3560.930
1124.974, 3382.906
1126.069, 3256.914
1127.164, 3412.945
1128.259, 3086.004
1129.353, 3118.090
1130.447, 2825.203
1131.541, 2953.348
1132.635, 3021.516
1133.729, 2751.715
1134.822, 2959.938
1135.916, 2838.191
1137.009, 2680.469
1138.102, 2537.773
1139.195, 2507.113
1140.288, 2183.473
1141.380, 2568.863
1142.473, 2003.293
1143.565, 2130.742
1144.657, 2081.227
1145.749, 1886.738
1146.841, 2228.273
1147.932, 2074.840
1149.024, 1470.426
1150.115, 1565.059
1151.206, 1651.715
1152.297, 1596.445
1153.388, 1606.641
1154.479, 1524.500
1155.569, 1472.793
1156.659, 1326.633
1157.750, 1199.504
1158.839, 1140.398
1159.929, 1227.316
1161.019, 1121.887
1162.108, 1128.238
1163.198, 1023.238
1164.287, 1161.266
1165.376, 1063.320
1166.465, 1130.398
1167.553, 860.5039
1168.642, 749.6406
1169.730, 771.7969
1170.818, 642.9844
1171.906, 800.1953
1172.994, 846.4297
1174.082, 591.6953
1175.170, 705.9844
1176.257, 352.2969
1177.344, 460.6367
1178.431, 493.0000
1179.518, 582.3867
1180.605, 346.8164
1181.691, 450.2734
1182.778, 207.8242
1183.864, 188.4023
1184.950, 448.0039
1186.036, 221.6797
1187.122, 425.3789
1188.207, 419.1289
1189.292, 18.99219
1190.378, 28.91016
1191.463, 162.1328
1192.548, 111.7930
1193.632, 145.7500
1194.717, 104.7461
1195.801, 152.7617
1196.886, 106.8086
1197.970, 106.1211
1199.054, 180.0625
1200.137, 170.8945
1201.221, 55.09766
1202.305, 101.1367
1203.388, 7.175781
1204.471, 40.80469
1205.554, 89.18359
1206.637, 143.8164
1207.719, 23.84766
1208.802, 19.10547
1209.884, 145.0391
1210.966, 102.0117
1212.048, 25.00000
1213.130, 53.96875
1214.212, 22.94141
1215.293, 30.26953
1216.374, 274.3320
1217.456, 204.4141
1218.536, 281.5195
1219.617, 65.64453
1220.698, 255.8594
1221.778, 62.02344
1222.859, 45.21094
1223.939, 95.50781
1225.019, 34.73047
1226.099, 27.30469
1227.178, 71.55859
1228.258, 202.8359
1229.337, 186.1367
1230.417, 39.85156
1231.496, 114.4609
1232.574, 213.7891
1233.653, 239.1367
1234.732, 422.5039
1235.810, 212.1406
1236.888, 233.5430
1237.966, 400.9531
1239.044, 423.9844
1240.122, 257.7188
1241.199, 261.0742
1242.277, 8.144531
1243.354, 119.6367
1244.431, 85.15625
1245.508, 393.7031
1246.585, 140.2617
1247.661, 76.65625
1248.738, 336.2812
1249.814, 194.9375
1250.890, 139.6094
1251.966, 336.3008
1253.042, 373.0156
1254.117, 158.7461
1255.193, 89.48438
1256.268, 56.24219
1257.343, 179.0234
1258.418, 149.8203
1259.493, 132.6250
1260.567, 372.4531
1261.642, 270.2852
1262.716, 428.1484
1263.790, 467.0273
1264.864, 440.9219
1265.938, 584.8320
1267.011, 463.7578
1268.085, 424.6992
1269.158, 656.6484
1270.231, 616.6133
1271.304, 826.6719
1272.377, 845.6641
1273.450, 876.6680
1274.522, 789.6836
1275.594, 745.7031
1276.666, 897.7383
1277.738, 610.7891
1278.810, 455.2109
1279.882, 477.2812
1280.953, 615.4062
1282.025, 648.4961
1283.096, 651.7305
1284.167, 631.9219
1285.238, 598.9102
1286.308, 467.0273
1287.379, 368.1602
1288.449, 233.2969
1289.519, 332.4453
1290.589, 455.5977
1291.659, 617.7539
1292.729, 657.8477
1293.798, 746.0977
1294.868, 751.2734
1295.937, 747.4609
1297.006, 766.6523
1298.075, 685.8477
1299.143, 640.0508
1300.212, 455.2539
1301.280, 612.4922
1302.348, 710.7109
1303.416, 510.9297
1304.484, 788.1484
1305.552, 556.3750
1306.620, 603.6055
1307.687, 724.8320
1308.754, 831.0664
1309.821, 762.3008
1310.888, 984.5391
1311.955, 868.7773
1313.021, 1036.020
1314.088, 906.2617
1315.154, 1048.508
1316.220, 1074.988
1317.286, 1287.004
1318.352, 1141.773
1319.417, 1093.020
1320.483, 1050.160
1321.548, 987.4141
1322.613, 998.6562
1323.678, 1017.906
1324.743, 810.1602
1325.807, 614.4258
1326.872, 776.2656
1327.936, 576.2148
1329.000, 758.6719
1330.064, 347.9062
1331.128, 422.9336
1332.191, 85.00391
1333.255, 44.32031
1334.318, 484.9023
1335.381, 134.2305
1336.444, 148.5586
1337.507, 192.2305
1338.569, 134.8516
1339.632, 257.6680
1340.694, 361.9414
1341.756, 303.4727
1342.818, 20.47266
1343.880, 206.7188
1344.941, 174.9688
1346.003, 44.19531
1347.064, 388.4219
1348.125, 19.34766
1349.186, 269.8516
1350.247, 486.0586
1351.308, 26.26562
1352.368, 376.4844
1353.428, 121.3008
1354.489, 222.8906
1355.549, 37.08203
1356.608, 50.27344
1357.668, 109.5312
1358.727, 223.5820
1359.787, 74.75391
1360.846, 114.9102
1361.905, 235.0703
1362.964, 133.7656
1364.022, 111.3594
1365.081, 162.4688
1366.139, 10.51953
1367.197, 19.55859
1368.255, 78.44141
1369.313, 11.16016
1370.371, 413.4961
1371.428, 217.4492
1372.486, 216.1289
1373.543, 261.1680
1374.600, 57.47266
1375.657, 399.4688
1376.713, 212.9297
1377.770, 249.1055
1378.826, 531.7305
1379.882, 410.7695
1380.938, 243.7617
1381.994, 724.8047
1383.050, 225.9492
1384.106, 411.7773
1385.161, 210.7695
1386.216, 111.7656
1387.271, 203.1680
1388.326, 64.40234
1389.381, 128.8711
1390.435, 246.3711
1391.490, 164.5703
1392.544, 268.8750
1393.598, 213.7031
1394.652, 274.2812
1395.705, 112.2617
1396.759, 90.83984
1397.812, 2.503906
1398.866, 267.5078
1399.919, 314.4844
1400.972, 274.4648
1402.024, 137.4453
1403.077, 162.4219
1404.129, 233.4023
1405.181, 21.61719
1406.233, 196.3516
1407.285, 111.6797
1408.337, 262.2539
1409.389, 292.1719
1410.440, 18.07031
1411.491, 217.9062
1412.542, 94.61719
1413.593, 225.2695
1414.644, 298.8594
1415.695, 191.4414
1416.745, 126.9648
1417.795, 272.4805
1418.845, 198.9727
1419.895, 300.3789
1420.945, 294.7383
1421.995, 299.3867
1423.044, 336.6289
1424.093, 286.6875
1425.142, 306.4102
1426.191, 225.6055
1427.240, 90.77344
1428.289, 369.9023
1429.337, 120.9961
