##NAMES=Phillipsite-Ca
##RRUFFID=R050078
##IDEAL CHEMISTRY=Ca_3_(Si_10_Al_6_)O_32_&#183;12H_2_O
##LOCALITY=Grant County, Oregon, USA
##OWNER=RRUFF
##SOURCE=Rock Currier
##DESCRIPTION=White tabular hexagonal
##STATUS=The identification of this mineral has been confirmed by X-ray diffraction and chemical analysis
##URL=rruff.info/R050078
##MEASURED CHEMISTRY=(Ca_0.90_K_0.75_[box]_0.25_Na_0.10_)_Σ=2_(Si_5.35_Al_2.65_)_Σ=8_O_16_·6H_2_O
##PIN_ID=L00386
##ORIENTATION=Laser parallel to a* (1 0 0). Fiducial mark perpendicular to laser is parallel to b [0 1 0]
273.2760, 0.0000000E+00
274.4880, 140.9727
275.7000, 262.7578
276.9120, 372.8398
278.1230, 160.2207
279.3340, 307.6680
280.5450, 9.154297
281.7560, 350.7363
282.9670, 270.2188
284.1780, 253.1758
285.3880, 285.3516
286.5980, 230.5332
287.8090, 208.0410
289.0190, 282.9688
290.2290, 54.15039
291.4380, 126.4980
292.6480, 33.80664
293.8570, 180.1191
295.0670, 124.6152
296.2760, 224.5820
297.4850, 276.0234
298.6930, 123.3594
299.9020, 92.75391
301.1110, 121.9844
302.3190, 38.39844
303.5270, 206.0566
304.7350, 187.1113
305.9430, 256.9492
307.1510, 331.8145
308.3580, 158.7578
309.5660, 293.5977
310.7730, 73.33594
311.9800, 224.5684
313.1870, 128.2500
314.3940, 440.1055
315.6010, 431.2695
316.8070, 411.0645
318.0130, 85.88867
319.2200, 206.8809
320.4260, 275.9707
321.6310, 248.1621
322.8370, 390.4434
324.0430, 308.8145
325.2480, 324.2637
326.4540, 270.7852
327.6590, 159.3691
328.8640, 283.0039
330.0680, 130.6875
331.2730, 185.4141
332.4780, 316.1777
333.6820, 19.01562
334.8860, 7.826172
336.0900, 55.70312
337.2940, 22.61523
338.4980, 30.43750
339.7010, 19.06445
340.9050, 17.10547
342.1080, 43.61523
343.3110, 3.296875
344.5140, 54.18164
345.7170, 10.01367
346.9200, 33.50195
348.1220, 25.41406
349.3240, 9.984375
350.5270, 12.43945
351.7290, 66.96094
352.9310, 49.54102
354.1320, 83.76758
355.3340, 65.99805
356.5350, 169.8242
357.7370, 45.68359
358.9380, 91.57227
360.1390, 45.65820
361.3400, 112.8242
362.5400, 91.10547
363.7410, 260.4121
364.9410, 165.7109
366.1410, 210.0996
367.3410, 344.6191
368.5410, 359.9375
369.7410, 388.6270
370.9400, 518.1660
372.1400, 508.7051
373.3390, 527.2461
374.5380, 629.7812
375.7370, 612.2930
376.9360, 549.7559
378.1350, 787.1816
379.3330, 863.9180
380.5310, 1084.904
381.7300, 1226.176
382.9280, 1269.385
384.1260, 1398.572
385.3230, 1477.756
386.5210, 1537.852
387.7180, 1676.930
388.9160, 1796.012
390.1130, 2031.104
391.3100, 2311.207
392.5060, 2353.771
393.7030, 2522.781
394.9000, 2596.592
396.0960, 2678.746
397.2920, 3005.912
398.4880, 3087.092
399.6840, 3415.283
400.8800, 3462.488
402.0750, 3868.703
403.2710, 3961.934
404.4660, 4309.176
405.6610, 4600.430
406.8560, 4779.697
408.0510, 5059.988
409.2450, 5469.297
410.4400, 5725.619
411.6340, 6048.961
412.8280, 6432.318
414.0220, 6725.689
415.2160, 7038.082
416.4100, 7214.488
417.6030, 7546.062
418.7970, 7842.498
419.9900, 8128.762
421.1830, 8168.742
422.3760, 8118.703
423.5690, 7977.629
424.7610, 7925.234
425.9540, 7853.080
427.1460, 7830.068
428.3380, 7961.812
429.5300, 7800.047
430.7220, 7942.707
431.9140, 7689.312
433.1050, 7980.961
434.2970, 8113.512
435.4880, 8569.988
436.6790, 8725.059
437.8700, 8708.439
439.0610, 9187.742
440.2510, 9614.035
441.4420, 9882.619
442.6320, 10595.79
443.8220, 11528.80
445.0120, 12080.28
446.2020, 13203.05
447.3910, 13938.40
448.5810, 14648.52
449.7700, 15747.39
450.9600, 16801.64
452.1490, 18111.59
453.3370, 19565.42
454.5260, 20790.22
455.7150, 22018.78
456.9030, 23386.65
458.0910, 24659.19
459.2800, 25708.93
460.4670, 26817.68
461.6550, 28266.38
462.8430, 29631.16
464.0300, 30198.64
465.2180, 31420.13
466.4050, 32251.66
467.5920, 32864.48
468.7790, 33520.48
469.9650, 34087.03
471.1520, 34298.04
472.3380, 34634.61
473.5250, 34986.95
474.7110, 35134.63
475.8970, 35099.22
477.0820, 34894.58
478.2680, 34678.64
479.4540, 34307.68
480.6390, 33854.39
481.8240, 33228.35
483.0090, 32677.05
484.1940, 31608.02
485.3780, 30612.12
486.5630, 29258.12
487.7470, 27376.01
488.9320, 26112.75
490.1160, 24479.09
491.3000, 22784.02
492.4830, 21099.94
493.6670, 19411.94
494.8500, 17924.39
496.0340, 16421.68
497.2170, 15166.41
498.4000, 13706.20
499.5820, 12364.04
500.7650, 11248.48
501.9480, 10270.13
503.1300, 9131.613
504.3120, 8466.379
505.4940, 7943.070
506.6760, 7153.949
507.8580, 6559.840
509.0390, 6070.734
510.2210, 5480.633
511.4020, 5169.537
512.5830, 4820.426
513.7640, 4427.619
514.9450, 4183.895
516.1250, 3810.199
517.3060, 3715.125
518.4860, 3492.402
519.6660, 3367.344
520.8460, 3097.293
522.0260, 2914.252
523.2060, 2715.219
524.3850, 2839.188
525.5650, 2491.166
526.7440, 2395.150
527.9230, 2489.158
529.1020, 2284.172
530.2810, 2158.191
531.4590, 2142.246
532.6380, 2110.309
533.8160, 2063.385
534.9940, 1943.904
536.1720, 1818.492
537.3500, 1646.924
538.5270, 1531.148
539.7050, 1354.395
540.8820, 1311.342
542.0590, 1133.631
543.2360, 1007.943
544.4130, 918.2812
545.5900, 896.6387
546.7660, 772.0020
547.9430, 764.3750
549.1190, 783.7559
550.2950, 638.1387
551.4710, 675.5273
552.6470, 566.9316
553.8220, 329.6016
554.9980, 364.0137
556.1730, 429.4336
557.3480, 484.8652
558.5230, 301.3164
559.6980, 483.7930
560.8730, 142.3145
562.0470, 246.8477
563.2220, 241.3828
564.3960, 178.9277
565.5700, 140.4688
566.7440, 90.02539
567.9170, 34.51562
569.0910, 136.2363
570.2640, 6.148438
571.4380, 144.4590
572.6110, 286.0605
573.7840, 22.30273
574.9570, 95.67773
576.1290, 165.8965
577.3020, 49.49023
578.4740, 15.91797
579.6460, 165.6621
580.8180, 80.26758
581.9900, 4.865234
583.1620, 217.4805
584.3330, 270.0938
585.5040, 207.2930
586.6760, 65.20898
587.8470, 78.29297
589.0180, 69.16211
590.1880, 120.3574
591.3590, 3.058594
592.5290, 22.53320
593.7000, 62.85742
594.8700, 151.2480
596.0400, 126.6367
597.2090, 96.97266
598.3790, 40.61914
599.5490, 155.2891
600.7180, 28.98047
601.8870, 140.2422
603.0560, 15.50391
604.2250, 138.7598
605.3940, 230.0117
606.5620, 53.73633
607.7300, 40.48633
608.8990, 3.740234
610.0670, 262.9863
611.2350, 2.773438
612.4020, 115.4551
613.5700, 164.6875
614.7370, 91.91797
615.9050, 183.1367
617.0720, 248.3633
618.2390, 194.5996
619.4060, 409.8340
620.5720, 106.0664
621.7390, 435.3340
622.9050, 326.6074
624.0710, 161.8809
625.2370, 143.1797
626.4030, 454.4727
627.5690, 492.7676
628.7340, 372.0684
629.9000, 164.3711
631.0650, 362.6758
632.2300, 250.0254
633.3950, 518.2871
634.5600, 302.5820
635.7240, 426.8730
636.8890, 486.1543
638.0530, 243.4512
639.2170, 696.7559
640.3810, 643.0488
641.5450, 420.3301
642.7080, 438.6016
643.8720, 310.8594
645.0350, 315.7344
646.1980, 560.3379
647.3610, 360.8008
648.5240, 368.0059
649.6870, 358.1953
650.8490, 179.3984
652.0120, 565.5566
653.1740, 407.9512
654.3360, 513.0801
655.4980, 306.2031
656.6600, 310.3105
657.8210, 71.08789
658.9830, 236.5820
660.1440, 497.1602
661.3050, 339.6641
662.4660, 474.9805
663.6270, 291.2734
664.7870, 422.0059
665.9480, 349.4180
667.1080, 318.8301
668.2680, 283.5586
669.4280, 263.7910
670.5880, 299.7910
671.7480, 220.4922
672.9070, 362.5801
674.0670, 267.4238
675.2260, 276.3340
676.3850, 317.9141
677.5440, 220.1602
678.7030, 200.1777
679.8610, 36.48242
681.0200, 264.8477
682.1780, 406.3398
683.3360, 319.3105
684.4940, 426.2070
685.6520, 279.6035
686.8090, 374.4844
687.9670, 342.3984
689.1240, 257.4883
690.2810, 309.8828
691.4380, 377.4336
692.5950, 172.4766
693.7520, 384.7266
694.9080, 370.0801
696.0650, 274.2754
697.2210, 519.5273
698.3770, 277.3633
699.5330, 559.6094
700.6880, 578.9668
701.8440, 462.2070
702.9990, 522.1094
704.1550, 609.6406
705.3100, 473.2246
706.4650, 515.0176
707.6190, 469.4258
708.7740, 456.9160
709.9290, 456.8828
711.0830, 527.4512
712.2370, 706.0098
713.3910, 875.6113
714.5450, 799.4316
715.6980, 896.8105
716.8520, 748.2520
718.0050, 815.0059
719.1580, 840.1035
720.3110, 652.9883
721.4640, 880.1016
722.6170, 713.8672
723.7700, 778.4434
724.9220, 693.7148
726.0740, 819.1953
727.2260, 804.5391
728.3780, 595.6504
729.5300, 824.2051
730.6810, 962.7539
731.8330, 629.8125
732.9840, 961.4316
734.1350, 813.3105
735.2860, 820.4277
736.4370, 658.5293
737.5880, 740.8887
738.7380, 730.2344
739.8880, 786.2305
741.0390, 797.5254
742.1890, 870.0918
743.3380, 861.9746
744.4880, 795.6602
745.6380, 837.9473
746.7870, 888.6309
747.9360, 846.4648
749.0850, 753.1855
750.2340, 1150.260
751.3830, 994.5215
752.5310, 1169.248
753.6800, 1165.713
754.8280, 1126.941
755.9760, 1184.428
757.1240, 969.4180
758.2720, 1003.822
759.4190, 1278.641
760.5670, 1085.170
761.7140, 1086.447
762.8610, 1119.693
764.0080, 864.3359
765.1550, 1014.488
766.3020, 966.5977
767.4480, 936.6641
768.5950, 762.6895
769.7410, 1029.670
770.8870, 829.6074
772.0330, 968.2461
773.1780, 684.2207
774.3240, 507.0273
775.4690, 523.7910
776.6140, 392.4648
777.7590, 765.2422
778.9040, 457.8770
780.0490, 414.5957
781.1940, 661.2031
782.3380, 404.7051
783.4820, 426.1641
784.6260, 264.5781
785.7700, 393.9453
786.9140, 516.2695
788.0580, 315.5469
789.2010, 401.7812
790.3450, 262.2109
791.4880, 363.3555
792.6310, 389.2559
793.7730, 422.7812
794.9160, 157.8555
796.0590, 220.4727
797.2010, 68.38281
798.3430, 208.2363
799.4850, 249.0430
800.6270, 249.8008
801.7690, 139.5117
802.9100, 139.1719
804.0520, 18.78125
805.1930, 125.3164
806.3340, 238.8008
807.4750, 30.76367
808.6160, 118.5762
809.7560, 37.86328
810.8970, 141.9121
812.0370, 111.8477
813.1770, 4.078125
814.3170, 60.92578
815.4570, 70.71289
816.5960, 166.4316
817.7360, 107.5898
818.8750, 0.9570310
820.0140, 23.57422
821.1530, 2.195313
822.2920, 73.10156
823.4310, 222.3477
824.5690, 56.54297
825.7070, 156.6855
826.8460, 89.77930
827.9840, 28.82422
829.1220, 143.8008
830.2590, 92.46875
831.3970, 75.81055
832.5340, 9.177734
833.6710, 9.062500
834.8080, 67.38281
835.9450, 138.8105
837.0820, 14.38477
838.2190, 20.96094
839.3550, 6.246094
840.4910, 177.4609
841.6270, 7.367188
842.7630, 171.2676
843.8990, 207.6699
845.0350, 16.43359
846.1700, 152.3828
847.3060, 108.1582
848.4410, 111.1094
849.5760, 65.49414
850.7100, 211.0586
851.8450, 46.39453
852.9800, 38.06055
854.1140, 46.46875
855.2480, 65.16602
856.3820, 173.1016
857.5160, 42.66992
858.6500, 19.47656
859.7830, 24.57422
860.9170, 197.6230
862.0500, 193.6855
863.1830, 171.7109
864.3160, 96.28711
865.4480, 175.6133
866.5810, 62.50586
867.7130, 217.3574
868.8460, 84.17773
869.9780, 49.95898
871.1100, 8.697266
872.2410, 36.08203
873.3730, 104.0391
874.5050, 70.34180
875.6360, 124.2324
876.7670, 118.7715
877.8980, 231.2715
879.0290, 47.74023
880.1590, 5.832031
881.2900, 65.55273
882.4200, 151.0879
883.5500, 46.15039
884.6800, 203.3535
885.8100, 188.5254
886.9400, 35.33203
888.0690, 132.7520
889.1990, 159.8047
890.3280, 56.17578
891.4570, 152.7793
892.5860, 18.70117
893.7140, 165.5898
894.8430, 153.5508
895.9710, 91.19336
897.1000, 253.9062
898.2280, 101.4121
899.3560, 24.18945
900.4830, 302.7578
901.6110, 407.2930
902.7380, 418.2051
903.8660, 380.2871
904.9930, 307.7422
906.1200, 134.1699
907.2460, 13.42969
908.3730, 27.06055
909.5000, 350.2676
910.6260, 136.5684
911.7520, 333.8457
912.8780, 80.09766
914.0040, 141.3242
915.1290, 55.52734
916.2550, 67.70117
917.3800, 188.8516
918.5050, 318.9785
919.6300, 87.08398
920.7550, 329.9141
921.8800, 120.9727
923.0040, 148.0059
924.1290, 188.9883
925.2530, 2.976563
926.3770, 150.6934
927.5010, 59.36133
928.6250, 16.45703
929.7480, 27.42383
930.8720, 449.5977
931.9950, 313.0195
933.1180, 351.3184
934.2410, 477.6543
935.3640, 291.1426
936.4860, 217.6211
937.6090, 233.6211
938.7310, 186.6113
939.8530, 153.1680
940.9750, 289.0723
942.0970, 214.4395
943.2180, 338.0020
944.3400, 256.8262
945.4610, 377.2305
946.5820, 458.8438
947.7030, 356.3555
948.8240, 260.1582
949.9450, 502.2617
951.0650, 398.5605
952.1860, 564.5586
953.3060, 478.4570
954.4260, 586.1992
955.5460, 555.4258
956.6650, 701.0234
957.7850, 660.4258
958.9040, 669.6406
960.0230, 567.7871
961.1420, 696.7266
962.2610, 768.3262
963.3800, 619.7441
964.4990, 851.6328
965.6170, 683.2754
966.7350, 631.7871
967.8530, 596.4219
968.9710, 300.9668
970.0890, 846.8926
971.2070, 1011.377
972.3240, 949.7188
973.4410, 748.1426
974.5580, 900.8691
975.6750, 1096.939
976.7920, 1048.918
977.9090, 1114.668
979.0250, 940.9141
980.1410, 960.5391
981.2580, 1108.602
982.3740, 995.4902
983.4890, 1040.355
984.6050, 1162.066
985.7200, 985.4258
986.8360, 1181.549
987.9510, 1134.094
989.0660, 1149.756
990.1810, 1247.928
991.2950, 1145.242
992.4100, 1095.041
993.5240, 1195.527
994.6390, 1140.184
995.7530, 1340.742
996.8660, 1327.051
997.9800, 1156.836
999.0940, 1354.750
1000.207, 1364.324
1001.320, 1310.445
1002.433, 1197.215
1003.546, 1377.469
1004.659, 1304.598
1005.772, 1239.465
1006.884, 1483.691
1007.996, 1228.113
1009.108, 1371.352
1010.220, 1379.945
1011.332, 1337.535
1012.444, 1389.301
1013.555, 1455.500
1014.666, 1369.711
1015.777, 1629.281
1016.888, 1630.172
1017.999, 1664.715
1019.110, 1533.805
1020.220, 1560.914
1021.331, 1485.434
1022.441, 1477.465
1023.551, 1643.641
1024.661, 1640.152
1025.770, 1755.379
1026.880, 1599.082
1027.989, 1727.348
1029.098, 1948.117
1030.207, 1781.207
1031.316, 2040.527
1032.425, 2203.859
1033.533, 1896.801
1034.642, 1972.215
1035.750, 1908.645
1036.858, 1781.129
1037.966, 1847.664
1039.073, 2137.219
1040.181, 1998.789
1041.288, 2133.641
1042.396, 2036.133
1043.503, 2176.766
1044.610, 2247.422
1045.716, 2068.098
1046.823, 1833.742
1047.929, 2135.457
1049.036, 1889.074
1050.142, 2364.770
1051.248, 2275.551
1052.353, 2310.359
1053.459, 2339.184
1054.564, 2335.031
1055.670, 2397.000
1056.775, 2472.805
1057.880, 2510.742
1058.985, 2612.465
1060.089, 2694.445
1061.194, 2798.656
1062.298, 3097.223
1063.402, 3038.211
1064.506, 2913.293
1065.610, 3490.398
1066.713, 3278.539
1067.817, 3105.703
1068.920, 3147.895
1070.023, 3351.105
1071.126, 3314.113
1072.229, 3619.383
1073.332, 3866.691
1074.435, 3876.520
1075.537, 3562.395
1076.639, 4016.812
1077.741, 3824.254
1078.843, 3891.738
1079.945, 3926.301
1081.046, 3833.934
1082.148, 4037.609
1083.249, 4312.320
1084.350, 4232.762
1085.451, 4112.527
1086.551, 4165.910
1087.652, 4037.797
1088.752, 3992.734
1089.853, 3868.715
1090.953, 3828.727
1092.053, 3821.766
1093.152, 3643.320
1094.252, 3848.797
1095.351, 3971.930
1096.451, 3955.090
1097.550, 3889.289
1098.649, 3869.508
1099.748, 3820.141
1100.846, 3785.777
1101.945, 3727.395
1103.043, 3740.793
1104.141, 3700.285
1105.239, 3716.852
1106.337, 3823.383
1107.434, 3592.988
1108.532, 3607.625
1109.629, 3406.094
1110.726, 3322.598
1111.823, 3369.281
1112.920, 3357.117
1114.017, 3197.977
1115.113, 3239.867
1116.210, 3433.824
1117.306, 2898.809
1118.402, 3231.820
1119.498, 3178.137
1120.593, 2879.227
1121.689, 2971.445
1122.784, 3202.301
1123.879, 3226.832
1124.974, 2901.078
1126.069, 3037.516
1127.164, 2917.816
1128.259, 2666.816
1129.353, 2940.719
1130.447, 2590.102
1131.541, 2926.535
1132.635, 2904.996
1133.729, 2219.477
1134.822, 2422.988
1135.916, 2274.520
1137.009, 2469.078
1138.102, 2346.664
1139.195, 2356.289
1140.288, 2173.938
1141.380, 2312.617
1142.473, 2146.336
1143.565, 2057.691
1144.657, 2149.477
1145.749, 2146.871
1146.841, 1902.656
1147.932, 1802.547
1149.024, 1811.449
1150.115, 1946.375
1151.206, 2007.316
1152.297, 1680.117
1153.388, 1444.113
1154.479, 1487.828
1155.569, 1643.531
1156.659, 1141.602
1157.750, 1479.699
1158.839, 1121.945
1159.929, 1285.074
1161.019, 1230.262
1162.108, 1106.496
1163.198, 1091.754
1164.287, 1068.684
1165.376, 1039.133
1166.465, 805.3359
1167.553, 1039.785
1168.642, 768.7500
1169.730, 734.1328
1170.818, 966.5469
1171.906, 739.9570
1172.994, 743.3906
1174.082, 697.8438
1175.170, 545.3125
1176.257, 680.7930
1177.344, 510.2930
1178.431, 412.8867
1179.518, 618.4219
1180.605, 483.9648
1181.691, 589.5195
1182.778, 398.0938
1183.864, 420.8242
1184.950, 349.6875
1186.036, 341.0469
1187.122, 183.6758
1188.207, 230.7070
1189.292, 126.3633
1190.378, 317.0273
1191.463, 232.7070
1192.548, 585.4102
1193.632, 271.1211
1194.717, 220.8438
1195.801, 23.58203
1196.886, 236.3281
1197.970, 194.0898
1199.054, 432.8555
1200.137, 209.6328
1201.221, 69.57812
1202.305, 117.2070
1203.388, 194.0000
1204.471, 408.8047
1205.554, 127.6172
1206.637, 17.44531
1207.719, 151.2773
1208.802, 221.1172
1209.884, 201.0039
1210.966, 174.8594
1212.048, 161.7266
1213.130, 312.6055
1214.212, 120.5117
1215.293, 111.3320
1216.374, 25.62891
1217.456, 73.39844
1218.536, 225.7539
1219.617, 92.62109
1220.698, 15.50391
1221.778, 41.12500
1222.859, 20.86328
1223.939, 16.77344
1225.019, 57.14062
1226.099, 35.05859
1227.178, 253.9844
1228.258, 86.90625
1229.337, 11.83594
1230.417, 478.7695
1231.496, 193.7109
1232.574, 116.6602
1233.653, 197.0898
1234.732, 37.19531
1235.810, 73.14844
1236.888, 220.1172
1237.966, 45.07031
1239.044, 19.97266
1240.122, 75.01953
1241.199, 108.8164
1242.277, 138.7578
1243.354, 8.625000
1244.431, 14.48438
1245.508, 279.3477
1246.585, 98.21094
1247.661, 178.0703
1248.738, 74.06641
1249.814, 99.75000
1250.890, 17.41797
1251.966, 44.59766
1253.042, 229.8086
1254.117, 86.85938
1255.193, 32.48047
1256.268, 233.1562
1257.343, 39.20312
1258.418, 52.59375
1259.493, 49.97656
1260.567, 26.55078
1261.642, 84.11719
1262.716, 163.6797
1263.790, 366.2344
1264.864, 80.78516
1265.938, 136.3320
1267.011, 133.8711
1268.085, 421.4102
1269.158, 76.95703
1270.231, 127.4336
1271.304, 109.0078
1272.377, 119.5469
1273.450, 93.19141
1274.522, 37.89844
1275.594, 58.64844
1276.666, 34.11328
1277.738, 142.7461
1278.810, 149.9648
1279.882, 178.0312
1280.953, 36.16797
1282.025, 121.0156
1283.096, 18.13672
1284.167, 78.76172
1285.238, 132.2734
1286.308, 110.3594
1287.379, 41.37500
1288.449, 306.3789
1289.519, 272.3750
1290.589, 201.8945
1291.659, 146.8672
1292.729, 101.1680
1293.798, 177.7148
1294.868, 183.5820
1295.937, 74.55859
1297.006, 81.76953
1298.075, 124.9492
1299.143, 92.81250
1300.212, 407.5117
1301.280, 341.2031
1302.348, 125.8789
1303.416, 219.5469
1304.484, 380.1992
1305.552, 173.8398
1306.620, 88.49609
1307.687, 195.0898
1308.754, 414.6875
1309.821, 174.4062
1310.888, 275.9766
1311.955, 83.53516
1313.021, 244.0781
1314.088, 118.6094
1315.154, 344.1367
1316.220, 19.35938
1317.286, 234.0977
1318.352, 230.5312
1319.417, 229.9531
1320.483, 193.3516
1321.548, 379.7344
1322.613, 328.0938
1323.678, 182.4922
1324.743, 189.8242
1325.807, 382.1484
1326.872, 360.4766
1327.936, 473.7734
1329.000, 237.0586
1330.064, 461.5625
1331.128, 193.7930
1332.191, 256.0391
1333.255, 156.2695
1334.318, 248.4844
1335.381, 208.7930
1336.444, 445.8672
1337.507, 146.0430
1338.569, 315.2031
1339.632, 229.3672
1340.694, 345.6797
1341.756, 288.7969
1342.818, 158.1797
1343.880, 112.2461
1344.941, 116.6094
1346.003, 80.12891
1347.064, 160.6680
1348.125, 170.9375
1349.186, 260.0352
1350.247, 458.5859
1351.308, 435.1133
1352.368, 431.6055
1353.428, 481.5312
1354.489, 391.4414
1355.549, 378.3359
1356.608, 454.7539
1357.668, 436.6133
1358.727, 198.7461
1359.787, 376.5781
1360.846, 30.39062
1361.905, 146.2344
1362.964, 228.0078
1364.022, 181.7695
1365.081, 413.5117
1366.139, 375.2344
1367.197, 429.1523
1368.255, 265.1133
1369.313, 203.9062
1370.371, 357.5312
1371.428, 362.1367
1372.486, 372.8750
1373.543, 420.0781
1374.600, 422.6406
1375.657, 265.1953
1376.713, 351.4844
1377.770, 206.4062
1378.826, 197.3242
1379.882, 401.1289
1380.938, 206.2773
1381.994, 420.7383
1383.050, 302.0273
1384.106, 212.7969
1385.161, 282.8555
1386.216, 232.8789
1387.271, 328.2812
1388.326, 302.6758
1389.381, 227.0547
1390.435, 307.4102
1391.490, 349.7539
1392.544, 287.0859
1393.598, 237.4102
1394.652, 305.7188
1395.705, 173.1211
1396.759, 157.4023
1397.812, 386.6797
1398.866, 250.2383
1399.919, 346.7969
1400.972, 168.9297
1402.024, 380.8320
1403.077, 228.9883
1404.129, 185.3203
1405.181, 146.4023
1406.233, 119.4844
1407.285, 72.51562
1408.337, 137.7188
1409.389, 192.7461
1410.440, 205.0664
1411.491, 222.9609
1412.542, 133.3711
1413.593, 189.4180
1414.644, 343.1797
1415.695, 265.1406
1416.745, 69.77344
1417.795, 323.0430
1418.845, 174.9805
1419.895, 215.1406
1420.945, 386.9492
1421.995, 189.1172
1423.044, 463.6992
1424.093, 158.2188
1425.142, 99.12109
1426.191, 216.9844
1427.240, 216.7812
1428.289, 251.0469
