##NAMES=Phillipsite-Ca
##RRUFFID=R050078
##IDEAL CHEMISTRY=Ca_3_(Si_10_Al_6_)O_32_&#183;12H_2_O
##LOCALITY=Grant County, Oregon, USA
##OWNER=RRUFF
##SOURCE=Rock Currier
##DESCRIPTION=White tabular hexagonal
##STATUS=The identification of this mineral has been confirmed by X-ray diffraction and chemical analysis
##URL=rruff.info/R050078
##MEASURED CHEMISTRY=(Ca_0.90_K_0.75_[box]_0.25_Na_0.10_)_Σ=2_(Si_5.35_Al_2.65_)_Σ=8_O_16_·6H_2_O
##PIN_ID=L00386
##ORIENTATION=Laser parallel to a* (1 0 0). Fiducial mark perpendicular to laser is parallel to b [0 1 0]
273.2760, 0.0000000E+00
274.4880, 70.89844
275.7000, 48.96680
276.9120, 256.4785
278.1230, 328.1348
279.3340, 156.9395
280.5450, 168.3125
281.7560, 107.8555
282.9670, 169.8457
284.1780, 303.4453
285.3880, 150.2285
286.5980, 48.27734
287.8090, 216.4707
289.0190, 103.2578
290.2290, 57.01172
291.4380, 248.8672
292.6480, 14.31445
293.8570, 233.9258
295.0670, 181.0254
296.2760, 129.2168
297.4850, 297.6445
298.6930, 14.44336
299.9020, 47.72461
301.1110, 148.5723
302.3190, 204.0566
303.5270, 76.23633
304.7350, 323.1523
305.9430, 155.2227
307.1510, 280.4668
308.3580, 274.7344
309.5660, 314.0273
310.7730, 314.1426
311.9800, 504.8594
313.1870, 296.7539
314.3940, 518.6914
315.6010, 574.0742
316.8070, 468.8301
318.0130, 637.8008
319.2200, 585.9062
320.4260, 612.1543
321.6310, 624.1875
322.8370, 718.0801
324.0430, 661.7402
325.2480, 429.5176
326.4540, 616.4082
327.6590, 670.4023
328.8640, 414.4922
330.0680, 492.6699
331.2730, 475.9180
332.4780, 474.2363
333.6820, 495.6191
334.8860, 298.0625
336.0900, 245.5664
337.2940, 87.13086
338.4980, 242.7422
339.7010, 208.4121
340.9050, 24.13281
342.1080, 127.9004
343.3110, 53.71875
344.5140, 134.5820
345.7170, 142.5078
346.9200, 128.5312
348.1220, 21.36523
349.3240, 112.8066
350.5270, 1.066406
351.7290, 69.50781
352.9310, 73.97070
354.1320, 134.5449
355.3340, 32.07227
356.5350, 161.5625
357.7370, 98.98047
358.9380, 60.59570
360.1390, 186.2910
361.3400, 161.0586
362.5400, 235.9551
363.7410, 230.0898
364.9410, 286.2852
366.1410, 381.6680
367.3410, 441.1855
368.5410, 444.7598
369.7410, 668.4551
370.9400, 692.1836
372.1400, 700.8262
373.3390, 876.5020
374.5380, 1026.170
375.7370, 1136.951
376.9360, 1243.590
378.1350, 1376.510
379.3330, 1401.783
380.5310, 1615.416
381.7300, 1710.043
382.9280, 1819.656
384.1260, 2109.252
385.3230, 2012.783
386.5210, 2138.205
387.7180, 2478.506
388.9160, 2582.809
390.1130, 2742.117
391.3100, 2771.439
392.5060, 3107.766
393.7030, 3267.100
394.9000, 3319.441
396.0960, 3508.789
397.2920, 3547.146
398.4880, 3749.510
399.6840, 3906.881
400.8800, 4076.260
402.0750, 4315.646
403.2710, 4328.043
404.4660, 4640.443
405.6610, 4803.852
406.8560, 5325.266
408.0510, 5406.688
409.2450, 5915.117
410.4400, 6127.566
411.6340, 6482.041
412.8280, 6830.527
414.0220, 7232.023
415.2160, 7840.537
416.4100, 7968.059
417.6030, 8419.604
418.7970, 8507.004
419.9900, 8741.219
421.1830, 8894.246
422.3760, 8892.992
423.5690, 9013.590
424.7610, 8922.012
425.9540, 8869.492
427.1460, 8815.309
428.3380, 8815.750
429.5300, 8418.580
430.7220, 8512.543
431.9140, 8287.730
433.1050, 8204.014
434.2970, 8325.898
435.4880, 8351.232
436.6790, 8450.281
437.8700, 8783.398
439.0610, 9063.754
440.2510, 9514.449
441.4420, 9785.930
442.6320, 10481.18
443.8220, 10987.67
445.0120, 11724.88
446.2020, 12497.93
447.3910, 13172.09
448.5810, 14238.46
449.7700, 14893.89
450.9600, 16057.43
452.1490, 17128.57
453.3370, 18369.07
454.5260, 19448.71
455.7150, 20421.01
456.9030, 21553.48
458.0910, 22739.15
459.2800, 23925.89
460.4670, 25137.73
461.6550, 26290.20
462.8430, 27150.83
464.0300, 27972.51
465.2180, 28899.44
466.4050, 29563.28
467.5920, 30062.83
468.7790, 30788.39
469.9650, 31286.07
471.1520, 31774.66
472.3380, 32231.27
473.5250, 32701.89
474.7110, 32810.57
475.8970, 33116.20
477.0820, 32959.87
478.2680, 32791.63
479.4540, 32664.30
480.6390, 31951.67
481.8240, 31818.37
483.0090, 30833.07
484.1940, 30036.12
485.3780, 28956.74
486.5630, 27768.07
487.7470, 26174.75
488.9320, 24929.50
490.1160, 23245.18
491.3000, 21902.85
492.4830, 20123.51
493.6670, 18658.55
494.8500, 16998.41
496.0340, 15746.95
497.2170, 14288.86
498.4000, 13124.27
499.5820, 11979.61
500.7650, 10870.31
501.9480, 9958.855
503.1300, 9299.684
504.3120, 8256.512
505.4940, 8029.344
506.6760, 7157.180
507.8580, 6869.018
509.0390, 6574.855
510.2210, 6070.693
511.4020, 5894.531
512.5830, 5454.371
513.7640, 4972.209
514.9450, 5049.047
516.1250, 4769.885
517.3060, 4613.723
518.4860, 4317.559
519.6660, 4102.395
520.8460, 4075.230
522.0260, 3981.064
523.2060, 3833.896
524.3850, 3660.730
525.5650, 3567.564
526.7440, 3446.883
527.9230, 3350.717
529.1020, 3120.127
530.2810, 2856.445
531.4590, 2660.283
532.6380, 2404.125
533.8160, 2235.969
534.9940, 1969.814
536.1720, 1877.658
537.3500, 1681.166
538.5270, 1551.207
539.7050, 1443.238
540.8820, 1365.162
542.0590, 1411.133
543.2360, 1427.215
544.4130, 967.6680
545.5900, 1190.664
546.7660, 897.8574
547.9430, 1065.135
549.1190, 849.1973
550.2950, 513.5723
551.4710, 698.9258
552.6470, 694.0215
553.8220, 499.1406
554.9980, 356.8457
556.1730, 537.0430
557.3480, 323.2441
558.5230, 406.4688
559.6980, 371.6836
560.8730, 154.2598
562.0470, 188.4785
563.2220, 222.6895
564.3960, 345.8906
565.5700, 199.1055
566.7440, 44.68359
567.9170, 291.4980
569.0910, 86.29688
570.2640, 62.14648
571.4380, 168.9648
572.6110, 75.07227
573.7840, 0.1738280
574.9570, 14.25781
576.1290, 66.35742
577.3020, 57.44727
578.4740, 102.8711
579.6460, 42.61523
580.8180, 175.7344
581.9900, 11.84766
583.1620, 38.94727
584.3330, 108.8965
585.5040, 65.19336
586.6760, 117.2910
587.8470, 12.39258
589.0180, 79.52148
590.1880, 29.50781
591.3590, 129.4746
592.5290, 170.5469
593.7000, 20.27148
594.8700, 34.92578
596.0400, 59.84180
597.2090, 112.4043
598.3790, 165.7266
599.5490, 57.13672
600.7180, 87.41602
601.8870, 202.9551
603.0560, 149.5137
604.2250, 54.05078
605.3940, 87.36914
606.5620, 114.8066
607.7300, 204.2285
608.8990, 217.2344
610.0670, 167.0449
611.2350, 213.4375
612.4020, 277.8164
613.5700, 290.1875
614.7370, 181.5469
615.9050, 317.8887
617.0720, 200.2207
618.2390, 170.5410
619.4060, 467.8477
620.5720, 446.1406
621.7390, 438.4219
622.9050, 300.6875
624.0710, 700.9863
625.2370, 675.2754
626.4030, 708.5469
627.5690, 730.8301
628.7340, 584.0996
629.9000, 866.3516
631.0650, 683.6172
632.2300, 759.8750
633.3950, 994.1191
634.5600, 654.3516
635.7240, 793.5898
636.8890, 656.8105
638.0530, 748.0547
639.2170, 639.3203
640.3810, 697.6133
641.5450, 517.8867
642.7080, 763.1445
643.8720, 584.3828
645.0350, 610.6016
646.1980, 702.8008
647.3610, 589.9805
648.5240, 672.2012
649.6870, 636.2910
650.8490, 693.4102
652.0120, 603.5176
653.1740, 533.6016
654.3360, 538.6660
655.4980, 422.7109
656.6600, 414.8828
657.8210, 469.8867
658.9830, 389.8691
660.1440, 543.8340
661.3050, 350.9473
662.4660, 510.8672
663.6270, 322.1426
664.7870, 407.0176
665.9480, 115.9414
667.1080, 308.1270
668.2680, 220.5176
669.4280, 446.9219
670.5880, 303.2539
671.7480, 379.6816
672.9070, 371.6777
674.0670, 269.2422
675.2260, 334.2793
676.3850, 285.3184
677.5440, 257.4766
678.7030, 275.4668
679.8610, 356.7520
681.0200, 380.5723
682.1780, 252.4883
683.3360, 183.5352
684.4940, 21.83398
685.6520, 252.2305
686.8090, 234.0332
687.9670, 381.1348
689.1240, 221.5859
690.2810, 234.5625
691.4380, 406.5586
692.5950, 366.2031
693.7520, 179.0000
694.9080, 362.7344
696.0650, 450.7207
697.2210, 644.4902
698.3770, 378.2773
699.5330, 247.6680
700.6880, 484.2402
701.8440, 365.4238
702.9990, 418.9844
704.1550, 469.5684
705.3100, 486.8906
706.4650, 603.1484
707.6190, 663.1523
708.7740, 750.7637
709.9290, 664.2207
711.0830, 944.3750
712.2370, 626.5410
713.3910, 499.4844
714.5450, 860.5332
715.6980, 849.4043
716.8520, 755.8926
718.0050, 656.4844
719.1580, 559.6172
720.3110, 1019.047
721.4640, 943.6934
722.6170, 1106.330
723.7700, 1197.277
724.9220, 1129.660
726.0740, 987.5273
727.2260, 917.6973
728.3780, 903.0605
729.5300, 1033.797
730.6810, 954.0566
731.8330, 1084.680
732.9840, 1227.910
734.1350, 887.9023
735.2860, 1042.211
736.4370, 974.1387
737.5880, 1144.168
738.7380, 1079.043
739.8880, 1353.373
741.0390, 1308.248
742.1890, 1252.482
743.3380, 1384.551
744.4880, 1365.648
745.6380, 1438.797
746.7870, 1562.609
747.9360, 1539.949
749.0850, 1621.254
750.2340, 1535.854
751.3830, 1674.367
752.5310, 1601.133
753.6800, 1568.258
754.8280, 1730.818
755.9760, 1649.514
757.1240, 1924.850
758.2720, 1777.930
759.4190, 2008.004
760.5670, 1852.383
761.7140, 1811.721
762.8610, 1932.125
764.0080, 1567.920
765.1550, 1755.168
766.3020, 1805.990
767.4480, 1740.119
768.5950, 1756.572
769.7410, 1698.449
770.8870, 1645.432
772.0330, 1520.271
773.1780, 1438.162
774.3240, 1303.746
775.4690, 1402.334
776.6140, 1283.434
777.7590, 1094.850
778.9040, 1264.082
780.0490, 1107.270
781.1940, 977.4141
782.3380, 1180.510
783.4820, 1099.562
784.6260, 839.5723
785.7700, 875.5371
786.9140, 851.4551
788.0580, 832.9863
789.2010, 721.8145
790.3450, 675.5996
791.4880, 542.3535
792.6310, 585.0469
793.7730, 311.1328
794.9160, 545.7363
796.0590, 415.5000
797.2010, 495.0508
798.3430, 303.5215
799.4850, 375.9414
800.6270, 252.3203
801.7690, 342.6484
802.9100, 323.9336
804.0520, 253.6836
805.1930, 198.8750
806.3340, 187.9590
807.4750, 199.0488
808.6160, 169.0898
809.7560, 266.0801
810.8970, 126.0215
812.0370, 241.9121
813.1770, 124.7539
814.3170, 99.54688
815.4570, 50.71875
816.5960, 88.08984
817.7360, 113.5020
818.8750, 36.23633
820.0140, 103.0684
821.1530, 21.63477
822.2920, 99.73828
823.4310, 63.59180
824.5690, 48.30859
825.7070, 3.812500
826.8460, 13.30859
827.9840, 130.1426
829.1220, 42.19727
830.2590, 77.63477
831.3970, 125.7422
832.5340, 99.55664
833.6710, 49.19141
834.8080, 119.9551
835.9450, 13.94727
837.0820, 40.71289
838.2190, 232.6738
839.3550, 131.5879
840.4910, 22.54492
841.6270, 39.23828
842.7630, 198.9648
843.8990, 65.33789
845.0350, 175.2520
846.1700, 38.82227
847.3060, 459.3594
848.4410, 68.85352
849.5760, 242.3027
850.7100, 237.7168
851.8450, 81.08789
852.9800, 151.4160
854.1140, 3.703125
855.2480, 122.0723
856.3820, 37.02344
857.5160, 256.0723
858.6500, 214.9160
859.7830, 291.9238
860.9170, 53.24219
862.0500, 4.503906
863.1830, 65.19141
864.3160, 47.84180
865.4480, 158.4707
866.5810, 241.0645
867.7130, 361.6582
868.8460, 337.5645
869.9780, 19.83594
871.1100, 265.3770
872.2410, 22.88477
873.3730, 44.61719
874.5050, 15.14648
875.6360, 195.2832
876.7670, 148.6816
877.8980, 102.9590
879.0290, 37.33984
880.1590, 108.3789
881.2900, 208.7988
882.4200, 101.9434
883.5500, 105.0527
884.6800, 45.12305
885.8100, 106.1562
886.9400, 123.1562
888.0690, 50.11914
889.1990, 201.0469
890.3280, 74.94141
891.4570, 29.80469
892.5860, 78.63086
893.7140, 151.4238
894.8430, 140.1855
895.9710, 53.91797
897.1000, 163.3867
898.2280, 22.19141
899.3560, 209.7344
900.4830, 87.75000
901.6110, 121.6855
902.7380, 35.09375
903.8660, 96.53125
904.9930, 68.76367
906.1200, 30.02930
907.2460, 50.26562
908.3730, 25.47070
909.5000, 84.64844
910.6260, 69.79297
911.7520, 120.0840
912.8780, 83.94727
914.0040, 120.9551
915.1290, 320.9355
916.2550, 166.8926
917.3800, 113.8242
918.5050, 250.7344
919.6300, 166.6211
920.7550, 103.4824
921.8800, 133.3203
923.0040, 44.86523
924.1290, 338.9082
925.2530, 138.6621
926.3770, 74.39453
927.5010, 116.1055
928.6250, 7.257813
929.7480, 146.3066
930.8720, 15.94727
931.9950, 34.43359
933.1180, 225.1523
934.2410, 109.5527
935.3640, 216.1016
936.4860, 147.2539
937.6090, 232.7617
938.7310, 215.1836
939.8530, 169.2969
940.9750, 251.3438
942.0970, 379.9902
943.2180, 339.8418
944.3400, 404.5566
945.4610, 425.6641
946.5820, 483.1602
947.7030, 482.1426
948.8240, 552.6738
949.9450, 570.8633
951.0650, 693.7715
952.1860, 645.3652
953.3060, 748.3496
954.4260, 696.9297
955.5460, 754.9688
956.6650, 610.3867
957.7850, 592.6602
958.9040, 595.4863
960.0230, 565.9746
961.1420, 583.0703
962.2610, 776.6016
963.3800, 709.1016
964.4990, 913.9082
965.6170, 819.5293
966.7350, 745.1738
967.8530, 638.5293
968.9710, 906.0625
970.0890, 773.5371
971.2070, 599.3730
972.3240, 883.9883
973.4410, 743.9551
974.5580, 936.5059
975.6750, 813.9980
976.7920, 969.7129
977.9090, 890.5684
979.0250, 1040.527
980.1410, 934.3086
981.2580, 1163.168
982.3740, 1188.402
983.4890, 1175.639
984.6050, 1078.830
985.7200, 1191.938
986.8360, 1218.400
987.9510, 1291.568
989.0660, 1081.986
990.1810, 1183.016
991.2950, 1282.227
992.4100, 1042.559
993.5240, 1221.977
994.6390, 1234.324
995.7530, 1110.035
996.8660, 1183.439
997.9800, 1290.082
999.0940, 1388.646
1000.207, 1540.717
1001.320, 1369.129
1002.433, 1711.551
1003.546, 1457.980
1004.659, 1434.461
1005.772, 1631.932
1006.884, 1567.508
1007.996, 1378.594
1009.108, 1390.600
1010.220, 1399.791
1011.332, 1419.662
1012.444, 1481.984
1013.555, 1638.812
1014.666, 1589.346
1015.777, 1814.975
1016.888, 1907.209
1017.999, 1925.527
1019.110, 1790.617
1020.220, 2056.023
1021.331, 1859.555
1022.441, 2067.809
1023.551, 2200.660
1024.661, 2341.098
1025.770, 2151.371
1026.880, 2439.875
1027.989, 2108.742
1029.098, 2485.582
1030.207, 2405.117
1031.316, 2524.691
1032.425, 2560.164
1033.533, 2634.227
1034.642, 2691.051
1035.750, 2738.133
1036.858, 2797.426
1037.966, 2863.723
1039.073, 2940.566
1040.181, 3067.293
1041.288, 2900.137
1042.396, 2957.906
1043.503, 2998.953
1044.610, 2907.969
1045.716, 3094.453
1046.823, 3013.594
1047.929, 3008.895
1049.036, 3015.211
1050.142, 2924.551
1051.248, 3016.910
1052.353, 3003.289
1053.459, 3109.688
1054.564, 2991.102
1055.670, 2995.539
1056.775, 2940.344
1057.880, 3133.824
1058.985, 3204.324
1060.089, 3245.562
1061.194, 3413.375
1062.298, 3425.504
1063.402, 3391.090
1064.506, 3607.496
1065.610, 3542.090
1066.713, 3695.746
1067.817, 3576.422
1068.920, 3769.117
1070.023, 3762.840
1071.126, 3765.590
1072.229, 3888.355
1073.332, 3858.578
1074.435, 4114.402
1075.537, 3855.250
1076.639, 4073.543
1077.741, 4022.445
1078.843, 3911.375
1079.945, 4415.328
1081.046, 4166.305
1082.148, 4241.312
1083.249, 4289.352
1084.350, 4345.746
1085.451, 4614.906
1086.551, 4353.141
1087.652, 4152.805
1088.752, 4270.164
1089.853, 3969.559
1090.953, 3960.977
1092.053, 4191.438
1093.152, 4074.930
1094.252, 4227.465
1095.351, 4162.066
1096.451, 4221.672
1097.550, 4150.336
1098.649, 4109.250
1099.748, 4066.699
1100.846, 3981.543
1101.945, 3865.426
1103.043, 3778.789
1104.141, 3721.129
1105.239, 3687.062
1106.337, 3643.730
1107.434, 3689.766
1108.532, 3706.848
1109.629, 3744.957
1110.726, 3546.102
1111.823, 3149.723
1112.920, 3376.949
1114.017, 3327.199
1115.113, 3162.477
1116.210, 3491.449
1117.306, 3375.777
1118.402, 3269.137
1119.498, 3113.520
1120.593, 3036.930
1121.689, 2962.379
1122.784, 2994.891
1123.879, 2990.203
1124.974, 2977.773
1126.069, 2922.430
1127.164, 2687.324
1128.259, 2859.055
1129.353, 2809.062
1130.447, 2484.848
1131.541, 2855.664
1132.635, 2685.500
1133.729, 2397.363
1134.822, 2525.246
1135.916, 2487.852
1137.009, 2449.781
1138.102, 2248.734
1139.195, 2219.715
1140.288, 2157.734
1141.380, 2157.785
1142.473, 2056.863
1143.565, 2035.965
1144.657, 1763.574
1145.749, 1647.512
1146.841, 1558.820
1147.932, 1819.438
1149.024, 1405.555
1150.115, 1537.875
1151.206, 1595.164
1152.297, 1473.355
1153.388, 1510.742
1154.479, 1268.922
1155.569, 1331.941
1156.659, 1044.379
1157.750, 962.8398
1158.839, 1240.977
1159.929, 1093.473
1161.019, 1391.992
1162.108, 949.7227
1163.198, 853.3164
1164.287, 805.9414
1165.376, 922.5820
1166.465, 901.2656
1167.553, 807.9648
1168.642, 843.6836
1169.730, 588.4531
1170.818, 730.9453
1171.906, 583.7422
1172.994, 640.5586
1174.082, 663.3906
1175.170, 473.2383
1176.257, 705.1250
1177.344, 400.0273
1178.431, 554.9531
1179.518, 457.8867
1180.605, 368.8359
1181.691, 163.8125
1182.778, 58.80078
1183.864, 224.8086
1184.950, 332.8242
1186.036, 301.8594
1187.122, 320.9023
1188.207, 206.9688
1189.292, 70.04297
1190.378, 89.06641
1191.463, 184.2383
1192.548, 59.35156
1193.632, 254.4805
1194.717, 266.6211
1195.801, 181.7734
1196.886, 97.94141
1197.970, 131.1250
1199.054, 42.31250
1200.137, 206.5195
1201.221, 20.73047
1202.305, 136.9570
1203.388, 57.63281
1204.471, 85.68359
1205.554, 122.9180
1206.637, 24.06641
1207.719, 145.1836
1208.802, 60.45703
1209.884, 183.7266
1210.966, 65.01562
1212.048, 304.3047
1213.130, 198.6055
1214.212, 112.0781
1215.293, 229.7500
1216.374, 114.0352
1217.456, 18.66797
1218.536, 171.6289
1219.617, 191.9336
1220.698, 29.24609
1221.778, 120.9766
1222.859, 247.3008
1223.939, 82.63672
1225.019, 130.0273
1226.099, 245.2617
1227.178, 82.55469
1228.258, 28.14453
1229.337, 151.1523
1230.417, 330.6055
1231.496, 66.90625
1232.574, 14.78516
1233.653, 176.5156
1234.732, 134.8242
1235.810, 131.1406
1236.888, 166.4570
1237.966, 56.77734
1239.044, 24.10156
1240.122, 82.42188
1241.199, 32.25000
1242.277, 187.0625
1243.354, 102.3828
1244.431, 21.70703
1245.508, 51.97266
1246.585, 223.3281
1247.661, 72.87891
1248.738, 37.17578
1249.814, 141.8008
1250.890, 196.8945
1251.966, 70.30469
1253.042, 79.49609
1254.117, 149.6602
1255.193, 127.8125
1256.268, 16.03125
1257.343, 64.11328
1258.418, 65.75000
1259.493, 36.43750
1260.567, 56.74609
1261.642, 285.8359
1262.716, 58.20703
1263.790, 28.29297
1264.864, 82.62109
1265.938, 205.4062
1267.011, 269.4297
1268.085, 414.4531
1269.158, 351.6250
1270.231, 381.1289
1271.304, 294.7578
1272.377, 324.5000
1273.450, 12.81250
1274.522, 10.19531
1275.594, 209.7852
1276.666, 189.0664
1277.738, 151.0742
1278.810, 133.6953
1279.882, 87.54688
1280.953, 116.8516
1282.025, 165.7578
1283.096, 50.64062
1284.167, 0.9140630
1285.238, 185.4453
1286.308, 138.9688
1287.379, 77.51953
1288.449, 184.9336
1289.519, 65.62500
1290.589, 36.19531
1291.659, 163.1484
1292.729, 116.5586
1293.798, 331.8906
1294.868, 204.6641
1295.937, 121.9766
1297.006, 397.3672
1298.075, 257.6641
1299.143, 6.050781
1300.212, 135.1992
1301.280, 192.4375
1302.348, 365.6641
1303.416, 130.8789
1304.484, 85.08203
1305.552, 522.2734
1306.620, 229.4531
1307.687, 305.6250
1308.754, 183.7852
1309.821, 297.4492
1310.888, 353.5820
1311.955, 172.7109
1313.021, 155.8203
1314.088, 148.9180
1315.154, 155.0000
1316.220, 493.0742
1317.286, 210.1289
1318.352, 411.1719
1319.417, 506.1992
1320.483, 297.2188
1321.548, 281.2148
1322.613, 291.2188
1323.678, 208.1445
1324.743, 296.0938
1325.807, 311.0312
1326.872, 290.9570
1327.936, 322.6406
1329.000, 265.7695
1330.064, 333.6562
1331.128, 91.53125
1332.191, 113.9688
1333.255, 273.8125
1334.318, 58.86719
1335.381, 313.2656
1336.444, 138.0664
1337.507, 355.8555
1338.569, 330.6289
1339.632, 436.3945
1340.694, 409.1406
1341.756, 258.8750
1342.818, 68.29688
1343.880, 321.9961
1344.941, 144.6953
1346.003, 291.9961
1347.064, 382.3867
1348.125, 247.3672
1349.186, 45.00000
1350.247, 182.6133
1351.308, 279.2188
1352.368, 220.8047
1353.428, 403.6055
1354.489, 331.4805
1355.549, 346.0781
1356.608, 441.7422
1357.668, 116.3320
1358.727, 224.8320
1359.787, 204.4219
1360.846, 380.6719
1361.905, 468.3125
1362.964, 425.4336
1364.022, 451.8789
1365.081, 661.2617
1366.139, 512.7422
1367.197, 483.7617
1368.255, 251.4492
1369.313, 258.3516
1370.371, 194.2188
1371.428, 167.5273
1372.486, 434.8008
1373.543, 379.3828
1374.600, 106.6250
1375.657, 375.8516
1376.713, 94.06641
1377.770, 254.9297
1378.826, 366.1133
1379.882, 444.3281
1380.938, 320.1953
1381.994, 234.6133
1383.050, 372.0312
1384.106, 167.0391
1385.161, 327.1289
1386.216, 137.9531
1387.271, 108.0195
1388.326, 287.0703
1389.381, 94.11328
1390.435, 272.1406
1391.490, 267.1562
1392.544, 182.4609
1393.598, 285.4531
1394.652, 257.5664
1395.705, 274.0078
1396.759, 163.8867
1397.812, 256.8359
1398.866, 215.9609
1399.919, 89.27344
1400.972, 175.7148
1402.024, 22.16016
1403.077, 343.9297
1404.129, 322.7266
1405.181, 403.7305
1406.233, 216.5391
1407.285, 273.5352
1408.337, 298.4844
1409.389, 436.4297
1410.440, 182.3906
1411.491, 219.5273
1412.542, 293.2539
1413.593, 290.9414
1414.644, 285.0156
1415.695, 381.7188
1416.745, 113.9688
1417.795, 197.1719
1418.845, 25.05078
1419.895, 299.9062
1420.945, 31.77344
1421.995, 336.3594
1423.044, 7.917969
1424.093, 144.4648
1425.142, 177.9883
1426.191, 190.7227
1427.240, 216.3281
1428.289, 442.3281
