##NAMES=Phillipsite-Ca
##RRUFFID=R050078
##IDEAL CHEMISTRY=Ca_3_(Si_10_Al_6_)O_32_&#183;12H_2_O
##LOCALITY=Grant County, Oregon, USA
##OWNER=RRUFF
##SOURCE=Rock Currier
##DESCRIPTION=White tabular hexagonal
##STATUS=The identification of this mineral has been confirmed by X-ray diffraction and chemical analysis
##URL=rruff.info/R050078
##MEASURED CHEMISTRY=(Ca_0.90_K_0.75_[box]_0.25_Na_0.10_)_Σ=2_(Si_5.35_Al_2.65_)_Σ=8_O_16_·6H_2_O
##PIN_ID=L00386
##ORIENTATION=Laser parallel to a* (1 0 0). Fiducial mark perpendicular to laser is parallel to b [0 1 0]
273.2760, 0.0000000E+00
274.4880, 216.5430
275.7000, 0.4492190
276.9120, 44.53516
278.1230, 15.14258
279.3340, 30.50586
280.5450, 114.1934
281.7560, 140.4883
282.9670, 3.923828
284.1780, 108.8320
285.3880, 261.6875
286.5980, 23.58594
287.8090, 108.7480
289.0190, 75.04883
290.2290, 267.3184
291.4380, 337.0469
292.6480, 7.201172
293.8570, 187.3027
295.0670, 263.0996
296.2760, 133.0820
297.4850, 247.1777
298.6930, 307.3633
299.9020, 83.57227
301.1110, 177.9980
302.3190, 82.29102
303.5270, 137.3359
304.7350, 361.2383
305.9430, 346.0723
307.1510, 30.47461
308.3580, 223.9570
309.5660, 170.6699
310.7730, 77.20508
311.9800, 406.0977
313.1870, 163.7344
314.3940, 331.3672
315.6010, 253.9824
316.8070, 375.2988
318.0130, 283.6895
319.2200, 61.73633
320.4260, 348.8828
321.6310, 330.1250
322.8370, 79.45508
324.0430, 388.8652
325.2480, 85.34766
326.4540, 380.8984
327.6590, 143.5078
328.8640, 290.1660
330.0680, 391.8613
331.2730, 229.5879
332.4780, 68.34375
333.6820, 167.1270
334.8860, 5.060547
336.0900, 50.78516
337.2940, 63.65234
338.4980, 79.54883
339.7010, 119.4727
340.9050, 15.42188
342.1080, 113.4004
343.3110, 147.4043
344.5140, 171.4375
345.7170, 65.52539
346.9200, 6.740234
348.1220, 140.9395
349.3240, 117.5234
350.5270, 158.9922
351.7290, 98.63086
352.9310, 135.4395
354.1320, 196.3359
355.3340, 12.70312
356.5350, 171.3145
357.7370, 88.40430
358.9380, 15.58984
360.1390, 69.90234
361.3400, 83.26758
362.5400, 5.720703
363.7410, 215.1719
364.9410, 233.6094
366.1410, 296.1172
367.3410, 346.6172
368.5410, 385.0918
369.7410, 230.6172
370.9400, 410.1133
372.1400, 591.5859
373.3390, 547.0410
374.5380, 832.4863
375.7370, 611.9121
376.9360, 666.2754
378.1350, 924.6074
379.3330, 925.9141
380.5310, 973.2031
381.7300, 1181.475
382.9280, 1330.660
384.1260, 1404.609
385.3230, 1604.494
386.5210, 1740.369
387.7180, 2028.234
388.9160, 1993.090
390.1130, 2177.941
391.3100, 2324.795
392.5060, 2379.660
393.7030, 2779.539
394.9000, 2591.428
396.0960, 2836.328
397.2920, 3353.242
398.4880, 3367.164
399.6840, 3463.098
400.8800, 3768.043
402.0750, 3820.002
403.2710, 3995.969
404.4660, 4268.953
405.6610, 4443.953
406.8560, 4761.971
408.0510, 5140.004
409.2450, 5268.051
410.4400, 5676.117
411.6340, 5957.199
412.8280, 6223.301
414.0220, 6615.416
415.2160, 6827.555
416.4100, 7166.734
417.6030, 7337.906
418.7970, 7593.828
419.9900, 7512.770
421.1830, 7734.812
422.3760, 7551.580
423.5690, 7763.301
424.7610, 7573.984
425.9540, 7572.529
427.1460, 7481.562
428.3380, 7343.949
429.5300, 7511.883
430.7220, 7261.072
431.9140, 7543.213
433.1050, 7407.527
434.2970, 7596.742
435.4880, 7803.748
436.6790, 8076.273
437.8700, 8227.930
439.0610, 8680.656
440.2510, 8848.035
441.4420, 9473.402
442.6320, 9967.066
443.8220, 10688.01
445.0120, 11302.03
446.2020, 12275.95
447.3910, 12871.10
448.5810, 13768.61
449.7700, 14838.42
450.9600, 15984.56
452.1490, 17018.72
453.3370, 18175.43
454.5260, 19278.14
455.7150, 20519.89
456.9030, 21594.24
458.0910, 22866.51
459.2800, 23763.54
460.4670, 24921.85
461.6550, 25949.00
462.8430, 26914.74
464.0300, 27606.34
465.2180, 28492.72
466.4050, 29142.65
467.5920, 29547.96
468.7790, 30242.09
469.9650, 30745.56
471.1520, 31185.34
472.3380, 31366.73
473.5250, 31578.13
474.7110, 31496.36
475.8970, 31649.58
477.0820, 31721.58
478.2680, 31510.39
479.4540, 30888.49
480.6390, 30122.83
481.8240, 29874.40
483.0090, 28854.31
484.1940, 28164.71
485.3780, 26981.64
486.5630, 26130.74
487.7470, 24633.96
488.9320, 23262.60
490.1160, 21595.01
491.3000, 20022.27
492.4830, 18921.07
493.6670, 17296.35
494.8500, 15865.37
496.0340, 14341.57
497.2170, 13209.03
498.4000, 12207.76
499.5820, 11174.14
500.7650, 9902.199
501.9480, 9183.547
503.1300, 8171.521
504.3120, 7555.590
505.4940, 6964.762
506.6760, 6316.371
507.8580, 5781.988
509.0390, 5544.605
510.2210, 4957.230
511.4020, 4691.857
512.5830, 4348.488
513.7640, 4301.121
514.9450, 3938.760
516.1250, 3873.400
517.3060, 3457.045
518.4860, 3459.709
519.6660, 3234.373
520.8460, 3107.047
522.0260, 3212.723
523.2060, 2906.406
524.3850, 2714.092
525.5650, 2527.781
526.7440, 2619.479
527.9230, 2425.184
529.1020, 2302.898
530.2810, 2106.641
531.4590, 2060.377
532.6380, 1928.115
533.8160, 1878.543
534.9940, 1908.301
536.1720, 1697.068
537.3500, 1640.559
538.5270, 1668.412
539.7050, 1344.719
540.8820, 1444.547
542.0590, 1434.555
543.2360, 962.4023
544.4130, 832.2598
545.5900, 976.8027
546.7660, 898.0508
547.9430, 788.2344
549.1190, 764.6348
550.2950, 593.6562
551.4710, 644.9727
552.6470, 528.0117
553.8220, 689.0547
554.9980, 616.0840
556.1730, 437.6035
557.3480, 461.2949
558.5230, 369.9512
559.6980, 323.0801
560.8730, 338.3750
562.0470, 243.5000
563.2220, 163.6211
564.3960, 152.3516
565.5700, 237.4883
566.7440, 43.35352
567.9170, 162.7734
569.0910, 101.9609
570.2640, 35.85742
571.4380, 99.64258
572.6110, 63.75391
573.7840, 14.77734
574.9570, 35.95898
576.1290, 69.94727
577.3020, 51.71484
578.4740, 124.4199
579.6460, 71.58203
580.8180, 117.7480
581.9900, 93.08984
583.1620, 48.96484
584.3330, 98.16406
585.5040, 137.7109
586.6760, 79.33984
587.8470, 63.38086
589.0180, 100.5840
590.1880, 57.60547
591.3590, 39.36133
592.5290, 47.32422
593.7000, 198.2793
594.8700, 146.2285
596.0400, 8.177734
597.2090, 99.88477
598.3790, 21.99805
599.5490, 231.8730
600.7180, 103.7383
601.8870, 166.6133
603.0560, 17.50391
604.2250, 95.60547
605.3940, 96.23242
606.5620, 165.0625
607.7300, 276.9160
608.8990, 295.4434
610.0670, 92.64648
611.2350, 280.5137
612.4020, 114.3770
613.5700, 117.2324
614.7370, 121.0781
615.9050, 150.9258
617.0720, 303.7695
618.2390, 215.6270
619.4060, 318.5117
620.5720, 189.3926
621.7390, 387.2812
622.9050, 290.1836
624.0710, 449.0781
625.2370, 343.0195
626.4030, 570.9531
627.5690, 656.8770
628.7340, 499.7910
629.9000, 583.6953
631.0650, 552.5977
632.2300, 669.5449
633.3950, 775.5254
634.5600, 604.5410
635.7240, 573.5469
636.8890, 636.5391
638.0530, 569.5215
639.2170, 661.5000
640.3810, 634.4707
641.5450, 735.4238
642.7080, 696.3730
643.8720, 460.3066
645.0350, 547.2285
646.1980, 518.1426
647.3610, 569.0410
648.5240, 531.9238
649.6870, 489.1367
650.8490, 459.9863
652.0120, 461.8203
653.1740, 336.6348
654.3360, 360.5039
655.4980, 210.5859
656.6600, 414.8633
657.8210, 397.3281
658.9830, 328.4297
660.1440, 371.6875
661.3050, 498.3789
662.4660, 299.4902
663.6270, 344.4375
664.7870, 213.2676
665.9480, 217.6699
667.1080, 190.1836
668.2680, 232.3984
669.4280, 165.1562
670.5880, 170.4414
671.7480, 204.7891
672.9070, 11.50977
674.0670, 250.9141
675.2260, 322.3789
676.3850, 5.603516
677.5440, 161.6348
678.7030, 55.89648
679.8610, 194.7930
681.0200, 146.5820
682.1780, 229.3066
683.3360, 313.2500
684.4940, 28.33398
685.6520, 102.7676
686.8090, 128.9199
687.9670, 110.6816
689.1240, 361.0215
690.2810, 155.5742
691.4380, 376.2188
692.5950, 255.8730
693.7520, 29.79688
694.9080, 4.173828
696.0650, 115.0469
697.2210, 124.3398
698.3770, 454.2207
699.5330, 215.4004
700.6880, 329.3125
701.8440, 338.3828
702.9990, 116.0254
704.1550, 331.8340
705.3100, 277.9785
706.4650, 429.6328
707.6190, 592.4844
708.7740, 801.8672
709.9290, 416.7578
711.0830, 429.8320
712.2370, 445.7930
713.3910, 633.1562
714.5450, 812.3711
715.6980, 617.5508
716.8520, 692.5254
718.0050, 671.8457
719.1580, 682.6699
720.3110, 776.4785
721.4640, 727.6172
722.6170, 862.9180
723.7700, 774.9668
724.9220, 532.2559
726.0740, 707.1074
727.2260, 792.3105
728.3780, 660.7148
729.5300, 796.6973
730.6810, 589.8594
731.8330, 797.6797
732.9840, 548.1270
734.1350, 737.8848
735.2860, 549.1113
736.4370, 672.7793
737.5880, 783.3359
738.7380, 1063.893
739.8880, 850.2344
741.0390, 616.1172
742.1890, 1058.562
743.3380, 753.9492
744.4880, 712.9395
745.6380, 1051.260
746.7870, 710.4570
747.9360, 834.0742
749.0850, 1076.877
750.2340, 919.1602
751.3830, 768.3770
752.5310, 742.4160
753.6800, 853.7656
754.8280, 945.9883
755.9760, 1165.129
757.1240, 1022.535
758.2720, 1152.602
759.4190, 1245.281
760.5670, 1055.301
761.7140, 1148.176
762.8610, 856.2109
764.0080, 1000.922
765.1550, 1142.672
766.3020, 932.2070
767.4480, 1107.707
768.5950, 1132.445
769.7410, 1076.523
770.8870, 801.1250
772.0330, 782.4336
773.1780, 912.6914
774.3240, 601.9023
775.4690, 905.3359
776.6140, 889.5742
777.7590, 558.7656
778.9040, 730.7891
780.0490, 620.1953
781.1940, 830.1250
782.3380, 833.0039
783.4820, 640.8398
784.6260, 435.6250
785.7700, 522.3672
786.9140, 265.0586
788.0580, 419.6992
789.2010, 599.2930
790.3450, 514.8398
791.4880, 329.3359
792.6310, 273.7852
793.7730, 222.4258
794.9160, 36.53125
796.0590, 254.8086
797.2010, 212.0312
798.3430, 381.1992
799.4850, 237.3242
800.6270, 271.1367
801.7690, 294.4180
802.9100, 152.3906
804.0520, 153.3047
805.1930, 151.7812
806.3340, 93.97656
807.4750, 157.7070
808.6160, 137.3984
809.7560, 90.04297
810.8970, 119.2852
812.0370, 108.9414
813.1770, 140.9453
814.3170, 63.64062
815.4570, 121.9219
816.5960, 52.29297
817.7360, 69.89062
818.8750, 71.28516
820.0140, 58.91016
821.1530, 124.9062
822.2920, 82.17578
823.4310, 24.31250
824.5690, 197.8086
825.7070, 120.6328
826.8460, 210.8203
827.9840, 26.08203
829.1220, 169.2734
830.2590, 111.4453
831.3970, 86.76172
832.5340, 87.57422
833.6710, 210.8281
834.8080, 84.22266
835.9450, 10.92188
837.0820, 272.6914
838.2190, 58.41016
839.3550, 21.92188
840.4910, 9.941406
841.6270, 48.44922
842.7630, 302.9453
843.8990, 205.7031
845.0350, 92.46875
846.1700, 171.4102
847.3060, 201.4453
848.4410, 153.3633
849.5760, 202.1367
850.7100, 247.8672
851.8450, 354.5547
852.9800, 50.19922
854.1140, 83.19531
855.2480, 6.707031
856.3820, 39.71094
857.5160, 4.675781
858.6500, 78.60547
859.7830, 43.60938
860.9170, 244.7812
862.0500, 392.9414
863.1830, 145.0664
864.3160, 344.1445
865.4480, 43.79688
866.5810, 93.19531
867.7130, 170.1445
868.8460, 74.05469
869.9780, 226.9141
871.1100, 281.7383
872.2410, 96.52344
873.3730, 188.2891
874.5050, 365.0195
875.6360, 36.28516
876.7670, 45.66406
877.8980, 114.8789
879.0290, 138.3789
880.1590, 37.86719
881.2900, 59.68750
882.4200, 11.65625
883.5500, 52.01562
884.6800, 25.21484
885.8100, 165.4023
886.9400, 158.5547
888.0690, 229.6719
889.1990, 25.25000
890.3280, 127.7773
891.4570, 57.23828
892.5860, 63.32031
893.7140, 123.5195
894.8430, 39.67188
895.9710, 62.92969
897.1000, 128.7461
898.2280, 178.6172
899.3560, 140.8906
900.4830, 117.3633
901.6110, 192.8047
902.7380, 147.2188
903.8660, 77.60156
904.9930, 32.05469
906.1200, 81.24219
907.2460, 280.5117
908.3730, 229.7422
909.5000, 199.9531
910.6260, 63.13281
911.7520, 95.28125
912.8780, 91.39844
914.0040, 310.4883
915.1290, 10.54688
916.2550, 166.5781
917.3800, 296.5820
918.5050, 250.5586
919.6300, 320.5078
920.7550, 147.4336
921.8800, 201.3359
923.0040, 224.8633
924.1290, 360.7109
925.2530, 263.5312
926.3770, 367.3281
927.5010, 284.0312
928.6250, 425.4805
929.7480, 579.7305
930.8720, 336.7500
931.9950, 356.0859
933.1180, 163.2305
934.2410, 69.90234
935.3640, 290.1094
936.4860, 448.4414
937.6090, 196.8594
938.7310, 332.6523
939.8530, 316.4414
940.9750, 269.2109
942.0970, 390.5352
943.2180, 327.2969
944.3400, 369.9570
945.4610, 459.1992
946.5820, 427.7188
947.7030, 433.1406
948.8240, 366.7617
949.9450, 608.5391
951.0650, 699.0508
952.1860, 761.8789
953.3060, 682.7812
954.4260, 506.7109
955.5460, 570.3750
956.6650, 610.8672
957.7850, 721.9648
958.9040, 778.6211
960.0230, 575.4062
961.1420, 451.0586
962.2610, 784.8789
963.3800, 500.5859
964.4990, 539.2656
965.6170, 659.6406
966.7350, 674.8672
967.8530, 539.8516
968.9710, 713.7266
970.0890, 801.9727
971.2070, 682.8789
972.3240, 847.0586
973.4410, 737.0586
974.5580, 972.4492
975.6750, 698.6367
976.7920, 827.4492
977.9090, 1223.766
979.0250, 924.8047
980.1410, 1083.273
981.2580, 1070.566
982.3740, 1087.031
983.4890, 1066.797
984.6050, 1186.773
985.7200, 1030.996
986.8360, 1115.355
987.9510, 987.6133
989.0660, 1310.910
990.1810, 905.0703
991.2950, 1105.293
992.4100, 1025.742
993.5240, 834.6250
994.6390, 1286.047
995.7530, 1025.461
996.8660, 1333.949
997.9800, 1344.980
999.0940, 1149.535
1000.207, 1307.145
1001.320, 1590.074
1002.433, 1286.348
1003.546, 1481.238
1004.659, 1163.789
1005.772, 1188.395
1006.884, 1324.438
1007.996, 1401.887
1009.108, 1311.523
1010.220, 1342.285
1011.332, 1521.547
1012.444, 1362.797
1013.555, 1640.211
1014.666, 1604.234
1015.777, 1600.992
1016.888, 1432.887
1017.999, 1394.352
1019.110, 1692.484
1020.220, 1446.227
1021.331, 1678.965
1022.441, 1638.871
1023.551, 1815.445
1024.661, 1733.133
1025.770, 1816.883
1026.880, 1719.387
1027.989, 1846.203
1029.098, 1802.230
1030.207, 1795.402
1031.316, 1859.141
1032.425, 1829.891
1033.533, 2048.934
1034.642, 2222.910
1035.750, 1899.074
1036.858, 2020.246
1037.966, 2209.160
1039.073, 2086.703
1040.181, 2266.695
1041.288, 2059.957
1042.396, 2020.258
1043.503, 2036.586
1044.610, 2107.672
1045.716, 1919.918
1046.823, 2344.188
1047.929, 2274.598
1049.036, 1893.598
1050.142, 2124.051
1051.248, 2436.523
1052.353, 2293.020
1053.459, 2459.539
1054.564, 2382.078
1055.670, 2379.645
1056.775, 2578.234
1057.880, 2433.848
1058.985, 2485.473
1060.089, 2681.129
1061.194, 2612.812
1062.298, 2741.148
1063.402, 2832.879
1064.506, 2893.645
1065.610, 3148.438
1066.713, 3175.250
1067.817, 3285.090
1068.920, 2980.957
1070.023, 3507.848
1071.126, 3250.770
1072.229, 3328.594
1073.332, 3629.566
1074.435, 3681.570
1075.537, 3272.605
1076.639, 3519.664
1077.741, 3622.980
1078.843, 3662.102
1079.945, 4085.246
1081.046, 3855.762
1082.148, 3978.230
1083.249, 4111.020
1084.350, 4378.742
1085.451, 4194.070
1086.551, 4173.434
1087.652, 3993.824
1088.752, 3870.254
1089.853, 3956.711
1090.953, 3840.199
1092.053, 3885.742
1093.152, 3603.383
1094.252, 3671.098
1095.351, 3943.637
1096.451, 3663.301
1097.550, 3813.113
1098.649, 3742.000
1099.748, 3789.914
1100.846, 3412.898
1101.945, 3506.910
1103.043, 3458.957
1104.141, 3349.055
1105.239, 3405.676
1106.337, 3376.738
1107.434, 3334.938
1108.532, 3388.180
1109.629, 3234.477
1110.726, 3251.797
1111.823, 3377.219
1112.920, 2997.672
1114.017, 3103.938
1115.113, 2985.566
1116.210, 3182.230
1117.306, 3078.605
1118.402, 3251.324
1119.498, 2870.062
1120.593, 3176.836
1121.689, 2856.668
1122.784, 3019.746
1123.879, 3088.652
1124.974, 3170.594
1126.069, 2789.938
1127.164, 2535.652
1128.259, 2510.711
1129.353, 2658.797
1130.447, 2517.160
1131.541, 2377.297
1132.635, 2386.477
1133.729, 2149.688
1134.822, 2384.922
1135.916, 2275.184
1137.009, 2239.469
1138.102, 2060.781
1139.195, 2077.121
1140.288, 2106.801
1141.380, 1951.188
1142.473, 2058.551
1143.565, 1837.020
1144.657, 1771.281
1145.749, 1599.820
1146.841, 1841.328
1147.932, 1596.797
1149.024, 1734.363
1150.115, 1367.047
1151.206, 1652.758
1152.297, 1642.484
1153.388, 1477.230
1154.479, 1451.004
1155.569, 1372.809
1156.659, 1349.633
1157.750, 1300.750
1158.839, 1016.656
1159.929, 1111.520
1161.019, 1093.484
1162.108, 819.4883
1163.198, 1050.508
1164.287, 1014.598
1165.376, 825.7148
1166.465, 936.8516
1167.553, 606.0117
1168.642, 802.1875
1169.730, 925.3867
1170.818, 582.6094
1171.906, 734.9844
1172.994, 815.8828
1174.082, 670.1641
1175.170, 636.4609
1176.257, 624.7773
1177.344, 424.1172
1178.431, 369.4688
1179.518, 533.8398
1180.605, 591.2266
1181.691, 184.6367
1182.778, 317.0586
1183.864, 383.4961
1184.950, 408.9492
1186.036, 460.4258
1187.122, 196.9141
1188.207, 288.4180
1189.292, 275.9375
1190.378, 92.47266
1191.463, 350.0273
1192.548, 189.4023
1193.632, 319.1094
1194.717, 283.6328
1195.801, 111.1797
1196.886, 339.7383
1197.970, 340.3125
1199.054, 216.8984
1200.137, 233.5000
1201.221, 126.1133
1202.305, 39.25781
1203.388, 223.3789
1204.471, 100.0195
1205.554, 205.6836
1206.637, 195.3555
1207.719, 12.95703
1208.802, 271.7344
1209.884, 14.44531
1210.966, 16.83594
1212.048, 44.10547
1213.130, 277.6250
1214.212, 339.3594
1215.293, 248.1133
1216.374, 301.8750
1217.456, 43.70703
1218.536, 76.49609
1219.617, 64.94141
1220.698, 596.1016
1221.778, 70.92188
1222.859, 250.7539
1223.939, 179.6016
1225.019, 87.53516
1226.099, 106.7031
1227.178, 109.0898
1228.258, 59.89844
1229.337, 245.7148
1230.417, 55.56641
1231.496, 99.42188
1232.574, 170.3203
1233.653, 182.7773
1234.732, 48.94922
1235.810, 0.1406250
1236.888, 140.6758
1237.966, 14.49609
1239.044, 45.32812
1240.122, 66.42969
1241.199, 21.00781
1242.277, 100.8516
1243.354, 10.29297
1244.431, 32.55078
1245.508, 30.40625
1246.585, 147.7305
1247.661, 110.0625
1248.738, 487.8594
1249.814, 342.6641
1250.890, 288.4766
1251.966, 102.6641
1253.042, 164.0977
1254.117, 245.8633
1255.193, 149.3672
1256.268, 39.68750
1257.343, 169.9805
1258.418, 103.6484
1259.493, 223.6523
1260.567, 332.2578
1261.642, 666.0312
1262.716, 761.6172
1263.790, 266.1992
1264.864, 206.5820
1265.938, 261.1680
1267.011, 345.7578
1268.085, 226.3516
1269.158, 5.058594
1270.231, 193.5195
1271.304, 31.90234
1272.377, 61.65234
1273.450, 155.7930
1274.522, 42.83984
1275.594, 7.296875
1276.666, 137.2578
1277.738, 41.89453
1278.810, 242.4297
1279.882, 341.7500
1280.953, 339.0664
1282.025, 237.3867
1283.096, 282.6914
1284.167, 166.0234
1285.238, 413.3242
1286.308, 168.3711
1287.379, 356.8242
1288.449, 1.812500
1289.519, 301.3555
1290.589, 68.51562
1291.659, 170.6758
1292.729, 339.8281
1293.798, 354.7969
1294.868, 112.9414
1295.937, 178.0742
1297.006, 93.21484
1298.075, 264.3477
1299.143, 276.4805
1300.212, 260.6250
1301.280, 55.25781
1302.348, 188.8828
1303.416, 329.9336
1304.484, 625.9766
1305.552, 238.2031
1306.620, 317.2305
1307.687, 266.2461
1308.754, 218.2578
1309.821, 246.3086
1310.888, 332.2500
1311.955, 274.2383
1313.021, 405.2188
1314.088, 508.1875
1315.154, 507.1484
1316.220, 462.1016
1317.286, 346.0391
1318.352, 690.9688
1319.417, 442.8867
1320.483, 542.7852
1321.548, 631.6289
1322.613, 312.9023
1323.678, 669.7695
1324.743, 468.6250
1325.807, 241.4727
1326.872, 492.3125
1327.936, 467.1484
1329.000, 548.9766
1330.064, 372.7969
1331.128, 347.7344
1332.191, 331.5430
1333.255, 405.3398
1334.318, 249.1328
1335.381, 240.9180
1336.444, 508.4688
1337.507, 279.2383
1338.569, 465.0000
1339.632, 372.4141
1340.694, 175.9023
1341.756, 193.6406
1342.818, 135.2969
1343.880, 306.0898
1344.941, 98.79688
1346.003, 364.4219
1347.064, 275.1172
1348.125, 486.8047
1349.186, 667.4844
1350.247, 391.1484
1351.308, 489.6406
1352.368, 356.2891
1353.428, 495.2695
1354.489, 632.1094
1355.549, 460.7344
1356.608, 521.3711
1357.668, 295.6094
1358.727, 636.1992
1359.787, 543.4453
1360.846, 646.0938
1361.905, 301.1562
1362.964, 611.1133
1364.022, 271.4922
1365.081, 421.0078
1366.139, 444.9688
1367.197, 202.4727
1368.255, 527.9609
1369.313, 359.4492
1370.371, 141.9219
1371.428, 593.8320
1372.486, 724.3086
1373.543, 293.7695
1374.600, 550.0078
1375.657, 638.3047
1376.713, 160.3398
1377.770, 443.2227
1378.826, 130.7266
1379.882, 153.0977
1380.938, 266.5391
1381.994, 655.9258
1383.050, 266.2773
1384.106, 407.5078
1385.161, 378.3203
1386.216, 284.9219
1387.271, 51.03125
1388.326, 81.73438
1389.381, 453.0859
1390.435, 174.4688
1391.490, 34.80859
1392.544, 359.1445
1393.598, 197.5312
1394.652, 313.9922
1395.705, 273.8516
1396.759, 255.0000
1397.812, 557.8164
1398.866, 201.2070
1399.919, 202.5117
1400.972, 32.69922
1402.024, 303.5508
1403.077, 314.8555
1404.129, 173.7656
1405.181, 199.9219
1406.233, 291.9844
1407.285, 192.0352
1408.337, 291.0781
1409.389, 467.1172
1410.440, 122.1445
1411.491, 333.2227
1412.542, 164.2031
1413.593, 333.9062
1414.644, 77.16406
1415.695, 284.1641
1416.745, 282.0781
1417.795, 162.0117
1418.845, 169.7734
1419.895, 6.285156
1420.945, 151.4219
1421.995, 306.1055
1423.044, 138.5742
1424.093, 348.5312
1425.142, 204.4023
1426.191, 124.9688
1427.240, 388.4961
1428.289, 106.2344
