##NAMES=Plumbophyllite
##RRUFFID=R130081
##IDEAL CHEMISTRY=Pb^2+^_2_Si_4_O_10_&#183;H_2_O
##LOCALITY=Blue Bell claims, about 11 km west of Baker, San Bernardino County, California, USA
##OWNER=Anthony R. Kampf 
##SOURCE=Anthony R. Kampf and George R. Rossman
##DESCRIPTION=Colorless to pale blue and transparent.  Data from Kampf et al (2009)
##STATUS=The identification of this mineral has been confirmed by X-ray diffraction and chemical analysis
##URL=rruff.info/R130081
##MEASURED CHEMISTRY=Pb_1.79_Cu_0.02_Si_4_O_9.62_(OH)_0.38_Â·1.02H_2_O
49.03060, 0.0000000E+00
50.81520, 193.9229
52.59950, 6.298828
54.38340, 72.51270
56.16700, 123.0322
57.95020, 111.6167
59.73310, 14.08154
61.51560, 140.2007
63.29780, 3.450195
65.07960, 10.46533
66.86110, 98.03809
68.64220, 276.5391
70.42300, 364.1694
72.20350, 551.4058
73.98350, 743.8496
75.76330, 1042.424
77.54270, 1452.852
79.32170, 2119.437
81.10040, 3097.271
82.87870, 4760.284
84.65670, 6733.187
86.43440, 10124.52
88.21160, 15134.63
89.98860, 22176.92
91.76520, 29804.19
93.54140, 33880.85
95.31730, 32210.07
97.09290, 25261.50
98.86810, 17222.41
100.6430, 11560.92
102.4170, 8506.543
104.1920, 7186.521
105.9650, 6428.136
107.7390, 5840.862
109.5120, 5671.366
111.2850, 5661.737
113.0570, 5463.593
114.8290, 5193.229
116.6010, 4604.977
118.3720, 4088.169
120.1430, 3508.514
121.9140, 2725.143
123.6850, 2342.894
125.4550, 1957.266
127.2240, 1832.496
128.9940, 1731.354
130.7620, 1768.357
132.5310, 2007.222
134.2990, 2548.481
136.0670, 3103.928
137.8350, 4024.486
139.6020, 5188.828
141.3690, 6721.402
143.1360, 7938.926
144.9020, 8916.207
146.6680, 9123.635
148.4330, 8449.798
150.1980, 6796.708
151.9630, 5130.028
153.7280, 3537.691
155.4920, 2357.542
157.2550, 1479.583
159.0190, 937.7651
160.7820, 624.9897
162.5450, 308.8569
164.3070, 244.3354
166.0690, 32.58398
167.8310, 1.469238
169.5920, 11.29150
171.3530, 30.87695
173.1140, 46.58691
174.8740, 167.7476
176.6340, 328.1631
178.3940, 382.0645
180.1530, 615.0503
181.9120, 448.6548
183.6710, 479.8071
185.4290, 394.3359
187.1870, 274.6758
188.9450, 301.4795
190.7020, 355.3027
192.4590, 399.1548
194.2160, 591.0371
195.9720, 955.2563
197.7280, 1071.785
199.4830, 1548.667
201.2380, 2042.795
202.9930, 2700.939
204.7480, 3228.183
206.5020, 3782.664
208.2560, 3973.740
210.0090, 4129.695
211.7630, 3811.597
213.5150, 3333.497
215.2680, 2699.494
217.0200, 2103.545
218.7720, 1549.721
220.5230, 1250.067
222.2740, 937.6445
224.0250, 664.3169
225.7750, 612.9087
227.5260, 416.0557
229.2750, 358.5864
231.0250, 314.0813
232.7740, 299.7400
234.5220, 257.0879
236.2710, 367.8499
238.0190, 519.1250
239.7670, 636.2539
241.5140, 826.4648
243.2610, 1231.724
245.0080, 1637.652
246.7540, 1991.160
248.5000, 2187.353
250.2460, 2427.699
251.9910, 2509.237
253.7360, 2085.385
255.4810, 1621.757
257.2250, 1228.676
258.9690, 778.4424
260.7130, 441.1355
262.4560, 172.6765
264.1990, 57.07544
265.9410, 26.12256
267.6840, 199.8594
269.4260, 191.9304
271.1670, 161.0396
272.9080, 183.3032
274.6490, 194.1467
276.3900, 161.9697
278.1300, 149.9812
279.8700, 126.5798
281.6100, 139.2087
283.3490, 16.26147
285.0880, 115.6470
286.8260, 97.06323
288.5650, 340.2053
290.3020, 383.3750
292.0400, 417.8333
293.7770, 529.9297
295.5140, 607.4155
297.2510, 696.3623
298.9870, 829.8906
300.7230, 1061.332
302.4580, 1214.978
304.1930, 1457.929
305.9280, 1869.518
307.6630, 2184.593
309.3970, 2377.145
311.1310, 2418.246
312.8640, 2372.756
314.5970, 2299.840
316.3300, 2273.083
318.0630, 2575.170
319.7950, 3050.770
321.5270, 3923.239
323.2580, 5059.086
324.9890, 6078.301
326.7200, 7262.479
328.4510, 8103.018
330.1810, 8475.789
331.9110, 8076.548
333.6400, 7083.354
335.3690, 6193.499
337.0980, 5235.303
338.8270, 4735.247
340.5550, 4281.205
342.2820, 4305.602
344.0100, 4515.529
345.7370, 4846.454
347.4640, 4868.184
349.1900, 4427.645
350.9160, 3630.630
352.6420, 2831.763
354.3680, 2284.599
356.0930, 1735.588
357.8180, 1390.603
359.5420, 1099.087
361.2660, 974.3413
362.9900, 825.9895
364.7130, 605.2268
366.4370, 617.4548
368.1590, 488.6045
369.8820, 606.1299
371.6040, 589.7437
373.3260, 670.0542
375.0470, 755.7671
376.7680, 855.7935
378.4890, 933.4150
380.2100, 859.7729
381.9300, 756.2366
383.6500, 565.8718
385.3690, 342.8315
387.0880, 199.8296
388.8070, 141.2808
390.5250, 178.4548
392.2440, 122.5425
393.9610, 108.2954
395.6790, 108.2805
397.3960, 29.45679
399.1130, 71.64526
400.8290, 49.83154
402.5450, 79.14941
404.2610, 171.0837
405.9770, 248.4185
407.6920, 346.1248
409.4070, 279.0435
411.1210, 331.4756
412.8350, 232.1584
414.5490, 102.1130
416.2630, 55.13550
417.9760, 51.74561
419.6890, 63.86987
421.4010, 33.75049
423.1130, 75.24365
424.8250, 13.14087
426.5370, 22.67383
428.2480, 24.68774
429.9590, 99.75488
431.6690, 110.4663
433.3800, 191.2568
435.0900, 331.7637
436.7990, 384.2859
438.5080, 461.4561
440.2170, 455.1387
441.9260, 341.7336
443.6340, 205.1538
445.3420, 175.7407
447.0490, 131.5686
448.7570, 96.08838
450.4640, 4.850342
452.1700, 43.90381
453.8760, 16.73022
455.5820, 33.92139
457.2880, 121.1831
458.9930, 146.8059
460.6980, 277.9434
462.4030, 256.5037
464.1070, 372.9180
465.8110, 352.8420
467.5150, 300.1130
469.2180, 413.3872
470.9210, 526.8362
472.6230, 780.4617
474.3260, 995.2444
476.0280, 1236.962
477.7290, 1607.014
479.4310, 1796.412
481.1320, 1804.322
482.8320, 1715.645
484.5330, 1395.264
486.2330, 1067.324
487.9330, 914.9062
489.6320, 735.2351
491.3310, 538.3967
493.0300, 531.0408
494.7280, 509.0293
496.4260, 575.4800
498.1240, 724.4978
499.8210, 966.7874
501.5180, 1394.789
503.2150, 1569.421
504.9120, 1730.804
506.6080, 1808.149
508.3030, 1550.736
509.9990, 1219.434
511.6940, 935.1443
513.3890, 579.8672
515.0830, 497.3923
516.7770, 335.1208
518.4710, 310.0217
520.1650, 281.9053
521.8580, 287.6707
523.5510, 181.1287
525.2430, 191.2188
526.9360, 111.0889
528.6270, 101.8962
530.3190, 111.8979
532.0100, 117.5586
533.7010, 61.11768
535.3920, 113.8948
537.0820, 5.133545
538.7720, 47.50879
540.4610, 29.03564
542.1510, 23.94653
543.8400, 24.59644
545.5280, 103.6946
547.2170, 24.25464
548.9050, 168.5098
550.5920, 16.52661
552.2800, 55.24219
553.9670, 19.81055
555.6530, 19.88037
557.3400, 30.27173
559.0260, 55.43628
560.7120, 77.58496
562.3970, 65.55811
564.0820, 22.31641
565.7670, 85.85840
567.4510, 18.73633
569.1350, 122.2788
570.8190, 130.7698
572.5030, 137.3367
574.1860, 93.72852
575.8690, 51.54224
577.5510, 147.5105
579.2330, 142.3992
580.9150, 74.82617
582.5970, 170.7666
584.2780, 118.0054
585.9590, 169.3350
587.6390, 146.2581
589.3200, 156.4683
590.9990, 174.9343
592.6790, 224.1470
594.3580, 197.7183
596.0370, 255.6699
597.7160, 186.8660
599.3940, 238.6865
601.0720, 230.9299
602.7500, 252.5403
604.4270, 240.8735
606.1040, 362.4697
607.7810, 301.7173
609.4570, 336.6499
611.1330, 363.5342
612.8090, 461.3828
614.4850, 405.7200
616.1600, 488.3196
617.8350, 543.2256
619.5090, 684.0225
621.1830, 663.6829
622.8570, 720.2444
624.5310, 969.5830
626.2040, 1195.195
627.8770, 1494.919
629.5490, 1894.178
631.2210, 2341.944
632.8930, 3185.708
634.5650, 4198.327
636.2360, 5245.417
637.9070, 6422.072
639.5780, 7374.402
641.2480, 7799.877
642.9180, 7522.764
644.5880, 6697.422
646.2570, 5477.401
647.9260, 4173.261
649.5950, 3215.914
651.2630, 2424.240
652.9310, 1922.271
654.5990, 1541.529
656.2670, 1213.736
657.9340, 1057.431
659.6010, 879.6625
661.2670, 732.0593
662.9330, 647.9651
664.5990, 641.8020
666.2650, 506.9238
667.9300, 473.9508
669.5950, 452.7588
671.2590, 343.4244
672.9240, 292.9697
674.5880, 382.2361
676.2510, 253.6539
677.9150, 269.3807
679.5780, 282.1584
681.2400, 242.3439
682.9030, 328.9097
684.5650, 251.5781
686.2270, 240.4565
687.8880, 269.9985
689.5490, 225.8285
691.2100, 256.9156
692.8700, 229.2804
694.5300, 198.6040
696.1900, 217.6096
697.8500, 170.3070
699.5090, 180.2356
701.1680, 175.0742
702.8270, 194.0123
704.4850, 228.0101
706.1430, 231.8387
707.8000, 246.2073
709.4580, 254.5264
711.1150, 283.9568
712.7710, 256.0280
714.4280, 286.9403
716.0840, 236.3143
717.7400, 292.8508
719.3950, 174.0715
721.0500, 171.4543
722.7050, 170.3607
724.3590, 118.9314
726.0140, 126.4646
727.6670, 103.4232
729.3210, 89.39343
730.9740, 52.71558
732.6270, 35.69043
734.2800, 68.33813
735.9320, 107.2671
737.5840, 71.40369
739.2360, 81.28784
740.8870, 45.66638
742.5380, 73.61438
744.1890, 68.23755
745.8390, 72.26379
747.4890, 48.68994
749.1390, 27.21216
750.7880, 115.7404
752.4380, 175.6554
754.0860, 177.8074
755.7350, 301.3046
757.3830, 359.6515
759.0310, 566.8196
760.6790, 661.8567
762.3260, 737.1396
763.9730, 718.1290
765.6200, 635.6008
767.2660, 504.1594
768.9120, 411.0785
770.5580, 415.2211
772.2030, 294.7905
773.8480, 282.0459
775.4930, 246.3130
777.1370, 302.2007
778.7810, 256.1857
780.4250, 264.6364
782.0690, 309.9973
783.7120, 265.3767
785.3550, 292.4890
786.9980, 267.7440
788.6400, 273.4950
790.2820, 259.5392
791.9230, 186.3782
793.5650, 167.9436
795.2060, 142.1012
796.8470, 102.2834
798.4870, 120.6097
800.1270, 61.17639
801.7670, 76.48560
803.4060, 53.68164
805.0460, 15.63147
806.6840, 52.31885
808.3230, 39.16577
809.9610, 12.76685
811.5990, 31.45752
813.2370, 35.74878
814.8740, 86.39062
816.5110, 58.91785
818.1480, 19.22229
819.7840, 19.20203
821.4200, 42.09009
823.0560, 35.93762
824.6910, 61.86731
826.3270, 5.462524
827.9610, 46.45654
829.5960, 67.80579
831.2300, 27.11609
832.8640, 92.18005
834.4980, 90.64075
836.1310, 57.00635
837.7640, 46.35193
839.3970, 37.24524
841.0290, 46.52942
842.6610, 49.71667
844.2930, 19.08411
845.9240, 8.225952
847.5550, 8.089600
849.1860, 46.28760
850.8170, 32.38110
852.4470, 2.997559
854.0770, 36.80933
855.7060, 30.60571
857.3360, 25.94617
858.9650, 41.23865
860.5930, 38.11194
862.2220, 54.96484
863.8500, 79.49780
865.4770, 173.1636
867.1050, 50.23193
868.7320, 88.60889
870.3590, 183.8732
871.9850, 156.1759
873.6110, 116.1656
875.2370, 114.6012
876.8630, 256.0791
878.4880, 240.6835
880.1130, 243.7544
881.7380, 268.3607
883.3620, 332.9932
884.9860, 309.8811
886.6100, 294.4642
888.2330, 382.2310
889.8570, 385.3030
891.4790, 488.5201
893.1020, 510.1033
894.7240, 628.7811
896.3460, 667.3445
897.9680, 701.2834
899.5890, 830.8480
901.2100, 948.1282
902.8310, 1142.584
904.4510, 1406.546
906.0710, 1803.334
907.6910, 2195.648
909.3100, 2821.237
910.9300, 3627.753
912.5480, 4870.133
914.1670, 6238.112
915.7850, 8590.877
917.4030, 11159.31
919.0210, 14282.14
920.6380, 17438.54
922.2550, 19550.87
923.8720, 20199.32
925.4880, 19073.51
927.1040, 16314.96
928.7200, 13004.24
930.3360, 10012.96
931.9510, 7588.744
933.5660, 6005.834
935.1800, 4643.836
936.7950, 3872.877
938.4090, 3157.530
940.0220, 2742.497
941.6360, 2448.226
943.2490, 2218.852
944.8620, 2094.742
946.4740, 1978.676
948.0860, 1806.722
949.6980, 1796.050
951.3100, 1901.740
952.9210, 1780.902
954.5320, 1847.834
956.1430, 1795.241
957.7530, 1680.528
959.3630, 1663.618
960.9730, 1537.970
962.5820, 1548.984
964.1910, 1552.250
965.8000, 1634.766
967.4090, 1760.852
969.0170, 1946.059
970.6250, 2117.337
972.2320, 2243.586
973.8400, 2410.314
975.4470, 2780.944
977.0540, 3066.122
978.6600, 3393.432
980.2660, 3379.910
981.8720, 3213.954
983.4770, 2881.133
985.0830, 2457.840
986.6880, 2099.818
988.2920, 1822.692
989.8960, 1592.347
991.5000, 1576.594
993.1040, 1481.633
994.7080, 1542.485
996.3110, 1486.636
997.9140, 1676.383
999.5160, 1777.685
1001.120, 2008.837
1002.720, 2209.919
1004.320, 2509.715
1005.920, 2879.901
1007.520, 3329.856
1009.120, 3934.988
1010.730, 5040.492
1012.330, 6109.613
1013.930, 7849.095
1015.520, 9942.714
1017.120, 12808.48
1018.720, 15964.86
1020.320, 19387.64
1021.920, 22131.59
1023.520, 23726.32
1025.120, 23519.21
1026.710, 21636.68
1028.310, 18290.03
1029.910, 14697.99
1031.500, 11752.42
1033.100, 9478.122
1034.700, 7531.459
1036.290, 6115.234
1037.890, 5048.691
1039.480, 4372.068
1041.080, 3695.348
1042.670, 3278.841
1044.260, 2936.367
1045.860, 2719.781
1047.450, 2556.101
1049.040, 2412.030
1050.640, 2551.768
1052.230, 2668.248
1053.820, 2901.282
1055.410, 3410.658
1057.010, 3953.671
1058.600, 4975.759
1060.190, 6155.058
1061.780, 7188.625
1063.370, 7939.867
1064.960, 8055.828
1066.550, 7577.910
1068.140, 6257.423
1069.730, 5024.930
1071.320, 3846.977
1072.910, 2887.345
1074.500, 2346.119
1076.080, 1962.121
1077.670, 1623.577
1079.260, 1483.571
1080.850, 1507.246
1082.430, 1415.779
1084.020, 1347.907
1085.610, 1306.810
1087.190, 1212.089
1088.780, 1104.714
1090.360, 976.7937
1091.950, 889.8291
1093.530, 818.6865
1095.120, 704.8230
1096.700, 557.7745
1098.290, 530.6311
1099.870, 430.8436
1101.450, 389.4432
1103.040, 362.2461
1104.620, 260.7742
1106.200, 299.8900
1107.790, 275.8008
1109.370, 275.4070
1110.950, 244.9685
1112.530, 208.1951
1114.110, 133.4371
1115.690, 166.2146
1117.270, 206.9177
1118.850, 179.5770
1120.430, 221.9163
1122.010, 154.9882
1123.590, 124.4453
1125.170, 209.4882
1126.750, 197.9467
1128.330, 186.3911
1129.910, 198.5913
1131.480, 212.3771
1133.060, 121.5582
1134.640, 195.5653
1136.220, 198.3248
1137.790, 174.0497
1139.370, 116.4423
1140.940, 160.3395
1142.520, 94.76147
1144.100, 81.52783
1145.670, 127.4138
1147.250, 122.1539
1148.820, 134.3130
1150.390, 156.2072
1151.970, 68.32959
1153.540, 111.0756
1155.120, 110.4930
1156.690, 87.66467
1158.260, 184.0406
1159.830, 80.27307
1161.410, 90.79736
1162.980, 107.7904
1164.550, 145.3531
1166.120, 109.8251
1167.690, 83.73584
1169.260, 111.7507
1170.830, 15.16870
1172.400, 103.6803
1173.970, 83.97437
1175.540, 94.46326
1177.110, 68.35571
1178.680, 23.05225
1180.250, 11.11841
1181.820, 63.08289
1183.390, 71.93811
1184.950, 10.61731
1186.520, 31.44763
1188.090, 93.81519
1189.660, 19.65308
1191.220, 34.90125
1192.790, 16.96521
1194.360, 71.72852
1195.920, 15.19849
1197.490, 9.527710
1199.050, 47.18384
1200.620, 51.22803
1202.180, 23.01404
1203.750, 12.99707
1205.310, 13.29480
1206.870, 40.39539
1208.440, 32.43298
1210.000, 0.2502440
1211.560, 66.23718
1213.130, 36.83472
1214.690, 29.50049
1216.250, 4.572021
1217.810, 16.47607
1219.370, 24.46350
1220.940, 3.453369
1222.500, 5.885498
1224.060, 3.362793
1225.620, 21.68140
1227.180, 17.55310
1228.740, 8.608276
1230.300, 9.274780
1231.860, 26.95740
1233.410, 18.58362
1234.970, 28.92041
1236.530, 11.78772
1238.090, 60.59583
1239.650, 14.63013
1241.200, 21.71362
1242.760, 10.93848
1244.320, 0.2419430
1245.870, 7.192017
1247.430, 35.03235
1248.990, 45.18567
1250.540, 8.732300
1252.100, 67.09961
1253.650, 22.43945
1255.210, 9.123535
1256.760, 29.92456
1258.320, 48.06519
1259.870, 46.89978
1261.420, 34.45740
1262.980, 36.48840
1264.530, 54.61230
1266.080, 17.42993
1267.640, 24.81567
1269.190, 89.63403
1270.740, 90.01636
1272.290, 61.39258
1273.840, 111.7223
1275.390, 149.1865
1276.950, 109.2441
1278.500, 75.76245
1280.050, 30.94788
1281.600, 142.5865
1283.150, 123.5690
1284.690, 94.85535
1286.240, 111.3258
1287.790, 50.29004
1289.340, 73.20837
1290.890, 60.58069
1292.440, 100.1099
1293.980, 95.56006
1295.530, 105.5444
1297.080, 97.74268
1298.630, 128.7352
1300.170, 104.7517
1301.720, 155.1523
1303.260, 111.7472
1304.810, 136.2761
1306.360, 36.20935
1307.900, 140.0062
1309.450, 81.97717
1310.990, 101.6327
1312.530, 118.0525
1314.080, 82.64636
1315.620, 52.07458
1317.170, 110.5972
1318.710, 70.29419
1320.250, 127.2053
1321.790, 28.51086
1323.340, 44.90027
1324.880, 75.87390
1326.420, 48.47278
1327.960, 98.91638
1329.500, 90.97449
1331.040, 3.486938
1332.580, 34.45996
1334.120, 42.70715
1335.660, 10.35889
1337.200, 31.58337
1338.740, 2.451904
1340.280, 54.54089
1341.820, 49.76440
1343.360, 61.23303
1344.900, 12.55603
1346.430, 43.52246
1347.970, 17.57349
1349.510, 72.93848
1351.050, 19.32849
1352.580, 45.41235
1354.120, 51.97119
1355.660, 35.86499
1357.190, 115.3767
1358.730, 24.22644
1360.260, 120.3108
1361.800, 25.86023
1363.330, 66.58423
1364.870, 46.90137
1366.400, 39.12915
1367.940, 57.03870
1369.470, 40.72363
1371.000, 9.519043
1372.540, 59.14246
1374.070, 46.05713
1375.600, 18.15234
1377.130, 44.14648
1378.670, 13.09363
1380.200, 9.772827
1381.730, 86.56653
1383.260, 65.06506
1384.790, 54.93860
1386.320, 36.37231
1387.850, 18.21558
1389.380, 64.12842
1390.910, 12.92908
1392.440, 34.33569
1393.970, 31.59497
1395.500, 34.17725
1397.030, 26.06152
1398.560, 22.63403
1400.080, 20.81287
1401.610, 53.06592
1403.140, 123.2139
1404.670, 37.47668
1406.190, 33.47168
1407.720, 69.19824
1409.250, 42.37793
1410.770, 50.32959
1412.300, 46.78088
1413.820, 52.91614
1415.350, 8.244019
1416.870, 59.83643
1418.400, 92.37317
1419.920, 22.49585
1421.450, 4.119263
1422.970, 99.12244
1424.500, 38.08203
1426.020, 21.11072
1427.540, 33.85327
1429.060, 13.31445
1430.590, 96.57336
1432.110, 29.01013
1433.630, 76.47766
1435.150, 61.24023
1436.670, 15.08752
1438.190, 29.25781
1439.720, 82.10266
1441.240, 9.504395
1442.760, 27.42114
1444.280, 60.14233
1445.800, 78.02258
1447.320, 36.67029
1448.830, 8.537598
1450.350, 21.41187
1451.870, 22.77869
1453.390, 70.39185
1454.910, 91.65393
1456.430, 33.84485
1457.940, 0.9156490
1459.460, 71.44263
1460.980, 2.890259
1462.490, 61.24561
1464.010, 29.66370
1465.530, 4.767334
1467.040, 75.53040
1468.560, 15.97253
1470.070, 27.36365
1471.590, 9.031860
1473.100, 28.67139
1474.620, 21.02991
1476.130, 25.03333
1477.640, 8.336060
1479.160, 65.98792
1480.670, 72.43811
1482.180, 19.38745
1483.700, 19.21655
1485.210, 75.26477
1486.720, 43.68689
1488.230, 60.06848
1489.740, 59.85950
1491.260, 86.17322
1492.770, 36.37634
1494.280, 82.55908
1495.790, 72.47156
1497.300, 183.2535
1498.810, 135.0952
1500.320, 249.2367
1501.830, 206.0380
1503.340, 177.7388
1504.850, 175.8633
1506.350, 157.4869
1507.860, 132.6644
1509.370, 275.1245
1510.880, 279.9768
1512.390, 190.2933
1513.890, 232.9048
1515.400, 173.0066
1516.910, 172.8640
1518.410, 165.8809
1519.920, 164.0337
1521.420, 223.2579
1522.930, 171.6549
1524.440, 108.4022
1525.940, 141.4896
1527.440, 162.7954
1528.950, 66.26343
1530.450, 67.66724
1531.960, 110.7560
1533.460, 107.1902
1534.960, 122.0260
1536.470, 148.5121
1537.970, 143.9596
1539.470, 50.63770
1540.970, 168.6075
1542.480, 96.90710
1543.980, 106.7076
1545.480, 58.27869
1546.980, 141.4324
1548.480, 113.0024
1549.980, 141.2136
1551.480, 141.1056
1552.980, 113.5963
1554.480, 136.8322
1555.980, 105.7130
1557.480, 105.5455
1558.980, 120.4565
1560.480, 118.6257
1561.980, 103.4183
1563.470, 130.0464
1564.970, 39.82654
1566.470, 104.8789
1567.970, 98.16235
1569.460, 86.41882
1570.960, 148.2014
1572.460, 72.20862
1573.950, 97.24438
1575.450, 109.4058
1576.950, 89.33813
1578.440, 59.26404
1579.940, 72.67126
1581.430, 60.97986
1582.930, 104.5116
1584.420, 136.3350
1585.910, 51.02905
1587.410, 78.14990
1588.900, 115.0304
1590.390, 65.03552
1591.890, 113.6512
1593.380, 90.25891
1594.870, 142.2590
1596.360, 97.08582
1597.860, 126.2838
1599.350, 102.9160
1600.840, 143.5530
1602.330, 138.5710
1603.820, 173.8965
1605.310, 162.2639
1606.800, 98.62170
1608.290, 127.2617
1609.780, 212.9862
1611.270, 171.1538
1612.760, 184.7229
1614.250, 134.0129
1615.740, 223.1760
1617.230, 196.4399
1618.710, 196.5944
1620.200, 208.5159
1621.690, 210.3589
1623.180, 188.7792
1624.660, 260.0135
1626.150, 189.5503
1627.640, 114.1238
1629.120, 265.7029
1630.610, 212.0411
1632.090, 261.0309
1633.580, 197.2517
1635.060, 214.2739
1636.550, 216.1469
1638.030, 285.3806
1639.520, 238.4064
1641.000, 171.1838
1642.480, 196.6418
1643.970, 200.2013
1645.450, 272.9496
1646.930, 273.1615
1648.420, 204.2140
1649.900, 243.2078
1651.380, 280.5227
1652.860, 171.0583
1654.340, 288.9229
1655.830, 236.8113
1657.310, 213.3809
1658.790, 262.9539
1660.270, 274.9857
1661.750, 239.7283
1663.230, 272.0417
1664.710, 256.3572
1666.190, 259.9528
1667.670, 196.6040
1669.150, 141.0216
1670.620, 202.0901
1672.100, 166.7795
1673.580, 136.5295
1675.060, 121.5005
1676.540, 54.00452
1678.010, 40.65820
1679.490, 71.31262
1680.970, 86.73804
1682.440, 107.2559
1683.920, 102.3748
1685.400, 9.235352
1686.870, 38.39331
1688.350, 47.49866
1689.820, 60.52100
1691.300, 77.66223
1692.770, 69.38611
1694.250, 72.98108
1695.720, 51.12671
1697.190, 86.95398
1698.670, 100.7423
1700.140, 80.58374
1701.610, 101.1655
1703.090, 35.15833
1704.560, 26.87183
1706.030, 125.5867
