##NAMES=Polylithionite
##RRUFFID=R050132
##IDEAL CHEMISTRY=KLi_2_AlSi_4_O_10_F_2_
##LOCALITY=Brown Derby mine, Ohio City, Gunnison County, Colorado, USA
##OWNER=RRUFF
##SOURCE=Dave Bunk Minerals
##DESCRIPTION=Purple scaly aggregate, polytype 2M1
##STATUS=The identification of this mineral has been confirmed by X-ray diffraction and chemical analysis
##URL=rruff.info/R050132
##MEASURED CHEMISTRY=(K_0.90_Rb_0.10_)(Li_0.62_Al_0.38_)_3_(Si_0.93_Al_0.07_)_4_O_10_(F_0.69_(OH)_0.31_)_2_
##PIN_ID=L00606
##ORIENTATION=Laser parallel to (1 0 1). Fiducial mark perpendicular to laser is parallel to -b [0 -1 0]
157.4550, 0.0000000E+00
158.6810, 25.53516
159.9080, 474.2949
161.1340, 46.16992
162.3590, 330.1094
163.5850, 377.1367
164.8110, 573.7422
166.0360, 922.0508
167.2610, 951.9023
168.4860, 1420.604
169.7110, 1675.855
170.9360, 2096.848
172.1610, 2710.920
173.3850, 3073.422
174.6100, 3857.754
175.8340, 4381.395
177.0580, 4799.885
178.2820, 5111.844
179.5050, 5103.941
180.7290, 5164.992
181.9520, 5001.244
183.1760, 4845.893
184.3990, 4460.713
185.6220, 4336.336
186.8450, 4042.465
188.0670, 3627.850
189.2900, 3480.291
190.5120, 3428.623
191.7340, 3425.703
192.9560, 3349.416
194.1780, 3322.654
195.4000, 3088.346
196.6220, 3357.412
197.8430, 3054.805
199.0640, 2809.492
200.2860, 2733.428
201.5070, 2389.617
202.7270, 2396.309
203.9480, 2110.080
205.1690, 1591.209
206.3890, 1514.754
207.6090, 1454.193
208.8290, 1539.791
210.0490, 1614.951
211.2690, 1502.551
212.4890, 1537.607
213.7080, 1444.156
214.9280, 1449.229
216.1470, 1015.854
217.3660, 885.0488
218.5850, 772.8438
219.8030, 577.2480
221.0220, 478.2793
222.2400, 591.9531
223.4590, 394.2812
224.6770, 625.2773
225.8950, 386.9492
227.1120, 516.3125
228.3300, 877.3730
229.5480, 927.1426
230.7650, 1108.635
231.9820, 1315.838
233.1990, 1792.227
234.4160, 2075.924
235.6330, 2300.463
236.8490, 2486.936
238.0660, 2921.711
239.2820, 3054.896
240.4980, 3294.426
241.7140, 3849.443
242.9300, 4380.389
244.1460, 4743.273
245.3610, 4971.998
246.5770, 5541.963
247.7920, 5915.607
249.0070, 6673.799
250.2220, 7126.137
251.4370, 8402.658
252.6510, 9146.508
253.8660, 10559.77
255.0800, 11658.08
256.2940, 13257.95
257.5080, 14682.61
258.7220, 16362.04
259.9360, 17322.81
261.1490, 17025.98
262.3630, 16826.16
263.5760, 15909.41
264.7890, 14457.68
266.0020, 13086.97
267.2150, 11219.26
268.4270, 10039.52
269.6400, 8293.762
270.8520, 6727.973
272.0640, 5568.145
273.2760, 4612.279
274.4880, 3883.371
275.7000, 3341.414
276.9120, 2882.408
278.1230, 2474.340
279.3340, 1955.191
280.5450, 1714.326
281.7560, 1724.629
282.9670, 1343.207
284.1780, 1210.686
285.3880, 1284.072
286.5980, 976.3691
287.8090, 798.5684
289.0190, 737.6797
290.2290, 735.6973
291.4380, 779.6230
292.6480, 510.4590
293.8570, 543.2031
295.0670, 476.8555
296.2760, 634.4199
297.4850, 589.7910
298.6930, 574.2891
299.9020, 582.5918
301.1110, 628.8086
302.3190, 578.9375
303.5270, 555.3926
304.7350, 500.4902
305.9430, 525.8965
307.1510, 207.8262
308.3580, 425.4453
309.5660, 286.5195
310.7730, 327.9785
311.9800, 407.7617
313.1870, 325.8242
314.3940, 283.1270
315.6010, 368.6387
316.8070, 327.3262
318.0130, 243.1699
319.2200, 426.1426
320.4260, 488.2305
321.6310, 265.4141
322.8370, 464.6797
324.0430, 396.0137
325.2480, 469.4082
326.4540, 516.8555
327.6590, 480.3379
328.8640, 367.8496
330.0680, 380.3750
331.2730, 122.9102
332.4780, 210.4395
333.6820, 90.95898
334.8860, 14.46094
336.0900, 90.93164
337.2940, 143.3770
338.4980, 181.2090
339.7010, 163.8887
340.9050, 4.664063
342.1080, 294.4941
343.3110, 304.4531
344.5140, 216.1172
345.7170, 371.3711
346.9200, 359.8027
348.1220, 230.9512
349.3240, 422.9023
350.5270, 103.6875
351.7290, 252.8438
352.9310, 266.6191
354.1320, 54.59375
355.3340, 271.9570
356.5350, 15.62109
357.7370, 124.7793
358.9380, 157.0996
360.1390, 203.2520
361.3400, 223.2188
362.5400, 147.8457
363.7410, 584.7383
364.9410, 404.9648
366.1410, 515.0586
367.3410, 791.7090
368.5410, 1140.061
369.7410, 901.3613
370.9400, 1230.752
372.1400, 1434.230
373.3390, 1552.273
374.5380, 1703.922
375.7370, 1828.850
376.9360, 2219.873
378.1350, 2322.783
379.3330, 2436.602
380.5310, 2422.840
381.7300, 2563.227
382.9280, 2622.484
384.1260, 2741.621
385.3230, 2923.686
386.5210, 2973.676
387.7180, 3253.590
388.9160, 3155.432
390.1130, 3355.188
391.3100, 3548.836
392.5060, 3689.391
393.7030, 3856.275
394.9000, 3954.680
396.0960, 4107.342
397.2920, 4363.578
398.4880, 4429.414
399.6840, 4651.979
400.8800, 4582.275
402.0750, 4652.328
403.2710, 4509.121
404.4660, 4491.750
405.6610, 4441.686
406.8560, 4321.068
408.0510, 4257.596
409.2450, 4066.066
410.4400, 3837.482
411.6340, 3763.844
412.8280, 3366.148
414.0220, 3074.398
415.2160, 2900.592
416.4100, 2572.730
417.6030, 2286.814
418.7970, 2134.844
419.9900, 1895.816
421.1830, 1655.736
422.3760, 1775.602
423.5690, 1781.412
424.7610, 1849.172
425.9540, 1601.877
427.1460, 1396.527
428.3380, 1598.129
429.5300, 1395.678
430.7220, 1673.174
431.9140, 1342.619
433.1050, 1562.016
434.2970, 1575.357
435.4880, 1388.652
436.6790, 1426.895
437.8700, 1561.090
439.0610, 1250.234
440.2510, 1375.328
441.4420, 1426.373
442.6320, 1448.373
443.8220, 1210.322
445.0120, 1315.225
446.2020, 1502.078
447.3910, 1172.883
448.5810, 1063.643
449.7700, 1137.355
450.9600, 1230.783
452.1490, 1077.412
453.3370, 968.9883
454.5260, 1171.508
455.7150, 978.9688
456.9030, 1008.373
458.0910, 999.6758
459.2800, 1110.957
460.4670, 837.1738
461.6550, 1061.059
462.8430, 856.1484
464.0300, 1122.176
465.2180, 1165.887
466.4050, 1130.781
467.5920, 932.6113
468.7790, 1105.375
469.9650, 1214.072
471.1520, 1140.701
472.3380, 1334.262
473.5250, 1051.756
474.7110, 1166.133
475.8970, 1465.783
477.0820, 1247.734
478.2680, 1130.465
479.4540, 1124.188
480.6390, 1259.182
481.8240, 950.9805
483.0090, 1022.648
484.1940, 908.0977
485.3780, 807.1465
486.5630, 606.3555
487.7470, 463.9043
488.9320, 443.4922
490.1160, 311.6016
491.3000, 122.5918
492.4830, 76.31836
493.6670, 219.1426
494.8500, 227.2090
496.0340, 119.4941
497.2170, 27.56250
498.4000, 179.2344
499.5820, 103.6523
500.7650, 145.3516
501.9480, 229.6445
503.1300, 162.2891
504.3120, 159.4316
505.4940, 102.6836
506.6760, 158.2871
507.8580, 126.8672
509.0390, 170.1855
510.2210, 18.89844
511.4020, 13.91211
512.5830, 127.8555
513.7640, 84.73828
514.9450, 167.5625
516.1250, 240.3281
517.3060, 152.0391
518.4860, 346.6914
519.6660, 352.2969
520.8460, 353.8496
522.0260, 233.3535
523.2060, 415.8047
524.3850, 426.2090
525.5650, 524.5703
526.7440, 525.8848
527.9230, 592.1543
529.1020, 559.3828
530.2810, 580.5723
531.4590, 723.7227
532.6380, 532.8340
533.8160, 585.9297
534.9940, 561.9863
536.1720, 667.0371
537.3500, 680.0547
538.5270, 807.0410
539.7050, 775.9941
540.8820, 924.9180
542.0590, 767.8555
543.2360, 970.8242
544.4130, 1048.807
545.5900, 1371.789
546.7660, 1120.787
547.9430, 1370.797
549.1190, 1493.783
550.2950, 1433.758
551.4710, 1547.709
552.6470, 1829.686
553.8220, 2161.633
554.9980, 2041.615
556.1730, 2287.570
557.3480, 2540.508
558.5230, 2797.434
559.6980, 2366.385
560.8730, 2335.352
562.0470, 2531.320
563.2220, 2717.270
564.3960, 2635.242
565.5700, 2528.242
566.7440, 2354.223
567.9170, 2239.658
569.0910, 2123.082
570.2640, 1907.145
571.4380, 1884.094
572.6110, 1653.023
573.7840, 1480.928
574.9570, 1348.812
576.1290, 1136.674
577.3020, 1263.516
578.4740, 1132.357
579.6460, 1005.178
580.8180, 669.9863
581.9900, 749.7676
583.1620, 425.5371
584.3330, 684.2832
585.5040, 708.0137
586.6760, 434.7207
587.8470, 685.4023
589.0180, 599.0820
590.1880, 413.7891
591.3590, 572.5000
592.5290, 434.1914
593.7000, 578.8613
594.8700, 564.5137
596.0400, 907.1406
597.2090, 785.7500
598.3790, 1242.344
599.5490, 935.9141
600.7180, 1243.473
601.8870, 1021.012
603.0560, 1140.551
604.2250, 1275.086
605.3940, 1253.629
606.5620, 1207.154
607.7300, 1075.678
608.8990, 1438.182
610.0670, 1481.666
611.2350, 1296.129
612.4020, 1279.574
613.5700, 1294.221
614.7370, 1467.457
615.9050, 1375.902
617.0720, 1450.334
618.2390, 1557.750
619.4060, 1462.160
620.5720, 1665.557
621.7390, 1383.941
622.9050, 1546.371
624.0710, 1636.846
625.2370, 1648.330
626.4030, 1557.895
627.5690, 1673.107
628.7340, 1795.850
629.9000, 2022.715
631.0650, 1758.232
632.2300, 1726.480
633.3950, 1966.477
634.5600, 1755.740
635.7240, 1991.518
636.8890, 1701.377
638.0530, 1626.510
639.2170, 1544.592
640.3810, 1435.543
641.5450, 1351.307
642.7080, 1077.293
643.8720, 725.5605
645.0350, 923.0664
646.1980, 849.2070
647.3610, 502.9180
648.5240, 832.6641
649.6870, 560.7598
650.8490, 578.0625
652.0120, 580.3242
653.1740, 711.4023
654.3360, 674.3027
655.4980, 720.5547
656.6600, 741.1133
657.8210, 865.3066
658.9830, 757.3164
660.1440, 813.3516
661.3050, 1026.398
662.4660, 880.9434
663.6270, 1088.258
664.7870, 1017.855
665.9480, 1135.252
667.1080, 1385.666
668.2680, 1301.043
669.4280, 1318.537
670.5880, 1177.221
671.7480, 1541.695
672.9070, 1773.854
674.0670, 1599.895
675.2260, 2058.391
676.3850, 2052.852
677.5440, 2328.061
678.7030, 2537.174
679.8610, 2751.883
681.0200, 3032.143
682.1780, 3280.967
683.3360, 3624.557
684.4940, 3891.527
685.6520, 4296.031
686.8090, 4772.738
687.9670, 5417.203
689.1240, 5940.260
690.2810, 6473.830
691.4380, 7564.928
692.5950, 7993.994
693.7520, 9025.688
694.9080, 9985.887
696.0650, 11217.46
697.2210, 12704.40
698.3770, 14002.62
699.5330, 15449.90
700.6880, 17502.61
701.8440, 19352.20
702.9990, 21456.51
704.1550, 23827.74
705.3100, 25958.82
706.4650, 28478.20
707.6190, 30094.44
708.7740, 31427.46
709.9290, 31773.20
711.0830, 31392.93
712.2370, 29784.01
713.3910, 27445.80
714.5450, 24511.90
715.6980, 21511.34
716.8520, 18344.39
718.0050, 15951.36
719.1580, 13212.08
720.3110, 11561.34
721.4640, 9987.137
722.6170, 8429.980
723.7700, 7229.859
724.9220, 6242.182
726.0740, 5635.270
727.2260, 5051.289
728.3780, 4164.928
729.5300, 4209.635
730.6810, 3562.242
731.8330, 3486.547
732.9840, 3248.080
734.1350, 3117.547
735.2860, 2810.982
736.4370, 2759.523
737.5880, 2666.035
738.7380, 2936.807
739.8880, 2893.422
741.0390, 2948.344
742.1890, 3103.143
743.3380, 2966.891
744.4880, 3312.777
745.6380, 3244.914
746.7870, 3349.746
747.9360, 3335.148
749.0850, 3431.100
750.2340, 3439.154
751.3830, 3457.445
752.5310, 3472.234
753.6800, 3255.021
754.8280, 3210.178
755.9760, 3201.252
757.1240, 2930.123
758.2720, 2875.967
759.4190, 2734.838
760.5670, 2481.617
761.7140, 2323.947
762.8610, 2060.600
764.0080, 1942.146
765.1550, 1979.066
766.3020, 1730.693
767.4480, 1624.291
768.5950, 1316.857
769.7410, 1349.396
770.8870, 1189.916
772.0330, 890.4102
773.1780, 917.9590
774.3240, 1191.475
775.4690, 820.0098
776.6140, 938.5254
777.7590, 885.0703
778.9040, 870.6270
780.0490, 1048.199
781.1940, 850.8105
782.3380, 1091.447
783.4820, 809.0977
784.6260, 884.7559
785.7700, 585.4316
786.9140, 948.1172
788.0580, 989.8242
789.2010, 727.5039
790.3450, 837.1523
791.4880, 717.7676
792.6310, 792.3516
793.7730, 544.9004
794.9160, 572.4121
796.0590, 707.8887
797.2010, 412.3301
798.3430, 485.7305
799.4850, 474.0938
800.6270, 506.4180
801.7690, 271.7051
802.9100, 405.9492
804.0520, 324.1523
805.1930, 367.3145
806.3340, 64.43750
807.4750, 17.50781
808.6160, 66.52734
809.7560, 64.50586
810.8970, 168.3672
812.0370, 84.81055
813.1770, 4.089844
814.3170, 124.5645
815.4570, 146.1699
816.5960, 10.72461
817.7360, 131.7773
818.8750, 202.4102
820.0140, 138.2168
821.1530, 73.15625
822.2920, 129.2012
823.4310, 116.3789
824.5690, 46.31836
825.7070, 26.04102
826.8460, 19.52344
827.9840, 153.9688
829.1220, 128.3926
830.2590, 179.2949
831.3970, 89.85352
832.5340, 15.95117
833.6710, 24.00781
834.8080, 172.0488
835.9450, 109.2461
837.0820, 68.56445
838.2190, 14.01172
839.3550, 142.4707
840.4910, 173.0977
841.6270, 79.11914
842.7630, 80.71680
843.8990, 28.33984
845.0350, 91.66016
846.1700, 138.2266
847.3060, 134.0645
848.4410, 44.85156
849.5760, 107.5840
850.7100, 29.26953
851.8450, 178.8984
852.9800, 63.52344
854.1140, 41.96094
855.2480, 4.386719
856.3820, 197.7539
857.5160, 2.070313
858.6500, 45.32617
859.7830, 31.52930
860.9170, 157.6777
862.0500, 206.7793
863.1830, 36.16211
864.3160, 158.1914
865.4480, 64.36328
866.5810, 55.36914
867.7130, 121.0508
868.8460, 58.68359
869.9780, 67.26562
871.1100, 67.80078
872.2410, 35.28711
873.3730, 34.83203
874.5050, 8.894531
875.6360, 11.43555
876.7670, 43.28906
877.8980, 42.09570
879.0290, 73.98633
880.1590, 138.0254
881.2900, 50.00781
882.4200, 134.8730
883.5500, 229.7070
884.6800, 89.50195
885.8100, 57.25000
886.9400, 230.9512
888.0690, 177.3887
889.1990, 96.12305
890.3280, 125.5859
891.4570, 122.0059
892.5860, 326.3828
893.7140, 288.7207
894.8430, 32.01953
895.9710, 338.2734
897.1000, 143.4941
898.2280, 57.67188
899.3560, 72.80469
900.4830, 213.8926
901.6110, 364.9414
902.7380, 392.5605
903.8660, 349.9258
904.9930, 435.8633
906.1200, 541.7656
907.2460, 407.6328
908.3730, 473.4629
909.5000, 473.2598
910.6260, 601.0176
911.7520, 612.4023
912.8780, 861.4297
914.0040, 678.0801
915.1290, 843.7324
916.2550, 864.3477
917.3800, 578.9277
918.5050, 511.5117
919.6300, 932.0605
920.7550, 638.5742
921.8800, 805.0547
923.0040, 673.5000
924.1290, 548.9062
925.2530, 897.2773
926.3770, 581.6113
927.5010, 506.9238
928.6250, 705.1992
929.7480, 729.4746
930.8720, 699.7148
931.9950, 413.9219
933.1180, 463.0938
934.2410, 517.2324
935.3640, 654.3320
936.4860, 690.0762
937.6090, 631.2051
938.7310, 723.2109
939.8530, 653.1562
940.9750, 448.0938
942.0970, 604.8750
943.2180, 795.4238
944.3400, 641.1406
945.4610, 635.1367
946.5820, 702.2051
947.7030, 888.7812
948.8240, 725.3496
949.9450, 867.5957
951.0650, 851.0234
952.1860, 958.2734
953.3060, 998.6055
954.4260, 1026.441
955.5460, 846.2461
956.6650, 1021.082
957.7850, 1044.340
958.9040, 1166.359
960.0230, 1354.590
961.1420, 932.1836
962.2610, 1129.223
963.3800, 1067.695
964.4990, 1348.168
965.6170, 1612.973
966.7350, 1019.250
967.8530, 999.1133
968.9710, 878.5703
970.0890, 956.7070
971.2070, 1183.754
972.3240, 1066.336
973.4410, 949.0000
974.5580, 1054.895
975.6750, 903.8477
976.7920, 1253.910
977.9090, 1042.633
979.0250, 988.4570
980.1410, 1233.469
981.2580, 1108.723
982.3740, 1112.953
983.4890, 981.7969
984.6050, 968.6602
985.7200, 1137.648
986.8360, 1016.027
987.9510, 1302.766
989.0660, 1549.551
990.1810, 1287.551
991.2950, 1559.004
992.4100, 1426.891
993.5240, 1190.730
994.6390, 1260.570
995.7530, 1353.992
996.8660, 1663.652
997.9800, 1232.367
999.0940, 1439.480
1000.207, 1297.484
1001.320, 1289.559
1002.433, 1451.902
1003.546, 1546.977
1004.659, 1620.090
1005.772, 1476.195
1006.884, 1707.164
1007.996, 1336.156
1009.108, 1190.895
1010.220, 1652.758
1011.332, 1437.281
1012.444, 1483.898
1013.555, 1567.527
1014.666, 1473.008
1015.777, 1587.281
1016.888, 1525.672
1017.999, 1627.539
1019.110, 1466.824
1020.220, 1264.973
1021.331, 1568.852
1022.441, 1454.203
1023.551, 1284.551
1024.661, 1315.023
1025.770, 1516.488
1026.880, 1123.656
1027.989, 1289.820
1029.098, 1132.922
1030.207, 1252.691
1031.316, 1019.270
1032.425, 1051.496
1033.533, 1086.793
1034.642, 1308.688
1035.750, 1080.844
1036.858, 948.0000
1037.966, 1065.227
1039.073, 938.7070
1040.181, 915.8867
1041.288, 990.1680
1042.396, 1137.727
1043.503, 1096.910
1044.610, 1185.090
1045.716, 1220.273
1046.823, 1405.457
1047.929, 1591.312
1049.036, 1515.703
1050.142, 1676.887
1051.248, 1609.375
1052.353, 1970.027
1053.459, 1817.215
1054.564, 2102.500
1055.670, 1910.688
1056.775, 2050.223
1057.880, 2054.410
1058.985, 2167.602
1060.089, 2220.402
1061.194, 2170.828
1062.298, 2120.840
1063.402, 2143.262
1064.506, 2169.590
1065.610, 2022.023
1066.713, 2043.805
1067.817, 2010.750
1068.920, 1978.086
1070.023, 2012.598
1071.126, 2020.797
1072.229, 1841.535
1073.332, 1985.738
1074.435, 2049.938
1075.537, 2233.145
1076.639, 2045.359
1077.741, 2175.852
1078.843, 2381.102
1079.945, 2208.613
1081.046, 2483.703
1082.148, 2447.105
1083.249, 2652.809
1084.350, 2604.176
1085.451, 2278.871
1086.551, 2548.254
1087.652, 2836.684
1088.752, 2578.164
1089.853, 2443.676
1090.953, 2552.578
1092.053, 2394.734
1093.152, 2309.348
1094.252, 2287.977
1095.351, 2471.617
1096.451, 2567.309
1097.550, 2488.008
1098.649, 2464.797
1099.748, 2298.562
1100.846, 2498.504
1101.945, 2405.305
1103.043, 2364.605
1104.141, 2664.062
1105.239, 2571.992
1106.337, 2627.039
1107.434, 2956.031
1108.532, 2843.082
1109.629, 2835.145
1110.726, 3064.242
1111.823, 2979.352
1112.920, 2907.602
1114.017, 3139.754
1115.113, 3254.910
1116.210, 3208.258
1117.306, 3298.430
1118.402, 3584.527
1119.498, 3450.121
1120.593, 3512.645
1121.689, 3778.996
1122.784, 3708.715
1123.879, 3662.406
1124.974, 3863.301
1126.069, 3594.008
1127.164, 3606.207
1128.259, 3551.504
1129.353, 3310.727
1130.447, 3497.242
1131.541, 3430.766
1132.635, 3434.137
1133.729, 3347.500
1134.822, 3276.871
1135.916, 3294.242
1137.009, 3211.621
1138.102, 3068.000
1139.195, 2679.391
1140.288, 2740.289
1141.380, 2262.383
1142.473, 1965.965
1143.565, 1770.383
1144.657, 1265.816
1145.749, 1482.766
1146.841, 931.8203
1147.932, 1045.297
1149.024, 1078.953
1150.115, 772.4297
1151.206, 546.0938
1152.297, 319.7773
1153.388, 416.3047
1154.479, 399.2695
1155.569, 505.2266
1156.659, 346.8281
1157.750, 82.01172
1158.839, 251.8828
1159.929, 338.3867
1161.019, 16.10938
1162.108, 166.3750
1163.198, 387.1289
1164.287, 105.8906
1165.376, 260.7852
1166.465, 109.2617
1167.553, 212.7383
1168.642, 68.35547
1169.730, 8.222656
1170.818, 200.1094
1171.906, 71.55469
1172.994, 6.984375
1174.082, 110.6211
1175.170, 263.0430
1176.257, 173.6836
1177.344, 349.0859
1178.431, 157.8398
1179.518, 59.04688
1180.605, 156.3516
1181.691, 165.2070
1182.778, 3.996094
1183.864, 178.1875
1184.950, 21.38672
1186.036, 154.0312
1187.122, 37.18359
1188.207, 156.3281
1189.292, 149.4609
1190.378, 50.41797
1191.463, 68.67578
1192.548, 149.2422
1193.632, 115.0156
1194.717, 56.99609
1195.801, 75.39844
1196.886, 296.4258
1197.970, 55.37500
1199.054, 15.68750
1200.137, 63.22266
1201.221, 236.1250
1202.305, 13.01953
1203.388, 158.8945
1204.471, 174.7578
1205.554, 156.6172
1206.637, 219.4609
1207.719, 85.30078
1208.802, 258.1250
1209.884, 90.93359
1210.966, 299.7344
1212.048, 132.5234
1213.130, 171.7031
1214.212, 145.9609
1215.293, 71.61328
1216.374, 159.2539
1217.456, 186.8828
1218.536, 397.5000
1219.617, 388.1016
1220.698, 87.69141
1221.778, 38.26172
1222.859, 357.8203
1223.939, 306.3555
1225.019, 446.8828
1226.099, 372.3945
1227.178, 296.8906
1228.258, 30.62500
1229.337, 208.8125
1230.417, 143.2383
1231.496, 343.6445
1232.574, 79.03906
1233.653, 54.41406
1234.732, 371.7656
1235.810, 165.1055
1236.888, 266.6133
1237.966, 304.9180
1239.044, 214.2070
1240.122, 223.4727
1241.199, 196.7266
1242.277, 173.9805
1243.354, 330.2383
1244.431, 250.5117
1245.508, 161.1758
1246.585, 256.4141
1247.661, 19.63281
1248.738, 112.2812
1249.814, 138.4492
1250.890, 17.61719
1251.966, 53.24219
1253.042, 4.175781
1254.117, 86.14844
1255.193, 209.8555
1256.268, 201.0664
1257.343, 90.42188
1258.418, 40.86719
1259.493, 140.3789
1260.567, 181.6758
1261.642, 340.0312
1262.716, 259.3672
1263.790, 399.8906
1264.864, 283.1836
1265.938, 330.4570
1267.011, 393.3789
1268.085, 53.33594
1269.158, 108.7578
1270.231, 65.95312
1271.304, 190.3203
1272.377, 235.3281
1273.450, 247.3125
1274.522, 26.71875
1275.594, 96.18359
1276.666, 250.0547
1277.738, 195.9141
1278.810, 472.7461
1279.882, 193.6406
1280.953, 190.4258
1282.025, 228.1914
1283.096, 39.06641
1284.167, 138.6094
1285.238, 223.2500
1286.308, 84.87109
1287.379, 158.4609
1288.449, 247.0312
1289.519, 443.9023
1290.589, 297.8906
1291.659, 184.9375
1292.729, 183.4062
1293.798, 150.8477
1294.868, 401.5820
1295.937, 355.9844
1297.006, 214.3594
1298.075, 154.6406
1299.143, 50.36328
1300.212, 295.8828
1301.280, 484.0625
1302.348, 204.1211
1303.416, 401.5820
1304.484, 199.7266
1305.552, 328.8477
1306.620, 93.94531
1307.687, 111.3398
1308.754, 379.1758
1309.821, 214.1875
1310.888, 385.8789
1311.955, 347.3750
1313.021, 184.3164
1314.088, 182.1406
1315.154, 551.0391
1316.220, 445.5742
1317.286, 469.4258
1318.352, 384.2539
1319.417, 474.4414
1320.483, 402.9688
1321.548, 171.8867
1322.613, 302.5430
1323.678, 132.9297
1324.743, 220.3672
1325.807, 551.0156
