##NAMES=Polylithionite
##RRUFFID=R050132
##IDEAL CHEMISTRY=KLi_2_AlSi_4_O_10_F_2_
##LOCALITY=Brown Derby mine, Ohio City, Gunnison County, Colorado, USA
##OWNER=RRUFF
##SOURCE=Dave Bunk Minerals
##DESCRIPTION=Purple scaly aggregate, polytype 2M1
##STATUS=The identification of this mineral has been confirmed by X-ray diffraction and chemical analysis
##URL=rruff.info/R050132
##MEASURED CHEMISTRY=(K_0.90_Rb_0.10_)(Li_0.62_Al_0.38_)_3_(Si_0.93_Al_0.07_)_4_O_10_(F_0.69_(OH)_0.31_)_2_
##PIN_ID=L01426
##ORIENTATION=Laser parallel to -a* (-1 0 0). Fiducial mark perpendicular to laser is parallel to -b [0 -1 0]
157.4550, 0.0000000E+00
158.6810, 309.0996
159.9080, 22.51953
161.1340, 267.0469
162.3590, 479.4531
163.5850, 118.3633
164.8110, 190.2793
166.0360, 576.4727
167.2610, 825.2109
168.4860, 1311.400
169.7110, 1537.238
170.9360, 1875.393
172.1610, 2176.283
173.3850, 2806.359
174.6100, 3400.914
175.8340, 3837.354
177.0580, 4637.160
178.2820, 5204.896
179.5050, 5317.211
180.7290, 5587.934
181.9520, 5756.172
183.1760, 5992.016
184.3990, 5987.150
185.6220, 5773.234
186.8450, 5561.979
188.0670, 5236.152
189.2900, 4958.561
190.5120, 4793.039
191.7340, 4655.162
192.9560, 4486.680
194.1780, 4576.621
195.4000, 4542.176
196.6220, 4606.268
197.8430, 4333.830
199.0640, 4193.820
200.2860, 3903.201
201.5070, 3770.324
202.7270, 3592.604
203.9480, 3184.303
205.1690, 2630.904
206.3890, 2430.502
207.6090, 2000.875
208.8290, 1893.533
210.0490, 2040.881
211.2690, 2047.879
212.4890, 2195.559
213.7080, 2177.947
214.9280, 2330.064
216.1470, 2023.930
217.3660, 1965.559
218.5850, 1808.965
219.8030, 1462.164
221.0220, 1160.158
222.2400, 1286.963
223.4590, 1109.582
224.6770, 1099.027
225.8950, 1238.301
227.1120, 1188.416
228.3300, 1314.371
229.5480, 1432.174
230.7650, 1459.797
231.9820, 1865.129
233.1990, 1958.238
234.4160, 2142.199
235.6330, 2414.049
236.8490, 2498.820
238.0660, 2862.535
239.2820, 3073.215
240.4980, 3309.867
241.7140, 3709.504
242.9300, 3830.133
244.1460, 4332.762
245.3610, 4859.939
246.5770, 5105.066
247.7920, 5451.588
249.0070, 5697.605
250.2220, 6341.668
251.4370, 7004.988
252.6510, 7684.414
253.8660, 8460.408
255.0800, 9574.301
256.2940, 10736.38
257.5080, 11742.42
258.7220, 13547.85
259.9360, 14997.93
261.1490, 15405.77
262.3630, 16062.95
263.5760, 16168.37
264.7890, 15795.94
266.0020, 14937.53
267.2150, 13645.14
268.4270, 11927.84
269.6400, 10349.56
270.8520, 8774.293
272.0640, 7287.043
273.2760, 6035.809
274.4880, 5222.584
275.7000, 4100.369
276.9120, 3728.154
278.1230, 2986.930
279.3340, 2423.688
280.5450, 2099.414
281.7560, 1778.105
282.9670, 1525.195
284.1780, 1331.391
285.3880, 1236.979
286.5980, 1052.539
287.8090, 988.0664
289.0190, 759.5605
290.2290, 756.0195
291.4380, 726.4473
292.6480, 611.8398
293.8570, 658.2012
295.0670, 641.5293
296.2760, 414.8242
297.4850, 586.0879
298.6930, 543.3184
299.9020, 443.5156
301.1110, 592.6816
302.3190, 690.8164
303.5270, 443.6484
304.7350, 374.0234
305.9430, 473.9004
307.1510, 359.2012
308.3580, 403.2012
309.5660, 279.7891
310.7730, 251.8730
311.9800, 244.3828
313.1870, 207.2676
314.3940, 338.4746
315.6010, 273.9707
316.8070, 283.7148
318.0130, 139.6875
319.2200, 291.8574
320.4260, 271.2012
321.6310, 152.7051
322.8370, 359.3516
324.0430, 176.1211
325.2480, 21.00391
326.4540, 54.98828
327.6590, 204.0645
328.8640, 187.2168
330.0680, 28.56445
331.2730, 160.3008
332.4780, 3.962891
333.6820, 15.26758
334.8860, 72.39844
336.0900, 119.0586
337.2940, 80.72852
338.4980, 12.40625
339.7010, 121.0781
340.9050, 152.7754
342.1080, 102.5098
343.3110, 344.2734
344.5140, 179.1309
345.7170, 385.0371
346.9200, 311.0605
348.1220, 314.1816
349.3240, 248.4102
350.5270, 172.7422
351.7290, 307.2539
352.9310, 304.8242
354.1320, 4.908203
355.3340, 338.7480
356.5350, 5.019531
357.7370, 23.08594
358.9380, 165.2793
360.1390, 2.937500
361.3400, 185.8125
362.5400, 252.0918
363.7410, 434.1973
364.9410, 610.1055
366.1410, 612.2617
367.3410, 657.7617
368.5410, 647.5684
369.7410, 804.8770
370.9400, 1034.367
372.1400, 1112.818
373.3390, 1081.229
374.5380, 1353.602
375.7370, 1333.004
376.9360, 1611.980
378.1350, 1817.238
379.3330, 1869.461
380.5310, 1914.648
381.7300, 2104.799
382.9280, 2105.914
384.1260, 2149.994
385.3230, 2153.041
386.5210, 2413.049
387.7180, 2476.023
388.9160, 2529.945
390.1130, 2713.750
391.3100, 2755.477
392.5060, 2856.066
393.7030, 3010.346
394.9000, 3226.859
396.0960, 3291.902
397.2920, 3634.607
398.4880, 3783.027
399.6840, 4156.201
400.8800, 4425.195
402.0750, 4417.990
403.2710, 4462.754
404.4660, 4462.469
405.6610, 4460.934
406.8560, 4509.842
408.0510, 4474.496
409.2450, 4255.133
410.4400, 4301.748
411.6340, 3990.342
412.8280, 3949.914
414.0220, 3542.465
415.2160, 3068.996
416.4100, 2968.504
417.6030, 2635.994
418.7970, 2614.461
419.9900, 2288.906
421.1830, 2181.330
422.3760, 2033.734
423.5690, 1859.119
424.7610, 1773.041
425.9540, 1527.822
427.1460, 1567.145
428.3380, 1488.445
429.5300, 1381.727
430.7220, 1460.986
431.9140, 1502.229
433.1050, 1427.451
434.2970, 1578.654
435.4880, 1473.838
436.6790, 1479.002
437.8700, 1468.148
439.0610, 1425.277
440.2510, 1669.387
441.4420, 1682.477
442.6320, 1754.551
443.8220, 1508.605
445.0120, 1402.641
446.2020, 1338.662
447.3910, 1274.111
448.5810, 1314.705
449.7700, 1309.732
450.9600, 1376.754
452.1490, 1463.764
453.3370, 1480.762
454.5260, 1187.744
455.7150, 1400.711
456.9030, 1172.656
458.0910, 992.5820
459.2800, 1415.484
460.4670, 1134.363
461.6550, 1161.219
462.8430, 1380.047
464.0300, 1369.850
465.2180, 1260.625
466.4050, 1137.371
467.5920, 1132.090
468.7790, 1021.779
469.9650, 1051.439
471.1520, 1049.916
472.3380, 1156.666
473.5250, 1150.439
474.7110, 1201.332
475.8970, 1349.420
477.0820, 1099.850
478.2680, 1211.566
479.4540, 1301.240
480.6390, 1049.119
481.8240, 1120.734
483.0090, 845.6816
484.1940, 700.4395
485.3780, 664.1562
486.5630, 650.5039
487.7470, 691.0254
488.9320, 413.4355
490.1160, 326.3008
491.3000, 295.7930
492.4830, 170.2363
493.6670, 4.255859
494.8500, 131.5605
496.0340, 57.85352
497.2170, 132.5859
498.4000, 27.86523
499.5820, 81.90234
500.7650, 101.3652
501.9480, 175.7461
503.1300, 98.83398
504.3120, 140.4453
505.4940, 107.1699
506.6760, 216.9922
507.8580, 94.96484
509.0390, 86.02539
510.2210, 156.1719
511.4020, 6.437500
512.5830, 73.08789
513.7640, 113.7148
514.9450, 268.5957
516.1250, 207.2383
517.3060, 47.86328
518.4860, 42.53125
519.6660, 125.0215
520.8460, 182.5566
522.0260, 458.0762
523.2060, 345.5820
524.3850, 452.0684
525.5650, 443.5410
526.7440, 538.9961
527.9230, 583.4336
529.1020, 659.8594
530.2810, 662.2695
531.4590, 662.6641
532.6380, 704.0469
533.8160, 712.4199
534.9940, 791.7988
536.1720, 815.6602
537.3500, 685.5312
538.5270, 845.9570
539.7050, 822.3691
540.8820, 720.8223
542.0590, 833.2695
543.2360, 951.7480
544.4130, 1049.307
545.5900, 1175.936
546.7660, 1263.186
547.9430, 1233.273
549.1190, 1423.971
550.2950, 1492.684
551.4710, 1531.414
552.6470, 1735.193
553.8220, 1931.990
554.9980, 1959.820
556.1730, 2157.662
557.3480, 2487.559
558.5230, 2491.463
559.6980, 2536.367
560.8730, 2696.289
562.0470, 2662.230
563.2220, 2689.184
564.3960, 2738.170
565.5700, 2625.160
566.7440, 2542.148
567.9170, 2370.133
569.0910, 2270.146
570.2640, 1984.105
571.4380, 2029.090
572.6110, 1906.072
573.7840, 1805.051
574.9570, 1411.094
576.1290, 1476.172
577.3020, 1092.246
578.4740, 1134.320
579.6460, 890.3906
580.8180, 817.4902
581.9900, 669.5898
583.1620, 674.6973
584.3330, 561.8086
585.5040, 505.4336
586.6760, 520.0586
587.8470, 391.1934
589.0180, 306.3281
590.1880, 245.4668
591.3590, 214.3145
592.5290, 435.7422
593.7000, 287.9082
594.8700, 268.1016
596.0400, 464.2930
597.2090, 387.4824
598.3790, 582.6699
599.5490, 552.8535
600.7180, 657.0371
601.8870, 307.2188
603.0560, 714.4004
604.2250, 711.5820
605.3940, 415.7754
606.5620, 842.9668
607.7300, 791.1562
608.8990, 872.3457
610.0670, 798.5312
611.2350, 1052.713
612.4020, 1050.895
613.5700, 1157.074
614.7370, 1072.266
615.9050, 1059.525
617.0720, 1198.785
618.2390, 1111.047
619.4060, 1222.332
620.5720, 1200.652
621.7390, 1089.000
622.9050, 1186.355
624.0710, 1360.754
625.2370, 1382.199
626.4030, 1467.686
627.5690, 1617.264
628.7340, 1382.900
629.9000, 1616.641
631.0650, 1528.477
632.2300, 1518.404
633.3950, 1578.408
634.5600, 1424.549
635.7240, 1634.697
636.8890, 1573.492
638.0530, 1312.623
639.2170, 1183.320
640.3810, 1276.596
641.5450, 1092.734
642.7080, 1107.238
643.8720, 708.7285
645.0350, 752.6504
646.1980, 733.7031
647.3610, 446.9102
648.5240, 618.8301
649.6870, 483.3672
650.8490, 631.5586
652.0120, 471.2090
653.1740, 712.6406
654.3360, 852.0781
655.4980, 691.5156
656.6600, 769.9590
657.8210, 708.3359
658.9830, 942.1055
660.1440, 991.5625
661.3050, 866.0195
662.4660, 1006.484
663.6270, 760.9512
664.7870, 1040.420
665.9480, 900.8945
667.1080, 1046.373
668.2680, 1122.064
669.4280, 1191.580
670.5880, 1203.271
671.7480, 1346.293
672.9070, 1415.068
674.0670, 1566.027
675.2260, 1581.416
676.3850, 1591.598
677.5440, 1762.006
678.7030, 1923.906
679.8610, 2108.529
681.0200, 2590.840
682.1780, 2670.207
683.3360, 3043.635
684.4940, 3361.129
685.6520, 3607.527
686.8090, 4094.033
687.9670, 4504.664
689.1240, 4892.141
690.2810, 5638.412
691.4380, 6147.373
692.5950, 6797.709
693.7520, 7632.674
694.9080, 8516.611
696.0650, 9402.133
697.2210, 10383.67
698.3770, 11420.04
699.5330, 12679.71
700.6880, 14285.57
701.8440, 15373.05
702.9990, 17591.82
704.1550, 19046.17
705.3100, 20932.88
706.4650, 23216.45
707.6190, 24746.14
708.7740, 26653.53
709.9290, 27981.50
711.0830, 28677.60
712.2370, 28640.92
713.3910, 27240.41
714.5450, 25072.33
715.6980, 23062.14
716.8520, 19977.54
718.0050, 17247.68
719.1580, 14833.45
720.3110, 12686.80
721.4640, 10769.86
722.6170, 9263.145
723.7700, 7938.029
724.9220, 6815.172
726.0740, 6051.994
727.2260, 5121.592
728.3780, 4527.154
729.5300, 3908.771
730.6810, 3778.773
731.8330, 3686.439
732.9840, 3255.299
734.1350, 3094.002
735.2860, 2961.777
736.4370, 2925.092
737.5880, 2699.244
738.7380, 2652.576
739.8880, 2619.979
741.0390, 2700.887
742.1890, 2689.754
743.3380, 2988.297
744.4880, 2981.672
745.6380, 3173.064
746.7870, 3439.104
747.9360, 3220.035
749.0850, 3394.035
750.2340, 3242.910
751.3830, 3525.168
752.5310, 3517.781
753.6800, 3460.061
754.8280, 3632.752
755.9760, 3325.859
757.1240, 3360.189
758.2720, 3281.816
759.4190, 3034.090
760.5670, 2849.840
761.7140, 2674.607
762.8610, 2489.717
764.0080, 2292.762
765.1550, 2098.203
766.3020, 1956.789
767.4480, 1725.230
768.5950, 1694.646
769.7410, 1387.039
770.8870, 1461.402
772.0330, 1345.740
773.1780, 1221.070
774.3240, 1096.373
775.4690, 1052.611
776.6140, 1148.951
777.7590, 987.2285
778.9040, 1101.510
780.0490, 1097.799
781.1940, 996.1152
782.3380, 1119.439
783.4820, 929.7852
784.6260, 1017.137
785.7700, 906.5254
786.9140, 945.9219
788.0580, 983.3203
789.2010, 1000.742
790.3450, 900.1406
791.4880, 1082.510
792.6310, 842.8516
793.7730, 963.1621
794.9160, 649.4414
796.0590, 719.6914
797.2010, 509.9297
798.3430, 435.1387
799.4850, 627.3164
800.6270, 266.4648
801.7690, 395.5820
802.9100, 452.6660
804.0520, 335.7207
805.1930, 179.7461
806.3340, 223.7344
807.4750, 183.6934
808.6160, 85.70898
809.7560, 188.5059
810.8970, 38.63867
812.0370, 46.13867
813.1770, 75.87891
814.3170, 235.4180
815.4570, 146.1074
816.5960, 126.4043
817.7360, 60.96289
818.8750, 89.71289
820.0140, 281.4902
821.1530, 250.4688
822.2920, 41.63867
823.4310, 122.8848
824.5690, 13.25195
825.7070, 26.68359
826.8460, 39.30664
827.9840, 161.7637
829.1220, 24.48828
830.2590, 104.2793
831.3970, 28.18164
832.5340, 171.1582
833.6710, 3.720703
834.8080, 48.54102
835.9450, 46.67773
837.0820, 33.97656
838.2190, 12.28320
839.3550, 112.7930
840.4910, 42.65430
841.6270, 170.0566
842.7630, 196.0957
843.8990, 17.75781
845.0350, 234.0430
846.1700, 93.29492
847.3060, 62.50977
848.4410, 330.6797
849.5760, 207.1797
850.7100, 103.2051
851.8450, 111.6621
852.9800, 207.4902
854.1140, 45.28320
855.2480, 70.96484
856.3820, 154.6953
857.5160, 9.681641
858.6500, 22.88672
859.7830, 4.410156
860.9170, 48.11914
862.0500, 71.27344
863.1830, 120.6289
864.3160, 6.947266
865.4480, 106.2188
866.5810, 31.45117
867.7130, 92.35742
868.8460, 64.26562
869.9780, 64.74219
871.1100, 45.71289
872.2410, 146.6445
873.3730, 179.5410
874.5050, 131.4043
875.6360, 108.8047
876.7670, 15.02734
877.8980, 15.78125
879.0290, 18.50586
880.1590, 92.15039
881.2900, 81.77539
882.4200, 160.3496
883.5500, 179.6445
884.6800, 157.4297
885.8100, 181.9316
886.9400, 83.38867
888.0690, 12.81641
889.1990, 69.79492
890.3280, 392.5098
891.4570, 93.78711
892.5860, 34.03320
893.7140, 246.2422
894.8430, 34.42188
895.9710, 152.5684
897.1000, 4.318359
898.2280, 52.75391
899.3560, 72.98438
900.4830, 213.8008
901.6110, 155.7773
902.7380, 261.7266
903.8660, 357.6484
904.9930, 357.5391
906.1200, 445.4062
907.2460, 609.2383
908.3730, 290.0508
909.5000, 623.8320
910.6260, 445.5898
911.7520, 443.3164
912.8780, 656.0352
914.0040, 655.7930
915.1290, 504.5430
916.2550, 518.2734
917.3800, 722.9766
918.5050, 644.6523
919.6300, 400.3281
920.7550, 631.9766
921.8800, 538.6250
923.0040, 678.2383
924.1290, 567.8242
925.2530, 333.4297
926.3770, 505.0078
927.5010, 624.5703
928.6250, 430.1055
929.7480, 513.6172
930.8720, 323.1133
931.9950, 518.5781
933.1180, 478.0312
934.2410, 488.4688
935.3640, 504.8906
936.4860, 493.2930
937.6090, 419.6680
938.7310, 438.6992
939.8530, 449.3242
940.9750, 454.4375
942.0970, 551.6797
943.2180, 642.7266
944.3400, 768.3359
945.4610, 574.3477
946.5820, 685.0625
947.7030, 708.3281
948.8240, 703.7852
949.9450, 844.9883
951.0650, 753.6797
952.1860, 848.6328
953.3060, 795.8711
954.4260, 800.0352
955.5460, 942.1211
956.6650, 810.1172
957.7850, 772.1875
958.9040, 1183.133
960.0230, 940.9336
961.1420, 1078.867
962.2610, 846.9883
963.3800, 890.3984
964.4990, 1008.414
965.6170, 928.4062
966.7350, 867.1602
967.8530, 1139.953
968.9710, 854.7227
970.0890, 1320.629
971.2070, 1408.223
972.3240, 939.6094
973.4410, 1252.355
974.5580, 1126.797
975.6750, 1103.625
976.7920, 1081.094
977.9090, 1247.668
979.0250, 1275.109
980.1410, 1212.832
981.2580, 1343.957
982.3740, 1372.930
983.4890, 1276.660
984.6050, 1364.219
985.7200, 1338.316
986.8360, 1293.500
987.9510, 1219.086
989.0660, 1341.910
990.1810, 1172.090
991.2950, 1283.785
992.4100, 1248.520
993.5240, 1393.133
994.6390, 1419.125
995.7530, 1407.844
996.8660, 1403.859
997.9800, 1418.109
999.0940, 1415.707
1000.207, 1344.609
1001.320, 1406.438
1002.433, 1390.461
1003.546, 1511.516
1004.659, 1437.594
1005.772, 1568.574
1006.884, 1609.004
1007.996, 1409.578
1009.108, 1575.969
1010.220, 1654.336
1011.332, 1235.172
1012.444, 1564.047
1013.555, 1654.238
1014.666, 1550.578
1015.777, 1365.887
1016.888, 1776.562
1017.999, 1498.332
1019.110, 1616.023
1020.220, 1599.828
1021.331, 1336.227
1022.441, 1348.262
1023.551, 1633.605
1024.661, 1454.527
1025.770, 1437.012
1026.880, 1342.262
1027.989, 1316.191
1029.098, 1371.469
1030.207, 1430.246
1031.316, 1366.461
1032.425, 1076.379
1033.533, 1313.863
1034.642, 1084.836
1035.750, 1143.695
1036.858, 1163.680
1037.966, 958.6719
1039.073, 1045.668
1040.181, 1268.684
1041.288, 1345.703
1042.396, 1180.730
1043.503, 1333.766
1044.610, 1321.805
1045.716, 1335.465
1046.823, 1688.195
1047.929, 1671.621
1049.036, 1656.949
1050.142, 1607.027
1051.248, 1969.117
1052.353, 2093.449
1053.459, 2007.551
1054.564, 2344.059
1055.670, 2294.168
1056.775, 2746.293
1057.880, 2303.477
1058.985, 2476.617
1060.089, 2571.586
1061.194, 2539.738
1062.298, 2588.898
1063.402, 2507.461
1064.506, 2518.633
1065.610, 2465.703
1066.713, 2556.520
1067.817, 2395.828
1068.920, 2443.027
1070.023, 2307.293
1071.126, 2235.512
1072.229, 2489.738
1073.332, 2097.969
1074.435, 2023.211
1075.537, 2160.457
1076.639, 2315.715
1077.741, 2296.984
1078.843, 2313.266
1079.945, 2335.570
1081.046, 2429.891
1082.148, 2346.219
1083.249, 2278.633
1084.350, 2436.062
1085.451, 2424.539
1086.551, 2466.027
1087.652, 2459.562
1088.752, 2453.195
1089.853, 2336.910
1090.953, 2275.660
1092.053, 2277.254
1093.152, 2393.297
1094.252, 2222.156
1095.351, 2429.168
1096.451, 2300.121
1097.550, 2406.102
1098.649, 2765.133
1099.748, 2403.195
1100.846, 2316.336
1101.945, 2332.504
1103.043, 2513.887
1104.141, 2540.102
1105.239, 2615.387
1106.337, 2681.621
1107.434, 2767.941
1108.532, 2691.430
1109.629, 2827.777
1110.726, 2942.133
1111.823, 2828.504
1112.920, 2914.887
1114.017, 2754.285
1115.113, 2859.293
1116.210, 3100.109
1117.306, 3119.602
1118.402, 3309.145
1119.498, 3651.703
1120.593, 3427.270
1121.689, 3670.934
1122.784, 3649.555
1123.879, 3605.242
1124.974, 3605.926
1126.069, 3534.762
1127.164, 3683.980
1128.259, 3526.852
1129.353, 3505.328
1130.447, 3767.816
1131.541, 3755.027
1132.635, 3636.043
1133.729, 3697.832
1134.822, 3609.664
1135.916, 3582.602
1137.009, 3617.734
1138.102, 3494.629
1139.195, 3501.527
1140.288, 3419.875
1141.380, 3117.477
1142.473, 2837.406
1143.565, 2384.129
1144.657, 1841.996
1145.749, 1869.969
1146.841, 1600.301
1147.932, 1078.137
1149.024, 1168.395
1150.115, 1032.527
1151.206, 877.5430
1152.297, 843.9141
1153.388, 678.5859
1154.479, 629.6250
1155.569, 495.2070
1156.659, 366.3164
1157.750, 355.3984
1158.839, 120.8438
1159.929, 264.2773
1161.019, 410.4570
1162.108, 77.64844
1163.198, 270.8477
1164.287, 355.0703
1165.376, 217.3008
1166.465, 562.5391
1167.553, 1033.781
1168.642, 1239.027
1169.730, 1346.277
1170.818, 267.5703
1171.906, 226.8281
1172.994, 121.0898
1174.082, 96.36328
1175.170, 130.6367
1176.257, 104.9141
1177.344, 248.6758
1178.431, 115.5508
1179.518, 39.46484
1180.605, 14.60156
1181.691, 10.67578
1182.778, 126.2500
1183.864, 89.81250
1184.950, 95.15625
1186.036, 44.83594
1187.122, 113.8281
1188.207, 183.1758
1189.292, 363.7383
1190.378, 64.35156
1191.463, 134.5391
1192.548, 154.4297
1193.632, 54.67188
1194.717, 153.1992
1195.801, 43.92578
1196.886, 57.05859
1197.970, 65.22266
1199.054, 287.5859
1200.137, 3.394531
1201.221, 246.2070
1202.305, 57.02344
1203.388, 203.8359
1204.471, 109.6523
1205.554, 149.4766
1206.637, 199.2969
1207.719, 72.11719
1208.802, 24.94531
1209.884, 100.8203
1210.966, 112.6953
1212.048, 85.57422
1213.130, 175.4492
1214.212, 107.3281
1215.293, 106.1367
1216.374, 229.0859
1217.456, 110.1016
1218.536, 172.9805
1219.617, 328.8555
1220.698, 109.7344
1221.778, 84.72656
1222.859, 47.60156
1223.939, 121.4688
1225.019, 18.46484
1226.099, 195.3320
1227.178, 102.1992
1228.258, 397.3633
1229.337, 90.94922
1230.417, 80.70312
1231.496, 283.5000
1232.574, 13.58203
1233.653, 88.36719
1234.732, 90.15234
1235.810, 102.9297
1236.888, 151.6992
1237.966, 32.47266
1239.044, 336.2266
1240.122, 342.9844
1241.199, 149.7344
1242.277, 232.4805
1243.354, 136.2344
1244.431, 231.9844
1245.508, 250.7344
1246.585, 228.5391
1247.661, 246.2773
1248.738, 285.0117
1249.814, 166.7383
1250.890, 67.45703
1251.966, 182.1680
1253.042, 77.24609
1254.117, 85.56250
1255.193, 63.24609
1256.268, 14.92188
1257.343, 61.58594
1258.418, 53.07812
1259.493, 12.52344
1260.567, 78.89453
1261.642, 44.62500
1262.716, 211.6445
1263.790, 172.1445
1264.864, 31.73438
1265.938, 392.2070
1267.011, 217.6797
1268.085, 222.1367
1269.158, 10.41797
1270.231, 205.0000
1271.304, 122.3750
1272.377, 1.648438
1273.450, 0.1015630
1274.522, 230.1172
1275.594, 38.32422
1276.666, 77.14844
1277.738, 62.97656
1278.810, 1.101563
1279.882, 259.1641
1280.953, 172.2305
1282.025, 258.2812
1283.096, 450.3477
1284.167, 35.39844
1285.238, 124.4336
1286.308, 253.4570
1287.379, 82.96875
1288.449, 88.96484
1289.519, 228.3789
1290.589, 169.9688
1291.659, 319.9258
1292.729, 247.2773
1293.798, 185.2109
1294.868, 186.1289
1295.937, 409.0273
1297.006, 210.2109
1298.075, 232.0859
1299.143, 41.94531
1300.212, 306.8477
1301.280, 358.6719
1302.348, 201.4805
1303.416, 253.2734
1304.484, 128.0469
1305.552, 237.2266
1306.620, 308.3047
1307.687, 228.8008
1308.754, 186.2617
1309.821, 469.9688
1310.888, 290.6562
1311.955, 139.0859
1313.021, 295.7500
1314.088, 165.9961
1315.154, 428.6250
1316.220, 359.2422
1317.286, 384.7930
1318.352, 593.3867
1319.417, 419.1328
1320.483, 454.6992
1321.548, 300.2422
1322.613, 297.3789
1323.678, 147.9023
1324.743, 219.5312
1325.807, 241.4141
