##NAMES=Polylithionite
##RRUFFID=R050132
##IDEAL CHEMISTRY=KLi_2_AlSi_4_O_10_F_2_
##LOCALITY=Brown Derby mine, Ohio City, Gunnison County, Colorado, USA
##OWNER=RRUFF
##SOURCE=Dave Bunk Minerals
##DESCRIPTION=Purple scaly aggregate, polytype 2M1
##STATUS=The identification of this mineral has been confirmed by X-ray diffraction and chemical analysis
##URL=rruff.info/R050132
##MEASURED CHEMISTRY=(K_0.90_Rb_0.10_)(Li_0.62_Al_0.38_)_3_(Si_0.93_Al_0.07_)_4_O_10_(F_0.69_(OH)_0.31_)_2_
##PIN_ID=M00149
##ORIENTATION=Laser parallel to -b* (0 -1 0). Fiducial mark perpendicular to laser is parallel to -c [0 0 -1]
126.7490, 0.0000000E+00
127.9790, 103.9688
129.2090, 148.8691
130.4390, 269.5508
131.6680, 304.2070
132.8980, 147.8066
134.1270, 8.433594
135.3560, 180.4258
136.5850, 99.74414
137.8140, 159.7754
139.0430, 218.2090
140.2710, 241.7773
141.5000, 296.2559
142.7280, 71.47070
143.9560, 117.7305
145.1840, 105.5215
146.4120, 104.0918
147.6390, 151.8672
148.8670, 131.7324
150.0940, 49.59570
151.3210, 153.4434
152.5490, 182.8555
153.7750, 327.3691
155.0020, 396.5078
156.2290, 539.4082
157.4550, 716.0254
158.6810, 687.3086
159.9080, 941.2129
161.1340, 1201.697
162.3590, 1613.727
163.5850, 2011.266
164.8110, 2405.277
166.0360, 2954.711
167.2610, 3405.533
168.4860, 4102.711
169.7110, 4740.361
170.9360, 5284.018
172.1610, 6213.113
173.3850, 7065.486
174.6100, 7885.117
175.8340, 8568.996
177.0580, 9241.121
178.2820, 9738.465
179.5050, 9979.035
180.7290, 10208.81
181.9520, 10308.18
183.1760, 10029.17
184.3990, 9541.738
185.6220, 9331.484
186.8450, 9073.414
188.0670, 8625.529
189.2900, 8445.828
190.5120, 8301.305
191.7340, 8185.945
192.9560, 7851.750
194.1780, 7525.703
195.4000, 7291.801
196.6220, 6833.037
197.8430, 6314.404
199.0640, 5855.896
200.2860, 5635.488
201.5070, 4977.125
202.7270, 4741.770
203.9480, 4655.398
205.1690, 4373.990
206.3890, 4143.586
207.6090, 4003.203
208.8290, 4136.793
210.0490, 3989.375
211.2690, 3942.000
212.4890, 3965.680
213.7080, 3921.412
214.9280, 3908.203
216.1470, 3809.059
217.3660, 3841.973
218.5850, 3478.951
219.8030, 3620.994
221.0220, 3270.105
222.2400, 3465.279
223.4590, 3496.520
224.6770, 3620.824
225.8950, 3875.199
227.1120, 4078.637
228.3300, 4262.137
229.5480, 4779.707
230.7650, 5042.336
231.9820, 5359.029
233.1990, 5748.785
234.4160, 5751.602
235.6330, 6035.330
236.8490, 6476.613
238.0660, 6993.957
239.2820, 7258.557
240.4980, 7693.693
241.7140, 8148.086
242.9300, 8318.135
244.1460, 8748.352
245.3610, 9224.102
246.5770, 9514.854
247.7920, 10063.73
249.0070, 10681.77
250.2220, 11188.91
251.4370, 12084.07
252.6510, 12929.23
253.8660, 13883.42
255.0800, 14892.62
256.2940, 15922.83
257.5080, 17316.04
258.7220, 18480.26
259.9360, 18566.47
261.1490, 18322.70
262.3630, 17372.91
263.5760, 16290.13
264.7890, 15156.36
266.0020, 13383.58
267.2150, 11823.80
268.4270, 9999.020
269.6400, 8820.244
270.8520, 7412.465
272.0640, 6469.684
273.2760, 5294.783
274.4880, 4747.473
275.7000, 4018.697
276.9120, 3443.256
278.1230, 2939.660
279.3340, 2740.904
280.5450, 2425.346
281.7560, 2164.211
282.9670, 1984.045
284.1780, 1766.207
285.3880, 1635.930
286.5980, 1509.803
287.8090, 1370.814
289.0190, 1220.875
290.2290, 1060.070
291.4380, 1088.455
292.6480, 1091.951
293.8570, 1088.551
295.0670, 929.2520
296.2760, 794.0469
297.4850, 1014.932
298.6930, 808.9023
299.9020, 869.9551
301.1110, 847.0879
302.3190, 834.2949
303.5270, 828.5723
304.7350, 774.9199
305.9430, 749.1094
307.1510, 685.1973
308.3580, 645.3398
309.5660, 523.9297
310.7730, 430.5742
311.9800, 306.3438
313.1870, 464.0957
314.3940, 642.8926
315.6010, 403.7383
316.8070, 714.6289
318.0130, 582.5625
319.2200, 587.5430
320.4260, 537.5625
321.6310, 556.6211
322.8370, 727.7227
324.0430, 539.8594
325.2480, 422.0371
326.4540, 500.2461
327.6590, 297.4883
328.8640, 389.7617
330.0680, 588.0645
331.2730, 438.3906
332.4780, 355.7422
333.6820, 272.1172
334.8860, 247.5176
336.0900, 211.9375
337.2940, 179.3809
338.4980, 163.0957
339.7010, 147.5820
340.9050, 12.08594
342.1080, 143.3926
343.3110, 117.8145
344.5140, 158.2207
345.7170, 109.8203
346.9200, 174.9277
348.1220, 62.80859
349.3240, 101.7305
350.5270, 99.99805
351.7290, 177.5918
352.9310, 95.17383
354.1320, 87.55859
355.3340, 23.23633
356.5350, 151.6387
357.7370, 53.98242
358.9380, 104.4629
360.1390, 119.6328
361.3400, 168.4316
362.5400, 190.7305
363.7410, 253.1895
364.9410, 425.6152
366.1410, 352.4609
367.3410, 590.7734
368.5410, 570.0078
369.7410, 797.0469
370.9400, 843.6055
372.1400, 897.0938
373.3390, 1122.697
374.5380, 1218.303
375.7370, 1178.133
376.9360, 1036.875
378.1350, 1364.135
379.3330, 1250.195
380.5310, 1395.443
381.7300, 1426.029
382.9280, 1528.494
384.1260, 1710.920
385.3230, 1528.285
386.5210, 2020.641
387.7180, 1851.990
388.9160, 1955.334
390.1130, 2071.668
391.3100, 1862.994
392.5060, 1960.311
393.7030, 1940.619
394.9000, 2197.918
396.0960, 2245.203
397.2920, 2238.480
398.4880, 2371.746
399.6840, 2375.004
400.8800, 2508.250
402.0750, 2699.484
403.2710, 2698.711
404.4660, 2609.928
405.6610, 2518.131
406.8560, 2414.326
408.0510, 2300.512
409.2450, 2156.686
410.4400, 1890.852
411.6340, 1836.008
412.8280, 1813.156
414.0220, 1438.295
415.2160, 1529.424
416.4100, 1184.543
417.6030, 1199.662
418.7970, 1081.779
419.9900, 834.8984
421.1830, 857.4238
422.3760, 800.1504
423.5690, 753.2852
424.7610, 601.4375
425.9540, 539.5957
427.1460, 588.7598
428.3380, 642.9316
429.5300, 627.1035
430.7220, 558.2773
431.9140, 459.4531
433.1050, 423.6289
434.2970, 540.8340
435.4880, 368.0430
436.6790, 535.2461
437.8700, 528.4492
439.0610, 498.6465
440.2510, 551.8438
441.4420, 521.3555
442.6320, 584.0430
443.8220, 509.4043
445.0120, 579.5840
446.2020, 586.7559
447.3910, 310.9180
448.5810, 324.1094
449.7700, 319.2598
450.9600, 329.4023
452.1490, 411.5391
453.3370, 541.6641
454.5260, 183.7832
455.7150, 312.9570
456.9030, 279.0566
458.0910, 403.1484
459.2800, 467.2266
460.4670, 420.2969
461.6550, 453.3555
462.8430, 676.4043
464.0300, 579.4414
465.2180, 291.4668
466.4050, 387.4824
467.5920, 575.4844
468.7790, 502.4746
469.9650, 653.4531
471.1520, 627.4199
472.3380, 500.3750
473.5250, 661.3145
474.7110, 522.2402
475.8970, 705.1523
477.0820, 278.0508
478.2680, 473.9355
479.4540, 403.8086
480.6390, 192.6641
481.8240, 375.5059
483.0090, 321.3301
484.1940, 443.1387
485.3780, 65.73828
486.5630, 18.32812
487.7470, 45.83398
488.9320, 163.8438
490.1160, 78.31250
491.3000, 62.18555
492.4830, 217.5645
493.6670, 166.2246
494.8500, 75.02734
496.0340, 49.97656
497.2170, 295.9980
498.4000, 290.8691
499.5820, 234.2930
500.7650, 92.88672
501.9480, 119.5820
503.1300, 161.3848
504.3120, 153.3203
505.4940, 51.61328
506.6760, 12.48047
507.8580, 13.37109
509.0390, 121.8164
510.2210, 101.8809
511.4020, 181.4414
512.5830, 46.08984
513.7640, 50.59375
514.9450, 276.0723
516.1250, 280.5332
517.3060, 204.9746
518.4860, 227.3984
519.6660, 103.8066
520.8460, 152.1953
522.0260, 96.56250
523.2060, 242.9102
524.3850, 430.2441
525.5650, 503.5645
526.7440, 496.9355
527.9230, 405.2891
529.1020, 312.6328
530.2810, 513.9648
531.4590, 431.3086
532.6380, 474.6699
533.8160, 595.0215
534.9940, 526.4297
536.1720, 506.8359
537.3500, 818.2832
538.5270, 595.7363
539.7050, 513.1992
540.8820, 746.6484
542.0590, 560.1328
543.2360, 630.6055
544.4130, 1053.133
545.5900, 1003.678
546.7660, 865.2598
547.9430, 989.8398
549.1190, 1078.445
550.2950, 1334.117
551.4710, 1348.816
552.6470, 1713.525
553.8220, 1780.270
554.9980, 1808.039
556.1730, 1898.809
557.3480, 1992.629
558.5230, 1943.467
559.6980, 2003.305
560.8730, 2069.133
562.0470, 2005.877
563.2220, 1970.752
564.3960, 1915.541
565.5700, 1696.320
566.7440, 1615.082
567.9170, 1661.834
569.0910, 1490.566
570.2640, 1532.285
571.4380, 1345.988
572.6110, 1245.672
573.7840, 849.3398
574.9570, 1034.988
576.1290, 834.6211
577.3020, 591.2363
578.4740, 606.8281
579.6460, 796.3984
580.8180, 608.9492
581.9900, 620.4746
583.1620, 581.9785
584.3330, 438.4609
585.5040, 515.9160
586.6760, 638.3496
587.8470, 419.7578
589.0180, 305.1445
590.1880, 554.5098
591.3590, 431.8535
592.5290, 350.1758
593.7000, 510.4746
594.8700, 537.7539
596.0400, 302.9434
597.2090, 495.1836
598.3790, 401.4023
599.5490, 464.6035
600.7180, 590.7852
601.8870, 689.9512
603.0560, 468.0977
604.2250, 704.2598
605.3940, 617.4004
606.5620, 817.5176
607.7300, 826.6094
608.8990, 915.6816
610.0670, 1031.729
611.2350, 1018.752
612.4020, 1011.754
613.5700, 1085.734
614.7370, 1137.693
615.9050, 1253.627
617.0720, 1417.541
618.2390, 1143.428
619.4060, 1344.289
620.5720, 1184.127
621.7390, 1331.686
622.9050, 1567.471
624.0710, 1517.229
625.2370, 1382.961
626.4030, 1512.625
627.5690, 1395.268
628.7340, 1244.086
629.9000, 1185.402
631.0650, 1140.482
632.2300, 1058.426
633.3950, 1155.041
634.5600, 996.8047
635.7240, 1009.547
636.8890, 1097.963
638.0530, 1014.893
639.2170, 849.1426
640.3810, 771.9121
641.5450, 927.5293
642.7080, 762.4453
643.8720, 775.7188
645.0350, 552.4785
646.1980, 871.0996
647.3610, 553.6758
648.5240, 587.8535
649.6870, 933.5527
650.8490, 890.3203
652.0120, 900.2656
653.1740, 818.6758
654.3360, 957.1426
655.4980, 899.4766
656.6600, 832.8145
657.8210, 999.2500
658.9830, 770.2754
660.1440, 737.3398
661.3050, 1144.516
662.4660, 980.7207
663.6270, 1047.746
664.7870, 1042.092
665.9480, 1158.750
667.1080, 907.9375
668.2680, 1210.840
669.4280, 999.8867
670.5880, 1238.809
671.7480, 1650.973
672.9070, 1454.674
674.0670, 1546.303
675.2260, 1859.219
676.3850, 1809.033
677.5440, 1983.174
678.7030, 2171.428
679.8610, 2313.555
681.0200, 2596.330
682.1780, 2881.695
683.3360, 3205.070
684.4940, 3543.951
685.6520, 4027.137
686.8090, 4271.090
687.9670, 4823.230
689.1240, 5241.135
690.2810, 5716.303
691.4380, 6549.189
692.5950, 6938.977
693.7520, 7979.445
694.9080, 8719.275
696.0650, 9874.291
697.2210, 11039.86
698.3770, 12299.63
699.5330, 13696.85
700.6880, 15101.33
701.8440, 16739.22
702.9990, 18224.92
704.1550, 19969.87
705.3100, 21784.37
706.4650, 23435.19
707.6190, 24077.63
708.7740, 24786.43
709.9290, 24581.88
711.0830, 24191.91
712.2370, 22783.36
713.3910, 20827.35
714.5450, 18633.96
715.6980, 16216.10
716.8520, 13901.23
718.0050, 12116.92
719.1580, 10351.94
720.3110, 8607.664
721.4640, 7664.221
722.6170, 6300.734
723.7700, 5560.201
724.9220, 4674.629
726.0740, 4216.010
727.2260, 3934.676
728.3780, 3509.410
729.5300, 3297.428
730.6810, 2885.383
731.8330, 2813.246
732.9840, 2641.246
734.1350, 2584.203
735.2860, 2330.855
736.4370, 2243.980
737.5880, 2281.855
738.7380, 2171.660
739.8880, 2198.844
741.0390, 2272.375
742.1890, 2416.781
743.3380, 2461.812
744.4880, 2452.273
745.6380, 2423.604
746.7870, 2344.264
747.9360, 2313.250
749.0850, 2455.516
750.2340, 2688.725
751.3830, 2609.021
752.5310, 2637.559
753.6800, 2396.961
754.8280, 2384.969
755.9760, 2258.049
757.1240, 2228.078
758.2720, 2078.760
759.4190, 2004.551
760.5670, 1704.975
761.7140, 1465.262
762.8610, 1630.828
764.0080, 1423.879
765.1550, 1453.684
766.3020, 1031.453
767.4480, 1017.631
768.5950, 918.2910
769.7410, 883.3320
770.8870, 934.1289
772.0330, 880.1816
773.1780, 852.3574
774.3240, 819.0645
775.4690, 747.3242
776.6140, 725.0898
777.7590, 655.8516
778.9040, 644.6406
780.0490, 798.4180
781.1940, 746.8223
782.3380, 768.2441
783.4820, 775.1855
784.6260, 687.5801
785.7700, 651.1992
786.9140, 506.6816
788.0580, 577.6680
789.2010, 763.4336
790.3450, 610.6152
791.4880, 654.3633
792.6310, 615.5332
793.7730, 516.8750
794.9160, 380.0762
796.0590, 256.7168
797.2010, 358.6250
798.3430, 375.8828
799.4850, 308.4531
800.6270, 254.2051
801.7690, 192.2949
802.9100, 189.4512
804.0520, 675.2246
805.1930, 85.01172
806.3340, 245.7305
807.4750, 50.61328
808.6160, 54.58594
809.7560, 100.0020
810.8970, 221.6406
812.0370, 14.51172
813.1770, 161.4180
814.3170, 23.52148
815.4570, 25.72852
816.5960, 174.9668
817.7360, 130.4043
818.8750, 115.0684
820.0140, 204.5254
821.1530, 70.31641
822.2920, 138.2324
823.4310, 7.689453
824.5690, 107.4727
825.7070, 247.7812
826.8460, 109.3105
827.9840, 41.98242
829.1220, 136.7676
830.2590, 100.7109
831.3970, 11.79688
832.5340, 190.9766
833.6710, 73.34375
834.8080, 13.83594
835.9450, 44.57617
837.0820, 73.79688
838.2190, 64.18750
839.3550, 104.3906
840.4910, 68.53125
841.6270, 121.6016
842.7630, 71.60742
843.8990, 111.5469
845.0350, 255.4238
846.1700, 126.2402
847.3060, 137.9922
848.4410, 305.6797
849.5760, 162.3125
850.7100, 243.8828
851.8450, 103.3926
852.9800, 333.8418
854.1140, 542.2344
855.2480, 335.5762
856.3820, 395.8613
857.5160, 507.0938
858.6500, 606.2754
859.7830, 660.4062
860.9170, 573.4844
862.0500, 449.5117
863.1830, 338.4883
864.3160, 303.0605
865.4480, 229.2812
866.5810, 233.0898
867.7130, 242.8477
868.8460, 197.5430
869.9780, 26.18359
871.1100, 240.7578
872.2410, 131.2734
873.3730, 18.73242
874.5050, 182.1250
875.6360, 1.458984
876.7670, 222.7207
877.8980, 132.0742
879.0290, 316.9863
880.1590, 199.9961
881.2900, 218.9492
882.4200, 126.8477
883.5500, 274.6914
884.6800, 195.0469
885.8100, 15.21484
886.9400, 160.8789
888.0690, 90.49609
889.1990, 109.0508
890.3280, 149.4062
891.4570, 199.9922
892.5860, 157.3789
893.7140, 227.7148
894.8430, 187.9961
895.9710, 262.2227
897.1000, 281.3984
898.2280, 200.5312
899.3560, 310.6055
900.4830, 369.6367
901.6110, 411.6211
902.7380, 251.5586
903.8660, 122.4453
904.9930, 266.2773
906.1200, 80.06641
907.2460, 261.8164
908.3730, 216.5234
909.5000, 308.1836
910.6260, 247.8125
911.7520, 326.3906
912.8780, 371.9297
914.0040, 347.4180
915.1290, 364.8828
916.2550, 352.5703
917.3800, 248.6719
918.5050, 301.9961
919.6300, 167.2656
920.7550, 103.4883
921.8800, 124.6562
923.0040, 9.773438
924.1290, 278.8477
925.2530, 180.8750
926.3770, 313.8984
927.5010, 115.8867
928.6250, 65.11328
929.7480, 64.20703
930.8720, 239.2930
931.9950, 158.2227
933.1180, 302.5508
934.2410, 209.9258
935.3640, 151.0234
936.4860, 309.8398
937.6090, 237.3750
938.7310, 76.53906
939.8530, 349.1406
940.9750, 357.9727
942.0970, 275.6055
943.2180, 148.2969
944.3400, 217.7031
945.4610, 281.5039
946.5820, 274.3125
947.7030, 338.7695
948.8240, 366.3203
949.9450, 513.5117
951.0650, 310.5352
952.1860, 556.6250
953.3060, 303.9922
954.4260, 439.7148
955.5460, 465.3594
956.6650, 324.3945
957.7850, 304.1523
958.9040, 557.0430
960.0230, 415.6836
961.1420, 655.4922
962.2610, 481.9805
963.3800, 287.6836
964.4990, 647.4297
965.6170, 601.4297
966.7350, 562.0039
967.8530, 342.3320
968.9710, 480.0352
970.0890, 438.4805
971.2070, 605.1875
972.3240, 604.3438
973.4410, 599.6797
974.5580, 667.4062
975.6750, 546.3516
976.7920, 618.6875
977.9090, 569.6367
979.0250, 596.8984
980.1410, 570.7461
981.2580, 660.0352
982.3740, 742.3633
983.4890, 825.3789
984.6050, 787.7773
985.7200, 803.5039
986.8360, 859.8398
987.9510, 790.7070
989.0660, 920.1680
990.1810, 790.2227
991.2950, 724.5195
992.4100, 747.9219
993.5240, 1121.309
994.6390, 978.6719
995.7530, 1141.023
996.8660, 952.3555
997.9800, 1477.340
999.0940, 1388.168
1000.207, 1395.676
1001.320, 1555.191
1002.433, 1377.734
1003.546, 1279.078
1004.659, 1115.406
1005.772, 1160.914
1006.884, 1137.957
1007.996, 809.1875
1009.108, 962.4219
1010.220, 918.2266
1011.332, 1057.617
1012.444, 938.0742
1013.555, 1255.848
1014.666, 1079.133
1015.777, 1015.484
1016.888, 1093.449
1017.999, 1338.023
1019.110, 1170.266
1020.220, 1186.500
1021.331, 1236.594
1022.441, 1178.383
1023.551, 1093.250
1024.661, 1177.285
1025.770, 980.5273
1026.880, 1071.590
1027.989, 1203.945
1029.098, 1129.133
1030.207, 1086.625
1031.316, 1187.199
1032.425, 1200.438
1033.533, 969.2812
1034.642, 881.1797
1035.750, 988.0586
1036.858, 1048.512
1037.966, 1005.422
1039.073, 1265.938
1040.181, 1130.609
1041.288, 1183.414
1042.396, 1400.723
1043.503, 1528.406
1044.610, 1749.848
1045.716, 1496.922
1046.823, 1729.734
1047.929, 1934.992
1049.036, 2013.789
1050.142, 2288.590
1051.248, 2247.051
1052.353, 2439.734
1053.459, 2288.852
1054.564, 2393.707
1055.670, 2454.293
1056.775, 2685.504
1057.880, 2613.820
1058.985, 2667.453
1060.089, 2792.738
1061.194, 2633.125
1062.298, 2632.996
1063.402, 2889.953
1064.506, 2357.414
1065.610, 2224.219
1066.713, 2460.191
1067.817, 2257.605
1068.920, 2251.719
1070.023, 2457.453
1071.126, 2216.113
1072.229, 2196.152
1073.332, 2266.414
1074.435, 2422.188
1075.537, 2310.070
1076.639, 2567.352
1077.741, 2368.016
1078.843, 2327.848
1079.945, 2328.758
1081.046, 2341.711
1082.148, 2636.387
1083.249, 2297.594
1084.350, 2444.598
1085.451, 2603.609
1086.551, 2468.660
1087.652, 2232.719
1088.752, 2281.844
1089.853, 2272.652
1090.953, 2433.855
1092.053, 2394.074
1093.152, 2214.336
1094.252, 2246.680
1095.351, 2202.039
1096.451, 2181.637
1097.550, 2286.094
1098.649, 2421.594
1099.748, 2422.059
1100.846, 2470.688
1101.945, 2511.301
1103.043, 2450.934
1104.141, 2504.898
1105.239, 2615.430
1106.337, 2737.859
1107.434, 2890.516
1108.532, 2955.570
1109.629, 3054.664
1110.726, 3108.500
1111.823, 3208.168
1112.920, 3301.840
1114.017, 3409.512
1115.113, 3479.188
1116.210, 3620.867
1117.306, 3841.551
1118.402, 3811.238
1119.498, 3797.926
1120.593, 4202.621
1121.689, 4306.309
1122.784, 4229.000
1123.879, 4261.691
1124.974, 4507.379
1126.069, 4255.066
1127.164, 4461.758
1128.259, 4616.449
1129.353, 4804.141
1130.447, 4614.832
1131.541, 4729.523
1132.635, 5020.219
1133.729, 4809.918
1134.822, 4871.625
1135.916, 4646.332
1137.009, 4417.051
1138.102, 4555.773
1139.195, 4111.496
1140.288, 4005.230
1141.380, 3334.973
1142.473, 2874.727
1143.565, 2575.480
1144.657, 2320.289
1145.749, 2111.098
1146.841, 1515.910
1147.932, 1252.730
1149.024, 934.5508
1150.115, 794.3750
1151.206, 612.2109
1152.297, 445.0469
1153.388, 354.8984
1154.479, 521.7539
1155.569, 294.6094
1156.659, 513.4766
1157.750, 406.3516
1158.839, 531.2266
1159.929, 170.1094
1161.019, 216.9922
1162.108, 104.8789
1163.198, 102.7773
1164.287, 0.6757810
1165.376, 110.5742
1166.465, 419.4766
1167.553, 318.3828
1168.642, 96.29297
1169.730, 196.2109
1170.818, 89.86719
1171.906, 22.98438
1172.994, 281.8906
1174.082, 54.23047
1175.170, 131.6211
1176.257, 21.51562
1177.344, 117.3320
1178.431, 78.82031
1179.518, 138.9961
1180.605, 14.81250
1181.691, 38.63281
1182.778, 61.45703
1183.864, 30.28516
1184.950, 45.20703
1186.036, 3.863281
1187.122, 35.19922
1188.207, 6.371094
1189.292, 188.5469
1190.378, 40.81641
1191.463, 220.1055
1192.548, 181.5000
1193.632, 149.1250
1194.717, 51.77344
1195.801, 77.56641
1196.886, 86.94531
1197.970, 196.3711
1199.054, 37.10938
1200.137, 99.66016
1201.221, 8.023438
1202.305, 148.5430
1203.388, 56.18359
1204.471, 26.14844
1205.554, 10.48047
1206.637, 81.18359
1207.719, 61.11328
1208.802, 81.41016
1209.884, 32.71484
1210.966, 194.9766
1212.048, 141.7773
1213.130, 13.64453
1214.212, 75.47266
1215.293, 328.5938
1216.374, 175.7188
1217.456, 139.8516
1218.536, 214.9844
1219.617, 58.88281
1220.698, 190.2188
1221.778, 73.65234
1222.859, 257.4297
1223.939, 71.54297
1225.019, 13.34766
1226.099, 58.75000
1227.178, 203.8516
1228.258, 274.9531
1229.337, 267.0547
1230.417, 229.1641
1231.496, 108.2656
1232.574, 92.37500
1233.653, 86.25000
1234.732, 237.5898
1235.810, 196.6992
1236.888, 338.8125
1237.966, 556.9219
1239.044, 495.0391
1240.122, 545.1406
1241.199, 58.26953
1242.277, 475.3867
1243.354, 339.5078
1244.431, 359.6523
1245.508, 513.7969
1246.585, 261.9453
1247.661, 553.1094
1248.738, 509.3008
1249.814, 381.5430
1250.890, 187.7930
1251.966, 449.0469
1253.042, 265.3047
1254.117, 382.5625
1255.193, 301.8242
1256.268, 229.0938
1257.343, 155.3711
1258.418, 194.6523
1259.493, 107.9375
1260.567, 424.2305
1261.642, 401.5234
1262.716, 679.8203
1263.790, 777.1250
1264.864, 792.4336
1265.938, 854.7422
1267.011, 674.0625
1268.085, 543.3828
1269.158, 577.7070
1270.231, 520.0352
1271.304, 753.3633
1272.377, 656.6992
1273.450, 561.0391
1274.522, 740.3789
1275.594, 439.7227
1276.666, 792.0703
1277.738, 796.4258
1278.810, 792.7773
1279.882, 820.1367
1280.953, 615.4961
1282.025, 533.8633
1283.096, 438.2305
1284.167, 413.6016
1285.238, 337.9766
1286.308, 648.3516
1287.379, 700.7305
1288.449, 618.1133
1289.519, 439.4961
1290.589, 482.9102
1291.659, 761.4219
1292.729, 594.8633
1293.798, 662.1602
1294.868, 500.6055
1295.937, 278.0469
1297.006, 649.6445
1298.075, 477.0938
1299.143, 325.5469
