##NAMES=Polylithionite
##RRUFFID=R050132
##IDEAL CHEMISTRY=KLi_2_AlSi_4_O_10_F_2_
##LOCALITY=Brown Derby mine, Ohio City, Gunnison County, Colorado, USA
##OWNER=RRUFF
##SOURCE=Dave Bunk Minerals
##DESCRIPTION=Purple scaly aggregate, polytype 2M1
##STATUS=The identification of this mineral has been confirmed by X-ray diffraction and chemical analysis
##URL=rruff.info/R050132
##MEASURED CHEMISTRY=(K_0.90_Rb_0.10_)(Li_0.62_Al_0.38_)_3_(Si_0.93_Al_0.07_)_4_O_10_(F_0.69_(OH)_0.31_)_2_
##PIN_ID=M00149
##ORIENTATION=Laser parallel to -b* (0 -1 0). Fiducial mark perpendicular to laser is parallel to -c [0 0 -1]
126.7490, 0.0000000E+00
127.9790, 150.7754
129.2090, 287.1211
130.4390, 103.5508
131.6680, 287.1562
132.8980, 201.2988
134.1270, 111.5234
135.3560, 29.32227
136.5850, 176.5449
137.8140, 240.6406
139.0430, 203.0703
140.2710, 154.7969
141.5000, 144.6855
142.7280, 87.51367
143.9560, 106.6172
145.1840, 15.52734
146.4120, 50.13086
147.6390, 7.492188
148.8670, 95.52344
150.0940, 46.07031
151.3210, 55.66602
152.5490, 10.76172
153.7750, 91.74805
155.0020, 137.2480
156.2290, 259.3223
157.4550, 196.9121
158.6810, 73.95117
159.9080, 328.3809
161.1340, 341.1523
162.3590, 639.2246
163.5850, 516.5645
164.8110, 1027.141
166.0360, 1032.924
167.2610, 1302.881
168.4860, 1606.000
169.7110, 1821.258
170.9360, 2390.646
172.1610, 2463.156
173.3850, 2745.771
174.6100, 3176.488
175.8340, 3313.295
177.0580, 3749.191
178.2820, 3856.166
179.5050, 3554.223
180.7290, 3969.848
181.9520, 3773.436
183.1760, 3598.338
184.3990, 3565.416
185.6220, 3067.648
186.8450, 3048.779
188.0670, 2725.832
189.2900, 2625.824
190.5120, 2515.766
191.7340, 2469.654
192.9560, 2412.500
194.1780, 2251.293
195.4000, 2727.039
196.6220, 2832.738
197.8430, 2683.389
199.0640, 2457.992
200.2860, 2477.547
201.5070, 2447.053
202.7270, 2213.502
203.9480, 2159.895
205.1690, 1977.182
206.3890, 1498.428
207.6090, 1530.643
208.8290, 1550.828
210.0490, 1619.984
211.2690, 1778.121
212.4890, 2018.240
213.7080, 2007.348
214.9280, 1837.439
216.1470, 1420.527
217.3660, 1379.605
218.5850, 1278.674
219.8030, 1100.738
221.0220, 898.7949
222.2400, 871.8496
223.4590, 648.8965
224.6770, 731.9414
225.8950, 630.9805
227.1120, 612.0156
228.3300, 702.0508
229.5480, 967.0781
230.7650, 844.1035
231.9820, 1019.832
233.1990, 1466.928
234.4160, 1512.594
235.6330, 1921.293
236.8490, 1985.977
238.0660, 2314.109
239.2820, 2680.555
240.4980, 2948.953
241.7140, 3271.053
242.9300, 3566.793
244.1460, 3944.689
245.3610, 4462.910
246.5770, 4850.393
247.7920, 5557.008
249.0070, 6003.746
250.2220, 6474.592
251.4370, 6906.615
252.6510, 8149.662
253.8660, 9184.693
255.0800, 10298.71
256.2940, 11783.69
257.5080, 13246.63
258.7220, 15109.54
259.9360, 15861.41
261.1490, 16194.23
262.3630, 16426.03
263.5760, 15938.79
264.7890, 15200.51
266.0020, 13660.20
267.2150, 12490.85
268.4270, 10801.47
269.6400, 9051.055
270.8520, 7677.602
272.0640, 6423.113
273.2760, 5565.820
274.4880, 4774.449
275.7000, 4122.939
276.9120, 3635.371
278.1230, 2986.404
279.3340, 2768.551
280.5450, 2270.793
281.7560, 2138.617
282.9670, 2030.016
284.1780, 1704.480
285.3880, 1545.018
286.5980, 1345.619
287.8090, 1402.277
289.0190, 1284.992
290.2290, 1141.754
291.4380, 1206.281
292.6480, 1050.131
293.8570, 918.9336
295.0670, 790.8535
296.2760, 1098.805
297.4850, 843.7852
298.6930, 1010.793
299.9020, 1144.824
301.1110, 927.8770
302.3190, 837.9492
303.5270, 755.0391
304.7350, 835.1406
305.9430, 945.2578
307.1510, 770.3828
308.3580, 411.5176
309.5660, 450.6621
310.7730, 394.8105
311.9800, 640.9648
313.1870, 711.1270
314.3940, 682.2891
315.6010, 413.4570
316.8070, 332.6270
318.0130, 507.7969
319.2200, 444.9688
320.4260, 528.1387
321.6310, 486.3105
322.8370, 657.4824
324.0430, 415.6523
325.2480, 289.8223
326.4540, 286.9844
327.6590, 559.1406
328.8640, 410.2793
330.0680, 335.4043
331.2730, 295.5137
332.4780, 238.6055
333.6820, 245.6797
334.8860, 211.7402
336.0900, 28.78516
337.2940, 20.81250
338.4980, 129.1816
339.7010, 12.23242
340.9050, 74.31250
342.1080, 72.43359
343.3110, 87.57812
344.5140, 161.8125
345.7170, 158.0918
346.9200, 200.4375
348.1220, 192.8613
349.3240, 83.35938
350.5270, 38.68555
351.7290, 1.533203
352.9310, 121.8418
354.1320, 26.92773
355.3340, 0.5195310
356.5350, 93.50977
357.7370, 262.3047
358.9380, 335.9023
360.1390, 297.6523
361.3400, 266.1621
362.5400, 645.1973
363.7410, 513.8828
364.9410, 881.7324
366.1410, 736.6387
367.3410, 938.5469
368.5410, 1137.662
369.7410, 1197.725
370.9400, 1350.520
372.1400, 1587.404
373.3390, 1574.646
374.5380, 1848.604
375.7370, 2013.432
376.9360, 2064.680
378.1350, 2064.166
379.3330, 2408.371
380.5310, 2483.838
381.7300, 2644.938
382.9280, 2547.486
384.1260, 2940.820
385.3230, 3175.131
386.5210, 3069.404
387.7180, 3300.619
388.9160, 3606.818
390.1130, 3494.000
391.3100, 3833.166
392.5060, 3956.312
393.7030, 4095.439
394.9000, 4447.547
396.0960, 4568.639
397.2920, 4634.707
398.4880, 5052.754
399.6840, 5069.781
400.8800, 5208.791
402.0750, 5358.400
403.2710, 5347.580
404.4660, 5368.705
405.6610, 5330.639
406.8560, 5216.623
408.0510, 4878.451
409.2450, 4840.334
410.4400, 4498.197
411.6340, 4097.049
412.8280, 4016.881
414.0220, 3645.697
415.2160, 3542.500
416.4100, 3169.285
417.6030, 3003.057
418.7970, 2780.932
419.9900, 2545.564
421.1830, 2387.285
422.3760, 2144.002
423.5690, 2028.707
424.7610, 1813.396
425.9540, 1795.092
427.1460, 1803.771
428.3380, 1609.438
429.5300, 1734.088
430.7220, 1575.725
431.9140, 1558.350
433.1050, 1738.953
434.2970, 1670.543
435.4880, 1467.119
436.6790, 1423.680
437.8700, 1467.225
439.0610, 1445.756
440.2510, 1351.266
441.4420, 1467.760
442.6320, 1334.238
443.8220, 1550.701
445.0120, 1117.143
446.2020, 1207.570
447.3910, 941.9805
448.5810, 1114.371
449.7700, 1188.746
450.9600, 1003.102
452.1490, 1050.439
453.3370, 1130.760
454.5260, 1009.062
455.7150, 960.3477
456.9030, 961.5039
458.0910, 923.8613
459.2800, 929.0918
460.4670, 1055.307
461.6550, 1083.500
462.8430, 1117.676
464.0300, 1146.832
465.2180, 1206.973
466.4050, 1110.094
467.5920, 1030.197
468.7790, 1170.281
469.9650, 1039.348
471.1520, 1143.396
472.3380, 1227.430
473.5250, 1287.441
474.7110, 1370.439
475.8970, 1437.416
477.0820, 1458.377
478.2680, 1212.318
479.4540, 1174.730
480.6390, 1078.277
481.8240, 1009.207
483.0090, 840.6641
484.1940, 809.1777
485.3780, 591.7676
486.5630, 489.3613
487.7470, 514.2559
488.9320, 511.3457
490.1160, 292.7363
491.3000, 310.5703
492.4830, 55.24414
493.6670, 316.6816
494.8500, 210.4238
496.0340, 72.92383
497.2170, 81.05078
498.4000, 88.48242
499.5820, 185.9219
500.7650, 103.4688
501.9480, 218.1016
503.1300, 262.8848
504.3120, 96.83984
505.4940, 171.8789
506.6760, 255.0371
507.8580, 53.63672
509.0390, 98.70703
510.2210, 87.13672
511.4020, 23.64062
512.5830, 60.18750
513.7640, 126.7930
514.9450, 141.4980
516.1250, 106.3047
517.3060, 27.80664
518.4860, 158.8965
519.6660, 80.97461
520.8460, 128.0371
522.0260, 41.08594
523.2060, 90.12109
524.3850, 178.1445
525.5650, 255.1621
526.7440, 212.1758
527.9230, 290.1855
529.1020, 356.4414
530.2810, 443.2285
531.4590, 502.2656
532.6380, 569.3125
533.8160, 589.3574
534.9940, 695.4180
536.1720, 689.3203
537.3500, 737.5469
538.5270, 729.6270
539.7050, 826.7227
540.8820, 911.8613
542.0590, 975.0391
543.2360, 1065.236
544.4130, 1014.467
545.5900, 1170.715
546.7660, 1514.000
547.9430, 1746.346
549.1190, 1699.760
550.2950, 1600.230
551.4710, 1909.742
552.6470, 1843.316
553.8220, 2279.963
554.9980, 2191.607
556.1730, 2638.254
557.3480, 2562.893
558.5230, 2506.566
559.6980, 2682.242
560.8730, 2611.912
562.0470, 2594.648
563.2220, 2621.408
564.3960, 2626.168
565.5700, 2555.926
566.7440, 2519.682
567.9170, 2472.436
569.0910, 2223.186
570.2640, 1892.934
571.4380, 2010.676
572.6110, 1855.416
573.7840, 1504.152
574.9570, 1353.885
576.1290, 1307.611
577.3020, 1096.330
578.4740, 1159.041
579.6460, 988.7461
580.8180, 1001.445
581.9900, 987.1348
583.1620, 931.8184
584.3330, 563.4922
585.5040, 748.1602
586.6760, 879.8203
587.8470, 567.4746
589.0180, 665.1191
590.1880, 455.7578
591.3590, 710.3867
592.5290, 614.0117
593.7000, 708.6309
594.8700, 647.2441
596.0400, 619.8516
597.2090, 801.4551
598.3790, 648.0566
599.5490, 780.6523
600.7180, 1024.246
601.8870, 925.8359
603.0560, 1021.424
604.2250, 1000.010
605.3940, 977.5938
606.5620, 1278.178
607.7300, 1051.758
608.8990, 1077.338
610.0670, 1476.914
611.2350, 1666.486
612.4020, 1363.055
613.5700, 1354.621
614.7370, 1398.242
615.9050, 1667.857
617.0720, 1630.467
618.2390, 1808.070
619.4060, 1736.668
620.5720, 1871.268
621.7390, 1733.861
622.9050, 1872.494
624.0710, 1886.133
625.2370, 2072.795
626.4030, 2049.973
627.5690, 1991.180
628.7340, 2053.926
629.9000, 1844.719
631.0650, 1859.562
632.2300, 1920.459
633.3950, 1531.580
634.5600, 1263.512
635.7240, 1404.316
636.8890, 1230.539
638.0530, 1326.234
639.2170, 1400.527
640.3810, 1329.951
641.5450, 1071.572
642.7080, 1026.018
643.8720, 937.6777
645.0350, 884.0547
646.1980, 908.2344
647.3610, 868.4902
648.5240, 799.6680
649.6870, 777.8242
650.8490, 945.7520
652.0120, 1147.711
653.1740, 829.4238
654.3360, 743.0059
655.4980, 735.7168
656.6600, 460.6914
657.8210, 798.7754
658.9830, 776.4121
660.1440, 516.7344
661.3050, 776.5898
662.4660, 775.2109
663.6270, 814.1973
664.7870, 853.0664
665.9480, 863.8535
667.1080, 784.5898
668.2680, 933.4590
669.4280, 952.3184
670.5880, 1050.404
671.7480, 1187.971
672.9070, 1270.549
674.0670, 1462.686
675.2260, 1615.891
676.3850, 1629.168
677.5440, 2005.676
678.7030, 2253.592
679.8610, 2499.248
681.0200, 2469.258
682.1780, 2939.906
683.3360, 3423.625
684.4940, 3644.312
685.6520, 4338.137
686.8090, 4875.043
687.9670, 5395.777
689.1240, 6045.945
690.2810, 6581.240
691.4380, 7160.514
692.5950, 8115.074
693.7520, 9283.518
694.9080, 10064.43
696.0650, 11497.11
697.2210, 12804.29
698.3770, 14158.45
699.5330, 15717.32
700.6880, 17577.19
701.8440, 19125.95
702.9990, 21294.69
704.1550, 23517.42
705.3100, 25013.34
706.4650, 27618.96
707.6190, 29100.80
708.7740, 30073.59
709.9290, 30490.60
711.0830, 29883.05
712.2370, 28945.44
713.3910, 26803.60
714.5450, 24210.14
715.6980, 21024.44
716.8520, 18373.76
718.0050, 15915.02
719.1580, 13475.25
720.3110, 11722.47
721.4640, 9911.660
722.6170, 8380.828
723.7700, 7700.977
724.9220, 6599.102
726.0740, 5838.199
727.2260, 5152.277
728.3780, 4592.330
729.5300, 3995.359
730.6810, 3580.670
731.8330, 3462.199
732.9840, 3307.873
734.1350, 3035.246
735.2860, 3197.057
736.4370, 2743.133
737.5880, 2854.402
738.7380, 2724.471
739.8880, 2652.410
741.0390, 2778.674
742.1890, 2731.766
743.3380, 2769.148
744.4880, 2878.301
745.6380, 2858.232
746.7870, 2906.301
747.9360, 3021.037
749.0850, 2746.955
750.2340, 2869.652
751.3830, 2902.070
752.5310, 3067.865
753.6800, 2962.859
754.8280, 2799.195
755.9760, 2728.453
757.1240, 2631.352
758.2720, 2481.480
759.4190, 2341.910
760.5670, 2089.615
761.7140, 1975.502
762.8610, 1787.928
764.0080, 1689.752
765.1550, 1522.939
766.3020, 1428.170
767.4480, 1346.230
768.5950, 1254.338
769.7410, 1205.412
770.8870, 1133.936
772.0330, 1205.471
773.1780, 902.4512
774.3240, 920.4023
775.4690, 690.3203
776.6140, 799.2441
777.7590, 597.1348
778.9040, 611.0527
780.0490, 837.9727
781.1940, 713.9258
782.3380, 836.9258
783.4820, 1075.930
784.6260, 614.9531
785.7700, 690.0176
786.9140, 750.0488
788.0580, 590.0840
789.2010, 814.1172
790.3450, 469.1309
791.4880, 551.1348
792.6310, 759.1445
793.7730, 455.1680
794.9160, 530.1895
796.0590, 503.1816
797.2010, 354.1406
798.3430, 276.0664
799.4850, 248.0000
800.6270, 211.8516
801.7690, 91.66797
802.9100, 116.4922
804.0520, 182.2207
805.1930, 124.9023
806.3340, 105.4590
807.4750, 75.06641
808.6160, 26.45508
809.7560, 56.94336
810.8970, 43.70117
812.0370, 46.56641
813.1770, 3.945313
814.3170, 32.05664
815.4570, 37.98047
816.5960, 128.9883
817.7360, 134.1328
818.8750, 32.41016
820.0140, 112.7676
821.1530, 32.25586
822.2920, 113.8242
823.4310, 194.5215
824.5690, 239.3887
825.7070, 182.4453
826.8460, 136.6680
827.9840, 200.0312
829.1220, 236.5664
830.2590, 28.71094
831.3970, 91.92578
832.5340, 142.0938
833.6710, 87.78516
834.8080, 47.22266
835.9450, 83.17969
837.0820, 210.9180
838.2190, 66.19531
839.3550, 102.5547
840.4910, 100.1289
841.6270, 61.56641
842.7630, 120.0430
843.8990, 298.4648
845.0350, 69.84766
846.1700, 247.5234
847.3060, 93.80859
848.4410, 193.0547
849.5760, 197.2500
850.7100, 339.6641
851.8450, 448.7695
852.9800, 384.8359
854.1140, 531.8633
855.2480, 474.8477
856.3820, 733.7969
857.5160, 582.7070
858.6500, 452.5781
859.7830, 580.4062
860.9170, 722.1953
862.0500, 474.9492
863.1830, 642.6641
864.3160, 501.2227
865.4480, 437.9688
866.5810, 315.5625
867.7130, 257.1172
868.8460, 216.6250
869.9780, 283.0898
871.1100, 171.5117
872.2410, 101.8867
873.3730, 288.2109
874.5050, 91.49609
875.6360, 115.7227
876.7670, 48.90625
877.8980, 67.03906
879.0290, 85.12109
880.1590, 20.94531
881.2900, 85.12500
882.4200, 55.35938
883.5500, 117.9258
884.6800, 67.75391
885.8100, 113.5352
886.9400, 173.2656
888.0690, 182.0469
889.1990, 56.48047
890.3280, 464.9570
891.4570, 182.4023
892.5860, 260.8125
893.7140, 21.22656
894.8430, 357.5859
895.9710, 284.9414
897.1000, 233.2539
898.2280, 276.5273
899.3560, 293.0898
900.4830, 429.9961
901.6110, 468.1758
902.7380, 608.0312
903.8660, 626.1953
904.9930, 510.7031
906.1200, 672.7344
907.2460, 618.7266
908.3730, 657.0234
909.5000, 737.9414
910.6260, 704.8203
911.7520, 838.1172
912.8780, 860.8438
914.0040, 883.8398
915.1290, 940.6133
916.2550, 807.3125
917.3800, 774.9766
918.5050, 824.6016
919.6300, 650.1914
920.7550, 861.7461
921.8800, 545.3008
923.0040, 542.8398
924.1290, 676.4023
925.2530, 520.9414
926.3770, 466.5312
927.5010, 452.0859
928.6250, 434.6055
929.7480, 381.1328
930.8720, 503.6523
931.9950, 790.1719
933.1180, 559.6445
934.2410, 351.8008
935.3640, 737.7969
936.4860, 468.5977
937.6090, 347.8516
938.7310, 377.1680
939.8530, 414.7070
940.9750, 458.1133
942.0970, 528.2188
943.2180, 598.1992
944.3400, 613.3672
945.4610, 507.0547
946.5820, 639.8594
947.7030, 621.4961
948.8240, 616.1406
949.9450, 748.4531
951.0650, 800.3203
952.1860, 746.4062
953.3060, 926.0938
954.4260, 1010.098
955.5460, 952.9961
956.6650, 745.8828
957.7850, 736.5859
958.9040, 848.1602
960.0230, 647.8672
961.1420, 699.1172
962.2610, 628.1914
963.3800, 573.2500
964.4990, 693.9688
965.6170, 608.7656
966.7350, 372.0469
967.8530, 426.5156
968.9710, 405.4453
970.0890, 223.3516
971.2070, 269.4883
972.3240, 351.5938
973.4410, 151.7656
974.5580, 287.9023
975.6750, 10.98828
976.7920, 286.8789
977.9090, 263.0117
979.0250, 182.8672
980.1410, 96.73438
981.2580, 298.3281
982.3740, 175.2539
983.4890, 417.5703
984.6050, 111.8789
985.7200, 380.7578
986.8360, 420.8320
987.9510, 365.8594
989.0660, 250.8828
990.1810, 265.8867
991.2950, 227.8633
992.4100, 210.8125
993.5240, 578.7422
994.6390, 195.6523
995.7530, 390.5312
996.8660, 476.3984
997.9800, 1021.242
999.0940, 935.0586
1000.207, 812.8555
1001.320, 956.3242
1002.433, 914.5234
1003.546, 1066.535
1004.659, 810.8008
1005.772, 702.5781
1006.884, 606.0430
1007.996, 418.2695
1009.108, 594.6484
1010.220, 531.1133
1011.332, 510.2109
1012.444, 602.4258
1013.555, 435.7031
1014.666, 358.3672
1015.777, 412.6055
1016.888, 571.1875
1017.999, 893.8477
1019.110, 386.9570
1020.220, 810.8477
1021.331, 409.8867
1022.441, 514.3086
1023.551, 603.0781
1024.661, 622.3125
1025.770, 391.3711
1026.880, 251.9062
1027.989, 640.4766
1029.098, 337.6602
1030.207, 411.9023
1031.316, 196.0430
1032.425, 189.1094
1033.533, 392.6641
1034.642, 282.0938
1035.750, 0.8828130
1036.858, 40.77344
1037.966, 230.3008
1039.073, 170.3633
1040.181, 216.3398
1041.288, 78.35938
1042.396, 354.7617
1043.503, 508.2305
1044.610, 51.85156
1045.716, 126.8477
1046.823, 407.0625
1047.929, 150.3750
1049.036, 405.7227
1050.142, 565.9648
1051.248, 393.0703
1052.353, 699.3633
1053.459, 564.1055
1054.564, 547.8125
1055.670, 606.8438
1056.775, 466.3125
1057.880, 392.8828
1058.985, 478.2656
1060.089, 403.0703
1061.194, 583.4102
1062.298, 520.7500
1063.402, 621.2656
1064.506, 814.1094
1065.610, 824.4805
1066.713, 761.8672
1067.817, 726.3789
1068.920, 882.9258
1070.023, 1016.645
1071.126, 994.8945
1072.229, 1136.398
1073.332, 1063.766
1074.435, 1419.801
1075.537, 1136.207
1076.639, 1428.637
1077.741, 1615.258
1078.843, 1292.668
1079.945, 1505.609
1081.046, 1494.523
1082.148, 1678.895
1083.249, 1859.676
1084.350, 1775.980
1085.451, 1818.977
1086.551, 1393.418
1087.652, 1547.859
1088.752, 1607.113
1089.853, 1730.582
1090.953, 1864.355
1092.053, 1922.004
1093.152, 1653.691
1094.252, 1911.324
1095.351, 1733.105
1096.451, 1918.812
1097.550, 1906.574
1098.649, 2002.324
1099.748, 1854.062
1100.846, 1891.781
1101.945, 1767.512
1103.043, 1692.230
1104.141, 2085.934
1105.239, 2197.684
1106.337, 2245.500
1107.434, 2083.754
1108.532, 1943.570
1109.629, 2093.289
1110.726, 1944.988
1111.823, 2306.672
1112.920, 2250.996
1114.017, 1947.641
1115.113, 2331.262
1116.210, 2225.879
1117.306, 2210.211
1118.402, 2134.789
1119.498, 2107.348
1120.593, 2034.383
1121.689, 1960.289
1122.784, 1878.898
1123.879, 1773.379
1124.974, 1680.836
1126.069, 1532.273
1127.164, 1649.688
1128.259, 1591.086
1129.353, 1625.465
1130.447, 1525.391
1131.541, 1446.836
1132.635, 1259.473
1133.729, 1209.777
1134.822, 1069.059
1135.916, 918.3281
1137.009, 824.6992
1138.102, 787.8047
1139.195, 640.0195
1140.288, 611.2227
1141.380, 652.4141
1142.473, 689.5859
1143.565, 634.0156
1144.657, 608.8906
1145.749, 496.0195
1146.841, 305.1406
1147.932, 125.2539
1149.024, 174.3438
1150.115, 264.4219
1151.206, 106.4883
1152.297, 127.5312
1153.388, 172.5742
1154.479, 61.65625
1155.569, 38.73047
1156.659, 2.429688
1157.750, 165.2188
1158.839, 9.679688
1159.929, 89.44922
1161.019, 160.3477
1162.108, 129.1250
1163.198, 61.12500
1164.287, 82.56641
1165.376, 192.2305
1166.465, 45.87891
1167.553, 341.7852
1168.642, 338.8867
1169.730, 449.4727
1170.818, 33.03906
1171.906, 285.5820
1172.994, 161.7578
1174.082, 143.2578
1175.170, 101.7383
1176.257, 13.78516
1177.344, 189.1133
1178.431, 161.5625
1179.518, 148.9492
1180.605, 171.3516
1181.691, 199.7344
1182.778, 150.0977
1183.864, 37.43359
1184.950, 146.2500
1186.036, 40.04688
1187.122, 206.5117
1188.207, 32.90234
1189.292, 316.9570
1190.378, 14.78906
1191.463, 103.5039
1192.548, 141.8047
1193.632, 97.22266
1194.717, 118.7305
1195.801, 75.66406
1196.886, 175.9609
1197.970, 19.28516
1199.054, 18.50000
1200.137, 209.6875
1201.221, 64.85938
1202.305, 250.0078
1203.388, 18.86719
1204.471, 115.2148
1205.554, 3.722656
1206.637, 413.3047
1207.719, 211.7969
1208.802, 418.3008
1209.884, 3.269531
1210.966, 134.2070
1212.048, 22.12500
1213.130, 163.0156
1214.212, 36.88672
1215.293, 117.7305
1216.374, 319.5547
1217.456, 481.3594
1218.536, 66.15625
1219.617, 269.9219
1220.698, 185.6680
1221.778, 225.3984
1222.859, 39.89453
1223.939, 375.7656
1225.019, 223.3984
1226.099, 319.0117
1227.178, 494.6133
1228.258, 508.1914
1229.337, 414.7539
1230.417, 368.2969
1231.496, 399.8203
1232.574, 459.3242
1233.653, 473.8164
1234.732, 414.2812
1235.810, 205.7305
1236.888, 126.1602
1237.966, 368.5664
1239.044, 546.9648
1240.122, 392.3398
1241.199, 263.7031
1242.277, 358.0430
1243.354, 602.4023
1244.431, 488.7383
1245.508, 382.0547
1246.585, 532.3711
1247.661, 279.6758
1248.738, 260.9805
1249.814, 337.8008
1250.890, 467.5391
1251.966, 507.7930
1253.042, 488.0312
1254.117, 626.2461
1255.193, 491.4570
1256.268, 361.6758
1257.343, 741.8750
1258.418, 345.0664
1259.493, 591.2383
1260.567, 551.4023
1261.642, 740.5547
1262.716, 761.7500
1263.790, 630.9297
1264.864, 722.0977
1265.938, 706.2500
1267.011, 831.3867
1268.085, 983.5039
1269.158, 1081.609
1270.231, 1095.699
1271.304, 710.7773
1272.377, 833.8359
1273.450, 838.8867
1274.522, 828.9180
1275.594, 851.2148
1276.666, 816.6484
1277.738, 794.3125
1278.810, 724.0234
1279.882, 812.9883
1280.953, 712.3203
1282.025, 712.0898
1283.096, 814.6719
1284.167, 731.8086
1285.238, 805.7891
1286.308, 844.0742
1287.379, 968.2656
1288.449, 619.2812
1289.519, 740.2773
1290.589, 692.6836
1291.659, 769.9531
1292.729, 913.5195
1293.798, 754.5586
1294.868, 448.4922
1295.937, 643.5508
1297.006, 297.2812
1298.075, 380.0000
1299.143, 287.7070
