##NAMES=Polylithionite
##RRUFFID=R050132
##IDEAL CHEMISTRY=KLi_2_AlSi_4_O_10_F_2_
##LOCALITY=Brown Derby mine, Ohio City, Gunnison County, Colorado, USA
##OWNER=RRUFF
##SOURCE=Dave Bunk Minerals
##DESCRIPTION=Purple scaly aggregate, polytype 2M1
##STATUS=The identification of this mineral has been confirmed by X-ray diffraction and chemical analysis
##URL=rruff.info/R050132
##MEASURED CHEMISTRY=(K_0.90_Rb_0.10_)(Li_0.62_Al_0.38_)_3_(Si_0.93_Al_0.07_)_4_O_10_(F_0.69_(OH)_0.31_)_2_
##PIN_ID=L00606
##ORIENTATION=Laser parallel to (1 0 1). Fiducial mark perpendicular to laser is parallel to -b [0 -1 0]
157.4550, 0.0000000E+00
158.6810, 7.156250
159.9080, 100.6719
161.1340, 26.33008
162.3590, 179.0137
163.5850, 243.0098
164.8110, 135.0898
166.0360, 441.4844
167.2610, 384.8613
168.4860, 608.1719
169.7110, 1014.609
170.9360, 1370.670
172.1610, 1336.945
173.3850, 1867.021
174.6100, 2183.541
175.8340, 2364.178
177.0580, 2845.635
178.2820, 2969.670
179.5050, 3249.082
180.7290, 3290.750
181.9520, 3315.840
183.1760, 3175.484
184.3990, 3137.490
185.6220, 2942.426
186.8450, 2631.736
188.0670, 2494.652
189.2900, 2269.256
190.5120, 2174.299
191.7340, 2126.180
192.9560, 2099.496
194.1780, 2157.996
195.4000, 2246.814
196.6220, 2369.900
197.8430, 2430.225
199.0640, 2306.762
200.2860, 2183.482
201.5070, 2056.381
202.7270, 1919.613
203.9480, 1667.951
205.1690, 1516.832
206.3890, 1316.945
207.6090, 1214.324
208.8290, 1408.838
210.0490, 1397.000
211.2690, 1442.848
212.4890, 1461.412
213.7080, 1517.719
214.9280, 1438.785
216.1470, 1201.625
217.3660, 897.2539
218.5850, 828.6797
219.8030, 601.9160
221.0220, 342.9707
222.2400, 433.8516
223.4590, 357.5625
224.6770, 3.884766
225.8950, 280.5137
227.1120, 185.7637
228.3300, 206.8691
229.5480, 312.8379
230.7650, 371.6699
231.9820, 525.3223
233.1990, 798.8164
234.4160, 895.2051
235.6330, 1191.508
236.8490, 1187.746
238.0660, 1590.928
239.2820, 1774.066
240.4980, 2178.168
241.7140, 2457.242
242.9300, 2565.293
244.1460, 2970.320
245.3610, 3258.334
246.5770, 3876.330
247.7920, 4241.209
249.0070, 4706.557
250.2220, 5074.953
251.4370, 5946.270
252.6510, 6440.191
253.8660, 7690.236
255.0800, 8358.037
256.2940, 10071.90
257.5080, 11394.49
258.7220, 12995.05
259.9360, 14477.12
261.1490, 14707.26
262.3630, 15254.43
263.5760, 14975.70
264.7890, 14345.23
266.0020, 13188.85
267.2150, 11869.53
268.4270, 10143.22
269.6400, 8801.936
270.8520, 7534.650
272.0640, 6176.361
273.2760, 5129.066
274.4880, 4418.770
275.7000, 3625.469
276.9120, 3128.158
278.1230, 2736.828
279.3340, 2193.473
280.5450, 1931.086
281.7560, 1649.662
282.9670, 1441.203
284.1780, 1287.969
285.3880, 1102.182
286.5980, 1023.621
287.8090, 1018.025
289.0190, 827.3984
290.2290, 846.7363
291.4380, 867.0430
292.6480, 676.3164
293.8570, 808.5605
295.0670, 740.7715
296.2760, 685.9512
297.4850, 744.1016
298.6930, 802.2188
299.9020, 631.3086
301.1110, 608.3672
302.3190, 457.3965
303.5270, 481.3477
304.7350, 602.6855
305.9430, 563.0781
307.1510, 476.8457
308.3580, 401.0312
309.5660, 346.5254
310.7730, 407.2754
311.9800, 455.2461
313.1870, 215.4141
314.3940, 493.7520
315.6010, 405.2363
316.8070, 284.8535
318.0130, 353.5879
319.2200, 283.4238
320.4260, 257.3516
321.6310, 294.0293
322.8370, 316.4414
324.0430, 327.5820
325.2480, 302.7832
326.4540, 301.0332
327.6590, 180.3281
328.8640, 301.6602
330.0680, 130.0195
331.2730, 162.4043
332.4780, 239.8086
333.6820, 142.2266
334.8860, 253.6602
336.0900, 38.90039
337.2940, 6.476563
338.4980, 42.06250
339.7010, 93.33398
340.9050, 181.2734
342.1080, 179.9395
343.3110, 203.6680
344.5140, 214.4668
345.7170, 113.3398
346.9200, 329.2617
348.1220, 126.2910
349.3240, 262.3828
350.5270, 215.5820
351.7290, 166.8848
352.9310, 105.0645
354.1320, 86.94727
355.3340, 82.43750
356.5350, 56.62891
357.7370, 31.84766
358.9380, 49.74219
360.1390, 218.9082
361.3400, 215.7402
362.5400, 290.6328
363.7410, 537.7539
364.9410, 330.9082
366.1410, 681.0859
367.3410, 735.8691
368.5410, 863.8652
369.7410, 933.9824
370.9400, 994.6758
372.1400, 1201.658
373.3390, 1485.230
374.5380, 1553.027
375.7370, 1742.742
376.9360, 1917.471
378.1350, 2109.172
379.3330, 2164.268
380.5310, 2258.910
381.7300, 2408.598
382.9280, 2684.184
384.1260, 2652.746
385.3230, 2827.277
386.5210, 2884.785
387.7180, 2996.973
388.9160, 3173.273
390.1130, 3283.137
391.3100, 3517.531
392.5060, 3726.848
393.7030, 3900.098
394.9000, 3931.137
396.0960, 4149.938
397.2920, 4311.572
398.4880, 4535.848
399.6840, 4673.984
400.8800, 4993.986
402.0750, 5103.865
403.2710, 5165.695
404.4660, 5147.512
405.6610, 5123.055
406.8560, 5058.102
408.0510, 4875.875
409.2450, 4626.635
410.4400, 4306.377
411.6340, 4238.104
412.8280, 3926.814
414.0220, 3341.508
415.2160, 3229.184
416.4100, 3068.842
417.6030, 2597.484
418.7970, 2667.113
419.9900, 2159.725
421.1830, 2039.320
422.3760, 1942.898
423.5690, 1787.463
424.7610, 1746.010
425.9540, 1729.543
427.1460, 1625.061
428.3380, 1703.564
429.5300, 1564.055
430.7220, 1646.529
431.9140, 1651.992
433.1050, 1818.438
434.2970, 1592.871
435.4880, 1484.291
436.6790, 1610.699
437.8700, 1627.096
439.0610, 1715.479
440.2510, 1666.850
441.4420, 1630.656
442.6320, 1475.553
443.8220, 1449.891
445.0120, 1418.213
446.2020, 1281.525
447.3910, 1287.826
448.5810, 1127.127
449.7700, 1246.422
450.9600, 1160.713
452.1490, 1139.996
453.3370, 1138.266
454.5260, 1079.902
455.7150, 1090.762
456.9030, 1041.986
458.0910, 994.1992
459.2800, 1040.393
460.4670, 999.0742
461.6550, 1190.732
462.8430, 1008.875
464.0300, 1075.998
465.2180, 1131.104
466.4050, 990.1875
467.5920, 1124.256
468.7790, 1083.305
469.9650, 1116.332
471.1520, 1316.340
472.3380, 1317.326
473.5250, 1276.295
474.7110, 1291.242
475.8970, 1280.801
477.0820, 1230.078
478.2680, 1261.967
479.4540, 1204.174
480.6390, 1271.889
481.8240, 1089.971
483.0090, 1025.771
484.1940, 883.9023
485.3780, 710.0117
486.5630, 773.5273
487.7470, 736.2637
488.9320, 403.2500
490.1160, 344.5859
491.3000, 500.5684
492.4830, 484.9219
493.6670, 156.1211
494.8500, 58.29492
496.0340, 64.73242
497.2170, 171.9004
498.4000, 118.3105
499.5820, 181.3516
500.7650, 149.8887
501.9480, 140.7695
503.1300, 64.73438
504.3120, 1.753906
505.4940, 57.60547
506.6760, 40.01367
507.8580, 25.09570
509.0390, 4.978516
510.2210, 187.0742
511.4020, 175.2832
512.5830, 73.60352
513.7640, 26.02344
514.9450, 122.3594
516.1250, 52.17578
517.3060, 13.29297
518.4860, 184.2129
519.6660, 182.7109
520.8460, 24.79492
522.0260, 250.6699
523.2060, 27.13086
524.3850, 193.5820
525.5650, 216.0254
526.7440, 392.4629
527.9230, 269.8926
529.1020, 241.3164
530.2810, 147.7344
531.4590, 421.1484
532.6380, 415.5605
533.8160, 626.9785
534.9940, 419.3965
536.1720, 554.8379
537.3500, 584.2773
538.5270, 537.7168
539.7050, 536.1562
540.8820, 648.5977
542.0590, 890.0430
543.2360, 744.4922
544.4130, 955.9707
545.5900, 984.4570
546.7660, 1052.980
547.9430, 1351.564
549.1190, 1217.154
550.2950, 1483.770
551.4710, 1425.400
552.6470, 1739.039
553.8220, 1753.686
554.9980, 1818.344
556.1730, 2269.020
557.3480, 2315.756
558.5230, 2285.500
559.6980, 2230.246
560.8730, 2261.018
562.0470, 2365.816
563.2220, 2359.664
564.3960, 2468.514
565.5700, 2504.371
566.7440, 2381.232
567.9170, 2235.162
569.0910, 2021.094
570.2640, 1860.045
571.4380, 1975.006
572.6110, 1703.980
573.7840, 1521.980
574.9570, 1535.021
576.1290, 1213.086
577.3020, 1192.164
578.4740, 1044.275
579.6460, 810.4258
580.8180, 649.5801
581.9900, 654.7461
583.1620, 490.9180
584.3330, 640.0938
585.5040, 642.2715
586.6760, 742.4570
587.8470, 662.6484
589.0180, 496.8457
590.1880, 419.0488
591.3590, 357.2598
592.5290, 365.4883
593.7000, 378.7344
594.8700, 400.3809
596.0400, 450.6465
597.2090, 482.5410
598.3790, 568.8301
599.5490, 581.1367
600.7180, 633.4492
601.8870, 666.7715
603.0560, 870.0977
604.2250, 696.4395
605.3940, 842.7910
606.5620, 972.1523
607.7300, 902.5215
608.8990, 1049.938
610.0670, 1162.355
611.2350, 1172.816
612.4020, 1159.287
613.5700, 1100.816
614.7370, 1263.373
615.9050, 1267.936
617.0720, 1313.500
618.2390, 1327.070
619.4060, 1295.643
620.5720, 1348.240
621.7390, 1364.879
622.9050, 1388.543
624.0710, 1512.215
625.2370, 1568.947
626.4030, 1601.742
627.5690, 1876.609
628.7340, 1640.549
629.9000, 1752.531
631.0650, 1609.621
632.2300, 1764.760
633.3950, 1771.984
634.5600, 1708.281
635.7240, 1553.420
636.8890, 1509.225
638.0530, 1457.600
639.2170, 1292.639
640.3810, 1214.445
641.5450, 1107.922
642.7080, 989.4453
643.8720, 910.3340
645.0350, 854.1289
646.1980, 776.6680
647.3610, 552.1426
648.5240, 729.5664
649.6870, 500.3574
650.8490, 666.9102
652.0120, 618.2637
653.1740, 486.0664
654.3360, 513.5547
655.4980, 620.4297
656.6600, 560.0566
657.8210, 559.7422
658.9830, 742.3887
660.1440, 689.0449
661.3050, 616.2871
662.4660, 785.9551
663.6270, 999.5645
664.7870, 1057.246
665.9480, 1022.936
667.1080, 998.6328
668.2680, 985.3359
669.4280, 1052.637
670.5880, 837.6992
671.7480, 1212.268
672.9070, 1321.814
674.0670, 1653.283
675.2260, 1385.926
676.3850, 1827.314
677.5440, 1870.553
678.7030, 2241.918
679.8610, 2472.400
681.0200, 2545.029
682.1780, 2835.516
683.3360, 3016.355
684.4940, 3300.873
685.6520, 3809.629
686.8090, 4233.768
687.9670, 4726.129
689.1240, 5309.326
690.2810, 5982.701
691.4380, 6569.119
692.5950, 7288.715
693.7520, 8049.256
694.9080, 9051.127
696.0650, 10094.93
697.2210, 11231.07
698.3770, 12502.54
699.5330, 13896.68
700.6880, 15355.48
701.8440, 17083.27
702.9990, 19196.56
704.1550, 21478.75
705.3100, 23076.23
706.4650, 25391.12
707.6190, 27538.72
708.7740, 28931.59
709.9290, 30156.70
711.0830, 30088.48
712.2370, 29194.33
713.3910, 27414.08
714.5450, 24792.37
715.6980, 22142.27
716.8520, 19353.71
718.0050, 16468.15
719.1580, 14051.42
720.3110, 11970.13
721.4640, 10161.78
722.6170, 8776.973
723.7700, 7506.225
724.9220, 6691.354
726.0740, 5613.852
727.2260, 5030.102
728.3780, 4486.215
729.5300, 4251.754
730.6810, 3812.150
731.8330, 3498.084
732.9840, 3255.439
734.1350, 3012.701
735.2860, 2835.641
736.4370, 2612.248
737.5880, 2527.160
738.7380, 2438.525
739.8880, 2649.068
741.0390, 2586.729
742.1890, 2639.992
743.3380, 2734.193
744.4880, 2795.975
745.6380, 2869.686
746.7870, 3075.834
747.9360, 3051.170
749.0850, 3130.945
750.2340, 3275.365
751.3830, 3224.508
752.5310, 3176.441
753.6800, 2932.770
754.8280, 2917.994
755.9760, 2677.525
757.1240, 2547.490
758.2720, 2631.951
759.4190, 2387.791
760.5670, 2403.316
761.7140, 2288.082
762.8610, 2117.215
764.0080, 1894.273
765.1550, 1811.520
766.3020, 1737.533
767.4480, 1431.523
768.5950, 1390.490
769.7410, 1269.432
770.8870, 1261.350
772.0330, 1141.240
773.1780, 866.1074
774.3240, 947.9473
775.4690, 856.7891
776.6140, 1140.658
777.7590, 928.5371
778.9040, 946.4434
780.0490, 611.3672
781.1940, 896.3047
782.3380, 883.2383
783.4820, 869.1504
784.6260, 796.0352
785.7700, 880.8887
786.9140, 848.7168
788.0580, 772.5234
789.2010, 843.3535
790.3450, 726.2012
791.4880, 899.0469
792.6310, 526.8594
793.7730, 729.6816
794.9160, 605.4727
796.0590, 560.2402
797.2010, 487.9785
798.3430, 374.6855
799.4850, 359.3730
800.6270, 289.0293
801.7690, 398.6543
802.9100, 232.2500
804.0520, 243.8105
805.1930, 247.3438
806.3340, 72.84375
807.4750, 134.3086
808.6160, 18.73633
809.7560, 25.48242
810.8970, 45.45898
812.0370, 89.24805
813.1770, 69.95312
814.3170, 109.1133
815.4570, 81.19922
816.5960, 56.32617
817.7360, 27.37305
818.8750, 60.38281
820.0140, 87.65039
821.1530, 57.22266
822.2920, 116.9453
823.4310, 186.2266
824.5690, 100.3438
825.7070, 56.12500
826.8460, 31.67383
827.9840, 90.70703
829.1220, 4.6875000E-02
830.2590, 1.335938
831.3970, 19.42773
832.5340, 193.2578
833.6710, 30.75781
834.8080, 230.7324
835.9450, 54.33203
837.0820, 48.47852
838.2190, 143.7051
839.3550, 125.9375
840.4910, 150.5410
841.6270, 80.10547
842.7630, 208.3730
843.8990, 52.98242
845.0350, 0.7011720
846.1700, 4.443359
847.3060, 0.7539060
848.4410, 48.10547
849.5760, 110.0449
850.7100, 23.09961
851.8450, 17.22266
852.9800, 73.41406
854.1140, 89.70117
855.2480, 114.9082
856.3820, 1.478516
857.5160, 344.9902
858.6500, 126.4648
859.7830, 110.9023
860.9170, 137.2969
862.0500, 49.65430
863.1830, 102.9688
864.3160, 133.2441
865.4480, 40.48047
866.5810, 24.32617
867.7130, 23.20312
868.8460, 63.85547
869.9780, 5.871094
871.1100, 21.16602
872.2410, 24.73047
873.3730, 5.417969
874.5050, 47.37695
875.6360, 25.74805
876.7670, 17.76758
877.8980, 3.500000
879.0290, 4.107422
880.1590, 11.66602
881.2900, 44.17383
882.4200, 130.3594
883.5500, 299.9863
884.6800, 118.7031
885.8100, 21.49023
886.9400, 173.3594
888.0690, 67.35352
889.1990, 121.5645
890.3280, 260.4414
891.4570, 177.2871
892.5860, 322.0957
893.7140, 235.8711
894.8430, 61.38672
895.9710, 156.2715
897.1000, 92.89062
898.2280, 238.4727
899.3560, 287.0234
900.4830, 199.5391
901.6110, 373.0215
902.7380, 380.4727
903.8660, 427.8887
904.9930, 511.2734
906.1200, 639.6250
907.2460, 560.9473
908.3730, 626.2363
909.5000, 733.4922
910.6260, 933.7168
911.7520, 829.9102
912.8780, 686.0723
914.0040, 583.2031
915.1290, 878.3125
916.2550, 911.3906
917.3800, 989.4336
918.5050, 922.4473
919.6300, 999.4277
920.7550, 794.3750
921.8800, 727.2969
923.0040, 643.1855
924.1290, 615.0449
925.2530, 536.8730
926.3770, 603.3418
927.5010, 763.4785
928.6250, 779.2520
929.7480, 808.9961
930.8720, 932.7129
931.9950, 545.3965
933.1180, 490.0508
934.2410, 612.6777
935.3640, 616.2793
936.4860, 625.8457
937.6090, 631.3828
938.7310, 618.8867
939.8530, 701.3633
940.9750, 643.8066
942.0970, 645.6270
943.2180, 662.7031
944.3400, 747.2480
945.4610, 645.7969
946.5820, 844.3984
947.7030, 680.8086
948.8240, 749.4434
949.9450, 990.2090
951.0650, 896.8223
952.1860, 955.2949
953.3060, 1020.594
954.4260, 1191.016
955.5460, 974.0547
956.6650, 937.3965
957.7850, 950.4727
958.9040, 757.1445
960.0230, 957.5684
961.1420, 812.2930
962.2610, 940.5020
963.3800, 983.7988
964.4990, 1116.896
965.6170, 861.0215
966.7350, 898.7930
967.8530, 790.6680
968.9710, 1073.453
970.0890, 673.1680
971.2070, 706.5703
972.3240, 809.2969
973.4410, 648.0059
974.5580, 870.1855
975.6750, 831.4434
976.7920, 732.3848
977.9090, 851.8945
979.0250, 687.6797
980.1410, 941.1641
981.2580, 638.3848
982.3740, 799.9043
983.4890, 727.3301
984.6050, 844.8418
985.7200, 1063.793
986.8360, 890.0938
987.9510, 936.8691
989.0660, 876.6094
990.1810, 921.5000
991.2950, 708.9375
992.4100, 943.4102
993.5240, 918.3535
994.6390, 1093.289
995.7530, 971.3867
996.8660, 920.1699
997.9800, 864.2227
999.0940, 829.8555
1000.207, 1118.166
1001.320, 855.2207
1002.433, 983.3359
1003.546, 1116.197
1004.659, 877.1230
1005.772, 938.3477
1006.884, 863.8867
1007.996, 946.0898
1009.108, 955.5078
1010.220, 1075.371
1011.332, 1055.783
1012.444, 1036.568
1013.555, 1158.393
1014.666, 964.6152
1015.777, 1222.305
1016.888, 1036.693
1017.999, 1295.285
1019.110, 930.4141
1020.220, 939.8789
1021.331, 928.5957
1022.441, 800.9785
1023.551, 853.9805
1024.661, 773.6309
1025.770, 820.7695
1026.880, 668.3203
1027.989, 708.7891
1029.098, 653.6328
1030.207, 661.7637
1031.316, 639.8984
1032.425, 644.5371
1033.533, 559.9395
1034.642, 645.4512
1035.750, 554.9629
1036.858, 496.4707
1037.966, 673.0215
1039.073, 486.5195
1040.181, 529.1172
1041.288, 636.7715
1042.396, 469.4121
1043.503, 500.8965
1044.610, 694.4316
1045.716, 557.2578
1046.823, 661.7324
1047.929, 549.6895
1049.036, 732.1582
1050.142, 943.6250
1051.248, 1222.287
1052.353, 938.7754
1053.459, 911.4512
1054.564, 883.6875
1055.670, 858.4297
1056.775, 1318.205
1057.880, 1158.197
1058.985, 1212.049
1060.089, 1226.529
1061.194, 1093.150
1062.298, 1085.492
1063.402, 1130.008
1064.506, 1059.457
1065.610, 1142.438
1066.713, 1093.668
1067.817, 1030.428
1068.920, 1187.887
1070.023, 1278.398
1071.126, 1207.857
1072.229, 1480.359
1073.332, 1349.816
1074.435, 1370.270
1075.537, 1500.889
1076.639, 1582.346
1077.741, 1477.934
1078.843, 1886.955
1079.945, 1794.871
1081.046, 1957.469
1082.148, 2219.254
1083.249, 1887.756
1084.350, 1941.260
1085.451, 2381.766
1086.551, 1942.273
1087.652, 1902.867
1088.752, 1869.451
1089.853, 2143.992
1090.953, 1794.918
1092.053, 1993.582
1093.152, 1887.885
1094.252, 1820.637
1095.351, 1781.314
1096.451, 1803.340
1097.550, 1877.977
1098.649, 1956.678
1099.748, 1960.977
1100.846, 2120.156
1101.945, 1973.934
1103.043, 1939.711
1104.141, 2053.820
1105.239, 1928.641
1106.337, 2138.512
1107.434, 2207.383
1108.532, 2245.254
1109.629, 1962.805
1110.726, 1906.746
1111.823, 2247.742
1112.920, 2023.695
1114.017, 2285.660
1115.113, 2298.848
1116.210, 2413.848
1117.306, 2254.652
1118.402, 2335.301
1119.498, 2453.023
1120.593, 2486.930
1121.689, 2517.969
1122.784, 2572.480
1123.879, 2470.797
1124.974, 2421.180
1126.069, 2299.570
1127.164, 2073.566
1128.259, 2069.750
1129.353, 2030.465
1130.447, 2106.648
1131.541, 2175.270
1132.635, 1805.941
1133.729, 1883.105
1134.822, 2008.570
1135.916, 1378.734
1137.009, 1564.012
1138.102, 1493.672
1139.195, 1477.871
1140.288, 1328.652
1141.380, 1196.781
1142.473, 1034.496
1143.565, 761.3203
1144.657, 885.0391
1145.749, 696.4688
1146.841, 857.0117
1147.932, 624.5625
1149.024, 512.2305
1150.115, 260.8281
1151.206, 403.6562
1152.297, 322.3125
1153.388, 440.1133
1154.479, 408.6797
1155.569, 329.0039
1156.659, 175.3203
1157.750, 272.6328
1158.839, 171.2852
1159.929, 240.5859
1161.019, 207.9062
1162.108, 122.2188
1163.198, 18.59766
1164.287, 265.8984
1165.376, 47.19531
1166.465, 161.5938
1167.553, 166.8711
1168.642, 89.14453
1169.730, 136.4102
1170.818, 78.67578
1171.906, 64.92578
1172.994, 69.16797
1174.082, 207.4023
1175.170, 94.62500
1176.257, 25.84375
1177.344, 226.0547
1178.431, 54.73828
1179.518, 166.4297
1180.605, 140.6055
1181.691, 67.75781
1182.778, 188.9375
1183.864, 79.07031
1184.950, 8.804688
1186.036, 64.64453
1187.122, 57.73828
1188.207, 7.640625
1189.292, 41.92969
1190.378, 149.0156
1191.463, 98.95703
1192.548, 9.875000
1193.632, 125.3242
1194.717, 19.26172
1195.801, 187.1797
1196.886, 28.91016
1197.970, 69.97266
1199.054, 234.8359
1200.137, 130.8359
1201.221, 288.0391
1202.305, 134.8750
1203.388, 150.7070
1204.471, 227.8633
1205.554, 142.3281
1206.637, 179.3906
1207.719, 10.90234
1208.802, 21.78125
1209.884, 47.44922
1210.966, 132.3633
1212.048, 89.00391
1213.130, 201.6328
1214.212, 214.2461
1215.293, 268.8555
1216.374, 185.8789
1217.456, 143.4609
1218.536, 154.0312
1219.617, 282.5859
1220.698, 84.12891
1221.778, 161.6602
1222.859, 11.17969
1223.939, 148.6758
1225.019, 172.1602
1226.099, 102.6289
1227.178, 308.0859
1228.258, 197.5234
1229.337, 409.9961
1230.417, 207.4141
1231.496, 289.8164
1232.574, 320.1992
1233.653, 106.5703
1234.732, 227.9258
1235.810, 266.2695
1236.888, 185.5898
1237.966, 329.9023
1239.044, 25.19531
1240.122, 232.9023
1241.199, 178.1641
1242.277, 274.4062
1243.354, 289.9297
1244.431, 144.1445
1245.508, 227.3398
1246.585, 23.51953
1247.661, 54.80078
1248.738, 45.17578
1249.814, 21.92188
1250.890, 84.99219
1251.966, 26.03906
1253.042, 162.7422
1254.117, 131.2344
1255.193, 242.3281
1256.268, 203.5898
1257.343, 254.0000
1258.418, 150.5781
1259.493, 78.07031
1260.567, 94.97656
1261.642, 82.19141
1262.716, 208.3828
1263.790, 138.5586
1264.864, 311.7148
1265.938, 184.8516
1267.011, 96.97266
1268.085, 208.0664
1269.158, 70.14453
1270.231, 57.80078
1271.304, 86.62891
1272.377, 62.59375
1273.450, 87.52734
1274.522, 158.4531
1275.594, 131.0273
1276.666, 131.6445
1277.738, 112.1055
1278.810, 128.9453
1279.882, 81.33984
1280.953, 124.8125
1282.025, 100.9766
1283.096, 163.7227
1284.167, 270.4766
1285.238, 229.4922
1286.308, 260.2305
1287.379, 139.9453
1288.449, 301.6328
1289.519, 236.3125
1290.589, 297.9688
1291.659, 206.6094
1292.729, 236.4062
1293.798, 244.0391
1294.868, 198.5625
1295.937, 550.1250
1297.006, 260.0234
1298.075, 633.6992
1299.143, 553.1992
1300.212, 330.5781
1301.280, 517.8672
1302.348, 272.1523
1303.416, 348.9648
1304.484, 312.5039
1305.552, 442.9375
1306.620, 518.2891
1307.687, 355.1250
1308.754, 226.4258
1309.821, 269.7031
1310.888, 67.24219
1311.955, 343.9297
1313.021, 293.8867
1314.088, 149.2617
1315.154, 421.0938
1316.220, 56.87500
1317.286, 179.4062
1318.352, 570.0547
1319.417, 224.0430
1320.483, 174.4688
1321.548, 161.5391
1322.613, 361.4102
1323.678, 267.9102
1324.743, 249.7852
1325.807, 283.8750
