##NAMES=Polylithionite
##RRUFFID=R050132
##IDEAL CHEMISTRY=KLi_2_AlSi_4_O_10_F_2_
##LOCALITY=Brown Derby mine, Ohio City, Gunnison County, Colorado, USA
##OWNER=RRUFF
##SOURCE=Dave Bunk Minerals
##DESCRIPTION=Purple scaly aggregate, polytype 2M1
##STATUS=The identification of this mineral has been confirmed by X-ray diffraction and chemical analysis
##URL=rruff.info/R050132
##MEASURED CHEMISTRY=(K_0.90_Rb_0.10_)(Li_0.62_Al_0.38_)_3_(Si_0.93_Al_0.07_)_4_O_10_(F_0.69_(OH)_0.31_)_2_
##PIN_ID=M00149
##ORIENTATION=Laser parallel to -b* (0 -1 0). Fiducial mark perpendicular to laser is parallel to -c [0 0 -1]
126.7490, 0.0000000E+00
127.9790, 23.79883
129.2090, 225.1094
130.4390, 328.6484
131.6680, 345.7500
132.8980, 399.6523
134.1270, 17.56641
135.3560, 120.0625
136.5850, 17.07617
137.8140, 50.96484
139.0430, 234.7812
140.2710, 418.0254
141.5000, 375.4590
142.7280, 104.0918
143.9560, 191.1816
145.1840, 151.0879
146.4120, 158.4570
147.6390, 365.1289
148.8670, 95.95312
150.0940, 343.8145
151.3210, 483.6016
152.5490, 561.2266
153.7750, 558.7051
155.0020, 763.1582
156.2290, 915.5723
157.4550, 1122.828
158.6810, 1293.820
159.9080, 1432.451
161.1340, 1701.648
162.3590, 2272.340
163.5850, 2852.473
164.8110, 3376.996
166.0360, 3631.855
167.2610, 4512.016
168.4860, 5281.441
169.7110, 6053.107
170.9360, 7049.996
172.1610, 7840.082
173.3850, 8567.363
174.6100, 9638.816
175.8340, 10670.44
177.0580, 11440.21
178.2820, 12066.15
179.5050, 12644.12
180.7290, 12707.65
181.9520, 12902.29
183.1760, 12720.72
184.3990, 12796.46
185.6220, 12324.15
186.8450, 12014.72
188.0670, 11572.18
189.2900, 11241.53
190.5120, 11151.79
191.7340, 10632.97
192.9560, 10393.05
194.1780, 10050.05
195.4000, 9439.977
196.6220, 8895.826
197.8430, 8579.598
199.0640, 7680.301
200.2860, 7333.930
201.5070, 6931.480
202.7270, 6480.945
203.9480, 6204.336
205.1690, 5880.631
206.3890, 5353.848
207.6090, 5317.016
208.8290, 5411.078
210.0490, 5108.117
211.2690, 5233.137
212.4890, 5101.146
213.7080, 5048.146
214.9280, 5072.141
216.1470, 5037.152
217.3660, 4948.162
218.5850, 4953.176
219.8030, 4963.199
221.0220, 5140.229
222.2400, 5115.260
223.4590, 5373.301
224.6770, 5255.344
225.8950, 5489.395
227.1120, 5725.451
228.3300, 6238.836
229.5480, 6615.939
230.7650, 6945.887
231.9820, 7307.531
233.1990, 7731.783
234.4160, 8099.396
235.6330, 8444.383
236.8490, 8891.246
238.0660, 9308.996
239.2820, 9758.662
240.4980, 9822.133
241.7140, 10719.89
242.9300, 10985.56
244.1460, 11379.54
245.3610, 12054.30
246.5770, 12459.20
247.7920, 13102.07
249.0070, 13563.99
250.2220, 14321.01
251.4370, 15270.03
252.6510, 16554.05
253.8660, 17412.05
255.0800, 18546.05
256.2940, 19693.03
257.5080, 20703.99
258.7220, 22181.93
259.9360, 21940.85
261.1490, 21442.75
262.3630, 20891.62
263.5760, 19542.48
264.7890, 18066.33
266.0020, 16207.15
267.2150, 14170.96
268.4270, 12427.75
269.6400, 10665.51
270.8520, 9146.262
272.0640, 7583.992
273.2760, 6608.742
274.4880, 5958.484
275.7000, 4906.160
276.9120, 4283.816
278.1230, 3595.174
279.3340, 3376.666
280.5450, 2891.160
281.7560, 2866.609
282.9670, 2527.623
284.1780, 2222.393
285.3880, 1925.303
286.5980, 1799.336
287.8090, 1659.488
289.0190, 1594.322
290.2290, 1549.672
291.4380, 1442.617
292.6480, 1180.625
293.8570, 1247.217
295.0670, 1198.879
296.2760, 1030.598
297.4850, 1144.377
298.6930, 935.2129
299.9020, 1103.096
301.1110, 1009.020
302.3190, 844.9922
303.5270, 634.8945
304.7350, 702.9355
305.9430, 678.0039
307.1510, 797.0957
308.3580, 517.2129
309.5660, 568.7363
310.7730, 274.8945
311.9800, 340.0684
313.1870, 568.2539
314.3940, 255.4570
315.6010, 214.6699
316.8070, 275.8945
318.0130, 257.1289
319.2200, 240.3770
320.4260, 268.6289
321.6310, 74.89062
322.8370, 114.1562
324.0430, 88.42773
325.2480, 71.69922
326.4540, 139.9668
327.6590, 177.2227
328.8640, 22.46289
330.0680, 50.68164
331.2730, 109.8867
332.4780, 55.07227
333.6820, 189.7578
334.8860, 224.6641
336.0900, 152.6523
337.2940, 245.7070
338.4980, 3.849609
339.7010, 178.0195
340.9050, 215.2578
342.1080, 3.580078
343.3110, 139.9238
344.5140, 148.3281
345.7170, 95.46094
346.9200, 88.97852
348.1220, 54.83594
349.3240, 37.44141
350.5270, 89.73828
351.7290, 31.74219
352.9310, 23.21289
354.1320, 31.98047
355.3340, 332.0059
356.5350, 282.7012
357.7370, 248.6367
358.9380, 110.8125
360.1390, 385.2363
361.3400, 221.3828
362.5400, 333.6836
363.7410, 154.5938
364.9410, 345.6992
366.1410, 261.7871
367.3410, 514.8594
368.5410, 497.9199
369.7410, 374.7129
370.9400, 374.1602
372.1400, 715.3828
373.3390, 609.3770
374.5380, 672.3535
375.7370, 917.2324
376.9360, 816.9355
378.1350, 787.5078
379.3330, 793.9023
380.5310, 862.2109
381.7300, 1008.393
382.9280, 1093.488
384.1260, 1071.502
385.3230, 1167.467
386.5210, 1123.391
387.7180, 1346.307
388.9160, 1347.209
390.1130, 1410.102
391.3100, 1389.984
392.5060, 1507.865
393.7030, 1602.719
394.9000, 1698.568
396.0960, 1804.516
397.2920, 1874.234
398.4880, 2005.271
399.6840, 2081.857
400.8800, 2181.652
402.0750, 2154.439
403.2710, 2201.213
404.4660, 2461.980
405.6610, 2010.736
406.8560, 2096.484
408.0510, 2058.223
409.2450, 1714.951
410.4400, 1716.674
411.6340, 1516.387
412.8280, 1610.090
414.0220, 1358.785
415.2160, 1231.473
416.4100, 1013.152
417.6030, 810.8262
418.7970, 790.4961
419.9900, 880.1621
421.1830, 709.8203
422.3760, 823.4766
423.5690, 535.1270
424.7610, 495.7754
425.9540, 423.4180
427.1460, 527.0684
428.3380, 579.7090
429.5300, 528.3477
430.7220, 462.9766
431.9140, 494.5996
433.1050, 817.2324
434.2970, 687.9199
435.4880, 606.4746
436.6790, 593.0781
437.8700, 437.6758
439.0610, 417.2441
440.2510, 393.8398
441.4420, 348.4043
442.6320, 227.9570
443.8220, 259.5000
445.0120, 310.1152
446.2020, 82.63672
447.3910, 294.1328
448.5810, 458.6211
449.7700, 550.0938
450.9600, 327.5547
452.1490, 100.0039
453.3370, 388.4336
454.5260, 339.8516
455.7150, 399.2559
456.9030, 173.6523
458.0910, 323.0352
459.2800, 514.4023
460.4670, 301.7578
461.6550, 421.0996
462.8430, 610.4316
464.0300, 583.7480
465.2180, 398.0527
466.4050, 554.3477
467.5920, 456.6270
468.7790, 603.8945
469.9650, 395.1465
471.1520, 524.3887
472.3380, 551.3945
473.5250, 549.5859
474.7110, 560.7910
475.8970, 572.9629
477.0820, 296.7773
478.2680, 564.3379
479.4540, 331.3633
480.6390, 419.4941
481.8240, 172.7539
483.0090, 330.0332
484.1940, 86.92578
485.3780, 83.06055
486.5630, 229.5898
487.7470, 55.44531
488.9320, 133.6289
490.1160, 84.92578
491.3000, 25.39844
492.4830, 68.21875
493.6670, 69.33203
494.8500, 318.3516
496.0340, 228.4980
497.2170, 148.3477
498.4000, 112.8301
499.5820, 37.37695
500.7650, 101.0547
501.9480, 79.71875
503.1300, 69.66797
504.3120, 27.94922
505.4940, 122.5820
506.6760, 169.6875
507.8580, 16.99023
509.0390, 186.2891
510.2210, 94.58789
511.4020, 190.1133
512.5830, 57.91211
513.7640, 4.736328
514.9450, 251.4336
516.1250, 87.60156
517.3060, 142.7734
518.4860, 188.9434
519.6660, 175.1133
520.8460, 206.2852
522.0260, 170.4629
523.2060, 191.4805
524.3850, 168.8223
525.5650, 234.0078
526.7440, 238.1992
527.9230, 307.3965
529.1020, 414.5977
530.2810, 405.8496
531.4590, 304.1055
532.6380, 536.3691
533.8160, 223.6582
534.9940, 427.9551
536.1720, 473.2559
537.3500, 507.5625
538.5270, 319.8789
539.7050, 559.2266
540.8820, 470.6152
542.0590, 551.0469
543.2360, 635.5645
544.4130, 668.0996
545.5900, 907.6445
546.7660, 1099.234
547.9430, 924.8359
549.1190, 919.4648
550.2950, 1324.125
551.4710, 1547.844
552.6470, 1466.566
553.8220, 1292.318
554.9980, 1335.078
556.1730, 1728.846
557.3480, 1726.641
558.5230, 2000.535
559.6980, 2023.436
560.8730, 1955.385
562.0470, 1790.342
563.2220, 1843.307
564.3960, 1788.279
565.5700, 1889.260
566.7440, 1351.248
567.9170, 1337.246
569.0910, 1329.250
570.2640, 1105.264
571.4380, 1028.285
572.6110, 967.3125
573.7840, 933.3477
574.9570, 729.3926
576.1290, 545.4453
577.3020, 746.5059
578.4740, 508.5762
579.6460, 454.6523
580.8180, 396.7402
581.9900, 49.83398
583.1620, 277.9375
584.3330, 427.0508
585.5040, 54.82812
586.6760, 316.2891
587.8470, 206.5215
589.0180, 209.6582
590.1880, 323.8027
591.3590, 102.9570
592.5290, 173.1211
593.7000, 490.9043
594.8700, 337.0859
596.0400, 324.2754
597.2090, 137.4785
598.3790, 448.6914
599.5490, 632.9141
600.7180, 445.1465
601.8870, 713.3887
603.0560, 480.6406
604.2250, 540.9043
605.3940, 604.1758
606.5620, 608.4590
607.7300, 693.7520
608.8990, 644.0566
610.0670, 798.3711
611.2350, 830.6973
612.4020, 813.0332
613.5700, 1018.381
614.7370, 1046.482
615.9050, 1132.230
617.0720, 1096.701
618.2390, 1118.258
619.4060, 1149.850
620.5720, 1128.582
621.7390, 1259.361
622.9050, 1147.162
624.0710, 1336.033
625.2370, 1363.977
626.4030, 1119.945
627.5690, 1208.973
628.7340, 1058.723
629.9000, 964.8594
631.0650, 1014.365
632.2300, 1053.619
633.3950, 865.5645
634.5600, 811.7598
635.7240, 702.3848
636.8890, 557.8281
638.0530, 915.5117
639.2170, 681.4883
640.3810, 672.2285
641.5450, 723.9062
642.7080, 497.0625
643.8720, 624.6719
645.0350, 752.1328
646.1980, 633.9844
647.3610, 689.8301
648.5240, 886.3301
649.6870, 685.0410
650.8490, 646.7676
652.0120, 802.7578
653.1740, 801.0977
654.3360, 930.6641
655.4980, 1004.455
656.6600, 873.2832
657.8210, 957.1289
658.9830, 925.9902
660.1440, 866.8672
661.3050, 862.7598
662.4660, 1078.670
663.6270, 1013.598
664.7870, 989.5430
665.9480, 1068.502
667.1080, 962.6016
668.2680, 1131.592
669.4280, 1105.488
670.5880, 1085.514
671.7480, 1375.549
672.9070, 1415.188
674.0670, 1471.281
675.2260, 1765.391
676.3850, 1742.514
677.5440, 2107.650
678.7030, 2341.465
679.8610, 2427.564
681.0200, 2541.086
682.1780, 2792.879
683.3360, 3002.465
684.4940, 3505.127
685.6520, 3730.207
686.8090, 4412.623
687.9670, 4849.664
689.1240, 5092.953
690.2810, 5951.326
691.4380, 6433.598
692.5950, 7130.807
693.7520, 7794.367
694.9080, 8639.664
696.0650, 9689.189
697.2210, 10814.66
698.3770, 12531.98
699.5330, 13567.29
700.6880, 15302.72
701.8440, 16600.06
702.9990, 18458.40
704.1550, 20050.74
705.3100, 21624.10
706.4650, 23215.45
707.6190, 24447.81
708.7740, 24685.17
709.9290, 24676.55
711.0830, 24012.92
712.2370, 22634.30
713.3910, 20856.68
714.5450, 18402.07
715.6980, 16375.46
716.8520, 14058.86
718.0050, 11596.26
719.1580, 9797.664
720.3110, 8494.070
721.4640, 7088.484
722.6170, 6311.898
723.7700, 5168.316
724.9220, 4668.652
726.0740, 3862.078
727.2260, 3486.514
728.3780, 3250.949
729.5300, 2945.389
730.6810, 2565.832
731.8330, 2293.275
732.9840, 1952.729
734.1350, 2044.184
735.2860, 2040.188
736.4370, 2106.646
737.5880, 2005.109
738.7380, 2060.570
739.8880, 1972.037
741.0390, 2223.504
742.1890, 2085.416
743.3380, 2003.887
744.4880, 2233.357
745.6380, 2409.830
746.7870, 2267.551
747.9360, 2300.027
749.0850, 2226.518
750.2340, 2387.996
751.3830, 2196.475
752.5310, 2416.299
753.6800, 2476.137
754.8280, 2240.615
755.9760, 2158.938
757.1240, 2026.520
758.2720, 1902.996
759.4190, 1765.492
760.5670, 1631.963
761.7140, 1522.430
762.8610, 1421.893
764.0080, 1072.504
765.1550, 1159.240
766.3020, 874.6914
767.4480, 925.2559
768.5950, 647.4941
769.7410, 651.9785
770.8870, 682.7598
772.0330, 753.4551
773.1780, 523.9609
774.3240, 391.5469
775.4690, 556.1855
776.6140, 671.8574
777.7590, 531.5527
778.9040, 438.2988
780.0490, 490.3438
781.1940, 402.2422
782.3380, 386.2070
783.4820, 527.8984
784.6260, 277.5547
785.7700, 333.3008
786.9140, 516.9434
788.0580, 766.7051
789.2010, 441.3770
790.3450, 283.1152
791.4880, 397.0195
792.6310, 603.8281
793.7730, 449.8535
794.9160, 293.5352
796.0590, 231.2070
797.2010, 206.9453
798.3430, 232.5859
799.4850, 253.2246
800.6270, 188.2363
801.7690, 182.8496
802.9100, 127.4531
804.0520, 30.04297
805.1930, 198.6211
806.3340, 146.8125
807.4750, 149.6543
808.6160, 209.1113
809.7560, 57.13867
810.8970, 170.2480
812.0370, 241.6250
813.1770, 77.98828
814.3170, 115.3418
815.4570, 87.31836
816.5960, 91.05273
817.7360, 112.8633
818.8750, 275.7598
820.0140, 16.83203
821.1530, 23.06250
822.2920, 103.0664
823.4310, 3.726563
824.5690, 37.50781
825.7070, 72.79688
826.8460, 153.1523
827.9840, 118.3828
829.1220, 38.09766
830.2590, 42.37109
831.3970, 208.8281
832.5340, 41.73438
833.6710, 311.3477
834.8080, 154.8398
835.9450, 116.9805
837.0820, 70.10156
838.2190, 155.1680
839.3550, 117.2188
840.4910, 308.2578
841.6270, 158.2812
842.7630, 183.2891
843.8990, 179.2812
845.0350, 223.2656
846.1700, 318.2305
847.3060, 294.1797
848.4410, 494.1211
849.5760, 515.0430
850.7100, 458.9531
851.8450, 622.3164
852.9800, 743.7266
854.1140, 750.5938
855.2480, 895.4414
856.3820, 839.2773
857.5160, 865.0977
858.6500, 951.9062
859.7830, 1074.695
860.9170, 872.4688
862.0500, 888.2383
863.1830, 709.9883
864.3160, 550.7266
865.4480, 714.4453
866.5810, 265.1562
867.7130, 557.8477
868.8460, 684.5195
869.9780, 412.1836
871.1100, 33.82812
872.2410, 329.4531
873.3730, 337.0625
874.5050, 171.6602
875.6360, 312.2383
876.7670, 409.8008
877.8980, 40.34766
879.0290, 102.8789
880.1590, 403.3906
881.2900, 265.8867
882.4200, 54.37109
883.5500, 471.8359
884.6800, 92.28516
885.8100, 195.7188
886.9400, 132.1406
888.0690, 69.45703
889.1990, 197.1250
890.3280, 167.0664
891.4570, 13.75781
892.5860, 68.37109
893.7140, 141.4922
894.8430, 86.59375
895.9710, 290.6797
897.1000, 106.7500
898.2280, 180.8047
899.3560, 60.84375
900.4830, 48.87109
901.6110, 113.8750
902.7380, 65.86719
903.8660, 93.16016
904.9930, 135.7305
906.1200, 45.60547
907.2460, 52.53906
908.3730, 297.2578
909.5000, 294.0352
910.6260, 190.8008
911.7520, 305.5469
912.8780, 92.28125
914.0040, 69.99609
915.1290, 263.3008
916.2550, 49.22656
917.3800, 42.73438
918.5050, 165.2266
919.6300, 14.69922
920.7550, 66.14062
921.8800, 19.42578
923.0040, 55.96094
924.1290, 135.3477
925.2530, 65.73438
926.3770, 43.10547
927.5010, 49.46875
928.6250, 43.16016
929.7480, 148.1758
930.8720, 150.5078
931.9950, 178.8438
933.1180, 49.16016
934.2410, 134.2266
935.3640, 26.79688
936.4860, 196.1250
937.6090, 153.4414
938.7310, 127.7461
939.8530, 89.94531
940.9750, 235.2773
942.0970, 79.72656
943.2180, 235.0664
944.3400, 82.60547
945.4610, 181.1016
946.5820, 350.3555
947.7030, 201.6016
948.8240, 190.8477
949.9450, 316.0938
951.0650, 370.6680
952.1860, 287.9609
953.3060, 341.8281
954.4260, 432.4336
955.5460, 197.2383
956.6650, 301.1797
957.7850, 215.2305
958.9040, 290.2734
960.0230, 204.6406
961.1420, 217.7695
962.2610, 401.8359
963.3800, 196.9961
964.4990, 563.2227
965.6170, 463.1055
966.7350, 522.2500
967.8530, 414.1680
968.9710, 299.1367
970.0890, 215.2695
971.2070, 536.4023
972.3240, 265.4219
973.4410, 383.5352
974.5580, 269.6484
975.6750, 590.7578
976.7920, 372.8594
977.9090, 291.9609
979.0250, 631.0586
980.1410, 240.1484
981.2580, 382.2383
982.3740, 567.3281
983.4890, 765.4141
984.6050, 743.4961
985.7200, 768.5703
986.8360, 625.6484
987.9510, 712.7188
989.0660, 736.7930
990.1810, 547.8594
991.2950, 947.9258
992.4100, 1140.984
993.5240, 1040.051
994.6390, 1054.113
995.7530, 1026.164
996.8660, 968.2227
997.9800, 1110.273
999.0940, 1332.328
1000.207, 1545.383
1001.320, 1585.430
1002.433, 1338.477
1003.546, 1603.527
1004.659, 1251.574
1005.772, 1430.070
1006.884, 1286.121
1007.996, 1460.168
1009.108, 1184.211
1010.220, 1018.254
1011.332, 1336.301
1012.444, 1480.902
1013.555, 1430.945
1014.666, 1182.992
1015.777, 1397.035
1016.888, 1524.836
1017.999, 1336.883
1019.110, 1379.914
1020.220, 1675.969
1021.331, 1513.016
1022.441, 1877.723
1023.551, 1337.418
1024.661, 1609.477
1025.770, 1672.688
1026.880, 1443.648
1027.989, 1678.719
1029.098, 1495.758
1030.207, 1527.832
1031.316, 1539.906
1032.425, 1606.988
1033.533, 1796.922
1034.642, 1476.727
1035.750, 1576.824
1036.858, 1724.820
1037.966, 1946.148
1039.073, 1829.254
1040.181, 1993.066
1041.288, 2308.984
1042.396, 2038.109
1043.503, 2340.242
1044.610, 2441.379
1045.716, 2450.523
1046.823, 2620.672
1047.929, 2606.781
1049.036, 2972.586
1050.142, 3255.562
1051.248, 3426.465
1052.353, 3507.652
1053.459, 3612.902
1054.564, 3768.059
1055.670, 3729.324
1056.775, 3812.016
1057.880, 3746.828
1058.985, 3811.367
1060.089, 3989.746
1061.194, 3631.406
1062.298, 3517.410
1063.402, 3707.781
1064.506, 3437.988
1065.610, 3516.281
1066.713, 3381.512
1067.817, 3273.672
1068.920, 3148.672
1070.023, 3450.000
1071.126, 2727.336
1072.229, 3099.039
1073.332, 2828.152
1074.435, 3068.066
1075.537, 3011.543
1076.639, 2891.281
1077.741, 3037.949
1078.843, 2960.414
1079.945, 2984.211
1081.046, 2892.379
1082.148, 2910.551
1083.249, 2933.047
1084.350, 2741.582
1085.451, 2690.156
1086.551, 2540.773
1087.652, 2789.480
1088.752, 2789.207
1089.853, 2877.996
1090.953, 2942.734
1092.053, 2964.684
1093.152, 2894.926
1094.252, 2915.887
1095.351, 2933.934
1096.451, 2830.746
1097.550, 2977.699
1098.649, 3023.676
1099.748, 3003.656
1100.846, 2608.664
1101.945, 2947.773
1103.043, 3071.035
1104.141, 3149.203
1105.239, 3507.387
1106.337, 3526.574
1107.434, 3371.773
1108.532, 3591.984
1109.629, 3690.207
1110.726, 3582.434
1111.823, 3843.672
1112.920, 3884.926
1114.017, 4160.188
1115.113, 3991.461
1116.210, 4304.742
1117.306, 3949.035
1118.402, 4215.336
1119.498, 4262.652
1120.593, 4399.980
1121.689, 4501.312
1122.784, 4451.660
1123.879, 4969.016
1124.974, 5057.383
1126.069, 4834.762
1127.164, 5450.152
1128.259, 5699.559
1129.353, 5511.969
1130.447, 5432.395
1131.541, 5796.828
1132.635, 6018.277
1133.729, 6007.734
1134.822, 5830.207
1135.916, 5965.688
1137.009, 5655.184
1138.102, 5486.605
1139.195, 5180.215
1140.288, 4966.750
1141.380, 4355.293
1142.473, 4099.855
1143.565, 3424.430
1144.657, 2962.016
1145.749, 2657.629
1146.841, 2050.254
1147.932, 2130.891
1149.024, 1592.543
1150.115, 1469.227
1151.206, 1391.918
1152.297, 786.6250
1153.388, 785.3477
1154.479, 886.1055
1155.569, 794.9453
1156.659, 781.7930
1157.750, 576.6836
1158.839, 742.5859
1159.929, 480.5039
1161.019, 964.4297
1162.108, 806.3711
1163.198, 564.3242
1164.287, 539.2930
1165.376, 434.2812
1166.465, 454.2773
1167.553, 601.2930
1168.642, 697.3203
1169.730, 594.3906
1170.818, 802.4805
1171.906, 610.5820
1172.994, 530.7227
1174.082, 501.8789
1175.170, 345.0469
1176.257, 379.2266
1177.344, 299.9961
1178.431, 241.6328
1179.518, 189.8594
1180.605, 161.1719
1181.691, 48.50391
1182.778, 290.8516
1183.864, 57.21094
1184.950, 147.5898
1186.036, 45.98438
1187.122, 90.59375
1188.207, 33.52344
1189.292, 27.80859
1190.378, 27.41797
1191.463, 107.0195
1192.548, 98.66406
1193.632, 42.31641
1194.717, 76.97266
1195.801, 11.34375
1196.886, 47.67578
1197.970, 179.9727
1199.054, 78.70312
1200.137, 81.54688
1201.221, 63.80859
1202.305, 153.9062
1203.388, 90.68359
1204.471, 105.2227
1205.554, 59.33594
1206.637, 2.195313
1207.719, 29.04688
1208.802, 29.12891
1209.884, 2.343750
1210.966, 70.48438
1212.048, 70.30859
1213.130, 212.8438
1214.212, 182.0156
1215.293, 124.1992
1216.374, 77.39844
1217.456, 55.60547
1218.536, 31.91016
1219.617, 5.531250
1220.698, 26.31641
1221.778, 39.42188
1222.859, 25.65234
1223.939, 58.92188
1225.019, 9.308594
1226.099, 40.55078
1227.178, 59.80859
1228.258, 49.07812
1229.337, 128.3594
1230.417, 205.6562
1231.496, 349.9609
1232.574, 3.281250
1233.653, 394.8047
1234.732, 358.1445
1235.810, 193.4961
1236.888, 378.8594
1237.966, 180.2305
1239.044, 457.6172
1240.122, 341.0117
1241.199, 244.4180
1242.277, 417.8398
1243.354, 318.2695
1244.431, 150.7148
1245.508, 420.1641
1246.585, 465.6328
1247.661, 288.1211
1248.738, 403.6211
1249.814, 423.1367
1250.890, 303.6641
1251.966, 143.2031
1253.042, 396.7500
1254.117, 349.3125
1255.193, 480.8867
1256.268, 143.4727
1257.343, 260.0703
1258.418, 504.6758
1259.493, 204.2969
1260.567, 234.9453
1261.642, 335.6289
1262.716, 295.3281
1263.790, 362.0430
1264.864, 485.7656
1265.938, 573.4961
1267.011, 482.2422
1268.085, 748.0000
1269.158, 741.7734
1270.231, 462.5664
1271.304, 525.3867
1272.377, 631.2305
1273.450, 667.1094
1274.522, 731.3906
1275.594, 677.2969
1276.666, 575.2148
1277.738, 398.1445
1278.810, 563.8438
1279.882, 323.7969
1280.953, 608.7617
1282.025, 655.7617
1283.096, 455.7734
1284.167, 598.7969
1285.238, 836.8281
1286.308, 448.2031
1287.379, 429.2617
1288.449, 538.3281
1289.519, 340.4141
1290.589, 751.5039
1291.659, 716.6055
1292.729, 824.7227
1293.798, 822.8477
1294.868, 1040.988
1295.937, 709.1328
1297.006, 912.2969
1298.075, 1061.469
1299.143, 889.6484
