##NAMES=Polylithionite
##RRUFFID=R050132
##IDEAL CHEMISTRY=KLi_2_AlSi_4_O_10_F_2_
##LOCALITY=Brown Derby mine, Ohio City, Gunnison County, Colorado, USA
##OWNER=RRUFF
##SOURCE=Dave Bunk Minerals
##DESCRIPTION=Purple scaly aggregate, polytype 2M1
##STATUS=The identification of this mineral has been confirmed by X-ray diffraction and chemical analysis
##URL=rruff.info/R050132
##MEASURED CHEMISTRY=(K_0.90_Rb_0.10_)(Li_0.62_Al_0.38_)_3_(Si_0.93_Al_0.07_)_4_O_10_(F_0.69_(OH)_0.31_)_2_
##PIN_ID=M00120
##ORIENTATION=Laser parallel to c* (0 0 1). Fiducial mark perpendicular to laser is parallel to -a [-1 0 0]
102.1160, 0.0000000E+00
103.3490, 3.689453
104.5820, 212.4082
105.8150, 75.56250
107.0470, 162.3496
108.2800, 339.6211
109.5120, 257.3828
110.7440, 165.2871
111.9760, 35.38867
113.2080, 92.98828
114.4400, 191.5488
115.6710, 145.6445
116.9030, 209.9355
118.1340, 350.1562
119.3650, 8.095703
120.5960, 256.5801
121.8270, 130.4512
123.0580, 216.5723
124.2880, 221.8145
125.5190, 129.0762
126.7490, 152.2637
127.9790, 388.2949
129.2090, 359.1035
130.4390, 396.6230
131.6680, 255.8125
132.8980, 381.6504
134.1270, 380.1250
135.3560, 280.2012
136.5850, 453.8359
137.8140, 167.9922
139.0430, 234.6309
140.2710, 476.7070
141.5000, 547.1797
142.7280, 434.0137
143.9560, 358.1836
145.1840, 449.6660
146.4120, 418.4414
147.6390, 607.5000
148.8670, 516.8203
150.0940, 583.3887
151.3210, 497.1992
152.5490, 458.2383
153.7750, 428.4961
155.0020, 279.9648
156.2290, 445.6387
157.4550, 635.5078
158.6810, 526.5664
159.9080, 832.8066
161.1340, 606.4570
162.3590, 737.4961
163.5850, 788.8926
164.8110, 803.6387
166.0360, 1085.693
167.2610, 1246.881
168.4860, 1432.172
169.7110, 1399.576
170.9360, 1658.094
172.1610, 1752.730
173.3850, 1728.480
174.6100, 1928.340
175.8340, 1904.268
177.0580, 1913.131
178.2820, 2076.969
179.5050, 1935.801
180.7290, 1958.645
181.9520, 1931.510
183.1760, 1667.406
184.3990, 1613.344
185.6220, 1452.326
186.8450, 1332.359
188.0670, 1308.447
189.2900, 1363.592
190.5120, 1216.793
191.7340, 1109.057
192.9560, 962.3848
194.1780, 1259.775
195.4000, 966.2324
196.6220, 1345.756
197.8430, 1008.342
199.0640, 1019.994
200.2860, 773.7109
201.5070, 1230.494
202.7270, 973.3438
203.9480, 956.2578
205.1690, 854.2344
206.3890, 868.2773
207.6090, 866.3828
208.8290, 858.5488
210.0490, 837.0879
211.2690, 819.0684
212.4890, 785.3301
213.7080, 795.8301
214.9280, 797.2988
216.1470, 723.8262
217.3660, 630.4082
218.5850, 568.2500
219.8030, 549.5039
221.0220, 559.7109
222.2400, 563.7363
223.4590, 547.1133
224.6770, 576.7637
225.8950, 599.5098
227.1120, 624.5918
228.3300, 679.0664
229.5480, 742.1934
230.7650, 792.5762
231.9820, 850.5078
233.1990, 959.6914
234.4160, 1036.994
235.6330, 1162.137
236.8490, 1227.963
238.0660, 1395.623
239.2820, 1555.379
240.4980, 1607.230
241.7140, 1839.154
242.9300, 1899.123
244.1460, 1994.135
245.3610, 2208.197
246.5770, 2453.281
247.7920, 2592.391
249.0070, 2830.889
250.2220, 3067.162
251.4370, 3285.248
252.6510, 3620.693
253.8660, 3937.445
255.0800, 4471.457
256.2940, 4893.707
257.5080, 5560.164
258.7220, 6068.812
259.9360, 6664.637
261.1490, 6769.619
262.3630, 6922.748
263.5760, 6720.016
264.7890, 6306.410
266.0020, 5586.928
267.2150, 4899.557
268.4270, 4300.297
269.6400, 3722.734
270.8520, 3124.070
272.0640, 2701.096
273.2760, 2242.207
274.4880, 1910.842
275.7000, 1724.678
276.9120, 1410.027
278.1230, 1310.453
279.3340, 1177.945
280.5450, 974.5059
281.7560, 945.1309
282.9670, 862.8184
284.1780, 782.0918
285.3880, 841.3633
286.5980, 712.2207
287.8090, 611.1309
289.0190, 631.0918
290.2290, 650.1055
291.4380, 365.1641
292.6480, 557.2695
293.8570, 493.4219
295.0670, 379.6191
296.2760, 560.8613
297.4850, 252.1445
298.6930, 270.4688
299.9020, 536.8320
301.1110, 454.2363
302.3190, 170.6777
303.5270, 210.1562
304.7350, 456.6738
305.9430, 400.2246
307.1510, 487.8105
308.3580, 237.4277
309.5660, 322.0781
310.7730, 149.7559
311.9800, 307.4609
313.1870, 234.2031
314.3940, 295.9707
315.6010, 434.7617
316.8070, 253.5801
318.0130, 355.4238
319.2200, 381.2910
320.4260, 364.1797
321.6310, 175.0938
322.8370, 323.0312
324.0430, 214.9941
325.2480, 409.9805
326.4540, 66.99023
327.6590, 317.0234
328.8640, 354.0781
330.0680, 107.1602
331.2730, 171.2637
332.4780, 110.6094
333.6820, 41.47656
334.8860, 121.6738
336.0900, 171.1562
337.2940, 114.9902
338.4980, 206.1777
339.7010, 4.632813
340.9050, 78.42383
342.1080, 94.79492
343.3110, 73.96680
344.5140, 181.2793
345.7170, 218.4531
346.9200, 79.21094
348.1220, 32.09570
349.3240, 43.22070
350.5270, 54.42969
351.7290, 89.13867
352.9310, 51.84375
354.1320, 18.08398
355.3340, 52.95312
356.5350, 78.90820
357.7370, 86.07812
358.9380, 69.88281
360.1390, 106.3770
361.3400, 305.6328
362.5400, 150.0391
363.7410, 364.3906
364.9410, 161.3340
366.1410, 288.9727
367.3410, 406.9277
368.5410, 390.2793
369.7410, 377.8496
370.9400, 332.7402
372.1400, 708.8027
373.3390, 775.4141
374.5380, 638.6602
375.7370, 780.5215
376.9360, 741.0332
378.1350, 742.2480
379.3330, 684.8965
380.5310, 829.2402
381.7300, 896.5898
382.9280, 1086.947
384.1260, 921.3418
385.3230, 768.7129
386.5210, 1117.088
387.7180, 1282.471
388.9160, 1350.859
390.1130, 1557.254
391.3100, 1312.652
392.5060, 1583.059
393.7030, 1494.488
394.9000, 1617.949
396.0960, 1626.436
397.2920, 1572.941
398.4880, 1906.469
399.6840, 2059.018
400.8800, 1867.584
402.0750, 2030.172
403.2710, 2130.775
404.4660, 1888.395
405.6610, 2101.029
406.8560, 1800.678
408.0510, 1861.344
409.2450, 1792.023
410.4400, 1689.715
411.6340, 1650.420
412.8280, 1379.135
414.0220, 1219.865
415.2160, 1048.605
416.4100, 1068.355
417.6030, 900.1172
418.7970, 942.8887
419.9900, 796.6719
421.1830, 754.4629
422.3760, 796.2656
423.5690, 603.0762
424.7610, 793.8945
425.9540, 554.7227
427.1460, 943.5605
428.3380, 638.4043
429.5300, 446.2559
430.7220, 517.1152
431.9140, 528.9844
433.1050, 611.8594
434.2970, 665.7422
435.4880, 567.6309
436.6790, 549.5273
437.8700, 613.4297
439.0610, 705.3379
440.2510, 423.2539
441.4420, 459.1777
442.6320, 715.1035
443.8220, 304.0352
445.0120, 461.9727
446.2020, 444.9180
447.3910, 501.8633
448.5810, 511.8164
449.7700, 361.7754
450.9600, 439.7383
452.1490, 325.7031
453.3370, 469.7246
454.5260, 347.6992
455.7150, 465.2930
456.9030, 687.2754
458.0910, 547.2598
459.2800, 401.2500
460.4670, 474.2402
461.6550, 481.2363
462.8430, 424.2344
464.0300, 578.2324
465.2180, 613.2363
466.4050, 682.2422
467.5920, 651.2500
468.7790, 546.2617
469.9650, 564.2734
471.1520, 623.2891
472.3380, 645.3066
473.5250, 656.3262
474.7110, 798.3477
475.8970, 574.5781
477.0820, 805.4434
478.2680, 686.4707
479.4540, 585.8691
480.6390, 540.8066
481.8240, 336.8418
483.0090, 532.7031
484.1940, 243.0977
485.3780, 282.1348
486.5630, 393.6621
487.7470, 189.7031
488.9320, 150.3945
490.1160, 62.62891
491.3000, 15.67383
492.4830, 39.67969
493.6670, 120.4004
494.8500, 88.09570
496.0340, 26.29883
497.2170, 8.683594
498.4000, 46.21680
499.5820, 23.75195
500.7650, 95.28711
501.9480, 89.38477
503.1300, 263.5488
504.3120, 70.13672
505.4940, 0.1777340
506.6760, 146.5117
507.8580, 45.06250
509.0390, 62.36133
510.2210, 74.16016
511.4020, 172.3125
512.5830, 34.10742
513.7640, 30.47852
514.9450, 23.09570
516.1250, 0.2539060
517.3060, 27.19141
518.4860, 38.10742
519.6660, 32.16797
520.8460, 27.56641
522.0260, 132.6719
523.2060, 229.9082
524.3850, 71.14648
525.5650, 35.60938
526.7440, 232.6074
527.9230, 205.8809
529.1020, 120.1523
530.2810, 112.4473
531.4590, 129.2812
532.6380, 170.2148
533.8160, 222.3965
534.9940, 375.7266
536.1720, 464.0586
537.3500, 474.7227
538.5270, 544.2051
539.7050, 484.0781
540.8820, 538.4316
542.0590, 557.7852
543.2360, 471.1387
544.4130, 678.5098
545.5900, 565.8809
546.7660, 765.2598
547.9430, 777.6426
549.1190, 812.0332
550.2950, 839.4238
551.4710, 847.8262
552.6470, 1115.236
553.8220, 1042.645
554.9980, 1067.055
556.1730, 1517.465
557.3480, 1333.592
558.5230, 1401.406
559.6980, 1305.879
560.8730, 1403.352
562.0470, 1426.822
563.2220, 1452.295
564.3960, 1406.074
565.5700, 1396.846
566.7440, 1233.807
567.9170, 1243.373
569.0910, 1133.941
570.2640, 891.5371
571.4380, 673.1309
572.6110, 820.7246
573.7840, 701.3340
574.9570, 517.9434
576.1290, 425.5488
577.3020, 346.7598
578.4740, 419.7773
579.6460, 288.4004
580.8180, 343.0215
581.9900, 425.6504
583.1620, 256.2754
584.3330, 469.8965
585.5040, 461.5176
586.6760, 321.1328
587.8470, 233.7441
589.0180, 184.3516
590.1880, 130.9551
591.3590, 147.5566
592.5290, 302.1523
593.7000, 62.74219
594.8700, 106.3301
596.0400, 8.7890998E-02
597.2090, 191.4766
598.3790, 356.0332
599.5490, 341.5898
600.7180, 334.1406
601.8870, 266.7207
603.0560, 542.2949
604.2250, 400.8691
605.3940, 508.4336
606.5620, 534.0020
607.7300, 432.5625
608.8990, 407.1758
610.0670, 545.7852
611.2350, 307.3867
612.4020, 479.9805
613.5700, 708.5742
614.7370, 700.1680
615.9050, 688.7617
617.0720, 717.3867
618.2390, 683.0117
619.4060, 657.6289
620.5720, 895.2734
621.7390, 790.9297
622.9050, 774.5820
624.0710, 953.2266
625.2370, 753.8789
626.4030, 823.5234
627.5690, 581.1719
628.7340, 713.8203
629.9000, 851.4961
631.0650, 451.1289
632.2300, 924.3945
633.3950, 687.5625
634.5600, 742.2461
635.7240, 521.9336
636.8890, 601.8477
638.0530, 373.0469
639.2170, 360.2344
640.3810, 631.0586
641.5450, 344.2852
642.7080, 337.8359
643.8720, 444.6328
645.0350, 199.2930
646.1980, 159.9844
647.3610, 229.0586
648.5240, 319.4219
649.6870, 379.4609
650.8490, 292.1016
652.0120, 350.4805
653.1740, 213.5352
654.3360, 234.4102
655.4980, 211.7109
656.6600, 292.3789
657.8210, 176.9023
658.9830, 277.9023
660.1440, 305.8828
661.3050, 338.9102
662.4660, 123.7227
663.6270, 465.3945
664.7870, 386.1875
665.9480, 775.0469
667.1080, 567.0625
668.2680, 577.7812
669.4280, 698.4727
670.5880, 534.0469
671.7480, 443.0352
672.9070, 604.7812
674.0670, 612.7734
675.2260, 582.3281
676.3850, 626.8789
677.5440, 881.4258
678.7030, 998.4844
679.8610, 1159.137
681.0200, 1341.301
682.1780, 1507.031
683.3360, 1684.559
684.4940, 1875.930
685.6520, 2089.410
686.8090, 2239.992
687.9670, 2439.238
689.1240, 2641.723
690.2810, 3092.180
691.4380, 3433.281
692.5950, 3800.742
693.7520, 3991.688
694.9080, 4428.543
696.0650, 5030.301
697.2210, 5741.031
698.3770, 6319.449
699.5330, 6509.457
700.6880, 7653.855
701.8440, 8310.250
702.9990, 9083.680
704.1550, 10188.98
705.3100, 11157.80
706.4650, 12263.05
707.6190, 13292.98
708.7740, 13774.54
709.9290, 14421.15
711.0830, 14322.91
712.2370, 13529.66
713.3910, 12624.93
714.5450, 11185.21
715.6980, 10080.46
716.8520, 8591.332
718.0050, 7292.445
719.1580, 6023.664
720.3110, 5245.992
721.4640, 4554.188
722.6170, 3949.648
723.7700, 3387.961
724.9220, 2902.113
726.0740, 2560.262
727.2260, 2268.391
728.3780, 1960.508
729.5300, 1731.609
730.6810, 1602.699
731.8330, 1419.352
732.9840, 1397.797
734.1350, 1327.844
735.2860, 1275.746
736.4370, 1528.773
737.5880, 1218.926
738.7380, 1001.043
739.8880, 1188.988
741.0390, 1332.957
742.1890, 1245.914
743.3380, 1209.930
744.4880, 1253.945
745.6380, 1232.859
746.7870, 1050.789
747.9360, 1400.672
749.0850, 1532.535
750.2340, 1505.383
751.3830, 1243.543
752.5310, 1406.047
753.6800, 944.4531
754.8280, 1178.832
755.9760, 1421.785
757.1240, 1108.539
758.2720, 881.4375
759.4190, 769.1562
760.5670, 823.0078
761.7140, 881.6953
762.8610, 637.3750
764.0080, 732.0312
765.1550, 630.6758
766.3020, 512.3008
767.4480, 605.9062
768.5950, 747.5000
769.7410, 590.0742
770.8870, 426.6406
772.0330, 271.1914
773.1780, 262.7266
774.3240, 329.2461
775.4690, 291.7500
776.6140, 407.2461
777.7590, 440.7461
778.9040, 270.2344
780.0490, 444.7305
781.1940, 373.2500
782.3380, 492.8281
783.4820, 394.3867
784.6260, 303.9375
785.7700, 375.5156
786.9140, 389.0781
788.0580, 403.6523
789.2010, 352.2070
790.3450, 450.7969
791.4880, 158.3711
792.6310, 373.9492
793.7730, 391.5195
794.9160, 73.08984
796.0590, 6.648438
797.2010, 371.1914
798.3430, 257.7227
799.4850, 108.2539
800.6270, 140.7656
801.7690, 24.45312
802.9100, 19.66797
804.0520, 182.6289
805.1930, 129.6875
806.3340, 34.00781
807.4750, 260.2383
808.6160, 70.53516
809.7560, 26.62109
810.8970, 82.74609
812.0370, 196.8477
813.1770, 202.9336
814.3170, 263.9961
815.4570, 39.95312
816.5960, 137.0352
817.7360, 74.01172
818.8750, 188.9570
820.0140, 21.11328
821.1530, 45.77344
822.2920, 0.6328130
823.4310, 146.4492
824.5690, 11.75000
825.7070, 329.0078
826.8460, 15.25391
827.9840, 7.441406
829.1220, 242.0977
830.2590, 76.73828
831.3970, 87.35547
832.5340, 180.0469
833.6710, 4.585938
834.8080, 284.8359
835.9450, 66.24219
837.0820, 279.6250
838.2190, 211.9883
839.3550, 48.66406
840.4910, 39.61719
841.6270, 119.1289
842.7630, 110.0391
843.8990, 64.09375
845.0350, 83.86719
846.1700, 98.09375
847.3060, 78.03125
848.4410, 40.05078
849.5760, 208.8125
850.7100, 201.6523
851.8450, 273.4766
852.9800, 59.71484
854.1140, 38.02344
855.2480, 192.7383
856.3820, 4.562500
857.5160, 253.0938
858.6500, 95.73047
859.7830, 127.5938
860.9170, 314.9570
862.0500, 171.5352
863.1830, 213.1016
864.3160, 326.6523
865.4480, 329.1875
866.5810, 414.7031
867.7130, 215.2070
868.8460, 310.6875
869.9780, 547.1562
871.1100, 62.60547
872.2410, 397.0430
873.3730, 118.4609
874.5050, 124.8633
875.6360, 101.7500
876.7670, 236.5469
877.8980, 300.8281
879.0290, 130.0898
880.1590, 12.33984
881.2900, 208.5625
882.4200, 184.2148
883.5500, 170.8828
884.6800, 193.9688
885.8100, 195.0391
886.9400, 71.08984
888.0690, 33.12500
889.1990, 19.86328
890.3280, 35.89062
891.4570, 97.03516
892.5860, 164.9453
893.7140, 101.8398
894.8430, 170.7188
895.9710, 102.6172
897.1000, 148.4922
898.2280, 198.3789
899.3560, 201.2344
900.4830, 177.0742
901.6110, 155.9023
902.7380, 315.7188
903.8660, 521.5156
904.9930, 364.3125
906.1200, 335.1016
907.2460, 228.8945
908.3730, 255.1992
909.5000, 639.4570
910.6260, 344.2188
911.7520, 522.9609
912.8780, 565.6953
914.0040, 431.4102
915.1290, 596.1289
916.2550, 445.8320
917.3800, 733.5234
918.5050, 468.2031
919.6300, 764.8750
920.7550, 444.5352
921.8800, 391.1875
923.0040, 461.8164
924.1290, 345.4336
925.2530, 451.0469
926.3770, 447.6406
927.5010, 473.2227
928.6250, 579.7891
929.7480, 169.3438
930.8720, 556.4180
931.9950, 291.3555
933.1180, 465.8672
934.2410, 385.3633
935.3640, 355.6445
936.4860, 52.03906
937.6090, 353.3008
938.7310, 253.4453
939.8530, 545.4492
940.9750, 348.7344
942.0970, 284.0234
943.2180, 369.4258
944.3400, 387.3984
945.4610, 371.6328
946.5820, 622.5977
947.7030, 178.0000
948.8240, 514.3906
949.9450, 319.7695
951.0650, 874.6250
952.1860, 599.8672
953.3060, 620.7031
954.4260, 518.0508
955.5460, 727.0430
956.6650, 496.5156
957.7850, 844.8555
958.9040, 562.0781
960.0230, 598.6211
961.1420, 530.9141
962.2610, 377.2188
963.3800, 558.8594
964.4990, 327.1328
965.6170, 201.8906
966.7350, 590.7344
967.8530, 251.6602
968.9710, 69.59766
970.0890, 396.8320
971.2070, 410.4609
972.3240, 541.6797
973.4410, 479.8984
974.5580, 251.0547
975.6750, 326.3242
976.7920, 223.0586
977.9090, 119.3672
979.0250, 268.9570
980.1410, 265.9180
981.2580, 219.8047
982.3740, 19.52344
983.4890, 240.2617
984.6050, 501.4336
985.7200, 152.6055
986.8360, 423.7734
987.9510, 279.3164
989.0660, 437.6016
990.1810, 470.7656
991.2950, 367.4531
992.4100, 264.9609
993.5240, 214.8398
994.6390, 332.8516
995.7530, 296.0039
996.8660, 352.1523
997.9800, 377.4648
999.0940, 426.4492
1000.207, 359.5977
1001.320, 429.7422
1002.433, 318.8945
1003.546, 361.0352
1004.659, 312.1836
1005.772, 354.8438
1006.884, 212.9844
1007.996, 66.98828
1009.108, 248.0234
1010.220, 121.2148
1011.332, 98.36328
1012.444, 329.5234
1013.555, 151.5938
1014.666, 317.6562
1015.777, 227.4727
1016.888, 191.6016
1017.999, 234.7578
1019.110, 359.9180
1020.220, 306.8945
1021.331, 436.9297
1022.441, 275.9375
1023.551, 304.6406
1024.661, 279.2266
1025.770, 269.2227
1026.880, 298.2422
1027.989, 307.9531
1029.098, 299.9805
1030.207, 372.0312
1031.316, 261.2266
1032.425, 262.4258
1033.533, 408.6250
1034.642, 227.8359
1035.750, 280.0391
1036.858, 360.6094
1037.966, 8.785156
1039.073, 402.0469
1040.181, 307.6133
1041.288, 270.6094
1042.396, 471.7109
1043.503, 214.9453
1044.610, 57.18750
1045.716, 600.4297
1046.823, 358.6758
1047.929, 303.5977
1049.036, 326.8555
1050.142, 580.5938
1051.248, 440.8594
1052.353, 438.7031
1053.459, 541.9766
1054.564, 377.2500
1055.670, 195.5352
1056.775, 430.8242
1057.880, 373.0742
1058.985, 565.3711
1060.089, 473.6758
1061.194, 453.1719
1062.298, 612.2891
1063.402, 326.6094
1064.506, 302.9336
1065.610, 267.2734
1066.713, 378.6172
1067.817, 377.7109
1068.920, 408.9219
1070.023, 454.4844
1071.126, 531.8594
1072.229, 506.2500
1073.332, 704.6953
1074.435, 661.1484
1075.537, 908.9648
1076.639, 700.4531
1077.741, 641.3516
1078.843, 763.8828
1079.945, 726.5586
1081.046, 776.4102
1082.148, 769.9609
1083.249, 694.3086
1084.350, 711.1016
1085.451, 558.6953
1086.551, 856.2695
1087.652, 881.8789
1088.752, 821.5039
1089.853, 1004.145
1090.953, 905.8008
1092.053, 808.4648
1093.152, 931.1523
1094.252, 934.8438
1095.351, 947.1602
1096.451, 965.1445
1097.550, 973.6406
1098.649, 978.3828
1099.748, 926.1367
1100.846, 1027.945
1101.945, 824.7773
1103.043, 1002.613
1104.141, 934.4688
1105.239, 732.3203
1106.337, 1154.188
1107.434, 1309.086
1108.532, 1053.992
1109.629, 1076.945
1110.726, 940.9453
1111.823, 1015.957
1112.920, 1045.387
1114.017, 1029.449
1115.113, 1115.523
1116.210, 1117.621
1117.306, 1175.477
1118.402, 1063.852
1119.498, 1256.988
1120.593, 1030.160
1121.689, 976.3398
1122.784, 1086.531
1123.879, 902.7344
1124.974, 820.9531
1126.069, 946.1758
1127.164, 1041.410
1128.259, 673.6523
1129.353, 744.9023
1130.447, 954.1602
1131.541, 687.4297
1132.635, 698.7070
1133.729, 670.9883
1134.822, 457.2852
1135.916, 659.5898
1137.009, 393.8984
1138.102, 459.2227
1139.195, 486.1914
1140.288, 482.5352
1141.380, 387.8945
1142.473, 392.2969
1143.565, 277.7070
1144.657, 120.3945
1145.749, 75.55469
1146.841, 100.0078
1147.932, 44.40234
1149.024, 298.8750
1150.115, 349.3594
1151.206, 233.8477
1152.297, 184.3516
1153.388, 14.13281
1154.479, 2.609375
1155.569, 500.9727
1156.659, 272.5781
1157.750, 245.1914
1158.839, 314.8125
1159.929, 173.5547
1161.019, 100.0156
1162.108, 349.5938
1163.198, 132.1836
1164.287, 205.7812
1165.376, 73.39062
1166.465, 76.00781
1167.553, 7.367188
1168.642, 43.73438
1169.730, 45.03125
1170.818, 89.17188
1171.906, 16.87891
1172.994, 19.28125
1174.082, 64.32031
1175.170, 327.9258
1176.257, 195.5469
1177.344, 51.17969
1178.431, 56.17578
1179.518, 292.4453
1180.605, 8.917969
1181.691, 137.7227
1182.778, 53.62891
1183.864, 82.00391
1184.950, 74.64844
1186.036, 295.3008
1187.122, 243.7031
1188.207, 19.36719
1189.292, 237.3047
1190.378, 61.98438
1191.463, 119.6758
1192.548, 389.3711
1193.632, 263.0781
1194.717, 179.7969
1195.801, 73.51953
1196.886, 13.25391
1197.970, 371.0000
1199.054, 53.75391
1200.137, 247.5156
1201.221, 137.2852
1202.305, 7.066406
1203.388, 92.85547
1204.471, 339.6562
1205.554, 25.53906
1206.637, 141.2656
1207.719, 133.9219
1208.802, 151.8359
1209.884, 61.40234
1210.966, 1.652344
1212.048, 372.0977
1213.130, 138.8594
1214.212, 269.6250
1215.293, 184.4023
1216.374, 37.81641
1217.456, 96.23047
1218.536, 284.7500
1219.617, 199.5430
1220.698, 126.3477
1221.778, 222.1641
1222.859, 209.9844
1223.939, 393.8164
1225.019, 69.65234
1226.099, 115.5000
1227.178, 8.648438
1228.258, 61.20703
1229.337, 99.07031
1230.417, 74.94922
1231.496, 318.8359
1232.574, 236.7227
1233.653, 419.6250
1234.732, 136.5312
1235.810, 331.4492
1236.888, 213.3750
1237.966, 187.3086
1239.044, 79.24609
1240.122, 405.1914
1241.199, 162.1484
1242.277, 1.890625
1243.354, 256.0859
1244.431, 108.0586
1245.508, 11.03516
1246.585, 525.0195
1247.661, 165.7891
1248.738, 365.7891
1249.814, 357.7930
1250.890, 343.8047
1251.966, 141.8203
1253.042, 435.8477
1254.117, 233.8789
1255.193, 229.9141
1256.268, 203.9570
1257.343, 48.01172
1258.418, 31.06641
1259.493, 125.1250
1260.567, 256.1953
1261.642, 402.2695
1262.716, 302.6602
1263.790, 76.75391
1264.864, 537.8867
1265.938, 487.0312
1267.011, 317.1797
1268.085, 26.66797
1269.158, 125.4766
1270.231, 293.0703
1271.304, 196.2305
1272.377, 215.3945
1273.450, 434.5625
1274.522, 413.7539
1275.594, 479.9531
1276.666, 515.4023
