##NAMES=Polylithionite
##RRUFFID=R050132
##IDEAL CHEMISTRY=KLi_2_AlSi_4_O_10_F_2_
##LOCALITY=Brown Derby mine, Ohio City, Gunnison County, Colorado, USA
##OWNER=RRUFF
##SOURCE=Dave Bunk Minerals
##DESCRIPTION=Purple scaly aggregate, polytype 2M1
##STATUS=The identification of this mineral has been confirmed by X-ray diffraction and chemical analysis
##URL=rruff.info/R050132
##MEASURED CHEMISTRY=(K_0.90_Rb_0.10_)(Li_0.62_Al_0.38_)_3_(Si_0.93_Al_0.07_)_4_O_10_(F_0.69_(OH)_0.31_)_2_
##PIN_ID=M00120
##ORIENTATION=Laser parallel to c* (0 0 1). Fiducial mark perpendicular to laser is parallel to -a [-1 0 0]
91.01200, 0.0000000E+00
92.24600, 260.6777
93.48000, 518.4336
94.71400, 698.2793
95.94800, 1023.832
97.18200, 1238.336
98.41600, 1045.479
99.64900, 1266.957
100.8830, 862.0508
102.1160, 992.9727
103.3490, 589.1309
104.5820, 637.5938
105.8150, 337.1465
107.0470, 442.3848
108.2800, 600.6074
109.5120, 670.8184
110.7440, 551.9395
111.9760, 246.4375
113.2080, 542.7910
114.4400, 200.1992
115.6710, 297.8457
116.9030, 268.6152
118.1340, 441.7676
119.3650, 218.4395
120.5960, 32.97656
121.8270, 34.68750
123.0580, 97.58203
124.2880, 25.32031
125.5190, 100.9844
126.7490, 88.34961
127.9790, 58.64648
129.2090, 37.93359
130.4390, 71.03125
131.6680, 46.40430
132.8980, 103.5957
134.1270, 46.99023
135.3560, 88.23828
136.5850, 176.8770
137.8140, 49.31641
139.0430, 59.05859
140.2710, 14.08594
141.5000, 191.3828
142.7280, 250.9395
143.9560, 19.25977
145.1840, 198.7734
146.4120, 194.0312
147.6390, 340.5039
148.8670, 173.1816
150.0940, 362.0547
151.3210, 224.1191
152.5490, 296.4941
153.7750, 200.1797
155.0020, 112.8105
156.2290, 214.1602
157.4550, 317.9102
158.6810, 120.8477
159.9080, 415.8848
161.1340, 548.0137
162.3590, 433.1914
163.5850, 652.4277
164.8110, 850.6719
166.0360, 998.8125
167.2610, 1081.898
168.4860, 1133.965
169.7110, 1480.029
170.9360, 1458.102
172.1610, 1606.191
173.3850, 1768.307
174.6100, 1625.453
175.8340, 2092.627
177.0580, 2054.842
178.2820, 2131.094
179.5050, 1970.391
180.7290, 2068.707
181.9520, 1888.055
183.1760, 2059.445
184.3990, 1779.883
185.6220, 1613.355
186.8450, 1464.873
188.0670, 1311.260
189.2900, 1285.045
190.5120, 1150.713
191.7340, 1150.434
192.9560, 1196.207
194.1780, 1180.307
195.4000, 1206.641
196.6220, 1264.855
197.8430, 1243.844
199.0640, 1273.887
200.2860, 1302.979
201.5070, 1010.121
202.7270, 970.3105
203.9480, 962.5527
205.1690, 691.8398
206.3890, 768.1738
207.6090, 710.5566
208.8290, 720.9844
210.0490, 776.4551
211.2690, 761.9707
212.4890, 865.4590
213.7080, 864.3359
214.9280, 852.0215
216.1470, 826.1348
217.3660, 771.2520
218.5850, 591.7012
219.8030, 437.6250
221.0220, 356.4941
222.2400, 568.9141
223.4590, 502.1992
224.6770, 438.2520
225.8950, 450.1035
227.1120, 293.4570
228.3300, 461.9453
229.5480, 619.3711
230.7650, 631.8262
231.9820, 652.3672
233.1990, 817.0410
234.4160, 841.8066
235.6330, 1105.604
236.8490, 1106.439
238.0660, 1123.861
239.2820, 1344.436
240.4980, 1489.725
241.7140, 1614.535
242.9300, 1611.748
244.1460, 1766.287
245.3610, 1792.100
246.5770, 2161.137
247.7920, 2303.367
249.0070, 2528.771
250.2220, 2456.332
251.4370, 2917.041
252.6510, 3094.885
253.8660, 3565.736
255.0800, 3988.715
256.2940, 4299.770
257.5080, 5012.941
258.7220, 5572.189
259.9360, 6114.488
261.1490, 6528.885
262.3630, 6495.375
263.5760, 6391.955
264.7890, 6194.609
266.0020, 5571.346
267.2150, 5015.158
268.4270, 4271.381
269.6400, 3644.963
270.8520, 3228.982
272.0640, 2736.064
273.2760, 2355.221
274.4880, 2001.746
275.7000, 1760.453
276.9120, 1393.752
278.1230, 1259.244
279.3340, 1033.637
280.5450, 1022.076
281.7560, 935.6055
282.9670, 707.1270
284.1780, 694.6895
285.3880, 664.2910
286.5980, 565.9277
287.8090, 523.5996
289.0190, 476.3086
290.2290, 417.7969
291.4380, 497.5703
292.6480, 532.3750
293.8570, 562.2109
295.0670, 435.0762
296.2760, 644.9707
297.4850, 495.8926
298.6930, 573.8379
299.9020, 408.8105
301.1110, 492.8047
302.3190, 353.8164
303.5270, 536.8438
304.7350, 291.9023
305.9430, 429.9766
307.1510, 281.0664
308.3580, 399.1680
309.5660, 152.2832
310.7730, 381.4434
311.9800, 512.6152
313.1870, 322.7988
314.3940, 445.9980
315.6010, 573.2109
316.8070, 197.4395
318.0130, 133.6797
319.2200, 457.9336
320.4260, 251.2031
321.6310, 403.4863
322.8370, 189.7793
324.0430, 196.0879
325.2480, 306.4082
326.4540, 110.7422
327.6590, 280.0879
328.8640, 381.4453
330.0680, 209.8164
331.2730, 69.19727
332.4780, 67.41016
333.6820, 37.97461
334.8860, 167.3652
336.0900, 111.7695
337.2940, 77.81641
338.4980, 197.5820
339.7010, 61.99023
340.9050, 309.5918
342.1080, 140.2461
343.3110, 185.9316
344.5140, 9.341797
345.7170, 179.3848
346.9200, 43.15234
348.1220, 79.93164
349.3240, 45.63867
350.5270, 37.44727
351.7290, 144.2988
352.9310, 2.484375
354.1320, 145.9355
355.3340, 106.3711
356.5350, 258.3652
357.7370, 109.7422
358.9380, 55.31055
360.1390, 267.8945
361.3400, 205.8984
362.5400, 18.91211
363.7410, 178.3555
364.9410, 268.1836
366.1410, 207.9629
367.3410, 444.7305
368.5410, 445.4473
369.7410, 504.2715
370.9400, 515.7930
372.1400, 638.5781
373.3390, 778.8047
374.5380, 550.8105
375.7370, 753.5391
376.9360, 847.9688
378.1350, 634.7891
379.3330, 951.2891
380.5310, 1018.027
381.7300, 937.7715
382.9280, 1038.543
384.1260, 1096.338
385.3230, 1147.150
386.5210, 1253.980
387.7180, 1307.826
388.9160, 1531.686
390.1130, 1581.998
391.3100, 1804.439
392.5060, 1795.332
393.7030, 1852.232
394.9000, 2005.143
396.0960, 2339.064
397.2920, 2186.988
398.4880, 2340.922
399.6840, 2348.863
400.8800, 2399.812
402.0750, 2556.766
403.2710, 2667.727
404.4660, 2735.691
405.6610, 2546.664
406.8560, 2492.641
408.0510, 2663.623
409.2450, 2268.609
410.4400, 2378.602
411.6340, 2163.596
412.8280, 2090.596
414.0220, 1883.613
415.2160, 1852.633
416.4100, 1560.656
417.6030, 1288.682
418.7970, 1351.717
419.9900, 1287.754
421.1830, 1223.793
422.3760, 1084.842
423.5690, 1143.891
424.7610, 1062.943
425.9540, 965.0039
427.1460, 832.0664
428.3380, 723.1328
429.5300, 879.1992
430.7220, 855.2676
431.9140, 918.3379
433.1050, 879.4102
434.2970, 959.4844
435.4880, 876.5566
436.6790, 823.6309
437.8700, 886.7070
439.0610, 949.7832
440.2510, 907.8613
441.4420, 903.9375
442.6320, 1065.014
443.8220, 774.0938
445.0120, 903.1699
446.2020, 717.2461
447.3910, 1067.418
448.5810, 933.4961
449.7700, 856.5703
450.9600, 844.6445
452.1490, 962.7207
453.3370, 909.3438
454.5260, 776.5977
455.7150, 877.6680
456.9030, 775.7383
458.0910, 667.8047
459.2800, 759.8730
460.4670, 660.9395
461.6550, 687.0020
462.8430, 930.1191
464.0300, 787.1797
465.2180, 715.2383
466.4050, 826.2969
467.5920, 745.3516
468.7790, 819.4062
469.9650, 726.4570
471.1520, 683.5059
472.3380, 930.5547
473.5250, 932.5996
474.7110, 808.6445
475.8970, 1010.748
477.0820, 806.5059
478.2680, 721.5410
479.4540, 784.5762
480.6390, 748.9453
481.8240, 590.9746
483.0090, 546.0020
484.1940, 420.0977
485.3780, 541.8848
486.5630, 395.1094
487.7470, 555.6992
488.9320, 237.2051
490.1160, 327.1113
491.3000, 35.98047
492.4830, 276.6562
493.6670, 20.25586
494.8500, 114.7227
496.0340, 58.69727
497.2170, 65.68555
498.4000, 99.34570
499.5820, 123.4434
500.7650, 92.67383
501.9480, 8.421875
503.1300, 26.31250
504.3120, 60.33594
505.4940, 43.07812
506.6760, 106.6035
507.8580, 92.29102
509.0390, 104.9785
510.2210, 174.6660
511.4020, 22.64062
512.5830, 85.97656
513.7640, 67.63281
514.9450, 243.7598
516.1250, 48.70898
517.3060, 188.1777
518.4860, 25.64648
519.6660, 62.11133
520.8460, 2.421875
522.0260, 170.0293
523.2060, 173.4844
524.3850, 132.9414
525.5650, 460.4062
526.7440, 455.8711
527.9230, 338.3398
529.1020, 315.8105
530.2810, 310.2793
531.4590, 411.7559
532.6380, 513.2480
533.8160, 538.7402
534.9940, 604.9863
536.1720, 629.4590
537.3500, 681.2402
538.5270, 623.7500
539.7050, 673.2773
540.8820, 600.8105
542.0590, 616.3730
543.2360, 604.5293
544.4130, 774.5742
545.5900, 796.8457
546.7660, 881.8750
547.9430, 970.5352
549.1190, 1108.209
550.2950, 1208.459
551.4710, 1163.672
552.6470, 1325.443
553.8220, 1342.254
554.9980, 1397.109
556.1730, 1622.965
557.3480, 1347.828
558.5230, 1600.695
559.6980, 1583.596
560.8730, 1611.502
562.0470, 1690.408
563.2220, 1596.318
564.3960, 1773.258
565.5700, 1588.205
566.7440, 1602.186
567.9170, 1394.211
569.0910, 1517.250
570.2640, 1144.287
571.4380, 1271.324
572.6110, 1029.361
573.7840, 713.4180
574.9570, 648.4727
576.1290, 614.5273
577.3020, 684.5859
578.4740, 498.6426
579.6460, 632.7012
580.8180, 520.7598
581.9900, 383.8203
583.1620, 327.8867
584.3330, 229.9531
585.5040, 274.0195
586.6760, 357.0840
587.8470, 59.84766
589.0180, 66.17773
590.1880, 72.20312
591.3590, 252.2266
592.5290, 107.2520
593.7000, 102.7227
594.8700, 59.24414
596.0400, 106.2070
597.2090, 299.1738
598.3790, 228.1387
599.5490, 188.1074
600.7180, 390.0703
601.8870, 224.0352
603.0560, 36.02734
604.2250, 117.0293
605.3940, 340.0293
606.5620, 235.0352
607.7300, 313.0371
608.8990, 377.0410
610.0670, 296.0469
611.2350, 450.0527
612.4020, 746.0547
613.5700, 506.0547
614.7370, 694.0527
615.9050, 662.0469
617.0720, 667.0605
618.2390, 653.0742
619.4060, 407.0840
620.5720, 526.0918
621.7390, 824.1211
622.9050, 831.1484
624.0710, 632.1699
625.2370, 730.2715
626.4030, 646.4102
627.5690, 690.5938
628.7340, 829.7832
629.9000, 693.0176
631.0650, 683.2676
632.2300, 577.4512
633.3950, 478.7402
634.5600, 539.4785
635.7240, 640.7773
636.8890, 260.6875
638.0530, 695.8770
639.2170, 506.3770
640.3810, 596.4688
641.5450, 291.3711
642.7080, 270.2324
643.8720, 134.6699
645.0350, 188.7910
646.1980, 60.76562
647.3610, 364.1074
648.5240, 30.44531
649.6870, 413.7773
650.8490, 358.1094
652.0120, 195.3379
653.1740, 261.8691
654.3360, 538.1387
655.4980, 225.9492
656.6600, 335.9824
657.8210, 94.29688
658.9830, 359.9121
660.1440, 285.4863
661.3050, 390.0840
662.4660, 525.0430
663.6270, 293.3438
664.7870, 254.4805
665.9480, 139.7773
667.1080, 466.3086
668.2680, 283.6680
669.4280, 241.9551
670.5880, 422.8320
671.7480, 340.2051
672.9070, 577.7305
674.0670, 591.5605
675.2260, 813.5195
676.3850, 644.1426
677.5440, 964.0078
678.7030, 994.3418
679.8610, 1178.436
681.0200, 1114.172
682.1780, 1323.535
683.3360, 1576.527
684.4940, 1934.727
685.6520, 1943.895
686.8090, 2201.457
687.9670, 2634.988
689.1240, 2752.438
690.2810, 2790.188
691.4380, 3394.305
692.5950, 3677.250
693.7520, 4150.766
694.9080, 4722.176
696.0650, 5409.109
697.2210, 5970.773
698.3770, 6807.664
699.5330, 7249.766
700.6880, 8199.148
701.8440, 8934.133
702.9990, 10078.18
704.1550, 11029.39
705.3100, 12198.70
706.4650, 13171.87
707.6190, 14162.16
708.7740, 14967.18
709.9290, 15678.19
711.0830, 16078.19
712.2370, 15499.27
713.3910, 14376.81
714.5450, 13043.77
715.6980, 11508.62
716.8520, 9917.543
718.0050, 8523.199
719.1580, 7308.094
720.3110, 6211.359
721.4640, 5035.523
722.6170, 4547.383
723.7700, 3802.309
724.9220, 3391.383
726.0740, 2774.719
727.2260, 2544.418
728.3780, 2191.199
729.5300, 2123.957
730.6810, 1911.699
731.8330, 1737.590
732.9840, 1576.258
734.1350, 1430.957
735.2860, 1570.520
736.4370, 1430.992
737.5880, 1477.035
738.7380, 1494.801
739.8880, 1355.746
741.0390, 1426.387
742.1890, 1599.660
743.3380, 1621.012
744.4880, 1698.266
745.6380, 1817.098
746.7870, 1606.715
747.9360, 1583.246
749.0850, 1561.152
750.2340, 1353.617
751.3830, 1641.059
752.5310, 1577.488
753.6800, 1606.902
754.8280, 1524.293
755.9760, 1498.000
757.1240, 1448.938
758.2720, 1404.750
759.4190, 1283.066
760.5670, 1246.367
761.7140, 1073.652
762.8610, 961.9102
764.0080, 993.1562
765.1550, 1049.383
766.3020, 742.5859
767.4480, 761.7695
768.5950, 643.9375
769.7410, 706.0820
770.8870, 770.2109
772.0330, 487.3203
773.1780, 405.4258
774.3240, 610.5117
775.4690, 446.5820
776.6140, 413.6250
777.7590, 467.6914
778.9040, 449.7695
780.0490, 686.8594
781.1940, 508.9453
782.3380, 428.0195
783.4820, 743.0664
784.6260, 717.1094
785.7700, 515.1328
786.9140, 523.1367
788.0580, 692.1250
789.2010, 415.0820
790.3450, 693.0391
791.4880, 405.0000
792.6310, 695.9375
793.7730, 460.9297
794.9160, 455.8984
796.0590, 350.8477
797.2010, 106.7773
798.3430, 180.6836
799.4850, 67.57812
800.6270, 279.4453
801.7690, 52.28516
802.9100, 215.1016
804.0520, 139.8906
805.1930, 181.6602
806.3340, 257.4023
807.4750, 79.12109
808.6160, 16.18750
809.7560, 141.4570
810.8970, 85.07422
812.0370, 69.66797
813.1770, 118.2266
814.3170, 80.76562
815.4570, 30.72266
816.5960, 56.72266
817.7360, 68.85938
818.8750, 36.48047
820.0140, 216.2109
821.1530, 47.93750
822.2920, 27.94531
823.4310, 127.1133
824.5690, 1.851563
825.7070, 175.8672
826.8460, 89.98828
827.9840, 107.1875
829.1220, 104.4648
830.2590, 129.8359
831.3970, 152.6758
832.5340, 62.16406
833.6710, 14.62109
834.8080, 88.96094
835.9450, 45.36719
837.0820, 144.6680
838.2190, 52.94141
839.3550, 76.81250
840.4910, 32.34766
841.6270, 97.53125
842.7630, 143.4922
843.8990, 2.582031
845.0350, 331.2891
846.1700, 243.1328
847.3060, 279.7930
848.4410, 32.40234
849.5760, 83.33984
850.7100, 216.0547
851.8450, 44.74609
852.9800, 239.4062
854.1140, 60.04688
855.2480, 219.6562
856.3820, 60.24609
857.5160, 0.1953130
858.6500, 329.4961
859.7830, 185.9922
860.9170, 147.4688
862.0500, 82.91406
863.1830, 449.3359
864.3160, 286.7578
865.4480, 415.1484
866.5810, 31.51953
867.7130, 97.86328
868.8460, 107.1797
869.9780, 212.5000
871.1100, 37.79688
872.2410, 44.07031
873.3730, 108.3086
874.5050, 168.5273
875.6360, 122.7148
876.7670, 85.11328
877.8980, 17.03125
879.0290, 43.00781
880.1590, 52.02344
881.2900, 126.0039
882.4200, 13.96484
883.5500, 17.89453
884.6800, 93.79297
885.8100, 229.6641
886.9400, 244.5195
888.0690, 362.3555
889.1990, 250.1641
890.3280, 267.9531
891.4570, 111.7227
892.5860, 178.4688
893.7140, 188.1914
894.8430, 218.8945
895.9710, 281.0039
897.1000, 298.3398
898.2280, 349.0352
899.3560, 302.7109
900.4830, 227.3672
901.6110, 595.0078
902.7380, 430.6211
903.8660, 211.2148
904.9930, 481.7930
906.1200, 370.3477
907.2460, 709.9258
908.3730, 662.4766
909.5000, 589.0156
910.6260, 842.5391
911.7520, 997.0430
912.8780, 664.5312
914.0040, 690.1602
915.1290, 630.6172
916.2550, 523.0625
917.3800, 701.4844
918.5050, 831.9219
919.6300, 536.3438
920.7550, 686.7500
921.8800, 656.1328
923.0040, 229.5000
924.1290, 496.8438
925.2530, 403.1758
926.3770, 470.4805
927.5010, 573.7773
928.6250, 453.0430
929.7480, 241.2969
930.8720, 440.5352
931.9950, 628.7539
933.1180, 332.5977
934.2410, 528.7266
935.3640, 648.2344
936.4860, 508.5703
937.6090, 594.6484
938.7310, 493.7734
939.8530, 490.6250
940.9750, 655.6289
942.0970, 564.6875
943.2180, 653.1289
944.3400, 329.1094
945.4610, 620.9336
946.5820, 435.4336
947.7030, 516.8086
948.8240, 552.4883
949.9450, 626.9102
951.0650, 700.8398
952.1860, 827.9844
953.3060, 867.4688
954.4260, 908.3047
955.5460, 683.4922
956.6650, 734.4531
957.7850, 771.4180
958.9040, 360.9727
960.0230, 759.5391
961.1420, 322.1680
962.2610, 356.4727
963.3800, 515.3867
964.4990, 659.4570
965.6170, 349.9336
966.7350, 600.5000
967.8530, 416.5156
968.9710, 244.7852
970.0890, 299.8086
971.2070, 193.5977
972.3240, 179.1172
973.4410, 195.8984
974.5580, 307.8438
975.6750, 152.4688
976.7920, 328.9844
977.9090, 192.6250
979.0250, 326.1094
980.1410, 264.8516
981.2580, 34.41016
982.3740, 179.3125
983.4890, 229.9258
984.6050, 41.06641
985.7200, 96.76953
986.8360, 67.19141
987.9510, 157.2383
989.0660, 44.17969
990.1810, 271.8594
991.2950, 227.7969
992.4100, 47.48438
993.5240, 254.1719
994.6390, 210.7344
995.7530, 375.1289
996.8660, 427.2383
997.9800, 329.8750
999.0940, 445.5078
1000.207, 541.1367
1001.320, 370.7656
1002.433, 398.9414
1003.546, 318.1562
1004.659, 288.3438
1005.772, 231.4922
1006.884, 291.2891
1007.996, 350.4961
1009.108, 417.9570
1010.220, 446.1367
1011.332, 537.4062
1012.444, 460.6289
1013.555, 564.4375
1014.666, 517.8359
1015.777, 199.6602
1016.888, 408.1367
1017.999, 431.6836
1019.110, 266.8320
1020.220, 435.4062
1021.331, 323.9844
1022.441, 133.5586
1023.551, 343.1328
1024.661, 258.7031
1025.770, 501.9375
1026.880, 453.4961
1027.989, 138.0586
1029.098, 313.4688
1030.207, 263.0391
1031.316, 459.7148
1032.425, 226.2812
1033.533, 196.9141
1034.642, 326.4805
1035.750, 83.04297
1036.858, 227.6094
1037.966, 81.16797
1039.073, 255.7344
1040.181, 352.8711
1041.288, 166.4375
1042.396, 208.9961
1043.503, 237.1953
1044.610, 213.8750
1045.716, 256.5820
1046.823, 11.75000
1047.929, 456.6211
1049.036, 241.2188
1050.142, 696.1328
1051.248, 602.6289
1052.353, 314.1953
1053.459, 90.75391
1054.564, 576.3164
1055.670, 549.0938
1056.775, 201.6523
1057.880, 419.2148
1058.985, 288.7773
1060.089, 424.3984
1061.194, 394.9609
1062.298, 463.5234
1063.402, 460.2930
1064.506, 321.8594
1065.610, 436.4258
1066.713, 480.9922
1067.817, 392.5625
1068.920, 576.1367
1070.023, 736.7070
1071.126, 514.2891
1072.229, 733.8711
1073.332, 961.5898
1074.435, 913.3555
1075.537, 1041.941
1076.639, 1021.559
1077.741, 891.2578
1078.843, 984.8672
1079.945, 1030.797
1081.046, 1172.414
1082.148, 1095.031
1083.249, 1100.656
1084.350, 870.2969
1085.451, 1148.965
1086.551, 1032.660
1087.652, 1216.367
1088.752, 1090.223
1089.853, 1085.000
1090.953, 972.8008
1092.053, 1011.602
1093.152, 1016.414
1094.252, 1134.289
1095.351, 1069.160
1096.451, 1217.348
1097.550, 1107.309
1098.649, 798.3125
1099.748, 1074.340
1100.846, 967.3555
1101.945, 1071.590
1103.043, 1196.645
1104.141, 1011.973
1105.239, 1027.035
1106.337, 1229.109
1107.434, 1104.293
1108.532, 1015.422
1109.629, 1067.605
1110.726, 1171.840
1111.823, 883.1211
1112.920, 1097.395
1114.017, 1182.828
1115.113, 836.1016
1116.210, 1043.398
1117.306, 1194.703
1118.402, 885.0039
1119.498, 1038.312
1120.593, 1276.629
1121.689, 932.9414
1122.784, 789.2656
1123.879, 955.5898
1124.974, 928.7500
1126.069, 842.0938
1127.164, 954.4336
1128.259, 916.7812
1129.353, 912.1758
1130.447, 721.5312
1131.541, 666.8906
1132.635, 845.2500
1133.729, 540.6133
1134.822, 324.9883
1135.916, 489.3672
1137.009, 351.7539
1138.102, 369.1445
1139.195, 286.5469
1140.288, 323.9453
1141.380, 307.3516
1142.473, 334.7656
1143.565, 416.2031
1144.657, 230.6641
1145.749, 277.1289
1146.841, 16.59766
1147.932, 241.0703
1149.024, 262.5508
1150.115, 38.04297
1151.206, 201.5352
1152.297, 59.03125
1153.388, 234.5273
1154.479, 133.0312
1155.569, 297.5352
1156.659, 236.0391
1157.750, 27.55078
1158.839, 233.0586
1159.929, 184.4219
1161.019, 114.0117
1162.108, 20.55859
1163.198, 50.86719
1164.287, 24.29297
1165.376, 159.7500
1166.465, 167.2109
1167.553, 52.67578
1168.642, 103.1445
1169.730, 207.6133
1170.818, 144.8828
1171.906, 88.54688
1172.994, 99.98438
1174.082, 28.57812
1175.170, 18.84375
1176.257, 13.28906
1177.344, 22.61328
1178.431, 49.87891
1179.518, 39.54688
1180.605, 0.9765630
1181.691, 147.5977
1182.778, 149.7539
1183.864, 294.1055
1184.950, 289.4609
1186.036, 5.816406
1187.122, 181.1680
1188.207, 152.5312
1189.292, 249.8867
1190.378, 42.24219
1191.463, 233.6055
1192.548, 203.9648
1193.632, 9.332031
1194.717, 278.6914
1195.801, 139.0469
1196.886, 114.4062
1197.970, 159.7734
1199.054, 305.1328
1200.137, 150.4961
1201.221, 218.8672
1202.305, 63.23047
1203.388, 31.59766
1204.471, 22.96875
1205.554, 501.3359
1206.637, 190.2969
1207.719, 79.02734
1208.802, 256.1914
1209.884, 50.58594
1210.966, 285.6055
1212.048, 333.8008
1213.130, 215.9922
1214.212, 95.19141
1215.293, 107.1172
1216.374, 193.4609
1217.456, 131.6562
1218.536, 57.85156
1219.617, 263.0469
1220.698, 208.2422
1221.778, 126.5117
1222.859, 234.7070
1223.939, 200.8984
1225.019, 455.0898
1226.099, 17.28516
1227.178, 243.4766
1228.258, 224.6641
1229.337, 77.85547
1230.417, 146.0430
1231.496, 33.39844
1232.574, 259.4062
1233.653, 122.4141
1234.732, 219.6914
1235.810, 148.7930
1236.888, 74.55469
1237.966, 370.6523
1239.044, 242.3750
1240.122, 596.4688
1241.199, 87.55859
1242.277, 288.2148
1243.354, 562.2969
1244.431, 246.3867
1245.508, 309.4688
1246.585, 293.9062
1247.661, 226.9922
1248.738, 245.1094
1249.814, 133.5000
1250.890, 499.6250
1251.966, 404.7383
1253.042, 332.8477
1254.117, 171.9609
1255.193, 322.0664
1256.268, 313.2578
1257.343, 318.3867
1258.418, 102.6289
1259.493, 236.7461
1260.567, 311.8672
1261.642, 135.9805
1262.716, 251.4414
1263.790, 252.4961
1264.864, 376.3750
1265.938, 353.2695
1267.011, 422.3633
1268.085, 485.5508
