##NAMES=Polylithionite
##RRUFFID=R050132
##IDEAL CHEMISTRY=KLi_2_AlSi_4_O_10_F_2_
##LOCALITY=Brown Derby mine, Ohio City, Gunnison County, Colorado, USA
##OWNER=RRUFF
##SOURCE=Dave Bunk Minerals
##DESCRIPTION=Purple scaly aggregate, polytype 2M1
##STATUS=The identification of this mineral has been confirmed by X-ray diffraction and chemical analysis
##URL=rruff.info/R050132
##MEASURED CHEMISTRY=(K_0.90_Rb_0.10_)(Li_0.62_Al_0.38_)_3_(Si_0.93_Al_0.07_)_4_O_10_(F_0.69_(OH)_0.31_)_2_
##PIN_ID=L00606
##ORIENTATION=Laser parallel to (1 0 1). Fiducial mark perpendicular to laser is parallel to -b [0 -1 0]
157.4550, 0.0000000E+00
158.6810, 83.26074
159.9080, 10.43652
161.1340, 56.75488
162.3590, 318.9238
163.5850, 597.8428
164.8110, 1316.706
166.0360, 1717.547
167.2610, 2754.762
168.4860, 3542.400
169.7110, 4758.002
170.9360, 5995.132
172.1610, 7441.688
173.3850, 8861.725
174.6100, 10269.55
175.8340, 11340.71
177.0580, 12702.00
178.2820, 13499.52
179.5050, 13926.03
180.7290, 13920.38
181.9520, 13693.57
183.1760, 13279.31
184.3990, 12544.82
185.6220, 11968.26
186.8450, 11366.96
188.0670, 10955.35
189.2900, 10688.97
190.5120, 10491.44
191.7340, 9972.460
192.9560, 9677.760
194.1780, 9353.121
195.4000, 8648.348
196.6220, 8277.294
197.8430, 7547.814
199.0640, 6639.133
200.2860, 6130.924
201.5070, 5636.598
202.7270, 5056.741
203.9480, 4718.154
205.1690, 4495.816
206.3890, 4176.997
207.6090, 4244.110
208.8290, 4044.220
210.0490, 4161.495
211.2690, 3992.412
212.4890, 4031.955
213.7080, 3826.225
214.9280, 3893.298
216.1470, 3745.250
217.3660, 3593.146
218.5850, 3593.044
219.8030, 3546.992
221.0220, 3802.037
222.2400, 4012.221
223.4590, 4154.576
224.6770, 4357.145
225.8950, 4881.955
227.1120, 5344.043
228.3300, 5916.431
229.5480, 6459.152
230.7650, 6912.197
231.9820, 7652.506
233.1990, 8075.247
234.4160, 8495.573
235.6330, 9293.574
236.8490, 9577.595
238.0660, 10424.73
239.2820, 11119.81
240.4980, 11822.96
241.7140, 12505.17
242.9300, 13318.32
244.1460, 13904.30
245.3610, 14622.91
246.5770, 15319.64
247.7920, 16142.82
249.0070, 17050.47
250.2220, 18234.54
251.4370, 19711.75
252.6510, 21444.56
253.8660, 23127.75
255.0800, 25008.53
256.2940, 26965.16
257.5080, 28637.51
258.7220, 30075.12
259.9360, 30916.19
261.1490, 30729.55
262.3630, 29526.68
263.5760, 27428.75
264.7890, 24868.64
266.0020, 22021.58
267.2150, 19143.56
268.4270, 16568.56
269.6400, 13723.59
270.8520, 11851.63
272.0640, 9964.676
273.2760, 8245.699
274.4880, 7005.696
275.7000, 5984.644
276.9120, 5094.527
278.1230, 4474.322
279.3340, 4005.012
280.5450, 3521.586
281.7560, 3133.616
282.9670, 2790.048
284.1780, 2497.552
285.3880, 2218.620
286.5980, 1967.564
287.8090, 1726.384
289.0190, 1683.081
290.2290, 1615.656
291.4380, 1503.109
292.6480, 1458.401
293.8570, 1277.655
295.0670, 1342.751
296.2760, 1160.729
297.4850, 1130.589
298.6930, 1051.334
299.9020, 895.9658
301.1110, 896.4834
302.3190, 900.8877
303.5270, 821.0195
304.7350, 742.0439
305.9430, 464.8809
307.1510, 460.7451
308.3580, 245.9395
309.5660, 383.3486
310.7730, 314.7686
311.9800, 166.0371
313.1870, 219.0234
314.3940, 32.62402
315.6010, 57.74316
316.8070, 24.69434
318.0130, 75.77148
319.2200, 0.5634770
320.4260, 114.0977
321.6310, 176.4482
322.8370, 218.6670
324.0430, 233.0791
325.2480, 241.6680
326.4540, 174.9365
327.6590, 202.9873
328.8640, 122.0674
330.0680, 68.17969
331.2730, 100.3291
332.4780, 269.5449
333.6820, 228.8848
334.8860, 108.3506
336.0900, 411.9238
337.2940, 232.6914
338.4980, 348.8643
339.7010, 193.7324
340.9050, 360.0098
342.1080, 433.4951
343.3110, 228.2168
344.5140, 369.1367
345.7170, 429.3105
346.9200, 398.5342
348.1220, 337.6973
349.3240, 282.7520
350.5270, 198.7139
351.7290, 263.1406
352.9310, 167.8711
354.1320, 207.3057
355.3340, 31.29590
356.5350, 138.5664
357.7370, 110.5469
358.9380, 87.28613
360.1390, 175.5918
361.3400, 106.8662
362.5400, 197.7939
363.7410, 268.5928
364.9410, 356.1816
366.1410, 399.2314
367.3410, 493.4785
368.5410, 630.5664
369.7410, 796.4980
370.9400, 842.2822
372.1400, 857.9180
373.3390, 1148.411
374.5380, 1195.762
375.7370, 1275.975
376.9360, 1213.051
378.1350, 1366.996
379.3330, 1463.318
380.5310, 1585.491
381.7300, 1786.028
382.9280, 1936.325
384.1260, 2150.369
385.3230, 2223.028
386.5210, 2380.264
387.7180, 2409.120
388.9160, 2611.677
390.1130, 2818.855
391.3100, 2836.664
392.5060, 2978.976
393.7030, 3151.832
394.9000, 3311.134
396.0960, 3437.964
397.2920, 3516.232
398.4880, 3669.026
399.6840, 3836.411
400.8800, 3836.422
402.0750, 3976.136
403.2710, 3762.672
404.4660, 3973.046
405.6610, 3919.290
406.8560, 3698.444
408.0510, 3463.529
409.2450, 3347.551
410.4400, 3171.510
411.6340, 2989.402
412.8280, 2833.234
414.0220, 2553.000
415.2160, 2312.703
416.4100, 2034.343
417.6030, 1983.918
418.7970, 1746.429
419.9900, 1523.878
421.1830, 1576.265
422.3760, 1437.589
423.5690, 1364.854
424.7610, 1304.056
425.9540, 1298.197
427.1460, 1303.280
428.3380, 1197.305
429.5300, 1194.271
430.7220, 1340.181
431.9140, 1252.034
433.1050, 1267.831
434.2970, 1363.571
435.4880, 1260.258
436.6790, 1208.890
437.8700, 1328.469
439.0610, 1283.995
440.2510, 1463.467
441.4420, 1413.059
442.6320, 1187.257
443.8220, 1315.576
445.0120, 1248.845
446.2020, 1086.064
447.3910, 1101.254
448.5810, 1105.409
449.7700, 1234.526
450.9600, 1178.594
452.1490, 1287.600
453.3370, 1372.539
454.5260, 1220.405
455.7150, 1357.196
456.9030, 1398.908
458.0910, 1231.105
459.2800, 1195.378
460.4670, 1229.845
461.6550, 1270.720
462.8430, 1270.062
464.0300, 1259.595
465.2180, 1292.946
466.4050, 1228.236
467.5920, 1218.205
468.7790, 1216.217
469.9650, 1079.000
471.1520, 1117.623
472.3380, 1040.868
473.5250, 1110.098
474.7110, 1134.893
475.8970, 1099.651
477.0820, 1145.551
478.2680, 1040.607
479.4540, 1057.205
480.6390, 850.6523
481.8240, 931.4160
483.0090, 854.5254
484.1940, 538.8164
485.3780, 645.1143
486.5630, 456.9268
487.7470, 373.5293
488.9320, 184.9990
490.1160, 65.04785
491.3000, 194.5703
492.4830, 50.20898
493.6670, 64.79883
494.8500, 29.97168
496.0340, 21.11816
497.2170, 17.06836
498.4000, 203.2871
499.5820, 302.9170
500.7650, 255.8857
501.9480, 176.6279
503.1300, 182.2959
504.3120, 106.2363
505.4940, 11.02148
506.6760, 40.12012
507.8580, 37.15039
509.0390, 233.0625
510.2210, 386.1211
511.4020, 302.7549
512.5830, 286.4824
513.7640, 542.1689
514.9450, 450.8145
516.1250, 643.4209
517.3060, 603.9873
518.4860, 634.5166
519.6660, 662.0059
520.8460, 745.4600
522.0260, 767.8779
523.2060, 808.2607
524.3850, 838.6084
525.5650, 761.9238
526.7440, 907.2070
527.9230, 859.4600
529.1020, 969.6846
530.2810, 899.8828
531.4590, 948.0586
532.6380, 807.2129
533.8160, 914.3477
534.9940, 902.4658
536.1720, 877.6045
537.3500, 846.7480
538.5270, 909.8809
539.7050, 989.0596
540.8820, 938.2529
542.0590, 1001.502
543.2360, 1028.756
544.4130, 1142.091
545.5900, 1237.432
546.7660, 1359.831
547.9430, 1497.241
549.1190, 1689.682
550.2950, 1879.606
551.4710, 2056.613
552.6470, 2327.009
553.8220, 2458.607
554.9980, 2682.113
556.1730, 2742.638
557.3480, 2861.172
558.5230, 2896.742
559.6980, 2894.384
560.8730, 3002.077
562.0470, 3159.777
563.2220, 3128.521
564.3960, 3061.234
565.5700, 2908.145
566.7440, 2730.040
567.9170, 2553.965
569.0910, 2314.917
570.2640, 2083.889
571.4380, 1837.882
572.6110, 1589.891
573.7840, 1454.928
574.9570, 1258.280
576.1290, 1111.050
577.3020, 1027.146
578.4740, 909.2578
579.6460, 939.3809
580.8180, 671.5166
581.9900, 715.6689
583.1620, 656.8350
584.3330, 526.0332
585.5040, 372.2549
586.6760, 459.5186
587.8470, 500.8301
589.0180, 545.1543
590.1880, 454.4912
591.3590, 500.0879
592.5290, 497.5723
593.7000, 524.6719
594.8700, 509.1211
596.0400, 586.5889
597.2090, 562.0879
598.3790, 736.6396
599.5490, 777.2178
600.7180, 696.8164
601.8870, 933.4902
603.0560, 887.2227
604.2250, 1121.993
605.3940, 1028.852
606.5620, 1032.816
607.7300, 1076.885
608.8990, 1079.837
610.0670, 1154.602
611.2350, 1176.812
612.4020, 1331.332
613.5700, 1381.939
614.7370, 1517.623
615.9050, 1524.438
617.0720, 1588.392
618.2390, 1564.465
619.4060, 1543.656
620.5720, 1512.025
621.7390, 1650.521
622.9050, 1569.184
624.0710, 1646.963
625.2370, 1821.907
626.4030, 1858.037
627.5690, 1897.324
628.7340, 1998.802
629.9000, 2053.234
631.0650, 1894.492
632.2300, 1945.505
633.3950, 1886.275
634.5600, 2005.341
635.7240, 1863.533
636.8890, 1787.250
638.0530, 1944.348
639.2170, 1735.557
640.3810, 1635.219
641.5450, 1230.098
642.7080, 1395.261
643.8720, 1087.307
645.0350, 1159.555
646.1980, 1095.795
647.3610, 1022.111
648.5240, 1078.836
649.6870, 1114.387
650.8490, 1143.573
652.0120, 1199.895
653.1740, 1278.649
654.3360, 1316.187
655.4980, 1408.757
656.6600, 1508.358
657.8210, 1587.994
658.9830, 1671.724
660.1440, 1746.383
661.3050, 1813.047
662.4660, 1885.863
663.6270, 1930.423
664.7870, 1990.496
665.9480, 2030.364
667.1080, 2096.263
668.2680, 2150.196
669.4280, 2215.501
670.5880, 2243.369
671.7480, 2459.682
672.9070, 2571.036
674.0670, 2855.646
675.2260, 3008.409
676.3850, 2820.348
677.5440, 3241.796
678.7030, 3508.533
679.8610, 3680.372
681.0200, 4327.452
682.1780, 4644.631
683.3360, 4964.589
684.4940, 5458.902
685.6520, 5931.580
686.8090, 6563.744
687.9670, 7137.150
689.1240, 7706.217
690.2810, 8621.721
691.4380, 9398.916
692.5950, 10431.70
693.7520, 11431.89
694.9080, 12721.13
696.0650, 14154.48
697.2210, 15730.29
698.3770, 17680.13
699.5330, 19784.95
700.6880, 21855.16
701.8440, 24427.94
702.9990, 27240.04
704.1550, 30302.29
705.3100, 33098.64
706.4650, 35759.11
707.6190, 38190.92
708.7740, 39778.14
709.9290, 39956.10
711.0830, 39357.12
712.2370, 37044.96
713.3910, 33738.98
714.5450, 30186.79
715.6980, 26423.53
716.8520, 22601.20
718.0050, 19312.30
719.1580, 16298.60
720.3110, 13794.08
721.4640, 11773.87
722.6170, 9930.152
723.7700, 8719.190
724.9220, 7690.687
726.0740, 6576.072
727.2260, 5960.275
728.3780, 5251.329
729.5300, 4847.438
730.6810, 4284.324
731.8330, 4022.625
732.9840, 3659.631
734.1350, 3525.292
735.2860, 3285.858
736.4370, 3342.610
737.5880, 3398.175
738.7380, 3239.844
739.8880, 3471.471
741.0390, 3320.086
742.1890, 3467.785
743.3380, 3634.425
744.4880, 3566.937
745.6380, 3720.525
746.7870, 3803.711
747.9360, 3881.689
749.0850, 4055.430
750.2340, 4172.889
751.3830, 3955.449
752.5310, 4038.021
753.6800, 3828.538
754.8280, 3701.744
755.9760, 3504.391
757.1240, 3326.691
758.2720, 3140.582
759.4190, 3067.328
760.5670, 2764.164
761.7140, 2550.560
762.8610, 2428.938
764.0080, 2161.578
765.1550, 2120.459
766.3020, 1850.746
767.4480, 1523.750
768.5950, 1605.739
769.7410, 1346.713
770.8870, 1400.073
772.0330, 1277.011
773.1780, 1236.968
774.3240, 1150.873
775.4690, 1027.763
776.6140, 959.6328
777.7590, 985.9102
778.9040, 1034.875
780.0490, 885.3447
781.1940, 1042.323
782.3380, 1207.368
783.4820, 958.3457
784.6260, 923.5254
785.7700, 1006.449
786.9140, 909.3486
788.0580, 957.2920
789.2010, 931.1348
790.3450, 927.2012
791.4880, 737.9863
792.6310, 642.7412
793.7730, 694.4678
794.9160, 629.1631
796.0590, 673.8281
797.2010, 429.4609
798.3430, 515.0635
799.4850, 415.6348
800.6270, 153.3428
801.7690, 293.8486
802.9100, 233.3223
804.0520, 139.7627
805.1930, 185.1699
806.3340, 123.5439
807.4750, 62.88281
808.6160, 49.01660
809.7560, 50.45215
810.8970, 5.679688
812.0370, 122.1328
813.1770, 59.05176
814.3170, 72.95605
815.4570, 195.0732
816.5960, 67.25000
817.7360, 212.5068
818.8750, 1.920898
820.0140, 302.3838
821.1530, 2.053711
822.2920, 198.7744
823.4310, 13.64941
824.5690, 79.58301
825.7070, 23.38867
826.8460, 125.6816
827.9840, 10.12793
829.1220, 116.8857
830.2590, 26.60254
831.3970, 19.72559
832.5340, 13.87891
833.6710, 89.56738
834.8080, 216.1191
835.9450, 134.8438
837.0820, 70.29980
838.2190, 99.60254
839.3550, 87.61816
840.4910, 152.7422
841.6270, 137.0088
842.7630, 42.41113
843.8990, 30.89941
845.0350, 4.469727
846.1700, 0.5732420
847.3060, 18.63184
848.4410, 27.56641
849.5760, 21.59375
850.7100, 29.69824
851.8450, 23.25098
852.9800, 44.50879
854.1140, 179.6387
855.2480, 135.5137
856.3820, 40.34082
857.5160, 102.1152
858.6500, 27.15918
859.7830, 9.482422
860.9170, 60.94238
862.0500, 74.47070
863.1830, 186.8896
864.3160, 301.2051
865.4480, 4.523438
866.5810, 49.67383
867.7130, 70.18262
868.8460, 44.85156
869.9780, 94.83301
871.1100, 9.236328
872.2410, 91.38379
873.3730, 125.3477
874.5050, 102.0303
875.6360, 72.33691
876.7670, 118.1836
877.8980, 99.65527
879.0290, 7.923828
880.1590, 21.58105
881.2900, 102.6768
882.4200, 46.11719
883.5500, 56.99121
884.6800, 94.04590
885.8100, 36.04883
886.9400, 135.9951
888.0690, 32.89160
889.1990, 132.2725
890.3280, 17.42090
891.4570, 112.0469
892.5860, 49.37500
893.7140, 24.10156
894.8430, 82.51465
895.9710, 24.87891
897.1000, 161.1797
898.2280, 162.4326
899.3560, 96.63770
900.4830, 44.20605
901.6110, 19.14844
902.7380, 48.82520
903.8660, 254.7441
904.9930, 248.6191
906.1200, 139.4512
907.2460, 248.2324
908.3730, 225.9707
909.5000, 262.6621
910.6260, 243.3125
911.7520, 253.9180
912.8780, 141.4785
914.0040, 225.9902
915.1290, 112.4590
916.2550, 280.8770
917.3800, 217.2539
918.5050, 279.5840
919.6300, 174.8711
920.7550, 289.1113
921.8800, 236.3086
923.0040, 210.4609
924.1290, 247.5684
925.2530, 165.6309
926.3770, 396.6484
927.5010, 353.6250
928.6250, 409.5566
929.7480, 311.4473
930.8720, 418.2930
931.9950, 248.0957
933.1180, 308.8555
934.2410, 516.5742
935.3640, 177.2520
936.4860, 401.8887
937.6090, 289.4863
938.7310, 271.0391
939.8530, 278.5547
940.9750, 417.0254
942.0970, 483.4551
943.2180, 472.6328
944.3400, 588.6992
945.4610, 653.7148
946.5820, 557.4727
947.7030, 387.0684
948.8240, 401.4805
949.9450, 546.3770
951.0650, 521.9766
952.1860, 549.4648
953.3060, 406.7051
954.4260, 720.8418
955.5460, 560.1914
956.6650, 738.1758
957.7850, 670.7891
958.9040, 900.9102
960.0230, 755.7812
961.1420, 616.9922
962.2610, 720.7617
963.3800, 680.8301
964.4990, 749.3066
965.6170, 734.3613
966.7350, 621.3672
967.8530, 746.2617
968.9710, 698.2012
970.0890, 987.0625
971.2070, 715.4531
972.3240, 862.4570
973.4410, 877.8906
974.5580, 1155.992
975.6750, 1051.926
976.7920, 1030.770
977.9090, 1010.479
979.0250, 1092.842
980.1410, 978.7949
981.2580, 944.9980
982.3740, 1118.143
983.4890, 1152.453
984.6050, 1113.588
985.7200, 1098.922
986.8360, 1202.352
987.9510, 1262.842
989.0660, 1323.896
990.1810, 1174.756
991.2950, 1419.121
992.4100, 1150.801
993.5240, 1382.666
994.6390, 1267.785
995.7530, 1123.463
996.8660, 1314.289
997.9800, 1345.367
999.0940, 1503.586
1000.207, 1409.756
1001.320, 1540.143
1002.433, 1519.104
1003.546, 1465.355
1004.659, 1445.986
1005.772, 1427.707
1006.884, 1438.791
1007.996, 1492.951
1009.108, 1517.580
1010.220, 1496.248
1011.332, 1541.918
1012.444, 1547.500
1013.555, 1659.154
1014.666, 1681.930
1015.777, 1696.512
1016.888, 1642.730
1017.999, 1656.039
1019.110, 1588.586
1020.220, 1608.438
1021.331, 1705.180
1022.441, 1574.893
1023.551, 1714.660
1024.661, 1710.740
1025.770, 1758.371
1026.880, 1698.336
1027.989, 1771.697
1029.098, 1673.188
1030.207, 1692.586
1031.316, 1691.412
1032.425, 1775.240
1033.533, 1614.791
1034.642, 1670.082
1035.750, 1878.951
1036.858, 1912.088
1037.966, 2133.221
1039.073, 1998.352
1040.181, 2307.074
1041.288, 2437.219
1042.396, 2688.320
1043.503, 2768.461
1044.610, 2935.602
1045.716, 3168.742
1046.823, 3391.498
1047.929, 3579.582
1049.036, 3682.252
1050.142, 4006.445
1051.248, 4101.531
1052.353, 4361.926
1053.459, 4618.840
1054.564, 4751.984
1055.670, 4883.133
1056.775, 5249.211
1057.880, 5007.359
1058.985, 5362.262
1060.089, 5300.756
1061.194, 5187.666
1062.298, 4983.078
1063.402, 4963.240
1064.506, 4720.406
1065.610, 4664.580
1066.713, 4413.992
1067.817, 4307.346
1068.920, 4232.160
1070.023, 4248.348
1071.126, 4153.676
1072.229, 4070.873
1073.332, 3980.072
1074.435, 3743.279
1075.537, 3944.488
1076.639, 3641.707
1077.741, 3717.934
1078.843, 3715.219
1079.945, 3745.459
1081.046, 3928.738
1082.148, 3879.047
1083.249, 4186.359
1084.350, 4091.734
1085.451, 4382.137
1086.551, 4466.605
1087.652, 3937.092
1088.752, 3828.666
1089.853, 3842.254
1090.953, 3618.941
1092.053, 3696.615
1093.152, 3663.379
1094.252, 3697.098
1095.351, 3704.867
1096.451, 3703.646
1097.550, 3663.434
1098.649, 3720.033
1099.748, 3984.057
1100.846, 3841.891
1101.945, 3997.768
1103.043, 4129.723
1104.141, 4116.121
1105.239, 4404.691
1106.337, 4353.754
1107.434, 4478.859
1108.532, 4755.189
1109.629, 4814.410
1110.726, 4810.408
1111.823, 4796.693
1112.920, 5089.000
1114.017, 5356.996
1115.113, 5369.340
1116.210, 5623.934
1117.306, 5559.324
1118.402, 5927.771
1119.498, 6089.205
1120.593, 6088.650
1121.689, 6469.307
1122.784, 6813.018
1123.879, 7144.529
1124.974, 7111.289
1126.069, 7164.859
1127.164, 7488.752
1128.259, 7827.934
1129.353, 7956.984
1130.447, 8249.621
1131.541, 8446.416
1132.635, 8527.084
1133.729, 8648.844
1134.822, 8532.182
1135.916, 8409.361
1137.009, 8084.398
1138.102, 7844.490
1139.195, 7332.512
1140.288, 6850.146
1141.380, 6327.457
1142.473, 5528.330
1143.565, 4782.213
1144.657, 4001.537
1145.749, 3283.566
1146.841, 2685.826
1147.932, 2174.346
1149.024, 1946.566
1150.115, 1639.945
1151.206, 1357.717
1152.297, 1191.742
1153.388, 992.7734
1154.479, 862.5801
1155.569, 744.6289
1156.659, 662.6855
1157.750, 552.1250
1158.839, 424.2871
1159.929, 333.4629
1161.019, 394.6387
1162.108, 409.8359
1163.198, 318.0469
1164.287, 208.2598
1165.376, 345.6074
1166.465, 282.8613
1167.553, 394.5020
1168.642, 166.7930
1169.730, 340.0879
1170.818, 89.38867
1171.906, 278.8691
1172.994, 120.3594
1174.082, 154.9004
1175.170, 41.51953
1176.257, 169.8496
1177.344, 209.1816
1178.431, 83.68359
1179.518, 85.02930
1180.605, 3.623047
1181.691, 104.7305
1182.778, 18.91016
1183.864, 100.4473
1184.950, 150.8105
1186.036, 101.1797
1187.122, 67.55273
1188.207, 46.15039
1189.292, 24.30859
1190.378, 21.47461
1191.463, 8.078125
1192.548, 29.48047
1193.632, 125.2031
1194.717, 116.5996
1195.801, 80.99805
1196.886, 14.60156
1197.970, 11.19922
1199.054, 32.73633
1200.137, 28.59961
1201.221, 7.998047
1202.305, 46.40234
1203.388, 96.80664
1204.471, 145.2129
1205.554, 37.62305
1206.637, 147.0352
1207.719, 214.4492
1208.802, 34.13477
1209.884, 151.2715
1210.966, 16.67969
1212.048, 21.09180
1213.130, 92.50391
1214.212, 66.91992
1215.293, 89.97656
1216.374, 102.6230
1217.456, 118.1719
1218.536, 67.58984
1219.617, 123.0098
1220.698, 21.35742
1221.778, 124.9668
1222.859, 45.61523
1223.939, 93.78125
1225.019, 111.1777
1226.099, 201.5703
1227.178, 196.7578
1228.258, 218.1270
1229.337, 210.6738
1230.417, 194.1582
1231.496, 138.5508
1232.574, 62.94141
1233.653, 3.669922
1234.732, 7.289063
1235.810, 175.1172
1236.888, 220.4844
1237.966, 19.84961
1239.044, 106.2090
1240.122, 8.435547
1241.199, 70.46875
1242.277, 198.8066
1243.354, 4.857422
1244.431, 100.4648
1245.508, 19.78516
1246.585, 109.1094
1247.661, 121.5664
1248.738, 99.67969
1249.814, 134.9199
1250.890, 25.84375
1251.966, 25.36328
1253.042, 21.43555
1254.117, 23.75977
1255.193, 35.90039
1256.268, 71.71094
1257.343, 154.5762
1258.418, 262.5352
1259.493, 208.3457
1260.567, 17.77930
1261.642, 200.0684
1262.716, 80.91016
1263.790, 146.7461
1264.864, 143.4219
1265.938, 70.31250
1267.011, 29.04102
1268.085, 57.75586
1269.158, 86.53516
1270.231, 18.10352
1271.304, 173.7441
1272.377, 115.3613
1273.450, 62.02734
1274.522, 88.52539
1275.594, 42.06836
1276.666, 62.39844
1277.738, 64.07812
1278.810, 5.541016
1279.882, 111.6426
1280.953, 190.8613
1282.025, 233.4043
1283.096, 65.74414
1284.167, 39.92578
1285.238, 363.3555
1286.308, 54.62891
1287.379, 291.3750
1288.449, 252.7344
1289.519, 15.03320
1290.589, 140.1660
1291.659, 135.7441
1292.729, 308.9160
1293.798, 108.0762
1294.868, 239.2207
1295.937, 53.35352
1297.006, 152.4746
1298.075, 281.5840
1299.143, 274.6777
1300.212, 13.24023
1301.280, 102.7988
1302.348, 92.82227
1303.416, 75.83008
1304.484, 254.8203
1305.552, 277.7969
1306.620, 110.7598
1307.687, 263.7539
1308.754, 199.6836
1309.821, 436.5469
1310.888, 398.4473
1311.955, 194.0879
1313.021, 183.9668
1314.088, 314.8262
1315.154, 159.6699
1316.220, 212.4980
1317.286, 237.3086
1318.352, 255.1016
1319.417, 254.5391
1320.483, 158.2949
1321.548, 84.03125
1322.613, 221.7520
1323.678, 185.4609
1324.743, 241.1582
1325.807, 265.6016
