##NAMES=Pyrite
##RRUFFID=R050070
##IDEAL CHEMISTRY=Fe^2+^(S_2_)^2-^
##LOCALITY=Mina San Jose de Huanzala, Minero de Huallanca District, Department de Huanuco, Peru
##OWNER=RRUFF
##SOURCE=Rock Currier
##DESCRIPTION=Brass-yellow metallic cube
##STATUS=The identification of this mineral has been confirmed by X-ray diffraction and chemical analysis
##URL=rruff.info/R050070
##MEASURED CHEMISTRY=Fe_1.00_S_2.00_
##PIN_ID=L00302
##ORIENTATION=Laser parallel to c* (0 0 1). Fiducial mark perpendicular to laser is parallel to -a [-1 0 0]
224.087, 0.000
225.460, 73.072
226.832, 184.055
228.204, 196.332
229.577, 317.768
230.948, 157.275
232.320, 5.637
233.692, 116.248
235.063, 30.205
236.434, 88.568
237.805, 59.201
239.175, 99.391
240.545, 278.379
241.916, 153.076
243.286, 323.598
244.655, 338.516
246.025, 370.777
247.394, 237.355
248.763, 55.203
250.132, 145.898
251.501, 40.416
252.869, 0.258
254.237, 58.150
255.605, 102.389
256.973, 99.908
258.340, 109.525
259.708, 162.049
261.075, 171.291
262.442, 258.055
263.808, 230.758
265.175, 481.676
266.541, 241.619
267.907, 393.904
269.273, 495.908
270.639, 362.248
272.004, 283.088
273.369, 325.248
274.734, 289.812
276.099, 236.924
277.463, 262.459
278.828, 338.250
280.192, 225.469
281.556, 362.104
282.919, 247.039
284.283, 332.129
285.646, 410.871
287.009, 248.186
288.372, 299.059
289.734, 272.480
291.097, 339.434
292.459, 232.904
293.821, 216.031
295.183, 219.553
296.544, 159.154
297.905, 285.537
299.266, 129.570
300.627, 105.379
301.988, 154.648
303.348, 216.443
304.709, 140.758
306.069, 13.754
307.428, 61.854
308.788, 64.018
310.147, 44.217
311.507, 9.678
312.865, 60.066
314.224, 41.098
315.583, 59.303
316.941, 7.178
318.299, 167.820
319.657, 81.930
321.015, 58.896
322.372, 38.285
323.729, 149.027
325.086, 116.412
326.443, 53.230
327.800, 230.104
329.156, 118.760
330.512, 123.068
331.868, 103.297
333.224, 224.672
334.579, 277.275
335.935, 339.695
337.290, 420.434
338.645, 412.779
339.999, 588.869
341.354, 681.377
342.708, 851.258
344.062, 1221.203
345.416, 1551.076
346.769, 1810.475
348.123, 2129.738
349.476, 2258.662
350.829, 2377.734
352.182, 2367.076
353.534, 2445.857
354.887, 2376.822
356.239, 1900.580
357.591, 1690.219
358.942, 1468.346
360.294, 1199.256
361.645, 789.979
362.996, 658.826
364.347, 529.047
365.698, 386.404
367.048, 306.029
368.398, 257.104
369.748, 299.307
371.098, 181.682
372.448, 254.945
373.797, 353.117
375.146, 541.781
376.495, 829.832
377.844, 1056.648
379.192, 1318.461
380.540, 1616.285
381.889, 1850.164
383.236, 2164.818
384.584, 2427.344
385.932, 2549.812
387.279, 2834.584
388.626, 2907.908
389.973, 2659.758
391.319, 2308.104
392.666, 1763.012
394.012, 1633.490
395.358, 1194.064
396.704, 713.720
398.049, 432.733
399.394, 389.527
400.740, 182.697
402.084, 243.474
403.429, 65.004
404.774, 27.094
406.118, 18.145
407.462, 40.736
408.806, 30.312
410.150, 101.981
411.493, 23.572
412.836, 4.083
414.179, 46.417
415.522, 86.887
416.865, 67.146
418.207, 16.503
419.549, 8.753
420.891, 20.692
422.233, 117.500
423.575, 2.997
424.916, 21.486
426.257, 94.521
427.598, 40.802
428.939, 56.114
430.279, 26.307
431.619, 45.732
432.959, 94.495
434.299, 78.104
435.639, 91.018
436.978, 68.021
438.318, 219.332
439.657, 169.321
440.996, 195.413
442.334, 118.456
443.673, 198.146
445.011, 182.435
446.349, 32.078
447.687, 206.284
449.024, 114.006
450.361, 110.740
451.699, 210.232
453.036, 262.940
454.372, 135.938
455.709, 88.437
457.045, 88.882
458.381, 154.514
459.717, 183.760
461.053, 159.693
462.388, 225.369
463.724, 153.495
465.059, 113.723
466.394, 93.118
467.728, 323.718
469.063, 285.176
470.397, 287.801
471.731, 220.686
473.065, 197.657
474.398, 230.391
475.732, 231.783
477.065, 307.424
478.398, 201.440
479.731, 285.002
481.063, 252.336
482.396, 179.623
483.728, 264.938
485.060, 260.143
486.391, 312.393
487.723, 287.369
489.054, 236.284
490.385, 297.588
491.716, 259.875
493.047, 453.698
494.377, 279.387
495.708, 418.827
497.038, 498.064
498.368, 408.687
499.697, 434.044
501.027, 476.874
502.356, 446.721
503.685, 468.188
505.014, 382.166
506.342, 372.606
507.671, 380.562
508.999, 395.260
510.327, 439.888
511.655, 359.357
512.982, 410.762
514.310, 422.486
515.637, 477.626
516.964, 496.598
518.291, 601.142
519.617, 632.011
520.944, 663.725
522.270, 686.186
523.596, 683.455
524.921, 647.619
526.247, 593.253
527.572, 500.570
528.897, 518.270
530.222, 513.508
531.547, 585.714
532.871, 568.134
534.196, 716.122
535.520, 810.483
536.844, 647.699
538.167, 905.256
539.491, 716.143
540.814, 687.096
542.137, 783.240
543.460, 711.556
544.783, 851.678
546.105, 775.726
547.427, 837.439
548.749, 989.524
550.071, 854.035
551.393, 795.993
552.714, 801.057
554.035, 1021.390
555.356, 1030.909
556.677, 937.938
557.998, 1054.038
559.318, 918.638
560.638, 962.811
561.958, 1027.658
563.278, 1110.211
564.597, 1040.932
565.917, 1103.492
567.236, 1006.122
568.555, 921.536
569.874, 872.988
571.192, 1054.821
572.511, 883.649
573.829, 993.070
575.147, 1025.791
576.464, 971.684
577.782, 846.699
579.099, 835.672
580.416, 749.629
581.733, 706.732
583.050, 633.444
584.366, 620.777
585.683, 593.351
586.999, 544.680
588.315, 365.648
589.630, 407.710
590.946, 498.089
592.261, 302.941
593.576, 385.915
594.891, 249.575
596.206, 279.742
597.520, 305.540
598.834, 284.957
600.148, 364.216
601.462, 289.713
602.776, 222.405
604.089, 177.283
605.402, 312.352
606.715, 221.297
608.028, 224.527
609.341, 211.590
610.653, 184.253
611.965, 206.320
613.277, 255.293
614.589, 225.554
615.901, 247.739
617.212, 243.520
618.523, 255.462
619.834, 214.130
621.145, 181.317
622.456, 242.785
623.766, 253.071
625.076, 153.804
626.386, 178.602
627.696, 111.676
629.006, 168.689
630.315, 124.710
631.624, 189.102
632.933, 152.751
634.242, 205.304
635.551, 272.369
636.859, 211.688
638.167, 169.329
639.475, 157.773
640.783, 152.751
642.090, 158.184
643.398, 223.600
644.705, 191.117
646.012, 246.484
647.318, 71.580
648.625, 137.877
649.931, 192.961
651.237, 119.809
652.543, 245.894
653.849, 97.709
655.155, 48.563
656.460, 66.977
657.765, 94.434
659.070, 143.004
660.375, 64.382
661.679, 146.780
662.984, 1.754
664.288, 38.376
665.592, 112.780
666.895, 88.411
668.199, 102.460
669.502, 142.013
670.805, 163.636
672.108, 88.248
673.411, 99.029
674.713, 171.826
676.016, 66.873
677.318, 65.117
678.620, 137.469
679.921, 1.123
681.223, 123.402
682.524, 82.694
683.825, 52.490
685.126, 71.867
686.427, 52.423
687.727, 29.936
689.028, 15.484
690.328, 57.952
691.628, 135.782
692.927, 139.842
694.227, 34.740
695.526, 177.495
696.825, 141.022
698.124, 73.545
699.423, 143.996
700.721, 35.329
702.020, 32.610
703.318, 73.816
704.616, 185.026
705.913, 58.895
707.211, 139.099
708.508, 76.553
709.805, 213.911
711.102, 132.733
712.399, 145.172
713.695, 48.217
714.992, 87.232
716.288, 107.783
717.584, 33.965
718.879, 101.891
720.175, 63.778
721.470, 6.266
722.765, 92.704
724.060, 52.768
725.355, 106.180
726.649, 81.101
727.944, 105.471
729.238, 135.477
730.532, 143.814
731.825, 130.155
733.119, 113.495
734.412, 215.819
735.705, 84.126
736.998, 155.408
738.291, 35.664
739.584, 131.280
740.876, 157.496
742.168, 256.686
743.460, 100.857
744.752, 121.357
746.043, 135.035
747.334, 209.086
748.626, 84.314
749.916, 177.881
751.207, 237.870
752.498, 148.985
753.788, 115.192
755.078, 226.302
756.368, 198.732
757.658, 34.845
758.947, 211.661
760.237, 112.279
761.526, 157.466
762.815, 112.261
764.104, 120.065
765.392, 181.113
766.680, 130.736
767.969, 134.441
769.257, 223.346
770.544, 248.125
771.832, 261.999
773.119, 210.851
774.406, 173.748
775.693, 137.470
776.980, 174.048
778.267, 88.881
779.553, 194.756
780.839, 22.217
782.125, 155.771
783.411, 204.039
784.697, 41.540
785.982, 216.850
787.267, 113.426
788.552, 229.846
789.837, 74.481
791.122, 125.391
792.406, 234.045
793.690, 160.517
794.974, 123.938
796.258, 156.335
797.542, 99.754
798.825, 188.442
800.108, 179.300
801.391, 160.767
802.674, 225.811
803.957, 130.129
805.239, 154.675
806.522, 95.911
807.804, 45.672
809.085, 175.808
810.367, 185.732
811.649, 94.731
812.930, 97.842
814.211, 158.152
815.492, 105.130
816.772, 110.450
818.053, 158.383
819.333, 4.432
820.613, 178.604
821.893, 180.740
823.173, 55.869
824.452, 154.164
825.732, 92.551
827.011, 163.622
828.290, 219.739
829.568, 12.840
830.847, 140.132
832.125, 56.094
833.403, 44.644
834.681, 123.011
835.959, 8.182
837.236, 205.181
838.514, 52.053
839.791, 14.009
841.068, 5.883
842.345, 49.664
843.621, 79.771
844.898, 126.689
846.174, 8.066
847.450, 78.189
848.726, 62.993
850.001, 17.615
851.277, 143.599
852.552, 65.534
853.827, 118.207
855.102, 23.012
856.376, 26.748
857.651, 9.685
858.925, 100.090
860.199, 25.915
861.473, 74.139
862.746, 46.105
864.020, 114.652
865.293, 46.867
866.566, 59.140
867.839, 8.986
869.112, 23.946
870.384, 39.242
871.656, 34.827
872.928, 34.909
874.200, 2.022
875.472, 85.722
876.744, 82.790
878.015, 41.301
879.286, 15.182
880.557, 136.835
881.828, 19.038
883.098, 103.214
884.369, 27.510
885.639, 115.756
886.909, 198.939
888.178, 113.560
889.448, 58.638
890.717, 135.023
891.987, 37.080
893.256, 147.208
894.524, 93.613
895.793, 82.218
897.061, 207.403
898.330, 70.690
899.598, 247.046
900.865, 74.655
902.133, 41.819
903.401, 195.386
904.668, 155.006
905.935, 250.479
907.202, 215.823
908.468, 93.454
909.735, 278.089
911.001, 10.134
912.267, 187.777
913.533, 116.177
914.799, 62.777
916.064, 162.203
917.330, 12.325
918.595, 47.342
919.860, 251.883
921.124, 69.454
922.389, 171.137
923.653, 159.824
924.918, 171.517
926.182, 227.213
927.445, 143.915
928.709, 213.700
929.972, 222.293
931.236, 217.782
932.499, 200.504
933.761, 57.742
935.024, 158.478
936.286, 47.220
937.549, 49.583
938.811, 148.349
940.073, 132.051
941.334, 255.847
942.596, 94.436
943.857, 245.244
945.118, 191.059
946.379, 136.880
947.640, 224.709
948.900, 274.546
950.161, 177.325
951.421, 272.175
952.681, 251.028
953.940, 178.890
955.200, 260.758
956.459, 90.635
957.719, 131.518
958.978, 84.383
960.236, 235.050
961.495, 222.957
962.753, 91.872
964.012, 200.793
965.270, 134.724
966.527, 34.663
967.785, 239.610
969.043, 39.436
970.300, 56.517
971.557, 229.142
972.814, 1.881
974.071, 180.126
975.327, 201.057
976.583, 191.078
977.840, 185.108
979.095, 94.146
980.351, 173.193
981.607, 295.377
982.862, 90.440
984.117, 356.478
985.372, 139.257
986.627, 227.348
987.882, 219.230
989.136, 177.340
990.390, 210.208
991.644, 173.414
992.898, 186.352
994.152, 234.239
995.405, 204.401
996.659, 286.572
997.912, 283.183
999.165, 268.370
1000.417, 236.530
1001.670, 183.795
1002.922, 335.014
1004.174, 334.332
1005.426, 183.624
1006.678, 329.939
1007.930, 291.381
1009.181, 186.666
1010.432, 313.033
1011.683, 307.469
1012.934, 375.914
1014.185, 364.378
1015.435, 252.853
1016.685, 377.445
1017.935, 239.003
1019.185, 322.312
1020.435, 320.815
1021.684, 228.299
1022.934, 386.465
1024.183, 282.441
1025.432, 238.995
1026.680, 349.594
1027.929, 240.200
1029.177, 186.158
1030.425, 295.492
1031.673, 227.317
1032.921, 247.583
1034.169, 231.066
1035.416, 243.786
1036.663, 247.585
1037.911, 247.597
1039.157, 385.333
1040.404, 319.273
1041.650, 327.789
1042.897, 420.464
1044.143, 357.235
1045.389, 440.010
1046.634, 481.789
1047.880, 296.697
1049.125, 475.486
1050.371, 266.358
1051.615, 388.159
1052.860, 402.967
1054.105, 350.395
1055.349, 421.210
1056.593, 264.031
1057.837, 269.134
1059.081, 405.964
1060.325, 303.928
1061.568, 336.048
1062.812, 421.895
1064.055, 207.972
1065.298, 519.840
1066.540, 406.713
1067.783, 415.674
1069.025, 548.553
1070.267, 333.436
1071.509, 439.318
1072.751, 404.204
1073.993, 252.314
1075.234, 508.203
1076.475, 375.094
1077.716, 320.985
1078.957, 354.878
1080.198, 135.772
1081.438, 298.669
1082.679, 328.567
1083.919, 266.469
1085.159, 430.553
1086.398, 178.455
1087.638, 206.544
1088.877, 431.450
1090.116, 321.423
1091.355, 382.849
1092.594, 471.757
1093.833, 324.665
1095.071, 393.812
1096.309, 168.721
1097.547, 306.973
1098.785, 388.880
1100.023, 312.786
1101.260, 289.710
1102.498, 323.614
1103.735, 261.676
1104.972, 315.579
1106.208, 166.929
1107.445, 336.017
1108.681, 340.915
1109.918, 140.057
1111.154, 281.999
1112.389, 84.896
1113.625, 210.938
1114.860, 240.831
1116.096, 261.722
1117.331, 396.610
1118.566, 322.272
1119.800, 224.155
1121.035, 268.428
1122.269, 208.083
1123.503, 188.959
1124.737, 226.832
1125.971, 104.787
1127.205, 179.167
1128.438, 169.026
1129.671, 48.082
1130.904, 285.364
1132.137, 237.386
1133.370, 118.438
1134.602, 128.486
1135.834, 109.331
1137.066, 238.768
1138.298, 104.876
1139.530, 14.735
1140.762, 199.020
1141.993, 76.163
1143.224, 140.010
1144.455, 247.547
1145.686, 175.312
1146.917, 176.373
1148.147, 11.870
1149.377, 48.629
1150.607, 129.861
1151.837, 9.663
1153.067, 112.604
1154.296, 128.656
1155.526, 21.836
1156.755, 82.709
1157.984, 95.888
1159.213, 44.853
1160.441, 86.725
1161.670, 60.775
1162.898, 89.011
1164.126, 50.373
1165.354, 61.487
1166.581, 44.697
1167.809, 43.134
1169.036, 0.270
1170.263, 180.761
1171.490, 40.440
1172.717, 214.449
1173.943, 148.474
1175.170, 151.378
1176.396, 176.491
1177.622, 45.435
1178.848, 57.295
1180.073, 154.955
1181.299, 138.497
1182.524, 218.955
1183.749, 88.873
1184.974, 40.372
1186.199, 179.929
1187.423, 62.779
1188.648, 5.211
1189.872, 42.258
1191.096, 166.235
1192.320, 173.575
1193.543, 142.288
1194.767, 0.296
1195.990, 145.987
1197.213, 100.831
1198.436, 137.314
1199.659, 242.985
1200.881, 13.779
1202.104, 122.986
1203.326, 127.727
1204.548, 59.387
1205.770, 286.543
1206.991, 96.508
1208.213, 62.165
1209.434, 191.750
1210.655, 82.352
1211.876, 157.420
1213.096, 143.854
1214.317, 43.075
1215.537, 305.116
1216.757, 152.438
1217.977, 144.425
1219.197, 187.396
1220.417, 87.499
1221.636, 263.436
1222.855, 223.355
1224.074, 222.753
1225.293, 188.159
1226.512, 195.036
1227.731, 176.191
1228.949, 149.035
1230.167, 195.209
1231.385, 106.105
1232.603, 212.889
1233.820, 7.341
1235.038, 222.407
1236.255, 36.796
1237.472, 35.245
1238.689, 195.937
1239.906, 179.615
1241.122, 99.280
1242.338, 188.932
1243.555, 75.570
1244.771, 237.195
1245.986, 217.808
1247.202, 156.407
1248.417, 235.993
1249.633, 124.567
1250.848, 206.226
1252.063, 57.770
1253.277, 120.295
1254.492, 202.805
1255.706, 109.299
1256.920, 156.776
1258.134, 209.237
1259.348, 133.679
1260.562, 193.104
1261.775, 185.257
1262.988, 191.143
1264.201, 200.188
1265.414, 195.464
1266.627, 199.861
1267.839, 128.030
1269.052, 219.132
1270.264, 179.198
1271.476, 156.243
1272.688, 54.260
1273.899, 189.239
1275.111, 131.196
1276.322, 77.077
1277.533, 138.885
1278.744, 130.669
1279.955, 133.432
1281.165, 256.172
1282.376, 47.875
1283.586, 116.554
1284.796, 175.212
1286.006, 72.822
1287.215, 230.425
1288.425, 86.250
1289.634, 37.803
1290.843, 183.321
1292.052, 109.788
1293.261, 8.229
1294.469, 247.570
1295.678, 68.956
1296.886, 170.317
1298.094, 47.436
1299.302, 97.141
1300.509, 76.093
1301.717, 24.195
1302.924, 72.373
1304.131, 16.475
1305.338, 96.397
1306.545, 20.653
1307.752, 5.333
1308.958, 55.348
1310.164, 74.604
1311.370, 5.536
1312.576, 58.204
1313.782, 119.145
1314.987, 13.414
1316.193, 131.189
1317.398, 100.137
1318.603, 7.147
1319.807, 90.528
1321.012, 47.177
1322.216, 86.200
1323.421, 13.162
1324.625, 50.462
1325.829, 16.972
1327.032, 195.483
1328.236, 67.916
1329.439, 164.253
1330.642, 146.360
1331.845, 72.725
1333.048, 168.873
1334.251, 4.429
1335.453, 44.429
1336.656, 178.700
1337.858, 85.952
1339.060, 153.183
1340.261, 206.271
1341.463, 48.460
1342.664, 122.554
1343.866, 74.021
1345.067, 49.153
1346.267, 175.652
1347.468, 50.751
1348.669, 59.832
1349.869, 175.624
1351.069, 28.679
1352.269, 52.590
1353.469, 60.564
1354.668, 27.419
1355.868, 182.363
1357.067, 84.740
1358.266, 131.707
1359.465, 170.281
1360.664, 99.453
1361.862, 281.415
1363.061, 237.365
1364.259, 139.319
1365.457, 222.022
1366.655, 213.994
1367.852, 171.903
1369.050, 243.818
1370.247, 258.070
1371.444, 103.689
1372.641, 235.123
1373.838, 95.344
1375.035, 155.483
1376.231, 180.608
1377.427, 175.335
1378.623, 261.319
1379.819, 159.159
1381.015, 94.336
1382.211, 221.465
1383.406, 203.411
1384.601, 221.805
1385.796, 233.593
1386.991, 217.206
1388.185, 323.394
1389.380, 210.361
1390.574, 235.300
1391.768, 267.981
1392.962, 207.863
1394.156, 154.007
1395.350, 223.595
1396.543, 247.670
1397.736, 358.945
1398.929, 366.950
1400.122, 213.285
1401.315, 266.395
1402.507, 255.618
1403.700, 193.901
1404.892, 281.275
1406.084, 264.183
1407.276, 260.712
1408.467, 318.906
1409.659, 123.125
1410.850, 190.168
1412.041, 173.678
1413.232, 147.289
1414.423, 232.981
1415.614, 205.410
1416.804, 231.088
1417.994, 196.382
1419.184, 200.864
1420.374, 175.824
1421.564, 239.428
1422.753, 190.030
1423.943, 177.864
1425.132, 129.395
1426.321, 160.912
1427.510, 168.858
1428.698, 120.605
1429.887, 142.947
1431.075, 344.979
1432.263, 149.068
1433.451, 211.557
1434.639, 240.208
1435.827, 103.203
1437.014, 152.458
1438.201, 198.446
1439.388, 98.689
1440.575, 100.170
1441.762, 180.571
1442.949, 111.328
1444.135, 369.901
1445.321, 283.952
1446.507, 260.114
1447.693, 263.320
1448.879, 99.248
1450.064, 198.071
1451.250, 257.774
1452.435, 58.348
1453.620, 247.791
1454.805, 284.867
1455.989, 172.056
1457.174, 262.118
1458.358, 186.054
1459.542, 86.872
1460.726, 351.767
1461.910, 109.387
1463.093, 214.794
1464.277, 149.342
1465.460, 71.903
1466.643, 288.612
1467.826, 118.744
1469.009, 142.838
1470.191, 201.996
1471.373, 268.126
1472.556, 67.283
1473.738, 310.466
1474.919, 123.881
1476.101, 145.311
1477.283, 195.750
1478.464, 136.194
1479.645, 72.686
1480.826, 66.214
1482.007, 106.800
1483.187, 168.963
1484.368, 223.690
1485.548, 5.450
1486.728, 347.574
1487.908, 137.801
1489.088, 84.211
1490.268, 278.796
1491.447, 181.539
1492.626, 290.449
1493.805, 214.555
1494.984, 14.864
1496.163, 201.406
1497.341, 266.223
1498.520, 4.619
1499.698, 288.642
1500.876, 210.312
1502.054, 34.391
1503.232, 128.933
1504.409, 95.437
1505.586, 196.596
1506.763, 323.102
1507.940, 97.712
1509.117, 323.711
1510.294, 229.304
1511.470, 0.817
1512.647, 0.000
##END=



