##NAMES=Pyrite
##RRUFFID=R050070
##IDEAL CHEMISTRY=Fe^2+^(S_2_)^2-^
##LOCALITY=Mina San Jose de Huanzala, Minero de Huallanca District, Department de Huanuco, Peru
##OWNER=RRUFF
##SOURCE=Rock Currier
##DESCRIPTION=Brass-yellow metallic cube
##STATUS=The identification of this mineral has been confirmed by X-ray diffraction and chemical analysis
##URL=rruff.info/R050070
##MEASURED CHEMISTRY=Fe_1.00_S_2.00_
##PIN_ID=L00302
##ORIENTATION=Laser parallel to c* (0 0 1). Fiducial mark perpendicular to laser is parallel to -a [-1 0 0]
258.340, 0.000
259.708, 169.389
261.075, 54.182
262.442, 265.904
263.808, 305.732
265.175, 308.184
266.541, 148.180
267.907, 33.975
269.273, 155.928
270.639, 15.559
272.004, 135.047
273.369, 69.521
274.734, 6.111
276.099, 298.689
277.463, 152.051
278.828, 171.131
280.192, 123.566
281.556, 278.688
282.919, 125.053
284.283, 304.125
285.646, 469.768
287.009, 223.264
288.372, 330.875
289.734, 310.781
291.097, 258.477
292.459, 363.072
293.821, 481.109
295.183, 455.506
296.544, 415.779
297.905, 514.289
299.266, 477.252
300.627, 479.760
301.988, 542.648
303.348, 420.350
304.709, 500.029
306.069, 365.723
307.428, 451.570
308.788, 259.541
310.147, 213.635
311.507, 364.037
312.865, 345.227
314.224, 273.020
315.583, 330.861
316.941, 271.316
318.299, 344.791
319.657, 290.301
321.015, 210.895
322.372, 107.611
323.729, 38.012
325.086, 2.299
326.443, 67.469
327.800, 25.021
329.156, 81.617
330.512, 128.287
331.868, 76.516
333.224, 78.943
334.579, 275.699
335.935, 362.189
337.290, 502.520
338.645, 686.055
339.999, 1005.658
341.354, 1440.982
342.708, 1784.768
344.062, 2248.838
345.416, 2672.748
346.769, 2951.787
348.123, 3125.414
349.476, 3244.043
350.829, 3224.383
352.182, 3171.693
353.534, 3094.551
354.887, 2833.457
356.239, 2636.477
357.591, 2157.934
358.942, 1838.586
360.294, 1560.711
361.645, 1191.318
362.996, 1014.520
364.347, 769.057
365.698, 613.873
367.048, 680.992
368.398, 662.441
369.748, 705.539
371.098, 659.293
372.448, 834.795
373.797, 1008.295
375.146, 1272.229
376.495, 1632.465
377.844, 2037.088
379.192, 2339.912
380.540, 2857.969
381.889, 3014.498
383.236, 3247.910
384.584, 3544.598
385.932, 3460.748
387.279, 3652.574
388.626, 3404.857
389.973, 3191.695
391.319, 2694.426
392.666, 2269.709
394.012, 1873.426
395.358, 1448.309
396.704, 1055.449
398.049, 750.016
399.394, 534.432
400.740, 376.695
402.084, 554.809
403.429, 319.676
404.774, 302.699
406.118, 133.217
407.462, 122.717
408.806, 72.072
410.150, 46.732
411.493, 40.277
412.836, 8.920
414.179, 1.658
415.522, 82.055
416.865, 156.094
418.207, 34.480
419.549, 68.289
420.891, 44.857
422.233, 105.734
423.575, 107.004
424.916, 98.707
426.257, 45.973
427.598, 54.451
428.939, 116.461
430.279, 106.502
431.619, 173.055
432.959, 165.236
434.299, 189.484
435.639, 295.938
436.978, 299.746
438.318, 286.174
439.657, 360.658
440.996, 282.813
442.334, 239.622
443.673, 318.979
445.011, 379.966
446.349, 238.791
447.687, 344.003
449.024, 226.957
450.361, 214.855
451.699, 347.026
453.036, 305.262
454.372, 284.441
455.709, 244.130
457.045, 322.271
458.381, 301.072
459.717, 335.914
461.053, 373.855
462.388, 217.651
463.724, 230.591
465.059, 434.332
466.394, 362.662
467.728, 483.158
469.063, 440.624
470.397, 454.141
471.731, 404.735
473.065, 397.531
474.398, 398.061
475.732, 518.853
477.065, 425.281
478.398, 516.825
479.731, 591.122
481.063, 540.820
482.396, 572.957
483.728, 556.354
485.060, 696.105
486.391, 706.030
487.723, 703.327
489.054, 780.184
490.385, 689.170
491.716, 704.453
493.047, 713.932
494.377, 668.791
495.708, 799.099
497.038, 821.316
498.368, 793.092
499.697, 900.909
501.027, 708.375
502.356, 790.284
503.685, 740.117
505.014, 794.547
506.342, 710.213
507.671, 759.625
508.999, 832.702
510.327, 736.505
511.655, 721.170
512.982, 778.345
514.310, 883.827
515.637, 891.973
516.964, 833.836
518.291, 961.094
519.617, 1042.443
520.944, 1080.567
522.270, 944.197
523.596, 1032.127
524.921, 1028.695
526.247, 1020.895
527.572, 1138.427
528.897, 1025.106
530.222, 1140.557
531.547, 1164.412
532.871, 1230.428
534.196, 1206.337
535.520, 1210.773
536.844, 1305.532
538.167, 1249.538
539.491, 1224.230
540.814, 1262.465
542.137, 1330.761
543.460, 1335.946
544.783, 1216.598
546.105, 1150.683
547.427, 1197.952
548.749, 1438.980
550.071, 1301.539
551.393, 1326.899
552.714, 1399.352
554.035, 1301.611
555.356, 1414.074
556.677, 1468.577
557.998, 1383.677
559.318, 1436.316
560.638, 1440.194
561.958, 1618.775
563.278, 1499.809
564.597, 1342.550
565.917, 1536.701
567.236, 1388.126
568.555, 1313.970
569.874, 1432.880
571.192, 1470.815
572.511, 1409.631
573.829, 1507.844
575.147, 1356.435
576.464, 1373.225
577.782, 1382.261
579.099, 1195.218
580.416, 1110.001
581.733, 1040.066
583.050, 875.176
584.366, 856.370
585.683, 735.361
586.999, 797.005
588.315, 569.710
589.630, 583.047
590.946, 512.570
592.261, 454.550
593.576, 508.232
594.891, 452.460
596.206, 350.964
597.520, 453.742
598.834, 433.234
600.148, 353.508
601.462, 456.591
602.776, 321.411
604.089, 387.419
605.402, 439.978
606.715, 323.484
608.028, 329.746
609.341, 377.760
610.653, 409.061
611.965, 316.786
613.277, 391.224
614.589, 384.018
615.901, 321.331
617.212, 326.408
618.523, 188.562
619.834, 388.935
621.145, 337.654
622.456, 423.366
623.766, 288.810
625.076, 280.445
626.386, 302.929
627.696, 262.201
629.006, 317.352
630.315, 405.278
631.624, 284.955
632.933, 239.622
634.242, 239.740
635.551, 306.601
636.859, 165.748
638.167, 184.519
639.475, 339.389
640.783, 189.962
642.090, 448.759
643.398, 274.923
644.705, 278.783
646.012, 235.609
647.318, 135.984
648.625, 169.673
649.931, 101.425
651.237, 168.461
652.543, 219.804
653.849, 54.607
655.155, 179.506
656.460, 203.114
657.765, 198.295
659.070, 231.532
660.375, 159.889
661.679, 185.954
662.984, 76.431
664.288, 86.538
665.592, 121.587
666.895, 142.940
668.199, 129.594
669.502, 8.760
670.805, 84.912
672.108, 119.141
673.411, 70.760
674.713, 174.913
676.016, 130.794
677.318, 39.205
678.620, 206.688
679.921, 56.748
681.223, 140.805
682.524, 111.047
683.825, 78.150
685.126, 114.905
686.427, 56.590
687.727, 66.395
689.028, 111.146
690.328, 186.141
691.628, 97.774
692.927, 91.134
694.227, 87.685
695.526, 59.544
696.825, 139.767
698.124, 94.780
699.423, 105.605
700.721, 204.220
702.020, 75.686
703.318, 141.506
704.616, 133.311
705.913, 119.812
707.211, 140.598
708.508, 92.518
709.805, 112.405
711.102, 37.697
712.399, 32.349
713.695, 0.345
714.992, 103.767
716.288, 29.224
717.584, 89.717
718.879, 59.512
720.175, 73.340
721.470, 40.884
722.765, 2.167
724.060, 54.166
725.355, 37.984
726.649, 229.771
727.944, 121.409
729.238, 178.412
730.532, 253.021
731.825, 38.595
733.119, 119.188
734.412, 99.770
735.705, 209.351
736.998, 139.929
738.291, 66.950
739.584, 127.550
740.876, 206.158
742.168, 119.770
743.460, 163.380
744.752, 159.419
746.043, 129.122
747.334, 186.909
748.626, 67.646
749.916, 183.394
751.207, 85.889
752.498, 191.938
753.788, 131.404
755.078, 228.763
756.368, 126.775
757.658, 95.208
758.947, 135.058
760.237, 139.166
761.526, 112.093
762.815, 104.909
764.104, 92.743
765.392, 61.772
766.680, 82.736
767.969, 77.103
769.257, 103.243
770.544, 120.254
771.832, 103.693
773.119, 124.187
774.406, 115.912
775.693, 129.906
776.980, 141.687
778.267, 133.824
779.553, 154.390
780.839, 119.912
782.125, 101.618
783.411, 116.042
784.697, 63.687
785.982, 83.688
787.267, 61.179
788.552, 82.473
789.837, 18.755
791.122, 21.308
792.406, 222.258
793.690, 59.280
794.974, 138.941
796.258, 46.971
797.542, 81.071
798.825, 190.437
800.108, 145.810
801.391, 78.994
802.674, 131.749
803.957, 110.639
805.239, 32.234
806.522, 134.101
807.804, 145.176
809.085, 109.293
810.367, 192.443
811.649, 77.425
812.930, 88.377
814.211, 120.463
815.492, 118.242
816.772, 54.126
818.053, 36.545
819.333, 78.999
820.613, 58.595
821.893, 122.274
823.173, 75.895
824.452, 123.822
825.732, 58.250
827.011, 77.814
828.290, 90.021
829.568, 34.188
830.847, 48.394
832.125, 8.584
833.403, 44.531
834.681, 68.695
835.959, 4.271
837.236, 18.713
838.514, 88.013
839.791, 141.464
841.068, 32.669
842.345, 25.909
843.621, 4.665
844.898, 23.153
846.174, 18.589
847.450, 1.717
848.726, 9.995
850.001, 34.165
851.277, 126.661
852.552, 152.031
853.827, 87.229
855.102, 56.098
856.376, 34.007
857.651, 19.388
858.925, 17.266
860.199, 168.015
861.473, 14.386
862.746, 17.558
864.020, 75.813
865.293, 13.237
866.566, 40.514
867.839, 32.229
869.112, 128.434
870.384, 56.263
871.656, 42.579
872.928, 123.437
874.200, 89.526
875.472, 56.831
876.744, 116.575
878.015, 115.614
879.286, 103.595
880.557, 16.384
881.828, 76.273
883.098, 12.272
884.369, 80.146
885.639, 91.129
886.909, 23.456
888.178, 33.708
889.448, 26.063
890.717, 10.145
891.987, 43.982
893.256, 40.367
894.524, 79.086
895.793, 114.447
897.061, 197.996
898.330, 39.465
899.598, 174.935
900.865, 30.417
902.133, 86.748
903.401, 204.403
904.668, 128.663
905.935, 133.377
907.202, 103.848
908.468, 82.735
909.735, 262.207
911.001, 123.556
912.267, 256.083
913.533, 17.360
914.799, 141.082
916.064, 138.508
917.330, 64.895
918.595, 137.162
919.860, 88.530
921.124, 16.116
922.389, 86.353
923.653, 132.902
924.918, 37.396
926.182, 293.986
927.445, 16.556
928.709, 207.196
929.972, 91.897
931.236, 131.579
932.499, 286.359
933.761, 30.993
935.024, 251.576
936.286, 195.217
937.549, 157.650
938.811, 121.179
940.073, 60.626
941.334, 77.375
942.596, 52.471
943.857, 115.790
945.118, 151.700
946.379, 192.205
947.640, 168.055
948.900, 175.533
950.161, 72.163
951.421, 191.087
952.681, 262.015
953.940, 141.674
955.200, 341.570
956.459, 109.394
957.719, 268.903
958.978, 223.854
960.236, 231.812
961.495, 251.688
962.753, 184.655
964.012, 187.424
965.270, 95.052
966.527, 251.038
967.785, 346.789
969.043, 385.294
970.300, 278.642
971.557, 260.522
972.814, 185.334
974.071, 171.373
975.327, 470.286
976.583, 189.342
977.840, 352.214
979.095, 96.183
980.351, 240.244
981.607, 322.564
982.862, 81.477
984.117, 230.239
985.372, 182.117
986.627, 223.158
987.882, 263.943
989.136, 166.804
990.390, 274.943
991.644, 209.090
992.898, 278.072
994.152, 370.101
995.405, 252.771
996.659, 246.736
997.912, 267.103
999.165, 231.013
1000.417, 191.547
1001.670, 227.649
1002.922, 224.896
1004.174, 181.513
1005.426, 184.773
1006.678, 164.958
1007.930, 267.543
1009.181, 110.669
1010.432, 257.031
1011.683, 176.473
1012.934, 265.625
1014.185, 298.842
1015.435, 296.220
1016.685, 330.857
1017.935, 312.396
1019.185, 290.784
1020.435, 381.723
1021.684, 322.190
1022.934, 309.929
1024.183, 343.881
1025.432, 296.744
1026.680, 342.283
1027.929, 302.034
1029.177, 393.591
1030.425, 309.383
1031.673, 234.064
1032.921, 397.247
1034.169, 309.012
1035.416, 282.625
1036.663, 286.308
1037.911, 311.136
1039.157, 367.800
1040.404, 342.481
1041.650, 352.310
1042.897, 352.077
1044.143, 342.183
1045.389, 335.892
1046.634, 375.606
1047.880, 385.428
1049.125, 471.543
1050.371, 470.271
1051.615, 428.675
1052.860, 325.416
1054.105, 378.361
1055.349, 332.469
1056.593, 425.243
1057.837, 380.237
1059.081, 395.018
1060.325, 387.804
1061.568, 338.662
1062.812, 406.624
1064.055, 327.941
1065.298, 393.767
1066.540, 329.726
1067.783, 288.778
1069.025, 402.610
1070.267, 265.652
1071.509, 384.212
1072.751, 282.058
1073.993, 262.154
1075.234, 415.007
1076.475, 495.861
1077.716, 388.125
1078.957, 417.984
1080.198, 316.924
1081.438, 338.785
1082.679, 437.647
1083.919, 300.411
1085.159, 362.410
1086.398, 227.279
1087.638, 250.359
1088.877, 375.324
1090.116, 189.451
1091.355, 203.492
1092.594, 329.375
1093.833, 181.260
1095.071, 244.146
1096.309, 245.031
1097.547, 281.101
1098.785, 245.989
1100.023, 238.142
1101.260, 389.405
1102.498, 263.410
1103.735, 239.299
1104.972, 326.566
1106.208, 241.454
1107.445, 253.594
1108.681, 237.482
1109.918, 223.850
1111.154, 270.257
1112.389, 246.142
1113.625, 190.295
1114.860, 222.443
1116.096, 39.670
1117.331, 79.763
1118.566, 171.903
1119.800, 79.156
1121.035, 160.432
1122.269, 112.304
1123.503, 174.535
1124.737, 184.467
1125.971, 123.151
1127.205, 198.009
1128.438, 239.361
1129.671, 249.480
1130.904, 135.050
1132.137, 181.469
1133.370, 178.275
1134.602, 230.198
1135.834, 96.043
1137.066, 198.110
1138.298, 71.996
1139.530, 117.828
1140.762, 126.483
1141.993, 3.479
1143.224, 144.813
1144.455, 103.645
1145.686, 5.463
1146.917, 189.218
1148.147, 123.406
1149.377, 127.561
1150.607, 29.937
1151.837, 78.718
1153.067, 54.633
1154.296, 165.856
1155.526, 105.328
1156.755, 73.688
1157.984, 57.676
1159.213, 1.770
1160.441, 43.624
1161.670, 32.870
1162.898, 31.359
1164.126, 67.873
1165.354, 80.506
1166.581, 86.954
1167.809, 5.847
1169.036, 117.593
1170.263, 22.716
1171.490, 42.529
1172.717, 0.832
1173.943, 125.161
1175.170, 35.883
1176.396, 215.162
1177.622, 30.551
1178.848, 50.319
1180.073, 156.249
1181.299, 32.912
1182.524, 150.621
1183.749, 82.944
1184.974, 52.819
1186.199, 229.928
1187.423, 158.585
1188.648, 89.049
1189.872, 173.054
1191.096, 109.928
1192.320, 121.477
1193.543, 176.136
1194.767, 81.761
1195.990, 136.149
1197.213, 149.900
1198.436, 68.703
1199.659, 117.424
1200.881, 72.322
1202.104, 35.604
1203.326, 161.756
1204.548, 68.076
1205.770, 227.416
1206.991, 127.003
1208.213, 106.202
1209.434, 83.911
1210.655, 94.500
1211.876, 120.941
1213.096, 91.995
1214.317, 77.231
1215.537, 164.523
1216.757, 84.220
1217.977, 74.631
1219.197, 260.692
1220.417, 77.157
1221.636, 156.191
1222.855, 281.218
1224.074, 42.304
1225.293, 180.307
1226.512, 3.300
1227.731, 233.275
1228.949, 196.242
1230.167, 227.477
1231.385, 114.425
1232.603, 263.360
1233.820, 98.715
1235.038, 127.626
1236.255, 90.524
1237.472, 112.757
1238.689, 170.629
1239.906, 180.467
1241.122, 290.289
1242.338, 254.098
1243.555, 112.891
1244.771, 164.667
1245.986, 95.433
1247.202, 70.183
1248.417, 132.919
1249.633, 221.841
1250.848, 72.718
1252.063, 177.384
1253.277, 105.021
1254.492, 175.640
1255.706, 192.239
1256.920, 249.822
1258.134, 219.208
1259.348, 104.938
1260.562, 107.470
1261.775, 88.969
1262.988, 35.596
1264.201, 110.745
1265.414, 84.041
1266.627, 79.365
1267.839, 225.573
1269.052, 89.760
1270.264, 161.985
1271.476, 134.083
1272.688, 47.120
1273.899, 173.122
1275.111, 184.083
1276.322, 170.009
1277.533, 198.913
1278.744, 186.277
1279.955, 165.856
1281.165, 196.453
1282.376, 130.223
1283.586, 172.979
1284.796, 203.812
1286.006, 40.495
1287.215, 144.184
1288.425, 3.287
1289.634, 182.260
1290.843, 167.780
1292.052, 41.078
1293.261, 95.547
1294.469, 102.989
1295.678, 58.401
1296.886, 218.865
1298.094, 164.219
1299.302, 88.541
1300.509, 200.836
1301.717, 135.103
1302.924, 143.339
1304.131, 117.547
1305.338, 36.576
1306.545, 16.713
1307.752, 20.783
1308.958, 68.198
1310.164, 38.216
1311.370, 19.247
1312.576, 15.345
1313.782, 56.025
1314.987, 92.851
1316.193, 8.470
1317.398, 25.231
1318.603, 27.137
1319.807, 115.815
1321.012, 85.266
1322.216, 38.110
1323.421, 145.257
1324.625, 25.677
1325.829, 29.192
1327.032, 215.767
1328.236, 54.772
1329.439, 24.601
1330.642, 61.809
1331.845, 12.839
1333.048, 196.476
1334.251, 18.774
1335.453, 85.035
1336.656, 159.273
1337.858, 129.488
1339.060, 133.683
1340.261, 202.127
1341.463, 102.280
1342.664, 183.414
1343.866, 48.645
1345.067, 36.271
1346.267, 237.619
1347.468, 44.899
1348.669, 169.911
1349.869, 160.696
1351.069, 97.523
1352.269, 217.315
1353.469, 70.996
1354.668, 83.459
1355.868, 114.888
1357.067, 43.350
1358.266, 14.376
1359.465, 161.789
1360.664, 63.333
1361.862, 103.658
1363.061, 250.232
1364.259, 87.471
1365.457, 231.975
1366.655, 209.569
1367.852, 170.995
1369.050, 193.309
1370.247, 221.445
1371.444, 240.738
1372.641, 260.180
1373.838, 124.390
1375.035, 193.477
1376.231, 243.272
1377.427, 93.157
1378.623, 387.150
1379.819, 205.401
1381.015, 111.624
1382.211, 296.181
1383.406, 256.864
1384.601, 362.163
1385.796, 413.713
1386.991, 375.184
1388.185, 371.576
1389.380, 320.126
1390.574, 242.987
1391.768, 222.793
1392.962, 147.372
1394.156, 155.155
1395.350, 325.298
1396.543, 213.599
1397.736, 333.959
1398.929, 388.562
1400.122, 194.344
1401.315, 284.159
1402.507, 276.365
1403.700, 226.141
1404.892, 235.593
1406.084, 177.679
1407.276, 178.996
1408.467, 250.674
1409.659, 147.820
1410.850, 259.354
1412.041, 207.969
1413.232, 127.768
1414.423, 266.148
1415.614, 263.201
1416.804, 188.344
1417.994, 205.340
1419.184, 160.197
1420.374, 169.741
1421.564, 153.468
1422.753, 151.825
1423.943, 221.062
1425.132, 294.345
1426.321, 117.872
1427.510, 92.985
1428.698, 220.914
1429.887, 108.230
1431.075, 176.203
1432.263, 283.710
1433.451, 233.169
1434.639, 228.379
1435.827, 196.314
1437.014, 220.281
1438.201, 281.495
1439.388, 85.191
1440.575, 508.757
1441.762, 248.337
1442.949, 145.632
1444.135, 290.846
1445.321, 154.920
1446.507, 210.835
1447.693, 317.053
1448.879, 178.222
1450.064, 102.812
1451.250, 202.257
1452.435, 146.531
1453.620, 206.664
1454.805, 285.100
1455.989, 111.560
1457.174, 253.322
1458.358, 185.911
1459.542, 182.021
1460.726, 354.255
1461.910, 270.443
1463.093, 239.691
1464.277, 153.005
1465.460, 111.875
1466.643, 223.142
1467.826, 176.684
1469.009, 13.188
1470.191, 217.668
1471.373, 153.788
1472.556, 182.312
1473.738, 363.859
1474.919, 244.466
1476.101, 49.188
1477.283, 173.028
1478.464, 79.023
1479.645, 164.165
1480.826, 295.451
1482.007, 30.146
1483.187, 253.388
1484.368, 165.101
1485.548, 130.459
1486.728, 190.338
1487.908, 57.433
1489.088, 4.172
1490.268, 201.702
1491.447, 108.492
1492.626, 202.729
1493.805, 117.485
1494.984, 71.282
1496.163, 162.072
1497.341, 21.889
1498.520, 47.116
1499.698, 31.077
1500.876, 0.000
##END=



