##NAMES=Pyrope
##RRUFFID=R040159
##IDEAL CHEMISTRY=Mg_3_Al_2_(SiO_4_)_3_
##LOCALITY=Meronitz, Bohemia
##OWNER=RRUFF
##SOURCE=University of Arizona Mineral Museum
##DESCRIPTION=Deep red crystal fragments
##STATUS=The identification of this mineral has been confirmed by X-ray diffraction and chemical analysis
##URL=rruff.info/R040159
##MEASURED CHEMISTRY=(Mg_2.17_Fe^2+^_0.47_Ca_0.34_Mn_0.02_)_Σ=3_(Al_1.86_Cr_0.11_Ti_0.03_)_Σ=2_((Si_0.99_Al_0.01_)_Σ=1_O_4_)_3_; trace amounts of Rb?
##PIN_ID=L00224
##ORIENTATION=Laser parallel to -a* (-1 0 0). Fiducial mark perpendicular to laser is parallel to c [0 0 1]
113.559, 0.000
114.949, 29.447
116.339, 22.921
117.729, 19.433
119.119, 47.668
120.508, 53.796
121.897, 89.233
123.286, 79.730
124.675, 97.418
126.063, 81.050
127.452, 92.475
128.840, 103.926
130.228, 129.706
131.615, 122.983
133.003, 153.504
134.390, 159.187
135.777, 172.745
137.164, 246.160
138.550, 319.117
139.937, 310.327
141.323, 413.025
142.709, 431.197
144.094, 496.908
145.480, 487.267
146.865, 485.227
148.250, 493.601
149.635, 397.385
151.019, 390.917
152.403, 389.530
153.788, 267.220
155.171, 316.995
156.555, 204.873
157.939, 196.865
159.322, 174.975
160.705, 113.198
162.088, 40.529
163.470, 12.958
164.853, 12.477
166.235, 22.924
167.617, 28.255
168.998, 37.531
170.380, 7.769
171.761, 39.979
173.142, 21.168
174.523, 26.337
175.904, 18.485
177.284, 31.389
178.664, 5.283
180.044, 101.199
181.424, 118.136
182.803, 172.094
184.183, 246.074
185.562, 245.076
186.940, 361.100
188.319, 427.146
189.698, 507.216
191.076, 545.310
192.454, 538.443
193.831, 627.625
195.209, 637.958
196.586, 698.448
197.963, 739.174
199.340, 806.085
200.717, 873.141
202.093, 925.323
203.470, 980.589
204.846, 1003.914
206.221, 1030.264
207.597, 1056.681
208.972, 1036.106
210.347, 1022.541
211.722, 984.971
213.097, 1013.386
214.472, 873.782
215.846, 889.155
217.220, 789.500
218.594, 708.808
219.967, 715.073
221.341, 657.261
222.714, 578.342
224.087, 520.278
225.460, 555.087
226.832, 494.772
228.204, 481.365
229.577, 476.911
230.948, 423.443
232.320, 442.975
233.692, 450.519
235.063, 484.077
236.434, 495.649
237.805, 447.235
239.175, 496.835
240.545, 484.450
241.916, 490.078
243.286, 500.720
244.655, 513.375
246.025, 520.370
247.394, 545.729
248.763, 531.426
250.132, 574.139
251.501, 567.867
252.869, 598.610
254.237, 524.371
255.605, 566.148
256.973, 516.944
258.340, 540.757
259.708, 596.589
261.075, 522.438
262.442, 527.308
263.808, 539.195
265.175, 450.101
266.541, 391.026
267.907, 417.052
269.273, 424.491
270.639, 449.184
272.004, 448.659
273.369, 419.741
274.734, 450.462
276.099, 423.862
277.463, 497.912
278.828, 480.368
280.192, 495.240
281.556, 513.253
282.919, 478.075
284.283, 529.866
285.646, 573.130
287.009, 551.235
288.372, 560.108
289.734, 550.405
291.097, 610.518
292.459, 606.269
293.821, 606.692
295.183, 565.974
296.544, 574.911
297.905, 665.743
299.266, 660.377
300.627, 703.848
301.988, 740.397
303.348, 712.724
304.709, 778.743
306.069, 754.456
307.428, 879.905
308.788, 903.122
310.147, 1004.193
311.507, 978.184
312.865, 1071.151
314.224, 1124.904
315.583, 1195.665
316.941, 1245.455
318.299, 1278.765
319.657, 1312.317
321.015, 1386.364
322.372, 1330.389
323.729, 1351.276
325.086, 1405.652
326.443, 1360.990
327.800, 1401.656
329.156, 1486.392
330.512, 1564.175
331.868, 1675.716
333.224, 1749.766
334.579, 1905.773
335.935, 2047.847
337.290, 2253.188
338.645, 2431.290
339.999, 2688.968
341.354, 2850.817
342.708, 3122.088
344.062, 3476.925
345.416, 3764.938
346.769, 4283.400
348.123, 4658.195
349.476, 5528.008
350.829, 6106.288
352.182, 7052.579
353.534, 8114.878
354.887, 9257.188
356.239, 10669.508
357.591, 12081.833
358.942, 13324.168
360.294, 14066.512
361.645, 14408.863
362.996, 14231.222
364.347, 13463.587
365.698, 12385.958
367.048, 10988.333
368.398, 9760.712
369.748, 8543.099
371.098, 7628.491
372.448, 6797.890
373.797, 5904.300
375.146, 5273.721
376.495, 4726.155
377.844, 4255.604
379.192, 3848.065
380.540, 3425.544
381.889, 3114.039
383.236, 2727.554
384.584, 2522.096
385.932, 2228.663
387.279, 2006.250
388.626, 1782.857
389.973, 1598.488
391.319, 1387.149
392.666, 1245.841
394.012, 1090.557
395.358, 1014.291
396.704, 961.048
398.049, 806.823
399.394, 738.619
400.740, 683.436
402.084, 599.268
403.429, 531.119
404.774, 505.988
406.118, 391.875
407.462, 385.776
408.806, 330.697
410.150, 281.631
411.493, 269.573
412.836, 225.523
414.179, 209.484
415.522, 139.453
416.865, 165.433
418.207, 135.428
419.549, 70.437
420.891, 55.459
422.233, 12.498
423.575, 26.545
424.916, 2.401
426.257, 27.655
427.598, 33.713
428.939, 5.226
430.279, 8.164
431.619, 44.097
432.959, 40.038
434.299, 40.986
435.639, 73.946
436.978, 27.935
438.318, 16.952
439.657, 35.979
440.996, 48.039
442.334, 54.129
443.673, 4.256
445.011, 37.403
446.349, 1.418
447.687, 2.778
449.024, 31.992
450.361, 65.768
451.699, 37.516
453.036, 66.251
454.372, 85.977
455.709, 67.693
457.045, 126.400
458.381, 154.101
459.717, 202.794
461.053, 192.482
462.388, 261.164
463.724, 301.840
465.059, 278.510
466.394, 353.178
467.728, 357.842
469.063, 421.505
470.397, 454.167
471.731, 443.829
473.065, 440.492
474.398, 485.154
475.732, 514.838
477.065, 571.482
478.398, 635.147
479.731, 688.815
481.063, 775.484
482.396, 903.156
483.728, 975.833
485.060, 1063.513
486.391, 1134.199
487.723, 1090.896
489.054, 1000.606
490.385, 914.329
491.716, 877.073
493.047, 816.839
494.377, 761.630
495.708, 795.436
497.038, 759.266
498.368, 840.114
499.697, 852.982
501.027, 1044.867
502.356, 1201.759
503.685, 1354.661
505.014, 1603.566
506.342, 1806.474
507.671, 2035.381
508.999, 2074.287
510.327, 2016.192
511.655, 1933.093
512.982, 1682.990
514.310, 1568.884
515.637, 1449.774
516.964, 1304.691
518.291, 1308.688
519.617, 1282.849
520.944, 1311.919
522.270, 1277.068
523.596, 1334.328
524.921, 1322.449
526.247, 1343.659
527.572, 1400.881
528.897, 1380.114
530.222, 1458.650
531.547, 1435.367
532.871, 1469.542
534.196, 1622.078
535.520, 1725.082
536.844, 1827.382
538.167, 1965.478
539.491, 2090.313
540.814, 2363.053
542.137, 2581.034
543.460, 2978.634
544.783, 3224.870
546.105, 3567.286
547.427, 4068.070
548.749, 4614.358
550.071, 5448.273
551.393, 6288.567
552.714, 7334.422
554.035, 8800.840
555.356, 10257.393
556.677, 11442.450
557.998, 12258.646
559.318, 12344.541
560.638, 11499.444
561.958, 10194.930
563.278, 8610.618
564.597, 6802.509
565.917, 5433.419
567.236, 4409.229
568.555, 3491.491
569.874, 2826.564
571.192, 2353.995
572.511, 1897.390
573.829, 1685.748
575.147, 1411.887
576.464, 1323.555
577.782, 1134.066
579.099, 993.721
580.416, 1014.784
581.733, 966.510
583.050, 853.327
584.366, 876.536
585.683, 835.876
586.999, 798.243
588.315, 827.365
589.630, 799.685
590.946, 766.371
592.261, 746.052
593.576, 670.729
594.891, 642.627
596.206, 649.930
597.520, 561.528
598.834, 515.375
600.148, 528.956
601.462, 524.098
602.776, 497.930
604.089, 446.471
605.402, 410.427
606.715, 440.204
608.028, 433.005
609.341, 427.134
610.653, 404.111
611.965, 410.219
613.277, 389.340
614.589, 383.749
615.901, 371.363
617.212, 370.370
618.523, 385.363
619.834, 383.340
621.145, 383.302
622.456, 439.249
623.766, 423.181
625.076, 517.098
626.386, 541.999
627.696, 614.885
629.006, 699.755
630.315, 802.610
631.624, 918.450
632.933, 1028.275
634.242, 1158.083
635.551, 1440.876
636.859, 1660.654
638.167, 2007.416
639.475, 2272.163
640.783, 2516.894
642.090, 2617.609
643.398, 2660.308
644.705, 2475.992
646.012, 2178.659
647.318, 1786.311
648.625, 1562.946
649.931, 1298.566
651.237, 1101.169
652.543, 941.755
653.849, 855.325
655.155, 772.879
656.460, 677.416
657.765, 603.936
659.070, 519.439
660.375, 436.925
661.679, 408.394
662.984, 392.847
664.288, 315.282
665.592, 313.700
666.895, 235.101
668.199, 239.486
669.502, 182.853
670.805, 155.203
672.108, 155.536
673.411, 118.852
674.713, 98.151
676.016, 57.432
677.318, 77.693
678.620, 56.936
679.921, 31.160
681.223, 60.363
682.524, 37.547
683.825, 32.712
685.126, 30.385
686.427, 16.982
687.727, 12.084
689.028, 2.990
690.328, 3.036
691.628, 10.779
692.927, 15.801
694.227, 12.862
695.526, 24.959
696.825, 20.100
698.124, 38.282
699.423, 63.513
700.721, 48.807
702.020, 36.156
703.318, 26.553
704.616, 50.993
705.913, 61.487
707.211, 68.043
708.508, 45.662
709.805, 23.332
711.102, 42.042
712.399, 18.802
713.695, 37.597
714.992, 33.439
716.288, 18.325
717.584, 28.246
718.879, 32.208
720.175, 20.211
721.470, 21.250
722.765, 36.324
724.060, 12.441
725.355, 6.411
726.649, 0.756
727.944, 0.947
729.238, 1.160
730.532, 14.396
731.825, 23.661
733.119, 21.960
734.412, 26.320
735.705, 34.657
736.998, 17.060
738.291, 2.489
739.584, 16.062
740.876, 22.600
742.168, 17.125
743.460, 6.637
744.752, 19.863
746.043, 1.613
747.334, 37.082
748.626, 21.545
749.916, 12.004
751.207, 0.534
752.498, 9.919
753.788, 7.362
755.078, 24.200
756.368, 5.778
757.658, 22.639
758.947, 43.047
760.237, 9.451
761.526, 28.845
762.815, 18.230
764.104, 20.611
765.392, 23.981
766.680, 16.342
767.969, 22.426
769.257, 49.031
770.544, 32.361
771.832, 41.682
773.119, 56.993
774.406, 42.296
775.693, 64.589
776.980, 71.874
778.267, 65.150
779.553, 79.417
780.839, 79.676
782.125, 90.927
783.411, 85.170
784.697, 88.285
785.982, 71.632
787.267, 86.851
788.552, 94.062
789.837, 93.267
791.122, 111.940
792.406, 100.654
793.690, 142.837
794.974, 141.013
796.258, 159.182
797.542, 164.345
798.825, 194.501
800.108, 215.651
801.391, 212.795
802.674, 220.933
803.957, 235.066
805.239, 260.192
806.522, 292.314
807.804, 317.430
809.085, 348.273
810.367, 372.989
811.649, 405.760
812.930, 418.864
814.211, 438.968
815.492, 455.068
816.772, 494.163
818.053, 522.254
819.333, 589.345
820.613, 629.433
821.893, 632.518
823.173, 640.598
824.452, 726.676
825.732, 753.750
827.011, 763.821
828.290, 874.860
829.568, 864.817
830.847, 892.616
832.125, 922.515
833.403, 986.333
834.681, 1074.039
835.959, 1173.885
837.236, 1291.649
838.514, 1357.403
839.791, 1465.153
841.068, 1704.603
842.345, 1869.880
843.621, 2148.708
844.898, 2311.173
846.174, 2611.185
847.450, 2942.902
848.726, 3266.820
850.001, 3775.008
851.277, 4241.529
852.552, 4828.933
853.827, 5330.787
855.102, 6146.591
856.376, 6652.224
857.651, 7068.485
858.925, 7321.763
860.199, 7492.368
861.473, 7288.112
862.746, 6971.303
864.020, 6492.926
865.293, 6087.406
866.566, 5570.377
867.839, 5101.203
869.112, 4817.327
870.384, 4372.435
871.656, 4079.956
872.928, 3964.270
874.200, 3714.375
875.472, 3503.454
876.744, 3512.630
878.015, 3362.346
879.286, 3442.248
880.557, 3392.784
881.828, 3518.353
883.098, 3572.953
884.369, 3646.767
885.639, 3948.044
886.909, 3998.476
888.178, 4163.682
889.448, 4406.412
890.717, 4565.295
891.987, 4922.145
893.256, 5145.422
894.524, 5445.744
895.793, 5939.060
897.061, 6257.352
898.330, 6939.365
899.598, 7380.656
900.865, 8210.130
902.133, 9365.553
903.401, 10254.958
904.668, 12084.288
905.935, 14093.719
907.202, 16343.162
908.468, 19621.311
909.735, 22770.576
911.001, 27360.141
912.267, 32369.799
913.533, 37439.340
914.799, 43798.977
916.064, 46778.594
917.330, 51388.242
918.595, 52007.926
919.860, 49247.590
921.124, 45847.301
922.389, 41027.090
923.653, 34706.883
924.918, 30116.709
926.182, 24486.531
927.445, 20926.385
928.709, 17766.234
929.972, 15056.110
931.236, 13145.994
932.499, 11395.890
933.761, 9875.803
935.024, 8715.726
936.286, 7561.665
937.549, 6795.619
938.811, 5919.585
940.073, 5285.566
941.334, 4856.562
942.596, 4242.570
943.857, 3822.594
945.118, 3485.631
946.379, 3080.683
947.640, 3023.750
948.900, 2635.831
950.161, 2502.927
951.421, 2375.038
952.681, 2200.781
953.940, 2167.303
955.200, 2014.458
956.459, 1893.628
957.719, 1795.819
958.978, 1693.666
960.236, 1713.000
961.495, 1560.230
962.753, 1533.557
964.012, 1529.539
965.270, 1352.552
966.527, 1370.843
967.785, 1319.148
969.043, 1273.469
970.300, 1187.760
971.557, 1205.111
972.814, 1171.477
974.071, 1097.859
975.327, 1088.255
976.583, 1094.668
977.840, 1007.095
979.095, 1019.843
980.351, 1020.205
981.607, 928.546
982.862, 1010.503
984.117, 942.250
985.372, 986.502
986.627, 918.172
987.882, 861.271
989.136, 897.046
990.390, 822.252
991.644, 791.884
992.898, 778.891
994.152, 765.955
995.405, 721.549
996.659, 684.992
997.912, 664.990
999.165, 628.640
1000.417, 640.649
1001.670, 626.975
1002.922, 610.178
1004.174, 553.715
1005.426, 597.262
1006.678, 635.828
1007.930, 591.838
1009.181, 633.795
1010.432, 693.648
1011.683, 625.672
1012.934, 728.506
1014.185, 749.596
1015.435, 794.711
1016.685, 824.854
1017.935, 850.020
1019.185, 882.213
1020.435, 935.650
1021.684, 968.891
1022.934, 1006.894
1024.183, 1051.448
1025.432, 1075.760
1026.680, 1127.095
1027.929, 1157.455
1029.177, 1226.835
1030.425, 1179.229
1031.673, 1269.639
1032.921, 1242.064
1034.169, 1217.506
1035.416, 1373.966
1036.663, 1341.447
1037.911, 1406.949
1039.157, 1532.473
1040.404, 1552.020
1041.650, 1660.586
1042.897, 1797.167
1044.143, 1893.759
1045.389, 2103.364
1046.634, 2105.981
1047.880, 2349.609
1049.125, 2543.256
1050.371, 2521.914
1051.615, 2704.584
1052.860, 2700.265
1054.105, 2595.957
1055.349, 2559.664
1056.593, 2316.384
1057.837, 2102.115
1059.081, 1834.865
1060.325, 1559.627
1061.568, 1382.400
1062.812, 1137.182
1064.055, 1001.974
1065.298, 870.776
1066.540, 723.588
1067.783, 637.411
1069.025, 552.244
1070.267, 483.087
1071.509, 472.940
1072.751, 357.809
1073.993, 325.687
1075.234, 326.574
1076.475, 268.471
1077.716, 239.377
1078.957, 251.293
1080.198, 186.222
1081.438, 192.161
1082.679, 141.113
1083.919, 177.078
1085.159, 156.052
1086.398, 136.037
1087.638, 129.031
1088.877, 79.032
1090.116, 114.044
1091.355, 99.067
1092.594, 45.102
1093.833, 51.144
1095.071, 75.193
1096.309, 54.249
1097.547, 57.313
1098.785, 63.389
1100.023, 37.472
1101.260, 56.562
1102.498, 32.657
1103.735, 14.783
1104.972, 4.893
1106.208, 2.012
1107.445, 18.137
1108.681, 23.733
1109.918, 10.399
1111.154, 3.464
1112.389, 21.323
1113.625, 21.185
1114.860, 37.950
1116.096, 18.090
1117.331, 7.234
1118.566, 23.617
1119.800, 7.526
1121.035, 55.672
1122.269, 103.823
1123.503, 88.977
1124.737, 16.135
1125.971, 21.296
1127.205, 6.541
1128.438, 18.378
1129.671, 51.221
1130.904, 60.088
1132.137, 22.982
1133.370, 12.886
1134.602, 36.796
1135.834, 42.723
1137.066, 36.671
1138.298, 42.638
1139.530, 32.628
1140.762, 53.634
1141.993, 53.668
1143.224, 12.732
1144.455, 73.804
1145.686, 17.917
1146.917, 11.042
1148.147, 48.176
1149.377, 36.338
1150.607, 17.523
1151.837, 53.721
1153.067, 20.953
1154.296, 36.200
1155.526, 10.473
1156.755, 15.243
1157.984, 22.042
1159.213, 19.655
1160.441, 35.650
1161.670, 20.018
1162.898, 22.684
1164.126, 38.349
1165.354, 48.011
1166.581, 55.672
1167.809, 9.329
1169.036, 70.980
1170.263, 21.629
1171.490, 32.274
1172.717, 72.916
1173.943, 69.554
1175.170, 108.188
1176.396, 78.817
1177.622, 98.520
1178.848, 87.141
1180.073, 94.821
1181.299, 93.434
1182.524, 112.103
1183.749, 98.734
1184.974, 83.446
1186.199, 134.157
1187.423, 118.791
1188.648, 121.486
1189.872, 94.210
1191.096, 113.927
1192.320, 123.804
1193.543, 120.418
1194.767, 128.031
1195.990, 153.745
1197.213, 128.419
1198.436, 142.189
1199.659, 105.828
1200.881, 150.455
1202.104, 138.948
1203.326, 135.865
1204.548, 157.731
1205.770, 135.548
1206.991, 125.196
1208.213, 140.830
1209.434, 118.481
1210.655, 113.089
1211.876, 141.638
1213.096, 133.304
1214.317, 143.204
1215.537, 121.807
1216.757, 126.645
1217.977, 122.477
1219.197, 143.416
1220.417, 136.150
1221.636, 162.843
1222.855, 126.656
1224.074, 114.353
1225.293, 127.215
1226.512, 108.889
1227.731, 116.991
1228.949, 113.475
1230.167, 121.234
1231.385, 144.927
1232.603, 136.148
1233.820, 126.015
1235.038, 143.464
1236.255, 103.510
1237.472, 140.088
1238.689, 143.321
1239.906, 105.970
1241.122, 109.341
1242.338, 100.505
1243.555, 120.606
1244.771, 104.201
1245.986, 110.685
1247.202, 133.222
1248.417, 113.555
1249.633, 81.375
1250.848, 141.702
1252.063, 150.973
1253.277, 145.213
1254.492, 113.619
1255.706, 97.129
1256.920, 128.400
1258.134, 127.651
1259.348, 113.162
1260.562, 119.572
1261.775, 134.921
1262.988, 153.078
1264.201, 167.125
1265.414, 163.424
1266.627, 193.541
1267.839, 175.624
1269.052, 155.716
1270.264, 192.719
1271.476, 169.746
1272.688, 188.803
1273.899, 176.525
1275.111, 194.615
1276.322, 151.856
1277.533, 200.458
1278.744, 171.269
1279.955, 183.515
1281.165, 191.368
1282.376, 195.763
1283.586, 188.455
1284.796, 168.737
1286.006, 147.729
1287.215, 180.230
1288.425, 183.812
1289.634, 148.732
1290.843, 186.800
1292.052, 171.323
1293.261, 149.246
1294.469, 109.845
1295.678, 111.084
1296.886, 115.466
1298.094, 115.523
1299.302, 133.583
1300.509, 122.687
1301.717, 123.639
1302.924, 100.000
1304.131, 119.856
1305.338, 106.497
1306.545, 120.364
1307.752, 109.961
1308.958, 102.661
1310.164, 109.259
1311.370, 100.886
1312.576, 83.422
1313.782, 92.719
1314.987, 82.338
1316.193, 86.838
1317.398, 96.277
1318.603, 79.689
1319.807, 90.125
1321.012, 85.507
1322.216, 42.923
1323.421, 73.276
1324.625, 46.812
1325.829, 79.178
1327.032, 47.505
1328.236, 55.812
1329.439, 35.088
1330.642, 34.374
1331.845, 51.592
1333.048, 35.941
1334.251, 31.200
1335.453, 31.391
1336.656, 18.589
1337.858, 49.742
1339.060, 49.134
1340.261, 29.260
1341.463, 33.360
1342.664, 23.510
1343.866, 36.572
1345.067, 37.615
1346.267, 0.232
1347.468, 13.770
1348.669, 15.754
1349.869, 17.739
1351.069, 29.687
1352.269, 30.394
1353.469, 27.521
1354.668, 31.412
1355.868, 39.282
1357.067, 24.134
1358.266, 10.980
1359.465, 27.786
1360.664, 12.571
1361.862, 12.337
1363.061, 9.922
1364.259, 15.794
1365.457, 17.490
1366.655, 11.182
1367.852, 15.837
1369.050, 8.471
1370.247, 9.891
1371.444, 12.699
1372.641, 7.731
1373.838, 9.184
1375.035, 12.349
1376.231, 1.114
1377.427, 5.314
1378.623, 25.697
1379.819, 1.047
1381.015, 7.640
1382.211, 2.352
1383.406, 10.903
1384.601, 30.127
1385.796, 10.300
1386.991, 10.464
1388.185, 9.401
1389.380, 16.708
1390.574, 12.796
1391.768, 27.871
1392.962, 1.921
1394.156, 25.957
1395.350, 6.033
1396.543, 32.953
1397.736, 15.917
1398.929, 7.116
1400.122, 25.883
1401.315, 18.887
1402.507, 27.921
1403.700, 41.985
1404.892, 15.095
1406.084, 35.241
1407.276, 59.417
1408.467, 20.632
1409.659, 38.884
1410.850, 45.180
1412.041, 41.492
1413.232, 60.814
1414.423, 53.158
1415.614, 44.492
1416.804, 49.814
1417.994, 56.132
1419.184, 30.440
1420.374, 34.741
1421.564, 36.923
1422.753, 53.115
1423.943, 49.300
1425.132, 58.355
1426.321, 78.364
1427.510, 63.213
1428.698, 33.737
1429.887, 61.779
1431.075, 33.513
1432.263, 65.153
1433.451, 71.557
1434.639, 68.425
1435.827, 56.741
1437.014, 51.289
1438.201, 74.986
1439.388, 63.887
1440.575, 69.918
1441.762, 63.425
1442.949, 52.247
1444.135, 72.805
1445.321, 60.947
1446.507, 43.481
1447.693, 53.740
1448.879, 46.526
1450.064, 55.335
1451.250, 19.253
1452.435, 36.692
1453.620, 24.462
1454.805, 37.279
1455.989, 38.549
1457.174, 13.026
1458.358, 28.454
1459.542, 34.251
1460.726, 37.380
1461.910, 26.880
1463.093, 40.897
1464.277, 23.248
1465.460, 39.682
1466.643, 2.217
1467.826, 23.596
1469.009, 28.960
1470.191, 28.675
1471.373, 31.597
1472.556, 53.607
1473.738, 33.776
1474.919, 5.371
1476.101, 15.861
1477.283, 48.806
1478.464, 20.326
1479.645, 41.047
1480.826, 3.247
1482.007, 21.258
1483.187, 48.752
1484.368, 5.430
1485.548, 43.739
1486.728, 37.024
1487.908, 1.254
1489.088, 59.810
1490.268, 33.783
1491.447, 12.584
1492.626, 47.278
1493.805, 41.839
1494.984, 27.435
1496.163, 33.184
1497.341, 50.107
1498.520, 24.424
1499.698, 8.881
1500.876, 36.469
1502.054, 13.386
1503.232, 23.830
1504.409, 35.047
1505.586, 33.119
1506.763, 33.541
1507.940, 2.459
1509.117, 16.562
1510.294, 19.487
1511.470, 0.311
1512.647, 9.035
1513.823, 22.017
1514.999, 5.432
1516.174, 0.844
1517.350, 0.051
1518.526, 0.000
##END=



