##NAMES=Pyromorphite
##RRUFFID=R050027
##IDEAL CHEMISTRY=Pb^2+^_5_(PO_4_)_3_Cl
##LOCALITY=Yangshuo, Guangxi Autonomous Region, China
##OWNER=RRUFF
##SOURCE=Eugene Schlepp
##DESCRIPTION=Light green hexagonal prismatic hoppered single crystals
##STATUS=The identification of this mineral has been confirmed by X-ray diffraction and chemical analysis
##URL=rruff.info/R050027
##MEASURED CHEMISTRY=Pb_5.00_(P_1.00_O_4_)_3_Cl_1.00_
##PIN_ID=M00303
##ORIENTATION=Laser parallel to -c* (0 0 -1). Fiducial mark perpendicular to laser is parallel to a [1 0 0]
49.184, 0.000
50.590, 41.630
51.996, 82.983
53.401, 109.147
54.807, 125.557
56.212, 178.318
57.617, 209.752
59.021, 257.991
60.426, 259.908
61.830, 240.259
63.234, 284.962
64.637, 310.674
66.041, 273.621
67.444, 191.641
68.847, 97.098
70.250, 70.968
71.652, 17.227
73.054, 0.849
74.456, 7.809
75.858, 17.923
77.260, 13.373
78.661, 44.566
80.062, 25.522
81.463, 52.744
82.863, 124.217
84.264, 371.896
85.664, 721.784
87.064, 1344.885
88.463, 2095.188
89.863, 2614.676
91.262, 2861.335
92.661, 2787.159
94.059, 2659.145
95.458, 2566.279
96.856, 2563.545
98.254, 2915.924
99.652, 3479.392
101.049, 4775.939
102.446, 6802.565
103.843, 9386.259
105.240, 11487.024
106.637, 12527.854
108.033, 12558.745
109.429, 11359.695
110.825, 10350.706
112.220, 8841.773
113.616, 7825.907
115.011, 6731.120
116.406, 6099.430
117.800, 5520.889
119.195, 5037.477
120.589, 4645.229
121.983, 4438.158
123.377, 4216.243
124.770, 3988.409
126.163, 3820.605
127.556, 3711.830
128.949, 3740.082
130.342, 3613.349
131.734, 3615.624
133.126, 3508.944
134.518, 3593.405
135.909, 3622.973
137.301, 3565.611
138.692, 3670.285
140.083, 3760.961
141.473, 3882.606
142.864, 4042.203
144.254, 4263.729
145.644, 4603.157
147.034, 4822.478
148.423, 5107.668
149.812, 5417.810
151.201, 5676.955
152.590, 6070.109
153.979, 6248.278
155.367, 6409.458
156.755, 6538.652
158.143, 6482.857
159.530, 6425.078
160.918, 6220.312
162.305, 6083.558
163.692, 5854.819
165.078, 5474.095
166.465, 5421.385
167.851, 5208.693
169.237, 5097.020
170.623, 4941.362
172.008, 4897.722
173.393, 4738.119
174.778, 4620.717
176.163, 4566.317
177.548, 4349.202
178.932, 4247.219
180.316, 4098.484
181.700, 3999.849
183.083, 3811.041
184.467, 3714.151
185.850, 3562.015
187.233, 3366.232
188.616, 3267.222
189.998, 3205.328
191.380, 3014.996
192.762, 3040.035
194.144, 3043.838
195.525, 2973.047
196.907, 2851.852
198.288, 2832.288
199.669, 2779.333
201.049, 2794.396
202.429, 2726.479
203.810, 2680.400
205.189, 2699.351
206.569, 2593.419
207.949, 2650.377
209.328, 2530.016
210.707, 2569.609
212.085, 2461.078
213.464, 2366.550
214.842, 2321.022
216.220, 2240.295
217.598, 2242.166
218.976, 2024.583
220.353, 1972.519
221.730, 1860.974
223.107, 1825.906
224.483, 1723.339
225.860, 1626.311
227.236, 1545.780
228.612, 1478.548
229.988, 1401.852
231.363, 1308.583
232.738, 1261.507
234.113, 1234.386
235.488, 1167.954
236.863, 1091.320
238.237, 1066.891
239.611, 998.999
240.985, 957.645
242.359, 940.873
243.732, 914.825
245.105, 902.883
246.478, 860.313
247.851, 826.260
249.223, 838.873
250.595, 857.406
251.967, 768.960
253.339, 770.532
254.711, 723.123
256.082, 670.731
257.453, 676.354
258.824, 647.994
260.195, 649.647
261.565, 588.315
262.935, 570.995
264.305, 560.689
265.675, 504.394
267.044, 503.111
268.414, 529.839
269.783, 488.578
271.151, 458.328
272.520, 393.088
273.888, 373.363
275.256, 402.636
276.624, 336.425
277.992, 307.222
279.359, 328.027
280.726, 282.859
282.093, 264.766
283.460, 225.699
284.827, 213.697
286.193, 198.691
287.559, 217.710
288.925, 183.782
290.290, 151.724
291.656, 162.840
293.021, 116.766
294.386, 129.844
295.750, 87.930
297.115, 71.938
298.479, 73.002
299.843, 75.030
301.207, 70.046
302.570, 64.717
303.933, 28.280
305.296, 43.348
306.659, 24.508
308.022, 3.648
309.384, 17.243
310.746, 22.443
312.108, 4.322
313.470, 22.411
314.831, 0.020
316.193, 40.351
317.554, 3.691
318.914, 13.231
320.275, 26.304
321.635, 0.743
322.995, 20.179
324.355, 35.557
325.715, 2.680
327.074, 14.091
328.434, 45.944
329.792, 11.786
331.151, 22.638
332.510, 47.526
333.868, 11.363
335.226, 43.171
336.584, 49.854
337.941, 34.913
339.299, 11.844
340.656, 31.821
342.013, 5.770
343.370, 30.692
344.726, 24.273
346.082, 22.271
347.438, 22.270
348.794, 21.195
350.150, 18.731
351.505, 24.585
352.860, 10.010
354.215, 39.893
355.570, 29.781
356.924, 43.732
358.278, 18.487
359.632, 13.343
360.986, 21.118
362.339, 24.808
363.693, 33.456
365.046, 58.179
366.399, 72.067
367.751, 55.458
369.104, 108.046
370.456, 123.566
371.808, 123.082
373.159, 172.594
374.511, 176.104
375.862, 211.610
377.213, 237.114
378.564, 326.618
379.914, 392.103
381.265, 513.570
382.615, 626.020
383.965, 789.452
385.315, 1036.877
386.664, 1329.291
388.013, 1738.697
389.362, 2044.100
390.711, 2258.498
392.060, 2342.899
393.408, 2383.314
394.756, 2175.739
396.104, 1911.167
397.451, 1598.602
398.799, 1375.042
400.146, 1176.492
401.493, 1100.953
402.840, 1105.425
404.186, 1173.917
405.533, 1378.421
406.879, 1456.936
408.225, 1683.474
409.570, 1908.029
410.916, 2100.590
412.261, 2402.158
413.606, 2725.732
414.951, 2995.306
416.295, 3156.881
417.639, 3180.463
418.983, 2999.044
420.327, 2565.634
421.671, 2160.227
423.014, 1753.823
424.357, 1341.418
425.700, 1041.012
427.043, 862.609
428.386, 610.202
429.728, 554.794
431.070, 426.388
432.412, 322.984
433.753, 298.577
435.095, 229.170
436.436, 157.755
437.777, 167.331
439.118, 111.896
440.458, 95.453
441.798, 88.000
443.138, 72.536
444.478, 68.060
445.818, 54.569
447.157, 57.064
448.496, 52.543
449.835, 41.006
451.174, 73.453
452.513, 32.883
453.851, 79.296
455.189, 43.693
456.527, 43.073
457.864, 62.419
459.202, 49.684
460.539, 58.964
461.876, 62.209
463.212, 45.421
464.549, 31.619
465.885, 50.677
467.221, 28.798
468.557, 33.790
469.893, 2.661
471.228, 19.612
472.563, 13.509
473.898, 1.659
475.233, 9.434
476.567, 2.408
477.902, 4.197
479.236, 20.414
480.570, 2.013
481.903, 20.164
483.237, 4.470
484.570, 2.651
485.903, 10.983
487.235, 11.597
488.568, 22.861
489.900, 16.688
491.232, 17.759
492.564, 24.732
493.896, 10.859
495.227, 9.081
496.558, 4.445
497.889, 53.805
499.220, 20.248
500.551, 31.101
501.881, 21.823
503.211, 14.384
504.541, 37.771
505.870, 28.447
507.200, 26.049
508.529, 40.831
509.858, 45.334
511.187, 29.753
512.515, 19.342
513.844, 38.262
515.172, 33.896
516.500, 14.192
517.827, 54.858
519.155, 27.425
520.482, 44.231
521.809, 63.735
523.136, 73.498
524.462, 55.765
525.789, 80.831
527.115, 71.258
528.441, 89.771
529.766, 109.934
531.092, 117.738
532.417, 150.504
533.742, 177.152
535.067, 229.849
536.391, 289.572
537.716, 382.828
539.040, 594.324
540.364, 750.551
541.688, 877.383
543.011, 858.882
544.334, 806.361
545.657, 631.379
546.980, 550.362
548.303, 519.435
549.625, 611.355
550.947, 634.751
552.269, 718.691
553.591, 779.478
554.913, 750.549
556.234, 672.354
557.555, 570.558
558.876, 483.077
560.197, 417.077
561.517, 402.372
562.837, 395.353
564.157, 404.437
565.477, 418.339
566.797, 513.718
568.116, 620.773
569.435, 834.073
570.754, 1159.931
572.073, 1652.788
573.391, 2019.135
574.709, 2261.732
576.027, 2066.835
577.345, 1732.056
578.663, 1345.475
579.980, 1003.769
581.297, 806.068
582.614, 610.370
583.931, 519.319
585.248, 447.831
586.564, 368.472
587.880, 335.751
589.196, 301.246
590.511, 312.919
591.827, 286.802
593.142, 284.328
594.457, 309.217
595.772, 286.932
597.086, 267.076
598.401, 228.846
599.715, 256.194
601.029, 258.678
602.343, 225.452
603.656, 229.124
604.969, 231.822
606.282, 222.071
607.595, 212.629
608.908, 216.922
610.220, 227.318
611.532, 212.512
612.844, 230.868
614.156, 220.042
615.468, 202.181
616.779, 179.368
618.090, 162.470
619.401, 185.579
620.712, 166.670
622.022, 159.658
623.332, 151.557
624.642, 146.504
625.952, 153.328
627.262, 156.141
628.571, 143.469
629.880, 156.162
631.189, 122.791
632.498, 129.715
633.807, 118.129
635.115, 124.236
636.423, 122.942
637.731, 115.581
639.039, 120.344
640.346, 102.957
641.653, 84.509
642.960, 104.486
644.267, 87.820
645.574, 96.133
646.880, 75.497
648.186, 98.820
649.492, 83.123
650.798, 48.431
652.103, 78.657
653.409, 44.822
654.714, 76.830
656.019, 55.184
657.323, 37.376
658.628, 45.579
659.932, 51.719
661.236, 58.799
662.540, 54.882
663.843, 56.043
665.147, 46.090
666.450, 57.166
667.753, 59.233
669.056, 49.205
670.358, 33.104
671.660, 46.047
672.963, 62.942
674.264, 41.727
675.566, 39.651
676.868, 29.430
678.169, 12.245
679.470, 29.099
680.771, 15.959
682.071, 21.707
683.372, 13.522
684.672, 9.257
685.972, 18.028
687.271, 25.829
688.571, 25.316
689.870, 27.171
691.169, 24.049
692.468, 21.730
693.767, 8.380
695.065, 2.996
696.364, 6.574
697.662, 13.118
698.960, 19.630
700.257, 16.887
701.555, 5.551
702.852, 4.955
704.149, 13.673
705.446, 3.656
706.742, 21.048
708.038, 46.796
709.335, 29.603
710.631, 3.458
711.926, 16.348
713.222, 8.723
714.517, 14.233
715.812, 7.228
717.107, 2.745
718.402, 41.311
719.696, 3.584
720.990, 5.452
722.284, 19.704
723.578, 15.897
724.872, 21.124
726.165, 31.387
727.458, 48.692
728.751, 26.045
730.044, 31.436
731.336, 56.865
732.629, 28.345
733.921, 64.861
735.213, 48.431
736.504, 50.046
737.796, 35.705
739.087, 31.640
740.378, 58.130
741.669, 29.905
742.960, 41.711
744.250, 58.553
745.540, 55.438
746.830, 40.366
748.120, 52.325
749.410, 26.323
750.699, 24.344
751.988, 12.388
753.277, 28.448
754.566, 20.531
755.854, 25.632
757.143, 8.753
758.431, 6.887
759.719, 12.035
761.006, 1.805
762.294, 48.635
763.581, 47.456
764.868, 36.268
766.155, 79.071
767.442, 53.867
768.728, 63.654
770.014, 53.433
771.300, 95.205
772.586, 77.971
773.872, 94.702
775.157, 110.455
776.442, 74.199
777.727, 121.912
779.012, 136.591
780.297, 132.248
781.581, 118.933
782.865, 156.630
784.149, 150.279
785.433, 167.982
786.716, 211.548
787.999, 190.151
789.282, 206.718
790.565, 258.318
791.848, 276.922
793.130, 282.516
794.413, 289.140
795.695, 250.710
796.977, 313.217
798.258, 289.816
799.540, 252.351
800.821, 266.928
802.102, 247.404
803.382, 233.004
804.663, 181.547
805.943, 219.555
807.224, 111.093
808.504, 124.047
809.783, 141.597
811.063, 109.858
812.342, 66.664
813.621, 85.742
814.900, 97.997
816.179, 173.416
817.457, 234.782
818.736, 254.197
820.014, 271.416
821.292, 233.894
822.569, 271.429
823.847, 253.802
825.124, 251.768
826.401, 234.130
827.678, 215.774
828.954, 223.090
830.231, 133.385
831.507, 111.405
832.783, 105.746
834.059, 76.832
835.334, 78.436
836.610, 63.331
837.885, 72.912
839.160, 54.323
840.435, 16.198
841.709, 96.418
842.983, 48.664
844.258, 67.016
845.532, 147.309
846.805, 93.564
848.079, 162.273
849.352, 194.733
850.625, 217.451
851.898, 245.553
853.171, 243.977
854.443, 193.411
855.715, 184.298
856.988, 131.209
858.259, 95.021
859.531, 111.977
860.803, 91.448
862.074, 65.367
863.345, 70.430
864.616, 88.200
865.886, 45.229
867.157, 115.850
868.427, 103.149
869.697, 124.959
870.967, 115.466
872.236, 145.280
873.506, 194.983
874.775, 214.862
876.044, 229.257
877.313, 261.967
878.581, 296.430
879.849, 327.208
881.118, 374.219
882.386, 428.616
883.653, 451.761
884.921, 558.395
886.188, 613.909
887.455, 676.229
888.722, 726.670
889.989, 831.106
891.255, 894.275
892.522, 1017.326
893.788, 1084.555
895.054, 1171.657
896.319, 1333.128
897.585, 1441.641
898.850, 1638.457
900.115, 1911.328
901.380, 2181.557
902.645, 2553.433
903.909, 3165.488
905.174, 3666.130
906.438, 4486.148
907.701, 5607.586
908.965, 7244.881
910.229, 9297.827
911.492, 12364.858
912.755, 16561.824
914.018, 23359.072
915.280, 33126.363
916.543, 44613.691
917.805, 53661.051
919.067, 56788.449
920.329, 50495.879
921.590, 41363.359
922.852, 31370.871
924.113, 24248.428
925.374, 18426.016
926.635, 14273.640
927.895, 11081.301
929.156, 9198.995
930.416, 7832.730
931.676, 7028.497
932.936, 6691.303
934.195, 6660.145
935.454, 6804.023
936.714, 7389.939
937.973, 7947.896
939.231, 9061.895
940.490, 10149.935
941.748, 11218.021
943.006, 12416.140
944.264, 13074.293
945.522, 13552.492
946.780, 13480.735
948.037, 12679.017
949.294, 11827.332
950.551, 10315.685
951.808, 9134.074
953.064, 7739.509
954.320, 6665.979
955.577, 5743.489
956.832, 4918.039
958.088, 4177.625
959.344, 3666.246
960.599, 3273.910
961.854, 2926.610
963.109, 2574.353
964.364, 2408.135
965.618, 2162.952
966.872, 2061.807
968.127, 1985.698
969.380, 1903.627
970.634, 1879.592
971.888, 1787.594
973.141, 1807.633
974.394, 1858.707
975.647, 1802.818
976.900, 1835.968
978.152, 1837.154
979.404, 1822.375
980.656, 1839.634
981.908, 1840.931
983.160, 1706.267
984.411, 1693.647
985.663, 1707.068
986.914, 1628.529
988.165, 1662.029
989.415, 1579.571
990.666, 1655.155
991.916, 1697.779
993.166, 1695.441
994.416, 1826.140
995.665, 1911.878
996.915, 2062.655
998.164, 2250.634
999.413, 2431.327
1000.662, 2707.224
1001.911, 3004.163
1003.159, 3318.140
1004.407, 3729.155
1005.655, 3985.214
1006.903, 4365.314
1008.151, 4651.452
1009.398, 4709.635
1010.646, 4771.859
1011.893, 4657.126
1013.139, 4470.446
1014.386, 4162.812
1015.633, 3833.219
1016.879, 3539.670
1018.125, 3342.157
1019.371, 3068.686
1020.616, 2838.617
1021.862, 2611.595
1023.107, 2374.512
1024.352, 2160.202
1025.597, 1921.926
1026.842, 1715.690
1028.086, 1643.921
1029.330, 1471.813
1030.574, 1370.706
1031.818, 1265.902
1033.062, 1170.795
1034.305, 1124.665
1035.548, 1057.461
1036.791, 990.833
1038.034, 1001.012
1039.277, 994.502
1040.519, 1008.090
1041.762, 1012.078
1043.004, 1037.568
1044.246, 1015.319
1045.487, 1020.854
1046.729, 999.441
1047.970, 927.684
1049.211, 811.491
1050.452, 795.192
1051.692, 709.700
1052.933, 672.931
1054.173, 615.630
1055.413, 632.405
1056.653, 662.606
1057.893, 618.920
1059.132, 634.860
1060.371, 639.079
1061.610, 607.138
1062.849, 632.569
1064.088, 631.310
1065.326, 657.842
1066.565, 656.915
1067.803, 665.884
1069.041, 672.415
1070.278, 746.451
1071.516, 743.597
1072.753, 800.186
1073.990, 733.699
1075.227, 764.920
1076.464, 761.356
1077.700, 714.751
1078.936, 722.703
1080.173, 673.987
1081.408, 668.637
1082.644, 691.731
1083.880, 703.065
1085.115, 657.759
1086.350, 697.768
1087.585, 686.201
1088.820, 677.141
1090.054, 687.159
1091.288, 686.875
1092.522, 699.399
1093.756, 696.992
1094.990, 682.909
1096.224, 686.872
1097.457, 680.693
1098.690, 662.290
1099.923, 632.638
1101.156, 623.614
1102.388, 551.961
1103.621, 542.380
1104.853, 503.541
1106.085, 546.348
1107.316, 460.006
1108.548, 494.876
1109.779, 414.115
1111.010, 437.221
1112.241, 403.934
1113.472, 354.622
1114.703, 354.633
1115.933, 334.385
1117.163, 327.977
1118.393, 323.826
1119.623, 327.707
1120.853, 320.557
1122.082, 314.332
1123.311, 321.544
1124.540, 286.368
1125.769, 252.252
1126.997, 275.345
1128.226, 233.362
1129.454, 246.419
1130.682, 256.680
1131.910, 250.490
1133.138, 290.886
1134.365, 288.894
1135.592, 288.812
1136.819, 327.268
1138.046, 294.291
1139.273, 314.536
1140.499, 307.640
1141.725, 327.690
1142.951, 400.193
1144.177, 390.433
1145.403, 472.396
1146.628, 544.893
1147.854, 490.903
1149.079, 536.122
1150.304, 499.265
1151.528, 527.305
1152.753, 466.277
1153.977, 423.559
1155.201, 419.652
1156.425, 345.619
1157.649, 312.843
1158.872, 248.837
1160.096, 238.809
1161.319, 191.879
1162.542, 167.867
1163.764, 147.284
1164.987, 91.307
1166.209, 94.361
1167.431, 94.375
1168.653, 49.403
1169.875, 78.372
1171.097, 37.390
1172.318, 18.354
1173.539, 16.327
1174.760, 19.633
1175.981, 2.593
1177.202, 2.429
1178.422, 12.618
1179.642, 21.682
1180.862, 9.604
1182.082, 24.687
1183.302, 55.725
1184.521, 0.197
1185.740, 34.931
1186.959, 12.003
1188.178, 47.160
1189.397, 43.113
1190.615, 33.240
1191.834, 46.257
1193.052, 3.450
1194.269, 37.449
1195.487, 27.741
1196.705, 24.054
1197.922, 54.388
1199.139, 30.757
1200.356, 70.069
1201.573, 19.494
1202.789, 6.873
1204.006, 43.269
1205.222, 35.748
1206.438, 22.074
1207.653, 66.547
1208.869, 39.163
1210.084, 26.770
1211.299, 4.372
1212.514, 12.947
1213.729, 9.901
1214.944, 17.909
1216.158, 24.650
1217.372, 25.056
1218.586, 30.818
1219.800, 4.342
1221.014, 6.504
1222.227, 8.820
1223.440, 6.770
1224.654, 14.365
1225.866, 18.737
1227.079, 7.182
1228.292, 2.909
1229.504, 0.247
1230.716, 13.522
1231.928, 24.062
1233.139, 13.733
1234.351, 4.750
1235.562, 20.872
1236.773, 21.525
1237.984, 29.517
1239.195, 22.428
1240.406, 19.175
1241.616, 21.525
1242.826, 27.159
1244.036, 10.000
1245.246, 20.586
1246.456, 2.199
1247.665, 19.132
1248.874, 0.174
1250.083, 26.728
1251.292, 40.278
1252.501, 50.318
1253.709, 13.881
1254.917, 30.502
1256.125, 11.395
1257.333, 56.828
1258.541, 76.336
1259.748, 44.653
1260.956, 61.036
1262.163, 31.870
1263.370, 77.380
1264.576, 47.628
1265.783, 63.258
1266.989, 89.582
1268.195, 47.915
1269.401, 75.156
1270.607, 69.320
1271.813, 58.424
1273.018, 64.473
1274.223, 63.910
1275.428, 55.062
1276.633, 37.157
1277.838, 52.198
1279.042, 74.287
1280.246, 88.804
1281.450, 53.708
1282.654, 78.704
1283.858, 65.644
1285.061, 75.453
1286.265, 81.407
1287.468, 57.509
1288.671, 71.241
1289.873, 101.010
1291.076, 60.694
1292.278, 94.420
1293.480, 77.292
1294.682, 83.901
1295.884, 95.485
1297.086, 112.115
1298.287, 77.648
1299.488, 93.297
1300.689, 147.779
1301.890, 84.235
1303.091, 114.714
1304.291, 129.141
1305.491, 101.516
1306.691, 119.930
1307.891, 76.249
1309.091, 113.535
1310.290, 106.790
1311.490, 117.022
1312.689, 114.228
1313.888, 144.407
1315.086, 117.557
1316.285, 152.677
1317.483, 128.788
1318.681, 112.851
1319.879, 111.461
1321.077, 115.421
1322.275, 131.395
1323.472, 141.082
1324.669, 105.436
1325.866, 168.115
1327.063, 121.239
1328.260, 122.799
1329.456, 136.572
1330.653, 115.045
1331.849, 135.437
1333.045, 94.126
1334.240, 110.950
1335.436, 93.217
1336.631, 112.707
1337.826, 87.158
1339.021, 127.970
1340.216, 136.230
1341.411, 127.608
1342.605, 142.191
1343.799, 102.057
1344.993, 114.460
1346.187, 97.791
1347.381, 97.701
1348.574, 107.501
1349.767, 75.680
1350.961, 89.581
1352.153, 123.643
1353.346, 95.334
1354.539, 85.716
1355.731, 77.308
1356.923, 65.359
1358.115, 59.076
1359.307, 93.110
1360.498, 48.200
1361.690, 79.181
1362.881, 86.721
1364.072, 83.337
1365.263, 54.248
1366.453, 45.947
1367.644, 43.689
1368.834, 67.879
1370.024, 68.739
1371.214, 62.240
1372.404, 38.304
1373.593, 39.660
1374.783, 30.621
1375.972, 30.824
1377.161, 51.603
1378.349, 59.882
1379.538, 18.996
1380.726, 36.982
1381.915, 28.637
1383.103, 17.058
1384.290, 56.538
1385.478, 63.536
1386.665, 31.420
1387.853, 63.709
1389.040, 49.109
1390.227, 19.608
1391.413, 33.720
1392.600, 18.329
1393.786, 44.233
1394.972, 11.095
1396.158, 38.270
1397.344, 29.981
1398.530, 13.438
1399.715, 42.831
1400.900, 31.706
1402.085, 59.900
1403.270, 40.224
1404.455, 9.268
1405.639, 22.709
1406.824, 52.737
1408.008, 12.906
1409.192, 31.482
1410.375, 27.553
1411.559, 34.816
1412.742, 44.328
1413.925, 3.328
1415.108, 64.451
1416.291, 10.670
1417.474, 28.928
1418.656, 32.144
1419.839, 36.252
1421.021, 25.212
1422.202, 0.342
1423.384, 49.225
1424.566, 25.159
1425.747, 28.104
1426.928, 55.791
1428.109, 18.375
1429.290, 4.883
1430.470, 69.892
1431.651, 32.904
1432.831, 81.787
1434.011, 29.565
1435.191, 7.211
1436.370, 68.138
1437.550, 61.056
1438.729, 25.584
1439.908, 55.139
1441.087, 12.427
1442.266, 55.436
1443.444, 61.496
1444.623, 25.770
1445.801, 31.478
1446.979, 94.125
1448.157, 17.268
1449.334, 59.883
1450.512, 59.173
1451.689, 35.367
1452.866, 63.299
1454.043, 35.824
1455.220, 46.844
1456.396, 42.473
1457.573, 57.834
1458.749, 19.856
1459.925, 31.259
1461.100, 33.576
1462.276, 66.673
1463.451, 61.606
1464.627, 46.752
1465.802, 88.573
1466.977, 47.229
1468.151, 49.622
1469.326, 65.339
1470.500, 31.037
1471.674, 82.530
1472.848, 61.068
1474.022, 26.768
1475.195, 26.864
1476.369, 59.782
1477.542, 6.820
1478.715, 72.818
1479.888, 71.522
1481.061, 33.909
1482.233, 79.582
1483.405, 37.313
1484.577, 49.859
1485.749, 71.696
1486.921, 69.488
1488.093, 73.049
1489.264, 101.952
1490.435, 66.725
1491.606, 91.509
1492.777, 97.314
1493.948, 105.229
1495.118, 91.168
1496.288, 49.198
1497.459, 48.279
1498.628, 123.423
1499.798, 32.617
1500.968, 92.888
1502.137, 45.234
1503.306, 48.660
1504.475, 50.182
1505.644, 35.825
