##NAMES=Pyromorphite
##RRUFFID=R050015
##IDEAL CHEMISTRY=Pb^2+^_5_(PO_4_)_3_Cl
##LOCALITY=Bunker Hill mine, Shoshone County, Idaho, USA
##OWNER=RRUFF
##SOURCE=Eugene Schlepp
##DESCRIPTION=Yellowish green prismatic hexagonal single crystals
##STATUS=The identification of this mineral has been confirmed by X-ray diffraction and chemical analysis
##URL=rruff.info/R050015
##MEASURED CHEMISTRY=Pb_5.00_((P_0.88_As_0.12_)O_4_)_3_Cl_1.00_
##PIN_ID=M00344
##ORIENTATION=Laser parallel to -a* (-1 0 0). Fiducial mark perpendicular to laser is parallel to -c [0 0 -1]
81.463, 0.000
82.863, 21.797
84.264, 152.389
85.664, 418.489
87.064, 1127.699
88.463, 1621.189
89.863, 1742.948
91.262, 1946.307
92.661, 1436.563
94.059, 1760.549
95.458, 1656.061
96.856, 2261.305
98.254, 3104.670
99.652, 4684.756
101.049, 7210.433
102.446, 9320.931
103.843, 12685.920
105.240, 12275.227
106.637, 11778.655
108.033, 9815.892
109.429, 7606.480
110.825, 6629.827
112.220, 5165.344
113.616, 4942.525
115.011, 3890.959
116.406, 3710.318
117.800, 2990.402
119.195, 2401.205
120.589, 2272.771
121.983, 1785.310
123.377, 1789.773
124.770, 1366.434
126.163, 1265.585
127.556, 1217.049
128.949, 1140.844
130.342, 1226.847
131.734, 1013.488
133.126, 1258.276
134.518, 1017.855
135.909, 1302.668
137.301, 1391.980
138.692, 1590.348
140.083, 1767.516
141.473, 1683.382
142.864, 2187.922
144.254, 2111.181
145.644, 2503.182
147.034, 2543.971
148.423, 2753.613
149.812, 2982.168
151.201, 3029.705
152.590, 3306.666
153.979, 3143.961
155.367, 3312.273
156.755, 3210.959
158.143, 3170.073
159.530, 3122.256
160.918, 2754.702
162.305, 2870.613
163.692, 2527.277
165.078, 2520.068
166.465, 2439.092
167.851, 2162.566
169.237, 2364.674
170.623, 2056.927
172.008, 2360.663
173.393, 2114.715
174.778, 2176.001
176.163, 2193.332
177.548, 2067.615
178.932, 2294.794
180.316, 2066.059
181.700, 2298.846
183.083, 2061.196
184.467, 2193.714
185.850, 2107.064
187.233, 1984.265
188.616, 2007.415
189.998, 1901.486
191.380, 1972.896
192.762, 1820.016
194.144, 1851.867
195.525, 1833.903
196.907, 1666.382
198.288, 1831.317
199.669, 1496.316
201.049, 1655.626
202.429, 1522.244
203.810, 1377.954
205.189, 1513.624
206.569, 1285.846
207.949, 1334.799
209.328, 1174.395
210.707, 1200.815
212.085, 980.134
213.464, 1023.339
214.842, 995.417
216.220, 768.358
217.598, 903.152
218.976, 680.976
220.353, 657.681
221.730, 524.439
223.107, 453.338
224.483, 497.950
225.860, 331.737
227.236, 417.362
228.612, 219.821
229.988, 333.112
231.363, 176.226
232.738, 187.164
234.113, 183.924
235.488, 7.507
236.863, 136.911
238.237, 72.126
239.611, 12.148
240.985, 28.972
242.359, 25.419
243.732, 34.027
245.105, 76.868
246.478, 96.993
247.851, 134.144
249.223, 129.882
250.595, 32.880
251.967, 173.824
253.339, 29.020
254.711, 188.617
256.082, 113.797
257.453, 126.646
258.824, 136.252
260.195, 136.687
261.565, 147.596
262.935, 118.263
264.305, 159.491
265.675, 160.735
267.044, 163.024
268.414, 193.383
269.783, 130.844
271.151, 193.414
272.520, 121.130
273.888, 184.993
275.256, 166.038
276.624, 81.275
277.992, 128.693
279.359, 127.315
280.726, 143.148
282.093, 58.024
283.460, 99.862
284.827, 121.691
286.193, 64.303
287.559, 84.474
288.925, 47.350
290.290, 79.654
291.656, 27.100
293.021, 22.862
294.386, 7.818
295.750, 42.148
297.115, 0.189
298.479, 67.157
299.843, 87.341
301.207, 143.997
302.570, 160.683
303.933, 150.878
305.296, 251.179
306.659, 270.930
308.022, 302.573
309.384, 411.859
310.746, 411.793
312.108, 465.017
313.470, 500.636
314.831, 604.162
316.193, 593.662
317.554, 724.907
318.914, 773.965
320.275, 757.849
321.635, 875.340
322.995, 834.827
324.355, 971.740
325.715, 936.327
327.074, 889.614
328.434, 974.964
329.792, 941.707
331.151, 1059.995
332.510, 1095.242
333.868, 1102.828
335.226, 1178.532
336.584, 1204.353
337.941, 1295.757
339.299, 1294.558
340.656, 1454.992
342.013, 1452.098
343.370, 1527.959
344.726, 1535.372
346.082, 1529.396
347.438, 1519.166
348.794, 1375.241
350.150, 1346.250
351.505, 1208.424
352.860, 1152.994
354.215, 1145.137
355.570, 1031.167
356.924, 1063.935
358.278, 1059.743
359.632, 993.363
360.986, 1045.815
362.339, 946.105
363.693, 1124.154
365.046, 1099.478
366.399, 1183.262
367.751, 1263.088
369.104, 1334.658
370.456, 1568.034
371.808, 1581.225
373.159, 1779.271
374.511, 1854.141
375.862, 1893.695
377.213, 1977.761
378.564, 1829.741
379.914, 1954.551
381.265, 1855.263
382.615, 2036.874
383.965, 2168.372
385.315, 2259.762
386.664, 2503.881
388.013, 2603.034
389.362, 2810.375
390.711, 2852.946
392.060, 2755.562
393.408, 2787.519
394.756, 2489.678
396.104, 2400.749
397.451, 2255.668
398.799, 2113.345
400.146, 2019.266
401.493, 1973.911
402.840, 2057.740
404.186, 2128.614
405.533, 2414.510
406.879, 2541.641
408.225, 2781.862
409.570, 3056.600
410.916, 3204.812
412.261, 3589.140
413.606, 3813.304
414.951, 4230.335
416.295, 3977.142
417.639, 3605.598
418.983, 3514.397
420.327, 2963.026
421.671, 2705.677
423.014, 2454.915
424.357, 2114.078
425.700, 1979.685
427.043, 1826.303
428.386, 1740.530
429.728, 1614.397
431.070, 1547.880
432.412, 1546.856
433.753, 1374.560
435.095, 1428.356
436.436, 1273.655
437.777, 1178.887
439.118, 1137.037
440.458, 1022.946
441.798, 935.415
443.138, 855.358
444.478, 786.503
445.818, 718.487
447.157, 595.503
448.496, 664.115
449.835, 522.850
451.174, 555.652
452.513, 513.045
453.851, 515.508
455.189, 485.801
456.527, 427.528
457.864, 425.886
459.202, 421.581
460.539, 385.245
461.876, 437.433
463.212, 358.956
464.549, 406.566
465.885, 331.608
467.221, 378.408
468.557, 344.109
469.893, 364.033
471.228, 388.753
472.563, 302.133
473.898, 351.091
475.233, 329.280
476.567, 304.633
477.902, 308.908
479.236, 303.465
480.570, 295.851
481.903, 314.275
483.237, 286.010
484.570, 329.312
485.903, 345.963
487.235, 353.562
488.568, 294.832
489.900, 321.036
491.232, 347.977
492.564, 296.281
493.896, 339.232
495.227, 271.708
496.558, 344.757
497.889, 351.196
499.220, 397.291
500.551, 390.013
501.881, 377.076
503.211, 339.418
504.541, 366.325
505.870, 365.401
507.200, 349.435
508.529, 432.782
509.858, 371.343
511.187, 285.896
512.515, 336.711
513.844, 383.301
515.172, 362.409
516.500, 383.983
517.827, 336.002
519.155, 346.955
520.482, 359.215
521.809, 373.150
523.136, 399.184
524.462, 318.282
525.789, 411.061
527.115, 378.897
528.441, 419.334
529.766, 435.396
531.092, 450.665
532.417, 456.905
533.742, 481.640
535.067, 528.537
536.391, 616.509
537.716, 618.025
539.040, 790.303
540.364, 770.041
541.688, 872.142
543.011, 944.534
544.334, 905.893
545.657, 944.073
546.980, 802.103
548.303, 867.710
549.625, 893.700
550.947, 890.727
552.269, 962.893
553.591, 915.005
554.913, 965.683
556.234, 946.622
557.555, 771.852
558.876, 765.627
560.197, 651.321
561.517, 699.019
562.837, 692.555
564.157, 700.016
565.477, 819.410
566.797, 754.937
568.116, 957.219
569.435, 1011.456
570.754, 1214.660
572.073, 1497.830
573.391, 1476.941
574.709, 1495.032
576.027, 1476.066
577.345, 1421.086
578.663, 963.074
579.980, 614.036
581.297, 603.975
582.614, 487.892
583.931, 504.793
585.248, 458.671
586.564, 425.540
587.880, 374.399
589.196, 385.250
590.511, 385.103
591.827, 363.944
593.142, 366.972
594.457, 380.625
595.772, 339.467
597.086, 333.312
598.401, 295.139
599.715, 319.962
601.029, 346.783
602.343, 280.429
603.656, 308.814
604.969, 351.966
606.282, 253.669
607.595, 301.698
608.908, 266.188
610.220, 259.851
611.532, 218.389
612.844, 226.967
614.156, 254.450
615.468, 214.716
616.779, 189.980
618.090, 228.251
619.401, 204.371
620.712, 205.706
622.022, 203.698
623.332, 212.872
624.642, 169.639
625.952, 192.659
627.262, 174.496
628.571, 188.404
629.880, 216.385
631.189, 67.802
632.498, 101.549
633.807, 147.122
635.115, 59.461
636.423, 124.792
637.731, 168.049
639.039, 96.217
640.346, 93.512
641.653, 8.456
642.960, 118.849
644.267, 74.198
645.574, 37.543
646.880, 95.466
648.186, 38.586
649.492, 72.788
650.798, 1.641
652.103, 5.709
653.409, 10.233
654.714, 43.208
656.019, 44.176
657.323, 4.305
658.628, 20.650
659.932, 12.730
661.236, 25.352
662.540, 58.711
663.843, 18.571
665.147, 5.019
666.450, 2.083
667.753, 37.485
669.056, 3.582
670.358, 62.070
671.660, 58.610
672.963, 61.397
674.264, 70.009
675.566, 72.983
676.868, 101.993
678.169, 113.052
679.470, 45.160
680.771, 86.210
682.071, 70.725
683.372, 101.878
684.672, 115.256
685.972, 30.565
687.271, 37.842
688.571, 41.090
689.870, 135.350
691.169, 42.612
692.468, 47.710
693.767, 127.477
695.065, 42.329
696.364, 89.161
697.662, 82.054
698.960, 55.004
700.257, 76.996
701.555, 37.038
702.852, 13.111
704.149, 73.206
705.446, 64.345
706.742, 68.522
708.038, 30.739
709.335, 37.021
710.631, 24.230
711.926, 91.501
713.222, 16.779
714.517, 69.927
715.812, 57.625
717.107, 3.685
718.402, 100.996
719.696, 17.670
720.990, 56.339
722.284, 11.997
723.578, 108.660
724.872, 105.313
726.165, 70.963
727.458, 185.611
728.751, 123.257
730.044, 80.901
731.336, 190.545
732.629, 28.189
733.921, 224.833
735.213, 119.478
736.504, 126.124
737.796, 284.771
739.087, 138.421
740.378, 257.074
741.669, 219.730
742.960, 212.297
744.250, 266.679
745.540, 286.135
746.830, 379.619
748.120, 374.045
749.410, 344.513
750.699, 530.067
751.988, 456.480
753.277, 510.898
754.566, 485.187
755.854, 587.611
757.143, 653.179
758.431, 577.501
759.719, 717.977
761.006, 809.667
762.294, 747.982
763.581, 983.535
764.868, 960.978
766.155, 1200.432
767.442, 1317.750
768.728, 1364.145
770.014, 1714.693
771.300, 1825.116
772.586, 2089.476
773.872, 2544.037
775.157, 2619.541
776.442, 3225.092
777.727, 3351.678
779.012, 3710.346
780.297, 4055.878
781.581, 4048.550
782.865, 4634.193
784.149, 4476.940
785.433, 4694.849
786.716, 5055.450
787.999, 4762.943
789.282, 5090.711
790.565, 4907.364
791.848, 5055.138
793.130, 5293.146
794.413, 4940.907
795.695, 5458.711
796.977, 5302.635
798.258, 5390.652
799.540, 5708.439
800.821, 5475.229
802.102, 5963.311
803.382, 6090.392
804.663, 6408.480
805.943, 7553.950
807.224, 7949.807
808.504, 9816.071
809.783, 11993.910
811.063, 14321.890
812.342, 19208.213
813.621, 22953.113
814.900, 29098.664
816.179, 32893.562
817.457, 32372.223
818.736, 31627.850
820.014, 25155.088
821.292, 21492.035
822.569, 18656.920
823.847, 15504.470
825.124, 15058.124
826.401, 13122.150
827.678, 11926.164
828.954, 11149.799
830.231, 9103.410
831.507, 8565.369
832.783, 7396.806
834.059, 6872.658
835.334, 6946.127
836.610, 6210.746
837.885, 6453.589
839.160, 5835.777
840.435, 5533.284
841.709, 5750.531
842.983, 5517.753
844.258, 6329.431
845.532, 6936.895
846.805, 7364.235
848.079, 8706.985
849.352, 8424.928
850.625, 8830.365
851.898, 8316.397
853.171, 6824.094
854.443, 6180.783
855.715, 4469.609
856.988, 3409.547
858.259, 2644.866
859.531, 1841.768
860.803, 1533.598
862.074, 1213.268
863.345, 1003.960
864.616, 997.081
865.886, 669.914
867.157, 713.432
868.427, 713.398
869.697, 572.438
870.967, 732.477
872.236, 565.690
873.506, 662.970
874.775, 539.354
876.044, 571.631
877.313, 662.186
878.581, 436.839
879.849, 560.566
881.118, 565.370
882.386, 452.276
883.653, 523.252
884.921, 470.319
886.188, 432.475
887.455, 538.709
888.722, 453.024
889.989, 656.415
891.255, 631.881
892.522, 688.434
893.788, 819.061
895.054, 746.777
896.319, 988.562
897.585, 1063.416
898.850, 1082.368
900.115, 1485.389
901.380, 1578.475
902.645, 1972.657
903.909, 2527.911
905.174, 2827.249
906.438, 3872.653
907.701, 4576.136
908.965, 5969.711
910.229, 7933.350
911.492, 9787.067
912.755, 14220.854
914.018, 18334.707
915.280, 24708.635
916.543, 31332.635
917.805, 32596.697
919.067, 34810.828
920.329, 30035.031
921.590, 24439.301
922.852, 20743.635
924.113, 15108.044
925.374, 12122.521
926.635, 9587.066
927.895, 7101.682
929.156, 6566.364
930.416, 5221.118
931.676, 4825.938
932.936, 4800.832
934.195, 4445.791
935.454, 4990.823
936.714, 5075.921
937.973, 5341.087
939.231, 6116.338
940.490, 6241.659
941.748, 6987.048
943.006, 7042.511
944.264, 6978.044
945.522, 7253.644
946.780, 6499.317
948.037, 6025.060
949.294, 5590.888
950.551, 4516.786
951.808, 4322.752
953.064, 3558.798
954.320, 3087.912
955.577, 2864.099
956.832, 2261.361
958.088, 2184.703
959.344, 1827.126
960.599, 1570.625
961.854, 1624.438
963.109, 1232.079
964.364, 1316.796
965.618, 1195.067
966.872, 1119.345
968.127, 1313.847
969.380, 1124.888
970.634, 1142.010
971.888, 1151.206
973.141, 1020.482
974.394, 1156.846
975.647, 1107.285
976.900, 982.816
978.152, 1183.438
979.404, 1016.145
980.656, 1170.024
981.908, 1180.914
983.160, 926.902
984.411, 1264.995
985.663, 1065.168
986.914, 1189.460
988.165, 1147.815
989.415, 1073.268
990.666, 1271.955
991.916, 1195.584
993.166, 1140.294
994.416, 1481.082
995.665, 1302.970
996.915, 1601.937
998.164, 1662.981
999.413, 1716.120
1000.662, 2022.334
1001.911, 1983.631
1003.159, 2232.018
1004.407, 2369.478
1005.655, 2189.016
1006.903, 2415.627
1008.151, 2289.304
1009.398, 2259.057
1010.646, 2412.884
1011.893, 2029.410
1013.139, 2205.374
1014.386, 1952.762
1015.633, 1797.128
1016.879, 1723.499
1018.125, 1568.789
1019.371, 1492.117
1020.616, 1383.401
1021.862, 1125.119
1023.107, 1135.791
1024.352, 1049.595
1025.597, 926.306
1026.842, 913.569
1028.086, 812.084
1029.330, 765.470
1030.574, 790.369
1031.818, 666.558
1033.062, 755.030
1034.305, 592.368
1035.548, 507.140
1036.791, 528.667
1038.034, 521.472
1039.277, 584.300
1040.519, 613.134
1041.762, 538.268
1043.004, 667.566
1044.246, 605.712
1045.487, 533.942
1046.729, 624.622
1047.970, 485.835
1049.211, 540.670
1050.452, 401.135
1051.692, 396.467
1052.933, 356.215
1054.173, 295.822
1055.413, 366.429
1056.653, 423.188
1057.893, 241.525
1059.132, 368.236
1060.371, 214.922
1061.610, 231.152
1062.849, 359.965
1064.088, 253.577
1065.326, 323.504
1066.565, 360.409
1067.803, 232.344
1069.041, 353.310
1070.278, 288.305
1071.516, 313.329
1072.753, 349.381
1073.990, 317.068
1075.227, 439.163
1076.464, 317.303
1077.700, 351.472
1078.936, 380.929
1080.173, 219.150
1081.408, 253.834
1082.644, 260.104
1083.880, 232.509
1085.115, 330.824
1086.350, 275.189
1087.585, 324.759
1088.820, 330.143
1090.054, 239.546
1091.288, 216.969
1092.522, 221.411
1093.756, 213.967
1094.990, 318.155
1096.224, 122.650
1097.457, 231.224
1098.690, 186.754
1099.923, 79.387
1101.156, 196.811
1102.388, 98.391
1103.621, 86.002
1104.853, 172.660
1106.085, 97.484
1107.316, 95.164
1108.548, 86.810
1109.779, 21.532
1111.010, 84.158
1112.241, 27.015
1113.472, 101.116
1114.703, 29.225
1115.933, 35.493
1117.163, 18.629
1118.393, 26.450
1119.623, 79.149
1120.853, 113.251
1122.082, 92.050
1123.311, 149.016
1124.540, 84.261
1125.769, 5.268
1126.997, 80.226
1128.226, 5.486
1129.454, 29.564
1130.682, 31.814
1131.910, 9.294
1133.138, 16.186
1134.365, 1.395
1135.592, 16.138
1136.819, 54.216
1138.046, 7.056
1139.273, 94.792
1140.499, 190.091
1141.725, 117.955
1142.951, 214.188
1144.177, 118.610
1145.403, 193.062
1146.628, 203.274
1147.854, 162.279
1149.079, 196.423
1150.304, 189.692
1151.528, 165.035
1152.753, 125.144
1153.977, 138.541
1155.201, 11.188
1156.425, 101.009
1157.649, 17.512
1158.872, 55.335
1160.096, 41.861
1161.319, 103.536
1162.542, 0.118
1163.764, 2.717
1164.987, 56.285
1166.209, 54.223
1167.431, 104.796
1168.653, 109.363
1169.875, 14.131
1171.097, 168.561
1172.318, 100.455
1173.539, 73.542
1174.760, 139.203
1175.981, 34.537
1177.202, 41.531
1178.422, 141.637
1179.642, 10.589
1180.862, 90.302
1182.082, 78.761
1183.302, 40.397
1184.521, 42.072
1185.740, 23.812
1186.959, 21.662
1188.178, 55.999
1189.397, 8.142
1190.615, 67.413
1191.834, 16.945
1193.052, 34.246
1194.269, 93.676
1195.487, 35.304
1196.705, 68.972
1197.922, 73.162
1199.139, 19.625
1200.356, 25.667
1201.573, 81.842
1202.789, 8.079
1204.006, 47.245
1205.222, 72.096
1206.438, 15.845
1207.653, 51.594
1208.869, 86.808
1210.084, 24.176
1211.299, 74.612
1212.514, 93.899
1213.729, 90.082
1214.944, 197.770
1216.158, 137.180
1217.372, 102.522
1218.586, 155.916
1219.800, 73.299
1221.014, 87.678
1222.227, 112.528
1223.440, 109.933
1224.654, 89.268
1225.866, 195.902
1227.079, 86.938
1228.292, 152.778
1229.504, 108.546
1230.716, 168.214
1231.928, 130.859
1233.139, 45.269
1234.351, 160.041
1235.562, 158.410
1236.773, 206.004
1237.984, 159.256
1239.195, 136.481
1240.406, 99.862
1241.616, 225.006
1242.826, 155.440
1244.036, 180.770
1245.246, 155.878
1246.456, 103.926
1247.665, 216.080
1248.874, 182.992
1250.083, 102.041
1251.292, 148.862
1252.501, 185.831
1253.709, 220.813
1254.917, 213.721
1256.125, 200.623
1257.333, 166.359
1258.541, 169.003
1259.748, 163.364
1260.956, 202.648
1262.163, 100.597
1263.370, 190.133
1264.576, 239.470
1265.783, 111.042
1266.989, 127.443
1268.195, 153.669
1269.401, 153.951
1270.607, 176.932
1271.813, 185.288
1273.018, 156.996
1274.223, 178.854
1275.428, 163.838
1276.633, 105.791
1277.838, 213.497
1279.042, 118.305
1280.246, 253.285
1281.450, 125.730
1282.654, 102.407
1283.858, 231.848
1285.061, 119.692
1286.265, 141.082
1287.468, 181.234
1288.671, 118.465
1289.873, 166.542
1291.076, 185.531
1292.278, 138.240
1293.480, 193.000
1294.682, 92.827
1295.884, 178.815
1297.086, 198.748
1298.287, 124.524
1299.488, 160.325
1300.689, 150.860
1301.890, 169.333
1303.091, 195.323
1304.291, 187.263
1305.491, 278.888
1306.691, 247.765
1307.891, 107.672
1309.091, 191.633
1310.290, 180.632
1311.490, 150.591
1312.689, 244.589
1313.888, 143.156
1315.086, 193.831
1316.285, 256.309
1317.483, 134.875
1318.681, 104.887
1319.879, 128.643
1321.077, 104.512
1322.275, 205.945
1323.472, 84.999
1324.669, 41.766
1325.866, 221.748
1327.063, 99.201
1328.260, 51.893
1329.456, 235.293
1330.653, 93.663
1331.849, 127.011
1333.045, 99.024
1334.240, 103.866
1335.436, 128.841
1336.631, 130.710
1337.826, 170.098
1339.021, 163.709
1340.216, 75.317
1341.411, 175.870
1342.605, 166.538
1343.799, 174.773
1344.993, 231.245
1346.187, 77.592
1347.381, 140.771
1348.574, 236.354
1349.767, 102.548
1350.961, 31.746
1352.153, 195.380
1353.346, 150.412
1354.539, 120.626
1355.731, 147.510
1356.923, 115.965
1358.115, 97.224
1359.307, 102.512
1360.498, 106.244
1361.690, 95.961
1362.881, 92.593
1364.072, 87.739
1365.263, 48.542
1366.453, 77.032
1367.644, 79.473
1368.834, 54.584
1370.024, 105.897
1371.214, 136.724
1372.404, 144.189
1373.593, 158.040
1374.783, 153.024
1375.972, 51.816
1377.161, 101.579
1378.349, 184.158
1379.538, 123.659
1380.726, 199.255
1381.915, 196.531
1383.103, 151.697
1384.290, 295.961
1385.478, 119.909
1386.665, 136.630
1387.853, 181.533
1389.040, 46.134
1390.227, 152.443
1391.413, 208.464
1392.600, 157.895
1393.786, 217.859
1394.972, 152.068
1396.158, 138.761
1397.344, 145.934
1398.530, 89.368
1399.715, 160.407
1400.900, 169.649
1402.085, 110.837
1403.270, 131.145
1404.455, 162.893
1405.639, 23.700
1406.824, 168.727
1408.008, 94.694
1409.192, 117.852
1410.375, 142.840
1411.559, 114.672
1412.742, 184.397
1413.925, 134.890
1415.108, 135.725
1416.291, 135.505
1417.474, 109.000
1418.656, 102.174
1419.839, 142.538
1421.021, 103.095
1422.202, 50.658
1423.384, 189.802
1424.566, 79.541
1425.747, 88.061
1426.928, 35.530
1428.109, 16.961
1429.290, 155.146
1430.470, 113.156
1431.651, 136.438
1432.831, 206.955
1434.011, 16.309
1435.191, 7.802
1436.370, 152.185
1437.550, 4.010
1438.729, 87.207
1439.908, 111.287
1441.087, 89.962
1442.266, 175.405
1443.444, 203.337
1444.623, 24.973
1445.801, 84.225
1446.979, 56.661
1448.157, 131.931
1449.334, 144.189
1450.512, 118.038
1451.689, 170.363
1452.866, 141.731
1454.043, 130.755
1455.220, 130.650
1456.396, 109.498
1457.573, 134.647
1458.749, 178.021
1459.925, 184.438
1461.100, 136.986
1462.276, 205.634
1463.451, 96.425
1464.627, 137.297
1465.802, 197.500
1466.977, 92.602
1468.151, 192.446
1469.326, 203.344
1470.500, 203.065
1471.674, 156.070
1472.848, 199.375
1474.022, 169.209
1475.195, 109.215
1476.369, 153.078
1477.542, 136.354
1478.715, 159.364
1479.888, 54.113
1481.061, 100.001
1482.233, 160.781
1483.405, 97.167
1484.577, 252.496
1485.749, 64.896
1486.921, 116.255
1488.093, 237.208
1489.264, 127.382
1490.435, 165.536
1491.606, 191.223
1492.777, 110.742
1493.948, 161.619
1495.118, 165.434
1496.288, 82.366
1497.459, 224.401
1498.628, 122.687
1499.798, 1.239
1500.968, 115.272
