##NAMES=Pyrosmalite-(Fe)
##RRUFFID=R050158
##IDEAL CHEMISTRY=Fe^2+^_8_Si_6_O_15_(OH)_10_
##LOCALITY=Burguillos del Cerro, Badajos, Spain
##OWNER=RRUFF
##SOURCE=Jim McGlasson
##DESCRIPTION=Green subhedral crystal aggregate
##STATUS=The identification of this mineral has been confirmed by X-ray diffraction and chemical analysis
##URL=rruff.info/R050158
##MEASURED CHEMISTRY=(Fe^2+^_0.92_Mn^2+^_0.06_Mg_0.02_)_8_Si_6_O_15_(OH_0.83_Cl_0.17_)_10_
##PIN_ID=L00508
##ORIENTATION=Laser parallel to -a* (-1 0 0). Fiducial mark perpendicular to laser is parallel to c [0 0 1]
133.821, 0.000
135.210, 3.234
136.599, 75.051
137.987, 183.922
139.376, 291.403
140.764, 430.338
142.152, 455.141
143.539, 557.144
144.927, 572.310
146.314, 628.224
147.701, 589.148
149.088, 388.682
150.474, 384.815
151.861, 294.146
153.247, 283.662
154.633, 294.718
156.018, 315.979
157.404, 351.466
158.789, 393.815
160.174, 460.651
161.559, 481.836
162.943, 539.111
164.327, 555.526
165.711, 611.418
167.095, 619.097
168.479, 596.821
169.862, 616.462
171.246, 615.864
172.628, 654.862
174.011, 635.592
175.394, 776.248
176.776, 887.976
178.158, 972.629
179.540, 1142.531
180.922, 1258.993
182.303, 1460.946
183.684, 1599.797
185.065, 1763.086
186.446, 1775.699
187.826, 1748.795
189.207, 1780.385
190.587, 1678.182
191.967, 1601.660
193.346, 1464.659
194.726, 1287.680
196.105, 1143.717
197.484, 952.757
198.862, 828.746
200.241, 677.802
201.619, 589.791
202.997, 501.752
204.375, 421.687
205.753, 335.996
207.130, 242.846
208.507, 226.587
209.884, 106.175
211.261, 99.232
212.638, 53.681
214.014, 12.816
215.390, 20.691
216.766, 19.837
218.141, 30.183
219.517, 76.354
220.892, 62.375
222.267, 31.257
223.642, 44.016
225.016, 16.767
226.391, 31.856
227.765, 24.739
229.139, 51.076
230.512, 27.411
231.886, 9.698
233.259, 24.946
234.632, 5.162
236.005, 28.355
237.377, 74.466
238.749, 21.292
240.122, 69.111
241.493, 166.278
242.865, 133.061
244.237, 198.822
245.608, 258.559
246.979, 289.268
248.350, 351.949
249.720, 375.603
251.090, 480.239
252.461, 469.857
253.830, 602.441
255.200, 649.970
256.570, 715.411
257.939, 783.744
259.308, 719.930
260.677, 859.940
262.045, 769.843
263.414, 827.618
264.782, 803.258
266.150, 795.796
267.517, 917.254
268.885, 2114.662
270.252, 1834.022
271.619, 1807.351
272.986, 1589.656
274.353, 1301.945
275.719, 378.221
277.085, 268.483
278.451, 177.730
279.817, 181.961
281.182, 154.175
282.548, 126.371
283.913, 182.550
285.278, 100.712
286.642, 168.858
288.007, 121.983
289.371, 143.077
290.735, 169.568
292.099, 214.611
293.462, 293.958
294.826, 361.957
296.189, 459.145
297.552, 546.653
298.914, 679.963
300.277, 790.083
301.639, 921.364
303.001, 1116.705
304.363, 1186.417
305.724, 1337.051
307.086, 1421.758
308.447, 1362.106
309.808, 1326.438
311.168, 1195.564
312.529, 1131.671
313.889, 1065.539
315.249, 1077.278
316.609, 1057.890
317.969, 1146.373
319.328, 1499.718
320.687, 1891.903
322.046, 2495.921
323.405, 3362.765
324.764, 4215.439
326.122, 4748.955
327.480, 4515.324
328.838, 3991.555
330.196, 2915.664
331.553, 2244.656
332.910, 1606.542
334.267, 1213.312
335.624, 960.950
336.981, 751.421
338.337, 683.664
339.693, 549.937
341.049, 556.925
342.405, 470.901
343.760, 404.220
345.116, 410.645
346.471, 328.074
347.826, 406.078
349.180, 431.227
350.535, 399.239
351.889, 442.183
353.243, 423.067
354.597, 511.806
355.950, 514.485
357.304, 669.129
358.657, 764.705
360.010, 847.390
361.362, 1043.833
362.715, 1005.326
364.067, 1128.820
365.419, 1109.917
366.771, 1117.592
368.123, 1065.091
369.474, 945.702
370.825, 944.324
372.176, 788.885
373.527, 754.280
374.877, 730.339
376.228, 645.015
377.578, 687.007
378.928, 555.195
380.277, 596.091
381.627, 456.152
382.976, 453.640
384.325, 468.942
385.674, 442.483
387.023, 467.467
388.371, 465.765
389.719, 499.503
391.067, 433.546
392.415, 466.518
393.762, 468.180
395.110, 425.725
396.457, 474.689
397.804, 507.817
399.150, 442.446
400.497, 517.590
401.843, 549.370
403.189, 619.187
404.535, 616.994
405.881, 660.526
407.226, 775.501
408.571, 752.705
409.916, 887.960
411.261, 1018.377
412.605, 1197.900
413.950, 1352.535
415.294, 1449.219
416.638, 1733.667
417.981, 1820.182
419.325, 1907.646
420.668, 1795.979
422.011, 1658.296
423.354, 1597.598
424.697, 1280.885
426.039, 1130.159
427.381, 884.417
428.723, 810.663
430.065, 646.895
431.406, 580.114
432.748, 559.320
434.089, 467.514
435.430, 529.695
436.770, 427.864
438.111, 409.938
439.451, 430.547
440.791, 312.771
442.131, 331.007
443.471, 211.086
444.810, 167.932
446.149, 120.152
447.488, 116.779
448.827, 58.926
450.166, 89.726
451.504, 119.700
452.842, 41.824
454.180, 2.877
455.518, 31.090
456.855, 6.978
458.193, 80.538
459.530, 39.432
460.867, 59.285
462.203, 66.098
463.540, 50.870
464.876, 191.601
466.212, 194.294
467.548, 155.952
468.883, 230.572
470.219, 196.157
471.554, 241.707
472.889, 189.222
474.224, 276.704
475.558, 332.151
476.892, 399.568
478.227, 592.952
479.561, 747.304
480.894, 1120.625
482.228, 1293.916
483.561, 1419.177
484.894, 1590.409
486.227, 1334.612
487.559, 1163.788
488.892, 929.937
490.224, 711.058
491.556, 547.153
492.888, 403.223
494.220, 347.267
495.551, 208.286
496.882, 195.281
498.213, 204.252
499.544, 128.200
500.874, 119.124
502.205, 53.024
503.535, 152.901
504.865, 74.758
506.194, 19.594
507.524, 79.170
508.853, 4.964
510.182, 15.736
511.511, 16.487
512.840, 19.218
514.168, 45.928
515.496, 54.620
516.824, 58.930
518.152, 70.947
519.480, 67.583
520.807, 67.201
522.134, 77.801
523.461, 73.384
524.788, 8.052
526.114, 21.489
527.441, 5.010
528.767, 30.314
530.093, 26.156
531.418, 4.729
532.744, 4.170
534.069, 35.094
535.394, 2.609
536.719, 10.829
538.044, 29.604
539.368, 6.184
540.693, 39.748
542.017, 8.222
543.340, 5.808
544.664, 47.347
545.987, 50.926
547.311, 7.516
548.634, 16.039
549.956, 12.622
551.279, 23.986
552.601, 6.558
553.923, 23.121
555.245, 9.683
556.567, 28.242
557.889, 59.812
559.210, 4.403
560.531, 19.001
561.852, 18.396
563.173, 13.786
564.493, 10.170
565.813, 32.544
567.133, 33.905
568.453, 48.260
569.773, 68.601
571.092, 62.930
572.412, 81.245
573.731, 64.546
575.049, 115.839
576.368, 95.119
577.686, 102.385
579.005, 175.639
580.323, 160.880
581.640, 170.113
582.958, 171.334
584.275, 193.542
585.593, 305.753
586.909, 247.956
588.226, 337.160
589.543, 343.355
590.859, 352.550
592.175, 422.740
593.491, 468.918
594.807, 612.084
596.122, 673.238
597.438, 787.382
598.753, 977.516
600.068, 1089.645
601.382, 1338.766
602.697, 1622.760
604.011, 2035.572
605.325, 2666.181
606.639, 3224.776
607.952, 4321.128
609.266, 5410.606
610.579, 6904.207
611.892, 8810.481
613.205, 10409.320
614.518, 12538.524
615.830, 12827.526
617.142, 12756.942
618.454, 11846.181
619.766, 9555.495
621.078, 8054.828
622.389, 6079.093
623.700, 4955.942
625.011, 4216.795
626.322, 3087.482
627.632, 2543.424
628.943, 2020.269
630.253, 1706.190
631.563, 1519.996
632.872, 1228.897
634.182, 1167.970
635.491, 924.853
636.800, 900.726
638.109, 764.590
639.418, 646.445
640.726, 685.443
642.035, 532.280
643.343, 534.107
644.651, 504.926
645.958, 451.736
647.266, 494.537
648.573, 385.330
649.880, 390.114
651.187, 411.889
652.494, 304.656
653.800, 352.415
655.106, 295.165
656.412, 288.907
657.718, 321.379
659.024, 219.810
660.329, 305.961
661.634, 270.528
662.939, 287.765
664.244, 297.769
665.549, 271.020
666.853, 305.958
668.157, 252.938
669.461, 267.920
670.765, 246.911
672.069, 208.011
673.372, 255.145
674.675, 148.295
675.978, 157.493
677.281, 170.675
678.583, 134.854
679.886, 192.075
681.188, 92.275
682.490, 113.852
683.792, 90.831
685.093, 39.740
686.394, 112.161
687.696, 51.165
688.997, 99.065
690.297, 5.199
691.598, 57.392
692.898, 66.185
694.198, 36.162
695.498, 65.802
696.798, 69.019
698.097, 42.883
699.397, 110.474
700.696, 67.427
701.995, 151.961
703.293, 84.341
704.592, 52.061
705.890, 134.859
707.188, 16.553
708.486, 132.555
709.784, 66.099
711.081, 79.969
712.378, 111.444
713.675, 68.160
714.972, 127.766
716.269, 149.177
717.565, 134.849
718.862, 214.034
720.158, 150.259
721.453, 159.122
722.749, 219.080
724.045, 191.701
725.340, 271.744
726.635, 220.081
727.930, 302.263
729.224, 295.439
730.519, 295.219
731.813, 345.502
733.107, 400.761
734.401, 432.128
735.694, 420.548
736.988, 413.738
738.281, 567.055
739.574, 452.474
740.867, 482.143
742.160, 510.294
743.452, 402.852
744.744, 436.899
746.036, 335.784
747.328, 331.799
748.620, 279.067
749.911, 218.445
751.202, 247.758
752.493, 166.235
753.784, 155.590
755.075, 183.373
756.365, 90.708
757.655, 126.083
758.945, 116.323
760.235, 133.646
761.525, 172.855
762.814, 161.429
764.103, 237.631
765.392, 229.829
766.681, 242.077
767.969, 277.372
769.258, 246.579
770.546, 292.632
771.834, 208.818
773.122, 246.023
774.409, 188.203
775.697, 141.380
776.984, 196.553
778.271, 160.799
779.558, 113.964
780.844, 167.124
782.131, 92.279
783.417, 151.428
784.703, 99.572
785.989, 71.710
787.274, 123.843
788.560, 19.970
789.845, 106.138
791.130, 73.253
792.415, 62.362
793.699, 149.586
794.983, 25.684
796.268, 119.775
797.552, 87.861
798.835, 115.941
800.119, 169.016
801.402, 102.085
802.686, 185.148
803.969, 216.207
805.251, 227.261
806.534, 324.309
807.816, 228.352
809.098, 328.389
810.380, 362.422
811.662, 356.449
812.944, 508.473
814.225, 437.492
815.506, 468.510
816.787, 518.522
818.068, 491.531
819.349, 538.539
820.629, 508.543
821.909, 514.546
823.189, 473.546
824.469, 320.545
825.749, 332.542
827.028, 242.535
828.307, 190.526
829.586, 172.515
830.865, 110.501
832.144, 162.484
833.422, 143.464
834.700, 82.440
835.978, 94.414
837.256, 74.388
838.534, 95.360
839.811, 83.157
841.088, 52.133
842.365, 57.990
843.642, 3.961
844.919, 39.624
846.195, 48.519
847.472, 39.452
848.748, 15.258
850.023, 52.801
851.299, 51.112
852.575, 44.931
853.850, 16.120
855.125, 16.792
856.400, 4.739
857.674, 17.693
858.949, 3.409
860.223, 16.450
861.497, 5.285
862.771, 9.766
864.045, 27.826
865.318, 50.100
866.591, 13.025
867.864, 63.954
869.137, 6.103
870.410, 21.167
871.682, 2.757
872.955, 16.324
874.227, 53.580
875.499, 49.484
876.770, 21.615
878.042, 43.270
879.313, 4.152
880.584, 23.029
881.855, 41.903
883.126, 22.227
884.396, 73.626
885.667, 33.475
886.937, 14.322
888.207, 27.163
889.476, 7.999
890.746, 56.827
892.015, 22.649
893.284, 48.533
894.553, 7.747
895.822, 46.973
897.090, 6.230
898.359, 36.497
899.627, 22.782
900.895, 59.915
902.163, 18.609
903.430, 32.299
904.698, 3.984
905.965, 18.665
907.232, 2.659
908.499, 20.009
909.765, 8.673
911.032, 39.333
912.298, 17.990
913.564, 80.642
914.830, 0.292
916.095, 80.937
917.361, 83.579
918.626, 30.219
919.891, 17.855
921.156, 38.487
922.420, 8.884
923.685, 93.735
924.949, 36.350
926.213, 42.963
927.477, 102.573
928.740, 67.180
930.004, 22.784
931.267, 46.385
932.530, 72.985
933.793, 90.583
935.056, 45.177
936.318, 72.769
937.581, 62.358
938.843, 72.945
940.104, 85.531
941.366, 26.933
942.628, 77.513
943.889, 106.094
945.150, 8.673
946.411, 132.248
947.672, 88.669
948.932, 140.240
950.193, 90.808
951.453, 87.374
952.713, 130.938
953.973, 114.503
955.232, 40.066
956.491, 159.628
957.751, 51.187
959.010, 200.745
960.268, 128.304
961.527, 134.861
962.785, 173.416
964.044, 116.970
965.302, 119.522
966.559, 151.073
967.817, 68.621
969.075, 193.168
970.332, 109.712
971.589, 140.255
972.846, 162.796
974.102, 135.334
975.359, 180.871
976.615, 156.407
977.871, 119.940
979.127, 204.471
980.383, 130.001
981.638, 200.530
982.893, 189.057
984.149, 219.583
985.404, 240.108
986.658, 167.631
987.913, 228.151
989.167, 254.670
990.421, 238.188
991.675, 287.705
992.929, 238.209
994.183, 254.726
995.436, 365.003
996.689, 302.456
997.942, 378.949
999.195, 419.404
1000.448, 438.757
1001.700, 516.690
1002.952, 538.192
1004.204, 561.667
1005.456, 636.096
1006.708, 623.452
1007.959, 760.738
1009.210, 841.339
1010.461, 880.248
1011.712, 1135.422
1012.963, 1148.721
1014.213, 1478.282
1015.464, 1692.755
1016.714, 1854.254
1017.964, 2385.596
1019.214, 2714.469
1020.463, 3051.220
1021.712, 3586.112
1022.962, 3571.327
1024.210, 4105.480
1025.459, 4167.976
1026.708, 3951.467
1027.956, 4025.310
1029.204, 3482.788
1030.452, 3232.052
1031.700, 2987.444
1032.948, 2461.915
1034.195, 2384.718
1035.442, 2066.229
1036.689, 1832.673
1037.936, 1693.037
1039.183, 1378.454
1040.429, 1433.094
1041.676, 1252.606
1042.922, 1126.010
1044.168, 1134.157
1045.413, 961.815
1046.659, 904.059
1047.904, 862.847
1049.149, 744.861
1050.394, 799.629
1051.639, 662.137
1052.884, 554.545
1054.128, 634.995
1055.372, 501.275
1056.616, 519.669
1057.860, 477.632
1059.104, 416.146
1060.347, 515.503
1061.590, 412.990
1062.833, 451.389
1064.076, 405.897
1065.319, 357.450
1066.561, 416.969
1067.803, 337.488
1069.046, 295.009
1070.287, 366.424
1071.529, 277.927
1072.771, 306.582
1074.012, 301.101
1075.253, 249.599
1076.494, 298.119
1077.735, 199.640
1078.975, 172.212
1080.216, 273.663
1081.456, 140.494
1082.696, 183.032
1083.936, 193.559
1085.175, 176.091
1086.415, 223.618
1087.654, 182.145
1088.893, 145.911
1090.132, 196.439
1091.371, 141.921
1092.609, 242.220
1093.847, 179.750
1095.085, 123.209
1096.323, 195.740
1097.561, 124.270
1098.799, 200.857
1100.036, 193.388
1101.273, 66.967
1102.510, 157.235
1103.747, 135.773
1104.983, 98.487
1106.220, 200.025
1107.456, 61.563
1108.692, 166.944
1109.928, 118.482
1111.163, 78.021
1112.399, 144.920
1113.634, 142.359
1114.869, 147.977
1116.104, 189.516
1117.339, 56.056
1118.573, 251.595
1119.808, 208.135
1121.042, 130.675
1122.276, 265.227
1123.509, 213.767
1124.743, 233.334
1125.976, 301.874
1127.210, 246.413
1128.443, 278.161
1129.675, 304.701
1130.908, 207.241
1132.141, 309.068
1133.373, 177.608
1134.605, 214.147
1135.837, 210.687
1137.068, 137.227
1138.300, 162.903
1139.531, 161.447
1140.762, 95.990
1141.993, 155.095
1143.224, 104.639
1144.455, 67.184
1145.685, 63.600
1146.915, 72.145
1148.145, 103.736
1149.375, 93.281
1150.605, 4.841
1151.834, 134.401
1153.063, 9.040
1154.292, 45.523
1155.521, 112.190
1156.750, 44.246
1157.978, 102.376
1159.207, 59.854
1160.435, 45.406
1161.663, 108.093
1162.891, 8.649
1164.118, 62.214
1165.345, 94.778
1166.573, 11.658
1167.800, 107.901
1169.026, 3.464
1170.253, 39.033
1171.480, 58.910
1172.706, 30.485
1173.932, 63.059
1175.158, 86.752
1176.383, 33.332
1177.609, 159.911
1178.834, 40.689
1180.059, 85.270
1181.284, 183.075
1182.509, 34.662
1183.734, 141.248
1184.958, 118.895
1186.182, 83.479
1187.406, 143.064
1188.630, 76.986
1189.854, 87.572
1191.077, 130.157
1192.301, 77.793
1193.524, 76.394
1194.747, 8.052
1195.969, 36.332
1197.192, 81.275
1198.414, 39.963
1199.636, 14.576
1200.858, 79.187
1202.080, 25.797
1203.302, 67.407
1204.523, 28.278
1205.744, 1.112
1206.966, 70.497
1208.186, 25.208
1209.407, 74.814
1210.628, 74.419
1211.848, 6.574
1213.068, 109.025
1214.288, 52.664
1215.508, 10.275
1216.727, 142.869
1217.947, 60.462
1219.166, 58.053
1220.385, 129.646
1221.604, 36.467
1222.822, 76.057
1224.041, 111.646
1225.259, 15.550
1226.477, 53.134
1227.695, 3.256
1228.913, 24.324
1230.130, 138.901
1231.348, 26.477
1232.565, 118.051
1233.782, 128.623
1234.999, 1.551
1236.215, 116.016
1237.432, 42.578
1238.648, 9.859
1239.864, 101.700
1241.080, 17.303
1242.296, 46.857
1243.511, 49.410
1244.726, 17.048
1245.942, 73.595
1247.156, 19.141
1248.371, 7.856
1249.586, 108.684
1250.800, 1.223
1252.014, 79.807
1253.228, 78.344
1254.442, 9.120
1255.656, 56.410
1256.869, 74.938
1258.083, 0.465
1259.296, 155.990
1260.509, 15.513
1261.722, 108.243
1262.934, 76.760
1264.147, 64.272
1265.359, 77.782
1266.571, 83.292
1267.783, 32.800
1268.994, 127.306
1270.206, 29.800
1271.417, 69.305
1272.628, 85.796
1273.839, 3.285
1275.050, 51.830
1276.260, 66.314
1277.471, 1.797
1278.681, 161.258
1279.891, 51.716
1281.101, 39.163
1282.310, 125.603
1283.520, 8.042
1284.729, 109.648
1285.938, 73.074
1287.147, 1.503
1288.356, 80.979
1289.564, 57.395
1290.773, 6.191
1291.981, 95.217
1293.189, 29.621
1294.397, 60.022
1295.604, 97.422
1296.812, 42.801
1298.019, 94.179
1299.226, 45.325
1300.433, 16.697
1301.640, 72.064
1302.846, 21.175
1304.053, 23.475
1305.259, 134.865
1306.465, 10.202
1307.671, 84.533
1308.876, 62.862
1310.082, 58.188
1311.287, 92.510
1312.492, 47.459
1313.697, 85.775
1314.902, 163.054
1316.106, 3.349
1317.310, 57.639
1318.515, 75.925
1319.719, 41.792
1320.922, 147.471
1322.126, 84.730
1323.329, 7.985
1324.533, 135.552
1325.736, 27.201
1326.939, 98.031
1328.141, 126.385
1329.344, 27.609
1330.546, 93.828
1331.748, 78.044
1332.950, 12.760
1334.152, 127.426
1335.354, 59.607
1336.555, 33.785
1337.757, 211.957
1338.958, 32.126
1340.159, 113.250
1341.359, 102.301
1342.560, 23.457
1343.760, 104.609
1344.960, 101.741
1346.160, 56.884
1347.360, 148.024
1348.560, 5.161
1349.759, 43.292
1350.959, 117.328
1352.158, 16.445
1353.357, 104.557
1354.555, 136.662
1355.754, 30.236
1356.952, 85.450
1358.151, 31.535
1359.349, 37.617
1360.546, 129.656
1361.744, 58.733
1362.941, 80.808
1364.139, 137.880
1365.336, 6.950
1366.533, 177.017
1367.730, 116.112
1368.926, 12.821
1370.123, 140.195
1371.319, 35.556
1372.515, 212.317
1373.711, 164.972
1374.906, 137.374
1376.102, 75.450
1377.297, 142.522
1378.492, 6.385
1379.687, 194.580
1380.882, 61.225
1382.077, 99.592
1383.271, 123.006
1384.465, 31.359
1385.659, 91.939
1386.853, 77.135
1388.047, 21.511
1389.240, 110.972
1390.434, 137.048
1391.627, 14.686
1392.820, 130.661
1394.013, 77.003
1395.205, 31.328
1396.398, 203.631
1397.590, 49.960
1398.782, 71.042
1399.974, 181.022
1401.166, 61.332
1402.357, 114.638
1403.549, 76.769
1404.740, 10.366
1405.931, 155.639
1407.122, 55.817
1408.313, 43.011
1409.503, 188.259
1410.693, 58.504
1411.883, 73.611
1413.073, 112.222
1414.263, 38.273
1415.453, 133.498
1416.642, 134.720
1417.831, 27.944
1419.020, 148.735
1420.209, 65.948
1421.398, 51.693
1422.587, 225.560
1423.775, 34.439
1424.963, 92.536
1426.151, 98.533
1427.339, 13.414
1428.526, 128.642
1429.714, 110.633
1430.901, 18.607
1432.088, 156.558
1433.275, 64.622
1434.462, 48.682
1435.648, 193.301
1436.835, 47.172
1438.021, 39.215
1439.207, 150.064
1440.393, 29.947
1441.579, 141.922
1442.764, 96.894
1443.949, 62.436
1445.135, 158.911
1446.320, 79.769
1447.504, 34.671
1448.689, 226.567
1449.873, 49.942
1451.058, 121.818
1452.242, 175.683
1453.426, 30.439
1454.609, 129.095
1455.793, 100.932
1456.976, 43.493
1458.159, 156.123
1459.342, 61.832
1460.525, 35.524
1461.708, 120.289
1462.890, 69.479
1464.073, 166.955
1465.255, 150.571
1466.437, 3.842
1467.619, 151.743
1468.800, 119.334
1469.982, 0.266
1471.163, 143.320
1472.344, 138.968
1473.525, 33.644
1474.706, 172.693
1475.886, 37.081
1477.066, 37.643
1478.247, 169.180
1479.427, 51.695
1480.607, 75.300
1481.786, 106.887
1482.966, 35.500
1484.145, 137.133
1485.324, 41.754
1486.503, 65.363
1487.682, 125.956
1488.860, 88.594
1490.039, 89.288
1491.217, 142.977
1492.395, 10.688
1493.573, 66.716
1494.751, 137.357
1495.928, 45.269
1497.106, 176.873
1498.283, 84.672
1499.460, 17.496
1500.637, 143.344
1501.814, 10.214
1502.990, 76.105
1504.166, 151.025
1505.342, 51.975
1506.518, 19.766
1507.694, 131.930
1508.870, 9.266
1510.045, 117.709
1511.221, 142.036
1512.396, 2.275
1513.571, 111.641
1514.745, 24.061
1515.920, 65.346
1517.094, 135.617
1518.269, 0.210
1519.443, 0.000
##END=



