##NAMES=Pyromorphite
##RRUFFID=R050015
##IDEAL CHEMISTRY=Pb^2+^_5_(PO_4_)_3_Cl
##LOCALITY=Bunker Hill mine, Shoshone County, Idaho, USA
##OWNER=RRUFF
##SOURCE=Eugene Schlepp
##DESCRIPTION=Yellowish green prismatic hexagonal single crystals
##STATUS=The identification of this mineral has been confirmed by X-ray diffraction and chemical analysis
##URL=rruff.info/R050015
##MEASURED CHEMISTRY=Pb_5.00_((P_0.88_As_0.12_)O_4_)_3_Cl_1.00_
##PIN_ID=L00424
##ORIENTATION=Laser parallel to -c* (0 0 -1). Fiducial mark perpendicular to laser is parallel to -b [0 -1 0]
98.251, 0.000
99.644, 7.159
101.036, 893.497
102.428, 2312.971
103.820, 5520.869
105.212, 8753.148
106.604, 13052.338
107.995, 14541.741
109.387, 13660.441
110.777, 11746.889
112.168, 8382.577
113.559, 6498.096
114.949, 4658.959
116.339, 4002.931
117.729, 2944.784
119.119, 2189.206
120.508, 1756.436
121.897, 1006.312
123.286, 709.428
124.675, 384.236
126.063, 363.201
127.452, 83.835
128.840, 75.751
130.228, 65.965
131.615, 38.113
133.003, 93.507
134.390, 207.852
135.777, 109.100
137.164, 21.174
138.550, 160.708
139.937, 245.907
141.323, 400.023
142.709, 646.695
144.094, 749.519
145.480, 1230.732
146.865, 1409.578
148.250, 1792.489
149.635, 2159.315
151.019, 2365.789
152.403, 2840.695
153.788, 2953.878
155.171, 3325.279
156.555, 3414.934
157.939, 3682.914
159.322, 3659.609
160.705, 3399.764
162.088, 3560.592
163.470, 3342.973
164.853, 3197.229
166.235, 2941.940
167.617, 2687.714
168.998, 2704.377
170.380, 2421.888
171.761, 2483.589
173.142, 2265.598
174.523, 2454.107
175.904, 2439.502
177.284, 2389.798
178.664, 2471.540
180.044, 2373.696
181.424, 2584.127
182.803, 2314.438
184.183, 2417.912
185.562, 2377.449
186.940, 2292.175
188.319, 2316.693
189.698, 2209.934
191.076, 2170.554
192.454, 2130.184
193.831, 2167.398
195.209, 2077.734
196.586, 1963.389
197.963, 2029.487
199.340, 1868.493
200.717, 1906.709
202.093, 1771.597
203.470, 1794.860
204.846, 1829.977
206.221, 1629.996
207.597, 1644.993
208.972, 1513.920
210.347, 1630.892
211.722, 1366.614
213.097, 1448.610
214.472, 1338.735
215.846, 1187.949
217.220, 1245.244
218.594, 1104.876
219.967, 1110.441
221.341, 937.074
222.714, 825.751
224.087, 822.158
225.460, 721.657
226.832, 676.994
228.204, 562.875
229.577, 553.652
230.948, 425.011
232.320, 445.594
233.692, 400.961
235.063, 265.058
236.434, 299.512
237.805, 232.676
239.175, 195.640
240.545, 221.398
241.916, 130.949
243.286, 218.280
244.655, 72.383
246.025, 136.248
247.394, 77.866
248.763, 108.227
250.132, 31.314
251.501, 24.119
252.869, 79.632
254.237, 52.155
255.605, 0.745
256.973, 44.674
258.340, 79.432
259.708, 17.571
261.075, 158.115
262.442, 26.083
263.808, 95.052
265.175, 83.366
266.541, 114.985
267.907, 105.324
269.273, 31.619
270.639, 93.974
272.004, 61.491
273.369, 68.306
274.734, 133.421
276.099, 56.845
277.463, 76.556
278.828, 22.560
280.192, 92.066
281.556, 26.412
282.919, 49.188
284.283, 24.148
285.646, 25.366
287.009, 8.333
288.372, 33.823
289.734, 39.561
291.097, 68.480
292.459, 95.157
293.821, 98.615
295.183, 127.662
296.544, 112.729
297.905, 88.214
299.266, 92.760
300.627, 196.988
301.988, 167.660
303.348, 204.954
304.709, 200.008
306.069, 204.749
307.428, 320.093
308.788, 359.036
310.147, 409.738
311.507, 477.358
312.865, 518.431
314.224, 545.889
315.583, 619.473
316.941, 692.777
318.299, 748.859
319.657, 837.726
321.015, 902.288
322.372, 948.896
323.729, 981.467
325.086, 1018.146
326.443, 1019.668
327.800, 1013.819
329.156, 988.483
330.512, 1087.991
331.868, 1052.214
333.224, 1146.759
334.579, 1134.344
335.935, 1071.450
337.290, 1133.292
338.645, 1109.549
339.999, 1260.714
341.354, 1228.292
342.708, 1285.539
344.062, 1317.375
345.416, 1344.498
346.769, 1341.202
348.123, 1342.439
349.476, 1320.264
350.829, 1314.686
352.182, 1250.732
353.534, 1190.518
354.887, 1155.938
356.239, 1137.991
357.591, 1049.824
358.942, 1023.310
360.294, 1076.664
361.645, 1020.661
362.996, 1102.301
364.347, 1088.753
365.698, 1092.889
367.048, 1084.001
368.398, 1160.956
369.748, 1211.607
371.098, 1316.032
372.448, 1411.272
373.797, 1411.476
375.146, 1607.624
376.495, 1665.463
377.844, 1716.912
379.192, 1764.052
380.540, 1790.999
381.889, 1929.771
383.236, 1923.445
384.584, 2113.291
385.932, 2199.565
387.279, 2367.718
388.626, 2642.335
389.973, 2846.654
391.319, 3041.390
392.666, 3280.959
394.012, 3300.537
395.358, 3267.177
396.704, 3040.321
398.049, 2764.114
399.394, 2485.199
400.740, 2288.381
402.084, 2314.000
403.429, 2184.835
404.774, 2316.112
406.118, 2367.699
407.462, 2575.365
408.806, 2834.478
410.150, 3030.131
411.493, 3483.481
412.836, 3774.379
414.179, 4093.883
415.522, 4357.256
416.865, 4610.008
418.207, 4683.019
419.549, 4309.114
420.891, 4098.978
422.233, 3504.672
423.575, 3000.495
424.916, 2609.555
426.257, 2360.108
427.598, 2007.167
428.939, 1803.992
430.279, 1769.201
431.619, 1572.734
432.959, 1509.235
434.299, 1469.363
435.639, 1408.892
436.978, 1371.048
438.318, 1297.811
439.657, 1237.996
440.996, 1109.489
442.334, 979.237
443.673, 942.133
445.011, 845.185
446.349, 744.466
447.687, 778.717
449.024, 674.845
450.361, 701.987
451.699, 637.174
453.036, 670.001
454.372, 637.570
455.709, 584.980
457.045, 551.994
458.381, 554.453
459.717, 548.511
461.053, 550.351
462.388, 530.510
463.724, 542.544
465.059, 520.249
466.394, 512.812
467.728, 524.085
469.063, 536.891
470.397, 512.064
471.731, 449.141
473.065, 404.685
474.398, 422.417
475.732, 459.139
477.065, 450.206
478.398, 429.338
479.731, 408.652
481.063, 410.955
482.396, 431.467
483.728, 412.976
485.060, 415.302
486.391, 381.917
487.723, 397.558
489.054, 439.078
490.385, 399.920
491.716, 388.397
493.047, 470.970
494.377, 378.463
495.708, 408.920
497.038, 386.795
498.368, 438.840
499.697, 372.730
501.027, 411.262
502.356, 381.179
503.685, 367.573
505.014, 435.689
506.342, 430.127
507.671, 440.336
508.999, 436.288
510.327, 430.244
511.655, 422.072
512.982, 392.328
514.310, 390.397
515.637, 398.257
516.964, 379.778
518.291, 399.049
519.617, 376.523
520.944, 405.835
522.270, 431.525
523.596, 426.998
524.921, 452.354
526.247, 410.460
527.572, 406.852
528.897, 441.142
530.222, 461.958
531.547, 475.094
532.871, 451.709
534.196, 438.348
535.520, 483.800
536.844, 551.443
538.167, 593.954
539.491, 685.668
540.814, 819.850
542.137, 881.903
543.460, 979.756
544.783, 1121.605
546.105, 1068.631
547.427, 1039.937
548.749, 906.556
550.071, 878.406
551.393, 976.429
552.714, 963.662
554.035, 1113.736
555.356, 1160.304
556.677, 1157.251
557.998, 1042.846
559.318, 884.012
560.638, 867.397
561.958, 781.582
563.278, 755.151
564.597, 756.228
565.917, 730.999
567.236, 809.796
568.555, 890.650
569.874, 994.932
571.192, 1268.767
572.511, 1460.717
573.829, 1875.796
575.147, 2053.518
576.464, 2115.175
577.782, 1805.854
579.099, 1335.564
580.416, 1190.956
581.733, 851.576
583.050, 836.224
584.366, 649.852
585.683, 559.479
586.999, 568.101
588.315, 479.729
589.630, 498.644
590.946, 443.262
592.261, 474.882
593.576, 447.499
594.891, 450.113
596.206, 433.744
597.520, 465.372
598.834, 409.004
600.148, 445.625
601.462, 382.256
602.776, 442.848
604.089, 422.088
605.402, 399.926
606.715, 394.952
608.028, 393.580
609.341, 382.339
610.653, 406.846
611.965, 342.502
613.277, 349.029
614.589, 326.341
615.901, 343.519
617.212, 277.711
618.523, 387.887
619.834, 248.080
621.145, 356.181
622.456, 287.332
623.766, 258.384
625.076, 294.401
626.386, 222.461
627.696, 167.560
629.006, 247.538
630.315, 226.237
631.624, 218.730
632.933, 232.277
634.242, 212.957
635.551, 229.279
636.859, 201.088
638.167, 251.490
639.475, 225.878
640.783, 233.104
642.090, 269.682
643.398, 198.024
644.705, 154.202
646.012, 138.422
647.318, 236.794
648.625, 146.983
649.931, 18.103
651.237, 127.529
652.543, 86.547
653.849, 126.671
655.155, 111.684
656.460, 89.895
657.765, 52.812
659.070, 132.868
660.375, 45.780
661.679, 107.614
662.984, 7.284
664.288, 45.746
665.592, 77.799
666.895, 9.180
668.199, 110.769
669.502, 2.671
670.805, 33.416
672.108, 30.138
673.411, 27.120
674.713, 31.504
676.016, 70.859
677.318, 35.386
678.620, 14.842
679.921, 41.223
681.223, 26.205
682.524, 24.063
683.825, 48.663
685.126, 44.333
686.427, 67.910
687.727, 68.576
689.028, 45.041
690.328, 80.762
691.628, 64.615
692.927, 86.340
694.227, 36.860
695.526, 135.241
696.825, 76.619
698.124, 37.065
699.423, 87.558
700.721, 73.123
702.020, 61.750
703.318, 34.432
704.616, 60.156
705.913, 100.933
707.211, 18.781
708.508, 43.660
709.805, 78.580
711.102, 17.556
712.399, 64.560
713.695, 60.610
714.992, 36.705
716.288, 79.832
717.584, 23.989
718.879, 51.201
720.175, 11.573
721.470, 113.665
722.765, 18.964
724.060, 22.284
725.355, 75.624
726.649, 49.996
727.944, 2.393
729.238, 34.794
730.532, 30.784
731.825, 27.645
733.119, 37.908
734.412, 76.544
735.705, 49.032
736.998, 31.543
738.291, 12.930
739.584, 16.397
740.876, 52.861
742.168, 96.320
743.460, 14.775
744.752, 12.812
746.043, 29.632
747.334, 98.926
748.626, 123.364
749.916, 35.716
751.207, 80.098
752.498, 101.432
753.788, 139.862
755.078, 185.134
756.368, 158.562
757.658, 138.764
758.947, 209.192
760.237, 202.604
761.526, 284.949
762.815, 368.298
764.104, 347.668
765.392, 454.016
766.680, 428.469
767.969, 462.706
769.257, 593.998
770.544, 679.223
771.832, 792.551
773.119, 902.633
774.406, 944.135
775.693, 1333.156
776.980, 1399.659
778.267, 1785.906
779.553, 1869.065
780.839, 2188.408
782.125, 2637.482
783.411, 2693.359
784.697, 3022.606
785.982, 3096.799
787.267, 3175.997
788.552, 3387.290
789.837, 3071.538
791.122, 3108.892
792.406, 2822.166
793.690, 2562.689
794.974, 2540.145
796.258, 2342.671
797.542, 2385.391
798.825, 2315.852
800.108, 2406.170
801.391, 2588.465
802.674, 2613.213
803.957, 2764.628
805.239, 2951.682
806.522, 3186.103
807.804, 3714.396
809.085, 4266.902
810.367, 5432.390
811.649, 7057.832
812.930, 9153.166
814.211, 12778.880
815.492, 17024.264
816.772, 23809.965
818.053, 29783.379
819.333, 30908.916
820.613, 31574.645
821.893, 24768.189
823.173, 18874.146
824.452, 14568.581
825.732, 10554.260
827.011, 8839.938
828.290, 7032.812
829.568, 5745.505
830.847, 4965.826
832.125, 3778.472
833.403, 3269.450
834.681, 2745.934
835.959, 2320.423
837.236, 2235.127
838.514, 1945.458
839.791, 1990.164
841.068, 1779.507
842.345, 1581.921
843.621, 1848.879
844.898, 1971.761
846.174, 1609.777
847.450, 1731.551
848.726, 1665.408
850.001, 2027.360
851.277, 2128.107
852.552, 2158.285
853.827, 2114.620
855.102, 1685.917
856.376, 1497.001
857.651, 1071.769
858.925, 923.190
860.199, 794.349
861.473, 454.304
862.746, 499.022
864.020, 367.877
865.293, 340.214
866.566, 307.156
867.839, 203.436
869.112, 230.129
870.384, 283.606
871.656, 173.275
872.928, 252.549
874.200, 141.335
875.472, 279.418
876.744, 294.508
878.015, 192.559
879.286, 396.188
880.557, 157.287
881.828, 183.295
883.098, 236.199
884.369, 347.485
885.639, 367.889
886.909, 320.318
888.178, 337.771
889.448, 442.588
890.717, 424.228
891.987, 598.916
893.256, 655.671
894.524, 705.502
895.793, 861.401
897.061, 917.428
898.330, 964.103
899.598, 1166.197
900.865, 1306.348
902.133, 1566.562
903.401, 1821.842
904.668, 2188.188
905.935, 2774.590
907.202, 3154.068
908.468, 4363.615
909.735, 5193.221
911.001, 6532.922
912.267, 8972.689
913.533, 11342.518
914.799, 16992.412
916.064, 22842.361
917.330, 32042.377
918.595, 43892.465
919.860, 47292.598
921.124, 49792.793
922.389, 42603.059
923.653, 32913.379
924.918, 26643.764
926.182, 19254.209
927.445, 14734.714
928.709, 11615.283
929.972, 8585.922
931.236, 7576.622
932.499, 6267.384
933.761, 5808.208
935.024, 5759.110
936.286, 5490.075
937.549, 6131.110
938.811, 6482.208
940.073, 7133.369
941.334, 8394.598
942.596, 8555.890
943.857, 9997.242
945.118, 10558.661
946.379, 10600.142
947.640, 10921.703
948.900, 10033.336
950.161, 9285.025
951.421, 8626.784
952.681, 7088.604
953.940, 6440.489
955.200, 5422.435
956.459, 4494.446
957.719, 4106.528
958.978, 3338.684
960.236, 3330.905
961.495, 2723.192
962.753, 2195.541
964.012, 2207.955
965.270, 1750.442
966.527, 1661.997
967.785, 1777.616
969.043, 1414.312
970.300, 1623.083
971.557, 1389.928
972.814, 1468.838
974.071, 1486.823
975.327, 1402.871
976.583, 1458.991
977.840, 1565.175
979.095, 1374.428
980.351, 1514.757
981.607, 1474.178
982.862, 1424.686
984.117, 1547.292
985.372, 1409.981
986.627, 1577.750
987.882, 1454.595
989.136, 1501.516
990.390, 1465.520
991.644, 1419.603
992.898, 1503.773
994.152, 1668.029
995.405, 1643.369
996.659, 1923.803
997.912, 1865.319
999.165, 2075.926
1000.417, 2260.607
1001.670, 2455.393
1002.922, 2790.271
1004.174, 2835.228
1005.426, 3150.277
1006.678, 3395.414
1007.930, 3330.633
1009.181, 3685.924
1010.432, 3751.292
1011.683, 3576.748
1012.934, 3832.282
1014.185, 3338.025
1015.435, 3303.713
1016.685, 3120.403
1017.935, 2766.534
1019.185, 2792.469
1020.435, 2371.146
1021.684, 2237.246
1022.934, 2063.388
1024.183, 1894.172
1025.432, 1821.442
1026.680, 1569.025
1027.929, 1440.346
1029.177, 1379.828
1030.425, 1110.765
1031.673, 1097.385
1032.921, 1071.546
1034.169, 888.906
1035.416, 958.000
1036.663, 829.233
1037.911, 775.722
1039.157, 823.708
1040.404, 654.422
1041.650, 708.192
1042.897, 632.816
1044.143, 666.964
1045.389, 724.147
1046.634, 612.516
1047.880, 598.949
1049.125, 629.438
1050.371, 525.882
1051.615, 493.735
1052.860, 382.468
1054.105, 417.852
1055.349, 552.482
1056.593, 446.096
1057.837, 309.469
1059.081, 484.238
1060.325, 351.815
1061.568, 450.455
1062.812, 386.348
1064.055, 350.222
1065.298, 415.195
1066.540, 308.279
1067.783, 435.039
1069.025, 482.132
1070.267, 428.269
1071.509, 471.468
1072.751, 399.407
1073.993, 472.654
1075.234, 533.938
1076.475, 383.763
1077.716, 525.120
1078.957, 392.691
1080.198, 449.184
1081.438, 538.661
1082.679, 409.174
1083.919, 516.024
1085.159, 527.606
1086.398, 383.445
1087.638, 555.404
1088.877, 409.098
1090.116, 431.984
1091.355, 462.741
1092.594, 444.529
1093.833, 476.504
1095.071, 425.353
1096.309, 319.951
1097.547, 469.855
1098.785, 325.792
1100.023, 410.192
1101.260, 466.187
1102.498, 285.207
1103.735, 407.254
1104.972, 340.328
1106.208, 334.566
1107.445, 347.045
1108.681, 206.637
1109.918, 273.810
1111.154, 190.009
1112.389, 189.231
1113.625, 205.305
1114.860, 159.412
1116.096, 77.703
1117.331, 239.882
1118.566, 128.442
1119.800, 105.758
1121.035, 131.387
1122.269, 101.783
1123.503, 138.605
1124.737, 150.739
1125.971, 174.436
1127.205, 189.496
1128.438, 135.984
1129.671, 132.146
1130.904, 141.665
1132.137, 144.389
1133.370, 89.258
1134.602, 100.823
1135.834, 105.399
1137.066, 293.372
1138.298, 144.560
1139.530, 227.225
1140.762, 147.330
1141.993, 54.117
1143.224, 299.145
1144.455, 132.676
1145.686, 323.337
1146.917, 297.500
1148.147, 241.297
1149.377, 327.020
1150.607, 327.776
1151.837, 251.183
1153.067, 379.303
1154.296, 223.430
1155.526, 241.384
1156.755, 294.606
1157.984, 148.384
1159.213, 7.182
1160.441, 175.288
1161.670, 7.504
1162.898, 148.881
1164.126, 34.572
1165.354, 12.869
1166.581, 46.489
1167.809, 73.732
1169.036, 1.998
1170.263, 15.926
1171.490, 108.297
1172.717, 52.114
1173.943, 135.907
1175.170, 90.962
1176.396, 5.890
1177.622, 97.469
1178.848, 49.042
1180.073, 36.610
1181.299, 79.150
1182.524, 71.499
1183.749, 108.585
1184.974, 74.213
1186.199, 5.423
1187.423, 91.798
1188.648, 33.454
1189.872, 48.300
1191.096, 93.047
1192.320, 54.766
1193.543, 6.532
1194.767, 73.509
1195.990, 35.388
1197.213, 25.404
1198.436, 18.741
1199.659, 33.777
1200.881, 25.369
1202.104, 35.385
1203.326, 62.506
1204.548, 37.823
1205.770, 19.816
1206.991, 138.393
1208.213, 18.869
1209.434, 24.985
1210.655, 19.547
1211.876, 63.882
1213.096, 1.602
1214.317, 6.296
1215.537, 85.645
1216.757, 31.447
1217.977, 30.750
1219.197, 10.084
1220.417, 88.397
1221.636, 114.748
1222.855, 18.954
1224.074, 41.575
1225.293, 5.977
1226.512, 10.135
1227.731, 123.422
1228.949, 59.632
1230.167, 25.026
1231.385, 192.032
1232.603, 12.911
1233.820, 39.125
1235.038, 147.550
1236.255, 17.653
1237.472, 167.495
1238.689, 110.319
1239.906, 53.329
1241.122, 119.086
1242.338, 35.175
1243.555, 30.136
1244.771, 173.798
1245.986, 48.617
1247.202, 117.248
1248.417, 123.829
1249.633, 179.482
1250.848, 113.994
1252.063, 70.481
1253.277, 13.014
1254.492, 61.438
1255.706, 123.821
1256.920, 112.724
1258.134, 144.024
1259.348, 29.738
1260.562, 56.987
1261.775, 142.312
1262.988, 12.466
1264.201, 86.826
1265.414, 32.899
1266.627, 89.609
1267.839, 158.578
1269.052, 88.954
1270.264, 134.189
1271.476, 190.030
1272.688, 83.016
1273.899, 160.855
1275.111, 26.537
1276.322, 186.343
1277.533, 0.421
1278.744, 37.028
1279.955, 160.863
1281.165, 169.281
1282.376, 107.646
1283.586, 98.191
1284.796, 141.475
1286.006, 106.957
1287.215, 131.241
1288.425, 71.390
1289.634, 57.332
1290.843, 197.565
1292.052, 114.666
1293.261, 145.548
1294.469, 90.474
1295.678, 56.933
1296.886, 68.428
1298.094, 79.257
1299.302, 80.163
1300.509, 88.013
1301.717, 125.753
1302.924, 177.515
1304.131, 175.306
1305.338, 30.638
1306.545, 132.062
1307.752, 122.306
1308.958, 27.360
1310.164, 245.060
1311.370, 79.009
1312.576, 103.182
1313.782, 190.682
1314.987, 93.748
1316.193, 181.038
1317.398, 114.461
1318.603, 145.406
1319.807, 81.075
1321.012, 80.021
1322.216, 167.820
1323.421, 94.188
1324.625, 51.877
1325.829, 184.034
1327.032, 74.008
1328.236, 59.257
1329.439, 163.377
1330.642, 117.248
1331.845, 105.645
1333.048, 139.326
1334.251, 71.970
1335.453, 143.755
1336.656, 126.009
1337.858, 50.229
1339.060, 226.263
1340.261, 52.231
1341.463, 24.150
1342.664, 196.116
1343.866, 53.681
1345.067, 84.370
1346.267, 226.414
1347.468, 106.215
1348.669, 182.039
1349.869, 191.102
1351.069, 133.773
1352.269, 234.642
1353.469, 26.450
1354.668, 235.010
1355.868, 214.592
1357.067, 141.080
1358.266, 76.461
1359.465, 208.173
1360.664, 80.558
1361.862, 195.906
1363.061, 156.430
1364.259, 153.993
1365.457, 140.259
1366.655, 176.730
1367.852, 86.444
1369.050, 111.639
1370.247, 14.362
1371.444, 121.718
1372.641, 134.833
1373.838, 102.977
1375.035, 150.739
1376.231, 14.036
1377.427, 102.778
1378.623, 73.324
1379.819, 114.351
1381.015, 174.478
1382.211, 224.386
1383.406, 115.479
1384.601, 231.919
1385.796, 251.747
1386.991, 67.514
1388.185, 225.547
1389.380, 131.688
1390.574, 172.239
1391.768, 199.789
1392.962, 146.997
1394.156, 195.842
1395.350, 204.763
1396.543, 156.499
1397.736, 178.883
1398.929, 172.775
1400.122, 63.738
1401.315, 271.759
1402.507, 76.980
1403.700, 133.816
1404.892, 262.572
1406.084, 178.990
1407.276, 105.718
1408.467, 234.519
1409.659, 42.873
1410.850, 180.258
1412.041, 65.910
1413.232, 78.562
1414.423, 229.150
1415.614, 92.662
1416.804, 114.862
1417.994, 146.662
1419.184, 98.035
1420.374, 42.646
1421.564, 114.988
1422.753, 53.570
1423.943, 137.715
1425.132, 174.575
1426.321, 76.919
1427.510, 220.870
1428.698, 69.137
1429.887, 103.825
1431.075, 166.034
1432.263, 3.938
1433.451, 73.248
1434.639, 95.627
1435.827, 8.366
1437.014, 246.382
1438.201, 10.109
1439.388, 0.054
1440.575, 218.019
1441.762, 75.103
1442.949, 77.774
1444.135, 93.378
1445.321, 76.859
1446.507, 126.401
1447.693, 90.105
1448.879, 131.756
1450.064, 171.530
1451.250, 168.378
1452.435, 85.140
1453.620, 197.297
1454.805, 112.020
1455.989, 86.506
1457.174, 215.117
1458.358, 34.912
1459.542, 157.422
1460.726, 152.737
1461.910, 124.277
1463.093, 182.414
1464.277, 151.240
1465.460, 134.864
1466.643, 274.097
1467.826, 125.543
1469.009, 168.169
1470.191, 286.203
1471.373, 111.077
1472.556, 279.542
1473.738, 234.481
1474.919, 148.294
1476.101, 236.581
1477.283, 102.800
1478.464, 151.891
1479.645, 164.233
1480.826, 72.955
1482.007, 204.872
1483.187, 217.938
1484.368, 111.720
1485.548, 155.934
1486.728, 221.847
1487.908, 104.977
1489.088, 176.881
1490.268, 68.746
1491.447, 178.773
1492.626, 289.807
1493.805, 151.917
1494.984, 213.082
1496.163, 326.288
1497.341, 144.563
1498.520, 164.859
1499.698, 337.415
1500.876, 104.271
1502.054, 219.409
1503.232, 177.726
1504.409, 21.205
1505.586, 213.894
1506.763, 155.936
1507.940, 27.304
1509.117, 211.073
1510.294, 152.342
1511.470, 131.164
1512.647, 141.410
1513.823, 106.939
1514.999, 93.053
1516.174, 196.244
1517.350, 1.698
1518.526, 194.066
1519.701, 0.000
##END=
