##NAMES=Pyrosmalite-(Fe)
##RRUFFID=R050158
##IDEAL CHEMISTRY=Fe^2+^_8_Si_6_O_15_(OH)_10_
##LOCALITY=Burguillos del Cerro, Badajos, Spain
##OWNER=RRUFF
##SOURCE=Jim McGlasson
##DESCRIPTION=Green subhedral crystal aggregate
##STATUS=The identification of this mineral has been confirmed by X-ray diffraction and chemical analysis
##URL=rruff.info/R050158
##MEASURED CHEMISTRY=(Fe^2+^_0.92_Mn^2+^_0.06_Mg_0.02_)_8_Si_6_O_15_(OH_0.83_Cl_0.17_)_10_
##PIN_ID=L00508
##ORIENTATION=Laser parallel to -a* (-1 0 0). Fiducial mark perpendicular to laser is parallel to c [0 0 1]
133.821, 0.000
135.210, 18.849
136.599, 254.688
137.987, 517.232
139.376, 807.726
140.764, 1125.554
142.152, 1187.556
143.539, 1418.449
144.927, 1413.334
146.314, 1356.520
147.701, 1091.252
149.088, 639.336
150.474, 492.078
151.861, 169.785
153.247, 117.347
154.633, 12.558
156.018, 27.766
157.404, 46.878
158.789, 39.622
160.174, 319.516
161.559, 366.974
162.943, 330.923
164.327, 185.456
165.711, 343.702
167.095, 427.789
168.479, 604.020
169.862, 831.082
171.246, 1130.344
172.628, 1465.076
174.011, 1807.956
175.394, 2389.905
176.776, 2867.036
178.158, 3443.445
179.540, 4220.205
180.922, 4860.373
182.303, 5638.985
183.684, 6336.083
185.065, 7247.708
186.446, 7863.417
187.826, 8332.459
189.207, 9003.058
190.587, 8972.960
191.967, 9606.084
193.346, 9497.978
194.726, 9241.600
196.105, 8846.241
197.484, 8252.680
198.862, 8231.679
200.241, 7816.007
201.619, 7810.310
202.997, 7805.748
204.375, 7620.681
205.753, 7403.797
207.130, 6984.316
208.507, 6677.389
209.884, 5829.303
211.261, 5106.023
212.638, 4410.546
214.014, 3771.376
215.390, 3393.255
216.766, 2831.261
218.141, 2513.537
219.517, 2152.996
220.892, 2087.595
222.267, 1849.283
223.642, 1745.010
225.016, 1624.759
226.391, 1408.487
227.765, 1312.114
229.139, 1067.577
230.512, 1025.996
231.886, 852.410
233.259, 713.817
234.632, 664.229
236.005, 577.648
237.377, 508.073
238.749, 358.500
240.122, 295.933
241.493, 258.367
242.865, 149.798
244.237, 264.232
245.608, 193.657
246.979, 178.066
248.350, 98.453
249.720, 100.813
251.090, 111.143
252.461, 99.434
253.830, 81.715
255.200, 37.881
256.570, 35.034
257.939, 28.138
259.308, 21.195
260.677, 0.795
262.045, 25.833
263.414, 27.083
264.782, 3.047
266.150, 24.777
267.517, 21.445
268.885, 42.716
270.252, 30.049
271.619, 51.454
272.986, 6.928
274.353, 12.481
275.719, 68.114
277.085, 15.831
278.451, 11.641
279.817, 15.453
281.182, 9.428
282.548, 54.912
283.913, 83.789
285.278, 82.896
286.642, 188.135
288.007, 159.332
289.371, 255.611
290.735, 320.176
292.099, 448.140
293.462, 488.827
294.826, 609.588
296.189, 740.652
297.552, 848.040
298.914, 1008.211
300.277, 1092.490
301.639, 1258.218
303.001, 1463.399
304.363, 1459.925
305.724, 1604.928
307.086, 1529.331
308.447, 1509.879
309.808, 1374.758
311.168, 1313.615
312.529, 1335.377
313.889, 1265.906
315.249, 1470.365
316.609, 1631.300
317.969, 1912.720
319.328, 2284.833
320.687, 2735.809
322.046, 3501.861
323.405, 4126.401
324.764, 4790.907
326.122, 4763.555
327.480, 4141.992
328.838, 3461.681
330.196, 2595.042
331.553, 2172.680
332.910, 1787.353
334.267, 1582.947
335.624, 1481.860
336.981, 1327.417
338.337, 1267.160
339.693, 1076.909
341.049, 1012.405
342.405, 911.126
343.760, 808.809
345.116, 754.509
346.471, 647.134
347.826, 622.429
349.180, 609.845
350.535, 613.127
351.889, 657.146
353.243, 804.160
354.597, 932.361
355.950, 1042.375
357.304, 1330.132
358.657, 1537.917
360.010, 1906.391
361.362, 2064.729
362.715, 2241.264
364.067, 2382.358
365.419, 2251.479
366.771, 2210.449
368.123, 2113.144
369.474, 1840.752
370.825, 1725.062
372.176, 1547.641
373.527, 1443.830
374.877, 1283.043
376.228, 1221.161
377.578, 1171.215
378.928, 994.293
380.277, 994.257
381.627, 949.314
382.976, 953.236
384.325, 891.135
385.674, 823.193
387.023, 844.048
388.371, 833.880
389.719, 832.689
391.067, 764.475
392.415, 818.241
393.762, 844.985
395.110, 777.713
396.457, 813.419
397.804, 791.104
399.150, 816.770
400.497, 816.318
401.843, 774.227
403.189, 777.859
404.535, 719.319
405.881, 748.111
407.226, 709.564
408.571, 623.705
409.916, 597.706
411.261, 575.386
412.605, 624.367
413.950, 566.781
415.294, 578.088
416.638, 589.228
417.981, 542.797
419.325, 584.318
420.668, 518.723
422.011, 488.005
423.354, 401.535
424.697, 337.501
426.039, 342.887
427.381, 259.299
428.723, 251.647
430.065, 208.919
431.406, 169.863
432.748, 146.608
434.089, 124.016
435.430, 92.225
436.770, 100.092
438.111, 56.473
439.451, 86.142
440.791, 21.082
442.131, 60.265
443.471, 17.328
444.810, 22.941
446.149, 41.951
447.488, 72.639
448.827, 76.916
450.166, 99.822
451.504, 62.957
452.842, 41.864
454.180, 3.318
455.518, 22.765
456.855, 15.268
458.193, 39.803
459.530, 13.808
460.867, 40.027
462.203, 40.258
463.540, 57.492
464.876, 90.677
466.212, 79.816
467.548, 122.251
468.883, 190.969
470.219, 173.996
471.554, 206.992
472.889, 203.970
474.224, 284.942
475.558, 368.888
476.892, 494.825
478.227, 710.751
479.561, 922.664
480.894, 1230.577
482.228, 1476.479
483.561, 1642.396
484.894, 1631.318
486.227, 1414.223
487.559, 1183.109
488.892, 867.974
490.224, 603.819
491.556, 473.643
492.888, 308.443
494.220, 239.221
495.551, 103.976
496.882, 168.705
498.213, 104.411
499.544, 84.091
500.874, 126.747
502.205, 55.378
503.535, 47.984
504.865, 27.565
506.194, 30.119
507.524, 93.647
508.853, 50.153
510.182, 65.633
511.511, 16.909
512.840, 87.517
514.168, 21.921
515.496, 42.301
516.824, 80.658
518.152, 48.995
519.480, 97.309
520.807, 101.605
522.134, 23.881
523.461, 103.137
524.788, 60.375
526.114, 58.594
527.441, 97.796
528.767, 82.982
530.093, 132.152
531.418, 50.309
532.744, 129.449
534.069, 112.577
535.394, 126.690
536.719, 135.792
538.044, 123.887
539.368, 164.970
540.693, 116.050
542.017, 170.174
543.340, 178.242
544.664, 95.502
545.987, 225.543
547.311, 215.583
548.634, 199.624
549.956, 190.641
551.279, 192.010
552.601, 231.006
553.923, 257.284
555.245, 290.325
556.567, 274.293
557.889, 264.093
559.210, 353.051
560.531, 318.231
561.852, 377.171
563.173, 335.105
564.493, 375.033
565.813, 456.959
567.133, 414.880
568.453, 501.796
569.773, 485.709
571.092, 537.621
572.412, 606.532
573.731, 610.442
575.049, 734.352
576.368, 738.262
577.686, 778.174
579.005, 892.089
580.323, 896.008
581.640, 1064.930
582.958, 1074.859
584.275, 1205.804
585.593, 1373.751
586.909, 1320.443
588.226, 1577.117
589.543, 1616.643
590.859, 1874.049
592.175, 2129.393
593.491, 2388.689
594.807, 2729.876
596.122, 2907.122
597.438, 3460.241
598.753, 4050.511
600.068, 4594.535
601.382, 5623.738
602.697, 6427.777
604.011, 8032.646
605.325, 9889.392
606.639, 12124.229
607.952, 15768.819
609.266, 19041.986
610.579, 24657.488
611.892, 30154.330
613.205, 35313.172
614.518, 41081.156
615.830, 40659.523
617.142, 39986.566
618.454, 36035.016
619.766, 28802.145
621.078, 23981.357
622.389, 18000.643
623.700, 14450.080
625.011, 11509.753
626.322, 8849.325
627.632, 7531.740
628.943, 5855.586
630.253, 5078.053
631.563, 4267.080
632.872, 3595.124
634.182, 3231.017
635.491, 2727.105
636.800, 2540.046
638.109, 2211.727
639.418, 1913.865
640.726, 1782.316
642.035, 1500.343
643.343, 1478.623
644.651, 1330.570
645.958, 1138.589
647.266, 1114.606
648.573, 990.620
649.880, 927.632
651.187, 897.642
652.494, 774.649
653.800, 762.254
655.106, 621.134
656.412, 683.752
657.718, 597.289
659.024, 579.011
660.329, 554.441
661.634, 490.845
662.939, 529.170
664.244, 428.512
665.549, 413.126
666.853, 448.565
668.157, 388.075
669.461, 361.770
670.765, 340.385
672.069, 259.732
673.372, 290.172
674.675, 199.780
675.978, 251.262
677.281, 180.954
678.583, 194.671
679.886, 159.070
681.188, 189.809
682.490, 97.376
683.792, 96.944
685.093, 128.683
686.394, 121.369
687.696, 55.268
688.997, 100.832
690.297, 35.736
691.598, 27.576
692.898, 62.484
694.198, 24.000
695.498, 57.913
696.798, 33.568
698.097, 7.485
699.397, 17.496
700.696, 3.942
701.995, 45.888
703.293, 42.789
704.592, 19.803
705.890, 58.817
707.188, 8.109
708.486, 38.905
709.784, 28.025
711.081, 6.979
712.378, 30.986
713.675, 17.576
714.972, 70.425
716.269, 3.573
717.565, 49.429
718.862, 65.433
720.158, 77.438
721.453, 112.445
722.749, 110.453
724.045, 102.464
725.340, 174.476
726.635, 194.490
727.930, 274.506
729.224, 268.524
730.519, 358.543
731.813, 422.565
733.107, 471.588
734.401, 528.613
735.694, 558.640
736.988, 664.668
738.281, 739.699
739.574, 667.731
740.867, 735.765
742.160, 711.801
743.452, 628.839
744.744, 623.880
746.036, 497.925
747.328, 468.973
748.620, 424.026
749.911, 267.083
751.202, 318.145
752.493, 219.211
753.784, 230.283
755.075, 173.359
756.365, 135.440
757.655, 153.527
758.945, 88.619
760.235, 132.721
761.525, 184.840
762.814, 144.983
764.103, 151.151
765.392, 162.351
766.681, 190.571
767.969, 148.806
769.258, 124.049
770.546, 161.302
771.834, 94.564
773.122, 74.841
774.409, 2.126
775.697, 15.425
776.984, 47.729
778.271, 10.036
779.558, 2.652
780.844, 20.660
782.131, 27.024
783.417, 3.279
784.703, 44.417
785.989, 87.133
787.274, 15.109
788.560, 66.649
789.845, 35.439
791.130, 14.239
792.415, 9.047
793.699, 2.144
794.983, 41.665
796.268, 44.505
797.552, 20.321
798.835, 14.156
800.119, 95.005
801.402, 57.171
802.686, 115.337
803.969, 148.506
805.251, 130.676
806.534, 211.847
807.816, 240.035
809.098, 389.225
810.380, 441.420
811.662, 509.619
812.944, 704.821
814.225, 847.064
815.506, 1044.275
816.787, 1277.507
818.068, 1513.747
819.349, 1779.991
820.629, 1806.238
821.909, 1852.490
823.189, 1714.745
824.469, 1392.014
825.749, 1275.286
827.028, 945.562
828.307, 866.844
829.586, 682.131
830.865, 508.420
832.144, 473.715
833.422, 351.012
834.700, 277.313
835.978, 265.620
837.256, 125.930
838.534, 147.242
839.811, 114.557
841.088, 80.875
842.365, 82.201
843.642, 21.531
844.919, 16.863
846.195, 47.205
847.472, 22.451
848.748, 49.880
850.023, 23.787
851.299, 9.532
852.575, 14.795
853.850, 38.897
855.125, 56.199
856.400, 27.498
857.674, 31.789
858.949, 49.065
860.223, 8.354
861.497, 51.282
862.771, 12.426
864.045, 36.569
865.318, 26.796
866.591, 36.914
867.864, 61.526
869.137, 20.799
870.410, 13.841
871.682, 76.116
872.955, 27.394
874.227, 42.672
875.499, 16.952
876.770, 37.233
878.042, 77.515
879.313, 61.798
880.584, 78.083
881.855, 92.368
883.126, 34.655
884.396, 102.942
885.667, 60.231
886.937, 111.520
888.207, 31.811
889.476, 47.102
890.746, 77.394
892.015, 100.687
893.284, 66.981
894.553, 77.276
895.822, 37.572
897.090, 78.869
898.359, 83.166
899.627, 59.465
900.895, 100.765
902.163, 29.066
903.430, 162.368
904.698, 160.671
905.965, 99.975
907.232, 145.281
908.499, 97.587
909.765, 111.894
911.032, 145.202
912.298, 120.510
913.564, 158.820
914.830, 127.130
916.095, 165.441
917.361, 161.753
918.626, 142.064
919.891, 172.376
921.156, 137.687
922.420, 121.999
923.685, 187.310
924.949, 163.621
926.213, 203.933
927.477, 183.188
928.740, 187.499
930.004, 227.809
931.267, 193.114
932.530, 221.140
933.793, 178.449
935.056, 159.208
936.318, 254.471
937.581, 213.256
938.843, 227.472
940.104, 289.778
941.366, 177.234
942.628, 259.961
943.889, 222.364
945.150, 219.792
946.411, 283.101
947.672, 213.985
948.932, 254.860
950.193, 239.910
951.453, 207.466
952.713, 307.200
953.973, 249.507
955.232, 238.008
956.491, 285.316
957.751, 255.623
959.010, 371.455
960.268, 349.762
961.527, 303.695
962.785, 357.081
964.044, 299.387
965.302, 382.458
966.559, 381.895
967.817, 370.212
969.075, 434.134
970.332, 400.438
971.589, 418.830
972.846, 450.335
974.102, 458.684
975.359, 504.505
976.615, 515.813
977.871, 554.109
979.127, 577.051
980.383, 520.501
981.638, 696.798
982.893, 609.525
984.149, 667.940
985.404, 788.317
986.658, 698.246
987.913, 803.535
989.167, 877.821
990.421, 890.108
991.675, 1028.442
992.929, 930.393
994.183, 1073.751
995.436, 1191.159
996.689, 1215.420
997.942, 1381.699
999.195, 1462.514
1000.448, 1561.791
1001.700, 1810.418
1002.952, 1779.786
1004.204, 2012.058
1005.456, 2221.917
1006.708, 2305.246
1007.959, 2716.623
1009.210, 2891.037
1010.461, 3204.301
1011.712, 3719.653
1012.963, 4082.042
1014.213, 4754.260
1015.464, 5434.723
1016.714, 5929.002
1017.964, 7283.902
1019.214, 7695.479
1020.463, 8675.758
1021.712, 9616.162
1022.962, 9566.562
1024.210, 10346.841
1025.459, 9817.214
1026.708, 8947.487
1027.956, 8697.763
1029.204, 7155.130
1030.452, 6497.404
1031.700, 5514.674
1032.948, 4486.940
1034.195, 4081.212
1035.442, 3251.479
1036.689, 2810.744
1037.936, 2562.015
1039.183, 2058.282
1040.429, 1985.548
1041.676, 1664.811
1042.922, 1453.070
1044.168, 1345.327
1045.413, 1099.633
1046.659, 1021.885
1047.904, 959.139
1049.149, 744.545
1050.394, 779.809
1051.639, 659.194
1052.884, 534.486
1054.128, 617.745
1055.372, 486.136
1056.616, 518.489
1057.860, 459.764
1059.104, 365.121
1060.347, 414.353
1061.590, 287.764
1062.833, 277.086
1064.076, 318.317
1065.319, 248.791
1066.561, 236.015
1067.803, 192.236
1069.046, 177.510
1070.287, 233.724
1071.529, 182.046
1072.771, 164.252
1074.012, 150.454
1075.253, 91.927
1076.494, 155.123
1077.735, 127.315
1078.975, 112.689
1080.216, 140.877
1081.456, 72.149
1082.696, 103.333
1083.936, 58.513
1085.175, 45.700
1086.415, 67.884
1087.654, 66.074
1088.893, 70.282
1090.132, 56.486
1091.371, 18.266
1092.609, 102.941
1093.847, 6.852
1095.085, 13.347
1096.323, 87.540
1097.561, 3.260
1098.799, 54.067
1100.036, 12.742
1101.273, 0.563
1102.510, 60.607
1103.747, 6.773
1104.983, 43.214
1106.220, 57.368
1107.456, 49.483
1108.692, 45.792
1109.928, 3.099
1111.163, 25.067
1112.399, 47.159
1113.634, 68.754
1114.869, 13.475
1116.104, 42.510
1117.339, 2.461
1118.573, 83.722
1119.808, 24.735
1121.042, 8.741
1122.276, 84.740
1123.509, 17.266
1124.743, 44.736
1125.976, 58.705
1127.210, 2.332
1128.443, 13.848
1129.675, 53.792
1130.908, 1.731
1132.141, 20.659
1133.373, 29.581
1134.605, 1.458
1135.837, 64.445
1137.068, 64.342
1138.300, 80.690
1139.531, 39.576
1140.762, 17.546
1141.993, 33.556
1143.224, 21.407
1144.455, 22.347
1145.685, 81.843
1146.915, 28.656
1148.145, 85.060
1149.375, 58.867
1150.605, 25.730
1151.834, 66.893
1153.063, 20.686
1154.292, 40.591
1155.521, 95.539
1156.750, 19.331
1157.978, 79.274
1159.207, 20.177
1160.435, 24.946
1161.663, 60.490
1162.891, 7.751
1164.118, 61.541
1165.345, 47.443
1166.573, 12.180
1167.800, 82.057
1169.026, 30.006
1170.253, 30.717
1171.480, 97.556
1172.706, 38.296
1173.932, 80.096
1175.158, 84.108
1176.383, 40.848
1177.609, 142.954
1178.834, 91.697
1180.059, 74.345
1181.284, 122.316
1182.509, 93.980
1183.734, 115.605
1184.958, 79.320
1186.182, 79.929
1187.406, 127.689
1188.630, 87.406
1189.854, 83.990
1191.077, 69.572
1192.301, 56.141
1193.524, 68.701
1194.747, 82.956
1195.969, 33.576
1197.192, 67.159
1198.414, 40.304
1199.636, 61.821
1200.858, 69.599
1202.080, 37.191
1203.302, 45.681
1204.523, 64.844
1205.744, 44.372
1206.966, 128.835
1208.186, 34.841
1209.407, 55.286
1210.628, 96.722
1211.848, 27.316
1213.068, 123.733
1214.288, 102.259
1215.508, 62.728
1216.727, 140.119
1217.947, 49.664
1219.166, 77.037
1220.385, 132.403
1221.604, 26.177
1222.822, 105.532
1224.041, 108.902
1225.259, 34.152
1226.477, 151.474
1227.695, 56.806
1228.913, 81.967
1230.130, 131.263
1231.348, 91.540
1232.565, 136.919
1233.782, 136.196
1234.999, 89.615
1236.215, 144.875
1237.432, 72.129
1238.648, 82.904
1239.864, 99.143
1241.080, 88.605
1242.296, 102.720
1243.511, 97.937
1244.726, 44.576
1245.942, 85.777
1247.156, 76.795
1248.371, 77.667
1249.586, 116.846
1250.800, 24.821
1252.014, 113.984
1253.228, 133.139
1254.442, 34.764
1255.656, 85.899
1256.869, 56.402
1258.083, 81.473
1259.296, 82.588
1260.509, 24.929
1261.722, 95.894
1262.934, 105.970
1264.147, 28.431
1265.359, 128.500
1266.571, 94.471
1267.783, 89.320
1268.994, 101.366
1270.206, 59.833
1271.417, 85.838
1272.628, 71.838
1273.839, 6.816
1275.050, 91.010
1276.260, 117.976
1277.471, 70.502
1278.681, 71.322
1279.891, 54.169
1281.101, 86.447
1282.310, 85.357
1283.520, 6.247
1284.729, 64.125
1285.938, 83.947
1287.147, 15.144
1288.356, 75.912
1289.564, 6.610
1290.773, 6.444
1291.981, 67.250
1293.189, 0.942
1294.397, 66.707
1295.604, 46.465
1296.812, 6.095
1298.019, 71.834
1299.226, 33.423
1300.433, 21.087
1301.640, 61.797
1302.846, 20.343
1304.053, 28.029
1305.259, 65.552
1306.465, 34.922
1307.671, 93.710
1308.876, 15.855
1310.082, 16.755
1311.287, 92.302
1312.492, 19.596
1313.697, 10.180
1314.902, 59.624
1316.106, 9.938
1317.310, 43.613
1318.515, 27.055
1319.719, 13.413
1320.922, 37.105
1322.126, 0.518
1323.329, 32.016
1324.533, 59.504
1325.736, 14.017
1326.939, 44.448
1328.141, 55.905
1329.344, 26.647
1330.546, 52.783
1331.748, 13.205
1332.950, 20.619
1334.152, 76.024
1335.354, 48.422
1336.555, 53.812
1337.757, 53.143
1338.958, 21.481
1340.159, 29.882
1341.359, 36.083
1342.560, 20.583
1343.760, 72.621
1344.960, 0.909
1346.160, 24.223
1347.360, 101.395
1348.560, 6.403
1349.759, 31.870
1350.959, 48.052
1352.158, 36.647
1353.357, 63.468
1354.555, 66.665
1355.754, 5.946
1356.952, 54.981
1358.151, 14.259
1359.349, 25.537
1360.546, 87.758
1361.744, 5.037
1362.941, 60.206
1364.139, 47.490
1365.336, 4.222
1366.533, 37.797
1367.730, 32.096
1368.926, 12.595
1370.123, 96.537
1371.319, 33.872
1372.515, 11.870
1373.711, 50.493
1374.906, 14.116
1376.102, 14.303
1377.297, 80.122
1378.492, 3.284
1379.687, 107.867
1380.882, 76.412
1382.077, 44.987
1383.271, 68.555
1384.465, 45.973
1385.659, 82.535
1386.853, 82.788
1388.047, 53.328
1389.240, 76.714
1390.434, 70.194
1391.627, 7.553
1392.820, 107.131
1394.013, 48.520
1395.205, 59.084
1396.398, 130.616
1397.590, 44.179
1398.782, 94.308
1399.974, 108.851
1401.166, 25.334
1402.357, 124.871
1403.549, 106.845
1404.740, 43.071
1405.931, 144.098
1407.122, 56.171
1408.313, 101.950
1409.503, 103.930
1410.693, 50.295
1411.883, 90.588
1413.073, 124.703
1414.263, 88.475
1415.453, 101.831
1416.642, 117.030
1417.831, 34.931
1419.020, 84.762
1420.209, 123.936
1421.398, 35.323
1422.587, 140.921
1423.775, 42.323
1424.963, 120.603
1426.151, 126.770
1427.339, 39.618
1428.526, 67.881
1429.714, 90.147
1430.901, 68.595
1432.088, 127.146
1433.275, 58.895
1434.462, 73.922
1435.648, 132.866
1436.835, 47.698
1438.021, 71.792
1439.207, 89.590
1440.393, 47.342
1441.579, 121.122
1442.764, 102.184
1443.949, 3.451
1445.135, 156.699
1446.320, 95.663
1447.504, 61.990
1448.689, 111.795
1449.873, 57.380
1451.058, 136.243
1452.242, 66.081
1453.426, 59.895
1454.609, 96.688
1455.793, 86.456
1456.976, 38.942
1458.159, 163.650
1459.342, 79.324
1460.525, 91.993
1461.708, 171.554
1462.890, 100.164
1464.073, 139.753
1465.255, 119.329
1466.437, 57.875
1467.619, 115.432
1468.800, 172.042
1469.982, 57.647
1471.163, 176.263
1472.344, 109.913
1473.525, 110.595
1474.706, 201.299
1475.886, 99.010
1477.066, 88.814
1478.247, 179.626
1479.427, 73.565
1480.607, 197.508
1481.786, 160.455
1482.966, 82.453
1484.145, 150.511
1485.324, 139.687
1486.503, 130.890
1487.682, 146.120
1488.860, 85.389
1490.039, 103.706
1491.217, 190.077
1492.395, 84.513
1493.573, 174.025
1494.751, 126.622
1495.928, 96.314
1497.106, 112.109
1498.283, 92.019
1499.460, 74.053
1500.637, 132.218
1501.814, 68.529
1502.990, 70.002
1504.166, 109.649
1505.342, 67.500
1506.518, 112.586
1507.694, 120.946
1508.870, 18.623
1510.045, 78.669
1511.221, 78.155
1512.396, 1.176
1513.571, 111.863
1514.745, 19.402
1515.920, 103.066
1517.094, 120.029
1518.269, 0.606
1519.443, 0.000
##END=



