##NAMES=Pyrosmalite-(Fe)
##RRUFFID=R050158
##IDEAL CHEMISTRY=Fe^2+^_8_Si_6_O_15_(OH)_10_
##LOCALITY=Burguillos del Cerro, Badajos, Spain
##OWNER=RRUFF
##SOURCE=Jim McGlasson
##DESCRIPTION=Green subhedral crystal aggregate
##STATUS=The identification of this mineral has been confirmed by X-ray diffraction and chemical analysis
##URL=rruff.info/R050158
##MEASURED CHEMISTRY=(Fe^2+^_0.92_Mn^2+^_0.06_Mg_0.02_)_8_Si_6_O_15_(OH_0.83_Cl_0.17_)_10_
##PIN_ID=L00508
##ORIENTATION=Laser parallel to -a* (-1 0 0). Fiducial mark perpendicular to laser is parallel to c [0 0 1]
133.821, 0.000
135.210, 41.280
136.599, 116.537
137.987, 244.936
139.376, 317.702
140.764, 576.257
142.152, 514.311
143.539, 719.295
144.927, 662.104
146.314, 641.066
147.701, 542.378
149.088, 355.477
150.474, 302.371
151.861, 83.588
153.247, 51.954
154.633, 16.439
156.018, 31.792
157.404, 26.945
158.789, 12.143
160.174, 1.860
161.559, 19.089
162.943, 99.241
164.327, 90.542
165.711, 91.938
167.095, 62.531
168.479, 189.468
169.862, 210.182
171.246, 245.512
172.628, 284.573
174.011, 389.979
175.394, 497.110
176.776, 668.756
178.158, 789.425
179.540, 1071.682
180.922, 1256.917
182.303, 1499.180
183.684, 1734.458
185.065, 2054.795
186.446, 2252.730
187.826, 2329.951
189.207, 2591.933
190.587, 2516.361
191.967, 2680.704
193.346, 2619.485
194.726, 2544.279
196.105, 2424.206
197.484, 2196.687
198.862, 2086.945
200.241, 1925.566
201.619, 1876.395
202.997, 1799.361
204.375, 1814.341
205.753, 1702.938
207.130, 1581.568
208.507, 1518.265
209.884, 1391.349
211.261, 1178.271
212.638, 1032.504
214.014, 833.814
215.390, 751.102
216.766, 617.073
218.141, 527.874
219.517, 454.790
220.892, 380.807
222.267, 379.916
223.642, 334.101
225.016, 325.352
226.391, 254.661
227.765, 205.017
229.139, 159.383
230.512, 94.771
231.886, 97.188
233.259, 39.626
234.632, 22.083
236.005, 1.437
237.377, 36.068
238.749, 3.592
240.122, 44.350
241.493, 37.405
242.865, 46.727
244.237, 33.973
245.608, 23.648
246.979, 91.186
248.350, 78.705
249.720, 154.202
251.090, 160.676
252.461, 189.124
253.830, 143.544
255.200, 180.929
256.570, 188.277
257.939, 232.588
259.308, 100.866
260.677, 219.264
262.045, 151.468
263.414, 189.620
264.782, 157.717
266.150, 137.732
267.517, 91.641
268.885, 186.443
270.252, 92.103
271.619, 64.627
272.986, 98.063
274.353, 5.433
275.719, 35.748
277.085, 2.991
278.451, 22.779
279.817, 28.620
281.182, 53.512
282.548, 50.454
283.913, 60.452
285.278, 56.508
286.642, 5.632
288.007, 21.158
289.371, 43.831
290.735, 78.835
292.099, 60.382
293.462, 133.046
294.826, 153.832
296.189, 234.432
297.552, 310.946
298.914, 429.961
300.277, 549.776
301.639, 665.305
303.001, 798.752
304.363, 872.104
305.724, 938.329
307.086, 963.437
308.447, 1046.437
309.808, 1091.316
311.168, 1170.924
312.529, 1141.562
313.889, 1332.913
315.249, 1118.253
316.609, 1159.513
317.969, 1269.680
319.328, 1419.593
320.687, 1657.462
322.046, 2060.673
323.405, 2461.670
324.764, 2942.952
326.122, 2996.288
327.480, 2764.832
328.838, 2345.210
330.196, 1803.470
331.553, 1402.488
332.910, 1115.679
334.267, 847.839
335.624, 777.336
336.981, 639.820
338.337, 551.255
339.693, 448.617
341.049, 413.822
342.405, 384.124
343.760, 344.012
345.116, 303.426
346.471, 259.946
347.826, 281.697
349.180, 281.556
350.535, 237.103
351.889, 238.726
353.243, 307.655
354.597, 344.629
355.950, 405.607
357.304, 528.354
358.657, 567.118
360.010, 673.949
361.362, 714.710
362.715, 747.294
364.067, 862.967
365.419, 913.402
366.771, 903.835
368.123, 787.213
369.474, 741.728
370.825, 688.842
372.176, 640.047
373.527, 613.831
374.877, 538.659
376.228, 479.462
377.578, 472.090
378.928, 442.877
380.277, 426.566
381.627, 406.013
382.976, 418.472
384.325, 409.917
385.674, 316.463
387.023, 411.120
388.371, 373.175
389.719, 435.991
391.067, 425.710
392.415, 442.506
393.762, 453.994
395.110, 427.537
396.457, 436.046
397.804, 454.001
399.150, 461.074
400.497, 436.417
401.843, 401.611
403.189, 411.664
404.535, 416.841
405.881, 368.596
407.226, 461.541
408.571, 377.313
409.916, 464.383
411.261, 426.168
412.605, 515.696
413.950, 563.260
415.294, 650.997
416.638, 699.384
417.981, 735.048
419.325, 744.722
420.668, 703.562
422.011, 708.510
423.354, 591.255
424.697, 496.608
426.039, 453.191
427.381, 377.566
428.723, 417.758
430.065, 370.513
431.406, 326.011
432.748, 369.751
434.089, 353.129
435.430, 405.926
436.770, 350.679
438.111, 412.506
439.451, 446.761
440.791, 306.780
442.131, 281.437
443.471, 238.536
444.810, 150.833
446.149, 120.506
447.488, 80.430
448.827, 101.551
450.166, 34.985
451.504, 20.959
452.842, 73.429
454.180, 30.661
455.518, 29.599
456.855, 37.684
458.193, 112.088
459.530, 99.798
460.867, 158.620
462.203, 259.404
463.540, 284.152
464.876, 432.865
466.212, 565.544
467.548, 722.189
468.883, 751.801
470.219, 696.380
471.554, 661.926
472.889, 525.445
474.224, 436.934
475.558, 407.392
476.892, 414.836
478.227, 469.249
479.561, 546.632
480.894, 664.986
482.228, 798.311
483.561, 849.614
484.894, 942.892
486.227, 780.144
487.559, 612.368
488.892, 458.565
490.224, 382.735
491.556, 317.878
492.888, 225.995
494.220, 175.086
495.551, 72.150
496.882, 52.184
498.213, 41.188
499.544, 37.161
500.874, 54.105
502.205, 11.020
503.535, 16.096
504.865, 27.323
506.194, 12.765
507.524, 41.576
508.853, 3.019
510.182, 13.357
511.511, 27.479
512.840, 35.349
514.168, 39.025
515.496, 19.531
516.824, 59.093
518.152, 39.631
519.480, 10.146
520.807, 11.637
522.134, 40.105
523.461, 4.550
524.788, 46.971
526.114, 30.371
527.441, 23.748
528.767, 5.896
530.093, 32.436
531.418, 5.253
532.744, 35.036
534.069, 4.539
535.394, 0.163
536.719, 28.117
538.044, 3.671
539.368, 0.646
540.693, 52.057
542.017, 23.556
543.340, 32.702
544.664, 5.682
545.987, 11.253
547.311, 58.160
548.634, 41.817
549.956, 10.013
551.279, 12.639
552.601, 65.425
553.923, 55.616
555.245, 51.737
556.567, 47.756
557.889, 3.990
559.210, 61.038
560.531, 20.061
561.852, 52.195
563.173, 100.232
564.493, 82.309
565.813, 124.360
567.133, 85.409
568.453, 98.458
569.773, 135.500
571.092, 164.538
572.412, 175.567
573.731, 143.590
575.049, 228.619
576.368, 223.640
577.686, 175.656
579.005, 237.662
580.323, 239.659
581.640, 326.649
582.958, 298.631
584.275, 325.604
585.593, 387.577
586.909, 351.542
588.226, 478.500
589.543, 542.453
590.859, 509.397
592.175, 631.341
593.491, 712.281
594.807, 863.219
596.122, 945.160
597.438, 1068.100
598.753, 1324.045
600.068, 1462.002
601.382, 1896.972
602.697, 2158.902
604.011, 2677.509
605.325, 3372.037
606.639, 4088.446
607.952, 5388.962
609.266, 6595.181
610.579, 8490.294
611.892, 10609.711
613.205, 12658.918
614.518, 14738.120
615.830, 14997.386
617.142, 14636.960
618.454, 13506.475
619.766, 10836.233
621.078, 9046.224
622.389, 6947.203
623.700, 5507.172
625.011, 4442.280
626.322, 3418.231
627.632, 2920.341
628.943, 2473.347
630.253, 2190.521
631.563, 1928.618
632.872, 1618.541
634.182, 1679.284
635.491, 1325.168
636.800, 1572.080
638.109, 951.976
639.418, 780.833
640.726, 777.733
642.035, 628.572
643.343, 657.403
644.651, 515.225
645.958, 498.038
647.266, 551.843
648.573, 477.640
649.880, 476.428
651.187, 480.208
652.494, 417.925
653.800, 441.209
655.106, 378.406
656.412, 501.553
657.718, 447.682
659.024, 471.878
660.329, 508.893
661.634, 475.232
662.939, 564.950
664.244, 534.447
665.549, 556.584
666.853, 529.443
668.157, 491.461
669.461, 513.224
670.765, 399.505
672.069, 376.633
673.372, 390.679
674.675, 269.890
675.978, 292.019
677.281, 212.024
678.583, 228.035
679.886, 185.164
681.188, 109.145
682.490, 169.303
683.792, 79.391
685.093, 91.466
686.394, 105.295
687.696, 76.480
688.997, 83.327
690.297, 8.451
691.598, 52.430
692.898, 51.477
694.198, 87.623
695.498, 32.647
696.798, 6.088
698.097, 7.294
699.397, 30.509
700.696, 37.288
701.995, 38.738
703.293, 2.066
704.592, 30.697
705.890, 29.534
707.188, 24.004
708.486, 56.677
709.784, 23.987
711.081, 40.345
712.378, 69.564
713.675, 9.793
714.972, 100.236
716.269, 88.531
717.565, 37.598
718.862, 97.784
720.158, 53.257
721.453, 70.650
722.749, 123.165
724.045, 146.633
725.340, 172.067
726.635, 76.631
727.930, 166.097
729.224, 142.114
730.519, 186.082
731.813, 305.486
733.107, 292.661
734.401, 346.154
735.694, 277.591
736.988, 275.015
738.281, 388.451
739.574, 322.828
740.867, 331.110
742.160, 368.478
743.452, 294.047
744.744, 377.406
746.036, 197.760
747.328, 244.283
748.620, 230.748
749.911, 137.771
751.202, 210.172
752.493, 154.504
753.784, 133.061
755.075, 90.592
756.365, 80.953
757.655, 67.699
758.945, 102.673
760.235, 64.017
761.525, 61.319
762.814, 70.700
764.103, 150.023
765.392, 130.318
766.681, 185.397
767.969, 190.688
769.258, 153.978
770.546, 157.266
771.834, 114.552
773.122, 146.835
774.409, 95.115
775.697, 61.391
776.984, 82.662
778.271, 60.927
779.558, 24.188
780.844, 68.442
782.131, 18.692
783.417, 40.936
784.703, 15.826
785.989, 14.396
787.274, 53.612
788.560, 58.177
789.845, 83.996
791.130, 49.164
792.415, 50.327
793.699, 69.486
794.983, 44.640
796.268, 104.789
797.552, 59.934
798.835, 66.074
800.119, 136.210
801.402, 133.341
802.686, 196.468
803.969, 193.591
805.251, 198.709
806.534, 306.823
807.816, 303.933
809.098, 444.041
810.380, 500.147
811.662, 505.252
812.944, 676.355
814.225, 614.458
815.506, 719.559
816.787, 834.662
818.068, 799.770
819.349, 925.880
820.629, 907.988
821.909, 872.096
823.189, 825.203
824.469, 616.314
825.749, 595.432
827.028, 461.548
828.307, 405.663
829.586, 347.776
830.865, 225.887
832.144, 210.997
833.422, 170.106
834.700, 140.213
835.978, 119.319
837.256, 62.424
838.534, 47.526
839.811, 76.627
841.088, 29.728
842.365, 54.827
843.642, 46.925
844.919, 77.788
846.195, 26.835
847.472, 33.879
848.748, 16.971
850.023, 0.065
851.299, 42.784
852.575, 31.638
853.850, 23.596
855.125, 32.099
856.400, 52.185
857.674, 6.549
858.949, 13.021
860.223, 36.063
861.497, 8.674
862.771, 12.677
864.045, 15.458
865.318, 20.460
866.591, 30.528
867.864, 4.765
869.137, 11.222
870.410, 24.205
871.682, 28.081
872.955, 7.065
874.227, 8.003
875.499, 20.979
876.770, 3.952
878.042, 13.921
879.313, 8.886
880.584, 30.847
881.855, 4.196
883.126, 53.247
884.396, 60.669
885.667, 7.418
886.937, 18.485
888.207, 30.384
889.476, 32.280
890.746, 28.173
892.015, 55.063
893.284, 27.050
894.553, 59.818
895.822, 3.683
897.090, 63.543
898.359, 54.400
899.627, 14.738
900.895, 11.111
902.163, 6.043
903.430, 23.793
904.698, 46.627
905.965, 2.458
907.232, 3.284
908.499, 28.106
909.765, 14.926
911.032, 46.742
912.298, 28.556
913.564, 41.367
914.830, 18.173
916.095, 30.988
917.361, 51.801
918.626, 8.389
919.891, 72.412
921.156, 41.210
922.420, 72.007
923.685, 76.802
924.949, 69.356
926.213, 82.384
927.477, 74.173
928.740, 57.958
930.004, 74.742
931.267, 51.524
932.530, 67.156
933.793, 88.934
935.056, 61.541
936.318, 104.242
937.581, 99.764
938.843, 64.352
940.104, 67.110
941.366, 88.036
942.628, 59.810
943.889, 59.546
945.150, 82.287
946.411, 96.056
947.672, 93.566
948.932, 77.537
950.193, 102.302
951.453, 79.065
952.713, 105.826
953.973, 114.820
955.232, 78.352
956.491, 141.112
957.751, 144.870
959.010, 146.632
960.268, 117.388
961.527, 133.228
962.785, 178.980
964.044, 145.732
965.302, 155.669
966.559, 159.418
967.817, 132.165
969.075, 165.042
970.332, 168.787
971.589, 180.531
972.846, 193.273
974.102, 128.014
975.359, 223.754
976.615, 194.492
977.871, 189.229
979.127, 282.963
980.383, 198.698
981.638, 310.430
982.893, 266.161
984.149, 254.893
985.404, 254.623
986.658, 307.351
987.913, 338.077
989.167, 410.802
990.421, 305.511
991.675, 461.233
992.929, 385.865
994.183, 451.590
995.436, 517.298
996.689, 525.022
997.942, 615.646
999.195, 664.385
1000.448, 717.966
1001.700, 837.303
1002.952, 812.246
1004.204, 865.887
1005.456, 954.614
1006.708, 949.271
1007.959, 1092.803
1009.210, 1203.380
1010.461, 1302.968
1011.712, 1527.340
1012.963, 1697.963
1014.213, 1912.566
1015.464, 2228.080
1016.714, 2420.717
1017.964, 2958.357
1019.214, 3230.508
1020.463, 3622.118
1021.712, 4100.670
1022.962, 4216.347
1024.210, 4586.938
1025.459, 4497.528
1026.708, 4181.176
1027.956, 4260.703
1029.204, 3561.318
1030.452, 3353.912
1031.700, 2907.597
1032.948, 2425.727
1034.195, 2171.901
1035.442, 1856.633
1036.689, 1625.588
1037.936, 1562.222
1039.183, 1259.905
1040.429, 1295.596
1041.676, 1066.269
1042.922, 996.995
1044.168, 959.811
1045.413, 772.535
1046.659, 760.052
1047.904, 760.776
1049.149, 566.196
1050.394, 575.744
1051.639, 478.361
1052.884, 457.439
1054.128, 487.111
1055.372, 375.846
1056.616, 407.447
1057.860, 369.008
1059.104, 278.799
1060.347, 353.432
1061.590, 253.163
1062.833, 269.854
1064.076, 215.582
1065.319, 232.416
1066.561, 258.125
1067.803, 165.859
1069.046, 130.941
1070.287, 291.672
1071.529, 122.483
1072.771, 209.308
1074.012, 140.036
1075.253, 142.890
1076.494, 121.619
1077.735, 122.346
1078.975, 122.223
1080.216, 83.949
1081.456, 100.796
1082.696, 96.529
1083.936, 49.260
1085.175, 40.703
1086.415, 75.439
1087.654, 53.178
1088.893, 76.542
1090.132, 101.281
1091.371, 63.035
1092.609, 79.789
1093.847, 28.540
1095.085, 26.443
1096.323, 67.192
1097.561, 57.940
1098.799, 71.830
1100.036, 25.576
1101.273, 49.327
1102.510, 92.773
1103.747, 16.519
1104.983, 71.264
1106.220, 123.007
1107.456, 15.749
1108.692, 61.567
1109.928, 0.695
1111.163, 26.127
1112.399, 92.971
1113.634, 5.297
1114.869, 41.431
1116.104, 44.158
1117.339, 3.117
1118.573, 93.828
1119.808, 84.711
1121.042, 24.429
1122.276, 110.361
1123.509, 58.075
1124.743, 65.787
1125.976, 69.497
1127.210, 103.205
1128.443, 94.287
1129.675, 89.991
1130.908, 98.096
1132.141, 92.592
1133.373, 86.593
1134.605, 85.301
1135.837, 62.994
1137.068, 41.686
1138.300, 110.580
1139.531, 65.266
1140.762, 34.951
1141.993, 90.046
1143.224, 47.726
1144.455, 73.794
1145.685, 83.469
1146.915, 3.143
1148.145, 104.866
1149.375, 0.534
1150.605, 5.799
1151.834, 35.012
1153.063, 20.328
1154.292, 24.426
1155.521, 7.779
1156.750, 13.875
1157.978, 31.690
1159.207, 2.099
1160.435, 15.557
1161.663, 68.654
1162.891, 67.431
1164.118, 58.492
1165.345, 21.839
1166.573, 17.610
1167.800, 29.443
1169.026, 14.488
1170.253, 51.188
1171.480, 73.889
1172.706, 49.524
1173.932, 57.156
1175.158, 108.935
1176.383, 113.561
1177.609, 145.184
1178.834, 55.914
1180.059, 134.531
1181.284, 230.483
1182.509, 44.292
1183.734, 93.916
1184.958, 215.653
1186.182, 127.273
1187.406, 180.889
1188.630, 134.501
1189.854, 111.110
1191.077, 140.721
1192.301, 83.382
1193.524, 104.987
1194.747, 51.891
1195.969, 25.510
1197.192, 59.069
1198.414, 45.313
1199.636, 31.890
1200.858, 55.086
1202.080, 43.657
1203.302, 15.225
1204.523, 31.853
1205.744, 15.412
1206.966, 118.967
1208.186, 43.699
1209.407, 47.245
1210.628, 82.787
1211.848, 29.571
1213.068, 113.943
1214.288, 90.453
1215.508, 10.959
1216.727, 62.463
1217.947, 23.996
1219.166, 20.490
1220.385, 113.979
1221.604, 14.125
1222.822, 87.604
1224.041, 87.079
1225.259, 8.820
1226.477, 101.284
1227.695, 15.908
1228.913, 67.360
1230.130, 97.810
1231.348, 3.459
1232.565, 62.976
1233.782, 53.407
1234.999, 17.787
1236.215, 102.621
1237.432, 51.025
1238.648, 74.486
1239.864, 92.883
1241.080, 13.303
1242.296, 61.693
1243.511, 53.076
1244.726, 15.815
1245.942, 96.191
1247.156, 48.567
1248.371, 1.797
1249.586, 82.564
1250.800, 51.921
1252.014, 97.273
1253.228, 80.621
1254.442, 32.959
1255.656, 55.307
1256.869, 31.555
1258.083, 25.883
1259.296, 100.207
1260.509, 62.340
1261.722, 103.667
1262.934, 69.971
1264.147, 12.136
1265.359, 16.430
1266.571, 55.718
1267.783, 13.014
1268.994, 63.292
1270.206, 62.566
1271.417, 80.831
1272.628, 118.083
1273.839, 6.329
1275.050, 78.564
1276.260, 108.786
1277.471, 3.002
1278.681, 75.212
1279.891, 50.417
1281.101, 55.635
1282.310, 134.828
1283.520, 15.016
1284.729, 92.197
1285.938, 84.374
1287.147, 11.453
1288.356, 118.708
1289.564, 6.864
1290.773, 71.988
1291.981, 181.103
1293.189, 41.128
1294.397, 89.233
1295.604, 58.231
1296.812, 20.070
1298.019, 114.143
1299.226, 27.093
1300.433, 19.154
1301.640, 73.840
1302.846, 17.840
1304.053, 1.879
1305.259, 107.761
1306.465, 12.274
1307.671, 21.711
1308.876, 5.687
1310.082, 0.345
1311.287, 24.231
1312.492, 14.508
1313.697, 49.426
1314.902, 42.464
1316.106, 35.375
1317.310, 84.280
1318.515, 57.177
1319.719, 18.068
1320.922, 97.952
1322.126, 71.828
1323.329, 23.698
1324.533, 93.560
1325.736, 7.415
1326.939, 15.262
1328.141, 57.101
1329.344, 21.933
1330.546, 67.757
1331.748, 89.574
1332.950, 53.385
1334.152, 99.188
1335.354, 46.983
1336.555, 35.772
1337.757, 137.553
1338.958, 8.328
1340.159, 51.094
1341.359, 71.156
1342.560, 49.091
1343.760, 78.641
1344.960, 0.661
1346.160, 49.056
1347.360, 154.768
1348.560, 29.374
1349.759, 61.043
1350.959, 102.637
1352.158, 12.329
1353.357, 92.016
1354.555, 57.698
1355.754, 24.624
1356.952, 112.864
1358.151, 65.526
1359.349, 84.186
1360.546, 104.650
1361.744, 32.366
1362.941, 51.939
1364.139, 94.554
1365.336, 2.793
1366.533, 110.732
1367.730, 83.384
1368.926, 5.037
1370.123, 115.542
1371.319, 10.385
1372.515, 24.073
1373.711, 81.586
1374.906, 12.748
1376.102, 88.218
1377.297, 82.874
1378.492, 1.539
1379.687, 148.589
1380.882, 108.291
1382.077, 21.312
1383.271, 152.169
1384.465, 29.174
1385.659, 85.021
1386.853, 118.266
1388.047, 1.226
1389.240, 77.179
1390.434, 34.040
1391.627, 13.235
1392.820, 140.695
1394.013, 95.618
1395.205, 37.104
1396.398, 143.767
1397.590, 48.662
1398.782, 32.549
1399.974, 132.995
1401.166, 56.277
1402.357, 131.118
1403.549, 103.965
1404.740, 30.558
1405.931, 130.675
1407.122, 52.002
1408.313, 88.795
1409.503, 74.516
1410.693, 28.109
1411.883, 79.753
1413.073, 142.341
1414.263, 53.169
1415.453, 113.024
1416.642, 84.043
1417.831, 40.667
1419.020, 141.193
1420.209, 78.740
1421.398, 86.416
1422.587, 152.874
1423.775, 20.380
1424.963, 127.547
1426.151, 95.925
1427.339, 69.392
1428.526, 84.020
1429.714, 101.635
1430.901, 80.174
1432.088, 127.315
1433.275, 94.142
1434.462, 40.692
1435.648, 139.218
1436.835, 45.634
1438.021, 88.848
1439.207, 116.355
1440.393, 50.256
1441.579, 106.732
1442.764, 99.144
1443.949, 49.610
1445.135, 176.864
1446.320, 29.797
1447.504, 9.911
1448.689, 130.502
1449.873, 50.350
1451.058, 93.895
1452.242, 123.191
1453.426, 27.344
1454.609, 123.537
1455.793, 83.012
1456.976, 37.200
1458.159, 89.591
1459.342, 78.687
1460.525, 50.760
1461.708, 116.787
1462.890, 55.815
1464.073, 115.783
1465.255, 183.788
1466.437, 16.764
1467.619, 120.678
1468.800, 128.604
1469.982, 57.554
1471.163, 183.530
1472.344, 106.500
1473.525, 34.389
1474.706, 153.312
1475.886, 32.205
1477.066, 46.060
1478.247, 138.965
1479.427, 62.942
1480.607, 120.895
1481.786, 97.871
1482.966, 38.871
1484.145, 124.862
1485.324, 98.865
1486.503, 90.016
1487.682, 114.227
1488.860, 69.436
1490.039, 56.675
1491.217, 188.026
1492.395, 44.398
1493.573, 61.798
1494.751, 156.231
1495.928, 38.706
1497.106, 145.227
1498.283, 91.801
1499.460, 84.440
1500.637, 141.157
1501.814, 12.957
1502.990, 64.852
1504.166, 156.855
1505.342, 3.028
1506.518, 86.211
1507.694, 107.582
1508.870, 24.105
1510.045, 63.806
1511.221, 55.718
1512.396, 4.125
1513.571, 150.321
1514.745, 71.056
1515.920, 66.081
1517.094, 79.559
1518.269, 24.319
1519.443, 51.983
1520.616, 94.042
1521.790, 0.000
##END=



