##NAMES=Pyromorphite
##RRUFFID=R050085
##IDEAL CHEMISTRY=Pb^2+^_5_(PO_4_)_3_Cl
##LOCALITY=Bunker Hill mine, Shoshone County, Idaho, USA
##OWNER=RRUFF
##SOURCE=Eugene Schlepp
##DESCRIPTION=Group of orange hexagonal prisms
##STATUS=The identification of this mineral has been confirmed by X-ray diffraction and chemical analysis
##URL=rruff.info/R050085
##MEASURED CHEMISTRY=Pb_5.00_(P_0.96_As_0.04_O_4_)_3_Cl_1.00_
##PIN_ID=L00459
##ORIENTATION=Laser parallel to a* (1 0 0). Fiducial mark perpendicular to laser is parallel to c [0 0 1]
51.274, 0.000
52.673, 163.596
54.072, 187.136
55.470, 221.030
56.868, 243.562
58.266, 271.818
59.664, 285.256
61.061, 156.198
62.458, 172.142
63.855, 5.274
65.252, 87.171
66.649, 101.858
68.045, 11.744
69.441, 314.294
70.837, 742.431
72.233, 1587.783
73.628, 2275.999
75.023, 3430.756
76.418, 4535.767
77.813, 5772.783
79.208, 7231.594
80.602, 8752.053
81.996, 10474.153
83.390, 13018.024
84.784, 16663.738
86.178, 20521.143
87.571, 24510.002
88.964, 27150.107
90.357, 27631.295
91.749, 26213.422
93.142, 23406.369
94.534, 20860.020
95.926, 18854.293
97.318, 17479.098
98.709, 17504.363
100.101, 18830.057
101.492, 21416.133
102.883, 24472.557
104.273, 27699.299
105.664, 30036.336
107.054, 30113.723
108.444, 28251.574
109.834, 24790.197
111.223, 21190.039
112.613, 18011.508
114.002, 15745.029
115.391, 13640.431
116.780, 11967.502
118.168, 10965.175
119.556, 9722.624
120.944, 9029.712
122.332, 8376.469
123.720, 8042.922
125.107, 7529.063
126.495, 7274.902
127.882, 6960.450
129.268, 6843.705
130.655, 7010.785
132.041, 6755.585
133.427, 7040.139
134.813, 6984.456
136.199, 7168.546
137.584, 7312.430
138.970, 7436.108
140.355, 7709.603
141.740, 7782.885
143.124, 8215.930
144.509, 8348.867
145.893, 8601.715
147.277, 8974.492
148.660, 9077.205
150.044, 9269.864
151.427, 9482.476
152.810, 9775.047
154.193, 9617.580
155.576, 10030.079
156.958, 9962.548
158.341, 9994.988
159.723, 10177.573
161.105, 10161.598
162.486, 10256.412
163.867, 10172.516
165.249, 10400.677
166.630, 10370.649
168.010, 10749.307
169.391, 11069.259
170.771, 11519.631
172.151, 11920.330
173.531, 12282.005
174.911, 12618.610
176.290, 13115.720
177.669, 13379.337
179.049, 13303.889
180.427, 13139.464
181.806, 13154.550
183.184, 12683.381
184.562, 12558.976
185.940, 12269.926
187.318, 11809.301
188.696, 11567.124
190.073, 11014.898
191.450, 10512.913
192.827, 9611.600
194.204, 9400.526
195.580, 8518.799
196.956, 7836.435
198.332, 7134.058
199.708, 6571.656
201.084, 6099.223
202.459, 5656.753
203.834, 5247.241
205.209, 4966.065
206.584, 4645.252
207.958, 4467.263
209.333, 4134.309
210.707, 4037.564
212.081, 3872.773
213.454, 3481.932
214.828, 3340.034
216.201, 3258.076
217.574, 3151.861
218.947, 2984.916
220.320, 2857.071
221.692, 2670.173
223.064, 2495.378
224.436, 2359.204
225.808, 2251.956
227.179, 2122.046
228.551, 1986.439
229.922, 1878.338
231.293, 1751.516
232.663, 1649.167
234.034, 1552.495
235.404, 1464.167
236.774, 1383.365
238.144, 1320.477
239.514, 1239.415
240.883, 1196.466
242.252, 1141.622
243.621, 1074.870
244.990, 1040.201
246.359, 988.606
247.727, 909.077
249.095, 854.603
250.463, 862.177
251.831, 707.789
253.198, 707.431
254.566, 673.097
255.933, 708.781
257.299, 576.478
258.666, 577.182
260.033, 624.890
261.399, 446.599
262.765, 447.305
264.131, 425.006
265.496, 324.697
266.862, 323.377
268.227, 210.044
269.592, 225.693
270.957, 169.322
272.321, 150.928
273.685, 81.508
275.050, 101.054
276.413, 51.562
277.777, 7.021
279.141, 2.416
280.504, 0.737
281.867, 46.026
283.230, 44.889
284.592, 66.660
285.955, 36.360
287.317, 97.176
288.679, 123.872
290.041, 89.810
291.403, 135.904
292.764, 149.074
294.125, 207.285
295.486, 211.768
296.847, 207.812
298.207, 225.158
299.568, 206.521
300.928, 200.986
302.288, 194.518
303.647, 218.050
305.007, 194.744
306.366, 215.507
307.725, 216.444
309.084, 166.327
310.443, 140.380
311.801, 94.112
313.159, 9.951
314.517, 27.381
315.875, 75.562
317.233, 164.209
318.590, 262.100
319.947, 301.805
321.304, 384.040
322.661, 497.178
324.018, 517.646
325.374, 545.662
326.730, 504.150
328.086, 541.098
329.442, 486.106
330.797, 456.496
332.153, 453.921
333.508, 427.191
334.863, 450.262
336.217, 458.737
337.572, 566.187
338.926, 651.393
340.280, 769.974
341.634, 843.504
342.988, 1007.343
344.341, 1082.873
345.694, 1066.489
347.047, 1133.661
348.400, 1030.739
349.753, 944.639
351.105, 849.447
352.457, 721.174
353.809, 640.868
355.161, 592.540
356.512, 538.100
357.864, 530.643
359.215, 514.141
360.566, 525.515
361.916, 552.929
363.267, 506.116
364.617, 558.227
365.967, 633.389
367.317, 693.467
368.667, 800.405
370.016, 891.224
371.366, 1024.658
372.715, 1154.296
374.064, 1338.494
375.412, 1517.455
376.761, 1723.365
378.109, 1991.239
379.457, 2375.078
380.805, 2795.883
382.152, 3346.649
383.500, 4134.373
384.847, 5084.065
386.194, 6285.712
387.541, 7698.321
388.887, 9506.899
390.233, 11129.437
391.580, 12151.942
392.926, 12324.408
394.271, 11816.849
395.617, 10479.279
396.962, 8901.655
398.307, 7671.982
399.652, 6778.266
400.997, 6389.509
402.341, 6462.701
403.686, 6925.839
405.030, 7805.931
406.374, 8656.961
407.717, 9448.930
409.061, 9790.839
410.404, 9402.685
411.747, 8784.458
413.090, 7870.175
414.433, 7043.819
415.775, 6245.397
417.117, 5536.898
418.459, 4879.320
419.801, 4238.664
421.143, 3704.917
422.484, 3162.086
423.825, 2677.163
425.166, 2315.156
426.507, 1946.062
427.848, 1772.842
429.188, 1607.508
430.528, 1448.592
431.868, 1321.640
433.208, 1202.683
434.547, 1112.520
435.887, 1026.836
437.226, 972.882
438.565, 902.519
439.904, 845.384
441.242, 802.479
442.580, 738.588
443.918, 709.530
445.256, 653.272
446.594, 606.437
447.932, 608.291
449.269, 546.116
450.606, 567.054
451.943, 571.921
453.280, 551.688
454.616, 521.423
455.952, 489.974
457.288, 435.694
458.624, 411.136
459.960, 365.291
461.295, 342.419
462.631, 311.750
463.966, 265.244
465.300, 255.071
466.635, 225.340
467.969, 217.953
469.304, 173.371
470.638, 166.846
471.972, 127.788
473.305, 74.493
474.639, 67.480
475.972, 72.406
477.305, 32.348
478.638, 15.067
479.970, 21.385
481.303, 46.810
482.635, 49.598
483.967, 24.672
485.298, 48.805
486.630, 16.939
487.961, 42.890
489.293, 33.822
490.624, 70.383
491.954, 56.006
493.285, 56.168
494.615, 56.697
495.945, 89.973
497.275, 72.089
498.605, 71.356
499.935, 107.482
501.264, 85.481
502.593, 137.716
503.922, 145.341
505.251, 109.887
506.579, 148.070
507.908, 150.140
509.236, 165.417
510.564, 172.614
511.891, 181.629
513.219, 181.770
514.546, 178.516
515.873, 198.819
517.200, 199.517
518.527, 202.860
519.853, 228.328
521.180, 211.027
522.506, 260.040
523.832, 272.925
525.157, 256.034
526.483, 269.034
527.808, 294.979
529.133, 314.338
530.458, 319.278
531.783, 416.307
533.107, 435.282
534.431, 485.395
535.756, 578.944
537.079, 591.503
538.403, 669.569
539.727, 847.836
541.050, 943.557
542.373, 1062.044
543.696, 1112.631
545.018, 1121.859
546.341, 1196.187
547.663, 1320.498
548.985, 1513.092
550.307, 1731.678
551.629, 1951.425
552.950, 2025.356
554.271, 1911.288
555.592, 1762.956
556.913, 1456.436
558.234, 1283.245
559.554, 1037.940
560.875, 927.578
562.195, 830.916
563.514, 798.595
564.834, 794.287
566.154, 833.523
567.473, 932.856
568.792, 1050.289
570.111, 1239.831
571.429, 1575.442
572.748, 1807.973
574.066, 2056.366
575.384, 1982.697
576.702, 1781.911
578.019, 1465.013
579.337, 1213.927
580.654, 1068.704
581.971, 918.428
583.288, 801.335
584.605, 721.676
585.921, 671.648
587.237, 623.454
588.553, 568.500
589.869, 550.452
591.185, 542.425
592.500, 522.264
593.815, 558.807
595.130, 511.886
596.445, 511.971
597.760, 520.936
599.074, 471.652
600.389, 492.200
601.703, 495.599
603.016, 524.933
604.330, 520.014
605.644, 521.029
606.957, 517.669
608.270, 505.196
609.583, 500.808
610.895, 487.420
612.208, 498.953
613.520, 495.148
614.832, 493.706
616.144, 501.860
617.455, 475.958
618.767, 475.922
620.078, 437.840
621.389, 469.677
622.700, 457.364
624.011, 397.068
625.321, 446.695
626.631, 417.351
627.941, 390.808
629.251, 382.292
630.561, 368.511
631.870, 320.289
633.180, 320.953
634.489, 298.623
635.798, 319.684
637.106, 304.355
638.415, 282.068
639.723, 243.107
641.031, 253.098
642.339, 223.612
643.647, 216.427
644.954, 188.615
646.261, 190.179
647.568, 187.508
648.875, 153.267
650.182, 181.765
651.488, 130.188
652.795, 140.534
654.101, 95.200
655.407, 99.566
656.712, 100.830
658.018, 99.373
659.323, 84.636
660.628, 67.254
661.933, 97.837
663.238, 44.042
664.542, 68.456
665.847, 57.796
667.151, 53.167
668.455, 57.491
669.758, 25.763
671.062, 29.929
672.365, 2.019
673.668, 31.004
674.971, 2.873
676.274, 19.350
677.577, 6.406
678.879, 16.017
680.181, 20.358
681.483, 23.768
682.785, 5.374
684.086, 7.784
685.388, 1.743
686.689, 1.623
687.990, 3.137
689.290, 5.590
690.591, 27.062
691.891, 21.439
693.192, 40.901
694.491, 36.470
695.791, 43.142
697.091, 37.920
698.390, 21.799
699.689, 74.768
700.988, 24.854
702.287, 46.030
703.586, 81.303
704.884, 57.691
706.182, 93.180
707.480, 51.787
708.778, 74.488
710.076, 110.292
711.373, 62.217
712.670, 63.236
713.968, 104.347
715.264, 122.569
716.561, 93.911
717.857, 77.355
719.154, 118.890
720.450, 75.537
721.746, 72.269
723.041, 78.084
724.337, 83.982
725.632, 55.963
726.927, 112.013
728.222, 64.156
729.517, 83.367
730.811, 48.653
732.105, 49.995
733.400, 51.393
734.693, 12.156
735.987, 28.328
737.281, 11.145
738.574, 39.411
739.867, 28.011
741.160, 48.649
742.453, 48.331
743.745, 58.055
745.038, 82.823
746.330, 36.644
747.622, 36.498
748.913, 60.431
750.205, 51.358
751.496, 55.388
752.788, 19.442
754.079, 10.467
755.369, 3.703
756.660, 28.144
757.950, 14.006
759.241, 70.909
760.531, 68.798
761.820, 63.673
763.110, 176.536
764.399, 122.387
765.689, 202.228
766.978, 239.058
768.267, 253.879
769.555, 268.692
770.844, 306.496
772.132, 344.265
773.420, 406.900
774.708, 458.876
775.996, 551.611
777.283, 647.392
778.570, 717.172
779.857, 808.782
781.144, 938.560
782.431, 1094.290
783.718, 1173.927
785.004, 1322.547
786.290, 1513.132
787.576, 1582.539
788.862, 1713.975
790.147, 1768.344
791.433, 1779.832
792.718, 1914.291
794.003, 1836.692
795.288, 1840.962
796.572, 1885.309
797.857, 1955.570
799.141, 1986.836
800.425, 1931.998
801.709, 1955.226
802.992, 1993.487
804.276, 1892.457
805.559, 1944.776
806.842, 1895.513
808.125, 2006.500
809.407, 2282.588
810.690, 2672.879
811.972, 3334.291
813.254, 4199.757
814.536, 5647.910
815.818, 7579.603
817.099, 9544.303
818.381, 11261.297
819.662, 10989.338
820.943, 9667.104
822.223, 8214.809
823.504, 6791.789
824.784, 6056.500
826.065, 5517.544
827.345, 4743.913
828.624, 4376.590
829.904, 3762.526
831.183, 3354.202
832.462, 3055.629
833.741, 2949.792
835.020, 2928.825
836.299, 3077.790
837.577, 3210.058
838.856, 3178.327
840.134, 3249.130
841.412, 3358.299
842.689, 3209.329
843.967, 3399.366
845.244, 3617.217
846.521, 4171.583
847.798, 4863.897
849.075, 5463.661
850.351, 5900.178
851.628, 6215.200
852.904, 5819.414
854.180, 5018.485
855.455, 3972.875
856.731, 2784.126
858.006, 1998.354
859.281, 1271.260
860.556, 845.137
861.831, 616.815
863.106, 421.274
864.380, 334.695
865.655, 234.346
866.929, 149.150
868.202, 162.592
869.476, 205.114
870.750, 201.662
872.023, 187.479
873.296, 271.924
874.569, 280.334
875.842, 271.174
877.114, 424.897
878.386, 399.503
879.658, 415.982
880.930, 446.378
882.202, 352.845
883.474, 431.442
884.745, 384.100
886.016, 478.866
887.287, 484.741
888.558, 512.806
889.829, 590.003
891.099, 639.248
892.369, 684.312
893.639, 801.938
894.909, 869.935
896.179, 1044.099
897.448, 1226.028
898.718, 1335.055
899.987, 1586.058
901.256, 1901.195
902.524, 2464.632
903.793, 2969.537
905.061, 3559.443
906.329, 4609.482
907.597, 5630.790
908.865, 7240.288
910.133, 9204.960
911.400, 11839.729
912.667, 15804.600
913.934, 21099.574
915.201, 28494.654
916.468, 37889.828
917.734, 47355.098
919.001, 52590.488
920.267, 51195.961
921.532, 44431.543
922.798, 38567.234
924.064, 30953.020
925.329, 26278.914
926.594, 22124.910
927.859, 19261.008
929.124, 17067.209
930.388, 16213.499
931.653, 15599.899
932.917, 16476.408
934.181, 17093.012
935.445, 19189.727
936.708, 21376.539
937.972, 23793.453
939.235, 28340.471
940.498, 31607.588
941.761, 37104.805
943.024, 40412.133
944.286, 42959.582
945.548, 44927.113
946.811, 43274.746
948.072, 41792.496
949.334, 37520.340
950.596, 33228.297
951.857, 29096.355
953.118, 24754.520
954.379, 21242.791
955.640, 18441.170
956.901, 15479.648
958.161, 13478.234
959.421, 11856.928
960.681, 10255.735
961.941, 9354.651
963.201, 8123.688
964.460, 7602.828
965.720, 6732.082
966.979, 6291.448
968.238, 6095.925
969.496, 5705.514
970.755, 5460.222
972.013, 5697.041
973.272, 5310.977
974.529, 5408.023
975.787, 5324.186
977.045, 5108.466
978.302, 5199.863
979.560, 4999.388
980.817, 4881.043
982.073, 4740.820
983.330, 4519.729
984.587, 4351.271
985.843, 4003.911
987.099, 3918.198
988.355, 3688.610
989.611, 3439.141
990.866, 3393.799
992.122, 3225.574
993.377, 3111.471
994.632, 3171.485
995.887, 3075.617
997.141, 3112.874
998.396, 3226.250
999.650, 3215.751
1000.904, 3369.374
1002.158, 3577.122
1003.412, 3785.992
1004.665, 4067.978
1005.918, 4201.095
1007.172, 4558.326
1008.425, 4648.678
1009.677, 5013.156
1010.930, 5314.756
1012.182, 5341.485
1013.434, 5656.333
1014.687, 5747.301
1015.938, 5850.398
1017.190, 6319.613
1018.441, 6111.944
1019.693, 6423.401
1020.944, 6424.987
1022.195, 6340.692
1023.445, 6360.512
1024.696, 6188.821
1025.946, 5789.521
1027.197, 5630.047
1028.446, 5182.500
1029.696, 5028.942
1030.946, 4623.679
1032.195, 4249.424
1033.445, 4048.465
1034.694, 3835.562
1035.942, 3543.975
1037.191, 3436.329
1038.440, 3138.476
1039.688, 3237.349
1040.936, 3041.144
1042.184, 3030.822
1043.432, 2999.995
1044.679, 2762.032
1045.927, 2870.803
1047.174, 2707.000
1048.421, 2541.207
1049.668, 2412.440
1050.914, 2256.787
1052.161, 2109.571
1053.407, 2003.352
1054.653, 1801.456
1055.899, 1781.485
1057.145, 1735.376
1058.391, 1601.592
1059.636, 1629.999
1060.881, 1502.719
1062.126, 1453.043
1063.371, 1415.424
1064.615, 1270.918
1065.860, 1353.901
1067.104, 1282.475
1068.348, 1267.777
1069.592, 1285.902
1070.836, 1244.548
1072.079, 1362.059
1073.323, 1375.484
1074.566, 1227.144
1075.809, 1364.274
1077.052, 1345.704
1078.294, 1283.204
1079.537, 1255.291
1080.779, 1176.394
1082.021, 1149.738
1083.263, 1166.107
1084.504, 1042.890
1085.746, 1087.797
1086.987, 971.135
1088.228, 1002.760
1089.469, 999.230
1090.710, 933.783
1091.951, 958.267
1093.191, 906.117
1094.431, 918.099
1095.671, 910.406
1096.911, 884.972
1098.151, 788.298
1099.390, 805.039
1100.630, 700.006
1101.869, 687.223
1103.108, 643.553
1104.346, 544.190
1105.585, 600.368
1106.823, 500.192
1108.062, 454.193
1109.300, 434.344
1110.537, 407.352
1111.775, 458.858
1113.013, 391.725
1114.250, 321.992
1115.487, 414.791
1116.724, 401.954
1117.961, 433.945
1119.197, 478.948
1120.434, 524.601
1121.670, 639.710
1122.906, 697.150
1124.142, 881.067
1125.377, 1161.562
1126.613, 1504.375
1127.848, 1890.843
1129.083, 1959.433
1130.318, 1769.840
1131.553, 1677.743
1132.787, 1290.998
1134.022, 1160.508
1135.256, 1010.098
1136.490, 833.881
1137.724, 754.444
1138.957, 737.285
1140.191, 709.125
1141.424, 753.753
1142.657, 719.413
1143.890, 809.258
1145.123, 802.353
1146.355, 755.846
1147.588, 850.918
1148.820, 795.451
1150.052, 725.076
1151.284, 804.283
1152.516, 698.901
1153.747, 572.488
1154.978, 592.900
1156.209, 460.835
1157.440, 487.968
1158.671, 363.665
1159.902, 293.935
1161.132, 296.368
1162.362, 213.633
1163.592, 204.508
1164.822, 140.053
1166.052, 42.159
1167.281, 106.301
1168.511, 58.364
1169.740, 11.215
1170.969, 49.257
1172.197, 58.656
1173.426, 32.805
1174.654, 55.924
1175.883, 77.038
1177.111, 72.314
1178.338, 75.675
1179.566, 94.931
1180.794, 97.157
1182.021, 135.356
1183.248, 74.913
1184.475, 112.320
1185.702, 124.041
1186.928, 73.623
1188.155, 89.458
1189.381, 103.344
1190.607, 69.078
1191.833, 102.918
1193.059, 73.984
1194.284, 98.131
1195.509, 75.220
1196.735, 30.484
1197.960, 50.824
1199.184, 55.989
1200.409, 22.337
1201.633, 63.846
1202.858, 50.382
1204.082, 62.913
1205.306, 65.462
1206.529, 47.209
1207.753, 49.598
1208.976, 57.427
1210.199, 55.199
1211.422, 54.061
1212.645, 23.113
1213.868, 49.106
1215.090, 41.115
1216.313, 16.426
1217.535, 40.518
1218.757, 51.579
1219.978, 12.936
1221.200, 47.153
1222.421, 1.725
1223.643, 4.137
1224.864, 34.708
1226.084, 30.677
1227.305, 21.947
1228.526, 6.732
1229.746, 12.440
1230.966, 23.449
1232.186, 9.809
1233.406, 23.794
1234.625, 21.745
1235.845, 28.466
1237.064, 11.500
1238.283, 0.919
1239.502, 31.659
1240.721, 32.573
1241.939, 52.147
1243.157, 27.683
1244.376, 36.100
1245.594, 53.326
1246.811, 29.598
1248.029, 27.869
1249.247, 77.853
1250.464, 46.792
1251.681, 61.811
1252.898, 75.794
1254.115, 48.787
1255.331, 48.698
1256.548, 55.545
1257.764, 47.230
1258.980, 95.784
1260.196, 59.328
1261.411, 74.842
1262.627, 98.186
1263.842, 76.533
1265.057, 79.557
1266.272, 93.471
1267.487, 83.322
1268.702, 108.049
1269.916, 95.819
1271.130, 113.451
1272.344, 106.179
1273.558, 89.136
1274.772, 121.321
1275.986, 132.481
1277.199, 86.018
1278.412, 147.078
1279.625, 103.441
1280.838, 103.960
1282.051, 135.371
1283.263, 147.563
1284.475, 104.647
1285.687, 142.699
1286.899, 116.674
1288.111, 156.750
1289.323, 151.452
1290.534, 144.361
1291.745, 174.230
1292.957, 150.720
1294.167, 178.190
1295.378, 176.502
1296.589, 152.889
1297.799, 182.228
1299.009, 186.391
1300.219, 199.553
1301.429, 174.443
1302.639, 223.394
1303.848, 190.268
1305.057, 217.936
1306.267, 210.409
1307.476, 223.114
1308.684, 259.449
1309.893, 209.753
1311.101, 241.955
1312.310, 240.962
1313.518, 248.949
1314.725, 271.838
1315.933, 253.622
1317.141, 251.347
1318.348, 272.545
1319.555, 268.487
1320.762, 265.584
1321.969, 280.842
1323.176, 286.943
1324.382, 269.872
1325.589, 259.601
1326.795, 251.333
1328.001, 281.023
1329.206, 257.246
1330.412, 293.752
1331.617, 257.514
1332.823, 290.441
1334.028, 288.707
1335.233, 251.166
1336.437, 256.935
1337.642, 287.519
1338.846, 292.620
1340.051, 260.683
1341.255, 287.684
1342.458, 296.379
1343.662, 247.851
1344.866, 272.653
1346.069, 301.057
1347.272, 291.744
1348.475, 279.578
1349.678, 266.625
1350.880, 295.017
1352.083, 219.266
1353.285, 283.158
1354.487, 250.463
1355.689, 252.616
1356.891, 278.582
1358.093, 250.991
1359.294, 234.873
1360.495, 287.908
1361.696, 222.625
1362.897, 207.133
1364.098, 240.563
1365.298, 202.980
1366.499, 251.087
1367.699, 203.573
1368.899, 216.647
1370.099, 204.562
1371.298, 198.799
1372.498, 207.868
1373.697, 198.545
1374.896, 196.083
1376.095, 164.092
1377.294, 185.866
1378.493, 180.095
1379.691, 204.932
1380.889, 149.834
1382.087, 197.579
1383.285, 178.355
1384.483, 132.812
1385.681, 160.997
1386.878, 156.583
1388.075, 161.356
1389.272, 175.294
1390.469, 160.950
1391.666, 151.582
1392.862, 179.780
1394.059, 173.772
1395.255, 149.977
1396.451, 145.118
1397.647, 133.944
1398.842, 133.428
1400.038, 130.949
1401.233, 145.581
1402.428, 137.795
1403.623, 135.109
1404.818, 125.548
1406.013, 135.850
1407.207, 123.454
1408.401, 158.379
1409.595, 163.576
1410.789, 158.944
1411.983, 169.014
1413.177, 137.795
1414.370, 151.521
1415.563, 119.988
1416.756, 87.400
1417.949, 64.969
1419.142, 60.484
1420.335, 100.467
1421.527, 54.468
1422.719, 99.961
1423.911, 76.741
1425.103, 77.413
1426.295, 88.098
1427.486, 90.170
1428.677, 82.630
1429.869, 81.196
1431.060, 64.998
1432.250, 92.185
1433.441, 62.923
1434.632, 58.456
1435.822, 85.836
1437.012, 77.367
1438.202, 85.808
1439.392, 66.164
1440.581, 61.925
1441.771, 70.876
1442.960, 60.564
1444.149, 82.135
1445.338, 63.451
1446.527, 61.945
1447.715, 75.615
1448.904, 93.106
1450.092, 50.458
1451.280, 85.802
1452.468, 75.611
1453.656, 76.930
1454.843, 102.761
1456.031, 86.175
1457.218, 88.720
1458.405, 93.561
1459.592, 86.498
1460.778, 105.938
1461.965, 79.069
1463.151, 87.679
1464.337, 72.462
1465.523, 117.178
1466.709, 90.773
1467.895, 143.713
1469.080, 76.294
1470.266, 77.712
1471.451, 116.628
1472.636, 60.581
1473.821, 49.675
1475.005, 67.432
1476.190, 25.441
