##NAMES=Pyrope
##RRUFFID=R040159
##IDEAL CHEMISTRY=Mg_3_Al_2_(SiO_4_)_3_
##LOCALITY=Meronitz, Bohemia
##OWNER=RRUFF
##SOURCE=University of Arizona Mineral Museum
##DESCRIPTION=Deep red crystal fragments
##STATUS=The identification of this mineral has been confirmed by X-ray diffraction and chemical analysis
##URL=rruff.info/R040159
##MEASURED CHEMISTRY=(Mg_2.17_Fe^2+^_0.47_Ca_0.34_Mn_0.02_)_Σ=3_(Al_1.86_Cr_0.11_Ti_0.03_)_Σ=2_((Si_0.99_Al_0.01_)_Σ=1_O_4_)_3_; trace amounts of Rb?
##PIN_ID=L00224
##ORIENTATION=Laser parallel to -a* (-1 0 0). Fiducial mark perpendicular to laser is parallel to c [0 0 1]
114.949, 0.000
116.339, 90.196
117.729, 44.200
119.119, 26.955
120.508, 0.786
121.897, 110.415
123.286, 118.768
124.675, 63.004
126.063, 134.382
127.452, 71.113
128.840, 139.594
130.228, 175.270
131.615, 203.058
133.003, 225.658
134.390, 199.819
135.777, 249.662
137.164, 272.470
138.550, 352.734
139.937, 398.918
141.323, 406.817
142.709, 452.670
144.094, 509.597
145.480, 508.095
146.865, 451.478
148.250, 499.155
149.635, 421.085
151.019, 455.843
152.403, 398.671
153.788, 352.567
155.171, 323.531
156.555, 240.571
157.939, 214.701
159.322, 188.934
160.705, 141.273
162.088, 70.717
163.470, 35.260
164.853, 2.616
166.235, 16.728
167.617, 21.230
168.998, 44.639
170.380, 10.930
171.761, 39.039
173.142, 27.052
174.523, 5.149
175.904, 54.777
177.284, 101.727
178.664, 128.701
180.044, 182.698
181.424, 274.720
182.803, 344.766
184.183, 493.835
185.562, 576.930
186.940, 635.049
188.319, 722.194
189.698, 776.364
191.076, 740.561
192.454, 710.784
193.831, 751.041
195.209, 593.388
196.586, 594.869
197.963, 553.469
199.340, 465.279
200.717, 462.270
202.093, 441.405
203.470, 405.661
204.846, 408.004
206.221, 377.416
207.597, 387.878
208.972, 381.377
210.347, 423.902
211.722, 367.437
213.097, 344.962
214.472, 308.469
215.846, 329.955
217.220, 325.418
218.594, 299.851
219.967, 308.243
221.341, 289.578
222.714, 303.816
224.087, 266.912
225.460, 307.849
226.832, 315.640
228.204, 323.335
229.577, 304.000
230.948, 327.656
232.320, 352.322
233.692, 388.005
235.063, 397.254
236.434, 430.423
237.805, 417.157
239.175, 444.908
240.545, 448.677
241.916, 461.462
243.286, 536.264
244.655, 556.083
246.025, 546.918
247.394, 550.771
248.763, 539.640
250.132, 537.525
251.501, 542.426
252.869, 629.343
254.237, 569.279
255.605, 642.235
256.973, 561.211
258.340, 611.209
259.708, 636.228
261.075, 586.269
262.442, 612.330
263.808, 526.414
265.175, 547.520
266.541, 498.647
267.907, 474.796
269.273, 483.966
270.639, 527.274
272.004, 526.999
273.369, 479.185
274.734, 521.799
276.099, 516.809
277.463, 583.121
278.828, 542.790
280.192, 625.691
281.556, 698.022
282.919, 678.356
284.283, 699.738
285.646, 708.245
287.009, 691.738
288.372, 707.182
289.734, 728.029
291.097, 788.791
292.459, 742.976
293.821, 797.118
295.183, 826.927
296.544, 807.577
297.905, 860.938
299.266, 878.921
300.627, 870.876
301.988, 938.686
303.348, 950.381
304.709, 1001.620
306.069, 1033.963
307.428, 1112.554
308.788, 1082.961
310.147, 1140.185
311.507, 1140.120
312.865, 1217.260
314.224, 1211.106
315.583, 1270.136
316.941, 1318.965
318.299, 1345.637
319.657, 1480.224
321.015, 1466.443
322.372, 1541.498
323.729, 1666.386
325.086, 1699.901
326.443, 1837.491
327.800, 1937.384
329.156, 2051.107
330.512, 2225.727
331.868, 2420.168
333.224, 2726.239
334.579, 2900.524
335.935, 3181.145
337.290, 3511.617
338.645, 3779.561
339.999, 4161.527
341.354, 4423.201
342.708, 4750.185
344.062, 5113.661
345.416, 5502.601
346.769, 5990.858
348.123, 6291.385
349.476, 7077.922
350.829, 7657.472
352.182, 8582.032
353.534, 9554.604
354.887, 10777.188
356.239, 12149.785
357.591, 13362.391
358.942, 14685.009
360.294, 15377.637
361.645, 15860.273
362.996, 15572.923
364.347, 14725.583
365.698, 13678.247
367.048, 12200.927
368.398, 11023.610
369.748, 9906.303
371.098, 8879.003
372.448, 8031.721
373.797, 7040.455
375.146, 6591.206
376.495, 5841.975
377.844, 5465.625
379.192, 4925.401
380.540, 4474.187
381.889, 4098.899
383.236, 3636.675
384.584, 3405.406
385.932, 3051.225
387.279, 2738.918
388.626, 2479.813
389.973, 2208.782
391.319, 2007.788
392.666, 1787.782
394.012, 1582.839
395.358, 1497.921
396.704, 1225.031
398.049, 1174.165
399.394, 967.320
400.740, 900.498
402.084, 795.693
403.429, 708.905
404.774, 641.131
406.118, 578.373
407.462, 541.629
408.806, 439.899
410.150, 412.182
411.493, 382.485
412.836, 291.800
414.179, 313.130
415.522, 226.469
416.865, 212.821
418.207, 139.182
419.549, 117.557
420.891, 112.939
422.233, 71.338
423.575, 59.599
424.916, 28.171
426.257, 9.606
427.598, 1.048
428.939, 41.502
430.279, 5.051
431.619, 49.590
432.959, 55.128
434.299, 41.672
435.639, 46.227
436.978, 2.204
438.318, 27.379
439.657, 3.972
440.996, 26.569
442.334, 21.195
443.673, 10.154
445.011, 43.515
446.349, 2.213
447.687, 14.072
449.024, 37.657
450.361, 1.411
451.699, 11.821
453.036, 18.041
454.372, 17.251
455.709, 47.451
457.045, 36.643
458.381, 61.826
459.717, 87.004
461.053, 176.176
462.388, 157.344
463.724, 192.508
465.059, 180.668
466.394, 250.826
467.728, 253.982
469.063, 284.138
470.397, 247.296
471.731, 293.456
473.065, 271.619
474.398, 300.784
475.732, 272.953
477.065, 299.124
478.398, 293.298
479.731, 276.476
481.063, 242.659
482.396, 280.847
483.728, 270.041
485.060, 264.242
486.391, 302.451
487.723, 289.672
489.054, 273.908
490.385, 306.165
491.716, 330.446
493.047, 279.752
494.377, 338.089
495.708, 368.447
497.038, 360.834
498.368, 420.246
499.697, 444.677
501.027, 440.117
502.356, 545.564
503.685, 539.016
505.014, 601.471
506.342, 592.927
507.671, 702.383
508.999, 754.837
510.327, 728.289
511.655, 810.739
512.982, 778.187
514.310, 891.633
515.637, 879.119
516.964, 978.618
518.291, 991.173
519.617, 1096.841
520.944, 1135.548
522.270, 1211.318
523.596, 1261.214
524.921, 1358.989
526.247, 1299.078
527.572, 1422.841
528.897, 1345.724
530.222, 1451.824
531.547, 1497.756
532.871, 1486.638
534.196, 1610.535
535.520, 1741.636
536.844, 1840.441
538.167, 1957.961
539.491, 2138.561
540.814, 2337.212
542.137, 2531.397
543.460, 2874.700
544.783, 3190.029
546.105, 3596.510
547.427, 4147.776
548.749, 4653.273
550.071, 5427.489
551.393, 6340.866
552.714, 7445.095
554.035, 8799.054
555.356, 10206.743
556.677, 11543.827
557.998, 12289.977
559.318, 12346.553
560.638, 11611.923
561.958, 10107.220
563.278, 8561.815
564.597, 6783.967
565.917, 5405.486
567.236, 4324.061
568.555, 3414.784
569.874, 2755.543
571.192, 2276.108
572.511, 1922.798
573.829, 1634.610
575.147, 1380.114
576.464, 1287.729
577.782, 1069.303
579.099, 994.769
580.416, 856.484
581.733, 833.983
583.050, 837.815
584.366, 734.783
585.683, 687.992
586.999, 692.609
588.315, 637.751
589.630, 596.867
590.946, 550.842
592.261, 563.147
593.576, 525.791
594.891, 514.173
596.206, 514.960
597.520, 491.949
598.834, 481.046
600.148, 452.716
601.462, 459.911
602.776, 422.690
604.089, 440.942
605.402, 375.557
606.715, 417.232
608.028, 375.712
609.341, 396.225
610.653, 369.761
611.965, 390.354
613.277, 424.830
614.589, 374.401
615.901, 353.914
617.212, 360.519
618.523, 338.172
619.834, 360.770
621.145, 324.353
622.456, 366.988
623.766, 365.540
625.076, 407.078
626.386, 435.599
627.696, 409.105
629.006, 453.596
630.315, 520.071
631.624, 591.530
632.933, 591.973
634.242, 649.400
635.551, 697.812
636.859, 699.208
638.167, 812.587
639.475, 825.951
640.783, 884.299
642.090, 880.630
643.398, 865.945
644.705, 816.243
646.012, 790.526
647.318, 713.791
648.625, 707.040
649.931, 623.272
651.237, 633.488
652.543, 611.686
653.849, 545.867
655.155, 519.030
656.460, 470.176
657.765, 497.304
659.070, 408.415
660.375, 396.508
661.679, 345.583
662.984, 288.640
664.288, 248.679
665.592, 216.070
666.895, 241.705
668.199, 169.691
669.502, 183.659
670.805, 172.609
672.108, 124.541
673.411, 120.454
674.713, 106.349
676.016, 78.226
677.318, 68.082
678.620, 51.918
679.921, 24.734
681.223, 48.527
682.524, 16.299
683.825, 49.046
685.126, 23.773
686.427, 15.478
687.727, 16.842
689.028, 16.203
690.328, 16.603
691.628, 20.045
692.927, 15.528
694.227, 43.050
695.526, 28.626
696.825, 41.249
698.124, 26.924
699.423, 40.644
700.721, 25.416
702.020, 12.231
703.318, 25.083
704.616, 60.979
705.913, 40.936
707.211, 43.945
708.508, 42.006
709.805, 38.119
711.102, 50.280
712.399, 41.151
713.695, 26.765
714.992, 34.074
716.288, 15.430
717.584, 14.821
718.879, 4.248
720.175, 13.704
721.470, 4.195
722.765, 5.715
724.060, 8.714
725.355, 25.844
726.649, 7.463
727.944, 10.111
729.238, 3.209
730.532, 8.493
731.825, 5.775
733.119, 10.977
734.412, 8.240
735.705, 30.562
736.998, 12.403
738.291, 3.273
739.584, 24.167
740.876, 1.904
742.168, 6.044
743.460, 3.015
744.752, 17.001
746.043, 7.254
747.334, 1.045
748.626, 8.915
749.916, 20.865
751.207, 29.807
752.498, 36.734
753.788, 4.651
755.078, 29.554
756.368, 21.446
757.658, 17.327
758.947, 41.194
760.237, 24.054
761.526, 31.902
762.815, 26.735
764.104, 37.562
765.392, 49.375
766.680, 37.177
767.969, 59.966
769.257, 67.744
770.544, 66.510
771.832, 75.169
773.119, 49.007
774.406, 61.737
775.693, 74.456
776.980, 38.162
778.267, 54.858
779.553, 65.541
780.839, 72.214
782.125, 56.875
783.411, 71.525
784.697, 103.165
785.982, 73.794
787.267, 103.412
788.552, 93.020
789.837, 103.617
791.122, 138.205
792.406, 104.782
793.690, 139.349
794.974, 132.907
796.258, 155.455
797.542, 147.993
798.825, 176.522
800.108, 150.041
801.391, 223.552
802.674, 194.054
803.957, 268.548
805.239, 246.034
806.522, 272.510
807.804, 279.979
809.085, 286.440
810.367, 319.893
811.649, 362.342
812.930, 373.782
814.211, 396.216
815.492, 398.651
816.772, 486.080
818.053, 480.506
819.333, 534.925
820.613, 588.336
821.893, 597.741
823.173, 665.139
824.452, 621.531
825.732, 672.915
827.011, 701.251
828.290, 743.565
829.568, 769.824
830.847, 786.968
832.125, 764.068
833.403, 803.103
834.681, 820.569
835.959, 835.040
837.236, 893.750
838.514, 941.781
839.791, 998.695
841.068, 1092.385
842.345, 1147.245
843.621, 1246.160
844.898, 1312.061
846.174, 1476.771
847.450, 1553.777
848.726, 1639.068
850.001, 1808.290
851.277, 1907.730
852.552, 2085.091
853.827, 2208.611
855.102, 2431.103
856.376, 2502.439
857.651, 2743.989
858.925, 2871.306
860.199, 2986.906
861.473, 2999.334
862.746, 2955.908
864.020, 2856.750
865.293, 2809.851
866.566, 2726.548
867.839, 2652.174
869.112, 2609.365
870.384, 2451.754
871.656, 2424.209
872.928, 2488.355
874.200, 2382.938
875.472, 2418.146
876.744, 2505.290
878.015, 2485.276
879.286, 2647.219
880.557, 2626.348
881.828, 2800.345
883.098, 2901.210
884.369, 2945.376
885.639, 3304.424
886.909, 3385.504
888.178, 3577.684
889.448, 3759.607
890.717, 3992.707
891.987, 4317.418
893.256, 4609.857
894.524, 4905.972
895.793, 5474.626
897.061, 5847.511
898.330, 6457.559
899.598, 7101.257
900.865, 8033.387
902.133, 9238.725
903.401, 10268.128
904.668, 12097.584
905.935, 14167.080
907.202, 16356.455
908.468, 19875.947
909.735, 22975.424
911.001, 27604.900
912.267, 32644.482
913.533, 37864.012
914.799, 44063.594
916.064, 47153.160
917.330, 51732.797
918.595, 52272.484
919.860, 49462.145
921.124, 46131.914
922.389, 40901.719
923.653, 34811.527
924.918, 30411.340
926.182, 24611.121
927.445, 21370.957
928.709, 18100.803
929.972, 15700.590
931.236, 13820.456
932.499, 12010.331
933.761, 10680.215
935.024, 9300.113
936.286, 8004.020
937.549, 7259.936
938.811, 6439.863
940.073, 5502.802
941.334, 5149.750
942.596, 4441.711
943.857, 4050.681
945.118, 3660.664
946.379, 3316.657
947.640, 3171.661
948.900, 2857.677
950.161, 2714.704
951.421, 2498.743
952.681, 2373.792
953.940, 2238.847
955.200, 2204.164
956.459, 2031.250
957.719, 1931.346
958.978, 1879.455
960.236, 1774.759
961.495, 1760.944
962.753, 1618.730
964.012, 1632.887
965.270, 1511.147
966.527, 1495.199
967.785, 1441.594
969.043, 1382.734
970.300, 1279.951
971.557, 1318.179
972.814, 1204.420
974.071, 1191.673
975.327, 1163.938
976.583, 1148.215
977.840, 1127.426
979.095, 1137.807
980.351, 1098.118
981.607, 1071.951
982.862, 1076.918
984.117, 1009.687
985.372, 999.181
986.627, 1018.388
987.882, 961.976
989.136, 915.217
990.390, 905.838
991.644, 843.925
992.898, 788.361
994.152, 786.812
995.405, 790.459
996.659, 757.004
997.912, 742.733
999.165, 681.668
1000.417, 686.318
1001.670, 641.474
1002.922, 611.968
1004.174, 610.852
1005.426, 625.752
1006.678, 593.141
1007.930, 601.261
1009.181, 639.147
1010.432, 662.751
1011.683, 660.580
1012.934, 680.297
1014.185, 720.094
1015.435, 782.003
1016.685, 785.000
1017.935, 850.965
1019.185, 905.952
1020.435, 861.964
1021.684, 966.995
1022.934, 1004.046
1024.183, 970.113
1025.432, 1042.198
1026.680, 989.299
1027.929, 1013.416
1029.177, 1109.551
1030.425, 1010.706
1031.673, 1026.878
1032.921, 1028.066
1034.169, 999.268
1035.416, 1031.485
1036.663, 997.715
1037.911, 993.961
1039.157, 985.219
1040.404, 981.497
1041.650, 989.791
1042.897, 1001.099
1044.143, 963.427
1045.389, 1035.766
1046.634, 1012.120
1047.880, 1059.486
1049.125, 1081.868
1050.371, 1048.265
1051.615, 1023.673
1052.860, 993.092
1054.105, 980.523
1055.349, 958.964
1056.593, 855.418
1057.837, 785.882
1059.081, 684.358
1060.325, 596.843
1061.568, 559.337
1062.812, 462.841
1064.055, 434.354
1065.298, 389.884
1066.540, 290.430
1067.783, 311.985
1069.025, 273.549
1070.267, 222.122
1071.509, 244.703
1072.751, 200.292
1073.993, 150.889
1075.234, 156.492
1076.475, 150.106
1077.716, 134.727
1078.957, 118.356
1080.198, 110.994
1081.438, 128.640
1082.679, 91.293
1083.919, 96.957
1085.159, 96.630
1086.398, 57.311
1087.638, 82.998
1088.877, 52.693
1090.116, 64.403
1091.355, 74.122
1092.594, 57.098
1093.833, 46.583
1095.071, 42.323
1096.309, 36.068
1097.547, 28.821
1098.785, 43.582
1100.023, 22.354
1101.260, 34.131
1102.498, 11.079
1103.735, 3.715
1104.972, 42.514
1106.208, 8.319
1107.445, 30.134
1108.681, 8.046
1109.918, 2.223
1111.154, 19.396
1112.389, 4.429
1113.625, 3.742
1114.860, 41.909
1116.096, 7.090
1117.331, 23.269
1118.566, 11.546
1119.800, 27.365
1121.035, 31.188
1122.269, 56.015
1123.503, 83.846
1124.737, 32.680
1125.971, 16.518
1127.205, 8.359
1128.438, 37.797
1129.671, 28.969
1130.904, 12.151
1132.137, 26.338
1133.370, 37.535
1134.602, 14.749
1135.834, 20.969
1137.066, 13.934
1138.298, 36.434
1139.530, 9.687
1140.762, 31.946
1141.993, 47.219
1143.224, 33.518
1144.455, 78.835
1145.686, 27.194
1146.917, 25.568
1148.147, 61.958
1149.377, 4.381
1150.607, 41.810
1151.837, 31.265
1153.067, 14.738
1154.296, 5.223
1155.526, 16.715
1156.755, 12.220
1157.984, 22.736
1159.213, 12.731
1160.441, 6.803
1161.670, 7.346
1162.898, 51.100
1164.126, 10.545
1165.354, 24.988
1166.581, 28.429
1167.809, 69.869
1169.036, 59.307
1170.263, 41.742
1171.490, 64.176
1172.717, 45.606
1173.943, 27.035
1175.170, 93.461
1176.396, 86.883
1177.622, 93.303
1178.848, 81.720
1180.073, 110.133
1181.299, 115.543
1182.524, 111.949
1183.749, 120.403
1184.974, 94.802
1186.199, 108.196
1187.423, 113.587
1188.648, 144.972
1189.872, 150.774
1191.096, 122.784
1192.320, 168.286
1193.543, 138.653
1194.767, 126.016
1195.990, 128.417
1197.213, 123.885
1198.436, 120.505
1199.659, 120.781
1200.881, 127.825
1202.104, 126.283
1203.326, 152.293
1204.548, 144.024
1205.770, 129.802
1206.991, 113.189
1208.213, 138.763
1209.434, 131.163
1210.655, 135.547
1211.876, 138.891
1213.096, 140.847
1214.317, 140.125
1215.537, 137.059
1216.757, 132.361
1217.977, 141.810
1219.197, 132.312
1220.417, 116.638
1221.636, 143.924
1222.855, 146.707
1224.074, 148.094
1225.293, 133.451
1226.512, 142.297
1227.731, 124.701
1228.949, 129.178
1230.167, 124.135
1231.385, 143.967
1232.603, 122.561
1233.820, 106.850
1235.038, 107.349
1236.255, 144.560
1237.472, 116.354
1238.689, 139.021
1239.906, 116.348
1241.122, 124.609
1242.338, 126.852
1243.555, 128.184
1244.771, 112.034
1245.986, 95.419
1247.202, 107.599
1248.417, 129.304
1249.633, 120.740
1250.848, 112.851
1252.063, 77.206
1253.277, 129.364
1254.492, 110.645
1255.706, 91.571
1256.920, 137.765
1258.134, 134.206
1259.348, 116.286
1260.562, 149.382
1261.775, 142.564
1262.988, 150.451
1264.201, 159.479
1265.414, 132.497
1266.627, 147.470
1267.839, 157.590
1269.052, 175.549
1270.264, 204.500
1271.476, 136.636
1272.688, 189.552
1273.899, 204.461
1275.111, 142.368
1276.322, 186.865
1277.533, 186.129
1278.744, 195.669
1279.955, 187.454
1281.165, 169.499
1282.376, 189.216
1283.586, 198.246
1284.796, 174.899
1286.006, 214.094
1287.215, 172.195
1288.425, 146.050
1289.634, 142.746
1290.843, 116.533
1292.052, 116.516
1293.261, 136.665
1294.469, 115.389
1295.678, 132.609
1296.886, 144.499
1298.094, 116.058
1299.302, 128.612
1300.509, 119.656
1301.717, 100.128
1302.924, 136.725
1304.131, 99.594
1305.338, 102.289
1306.545, 116.069
1307.752, 124.770
1308.958, 131.402
1310.164, 138.965
1311.370, 139.733
1312.576, 136.926
1313.782, 134.853
1314.987, 115.388
1316.193, 103.947
1317.398, 74.421
1318.603, 71.009
1319.807, 91.459
1321.012, 72.906
1322.216, 102.336
1323.421, 63.898
1324.625, 79.306
1325.829, 92.728
1327.032, 54.113
1328.236, 40.485
1329.439, 53.845
1330.642, 76.193
1331.845, 66.529
1333.048, 69.881
1334.251, 53.189
1335.453, 41.485
1336.656, 25.812
1337.858, 65.080
1339.060, 66.334
1340.261, 43.572
1341.463, 27.796
1342.664, 24.007
1343.866, 40.203
1345.067, 1.384
1346.267, 26.548
1347.468, 1.698
1348.669, 8.830
1349.869, 6.950
1351.069, 35.053
1352.269, 15.143
1353.469, 29.220
1354.668, 31.320
1355.868, 20.628
1357.067, 14.596
1358.266, 18.415
1359.465, 6.415
1360.664, 42.401
1361.862, 19.377
1363.061, 15.342
1364.259, 31.296
1365.457, 39.241
1366.655, 3.176
1367.852, 21.100
1369.050, 23.017
1370.247, 1.381
1371.444, 18.283
1372.641, 13.181
1373.838, 0.924
1375.035, 0.876
1376.231, 6.617
1377.427, 24.308
1378.623, 9.773
1379.819, 21.800
1381.015, 0.603
1382.211, 2.986
1383.406, 18.347
1384.601, 23.676
1385.796, 24.971
1386.991, 16.246
1388.185, 1.510
1389.380, 10.284
1390.574, 28.930
1391.768, 15.865
1392.962, 0.338
1394.156, 39.528
1395.350, 10.698
1396.543, 8.152
1397.736, 13.978
1398.929, 32.120
1400.122, 15.266
1401.315, 34.430
1402.507, 33.600
1403.700, 17.786
1404.892, 35.997
1406.084, 27.259
1407.276, 54.565
1408.467, 39.916
1409.659, 49.305
1410.850, 20.716
1412.041, 50.144
1413.232, 50.592
1414.423, 18.050
1415.614, 74.508
1416.804, 58.959
1417.994, 61.403
1419.184, 31.842
1420.374, 82.275
1421.564, 40.704
1422.753, 50.128
1423.943, 75.550
1425.132, 47.891
1426.321, 58.307
1427.510, 98.719
1428.698, 62.850
1429.887, 18.261
1431.075, 82.415
1432.263, 55.486
1433.451, 93.513
1434.639, 73.068
1435.827, 34.509
1437.014, 86.212
1438.201, 61.794
1439.388, 62.732
1440.575, 43.058
1441.762, 44.450
1442.949, 78.396
1444.135, 22.227
1445.321, 44.899
1446.507, 60.093
1447.693, 40.399
1448.879, 50.370
1450.064, 62.508
1451.250, 36.001
1452.435, 36.180
1453.620, 18.286
1454.805, 15.642
1455.989, 44.530
1457.174, 30.688
1458.358, 17.000
1459.542, 39.740
1460.726, 8.490
1461.910, 43.253
1463.093, 31.190
1464.277, 33.403
1465.460, 5.193
1466.643, 55.328
1467.826, 24.936
1469.009, 46.052
1470.191, 44.789
1471.373, 48.436
1472.556, 41.172
1473.738, 37.947
1474.919, 20.860
1476.101, 56.380
1477.283, 60.934
1478.464, 15.088
1479.645, 70.648
1480.826, 33.889
1482.007, 49.782
1483.187, 37.080
1484.368, 37.344
1485.548, 50.745
1486.728, 31.595
1487.908, 28.731
1489.088, 53.038
1490.268, 59.229
1491.447, 34.957
1492.626, 55.922
1493.805, 33.443
1494.984, 43.084
1496.163, 10.714
1497.341, 45.143
1498.520, 73.787
1499.698, 60.121
1500.876, 44.822
1502.054, 32.586
1503.232, 34.420
1504.409, 53.358
1505.586, 44.383
1506.763, 43.530
1507.940, 63.335
1509.117, 56.664
1510.294, 41.183
1511.470, 3.111
1512.647, 55.817
1513.823, 40.058
1514.999, 74.734
1516.174, 29.215
1517.350, 35.655
1518.526, 0.000
##END=



