##NAMES=Pyrope
##RRUFFID=R050112
##IDEAL CHEMISTRY=Mg_3_Al_2_(SiO_4_)_3_
##LOCALITY=Cruzeiro mine, San Jose, Minas Gerais, Brazil
##OWNER=RRUFF
##SOURCE=Carlos and Paulo Vasconcelos
##DESCRIPTION=Dark red crystal fragment
##STATUS=The identification of this mineral has been confirmed by X-ray diffraction and chemical analysis
##URL=rruff.info/R050112
##MEASURED CHEMISTRY=(Mg_1.49_Fe^2+^_1.18_Ca_0.29_Mn_0.04_)_Σ=3_(Al_1.99_Fe^3+^_0.01_)_Σ=2_(Si_1.00_O_4_)_3_
##PIN_ID=L00493
##ORIENTATION=Laser parallel to -a* (-1 0 0). Fiducial mark perpendicular to laser is parallel to -b [0 -1 0]
75.280, 0.000
76.678, 4.726
78.076, 113.025
79.474, 19.311
80.872, 31.863
82.270, 62.760
83.667, 106.833
85.064, 53.806
86.461, 67.179
87.858, 26.032
89.254, 9.642
90.650, 63.650
92.046, 138.826
93.442, 116.403
94.838, 116.632
96.233, 91.668
97.628, 118.389
99.023, 98.255
100.418, 98.699
101.812, 47.645
103.206, 50.483
104.600, 106.451
105.994, 63.497
107.387, 131.976
108.781, 171.429
110.174, 182.805
111.566, 86.364
112.959, 128.866
114.351, 116.162
115.744, 100.226
117.136, 167.234
118.527, 99.020
119.919, 218.830
121.310, 234.870
122.701, 210.905
124.092, 220.105
125.482, 154.882
126.873, 167.837
128.263, 105.677
129.653, 156.411
131.042, 185.004
132.432, 172.210
133.821, 132.059
135.210, 146.639
136.599, 205.959
137.987, 216.924
139.376, 238.800
140.764, 235.248
142.152, 184.924
143.539, 235.519
144.927, 169.488
146.314, 142.407
147.701, 167.764
149.088, 144.919
150.474, 142.474
151.861, 118.199
153.247, 99.138
154.633, 97.115
156.018, 103.857
157.404, 44.181
158.789, 23.158
160.174, 33.372
161.559, 27.243
162.943, 29.735
164.327, 49.135
165.711, 58.481
167.095, 8.784
168.479, 1.968
169.862, 15.761
171.246, 106.585
172.628, 118.422
174.011, 190.268
175.394, 322.124
176.776, 398.011
178.158, 450.905
179.540, 552.794
180.922, 509.687
182.303, 391.581
183.684, 344.466
185.065, 338.343
186.446, 221.190
187.826, 184.010
189.207, 103.799
190.587, 66.561
191.967, 50.292
193.346, 12.992
194.726, 0.652
196.105, 9.274
197.484, 30.853
198.862, 24.384
200.241, 32.858
201.619, 9.745
202.997, 19.524
204.375, 81.657
205.753, 34.721
207.130, 32.748
208.507, 54.754
209.884, 45.749
211.261, 73.733
212.638, 85.706
214.014, 50.666
215.390, 107.604
216.766, 80.511
218.141, 64.374
219.517, 72.620
220.892, 102.060
222.267, 121.964
223.642, 70.420
225.016, 93.098
226.391, 89.751
227.765, 141.382
229.139, 149.994
230.512, 151.587
231.886, 137.164
233.259, 144.726
234.632, 184.274
236.005, 226.813
237.377, 217.342
238.749, 232.866
240.122, 254.388
241.493, 300.868
242.865, 277.233
244.237, 291.839
245.608, 334.386
246.979, 327.374
248.350, 300.633
249.720, 387.769
251.090, 348.310
252.461, 347.689
253.830, 416.368
255.200, 418.401
256.570, 411.920
257.939, 413.741
259.308, 377.499
260.677, 412.933
262.045, 408.120
263.414, 472.295
264.782, 447.315
266.150, 475.175
267.517, 475.407
268.885, 455.543
270.252, 452.021
271.619, 453.040
272.986, 507.430
274.353, 493.876
275.719, 528.106
277.085, 515.289
278.451, 484.170
279.817, 573.105
281.182, 557.745
282.548, 549.748
283.913, 555.368
285.278, 566.271
286.642, 579.612
288.007, 572.108
289.371, 620.253
290.735, 607.687
292.099, 618.964
293.462, 605.335
294.826, 620.270
296.189, 643.080
297.552, 678.934
298.914, 683.734
300.277, 689.243
301.639, 703.007
303.001, 724.727
304.363, 762.388
305.724, 806.027
307.086, 795.385
308.447, 818.048
309.808, 853.244
311.168, 894.301
312.529, 903.455
313.889, 952.482
315.249, 1011.541
316.609, 1070.244
317.969, 1100.850
319.328, 1119.415
320.687, 1249.997
322.046, 1264.947
323.405, 1402.513
324.764, 1473.317
326.122, 1645.347
327.480, 1751.251
328.838, 1979.968
330.196, 2162.127
331.553, 2464.435
332.910, 2725.442
334.267, 2960.986
335.624, 3230.651
336.981, 3610.400
338.337, 3867.447
339.693, 4284.990
341.049, 4510.521
342.405, 4871.048
343.760, 5277.565
345.116, 5865.074
346.471, 6274.572
347.826, 7183.064
349.180, 8080.545
350.535, 9165.693
351.889, 10057.685
353.243, 11209.340
354.597, 12140.696
355.950, 12261.918
357.304, 12042.625
358.657, 11452.971
360.010, 10483.623
361.362, 9344.638
362.715, 8303.576
364.067, 7390.629
365.419, 6642.423
366.771, 6190.325
368.123, 5611.854
369.474, 5354.980
370.825, 5041.091
372.176, 4768.425
373.527, 4553.700
374.877, 4355.223
376.228, 4106.847
377.578, 3844.203
378.928, 3388.939
380.277, 3196.578
381.627, 2839.110
382.976, 2559.728
384.325, 2263.497
385.674, 1989.363
387.023, 1828.008
388.371, 1538.771
389.719, 1395.534
391.067, 1228.530
392.415, 1041.575
393.762, 954.630
395.110, 843.637
396.457, 726.691
397.804, 633.927
399.150, 588.351
400.497, 518.749
401.843, 459.216
403.189, 386.750
404.535, 345.247
405.881, 343.707
407.226, 302.141
408.571, 288.548
409.916, 269.938
411.261, 208.305
412.605, 189.651
413.950, 157.975
415.294, 176.284
416.638, 135.579
417.981, 127.865
419.325, 95.140
420.668, 42.396
422.011, 78.636
423.354, 72.866
424.697, 60.086
426.039, 35.289
427.381, 33.477
428.723, 33.649
430.065, 27.807
431.406, 24.951
432.748, 24.085
434.089, 17.204
435.430, 18.309
436.770, 24.602
438.111, 35.537
439.451, 41.503
440.791, 1.471
442.131, 15.541
443.471, 5.459
444.810, 12.475
446.149, 35.506
447.488, 8.437
448.827, 35.631
450.166, 4.277
451.504, 19.827
452.842, 35.947
454.180, 13.911
455.518, 4.240
456.855, 33.597
458.193, 4.425
459.530, 8.758
460.867, 31.047
462.203, 20.844
463.540, 31.630
464.876, 51.407
466.212, 46.175
467.548, 55.933
468.883, 27.683
470.219, 68.424
471.554, 71.157
472.889, 68.884
474.224, 73.603
475.558, 60.316
476.892, 102.022
478.227, 86.724
479.561, 92.420
480.894, 149.112
482.228, 124.800
483.561, 137.485
484.894, 164.171
486.227, 147.855
487.559, 172.549
488.892, 142.254
490.224, 158.975
491.556, 175.715
492.888, 181.459
494.220, 169.204
495.551, 204.950
496.882, 245.689
498.213, 255.423
499.544, 291.150
500.874, 291.867
502.205, 362.575
503.535, 446.273
504.865, 468.962
506.194, 462.641
507.524, 450.311
508.853, 495.971
510.182, 461.780
511.511, 412.597
512.840, 440.461
514.168, 466.189
515.496, 444.018
516.824, 519.788
518.152, 510.653
519.480, 524.751
520.807, 591.643
522.134, 638.432
523.461, 649.305
524.788, 701.162
526.114, 739.654
527.441, 743.499
528.767, 717.670
530.093, 750.529
531.418, 777.136
532.744, 738.542
534.069, 737.803
535.394, 815.865
536.719, 859.471
538.044, 960.574
539.368, 1030.415
540.693, 1129.622
542.017, 1165.566
543.340, 1375.439
544.664, 1506.997
545.987, 1697.479
547.311, 1935.087
548.634, 2208.570
549.956, 2629.679
551.279, 3028.720
552.601, 3693.535
553.923, 4420.453
555.245, 5291.937
556.567, 5848.051
557.889, 6637.351
559.210, 6723.659
560.531, 6417.587
561.852, 5725.652
563.173, 4948.782
564.493, 3943.313
565.813, 3181.464
567.133, 2581.141
568.453, 2124.877
569.773, 1730.375
571.092, 1381.264
572.412, 1222.688
573.731, 994.845
575.049, 870.268
576.368, 756.627
577.686, 708.458
579.005, 592.677
580.323, 573.461
581.640, 518.168
582.958, 509.560
584.275, 463.600
585.593, 491.920
586.909, 468.757
588.226, 444.581
589.543, 387.358
590.859, 420.956
592.175, 397.664
593.491, 379.403
594.807, 388.075
596.122, 359.807
597.438, 360.998
598.753, 351.704
600.068, 385.208
601.382, 365.808
602.697, 395.121
604.011, 414.221
605.325, 399.303
606.639, 427.728
607.952, 459.770
609.266, 476.153
610.579, 481.921
611.892, 481.900
613.205, 458.287
614.518, 390.515
615.830, 334.961
617.142, 307.274
618.454, 272.344
619.766, 216.745
621.078, 259.091
622.389, 204.471
623.700, 200.922
625.011, 203.339
626.322, 189.786
627.632, 205.102
628.943, 243.578
630.253, 230.053
631.563, 245.508
632.872, 273.970
634.182, 308.366
635.491, 329.925
636.800, 352.407
638.109, 391.902
639.418, 410.429
640.726, 443.942
642.035, 390.441
643.343, 361.928
644.651, 351.401
645.958, 341.862
647.266, 339.308
648.573, 284.742
649.880, 251.162
651.187, 261.568
652.494, 223.962
653.800, 225.341
655.106, 222.707
656.412, 184.060
657.718, 165.399
659.024, 152.725
660.329, 136.038
661.634, 127.337
662.939, 109.623
664.244, 109.896
665.549, 115.156
666.853, 65.402
668.157, 60.635
669.461, 46.853
670.765, 77.057
672.069, 51.247
673.372, 63.422
674.675, 39.583
675.978, 14.730
677.281, 30.859
678.583, 53.973
679.886, 32.072
681.188, 34.158
682.490, 11.772
683.792, 1.731
685.093, 10.286
686.394, 27.285
687.696, 14.730
688.997, 27.776
690.297, 9.859
691.598, 22.969
692.898, 0.114
694.198, 40.280
695.498, 36.488
696.798, 42.738
698.097, 23.031
699.397, 22.357
700.696, 33.715
701.995, 1.112
703.293, 19.529
704.592, 33.977
705.890, 44.462
707.188, 27.991
708.486, 8.447
709.784, 27.129
711.081, 36.739
712.378, 47.386
713.675, 19.077
714.972, 35.795
716.269, 1.451
717.565, 17.320
718.862, 3.116
720.158, 16.069
721.453, 20.757
722.749, 2.390
724.045, 31.477
725.340, 5.624
726.635, 3.287
727.930, 12.786
729.224, 9.152
730.519, 14.109
731.813, 13.914
733.107, 22.073
734.401, 10.915
735.694, 12.106
736.988, 25.144
738.281, 21.206
739.574, 1.710
740.867, 7.383
742.160, 13.511
743.452, 12.397
744.744, 13.276
746.036, 15.851
747.328, 17.005
748.620, 0.855
749.911, 10.698
751.202, 40.534
752.493, 27.368
753.784, 12.204
755.075, 7.033
756.365, 2.857
757.655, 35.675
758.945, 32.489
760.235, 56.300
761.525, 58.113
762.814, 81.922
764.103, 71.732
765.392, 56.539
766.681, 48.345
767.969, 48.153
769.258, 54.958
770.546, 45.759
771.834, 33.556
773.122, 63.350
774.409, 53.142
775.697, 19.931
776.984, 38.433
778.271, 48.524
779.558, 54.359
780.844, 56.168
782.131, 34.822
783.417, 64.591
784.703, 42.356
785.989, 34.118
787.274, 40.876
788.560, 18.631
789.845, 59.384
791.130, 61.133
792.415, 37.879
793.699, 62.621
794.983, 47.361
796.268, 81.098
797.552, 59.831
798.835, 101.562
800.119, 113.291
801.402, 122.017
802.686, 125.740
803.969, 154.462
805.251, 175.181
806.534, 154.898
807.816, 207.613
809.098, 237.327
810.380, 269.038
811.662, 272.749
812.944, 306.458
814.225, 324.173
815.506, 331.889
816.787, 392.612
818.068, 361.342
819.349, 380.076
820.629, 392.814
821.909, 342.400
823.189, 368.968
824.469, 376.481
825.749, 353.123
827.028, 393.660
828.307, 409.258
829.586, 415.763
830.865, 387.039
832.144, 396.527
833.422, 415.126
834.700, 403.643
835.978, 448.183
837.256, 455.101
838.534, 469.671
839.811, 537.924
841.088, 528.498
842.365, 598.333
843.642, 635.375
844.919, 656.568
846.195, 724.964
847.472, 771.814
848.748, 901.169
850.023, 886.783
851.299, 995.032
852.575, 1052.547
853.850, 1197.126
855.125, 1316.024
856.400, 1455.995
857.674, 1506.836
858.949, 1693.798
860.223, 1811.133
861.497, 1905.531
862.771, 1940.153
864.045, 2024.667
865.318, 1959.609
866.591, 1923.914
867.864, 1903.030
869.137, 1819.130
870.410, 1738.602
871.682, 1686.932
872.955, 1696.189
874.227, 1659.040
875.499, 1716.262
876.770, 1687.953
878.042, 1759.578
879.313, 1812.436
880.584, 1824.898
881.855, 1971.817
883.126, 2068.000
884.396, 2197.909
885.667, 2307.878
886.937, 2475.369
888.207, 2596.356
889.476, 2803.553
890.746, 3073.976
892.015, 3275.688
893.284, 3606.694
894.553, 3804.314
895.822, 4193.407
897.090, 4557.512
898.359, 5054.635
899.627, 5651.925
900.895, 6200.099
902.163, 6980.211
903.430, 8106.394
904.698, 9303.677
905.965, 10712.961
907.232, 12632.199
908.499, 15061.435
909.765, 18060.670
911.032, 21820.012
912.298, 25899.361
913.564, 31318.729
914.830, 36968.102
916.095, 42037.484
917.361, 46526.891
918.626, 49136.305
919.891, 48735.715
921.156, 46715.148
922.420, 41154.602
923.685, 36474.059
924.949, 30593.527
926.213, 25513.006
927.477, 21562.494
928.740, 17852.004
930.004, 15111.521
931.267, 12631.049
932.530, 10840.593
933.793, 9470.146
935.056, 8015.710
936.318, 7108.289
937.581, 6252.879
938.843, 5456.482
940.104, 4852.098
941.366, 4241.727
942.628, 3807.367
943.889, 3393.021
945.150, 3062.688
946.411, 2826.365
947.672, 2582.058
948.932, 2382.763
950.193, 2162.480
951.453, 1989.211
952.713, 1876.955
953.973, 1725.711
955.232, 1616.480
956.491, 1599.263
957.751, 1459.059
959.010, 1355.867
960.268, 1366.689
961.527, 1239.525
962.785, 1185.373
964.044, 1145.234
965.302, 1143.686
966.559, 1103.080
967.817, 1022.512
969.075, 1024.126
970.332, 969.952
971.589, 987.003
972.846, 974.964
974.102, 918.931
975.359, 905.910
976.615, 927.905
977.871, 880.911
979.127, 888.460
980.383, 881.010
981.638, 872.155
982.893, 907.895
984.149, 820.352
985.404, 836.609
986.658, 873.806
987.913, 760.343
989.167, 770.100
990.421, 752.395
991.675, 751.469
992.929, 698.322
994.183, 669.522
995.436, 634.265
996.689, 574.167
997.942, 569.820
999.195, 516.483
1000.448, 494.096
1001.700, 535.849
1002.952, 522.334
1004.204, 520.730
1005.456, 515.486
1006.708, 514.385
1007.959, 500.828
1009.210, 508.624
1010.461, 546.803
1011.712, 533.331
1012.963, 568.417
1014.213, 611.964
1015.464, 639.531
1016.714, 594.122
1017.964, 675.739
1019.214, 706.375
1020.463, 692.033
1021.712, 764.704
1022.962, 740.393
1024.210, 730.095
1025.459, 777.808
1026.708, 736.539
1027.956, 803.281
1029.204, 788.044
1030.452, 775.818
1031.700, 812.604
1032.948, 816.401
1034.195, 836.212
1035.442, 837.037
1036.689, 802.873
1037.936, 852.727
1039.183, 817.590
1040.429, 888.468
1041.676, 899.365
1042.922, 844.278
1044.168, 914.208
1045.413, 957.151
1046.659, 955.104
1047.904, 1000.066
1049.149, 961.038
1050.394, 1012.023
1051.639, 985.018
1052.884, 914.023
1054.128, 915.037
1055.372, 813.060
1056.616, 749.091
1057.860, 667.138
1059.104, 574.193
1060.347, 506.258
1061.590, 453.338
1062.833, 385.428
1064.076, 360.527
1065.319, 305.637
1066.561, 260.761
1067.803, 227.895
1069.046, 207.035
1070.287, 206.184
1071.529, 159.348
1072.771, 137.521
1074.012, 162.701
1075.253, 127.888
1076.494, 127.082
1077.735, 104.283
1078.975, 93.494
1080.216, 88.713
1081.456, 72.947
1082.696, 61.189
1083.936, 54.438
1085.175, 47.700
1086.415, 47.973
1087.654, 24.255
1088.893, 56.547
1090.132, 60.847
1091.371, 9.154
1092.609, 46.466
1093.847, 39.785
1095.085, 79.108
1096.323, 143.440
1097.561, 63.775
1098.799, 105.117
1100.036, 239.465
1101.273, 436.818
1102.510, 364.176
1103.747, 379.540
1104.983, 217.908
1106.220, 425.281
1107.456, 277.658
1108.692, 525.045
1109.928, 392.436
1111.163, 395.833
1112.399, 57.232
1113.634, 35.363
1114.869, 13.969
1116.104, 33.578
1117.339, 36.197
1118.573, 20.830
1119.808, 24.468
1121.042, 22.114
1122.276, 63.234
1123.509, 67.583
1124.743, 36.936
1125.976, 14.291
1127.210, 29.351
1128.443, 10.006
1129.675, 20.664
1130.908, 30.328
1132.141, 41.007
1133.373, 20.705
1134.605, 35.412
1135.837, 40.138
1137.068, 26.883
1138.300, 50.642
1139.531, 46.428
1140.762, 42.239
1141.993, 31.073
1143.224, 38.924
1144.455, 24.797
1145.685, 2.684
1146.915, 19.575
1148.145, 0.479
1149.375, 19.388
1150.605, 14.310
1151.834, 7.756
1153.063, 17.179
1154.292, 2.127
1155.521, 23.917
1156.750, 0.960
1157.978, 5.002
1159.207, 10.027
1160.435, 1.946
1161.663, 28.072
1162.891, 56.088
1164.118, 50.102
1165.345, 23.113
1166.573, 39.121
1167.800, 65.126
1169.026, 59.128
1170.253, 75.127
1171.480, 66.122
1172.706, 116.113
1173.932, 120.101
1175.158, 113.133
1176.383, 120.113
1177.609, 142.088
1178.834, 112.087
1180.059, 114.074
1181.284, 151.129
1182.509, 129.144
1183.734, 162.101
1184.958, 150.339
1186.182, 160.331
1187.406, 186.341
1188.630, 132.952
1189.854, 137.946
1191.077, 145.676
1192.301, 134.730
1193.524, 135.703
1194.747, 142.916
1195.969, 142.963
1197.192, 163.961
1198.414, 119.178
1199.636, 173.380
1200.858, 126.352
1202.080, 170.477
1203.302, 133.493
1204.523, 169.920
1205.744, 139.019
1206.966, 133.148
1208.186, 122.790
1209.407, 146.256
1210.628, 116.375
1211.848, 138.236
1213.068, 128.635
1214.288, 143.799
1215.508, 156.705
1216.727, 139.928
1217.947, 121.598
1219.166, 120.901
1220.385, 151.873
1221.604, 139.676
1222.822, 125.661
1224.041, 139.608
1225.259, 144.974
1226.477, 111.322
1227.695, 129.263
1228.913, 141.357
1230.130, 124.184
1231.348, 92.885
1232.565, 136.503
1233.782, 160.169
1234.999, 131.007
1236.215, 116.044
1237.432, 136.158
1238.648, 113.025
1239.864, 131.838
1241.080, 99.519
1242.296, 75.223
1243.511, 105.176
1244.726, 138.407
1245.942, 115.298
1247.156, 110.060
1248.371, 138.817
1249.586, 173.802
1250.800, 101.511
1252.014, 115.130
1253.228, 125.922
1254.442, 145.741
1255.656, 128.328
1256.869, 167.340
1258.083, 131.872
1259.296, 148.679
1260.509, 142.808
1261.722, 190.807
1262.934, 177.799
1264.147, 135.639
1265.359, 186.291
1266.571, 164.811
1267.783, 145.305
1268.994, 189.730
1270.206, 204.250
1271.417, 188.757
1272.628, 210.161
1273.839, 192.071
1275.050, 177.221
1276.260, 205.885
1277.471, 191.651
1278.681, 224.759
1279.891, 193.999
1281.101, 146.308
1282.310, 123.309
1283.520, 171.073
1284.729, 185.269
1285.938, 165.714
1287.147, 146.509
1288.356, 137.871
1289.564, 181.607
1290.773, 115.477
1291.981, 164.387
1293.189, 122.315
1294.397, 142.214
1295.604, 163.972
1296.812, 166.008
1298.019, 130.247
1299.226, 144.020
1300.433, 118.647
1301.640, 183.737
1302.846, 131.496
1304.053, 81.860
1305.259, 114.961
1306.465, 97.410
1307.671, 113.433
1308.876, 111.386
1310.082, 95.322
1311.287, 105.244
1312.492, 87.153
1313.697, 99.043
1314.902, 116.949
1316.106, 76.808
1317.310, 83.653
1318.515, 83.473
1319.719, 52.275
1320.922, 67.060
1322.126, 69.831
1323.329, 57.625
1324.533, 59.398
1325.736, 42.124
1326.939, 50.835
1328.141, 63.528
1329.344, 20.200
1330.546, 52.855
1331.748, 47.491
1332.950, 5.111
1334.152, 48.708
1335.354, 13.713
1336.555, 33.837
1337.757, 49.368
1338.958, 18.883
1340.159, 32.377
1341.359, 38.854
1342.560, 17.314
1343.760, 17.754
1344.960, 40.177
1346.160, 21.583
1347.360, 30.973
1348.560, 10.578
1349.759, 21.772
1350.959, 19.105
1352.158, 14.578
1353.357, 4.714
1354.555, 17.987
1355.754, 2.756
1356.952, 11.519
1358.151, 13.696
1359.349, 33.895
1360.546, 10.079
1361.744, 16.753
1362.941, 6.394
1364.139, 22.526
1365.336, 45.640
1366.533, 19.741
1367.730, 21.830
1368.926, 2.906
1370.123, 2.968
1371.319, 22.982
1372.515, 10.049
1373.711, 28.070
1374.906, 19.915
1376.102, 2.912
1377.297, 3.914
1378.492, 6.876
1379.687, 9.087
1380.882, 5.878
1382.077, 17.647
1383.271, 21.393
1384.465, 38.117
1385.659, 31.817
1386.853, 10.493
1388.047, 1.147
1389.240, 12.773
1390.434, 21.370
1391.627, 20.943
1392.820, 6.512
1394.013, 24.087
1395.205, 35.666
1396.398, 15.240
1397.590, 10.206
1398.782, 37.336
1399.974, 2.874
1401.166, 46.427
1402.357, 10.996
1403.549, 17.593
1404.740, 47.230
1405.931, 40.904
1407.122, 35.609
1408.313, 31.322
1409.503, 21.041
1410.693, 39.771
1411.883, 56.508
1413.073, 32.241
1414.263, 33.975
1415.453, 56.708
1416.642, 47.432
1417.831, 15.149
1419.020, 8.857
1420.209, 41.559
1421.398, 31.186
1422.587, 46.876
1423.775, 46.490
1424.963, 39.947
1426.151, 47.181
1427.339, 56.659
1428.526, 50.179
1429.714, 23.815
1430.901, 38.829
1432.088, 69.009
1433.275, 15.536
1434.462, 46.513
1435.648, 37.210
1436.835, 67.809
1438.021, 82.146
1439.207, 78.249
1440.393, 25.213
1441.579, 75.557
1442.764, 56.495
1443.949, 48.245
1445.135, 44.623
1446.320, 56.431
1447.504, 21.566
1448.689, 49.446
1449.873, 24.589
1451.058, 33.340
1452.242, 64.718
1453.426, 59.963
1454.609, 51.745
1455.793, 38.389
1456.976, 22.173
1458.159, 60.422
1459.342, 30.151
1460.525, 30.417
1461.708, 36.469
1462.890, 35.411
1464.073, 38.353
1465.255, 12.982
1466.437, 13.331
1467.619, 44.985
1468.800, 26.552
1469.982, 32.406
1471.163, 54.753
1472.344, 54.736
1473.525, 18.705
1474.706, 65.761
1475.886, 26.290
1477.066, 13.208
1478.247, 49.195
1479.427, 32.932
1480.607, 53.006
1481.786, 57.680
1482.966, 30.767
1484.145, 51.734
1485.324, 29.546
1486.503, 27.624
1487.682, 59.908
1488.860, 41.165
1490.039, 4.731
1491.217, 69.525
1492.395, 6.835
1493.573, 51.923
1494.751, 41.995
1495.928, 34.209
1497.106, 52.475
1498.283, 37.764
1499.460, 28.105
1500.637, 23.548
1501.814, 61.053
1502.990, 30.622
1504.166, 45.273
1505.342, 54.977
1506.518, 73.021
1507.694, 27.722
1508.870, 37.120
1510.045, 34.739
1511.221, 51.896
1512.396, 11.196
1513.571, 21.659
1514.745, 27.472
1515.920, 13.614
1517.094, 23.206
1518.269, 24.463
1519.443, 0.293
1520.616, 0.000
##END=



