##NAMES=Pyrosmalite-(Fe)
##RRUFFID=R050158
##IDEAL CHEMISTRY=Fe^2+^_8_Si_6_O_15_(OH)_10_
##LOCALITY=Burguillos del Cerro, Badajos, Spain
##OWNER=RRUFF
##SOURCE=Jim McGlasson
##DESCRIPTION=Green subhedral crystal aggregate
##STATUS=The identification of this mineral has been confirmed by X-ray diffraction and chemical analysis
##URL=rruff.info/R050158
##MEASURED CHEMISTRY=(Fe^2+^_0.92_Mn^2+^_0.06_Mg_0.02_)_8_Si_6_O_15_(OH_0.83_Cl_0.17_)_10_
##PIN_ID=L00098
##ORIENTATION=Laser parallel to c* (0 0 1). Fiducial mark perpendicular to laser is parallel to a [1 0 0]
128.263, 0.000
129.653, 8.142
131.042, 55.783
132.432, 96.625
133.821, 204.951
135.210, 345.825
136.599, 657.957
137.987, 877.837
139.376, 1218.473
140.764, 1524.840
142.152, 1859.633
143.539, 2001.713
144.927, 2191.966
146.314, 2031.178
147.701, 1873.694
149.088, 1752.394
150.474, 1649.197
151.861, 1627.409
153.247, 1567.558
154.633, 1389.183
156.018, 1581.745
157.404, 1546.049
158.789, 1697.952
160.174, 1627.033
161.559, 1812.787
162.943, 1841.619
164.327, 1812.875
165.711, 1866.846
167.095, 1889.875
168.479, 1951.788
169.862, 2003.917
171.246, 2187.042
172.628, 2321.498
174.011, 2493.226
175.394, 2817.576
176.776, 2927.877
178.158, 3183.322
179.540, 3548.313
180.922, 3908.070
182.303, 4106.060
183.684, 4335.285
185.065, 4567.591
186.446, 4598.386
187.826, 4642.872
189.207, 4402.511
190.587, 4194.297
191.967, 4045.217
193.346, 3590.246
194.726, 3306.369
196.105, 2802.569
197.484, 2341.835
198.862, 2030.161
200.241, 1681.545
201.619, 1342.985
202.997, 1078.476
204.375, 846.016
205.753, 577.186
207.130, 531.934
208.507, 278.215
209.884, 235.907
211.261, 83.728
212.638, 12.213
214.014, 68.896
215.390, 72.330
216.766, 83.531
218.141, 131.518
219.517, 102.315
220.892, 68.939
222.267, 82.407
223.642, 33.734
225.016, 44.939
226.391, 100.039
227.765, 44.048
229.139, 103.978
230.512, 165.839
231.886, 61.641
233.259, 91.401
234.632, 38.144
236.005, 4.876
237.377, 46.727
238.749, 138.647
240.122, 237.896
241.493, 311.134
242.865, 509.350
244.237, 662.542
245.608, 756.707
246.979, 890.853
248.350, 1024.991
249.720, 1295.129
251.090, 1478.278
252.461, 1648.456
253.830, 1853.538
255.200, 2015.440
256.570, 2149.116
257.939, 2383.639
259.308, 2532.098
260.677, 2593.249
262.045, 2599.646
263.414, 2629.694
264.782, 2525.675
266.150, 2434.631
267.517, 2270.582
268.885, 2143.548
270.252, 1930.519
271.619, 1687.493
272.986, 1569.466
274.353, 1183.433
275.719, 1086.387
277.085, 814.332
278.451, 784.265
279.817, 575.186
281.182, 494.095
282.548, 429.992
283.913, 403.877
285.278, 448.750
286.642, 434.609
288.007, 465.455
289.371, 526.983
290.735, 587.250
292.099, 706.719
293.462, 907.391
294.826, 1041.687
296.189, 1273.735
297.552, 1580.117
298.914, 1978.400
300.277, 2189.893
301.639, 2626.068
303.001, 2887.173
304.363, 3190.115
305.724, 3208.850
307.086, 3244.556
308.447, 3177.784
309.808, 2907.878
311.168, 2668.836
312.529, 2546.662
313.889, 2466.352
315.249, 2583.878
316.609, 2855.210
317.969, 3425.330
319.328, 4295.227
320.687, 5682.899
322.046, 7156.369
323.405, 8755.651
324.764, 10194.768
326.122, 10373.729
327.480, 9462.546
328.838, 7731.232
330.196, 5976.797
331.553, 4470.245
332.910, 3370.553
334.267, 2524.668
335.624, 1908.390
336.981, 1580.677
338.337, 1365.487
339.693, 1150.220
341.049, 945.819
342.405, 913.340
343.760, 842.467
345.116, 841.519
346.471, 795.446
347.826, 824.344
349.180, 766.346
350.535, 847.242
351.889, 884.964
353.243, 1077.691
354.597, 1200.870
355.950, 1389.157
357.304, 1581.197
358.657, 1842.440
360.010, 2049.460
361.362, 2310.453
362.715, 2448.691
364.067, 2538.310
365.419, 2502.006
366.771, 2633.082
368.123, 2438.233
369.474, 2332.177
370.825, 2055.942
372.176, 1962.419
373.527, 1795.767
374.877, 1702.802
376.228, 1460.575
377.578, 1393.040
378.928, 1275.970
380.277, 1269.726
381.627, 1140.583
382.976, 1124.556
384.325, 1063.334
385.674, 1042.682
387.023, 1033.277
388.371, 1026.245
389.719, 1048.640
391.067, 1049.674
392.415, 1118.299
393.762, 1154.555
395.110, 1154.921
396.457, 1254.014
397.804, 1370.341
399.150, 1376.479
400.497, 1417.937
401.843, 1565.256
403.189, 1580.523
404.535, 1740.797
405.881, 1877.048
407.226, 2136.313
408.571, 2339.417
409.916, 2585.330
411.261, 2953.456
412.605, 3201.441
413.950, 3648.198
415.294, 4053.846
416.638, 4488.201
417.981, 4693.593
419.325, 4647.844
420.668, 4476.684
422.011, 4130.689
423.354, 3691.482
424.697, 3117.660
426.039, 2689.821
427.381, 2222.966
428.723, 1960.094
430.065, 1653.207
431.406, 1541.303
432.748, 1259.382
434.089, 1163.444
435.430, 1119.490
436.770, 1019.518
438.111, 897.530
439.451, 790.524
440.791, 664.502
442.131, 619.463
443.471, 465.399
444.810, 405.058
446.149, 340.598
447.488, 235.317
448.827, 193.964
450.166, 196.728
451.504, 187.556
452.842, 142.359
454.180, 156.133
455.518, 149.859
456.855, 171.539
458.193, 143.167
459.530, 194.743
460.867, 156.268
462.203, 231.739
463.540, 240.159
464.876, 264.528
466.212, 292.848
467.548, 272.119
468.883, 369.341
470.219, 452.518
471.554, 498.649
472.889, 506.736
474.224, 662.779
475.558, 908.778
476.892, 1219.734
478.227, 1686.647
479.561, 2154.518
480.894, 2774.349
482.228, 3243.140
483.561, 3525.892
484.894, 3603.606
486.227, 3158.281
487.559, 2634.919
488.892, 2133.521
490.224, 1556.086
491.556, 1226.615
492.888, 947.109
494.220, 668.569
495.551, 609.994
496.882, 438.386
498.213, 352.748
499.544, 260.081
500.874, 223.385
502.205, 164.658
503.535, 160.901
504.865, 109.115
506.194, 94.299
507.524, 82.454
508.853, 50.580
510.182, 74.675
511.511, 115.740
512.840, 113.777
514.168, 243.786
515.496, 216.973
516.824, 274.730
518.152, 224.667
519.480, 276.579
520.807, 281.467
522.134, 221.333
523.461, 128.174
524.788, 107.987
526.114, 28.842
527.441, 18.764
528.767, 22.482
530.093, 21.260
531.418, 62.047
532.744, 33.455
534.069, 74.734
535.394, 16.170
536.719, 82.564
538.044, 11.933
539.368, 67.483
540.693, 1.002
542.017, 87.531
543.340, 34.086
544.664, 71.640
545.987, 94.219
547.311, 87.833
548.634, 85.489
549.956, 25.174
551.279, 93.868
552.601, 69.586
553.923, 30.307
555.245, 87.038
556.567, 84.796
557.889, 9.402
559.210, 54.407
560.531, 20.736
561.852, 8.858
563.173, 26.042
564.493, 45.013
565.813, 75.040
567.133, 108.043
568.453, 148.019
569.773, 90.969
571.092, 118.891
572.412, 167.787
573.731, 187.657
575.049, 251.511
576.368, 237.343
577.686, 314.158
579.005, 311.951
580.323, 331.731
581.640, 415.499
582.958, 463.245
584.275, 579.970
585.593, 595.684
586.909, 670.383
588.226, 782.066
589.543, 865.728
590.859, 970.375
592.175, 1139.021
593.491, 1338.652
594.807, 1615.276
596.122, 1805.883
597.438, 2141.488
598.753, 2521.085
600.068, 3209.667
601.382, 3838.229
602.697, 4775.772
604.011, 5929.298
605.325, 7541.675
606.639, 9731.598
607.952, 12391.327
609.266, 15551.051
610.579, 20160.721
611.892, 24340.188
613.205, 28859.691
614.518, 31789.160
615.830, 32508.697
617.142, 30528.102
618.454, 27117.701
619.766, 22407.129
621.078, 18566.852
622.389, 14356.592
623.700, 11406.418
625.011, 9216.360
626.322, 7276.197
627.632, 6122.369
628.943, 4968.521
630.253, 4161.652
631.563, 3640.763
632.872, 3053.857
634.182, 2712.930
635.491, 2362.971
636.800, 2102.022
638.109, 1872.039
639.418, 1739.038
640.726, 1527.018
642.035, 1453.979
643.343, 1312.922
644.651, 1167.848
645.958, 1161.754
647.266, 1113.643
648.573, 926.514
649.880, 886.367
651.187, 830.202
652.494, 739.020
653.800, 748.820
655.106, 735.603
656.412, 691.368
657.718, 663.824
659.024, 632.114
660.329, 588.146
661.634, 577.150
662.939, 511.925
664.244, 523.626
665.549, 565.266
666.853, 500.759
668.157, 484.343
669.461, 401.086
670.765, 375.810
672.069, 356.066
673.372, 305.986
674.675, 315.561
675.978, 258.703
677.281, 265.051
678.583, 280.407
679.886, 227.501
681.188, 204.193
682.490, 182.791
683.792, 157.987
685.093, 203.089
686.394, 175.214
687.696, 187.357
688.997, 201.627
690.297, 147.851
691.598, 166.166
692.898, 151.380
694.198, 132.489
695.498, 195.688
696.798, 165.256
698.097, 185.550
699.397, 243.323
700.696, 209.003
701.995, 191.780
703.293, 237.227
704.592, 200.958
705.890, 205.675
707.188, 152.604
708.486, 299.455
709.784, 298.219
711.081, 282.359
712.378, 265.014
713.675, 331.876
714.972, 327.555
716.269, 345.657
717.565, 398.675
718.862, 382.592
720.158, 451.847
721.453, 478.103
722.749, 539.625
724.045, 575.084
725.340, 567.804
726.635, 627.243
727.930, 675.764
729.224, 668.556
730.519, 820.772
731.813, 803.913
733.107, 1004.142
734.401, 1102.127
735.694, 1013.876
736.988, 1190.052
738.281, 1115.061
739.574, 1174.119
740.867, 1175.456
742.160, 1143.794
743.452, 1078.891
744.744, 1002.833
746.036, 809.580
747.328, 785.708
748.620, 692.196
749.911, 548.628
751.202, 587.900
752.493, 490.648
753.784, 482.390
755.075, 435.817
756.365, 490.762
757.655, 502.255
758.945, 508.093
760.235, 519.916
761.525, 548.745
762.814, 616.538
764.103, 664.342
765.392, 758.281
766.681, 801.036
767.969, 770.587
769.258, 800.316
770.546, 750.083
771.834, 700.661
773.122, 651.380
774.409, 596.421
775.697, 544.259
776.984, 494.038
778.271, 426.607
779.558, 394.483
780.844, 319.110
782.131, 315.615
783.417, 278.198
784.703, 266.679
785.989, 268.189
787.274, 302.648
788.560, 273.096
789.845, 223.532
791.130, 192.000
792.415, 284.415
793.699, 244.818
794.983, 266.210
796.268, 276.592
797.552, 312.962
798.835, 322.762
800.119, 369.672
801.402, 358.010
802.686, 401.339
803.969, 429.656
805.251, 480.964
806.534, 548.260
807.816, 636.547
809.098, 657.823
810.380, 715.089
811.662, 750.345
812.944, 834.592
814.225, 827.831
815.506, 948.063
816.787, 987.288
818.068, 1119.506
819.349, 1120.719
820.629, 1135.926
821.909, 1134.128
823.189, 954.325
824.469, 834.516
825.749, 664.701
827.028, 542.878
828.307, 489.047
829.586, 353.207
830.865, 299.360
832.144, 215.503
833.422, 203.639
834.700, 177.766
835.978, 94.887
837.256, 160.933
838.534, 103.874
839.811, 123.982
841.088, 81.995
842.365, 57.058
843.642, 16.172
844.919, 94.118
846.195, 32.180
847.472, 16.188
848.748, 90.157
850.023, 56.686
851.299, 32.418
852.575, 4.446
853.850, 25.294
855.125, 5.847
856.400, 49.997
857.674, 8.152
858.949, 44.320
860.223, 2.493
861.497, 24.306
862.771, 26.886
864.045, 46.094
865.318, 13.693
866.591, 8.530
867.864, 19.771
869.137, 30.007
870.410, 62.254
871.682, 10.502
872.955, 71.729
874.227, 29.967
875.499, 14.800
876.770, 24.416
878.042, 31.626
879.313, 23.828
880.584, 30.024
881.855, 12.181
883.126, 18.605
884.396, 8.555
885.667, 15.295
886.937, 55.835
888.207, 22.043
889.476, 28.945
890.746, 41.125
892.015, 26.186
893.284, 31.762
894.553, 15.739
895.822, 11.738
897.090, 41.244
898.359, 22.781
899.627, 60.823
900.895, 18.909
902.163, 50.011
903.430, 1.851
904.698, 71.300
905.965, 39.501
907.232, 18.735
908.499, 11.008
909.765, 3.253
911.032, 29.470
912.298, 29.621
913.564, 24.958
914.830, 30.618
916.095, 25.318
917.361, 7.010
918.626, 31.693
919.891, 5.632
921.156, 33.028
922.420, 21.681
923.685, 65.326
924.949, 27.964
926.213, 91.596
927.477, 70.221
928.740, 86.840
930.004, 53.453
931.267, 28.940
932.530, 33.641
933.793, 98.214
935.056, 37.782
936.318, 88.344
937.581, 48.899
938.843, 95.449
940.104, 87.994
941.366, 110.534
942.628, 46.071
943.889, 126.603
945.150, 71.129
946.411, 149.650
947.672, 127.165
948.932, 164.678
950.193, 106.194
951.453, 134.704
952.713, 121.210
953.973, 149.710
955.232, 126.205
956.491, 155.696
957.751, 82.182
959.010, 131.663
960.268, 118.143
961.527, 188.618
962.785, 129.089
964.044, 143.555
965.302, 191.017
966.559, 183.476
967.817, 179.930
969.075, 180.380
970.332, 176.826
971.589, 189.269
972.846, 191.311
974.102, 184.141
975.359, 212.570
976.615, 215.996
977.871, 240.417
979.127, 323.834
980.383, 270.247
981.638, 317.656
982.893, 277.062
984.149, 355.464
985.404, 340.862
986.658, 374.257
987.913, 389.647
989.167, 421.035
990.421, 434.419
991.675, 522.800
992.929, 532.452
994.183, 641.375
995.436, 624.437
996.689, 653.804
997.942, 764.932
999.195, 843.991
1000.448, 868.350
1001.700, 1027.876
1002.952, 1089.000
1004.204, 1203.662
1005.456, 1362.135
1006.708, 1553.143
1007.959, 1742.050
1009.210, 1983.064
1010.461, 2263.228
1011.712, 2584.954
1012.963, 3113.438
1014.213, 3589.523
1015.464, 4336.694
1016.714, 4942.777
1017.964, 5901.783
1019.214, 6772.833
1020.463, 7689.924
1021.712, 8687.148
1022.962, 9193.362
1024.210, 9901.138
1025.459, 9998.229
1026.708, 9894.165
1027.956, 9531.228
1029.204, 8638.317
1030.452, 8055.371
1031.700, 7082.449
1032.948, 6339.450
1034.195, 5595.102
1035.442, 4994.088
1036.689, 4399.914
1037.936, 3924.093
1039.183, 3477.495
1040.429, 3313.455
1041.676, 2937.569
1042.922, 2674.620
1044.168, 2412.377
1045.413, 2223.119
1046.659, 2031.089
1047.904, 1922.200
1049.149, 1771.558
1050.394, 1673.458
1051.639, 1440.659
1052.884, 1457.639
1054.128, 1329.354
1055.372, 1217.605
1056.616, 1226.824
1057.860, 1025.346
1059.104, 1037.187
1060.347, 1002.617
1061.590, 879.535
1062.833, 882.610
1064.076, 784.667
1065.319, 777.750
1066.561, 691.812
1067.803, 673.731
1069.046, 636.825
1070.287, 657.115
1071.529, 562.218
1072.771, 559.277
1074.012, 521.516
1075.253, 466.606
1076.494, 514.846
1077.735, 420.086
1078.975, 379.327
1080.216, 467.533
1081.456, 371.423
1082.696, 326.553
1083.936, 367.872
1085.175, 285.025
1086.415, 360.269
1087.654, 349.475
1088.893, 310.832
1090.132, 213.087
1091.371, 321.994
1092.609, 329.208
1093.847, 225.467
1095.085, 216.726
1096.323, 243.987
1097.561, 274.812
1098.799, 228.765
1100.036, 265.029
1101.273, 240.294
1102.510, 221.560
1103.747, 212.828
1104.983, 196.097
1106.220, 275.366
1107.456, 206.638
1108.692, 254.683
1109.928, 276.957
1111.163, 262.233
1112.399, 327.510
1113.634, 260.788
1114.869, 387.393
1116.104, 338.675
1117.339, 421.958
1118.573, 384.242
1119.808, 519.656
1121.042, 541.944
1122.276, 602.234
1123.509, 624.525
1124.743, 717.819
1125.976, 735.114
1127.210, 744.411
1128.443, 824.723
1129.675, 753.024
1130.908, 652.327
1132.141, 671.748
1133.373, 610.054
1134.605, 518.363
1135.837, 518.678
1137.068, 418.994
1138.300, 417.312
1139.531, 297.633
1140.762, 354.956
1141.993, 238.295
1143.224, 238.623
1144.455, 147.954
1145.685, 199.288
1146.915, 97.625
1148.145, 163.192
1149.375, 111.536
1150.605, 143.898
1151.834, 119.264
1153.063, 21.635
1154.292, 75.018
1155.521, 83.405
1156.750, 44.809
1157.978, 109.218
1159.207, 67.629
1160.435, 64.047
1161.663, 34.475
1162.891, 0.092
1164.118, 38.432
1165.345, 57.875
1166.573, 45.323
1167.800, 56.775
1169.026, 15.230
1170.253, 46.689
1171.480, 14.044
1172.706, 33.421
1173.932, 0.931
1175.158, 54.409
1176.383, 80.891
1177.609, 92.376
1178.834, 25.865
1180.059, 61.358
1181.284, 72.308
1182.509, 17.816
1183.734, 76.329
1184.958, 126.851
1186.182, 29.377
1187.406, 142.915
1188.630, 27.466
1189.854, 46.021
1191.077, 17.586
1192.301, 35.166
1193.524, 72.760
1194.747, 23.364
1195.969, 43.027
1197.192, 73.575
1198.414, 35.800
1199.636, 11.179
1200.858, 13.458
1202.080, 0.898
1203.302, 63.770
1204.523, 45.455
1205.744, 19.849
1206.966, 46.845
1208.186, 38.454
1209.407, 8.236
1210.628, 40.931
1211.848, 14.629
1213.068, 29.333
1214.288, 27.041
1215.508, 43.753
1216.727, 92.470
1217.947, 38.196
1219.166, 47.926
1220.385, 67.660
1221.604, 111.398
1222.822, 115.141
1224.041, 114.161
1225.259, 96.290
1226.477, 90.400
1227.695, 29.161
1228.913, 19.936
1230.130, 2.284
1231.348, 37.498
1232.565, 110.284
1233.782, 27.074
1234.999, 2.385
1236.215, 54.408
1237.432, 13.795
1238.648, 37.002
1239.864, 89.793
1241.080, 25.588
1242.296, 11.387
1243.511, 11.810
1244.726, 33.010
1245.942, 48.786
1247.156, 50.586
1248.371, 30.389
1249.586, 94.195
1250.800, 13.004
1252.014, 53.817
1253.228, 35.635
1254.442, 15.545
1255.656, 69.276
1256.869, 46.101
1258.083, 19.928
1259.296, 39.760
1260.509, 6.404
1261.722, 28.434
1262.934, 37.275
1264.147, 12.120
1265.359, 2.032
1266.571, 14.819
1267.783, 35.674
1268.994, 43.534
1270.206, 18.396
1271.417, 8.264
1272.628, 71.129
1273.839, 0.998
1275.050, 94.870
1276.260, 14.735
1277.471, 1.396
1278.681, 54.475
1279.891, 62.351
1281.101, 40.118
1282.310, 95.998
1283.520, 42.882
1284.729, 91.771
1285.938, 65.663
1287.147, 1.558
1288.356, 50.458
1289.564, 14.361
1290.773, 94.268
1291.981, 90.179
1293.189, 2.905
1294.397, 85.013
1295.604, 27.936
1296.812, 28.862
1298.019, 44.793
1299.226, 75.728
1300.433, 2.667
1301.640, 93.611
1302.846, 22.558
1304.053, 31.509
1305.259, 112.464
1306.465, 33.423
1307.671, 61.371
1308.876, 18.688
1310.082, 88.263
1311.287, 139.217
1312.492, 63.176
1313.697, 97.139
1314.902, 63.104
1316.106, 30.924
1317.310, 134.533
1318.515, 1.504
1319.719, 74.476
1320.922, 155.456
1322.126, 102.439
1323.329, 85.427
1324.533, 36.419
1325.736, 6.584
1326.939, 84.416
1328.141, 57.420
1329.344, 95.429
1330.546, 163.431
1331.748, 97.438
1332.950, 52.449
1334.152, 44.465
1335.354, 87.734
1336.555, 101.761
1337.757, 151.990
1338.958, 71.027
1340.159, 117.067
1341.359, 39.048
1342.560, 55.100
1343.760, 131.480
1344.960, 100.132
1346.160, 86.201
1347.360, 115.251
1348.560, 37.334
1349.759, 130.423
1350.959, 132.667
1352.158, 21.770
1353.357, 77.033
1354.555, 69.151
1355.754, 34.277
1356.952, 118.375
1358.151, 92.442
1359.349, 76.514
1360.546, 101.590
1361.744, 39.672
1362.941, 68.757
1364.139, 173.847
1365.336, 41.938
1366.533, 118.033
1367.730, 68.814
1368.926, 38.920
1370.123, 71.035
1371.319, 38.161
1372.515, 92.300
1373.711, 54.357
1374.906, 47.321
1376.102, 74.333
1377.297, 93.341
1378.492, 28.623
1379.687, 154.853
1380.882, 46.987
1382.077, 37.127
1383.271, 166.920
1384.465, 70.049
1385.659, 128.183
1386.853, 139.321
1388.047, 113.629
1389.240, 94.769
1390.434, 87.914
1391.627, 79.702
1392.820, 164.853
1394.013, 104.863
1395.205, 79.021
1396.398, 144.184
1397.590, 46.335
1398.782, 121.507
1399.974, 74.545
1401.166, 78.720
1402.357, 117.895
1403.549, 62.075
1404.740, 28.242
1405.931, 155.431
1407.122, 62.337
1408.313, 79.532
1409.503, 125.730
1410.693, 4.934
1411.883, 93.141
1413.073, 90.353
1414.263, 73.570
1415.453, 107.305
1416.642, 118.513
1417.831, 51.726
1419.020, 115.401
1420.209, 47.540
1421.398, 71.741
1422.587, 64.946
1423.775, 15.517
1424.963, 115.686
1426.151, 18.893
1427.339, 40.102
1428.526, 106.298
1429.714, 74.480
1430.901, 75.679
1432.088, 154.905
1433.275, 55.154
1434.462, 91.405
1435.648, 145.666
1436.835, 26.950
1438.021, 61.250
1439.207, 143.555
1440.393, 33.864
1441.579, 152.178
1442.764, 108.496
1443.949, 39.813
1445.135, 165.127
1446.320, 35.445
1447.504, 139.769
1448.689, 183.100
1449.873, 103.874
1451.058, 144.167
1452.242, 81.508
1453.426, 77.854
1454.609, 80.221
1455.793, 201.598
1456.976, 113.986
1458.159, 147.382
1459.342, 61.786
1460.525, 62.199
1461.708, 113.620
1462.890, 60.048
1464.073, 152.491
1465.255, 140.941
1466.437, 78.400
1467.619, 73.884
1468.800, 119.396
1469.982, 38.983
1471.163, 132.588
1472.344, 88.536
1473.525, 103.125
1474.706, 180.730
1475.886, 80.354
1477.066, 17.007
1478.247, 160.650
1479.427, 15.678
1480.607, 136.011
1481.786, 120.718
1482.966, 55.444
1484.145, 97.192
1485.324, 80.093
1486.503, 74.030
1487.682, 147.002
1488.860, 72.013
1490.039, 67.064
1491.217, 123.160
1492.395, 102.305
1493.573, 38.502
1494.751, 114.752
1495.928, 41.130
1497.106, 161.655
1498.283, 80.742
1499.460, 96.254
1500.637, 151.934
1501.814, 42.585
1502.990, 67.177
1504.166, 105.680
1505.342, 97.051
1506.518, 98.235
1507.694, 90.141
1508.870, 5.869
1510.045, 124.534
1511.221, 93.086
1512.396, 114.917
1513.571, 201.343
1514.745, 53.334
1515.920, 53.381
1517.094, 19.586
1518.269, 0.000
##END=



