##NAMES=Pyromorphite
##RRUFFID=R050085
##IDEAL CHEMISTRY=Pb^2+^_5_(PO_4_)_3_Cl
##LOCALITY=Bunker Hill mine, Shoshone County, Idaho, USA
##OWNER=RRUFF
##SOURCE=Eugene Schlepp
##DESCRIPTION=Group of orange hexagonal prisms
##STATUS=The identification of this mineral has been confirmed by X-ray diffraction and chemical analysis
##URL=rruff.info/R050085
##MEASURED CHEMISTRY=Pb_5.00_(P_0.96_As_0.04_O_4_)_3_Cl_1.00_
##PIN_ID=L00459
##ORIENTATION=Laser parallel to a* (1 0 0). Fiducial mark perpendicular to laser is parallel to c [0 0 1]
51.274, 0.000
52.673, 42.955
54.072, 153.039
55.470, 178.252
56.868, 23.941
58.266, 27.010
59.664, 36.622
61.061, 21.957
62.458, 4.446
63.855, 7.609
65.252, 16.804
66.649, 0.355
68.045, 99.458
69.441, 187.201
70.837, 375.333
72.233, 611.617
73.628, 845.833
75.023, 1242.777
76.418, 1631.265
77.813, 2243.139
79.208, 2938.263
80.602, 4159.515
81.996, 5747.796
83.390, 8279.059
84.784, 11754.311
86.178, 15470.552
87.571, 19167.738
88.964, 20875.781
90.357, 20734.592
91.749, 18874.086
93.142, 15964.196
94.534, 13844.854
95.926, 12105.990
97.318, 11267.555
98.709, 11619.505
100.101, 12871.808
101.492, 15114.434
102.883, 17537.365
104.273, 19830.578
105.664, 21154.045
107.054, 20897.766
108.444, 19131.717
109.834, 16595.883
111.223, 13860.260
112.613, 11654.926
114.002, 10060.085
115.391, 8565.895
116.780, 7572.477
118.168, 6834.792
119.556, 6012.729
120.944, 5486.156
122.332, 5000.936
123.720, 4665.782
125.107, 4312.596
126.495, 4175.363
127.882, 3881.090
129.268, 3769.806
130.655, 3683.541
132.041, 3534.265
133.427, 3553.949
134.813, 3431.583
136.199, 3478.112
137.584, 3450.508
138.970, 3541.744
140.355, 3575.910
141.740, 3693.022
143.124, 3836.097
144.509, 3963.147
145.893, 4183.187
147.277, 4412.222
148.660, 4694.256
150.044, 4789.300
151.427, 5140.354
152.810, 5338.422
154.193, 5403.504
155.576, 5615.607
156.958, 5552.731
158.341, 5543.874
159.723, 5418.038
161.105, 5219.226
162.486, 5117.434
163.867, 4676.663
165.249, 4657.913
166.630, 4300.185
168.010, 4076.477
169.391, 3837.791
170.771, 3711.128
172.151, 3514.421
173.531, 3368.732
174.911, 3257.173
176.290, 3134.963
177.669, 3095.088
179.049, 3049.401
180.427, 2964.296
181.806, 2951.138
183.184, 2891.622
184.562, 2959.886
185.940, 2874.483
187.318, 2769.258
188.696, 2829.504
190.073, 2744.767
191.450, 2798.449
192.827, 2732.486
194.204, 2677.373
195.580, 2590.310
196.956, 2557.901
198.332, 2461.144
199.708, 2426.076
201.084, 2387.560
202.459, 2349.735
203.834, 2329.349
205.209, 2304.337
206.584, 2277.614
207.958, 2215.309
209.333, 2126.397
210.707, 2142.122
212.081, 2045.412
213.454, 2057.533
214.828, 1958.644
216.201, 1919.743
217.574, 1845.243
218.947, 1690.900
220.320, 1691.126
221.692, 1580.917
223.064, 1523.793
224.436, 1373.142
225.808, 1376.904
227.179, 1317.965
228.551, 1170.252
229.922, 1161.655
231.293, 1100.135
232.663, 1000.967
234.034, 946.965
235.404, 879.104
236.774, 865.371
238.144, 751.755
239.514, 814.246
240.883, 792.835
242.252, 699.516
243.621, 698.280
244.990, 680.120
246.359, 667.032
247.727, 636.010
249.095, 642.049
250.463, 651.143
251.831, 568.288
253.198, 593.479
254.566, 462.710
255.933, 507.979
257.299, 465.282
258.666, 509.615
260.033, 469.975
261.399, 369.359
262.765, 369.766
264.131, 339.194
265.496, 349.639
266.862, 277.101
268.227, 313.577
269.592, 247.066
270.957, 215.567
272.321, 218.077
273.685, 164.596
275.050, 135.122
276.413, 116.653
277.777, 126.189
279.141, 104.726
280.504, 98.262
281.867, 102.791
283.230, 89.311
284.592, 79.243
285.955, 44.613
287.317, 41.404
288.679, 25.122
290.041, 11.253
291.403, 2.413
292.764, 13.916
294.125, 41.279
295.486, 56.557
296.847, 36.944
298.207, 25.297
299.568, 43.725
300.928, 47.071
302.288, 83.514
303.647, 83.870
305.007, 83.346
306.366, 99.697
307.725, 73.010
309.084, 92.550
310.443, 78.026
311.801, 86.305
313.159, 65.523
314.517, 90.695
315.875, 107.974
317.233, 64.151
318.590, 60.068
319.947, 64.790
321.304, 72.813
322.661, 46.314
324.018, 69.189
325.374, 49.799
326.730, 23.518
328.086, 54.552
329.442, 34.838
330.797, 35.402
332.153, 9.926
333.508, 18.076
334.863, 29.162
336.217, 38.279
337.572, 65.194
338.926, 55.055
340.280, 126.789
341.634, 124.445
342.988, 178.211
344.341, 190.829
345.694, 213.158
347.047, 237.490
348.400, 210.544
349.753, 188.464
351.105, 150.677
352.457, 111.717
353.809, 119.627
355.161, 88.602
356.512, 70.346
357.864, 61.095
359.215, 62.712
360.566, 41.363
361.916, 71.885
363.267, 40.382
364.617, 52.931
365.967, 98.572
367.317, 129.015
368.667, 158.018
370.016, 174.702
371.366, 228.940
372.715, 264.046
374.064, 313.417
375.412, 351.133
376.761, 372.111
378.109, 384.080
379.457, 383.033
380.805, 356.982
382.152, 414.929
383.500, 464.881
384.847, 544.834
386.194, 654.787
387.541, 754.755
388.887, 900.717
390.233, 985.667
391.580, 996.616
392.926, 967.549
394.271, 982.471
395.617, 896.386
396.962, 768.281
398.307, 758.160
399.652, 743.012
400.997, 695.845
402.341, 774.655
403.686, 826.443
405.030, 950.203
406.374, 1116.938
407.717, 1307.644
409.061, 1541.318
410.404, 1759.961
411.747, 2079.567
413.090, 2420.142
414.433, 2792.684
415.775, 2910.191
417.117, 3069.658
418.459, 2935.085
419.801, 2624.472
421.143, 2265.819
422.484, 1861.124
423.825, 1561.386
425.166, 1253.606
426.507, 1017.784
427.848, 901.918
429.188, 822.010
430.528, 714.057
431.868, 687.061
433.208, 623.020
434.547, 589.934
435.887, 495.804
437.226, 457.628
438.565, 403.406
439.904, 390.138
441.242, 326.825
442.580, 319.465
443.918, 294.058
445.256, 250.604
446.594, 259.103
447.932, 217.552
449.269, 231.952
450.606, 251.302
451.943, 237.051
453.280, 232.168
454.616, 235.631
455.952, 207.598
457.288, 223.468
458.624, 207.431
459.960, 218.942
461.295, 190.205
462.631, 204.120
463.966, 175.612
465.300, 183.946
466.635, 157.177
467.969, 142.247
469.304, 160.896
470.638, 143.203
471.972, 117.239
473.305, 105.719
474.639, 97.382
475.972, 96.380
477.305, 82.271
478.638, 65.637
479.970, 106.218
481.303, 60.348
482.635, 76.747
483.967, 45.834
485.298, 71.542
486.630, 32.498
487.961, 39.721
489.293, 43.953
490.624, 51.661
491.954, 52.529
493.285, 60.014
494.615, 62.858
495.945, 59.706
497.275, 70.346
498.605, 70.692
499.935, 77.023
501.264, 79.140
502.593, 66.230
503.922, 71.863
505.251, 88.679
506.579, 84.511
507.908, 105.224
509.236, 114.173
510.564, 80.873
511.891, 91.814
513.219, 101.542
514.546, 95.376
515.873, 116.094
517.200, 115.668
518.527, 132.110
519.853, 130.512
521.180, 146.095
522.506, 153.339
523.832, 147.737
525.157, 138.232
526.483, 170.062
527.808, 180.538
529.133, 210.532
530.458, 222.426
531.783, 250.511
533.107, 254.000
534.431, 308.260
535.756, 358.354
537.079, 448.414
538.403, 601.745
539.727, 694.485
541.050, 845.194
542.373, 893.752
543.696, 882.280
545.018, 745.464
546.341, 631.948
547.663, 614.653
548.985, 571.460
550.307, 626.138
551.629, 744.348
552.950, 750.051
554.271, 835.934
555.592, 831.131
556.913, 761.988
558.234, 681.277
559.554, 623.767
560.875, 592.713
562.195, 564.273
563.514, 598.435
564.834, 615.220
566.154, 714.378
567.473, 864.062
568.792, 1048.446
570.111, 1402.403
571.429, 1825.482
572.748, 2250.940
574.066, 2464.023
575.384, 2269.464
576.702, 1961.839
578.019, 1567.094
579.337, 1227.348
580.654, 941.496
581.971, 778.589
583.288, 666.629
584.605, 583.616
585.921, 506.550
587.237, 468.444
588.553, 420.272
589.869, 403.047
591.185, 387.770
592.500, 355.440
593.815, 354.058
595.130, 352.624
596.445, 349.139
597.760, 339.601
599.074, 327.012
600.389, 336.372
601.703, 301.681
603.016, 306.939
604.330, 324.980
605.644, 314.001
606.957, 321.792
608.270, 316.193
609.583, 317.410
610.895, 297.123
612.208, 298.762
613.520, 281.369
614.832, 256.825
616.144, 284.321
617.455, 270.715
618.767, 286.118
620.078, 281.371
621.389, 260.657
622.700, 246.788
624.011, 238.977
625.321, 233.975
626.631, 214.871
627.941, 207.929
629.251, 216.860
630.561, 190.529
631.870, 184.073
633.180, 168.505
634.489, 140.980
635.798, 169.288
637.106, 142.270
638.415, 145.992
639.723, 163.950
641.031, 127.322
642.339, 106.002
643.647, 94.349
644.954, 106.738
646.261, 97.376
647.568, 76.199
648.875, 90.232
650.182, 76.305
651.488, 58.487
652.795, 67.664
654.101, 41.734
655.407, 59.911
656.712, 72.038
658.018, 30.197
659.323, 55.310
660.628, 15.180
661.933, 30.057
663.238, 7.086
664.542, 6.975
665.847, 18.991
667.151, 3.015
668.455, 3.386
669.758, 20.742
671.062, 24.087
672.365, 10.623
673.668, 12.029
674.971, 13.524
676.274, 30.964
677.577, 11.516
678.879, 32.011
680.181, 46.559
681.483, 29.239
682.785, 46.085
684.086, 40.814
685.388, 49.585
686.689, 49.309
687.990, 22.094
689.290, 46.816
690.591, 29.608
691.891, 29.366
693.192, 47.182
694.491, 22.063
695.791, 46.996
697.091, 48.992
698.390, 65.052
699.689, 51.182
700.988, 32.373
702.287, 71.615
703.586, 45.926
704.884, 34.292
706.182, 82.706
707.480, 30.191
708.778, 56.719
710.076, 78.301
711.373, 37.949
712.670, 51.638
713.968, 26.376
715.264, 51.147
716.561, 43.964
717.857, 57.820
719.154, 33.721
720.450, 48.655
721.746, 38.627
723.041, 30.632
724.337, 25.666
725.632, 15.724
726.927, 46.804
728.222, 34.915
729.517, 27.053
730.811, 4.212
732.105, 3.387
733.400, 34.422
734.693, 2.781
735.987, 7.002
737.281, 27.773
738.574, 17.533
739.867, 18.282
741.160, 27.740
742.453, 1.749
743.745, 33.468
745.038, 26.179
746.330, 15.882
747.622, 56.577
748.913, 59.266
750.205, 67.948
751.496, 44.624
752.788, 63.396
754.079, 102.961
755.369, 91.624
756.660, 111.282
757.950, 142.938
759.241, 185.591
760.531, 163.243
761.820, 210.895
763.110, 218.547
764.399, 244.200
765.689, 331.854
766.978, 328.510
768.267, 328.168
769.555, 455.830
770.844, 454.495
772.132, 504.165
773.420, 573.840
774.708, 654.519
775.996, 706.205
777.283, 798.098
778.570, 893.597
779.857, 985.304
781.144, 1079.020
782.431, 1204.706
783.718, 1325.383
785.004, 1470.120
786.290, 1609.771
787.576, 1686.420
788.862, 1896.030
790.147, 1943.545
791.433, 1947.214
792.718, 2144.799
794.003, 2054.427
795.288, 2187.161
796.572, 2241.758
797.857, 2153.175
799.141, 2156.450
800.425, 2110.984
801.709, 2096.443
802.992, 1938.551
804.276, 1920.011
805.559, 1904.257
806.842, 1859.102
808.125, 1943.271
809.407, 2091.711
810.690, 2291.820
811.972, 2716.301
813.254, 3175.531
814.536, 4215.733
815.818, 5242.436
817.099, 6474.924
818.381, 7388.366
819.662, 7082.899
820.943, 6538.167
822.223, 5899.659
823.504, 5480.847
824.784, 5347.051
826.065, 5010.147
827.345, 4616.197
828.624, 4165.266
829.904, 3606.351
831.183, 3277.452
832.462, 2956.887
833.741, 2901.149
835.020, 2989.615
836.299, 3121.288
837.577, 3346.024
838.856, 3347.215
840.134, 3275.980
841.412, 3308.891
842.689, 3142.639
843.967, 3408.966
845.244, 3677.506
846.521, 4190.197
847.798, 4903.906
849.075, 5474.330
850.351, 5931.330
851.628, 5898.346
852.904, 5430.500
854.180, 4648.672
855.455, 3579.174
856.731, 2529.364
858.006, 1810.320
859.281, 1201.161
860.556, 831.122
861.831, 535.538
863.106, 363.450
864.380, 301.172
865.655, 197.570
866.929, 202.298
868.202, 155.585
869.476, 144.663
870.750, 154.276
872.023, 162.271
873.296, 196.661
874.569, 224.428
875.842, 233.823
877.114, 280.692
878.386, 275.876
879.658, 268.493
880.930, 293.002
882.202, 288.143
883.474, 379.669
884.745, 356.847
886.016, 503.106
887.287, 499.494
888.558, 584.897
889.829, 712.425
891.099, 780.018
892.369, 882.681
893.639, 969.405
894.909, 1054.197
896.179, 1279.043
897.448, 1374.968
898.718, 1662.960
899.987, 1918.018
901.256, 2225.138
902.524, 2751.330
903.793, 3290.584
905.061, 4026.901
906.329, 5151.283
907.597, 6325.730
908.865, 8194.241
910.133, 10311.823
911.400, 13389.469
912.667, 17987.188
913.934, 24044.973
915.201, 32692.830
916.468, 42240.750
917.734, 50838.734
919.001, 54366.797
920.267, 49394.914
921.532, 41183.109
922.798, 33711.367
924.064, 25849.684
925.329, 20748.074
926.594, 16086.527
927.859, 12825.046
929.124, 10363.627
930.388, 8742.266
931.653, 7536.976
932.917, 6908.745
934.181, 6326.576
935.445, 6449.467
936.708, 6285.417
937.972, 6651.431
939.235, 7510.508
940.498, 7846.646
941.761, 9012.853
943.024, 9362.123
944.286, 9701.453
945.548, 10050.851
946.811, 9590.309
948.072, 9259.831
949.334, 8199.418
950.596, 7340.066
951.857, 6565.784
953.118, 5488.562
954.379, 4702.407
955.640, 4089.317
956.901, 3448.293
958.161, 3018.339
959.421, 2605.450
960.681, 2235.625
961.941, 2136.870
963.201, 1766.181
964.460, 1771.553
965.720, 1531.996
966.979, 1458.506
968.238, 1487.087
969.496, 1423.738
970.755, 1410.463
972.013, 1469.263
973.272, 1319.135
974.529, 1410.080
975.787, 1321.100
977.045, 1293.199
978.302, 1269.377
979.560, 1283.633
980.817, 1229.964
982.073, 1187.371
983.330, 1189.860
984.587, 1184.423
985.843, 1185.067
987.099, 1188.795
988.355, 1133.601
989.611, 1137.489
990.866, 1208.458
992.122, 1257.508
993.377, 1231.641
994.632, 1376.847
995.887, 1386.131
997.141, 1561.490
998.396, 1718.921
999.650, 1853.430
1000.904, 2007.008
1002.158, 2255.662
1003.412, 2491.393
1004.665, 2712.204
1005.918, 2849.091
1007.172, 3123.048
1008.425, 3113.083
1009.677, 3356.191
1010.930, 3298.368
1012.182, 3148.624
1013.434, 3197.947
1014.687, 2932.342
1015.938, 2756.815
1017.190, 2669.352
1018.441, 2352.959
1019.693, 2311.682
1020.944, 2022.421
1022.195, 1874.837
1023.445, 1741.418
1024.696, 1596.214
1025.946, 1426.439
1027.197, 1334.133
1028.446, 1139.563
1029.696, 1112.645
1030.946, 925.853
1032.195, 862.520
1033.445, 806.920
1034.694, 767.373
1035.942, 746.691
1037.191, 719.031
1038.440, 663.241
1039.688, 725.156
1040.936, 702.835
1042.184, 721.249
1043.432, 842.068
1044.679, 754.101
1045.927, 795.200
1047.174, 695.468
1048.421, 727.542
1049.668, 618.886
1050.914, 569.959
1052.161, 525.698
1053.407, 505.429
1054.653, 458.066
1055.899, 530.684
1057.145, 454.916
1058.391, 439.522
1059.636, 484.095
1060.881, 427.950
1062.126, 451.221
1063.371, 412.324
1064.615, 428.868
1065.860, 474.829
1067.104, 479.458
1068.348, 503.010
1069.592, 546.362
1070.836, 539.708
1072.079, 624.224
1073.323, 651.855
1074.566, 605.294
1075.809, 655.912
1077.052, 595.684
1078.294, 632.243
1079.537, 615.624
1080.779, 564.588
1082.021, 565.915
1083.263, 488.502
1084.504, 481.933
1085.746, 490.884
1086.987, 413.893
1088.228, 470.846
1089.469, 496.534
1090.710, 454.476
1091.951, 469.130
1093.191, 437.739
1094.431, 488.941
1095.671, 470.606
1096.911, 387.343
1098.151, 421.693
1099.390, 436.267
1100.630, 360.729
1101.869, 371.440
1103.108, 338.445
1104.346, 306.122
1105.585, 377.861
1106.823, 263.418
1108.062, 304.481
1109.300, 211.928
1110.537, 228.818
1111.775, 269.748
1113.013, 173.280
1114.250, 211.350
1115.487, 206.438
1116.724, 166.287
1117.961, 206.440
1119.197, 166.586
1120.434, 213.002
1121.670, 273.433
1122.906, 278.210
1124.142, 296.450
1125.377, 366.477
1126.613, 480.240
1127.848, 526.803
1129.083, 521.906
1130.318, 494.131
1131.553, 587.639
1132.787, 452.798
1134.022, 434.317
1135.256, 455.875
1136.490, 332.937
1137.724, 427.289
1138.957, 313.700
1140.191, 353.046
1141.424, 382.513
1142.657, 368.762
1143.890, 414.743
1145.123, 435.055
1146.355, 395.933
1147.588, 439.089
1148.820, 385.211
1150.052, 403.413
1151.284, 388.763
1152.516, 356.761
1153.747, 297.254
1154.978, 316.275
1156.209, 196.432
1157.440, 218.632
1158.671, 181.929
1159.902, 127.744
1161.132, 148.135
1162.362, 71.572
1163.592, 59.421
1164.822, 28.334
1166.052, 4.372
1167.281, 2.011
1168.511, 3.518
1169.740, 24.433
1170.969, 26.539
1172.197, 53.786
1173.426, 38.097
1174.654, 46.324
1175.883, 97.498
1177.111, 69.825
1178.338, 88.161
1179.566, 75.565
1180.794, 68.066
1182.021, 66.519
1183.248, 79.958
1184.475, 59.594
1185.702, 73.211
1186.928, 83.027
1188.155, 58.802
1189.381, 69.638
1190.607, 38.485
1191.833, 58.442
1193.059, 57.221
1194.284, 40.191
1195.509, 52.268
1196.735, 37.351
1197.960, 30.319
1199.184, 56.766
1200.409, 19.981
1201.633, 16.236
1202.858, 31.546
1204.082, 22.874
1205.306, 27.230
1206.529, 24.645
1207.753, 27.116
1208.976, 31.633
1210.199, 26.859
1211.422, 31.828
1212.645, 20.507
1213.868, 13.231
1215.090, 10.018
1216.313, 4.884
1217.535, 18.789
1218.757, 3.684
1219.978, 13.305
1221.200, 14.649
1222.421, 0.255
1223.643, 17.287
1224.864, 24.089
1226.084, 30.786
1227.305, 1.846
1228.526, 37.596
1229.746, 33.351
1230.966, 40.156
1232.186, 62.805
1233.406, 30.474
1234.625, 34.124
1235.845, 43.648
1237.064, 39.281
1238.283, 24.831
1239.502, 54.284
1240.721, 39.670
1241.939, 57.971
1243.157, 58.268
1244.376, 42.770
1245.594, 70.080
1246.811, 44.298
1248.029, 70.466
1249.247, 62.515
1250.464, 77.518
1251.681, 45.593
1252.898, 52.492
1254.115, 70.480
1255.331, 104.535
1256.548, 82.477
1257.764, 83.454
1258.980, 109.214
1260.196, 82.895
1261.411, 84.611
1262.627, 98.126
1263.842, 86.725
1265.057, 89.307
1266.272, 80.828
1267.487, 82.505
1268.702, 117.097
1269.916, 94.482
1271.130, 107.093
1272.344, 127.463
1273.558, 87.752
1274.772, 110.123
1275.986, 106.370
1277.199, 95.712
1278.412, 113.789
1279.625, 98.844
1280.838, 99.038
1282.051, 125.991
1283.263, 111.899
1284.475, 110.795
1285.687, 115.591
1286.899, 111.429
1288.111, 124.210
1289.323, 144.070
1290.534, 123.857
1291.745, 157.817
1292.957, 136.452
1294.167, 140.015
1295.378, 136.633
1296.589, 129.051
1297.799, 154.535
1299.009, 123.974
1300.219, 155.375
1301.429, 145.843
1302.639, 144.044
1303.848, 139.270
1305.057, 183.458
1306.267, 135.459
1307.476, 133.554
1308.684, 180.526
1309.893, 173.553
1311.101, 162.538
1312.310, 144.358
1313.518, 183.013
1314.725, 162.939
1315.933, 175.967
1317.141, 192.090
1318.348, 199.905
1319.555, 182.205
1320.762, 172.033
1321.969, 181.076
1323.176, 175.466
1324.382, 174.893
1325.589, 179.857
1326.795, 166.279
1328.001, 157.444
1329.206, 173.654
1330.412, 163.487
1331.617, 191.826
1332.823, 165.615
1334.028, 166.489
1335.233, 156.775
1336.437, 171.444
1337.642, 134.611
1338.846, 149.023
1340.051, 162.298
1341.255, 149.924
1342.458, 171.063
1343.662, 154.662
1344.866, 143.434
1346.069, 143.157
1347.272, 147.206
1348.475, 138.984
1349.678, 134.052
1350.880, 135.825
1352.083, 136.533
1353.285, 133.985
1354.487, 132.823
1355.689, 131.313
1356.891, 129.104
1358.093, 128.531
1359.294, 131.192
1360.495, 138.234
1361.696, 136.372
1362.897, 119.187
1364.098, 134.636
1365.298, 110.758
1366.499, 129.027
1367.699, 96.067
1368.899, 129.896
1370.099, 124.866
1371.298, 86.876
1372.498, 108.165
1373.697, 99.986
1374.896, 88.468
1376.095, 101.994
1377.294, 94.890
1378.493, 90.633
1379.691, 99.332
1380.889, 80.209
1382.087, 83.762
1383.285, 89.732
1384.483, 93.099
1385.681, 100.240
1386.878, 94.015
1388.075, 67.938
1389.272, 82.707
1390.469, 88.237
1391.666, 90.114
1392.862, 107.846
1394.059, 109.287
1395.255, 87.910
1396.451, 114.358
1397.647, 87.158
1398.842, 73.847
1400.038, 82.419
1401.233, 72.934
1402.428, 97.992
1403.623, 105.494
1404.818, 86.695
1406.013, 123.405
1407.207, 92.071
1408.401, 85.156
1409.595, 89.466
1410.789, 61.318
1411.983, 65.029
1413.177, 87.412
1414.370, 52.868
1415.563, 72.511
1416.756, 75.074
1417.949, 58.898
1419.142, 66.801
1420.335, 50.147
1421.527, 76.656
1422.719, 70.221
1423.911, 47.508
1425.103, 69.865
1426.295, 69.259
1427.486, 62.555
1428.677, 72.098
1429.869, 56.603
1431.060, 57.128
1432.250, 41.273
1433.441, 43.757
1434.632, 25.356
1435.822, 49.740
1437.012, 52.113
1438.202, 39.399
1439.392, 58.726
1440.581, 43.071
1441.771, 42.424
1442.960, 40.883
1444.149, 29.268
1445.338, 53.615
1446.527, 43.789
1447.715, 42.282
1448.904, 67.182
1450.092, 41.050
1451.280, 50.048
1452.468, 36.975
1453.656, 35.518
1454.843, 50.365
1456.031, 65.329
1457.218, 24.454
1458.405, 56.068
1459.592, 23.000
1460.778, 33.690
1461.965, 45.776
1463.151, 48.698
1464.337, 62.281
1465.523, 63.915
1466.709, 33.202
1467.895, 33.946
1469.080, 14.719
1470.266, 34.943
1471.451, 52.453
1472.636, 2.424
1473.821, 45.359
1475.005, 21.490
1476.190, 41.988
1477.374, 20.346
1478.558, 54.008
1479.742, 4.384
1480.926, 42.229
1482.109, 32.628
1483.293, 13.616
1484.476, 38.948
1485.659, 12.995
1486.842, 29.048
1488.025, 35.652
1489.207, 7.507
1490.390, 41.299
1491.572, 58.866
1492.754, 33.509
1493.936, 52.279
1495.118, 41.450
1496.299, 34.877
