##NAMES=Pyromorphite
##RRUFFID=R050027
##IDEAL CHEMISTRY=Pb^2+^_5_(PO_4_)_3_Cl
##LOCALITY=Yangshuo, Guangxi Autonomous Region, China
##OWNER=RRUFF
##SOURCE=Eugene Schlepp
##DESCRIPTION=Light green hexagonal prismatic hoppered single crystals
##STATUS=The identification of this mineral has been confirmed by X-ray diffraction and chemical analysis
##URL=rruff.info/R050027
##MEASURED CHEMISTRY=Pb_5.00_(P_1.00_O_4_)_3_Cl_1.00_
##PIN_ID=L00481
##ORIENTATION=Laser parallel to -a* (-1 0 0). Fiducial mark perpendicular to laser is parallel to -c [0 0 -1]
46.637, 0.000
48.043, 56.838
49.450, 75.215
50.856, 124.291
52.261, 128.181
53.667, 236.795
55.072, 333.695
56.477, 372.841
57.882, 418.255
59.287, 497.746
60.691, 485.178
62.095, 535.167
63.499, 590.984
64.903, 466.099
66.306, 401.390
67.709, 262.221
69.112, 185.550
70.515, 132.341
71.917, 71.558
73.319, 45.164
74.721, 4.126
76.123, 43.583
77.525, 29.992
78.926, 35.120
80.327, 52.986
81.728, 94.392
83.128, 228.009
84.529, 600.864
85.929, 1172.944
87.329, 1977.240
88.728, 2914.738
90.128, 3361.429
91.527, 3402.305
92.926, 3172.353
94.324, 2836.560
95.723, 2712.910
97.121, 2676.385
98.519, 3003.969
99.917, 3747.653
101.314, 5279.435
102.712, 7437.312
104.109, 9867.275
105.505, 11865.328
106.902, 12173.462
108.298, 11861.677
109.694, 10509.973
111.090, 8998.347
112.486, 7488.791
113.881, 6627.313
115.277, 5745.913
116.672, 5132.595
118.066, 4577.431
119.461, 4234.464
120.855, 3971.602
122.249, 3697.816
123.643, 3451.093
125.036, 3388.452
126.430, 3289.901
127.823, 3194.405
129.216, 3152.064
130.608, 3087.574
132.001, 3081.275
133.393, 3041.052
134.785, 3051.893
136.176, 3075.781
137.568, 3208.701
138.959, 3139.633
140.350, 3343.565
141.741, 3386.495
143.131, 3613.409
144.521, 3750.284
145.911, 4072.046
147.301, 4251.694
148.691, 4611.319
150.080, 4972.969
151.469, 5162.646
152.858, 5359.347
154.247, 5581.075
155.635, 5686.830
157.024, 5805.613
158.411, 5677.420
159.799, 5568.257
161.187, 5391.119
162.574, 5044.009
163.961, 4825.925
165.348, 4593.868
166.734, 4410.841
168.121, 4135.845
169.507, 3985.877
170.893, 3755.937
172.278, 3704.024
173.664, 3544.138
175.049, 3384.280
176.434, 3259.451
177.819, 3195.654
179.203, 3177.885
180.587, 3023.482
181.971, 2958.789
183.355, 2937.136
184.739, 2848.693
186.122, 2866.831
187.505, 2770.933
188.888, 2760.936
190.271, 2738.188
191.653, 2712.338
193.035, 2710.918
194.417, 2629.085
195.799, 2602.412
197.180, 2581.977
198.562, 2568.105
199.943, 2462.790
201.324, 2424.871
202.704, 2426.728
204.084, 2379.073
205.465, 2361.479
206.844, 2269.199
208.224, 2345.162
209.603, 2248.381
210.983, 2247.079
212.362, 2222.746
213.740, 2145.285
215.119, 2124.814
216.497, 1982.232
217.875, 1996.492
219.253, 1842.574
220.631, 1803.469
222.008, 1683.114
223.385, 1636.557
224.762, 1532.828
226.139, 1424.903
227.515, 1436.719
228.891, 1335.082
230.267, 1295.059
231.643, 1185.067
233.018, 1142.125
234.394, 1087.109
235.769, 1080.855
237.144, 1002.368
238.518, 961.399
239.893, 977.179
241.267, 917.002
242.641, 874.068
244.014, 839.202
245.388, 791.219
246.761, 790.311
248.134, 764.220
249.507, 742.723
250.879, 729.253
252.252, 725.811
253.624, 687.394
254.996, 648.002
256.367, 671.633
257.739, 616.288
259.110, 625.964
260.481, 568.661
261.852, 589.379
263.222, 580.117
264.592, 551.874
265.962, 517.650
267.332, 478.444
268.702, 447.256
270.071, 430.086
271.440, 397.932
272.809, 412.795
274.178, 365.674
275.546, 377.569
276.915, 375.478
278.283, 333.403
279.650, 289.342
281.018, 284.295
282.385, 248.339
283.752, 218.461
285.119, 225.651
286.486, 201.866
287.852, 198.986
289.218, 183.042
290.584, 171.219
291.950, 151.424
293.316, 119.645
294.681, 96.729
296.046, 105.917
297.411, 81.153
298.775, 98.373
300.140, 103.653
301.504, 83.971
302.868, 85.315
304.231, 84.698
305.595, 53.212
306.958, 31.647
308.321, 43.011
309.684, 6.371
311.047, 11.497
312.409, 30.861
313.771, 24.864
315.133, 8.238
316.495, 30.616
317.856, 24.007
319.217, 19.980
320.578, 3.268
321.939, 4.025
323.299, 17.085
324.660, 18.630
326.020, 24.857
327.380, 26.318
328.739, 53.026
330.099, 42.600
331.458, 42.713
332.817, 29.837
334.176, 12.155
335.534, 25.876
336.892, 14.069
338.251, 15.597
339.608, 15.924
340.966, 18.506
342.323, 7.934
343.681, 24.235
345.037, 20.703
346.394, 18.052
347.751, 13.507
349.107, 29.905
350.463, 2.169
351.819, 32.378
353.174, 3.091
354.530, 1.560
355.885, 5.901
357.240, 21.701
358.594, 20.376
359.949, 12.922
361.303, 17.755
362.657, 12.508
364.011, 19.783
365.365, 28.997
366.718, 6.780
368.071, 13.565
369.424, 28.648
370.777, 58.867
372.129, 19.088
373.481, 46.311
374.833, 80.537
376.185, 94.765
377.537, 91.993
378.888, 124.214
380.239, 117.433
381.590, 159.648
382.941, 200.863
384.291, 236.084
385.642, 356.307
386.992, 441.537
388.341, 519.768
389.691, 623.007
391.040, 721.255
392.389, 726.507
393.738, 741.772
395.087, 706.038
396.435, 641.311
397.784, 537.586
399.132, 493.860
400.479, 528.144
401.827, 489.434
403.174, 553.746
404.521, 645.071
405.868, 772.421
407.215, 897.787
408.561, 1076.174
409.908, 1336.590
411.254, 1541.008
412.599, 1871.429
413.945, 2193.854
415.290, 2584.277
416.636, 2709.704
417.980, 2748.137
419.325, 2554.566
420.670, 2130.000
422.014, 1797.437
423.358, 1351.877
424.702, 1047.314
426.045, 778.754
427.389, 599.202
428.732, 510.652
430.075, 334.104
431.417, 303.557
432.760, 243.009
434.102, 172.456
435.444, 155.900
436.786, 123.338
438.127, 145.769
439.469, 62.191
440.810, 71.605
442.151, 66.010
443.492, 44.404
444.832, 29.791
446.172, 17.166
447.512, 14.528
448.852, 40.878
450.192, 59.215
451.531, 33.541
452.870, 29.855
454.209, 29.155
455.548, 64.442
456.887, 42.717
458.225, 33.979
459.563, 40.226
460.901, 28.474
462.238, 21.694
463.576, 18.070
464.913, 14.005
466.250, 10.314
467.587, 13.470
468.923, 22.712
470.259, 25.896
471.596, 14.936
472.931, 30.883
474.267, 4.042
475.603, 32.125
476.938, 33.276
478.273, 32.639
479.608, 9.588
480.942, 5.617
482.276, 29.772
483.611, 10.117
484.944, 26.581
486.278, 12.981
487.612, 19.297
488.945, 13.498
490.278, 33.986
491.611, 53.388
492.943, 31.776
494.276, 11.855
495.608, 0.297
496.940, 5.986
498.271, 17.973
499.603, 24.938
500.934, 39.787
502.265, 35.568
503.596, 70.854
504.927, 33.464
506.257, 63.806
507.587, 44.211
508.917, 51.970
510.247, 88.321
511.577, 43.892
512.906, 36.179
514.235, 62.277
515.564, 35.426
516.892, 50.283
518.221, 66.279
519.549, 73.423
520.877, 69.904
522.205, 87.307
523.533, 90.614
524.860, 106.782
526.187, 108.405
527.514, 109.260
528.841, 125.041
530.167, 161.188
531.493, 125.573
532.820, 158.272
534.145, 200.454
535.471, 245.637
536.796, 300.544
538.122, 421.389
539.447, 532.709
540.771, 715.870
542.096, 805.548
543.420, 777.756
544.744, 674.422
546.068, 534.241
547.392, 452.524
548.715, 400.345
550.039, 386.821
551.362, 511.950
552.684, 575.683
554.007, 649.741
555.329, 621.419
556.652, 634.356
557.973, 514.062
559.295, 472.733
560.617, 403.815
561.938, 388.455
563.259, 367.188
564.580, 414.031
565.901, 438.577
567.221, 547.387
568.541, 677.062
569.861, 947.342
571.181, 1340.237
572.501, 1868.686
573.820, 2302.429
575.139, 2421.047
576.458, 2219.969
577.777, 1680.471
579.095, 1265.255
580.414, 915.469
581.732, 743.867
583.049, 569.728
584.367, 485.058
585.685, 398.642
587.002, 349.034
588.319, 327.991
589.636, 263.896
590.952, 273.456
592.268, 278.320
593.585, 260.246
594.900, 248.880
596.216, 218.157
597.532, 253.025
598.847, 274.232
600.162, 207.031
601.477, 237.801
602.792, 231.080
604.106, 254.648
605.420, 228.131
606.734, 226.571
608.048, 225.998
609.361, 224.649
610.675, 213.069
611.988, 212.442
613.301, 198.779
614.614, 218.232
615.926, 175.561
617.238, 183.820
618.550, 162.074
619.862, 174.246
621.174, 165.357
622.485, 163.422
623.797, 149.424
625.108, 163.274
626.418, 135.179
627.729, 144.133
629.039, 143.068
630.349, 160.211
631.659, 130.105
632.969, 141.333
634.279, 120.170
635.588, 130.979
636.897, 124.755
638.206, 133.926
639.515, 126.187
640.823, 118.104
642.131, 103.293
643.439, 99.894
644.747, 75.154
646.055, 76.625
647.362, 45.319
648.669, 72.854
649.976, 70.450
651.283, 60.938
652.589, 84.144
653.896, 42.729
655.202, 52.620
656.508, 58.904
657.814, 40.212
659.119, 37.554
660.424, 38.668
661.729, 29.250
663.034, 35.458
664.339, 31.746
665.643, 35.933
666.947, 31.112
668.251, 21.406
669.555, 22.230
670.859, 31.478
672.162, 26.557
673.465, 36.487
674.768, 38.448
676.071, 8.452
677.373, 15.446
678.676, 9.614
679.978, 20.653
681.280, 19.256
682.581, 7.812
683.883, 17.076
685.184, 11.934
686.485, 3.240
687.786, 8.546
689.087, 1.180
690.387, 10.012
691.687, 8.694
692.987, 4.657
694.287, 12.954
695.586, 2.535
696.886, 4.081
698.185, 5.405
699.484, 30.928
700.783, 7.501
702.081, 27.039
703.379, 3.767
704.677, 29.458
705.975, 25.195
707.273, 4.976
708.570, 31.790
709.868, 11.350
711.165, 17.533
712.462, 10.547
713.758, 25.604
715.055, 21.358
716.351, 2.643
717.647, 55.380
718.943, 10.457
720.238, 13.563
721.533, 12.301
722.829, 15.854
724.124, 31.039
725.418, 10.260
726.713, 21.508
728.007, 31.787
729.301, 5.101
730.595, 37.435
731.889, 43.807
733.182, 4.218
734.476, 44.647
735.769, 37.114
737.061, 41.615
738.354, 17.151
739.647, 43.708
740.939, 65.299
742.231, 47.935
743.523, 42.605
744.814, 43.307
746.106, 39.039
747.397, 26.798
748.688, 29.578
749.978, 24.380
751.269, 16.200
752.559, 0.964
753.849, 16.883
755.139, 20.255
756.429, 20.383
757.719, 25.499
759.008, 26.604
760.297, 14.697
761.586, 72.783
762.875, 48.861
764.163, 41.931
765.451, 72.993
766.739, 91.049
768.027, 97.097
769.315, 110.139
770.602, 108.174
771.890, 115.204
773.177, 139.228
774.463, 154.234
775.750, 152.248
777.036, 205.257
778.323, 171.263
779.609, 171.215
780.894, 243.215
782.180, 236.112
783.465, 270.047
784.750, 268.980
786.035, 299.978
787.320, 323.876
788.605, 388.830
789.889, 420.698
791.173, 417.615
792.457, 426.535
793.741, 505.510
795.024, 528.470
796.307, 523.425
797.591, 533.327
798.873, 521.101
800.156, 479.946
801.439, 486.704
802.721, 427.886
804.003, 406.654
805.285, 347.406
806.566, 318.026
807.848, 329.928
809.129, 273.185
810.410, 213.728
811.691, 231.420
812.971, 204.698
814.252, 198.929
815.532, 235.222
816.812, 252.240
818.092, 291.104
819.371, 305.267
820.651, 331.765
821.930, 340.238
823.209, 385.134
824.488, 413.106
825.766, 457.453
827.045, 441.672
828.323, 390.244
829.601, 301.903
830.878, 245.453
832.156, 170.393
833.433, 154.943
834.710, 139.848
835.987, 61.094
837.264, 93.907
838.540, 91.162
839.817, 111.237
841.093, 86.496
842.369, 129.510
843.644, 148.158
844.920, 128.356
846.195, 178.546
847.470, 250.003
848.745, 305.514
850.020, 386.541
851.294, 443.721
852.568, 461.376
853.842, 363.493
855.116, 286.145
856.390, 209.638
857.663, 112.659
858.936, 94.137
860.209, 57.954
861.482, 40.110
862.755, 52.657
864.027, 5.873
865.299, 53.463
866.571, 58.789
867.843, 92.341
869.115, 105.922
870.386, 77.087
871.657, 84.690
872.928, 127.194
874.199, 137.586
875.470, 169.268
876.740, 167.683
878.010, 203.229
879.280, 269.169
880.550, 324.490
881.820, 382.263
883.089, 388.742
884.358, 445.351
885.627, 475.652
886.896, 520.369
888.164, 649.812
889.433, 748.836
890.701, 857.683
891.969, 934.067
893.236, 1018.992
894.504, 1123.665
895.771, 1169.539
897.038, 1249.851
898.305, 1489.220
899.572, 1613.943
900.838, 1817.365
902.105, 2242.728
903.371, 2533.393
904.637, 3088.416
905.902, 3669.846
907.168, 4717.943
908.433, 5896.461
909.698, 7455.016
910.963, 9806.993
912.228, 12853.624
913.492, 17740.285
914.757, 24856.979
916.021, 34483.703
917.285, 47500.477
918.548, 56097.281
919.812, 57354.133
921.075, 48691.027
922.338, 37787.945
923.601, 28124.900
924.864, 20891.889
926.126, 15748.906
927.388, 12265.966
928.650, 9423.061
929.912, 7760.193
931.174, 6599.355
932.435, 5905.555
933.697, 5575.797
934.958, 5534.072
936.218, 5633.387
937.479, 6001.745
938.739, 6539.135
940.000, 7325.571
941.260, 7986.039
942.520, 8773.547
943.779, 9731.097
945.039, 10238.677
946.298, 10516.306
947.557, 10253.968
948.816, 9411.667
950.074, 8649.404
951.333, 7527.175
952.591, 6567.980
953.849, 5595.821
955.107, 4712.704
956.365, 4098.625
957.622, 3490.587
958.879, 2920.586
960.136, 2596.625
961.393, 2220.703
962.650, 2081.816
963.906, 1892.966
965.162, 1674.152
966.418, 1599.379
967.674, 1447.645
968.930, 1404.953
970.185, 1400.303
971.441, 1360.692
972.696, 1329.122
973.950, 1283.592
975.205, 1355.105
976.459, 1316.661
977.714, 1326.259
978.968, 1367.899
980.222, 1342.578
981.475, 1302.297
982.729, 1381.060
983.982, 1270.866
985.235, 1270.720
986.488, 1267.627
987.740, 1230.576
988.993, 1254.570
990.245, 1231.604
991.497, 1290.677
992.749, 1303.792
994.000, 1290.948
995.252, 1394.148
996.503, 1431.387
997.754, 1614.664
999.005, 1805.985
1000.256, 1955.342
1001.506, 2169.740
1002.756, 2388.179
1004.006, 2658.661
1005.256, 3017.194
1006.506, 3294.772
1007.755, 3587.399
1009.005, 3732.067
1010.254, 3772.783
1011.502, 3865.545
1012.751, 3703.348
1014.000, 3608.196
1015.248, 3379.086
1016.496, 3086.015
1017.744, 2972.979
1018.991, 2673.977
1020.239, 2516.016
1021.486, 2373.090
1022.733, 2148.213
1023.980, 1934.375
1025.227, 1787.600
1026.473, 1570.833
1027.719, 1525.104
1028.965, 1342.340
1030.211, 1245.795
1031.457, 1114.812
1032.702, 959.341
1033.948, 995.341
1035.193, 848.903
1036.438, 818.448
1037.682, 809.997
1038.927, 820.016
1040.171, 795.567
1041.415, 791.945
1042.659, 854.248
1043.903, 901.920
1045.146, 874.065
1046.390, 880.972
1047.633, 819.308
1048.876, 736.485
1050.118, 652.134
1051.361, 589.298
1052.603, 542.750
1053.845, 507.685
1055.087, 510.974
1056.329, 479.287
1057.571, 485.900
1058.812, 492.509
1060.053, 473.129
1061.294, 515.192
1062.535, 459.512
1063.775, 532.773
1065.016, 481.405
1066.256, 541.705
1067.496, 508.420
1068.736, 561.982
1069.975, 628.632
1071.214, 624.307
1072.454, 640.377
1073.693, 727.824
1074.931, 699.293
1076.170, 651.551
1077.408, 673.319
1078.647, 590.073
1079.885, 614.629
1081.122, 612.910
1082.360, 582.171
1083.597, 565.796
1084.835, 564.319
1086.072, 553.479
1087.308, 561.898
1088.545, 554.398
1089.781, 554.136
1091.018, 561.370
1092.254, 591.601
1093.490, 564.365
1094.725, 590.042
1095.961, 613.464
1097.196, 579.565
1098.431, 553.640
1099.666, 514.487
1100.900, 463.552
1102.135, 499.826
1103.369, 451.703
1104.603, 453.509
1105.837, 405.720
1107.071, 355.020
1108.304, 423.406
1109.538, 320.662
1110.771, 352.694
1112.004, 303.749
1113.236, 321.893
1114.469, 301.487
1115.701, 300.029
1116.933, 241.970
1118.165, 236.725
1119.397, 236.335
1120.629, 222.036
1121.860, 241.878
1123.091, 289.877
1124.322, 215.903
1125.553, 257.949
1126.783, 177.984
1128.014, 233.810
1129.244, 213.865
1130.474, 172.596
1131.704, 218.602
1132.933, 230.498
1134.163, 193.740
1135.392, 235.798
1136.621, 203.142
1137.850, 264.775
1139.079, 246.975
1140.307, 215.272
1141.535, 290.676
1142.763, 287.404
1143.991, 347.930
1145.219, 404.214
1146.446, 415.016
1147.674, 451.390
1148.901, 445.299
1150.128, 461.927
1151.354, 437.728
1152.581, 394.821
1153.807, 390.164
1155.033, 355.904
1156.259, 324.624
1157.485, 293.959
1158.710, 250.890
1159.936, 208.361
1161.161, 182.973
1162.386, 153.398
1163.611, 132.412
1164.835, 114.181
1166.060, 95.518
1167.284, 88.750
1168.508, 62.183
1169.732, 28.409
1170.955, 26.789
1172.179, 0.687
1173.402, 30.658
1174.625, 28.131
1175.848, 31.596
1177.070, 5.403
1178.293, 46.163
1179.515, 33.841
1180.737, 42.634
1181.959, 2.124
1183.181, 8.098
1184.402, 48.710
1185.624, 73.566
1186.845, 45.458
1188.066, 19.238
1189.286, 56.084
1190.507, 22.936
1191.727, 49.842
1192.947, 24.741
1194.167, 31.758
1195.387, 45.740
1196.607, 14.885
1197.826, 24.047
1199.045, 45.934
1200.264, 12.849
1201.483, 1.666
1202.702, 21.498
1203.920, 42.720
1205.138, 41.239
1206.356, 23.350
1207.574, 29.709
1208.792, 4.911
1210.009, 32.528
1211.227, 34.707
1212.444, 28.073
1213.661, 0.590
1214.877, 61.451
1216.094, 13.772
1217.310, 4.882
1218.526, 1.523
1219.742, 17.908
1220.958, 22.397
1222.173, 33.195
1223.389, 9.324
1224.604, 6.789
1225.819, 34.655
1227.034, 3.172
1228.248, 27.255
1229.463, 23.111
1230.677, 7.385
1231.891, 24.014
1233.105, 34.130
1234.318, 25.502
1235.532, 27.548
1236.745, 3.255
1237.958, 2.183
1239.171, 39.783
1240.384, 23.249
1241.596, 15.966
1242.809, 3.953
1244.021, 27.988
1245.233, 42.902
1246.444, 31.791
1247.656, 26.736
1248.867, 13.576
1250.079, 16.279
1251.290, 9.211
1252.500, 32.091
1253.711, 7.969
1254.921, 36.844
1256.132, 49.630
1257.342, 50.357
1258.552, 47.007
1259.761, 31.577
1260.971, 34.448
1262.180, 24.676
1263.389, 31.088
1264.598, 36.795
1265.807, 35.224
1267.015, 33.241
1268.223, 30.483
1269.432, 30.820
1270.640, 31.330
1271.847, 32.646
1273.055, 39.833
1274.262, 34.112
1275.470, 45.372
1276.677, 37.542
1277.883, 41.967
1279.090, 32.799
1280.296, 38.886
1281.503, 70.943
1282.709, 56.062
1283.915, 100.001
1285.120, 80.981
1286.326, 72.936
1287.531, 56.865
1288.736, 67.793
1289.941, 89.670
1291.146, 76.528
1292.350, 94.356
1293.555, 82.408
1294.759, 67.224
1295.963, 59.977
1297.167, 49.700
1298.370, 42.392
1299.574, 65.054
1300.777, 66.789
1301.980, 70.392
1303.183, 74.313
1304.386, 83.857
1305.588, 75.371
1306.790, 43.858
1307.993, 147.313
1309.195, 80.745
1310.396, 100.148
1311.598, 135.528
1312.799, 90.879
1314.000, 128.203
1315.201, 96.500
1316.402, 84.770
1317.603, 100.985
1318.803, 89.198
1320.003, 112.385
1321.203, 134.614
1322.403, 115.632
1323.603, 98.072
1324.802, 113.013
1326.002, 78.490
1327.201, 103.419
1328.400, 108.382
1329.599, 112.346
1330.797, 108.856
1331.995, 86.834
1333.194, 92.543
1334.392, 87.244
1335.589, 91.134
1336.787, 84.565
1337.985, 98.246
1339.182, 87.510
1340.379, 124.941
1341.576, 116.406
1342.772, 68.356
1343.969, 114.527
1345.165, 99.102
1346.361, 91.560
1347.557, 98.877
1348.753, 127.896
1349.949, 103.918
1351.144, 108.931
1352.339, 99.503
1353.534, 96.820
1354.729, 68.197
1355.924, 79.202
1357.118, 68.542
1358.312, 43.466
1359.506, 55.421
1360.700, 54.171
1361.894, 57.509
1363.088, 80.088
1364.281, 65.292
1365.474, 78.478
1366.667, 52.881
1367.860, 28.779
1369.052, 54.697
1370.245, 46.823
1371.437, 40.246
1372.629, 51.692
1373.821, 38.792
1375.013, 45.382
1376.204, 70.891
1377.395, 39.049
1378.586, 83.546
1379.777, 44.798
1380.968, 56.054
1382.159, 79.239
1383.349, 70.087
1384.539, 31.518
1385.729, 51.531
1386.919, 40.716
1388.109, 54.744
1389.298, 57.451
1390.487, 43.452
1391.676, 57.621
1392.865, 32.902
1394.054, 53.960
1395.242, 58.440
1396.431, 30.815
1397.619, 27.378
1398.807, 31.907
1399.995, 34.237
1401.182, 41.234
1402.370, 54.878
1403.557, 52.655
1404.744, 48.716
1405.931, 0.589
1407.118, 20.129
1408.304, 61.827
1409.490, 12.839
1410.676, 1.327
1411.862, 79.367
1413.048, 33.234
1414.234, 75.251
1415.419, 26.229
1416.604, 34.438
1417.789, 31.657
1418.974, 66.429
1420.159, 63.433
1421.343, 81.493
1422.528, 66.444
1423.712, 47.968
1424.896, 20.964
1426.079, 8.203
1427.263, 48.522
1428.446, 85.250
1429.629, 68.122
1430.812, 30.322
1431.995, 54.035
1433.178, 32.999
1434.360, 58.088
1435.543, 6.268
1436.725, 6.403
1437.907, 48.101
1439.088, 73.203
1440.270, 59.570
1441.451, 88.307
1442.632, 6.117
1443.813, 59.759
1444.994, 4.977
1446.175, 29.104
1447.355, 55.075
1448.535, 39.509
1449.715, 37.234
1450.895, 74.161
1452.075, 23.551
1453.255, 16.021
1454.434, 74.736
1455.613, 52.270
1456.792, 81.571
1457.971, 79.956
1459.149, 44.958
1460.328, 43.378
1461.506, 96.154
1462.684, 42.570
1463.862, 104.707
1465.040, 58.953
1466.217, 17.414
1467.395, 62.796
1468.572, 40.097
1469.749, 73.706
1470.925, 108.292
1472.102, 28.608
1473.278, 59.266
1474.455, 33.731
1475.631, 38.088
1476.807, 67.475
1477.982, 4.851
1479.158, 55.160
1480.333, 75.463
1481.508, 35.371
1482.683, 89.300
1483.858, 54.554
1485.033, 59.774
1486.207, 118.954
1487.381, 68.114
1488.555, 57.254
1489.729, 109.386
1490.903, 88.521
1492.076, 101.829
1493.250, 130.272
1494.423, 87.716
1495.596, 94.148
1496.769, 137.735
1497.941, 82.341
1499.114, 157.035
1500.286, 85.787
1501.458, 27.716
1502.630, 124.745
1503.802, 66.906
1504.973, 38.237
1506.145, 24.755
1507.316, 47.484
