##NAMES=Pyrosmalite-(Fe)
##RRUFFID=R050158
##IDEAL CHEMISTRY=Fe^2+^_8_Si_6_O_15_(OH)_10_
##LOCALITY=Burguillos del Cerro, Badajos, Spain
##OWNER=RRUFF
##SOURCE=Jim McGlasson
##DESCRIPTION=Green subhedral crystal aggregate
##STATUS=The identification of this mineral has been confirmed by X-ray diffraction and chemical analysis
##URL=rruff.info/R050158
##MEASURED CHEMISTRY=(Fe^2+^_0.92_Mn^2+^_0.06_Mg_0.02_)_8_Si_6_O_15_(OH_0.83_Cl_0.17_)_10_
##PIN_ID=L00098
##ORIENTATION=Laser parallel to c* (0 0 1). Fiducial mark perpendicular to laser is parallel to a [1 0 0]
128.263, 0.000
129.653, 7.655
131.042, 146.132
132.432, 95.454
133.821, 145.225
135.210, 344.399
136.599, 565.670
137.987, 786.507
139.376, 1068.967
140.764, 1361.071
142.152, 1660.535
143.539, 1857.193
144.927, 1918.884
146.314, 1821.370
147.701, 1853.030
149.088, 1613.962
150.474, 1519.203
151.861, 1415.648
153.247, 1447.208
154.633, 1456.326
156.018, 1463.774
157.404, 1547.438
158.789, 1588.217
160.174, 1547.958
161.559, 1725.175
162.943, 1738.295
164.327, 1716.680
165.711, 1817.635
167.095, 1839.205
168.479, 1895.825
169.862, 1992.688
171.246, 2122.871
172.628, 2322.271
174.011, 2434.073
175.394, 2730.342
176.776, 2894.212
178.158, 3120.552
179.540, 3498.141
180.922, 3943.473
182.303, 4149.780
183.684, 4441.418
185.065, 4412.041
186.446, 4451.004
187.826, 4408.745
189.207, 4266.623
190.587, 4000.629
191.967, 3907.750
193.346, 3580.966
194.726, 3093.260
196.105, 2723.610
197.484, 2292.005
198.862, 1934.437
200.241, 1533.904
201.619, 1309.405
202.997, 1015.938
204.375, 794.573
205.753, 563.480
207.130, 394.388
208.507, 340.750
209.884, 228.067
211.261, 101.725
212.638, 43.354
214.014, 20.163
215.390, 62.708
216.766, 119.006
218.141, 109.078
219.517, 90.953
220.892, 67.653
222.267, 53.335
223.642, 74.603
225.016, 18.887
226.391, 72.069
227.765, 66.165
229.139, 130.186
230.512, 123.142
231.886, 77.046
233.259, 69.915
234.632, 40.769
236.005, 4.385
237.377, 93.532
238.749, 96.663
240.122, 249.779
241.493, 417.878
242.865, 484.951
244.237, 642.987
245.608, 750.993
246.979, 946.973
248.350, 1097.934
249.720, 1307.884
251.090, 1484.825
252.461, 1625.763
253.830, 1852.616
255.200, 1998.316
256.570, 2206.789
257.939, 2293.666
259.308, 2366.319
260.677, 2417.370
262.045, 2470.231
263.414, 2470.927
264.782, 2429.477
266.150, 2341.015
267.517, 2269.410
268.885, 2047.868
270.252, 1794.328
271.619, 1577.783
272.986, 1443.231
274.353, 1159.670
275.719, 1011.094
277.085, 780.500
278.451, 625.889
279.817, 538.261
281.182, 412.615
282.548, 411.951
283.913, 348.269
285.278, 346.568
286.642, 384.850
288.007, 355.147
289.371, 468.316
290.735, 502.191
292.099, 591.450
293.462, 725.480
294.826, 872.404
296.189, 1044.859
297.552, 1352.422
298.914, 1546.006
300.277, 1881.552
301.639, 2301.242
303.001, 2504.707
304.363, 2811.974
305.724, 2925.045
307.086, 2881.795
308.447, 2949.232
309.808, 2713.292
311.168, 2511.196
312.529, 2339.950
313.889, 2258.549
315.249, 2337.967
316.609, 2576.170
317.969, 3044.143
319.328, 3754.873
320.687, 4896.363
322.046, 6198.631
323.405, 7638.696
324.764, 9038.578
326.122, 9398.288
327.480, 8787.843
328.838, 7517.251
330.196, 5822.525
331.553, 4256.665
332.910, 3247.644
334.267, 2422.407
335.624, 1814.764
336.981, 1482.634
338.337, 1157.169
339.693, 1097.823
341.049, 944.281
342.405, 912.468
343.760, 733.300
345.116, 712.945
346.471, 687.328
347.826, 713.913
349.180, 702.405
350.535, 760.896
351.889, 779.314
353.243, 921.603
354.597, 1074.440
355.950, 1267.171
357.304, 1337.585
358.657, 1599.284
360.010, 1840.907
361.362, 1967.677
362.715, 2271.541
364.067, 2256.484
365.419, 2324.563
366.771, 2337.788
368.123, 2219.133
369.474, 2060.827
370.825, 1947.106
372.176, 1841.040
373.527, 1644.501
374.877, 1507.563
376.228, 1389.460
377.578, 1231.456
378.928, 1169.928
380.277, 1135.165
381.627, 1024.936
382.976, 977.371
384.325, 991.886
385.674, 902.013
387.023, 994.972
388.371, 941.215
389.719, 900.503
391.067, 950.319
392.415, 989.078
393.762, 965.051
395.110, 1033.688
396.457, 1142.290
397.804, 1142.462
399.150, 1193.680
400.497, 1158.249
401.843, 1401.833
403.189, 1391.956
404.535, 1566.707
405.881, 1642.872
407.226, 1776.591
408.571, 1972.095
409.916, 2194.135
411.261, 2522.223
412.605, 2800.278
413.950, 3139.376
415.294, 3485.190
416.638, 3848.018
417.981, 4088.612
419.325, 4154.018
420.668, 4022.482
422.011, 3701.841
423.354, 3368.180
424.697, 2853.497
426.039, 2492.794
427.381, 2047.071
428.723, 1757.329
430.065, 1483.566
431.406, 1348.784
432.748, 1235.983
434.089, 1171.161
435.430, 1074.320
436.770, 1023.458
438.111, 824.577
439.451, 907.676
440.791, 673.755
442.131, 602.779
443.471, 494.266
444.810, 383.739
446.149, 299.934
447.488, 262.109
448.827, 195.429
450.166, 183.611
451.504, 157.246
452.842, 113.000
454.180, 105.839
455.518, 104.622
456.855, 140.349
458.193, 159.018
459.530, 175.627
460.867, 190.177
462.203, 149.670
463.540, 189.101
464.876, 216.474
466.212, 236.790
467.548, 281.048
468.883, 319.252
470.219, 372.404
471.554, 398.504
472.889, 469.555
474.224, 541.557
475.558, 759.511
476.892, 1012.416
478.227, 1340.274
479.561, 1808.085
480.894, 2314.851
482.228, 2809.572
483.561, 3044.250
484.894, 3237.885
486.227, 2878.478
487.559, 2449.029
488.892, 1993.539
490.224, 1487.009
491.556, 1110.439
492.888, 925.829
494.220, 596.180
495.551, 568.493
496.882, 445.770
498.213, 310.013
499.544, 192.221
500.874, 160.394
502.205, 142.531
503.535, 126.633
504.865, 96.700
506.194, 109.735
507.524, 45.736
508.853, 51.704
510.182, 49.636
511.511, 63.535
512.840, 92.401
514.168, 197.233
515.496, 220.037
516.824, 292.813
518.152, 221.563
519.480, 236.285
520.807, 197.980
522.134, 172.646
523.461, 149.781
524.788, 113.893
526.114, 75.527
527.441, 43.232
528.767, 8.209
530.093, 29.523
531.418, 45.891
532.744, 21.409
534.069, 73.761
535.394, 39.480
536.719, 144.157
538.044, 33.914
539.368, 85.472
540.693, 51.307
542.017, 26.996
543.340, 99.823
544.664, 62.693
545.987, 96.587
547.311, 11.520
548.634, 50.458
549.956, 68.410
551.279, 67.385
552.601, 63.361
553.923, 59.335
555.245, 35.376
556.567, 13.670
557.889, 11.695
559.210, 7.693
560.531, 11.671
561.852, 18.901
563.173, 11.438
564.493, 38.458
565.813, 15.322
567.133, 57.155
568.453, 160.960
569.773, 142.740
571.092, 143.493
572.412, 126.217
573.731, 186.913
575.049, 176.582
576.368, 225.225
577.686, 293.844
579.005, 243.439
580.323, 345.016
581.640, 336.574
582.958, 379.108
584.275, 482.619
585.593, 562.109
586.909, 547.581
588.226, 692.037
589.543, 743.491
590.859, 869.938
592.175, 1018.374
593.491, 1135.789
594.807, 1347.203
596.122, 1606.592
597.438, 1813.971
598.753, 2202.333
600.068, 2734.678
601.382, 3260.009
602.697, 4078.327
604.011, 5008.583
605.325, 6355.475
606.639, 8297.194
607.952, 10526.617
609.266, 13405.979
610.579, 17065.211
611.892, 20824.248
613.205, 24933.225
614.518, 27682.193
615.830, 28841.291
617.142, 27670.443
618.454, 24889.652
619.766, 20658.908
621.078, 17167.984
622.389, 13467.202
623.700, 10586.521
625.011, 8435.906
626.322, 6755.463
627.632, 5600.165
628.943, 4613.071
630.253, 3828.957
631.563, 3275.823
632.872, 2782.670
634.182, 2471.496
635.491, 2114.303
636.800, 1892.090
638.109, 1655.858
639.418, 1481.077
640.726, 1391.336
642.035, 1248.046
643.343, 1140.737
644.651, 1079.410
645.958, 964.064
647.266, 927.699
648.573, 914.316
649.880, 768.915
651.187, 810.495
652.494, 626.058
653.800, 647.602
655.106, 655.129
656.412, 607.498
657.718, 579.362
659.024, 499.082
660.329, 575.715
661.634, 511.271
662.939, 486.690
664.244, 547.153
665.549, 441.308
666.853, 450.506
668.157, 438.679
669.461, 379.905
670.765, 455.241
672.069, 348.005
673.372, 338.854
674.675, 239.997
675.978, 271.831
677.281, 300.717
678.583, 243.433
679.886, 204.032
681.188, 187.525
682.490, 173.859
683.792, 148.021
685.093, 174.071
686.394, 121.348
687.696, 148.337
688.997, 156.284
690.297, 105.046
691.598, 206.489
692.898, 157.024
694.198, 148.901
695.498, 96.890
696.798, 156.153
698.097, 113.874
699.397, 166.229
700.696, 143.909
701.995, 207.087
703.293, 268.036
704.592, 218.918
705.890, 249.964
707.188, 174.370
708.486, 265.090
709.784, 329.307
711.081, 307.575
712.378, 291.588
713.675, 312.927
714.972, 402.843
716.269, 359.635
717.565, 420.442
718.862, 387.346
720.158, 497.529
721.453, 449.375
722.749, 424.245
724.045, 445.289
725.340, 565.060
726.635, 523.377
727.930, 603.783
729.224, 655.991
730.519, 715.411
731.813, 717.973
733.107, 869.611
734.401, 931.315
735.694, 898.486
736.988, 1042.940
738.281, 1055.646
739.574, 1104.369
740.867, 1077.433
742.160, 1031.388
743.452, 969.694
744.744, 951.241
746.036, 735.536
747.328, 734.833
748.620, 677.173
749.911, 509.493
751.202, 551.008
752.493, 458.400
753.784, 443.399
755.075, 387.057
756.365, 486.981
757.655, 459.007
758.945, 627.455
760.235, 481.482
761.525, 591.021
762.814, 580.448
764.103, 635.948
765.392, 703.646
766.681, 721.230
767.969, 721.736
769.258, 765.501
770.546, 726.957
771.834, 590.352
773.122, 588.831
774.409, 485.099
775.697, 466.580
776.984, 467.008
778.271, 374.318
779.558, 331.644
780.844, 284.937
782.131, 300.228
783.417, 289.502
784.703, 264.836
785.989, 260.202
787.274, 260.444
788.560, 204.676
789.845, 255.898
791.130, 204.139
792.415, 239.340
793.699, 247.531
794.983, 284.711
796.268, 309.881
797.552, 267.041
798.835, 271.190
800.119, 380.330
801.402, 353.460
802.686, 388.580
803.969, 483.690
805.251, 473.791
806.534, 482.882
807.816, 596.963
809.098, 699.035
810.380, 741.097
811.662, 748.151
812.944, 868.198
814.225, 788.239
815.506, 914.275
816.787, 951.870
818.068, 1029.330
819.349, 1029.350
820.629, 1044.366
821.909, 979.379
823.189, 926.388
824.469, 772.393
825.749, 660.393
827.028, 487.387
828.307, 469.375
829.586, 324.354
830.865, 297.326
832.144, 288.292
833.422, 174.251
834.700, 202.205
835.978, 162.147
837.256, 126.031
838.534, 75.805
839.811, 68.689
841.088, 61.359
842.365, 81.141
843.642, 12.982
844.919, 18.619
846.195, 31.581
847.472, 51.494
848.748, 4.446
850.023, 8.802
851.299, 45.222
852.575, 33.893
853.850, 42.128
855.125, 2.174
856.400, 25.231
857.674, 12.689
858.949, 15.382
860.223, 9.536
861.497, 31.446
862.771, 35.359
864.045, 31.933
865.318, 0.202
866.591, 1.123
867.864, 11.953
869.137, 32.025
870.410, 35.094
871.682, 25.163
872.955, 14.228
874.227, 55.293
875.499, 22.354
876.770, 13.588
878.042, 0.545
879.313, 39.488
880.584, 17.516
881.855, 45.537
883.126, 53.553
884.396, 7.563
885.667, 36.566
886.937, 57.562
888.207, 19.449
889.476, 5.482
890.746, 48.472
892.015, 41.418
893.284, 1.357
894.553, 14.715
895.822, 20.806
897.090, 72.919
898.359, 53.082
899.627, 37.277
900.895, 4.503
902.163, 69.742
903.430, 63.971
904.698, 39.323
905.965, 16.647
907.232, 10.992
908.499, 32.353
909.765, 16.741
911.032, 47.851
912.298, 0.561
913.564, 33.016
914.830, 56.587
916.095, 37.154
917.361, 5.714
918.626, 12.266
919.891, 28.811
921.156, 3.349
922.420, 36.878
923.685, 49.401
924.949, 26.918
926.213, 6.571
927.477, 21.926
928.740, 32.417
930.004, 72.900
931.267, 52.379
932.530, 104.853
933.793, 55.322
935.056, 58.785
936.318, 39.244
937.581, 28.697
938.843, 76.145
940.104, 120.587
941.366, 96.025
942.628, 46.458
943.889, 110.886
945.150, 90.309
946.411, 157.729
947.672, 87.144
948.932, 118.555
950.193, 91.967
951.453, 119.374
952.713, 130.778
953.973, 133.182
955.232, 148.901
956.491, 94.979
957.751, 163.371
959.010, 131.759
960.268, 134.162
961.527, 157.561
962.785, 111.957
964.044, 152.349
965.302, 164.737
966.559, 186.122
967.817, 140.502
969.075, 151.879
970.332, 176.263
971.589, 115.644
972.846, 197.020
974.102, 196.395
975.359, 280.766
976.615, 240.134
977.871, 256.498
979.127, 207.858
980.383, 223.215
981.638, 276.569
982.893, 293.919
984.149, 379.267
985.404, 277.612
986.658, 312.953
987.913, 402.290
989.167, 345.625
990.421, 372.927
991.675, 495.198
992.929, 503.438
994.183, 532.761
995.436, 567.798
996.689, 613.292
997.942, 675.971
999.195, 738.166
1000.448, 794.164
1001.700, 879.646
1002.952, 995.811
1004.204, 1102.861
1005.456, 1197.010
1006.708, 1372.988
1007.959, 1557.062
1009.210, 1740.283
1010.461, 2004.311
1011.712, 2318.775
1012.963, 2684.895
1014.213, 3164.766
1015.464, 3758.835
1016.714, 4365.657
1017.964, 5176.427
1019.214, 5988.422
1020.463, 6725.501
1021.712, 7703.373
1022.962, 8260.417
1024.210, 8857.411
1025.459, 9014.579
1026.708, 8781.604
1027.956, 8537.628
1029.204, 7914.354
1030.452, 7261.444
1031.700, 6498.440
1032.948, 5797.553
1034.195, 5134.696
1035.442, 4471.644
1036.689, 3991.712
1037.936, 3611.866
1039.183, 3197.458
1040.429, 3001.835
1041.676, 2621.946
1042.922, 2434.026
1044.168, 2267.751
1045.413, 2005.576
1046.659, 1882.036
1047.904, 1766.242
1049.149, 1640.978
1050.394, 1527.017
1051.639, 1449.780
1052.884, 1304.161
1054.128, 1206.333
1055.372, 1110.615
1056.616, 1111.278
1057.860, 1026.271
1059.104, 906.195
1060.347, 932.848
1061.590, 747.470
1062.833, 893.043
1064.076, 766.176
1065.319, 647.667
1066.561, 607.740
1067.803, 562.708
1069.046, 597.681
1070.287, 534.725
1071.529, 460.504
1072.771, 531.687
1074.012, 464.822
1075.253, 376.866
1076.494, 467.114
1077.735, 380.141
1078.975, 399.217
1080.216, 364.402
1081.456, 303.566
1082.696, 355.752
1083.936, 309.933
1085.175, 302.120
1086.415, 312.238
1087.654, 302.314
1088.893, 246.503
1090.132, 248.693
1091.371, 253.884
1092.609, 268.045
1093.847, 282.237
1095.085, 275.472
1096.323, 181.731
1097.561, 266.926
1098.799, 211.446
1100.036, 212.642
1101.273, 227.838
1102.510, 169.271
1103.747, 253.469
1104.983, 253.667
1106.220, 299.867
1107.456, 213.066
1108.692, 276.831
1109.928, 225.033
1111.163, 292.347
1112.399, 346.550
1113.634, 306.754
1114.869, 320.958
1116.104, 380.163
1117.339, 337.369
1118.573, 464.195
1119.808, 452.402
1121.042, 490.610
1122.276, 594.197
1123.509, 616.406
1124.743, 783.616
1125.976, 728.828
1127.210, 761.040
1128.443, 859.252
1129.675, 755.583
1130.908, 693.797
1132.141, 693.167
1133.373, 590.384
1134.605, 507.604
1135.837, 436.830
1137.068, 484.057
1138.300, 416.883
1139.531, 324.112
1140.762, 310.342
1141.993, 220.574
1143.224, 257.807
1144.455, 195.042
1145.685, 248.280
1146.915, 112.520
1148.145, 140.862
1149.375, 156.107
1150.605, 167.357
1151.834, 89.609
1153.063, 110.872
1154.292, 96.138
1155.521, 123.405
1156.750, 11.676
1157.978, 44.953
1159.207, 3.767
1160.435, 15.517
1161.663, 25.812
1162.891, 36.120
1164.118, 46.438
1165.345, 65.761
1166.573, 71.088
1167.800, 90.417
1169.026, 18.250
1170.253, 40.077
1171.480, 24.406
1172.706, 18.739
1173.932, 38.073
1175.158, 14.410
1176.383, 33.754
1177.609, 113.104
1178.834, 65.455
1180.059, 31.809
1181.284, 112.166
1182.509, 30.524
1183.734, 81.886
1184.958, 35.250
1186.182, 62.616
1187.406, 96.992
1188.630, 74.374
1189.854, 60.758
1191.077, 37.144
1192.301, 18.204
1193.524, 75.603
1194.747, 35.013
1195.969, 26.555
1197.192, 68.885
1198.414, 11.339
1199.636, 6.799
1200.858, 2.282
1202.080, 26.767
1203.302, 38.267
1204.523, 6.779
1205.744, 5.704
1206.966, 5.623
1208.186, 11.637
1209.407, 19.900
1210.628, 2.557
1211.848, 8.012
1213.068, 72.531
1214.288, 2.922
1215.508, 96.626
1216.727, 121.180
1217.947, 47.736
1219.166, 2.704
1220.385, 131.858
1221.604, 67.423
1222.822, 119.991
1224.041, 77.567
1225.259, 43.527
1226.477, 98.109
1227.695, 45.693
1228.913, 30.279
1230.130, 103.867
1231.348, 63.457
1232.565, 117.049
1233.782, 118.642
1234.999, 44.237
1236.215, 7.835
1237.432, 76.436
1238.648, 33.039
1239.864, 35.644
1241.080, 1.753
1242.296, 79.845
1243.511, 34.446
1244.726, 23.951
1245.942, 69.628
1247.156, 12.209
1248.371, 22.208
1249.586, 95.372
1250.800, 5.942
1252.014, 34.512
1253.228, 41.084
1254.442, 75.341
1255.656, 18.215
1256.869, 1.228
1258.083, 15.332
1259.296, 64.894
1260.509, 109.454
1261.722, 69.017
1262.934, 112.275
1264.147, 43.851
1265.359, 95.706
1266.571, 82.265
1267.783, 6.174
1268.994, 80.388
1270.206, 10.952
1271.417, 57.518
1272.628, 22.086
1273.839, 26.657
1275.050, 0.771
1276.260, 11.757
1277.471, 1.297
1278.681, 42.281
1279.891, 11.861
1281.101, 24.711
1282.310, 111.295
1283.520, 9.118
1284.729, 85.467
1285.938, 106.055
1287.147, 29.641
1288.356, 99.228
1289.564, 30.817
1290.773, 69.409
1291.981, 116.002
1293.189, 0.599
1294.397, 37.297
1295.604, 68.897
1296.812, 67.498
1298.019, 60.101
1299.226, 49.707
1300.433, 11.313
1301.640, 71.923
1302.846, 45.531
1304.053, 102.140
1305.259, 59.661
1306.465, 16.275
1307.671, 65.889
1308.876, 5.505
1310.082, 120.124
1311.287, 55.744
1312.492, 72.365
1313.697, 55.989
1314.902, 47.832
1316.106, 45.460
1317.310, 127.091
1318.515, 72.724
1319.719, 80.359
1320.922, 113.998
1322.126, 84.638
1323.329, 96.534
1324.533, 103.927
1325.736, 69.575
1326.939, 103.226
1328.141, 58.880
1329.344, 30.532
1330.546, 158.170
1331.748, 106.811
1332.950, 76.454
1334.152, 137.099
1335.354, 23.746
1336.555, 8.604
1337.757, 120.112
1338.958, 35.762
1340.159, 76.414
1341.359, 130.775
1342.560, 77.432
1343.760, 118.091
1344.960, 49.752
1346.160, 89.416
1347.360, 96.082
1348.560, 4.750
1349.759, 120.420
1350.959, 173.882
1352.158, 22.322
1353.357, 97.489
1354.555, 130.169
1355.754, 65.772
1356.952, 94.121
1358.151, 18.812
1359.349, 102.403
1360.546, 110.474
1361.744, 24.175
1362.941, 120.881
1364.139, 123.490
1365.336, 54.206
1366.533, 121.890
1367.730, 93.961
1368.926, 3.305
1370.123, 35.356
1371.319, 24.062
1372.515, 52.712
1373.711, 107.313
1374.906, 47.890
1376.102, 107.429
1377.297, 80.942
1378.492, 25.439
1379.687, 130.227
1380.882, 22.016
1382.077, 91.695
1383.271, 150.488
1384.465, 39.900
1385.659, 110.384
1386.853, 80.160
1388.047, 59.938
1389.240, 100.783
1390.434, 70.398
1391.627, 21.138
1392.820, 189.879
1394.013, 77.682
1395.205, 16.972
1396.398, 157.687
1397.590, 19.403
1398.782, 87.986
1399.974, 98.523
1401.166, 41.237
1402.357, 101.939
1403.549, 165.917
1404.740, 29.613
1405.931, 146.310
1407.122, 74.008
1408.313, 31.578
1409.503, 147.274
1410.693, 22.971
1411.883, 62.668
1413.073, 112.365
1414.263, 81.064
1415.453, 89.764
1416.642, 151.463
1417.831, 110.164
1419.020, 107.874
1420.209, 5.416
1421.398, 35.294
1422.587, 42.004
1423.775, 20.286
1424.963, 69.423
1426.151, 87.132
1427.339, 77.841
1428.526, 70.550
1429.714, 106.213
1430.901, 50.907
1432.088, 94.617
1433.275, 25.326
1434.462, 64.035
1435.648, 97.737
1436.835, 1.558
1438.021, 77.147
1439.207, 48.857
1440.393, 64.382
1441.579, 89.859
1442.764, 167.977
1443.949, 50.679
1445.135, 194.655
1446.320, 47.334
1447.504, 58.011
1448.689, 153.689
1449.873, 44.370
1451.058, 70.046
1452.242, 50.718
1453.426, 45.421
1454.609, 110.132
1455.793, 119.931
1456.976, 53.730
1458.159, 117.591
1459.342, 37.459
1460.525, 51.337
1461.708, 138.221
1462.890, 37.126
1464.073, 95.036
1465.255, 134.956
1466.437, 97.882
1467.619, 141.815
1468.800, 137.755
1469.982, 92.703
1471.163, 156.726
1472.344, 89.924
1473.525, 77.777
1474.706, 205.633
1475.886, 51.523
1477.066, 23.419
1478.247, 161.321
1479.427, 0.876
1480.607, 131.782
1481.786, 72.694
1482.966, 46.627
1484.145, 76.585
1485.324, 67.556
1486.503, 89.541
1487.682, 106.541
1488.860, 78.551
1490.039, 41.567
1491.217, 58.586
1492.395, 93.607
1493.573, 9.372
1494.751, 85.647
1495.928, 82.689
1497.106, 134.958
1498.283, 64.261
1499.460, 107.596
1500.637, 104.493
1501.814, 1.088
1502.990, 47.380
1504.166, 117.901
1505.342, 59.485
1506.518, 106.144
1507.694, 38.196
1508.870, 1.855
1510.045, 13.221
1511.221, 59.708
1512.396, 9.202
1513.571, 33.859
1514.745, 47.903
1515.920, 45.541
1517.094, 32.143
1518.269, 47.885
1519.443, 0.000
##END=



