##NAMES=Pyromorphite
##RRUFFID=R050015
##IDEAL CHEMISTRY=Pb^2+^_5_(PO_4_)_3_Cl
##LOCALITY=Bunker Hill mine, Shoshone County, Idaho, USA
##OWNER=RRUFF
##SOURCE=Eugene Schlepp
##DESCRIPTION=Yellowish green prismatic hexagonal single crystals
##STATUS=The identification of this mineral has been confirmed by X-ray diffraction and chemical analysis
##URL=rruff.info/R050015
##MEASURED CHEMISTRY=Pb_5.00_((P_0.88_As_0.12_)O_4_)_3_Cl_1.00_
##PIN_ID=M00344
##ORIENTATION=Laser parallel to -a* (-1 0 0). Fiducial mark perpendicular to laser is parallel to -c [0 0 -1]
82.863, 0.000
84.264, 6.391
85.664, 13.206
87.064, 622.018
88.463, 950.751
89.863, 1260.966
91.262, 1521.601
92.661, 1165.305
94.059, 1656.962
95.458, 1513.262
96.856, 2131.895
98.254, 2660.865
99.652, 3798.356
101.049, 5942.817
102.446, 7493.041
103.843, 10648.305
105.240, 10188.441
106.637, 9993.447
108.033, 8533.088
109.429, 6496.900
110.825, 5944.158
112.220, 4454.084
113.616, 4395.999
115.011, 3299.377
116.406, 3343.805
117.800, 2678.965
119.195, 2234.709
120.589, 2141.110
121.983, 1708.295
123.377, 1877.009
124.770, 1438.228
126.163, 1502.829
127.556, 1490.520
128.949, 1402.079
130.342, 1596.478
131.734, 1392.785
133.126, 1800.504
134.518, 1529.104
135.909, 2107.388
137.301, 2064.629
138.692, 2050.447
140.083, 2454.479
141.473, 2276.656
142.864, 2847.099
144.254, 2505.931
145.644, 2993.254
147.034, 2929.166
148.423, 2983.745
149.812, 3367.066
151.201, 3069.194
152.590, 3470.186
153.979, 3191.036
155.367, 3582.714
156.755, 3485.243
158.143, 3460.292
159.530, 3875.409
160.918, 3602.056
162.305, 4073.446
163.692, 3767.283
165.078, 4147.316
166.465, 4252.290
167.851, 4477.220
169.237, 5251.681
170.623, 5055.183
172.008, 5765.299
173.393, 5627.325
174.778, 6256.668
176.163, 6542.062
177.548, 6448.485
178.932, 6783.975
180.316, 6325.087
181.700, 6823.748
183.083, 6219.659
184.467, 6392.514
185.850, 6044.793
187.233, 5434.028
188.616, 5503.117
189.998, 4689.333
191.380, 4712.374
192.762, 4068.957
194.144, 3851.083
195.525, 3550.377
196.907, 3024.803
198.288, 2982.583
199.669, 2528.408
201.049, 2650.265
202.429, 2245.141
203.810, 2024.019
205.189, 2058.888
206.569, 1629.737
207.949, 1817.549
209.328, 1492.306
210.707, 1520.987
212.085, 1238.572
213.464, 1163.041
214.842, 1224.382
216.220, 940.578
217.598, 1024.618
218.976, 759.493
220.353, 873.199
221.730, 713.732
223.107, 569.092
224.483, 556.280
225.860, 402.297
227.236, 547.141
228.612, 365.812
229.988, 398.305
231.363, 275.622
232.738, 182.756
234.113, 280.705
235.488, 126.471
236.863, 211.051
238.237, 78.438
239.611, 34.370
240.985, 32.614
242.359, 5.615
243.732, 90.932
245.105, 54.815
246.478, 35.838
247.851, 127.181
249.223, 175.319
250.595, 70.985
251.967, 164.835
253.339, 113.525
254.711, 209.436
256.082, 113.793
257.453, 123.721
258.824, 179.333
260.195, 203.734
261.565, 241.003
262.935, 252.138
264.305, 235.403
265.675, 242.628
267.044, 202.919
268.414, 157.296
269.783, 145.773
271.151, 136.439
272.520, 133.115
273.888, 142.025
275.256, 124.128
276.624, 111.437
277.992, 122.468
279.359, 90.388
280.726, 129.087
282.093, 57.528
283.460, 36.417
284.827, 120.180
286.193, 0.942
287.559, 50.057
288.925, 64.938
290.290, 31.258
291.656, 114.520
293.021, 162.638
294.386, 121.456
295.750, 252.158
297.115, 158.531
298.479, 330.731
299.843, 299.727
301.207, 397.243
302.570, 569.712
303.933, 580.455
305.296, 753.394
306.659, 789.301
308.022, 1042.483
309.384, 1217.420
310.746, 1316.192
312.108, 1641.001
313.470, 1605.548
314.831, 2016.078
316.193, 2037.289
317.554, 2316.128
318.914, 2387.844
320.275, 2322.093
321.635, 2687.147
322.995, 2536.725
324.355, 2765.229
325.715, 2690.594
327.074, 2672.530
328.434, 2828.360
329.792, 2622.458
331.151, 2857.498
332.510, 2615.928
333.868, 2738.724
335.226, 2893.249
336.584, 2638.136
337.941, 2949.451
339.299, 2737.559
340.656, 3006.769
342.013, 2951.790
343.370, 3038.361
344.726, 3123.499
346.082, 2857.192
347.438, 2926.414
348.794, 2555.433
350.150, 2483.948
351.505, 2354.302
352.860, 2091.303
354.215, 2065.073
355.570, 1842.706
356.924, 1850.099
358.278, 1764.328
359.632, 1673.528
360.986, 1702.623
362.339, 1551.447
363.693, 1597.298
365.046, 1553.186
366.399, 1663.484
367.751, 1774.888
369.104, 1789.283
370.456, 2022.322
371.808, 1972.296
373.159, 2171.822
374.511, 2196.390
375.862, 2342.806
377.213, 2509.911
378.564, 2518.727
379.914, 2883.258
381.265, 2993.690
382.615, 3444.017
383.965, 3884.236
385.315, 4218.370
386.664, 5150.235
388.013, 5410.925
389.362, 6400.850
390.711, 6580.254
392.060, 6661.775
393.408, 6695.311
394.756, 5759.213
396.104, 5498.315
397.451, 4700.979
398.799, 4358.303
400.146, 4072.197
401.493, 3786.571
402.840, 4144.817
404.186, 4136.704
405.533, 4800.542
406.879, 5170.438
408.225, 5371.595
409.570, 5808.747
410.916, 5429.979
412.261, 5480.998
413.606, 4978.354
414.951, 4532.550
416.295, 4239.664
417.639, 3658.427
418.983, 3512.844
420.327, 2895.271
421.671, 2736.829
423.014, 2440.493
424.357, 2104.779
425.700, 2002.864
427.043, 1735.777
428.386, 1703.727
429.728, 1521.691
431.070, 1439.408
432.412, 1390.342
433.753, 1258.458
435.095, 1261.422
436.436, 1111.000
437.777, 1081.742
439.118, 988.660
440.458, 876.609
441.798, 871.486
443.138, 733.216
444.478, 770.097
445.818, 672.063
447.157, 591.154
448.496, 608.283
449.835, 505.811
451.174, 600.872
452.513, 540.694
453.851, 503.749
455.189, 502.974
456.527, 451.621
457.864, 455.188
459.202, 415.404
460.539, 387.700
461.876, 425.348
463.212, 372.034
464.549, 465.038
465.885, 363.881
467.221, 333.471
468.557, 398.994
469.893, 395.406
471.228, 374.090
472.563, 337.531
473.898, 338.996
475.233, 311.422
476.567, 320.383
477.902, 336.295
479.236, 322.134
480.570, 348.753
481.903, 342.299
483.237, 385.156
484.570, 345.414
485.903, 329.604
487.235, 340.230
488.568, 316.422
489.900, 377.722
491.232, 307.772
492.564, 327.282
493.896, 359.210
495.227, 325.373
496.558, 354.868
497.889, 369.395
499.220, 309.333
500.551, 391.894
501.881, 335.625
503.211, 339.625
504.541, 353.998
505.870, 362.102
507.200, 385.098
508.529, 343.186
509.858, 384.267
511.187, 355.709
512.515, 382.131
513.844, 384.816
515.172, 374.281
516.500, 393.646
517.827, 397.837
519.155, 375.687
520.482, 367.437
521.809, 406.603
523.136, 374.675
524.462, 343.229
525.789, 456.514
527.115, 413.407
528.441, 389.011
529.766, 445.292
531.092, 447.762
532.417, 521.677
533.742, 485.011
535.067, 493.389
536.391, 536.142
537.716, 585.399
539.040, 651.719
540.364, 644.861
541.688, 692.087
543.011, 829.289
544.334, 813.832
545.657, 908.202
546.980, 817.830
548.303, 950.557
549.625, 1009.445
550.947, 1109.726
552.269, 1187.818
553.591, 1065.016
554.913, 1074.774
556.234, 942.934
557.555, 792.993
558.876, 752.004
560.197, 577.082
561.517, 639.590
562.837, 572.020
564.157, 519.638
565.477, 615.040
566.797, 554.157
568.116, 630.870
569.435, 701.946
570.754, 733.438
572.073, 802.651
573.391, 783.831
574.709, 846.458
576.027, 765.607
577.345, 608.493
578.663, 536.630
579.980, 499.753
581.297, 485.879
582.614, 395.014
583.931, 413.168
585.248, 364.345
586.564, 383.542
587.880, 394.763
589.196, 318.000
590.511, 336.239
591.827, 329.481
593.142, 312.726
594.457, 407.972
595.772, 296.227
597.086, 343.486
598.401, 308.748
599.715, 228.690
601.029, 300.671
602.343, 282.159
603.656, 240.852
604.969, 290.177
606.282, 298.251
607.595, 325.430
608.908, 230.240
610.220, 294.454
611.532, 257.440
612.844, 240.270
614.156, 236.083
615.468, 233.682
616.779, 205.271
618.090, 213.688
619.401, 192.960
620.712, 191.555
622.022, 187.383
623.332, 190.967
624.642, 176.937
625.952, 178.617
627.262, 170.708
628.571, 178.738
629.880, 196.631
631.189, 150.194
632.498, 118.731
633.807, 189.000
635.115, 160.312
636.423, 137.722
637.731, 149.982
639.039, 82.434
640.346, 93.797
641.653, 119.345
642.960, 96.676
644.267, 57.846
645.574, 67.070
646.880, 54.597
648.186, 56.377
649.492, 73.235
650.798, 46.233
652.103, 78.354
653.409, 47.285
654.714, 33.679
656.019, 23.329
657.323, 80.970
658.628, 1.001
659.932, 31.740
661.236, 63.539
662.540, 56.139
663.843, 16.172
665.147, 11.550
666.450, 8.057
667.753, 16.696
669.056, 59.183
670.358, 4.762
671.660, 42.686
672.963, 44.249
674.264, 12.803
675.566, 42.385
676.868, 34.873
678.169, 37.917
679.470, 39.602
680.771, 66.480
682.071, 33.567
683.372, 110.230
684.672, 45.181
685.972, 26.289
687.271, 161.201
688.571, 9.756
689.870, 53.988
691.169, 40.940
692.468, 15.899
693.767, 110.703
695.065, 14.392
696.364, 66.949
697.662, 54.567
698.960, 40.239
700.257, 131.957
701.555, 49.765
702.852, 91.621
704.149, 79.543
705.446, 68.524
706.742, 78.557
708.038, 78.646
709.335, 83.788
710.631, 79.600
711.926, 6.235
713.222, 73.503
714.517, 7.817
715.812, 13.150
717.107, 50.511
718.402, 27.894
719.696, 35.126
720.990, 9.080
722.284, 27.360
723.578, 16.821
724.872, 30.297
726.165, 42.791
727.458, 66.692
728.751, 42.166
730.044, 50.368
731.336, 95.076
732.629, 31.488
733.921, 149.934
735.213, 52.348
736.504, 23.756
737.796, 42.132
739.087, 89.147
740.378, 145.257
741.669, 127.183
742.960, 109.206
744.250, 225.296
745.540, 125.084
746.830, 272.968
748.120, 191.842
749.410, 204.667
750.699, 277.909
751.988, 281.703
753.277, 314.716
754.566, 406.603
755.854, 332.177
757.143, 442.073
758.431, 407.917
759.719, 553.610
761.006, 510.535
762.294, 546.520
763.581, 699.645
764.868, 646.399
766.155, 807.449
767.442, 951.371
768.728, 979.250
770.014, 1240.141
771.300, 1186.052
772.586, 1490.874
773.872, 1771.763
775.157, 1815.599
776.442, 2301.461
777.727, 2336.340
779.012, 2657.268
780.297, 2885.172
781.581, 2914.121
782.865, 3255.073
784.149, 3102.095
785.433, 3233.229
786.716, 3359.209
787.999, 3247.097
789.282, 3376.321
790.565, 3331.468
791.848, 3300.562
793.130, 3588.751
794.413, 3415.560
795.695, 3824.599
796.977, 3851.787
798.258, 3963.925
799.540, 4329.510
800.821, 4187.413
802.102, 4558.095
803.382, 4749.916
804.663, 4906.167
805.943, 5767.892
807.224, 6156.280
808.504, 7644.232
809.783, 9618.053
811.063, 11975.369
812.342, 16923.969
813.621, 21320.311
814.900, 28298.293
816.179, 33780.809
817.457, 34239.535
818.736, 34145.281
820.014, 26862.865
821.292, 21900.367
822.569, 18018.436
823.847, 13757.448
825.124, 12565.121
826.401, 10329.945
827.678, 9104.800
828.954, 8371.756
830.231, 6826.986
831.507, 6596.255
832.783, 5752.039
834.059, 5567.853
835.334, 5322.120
836.610, 4688.591
837.885, 4850.401
839.160, 4518.433
840.435, 4248.729
841.709, 4349.773
842.983, 4110.314
844.258, 4698.378
845.532, 4975.339
846.805, 5233.871
848.079, 6256.842
849.352, 5905.698
850.625, 6251.679
851.898, 6088.526
853.171, 5036.347
854.443, 4668.776
855.715, 3450.332
856.988, 2742.581
858.259, 2293.688
859.531, 1585.590
860.803, 1479.056
862.074, 1185.672
863.345, 923.142
864.616, 967.034
865.886, 761.495
867.157, 824.041
868.427, 736.617
869.697, 690.100
870.967, 723.133
872.236, 617.246
873.506, 784.159
874.775, 710.296
876.044, 808.705
877.313, 808.544
878.581, 595.050
879.849, 669.188
881.118, 667.658
882.386, 521.210
883.653, 581.361
884.921, 434.045
886.188, 443.056
887.455, 506.875
888.722, 349.776
889.989, 371.746
891.255, 395.776
892.522, 281.881
893.788, 454.056
895.054, 332.323
896.319, 504.653
897.585, 531.044
898.850, 481.536
900.115, 869.092
901.380, 852.711
902.645, 1097.395
903.909, 1356.138
905.174, 1506.966
906.438, 2193.854
907.701, 2398.817
908.965, 3224.861
910.229, 4334.966
911.492, 5278.138
912.755, 7701.393
914.018, 9864.720
915.280, 13308.123
916.543, 17381.584
917.805, 18835.115
919.067, 20928.715
920.329, 18992.379
921.590, 16266.106
922.852, 14609.908
924.113, 11463.776
925.374, 9917.709
926.635, 8741.711
927.895, 7115.774
929.156, 7369.907
930.416, 6764.105
931.676, 7128.367
932.936, 7842.691
934.195, 8197.081
935.454, 9761.538
936.714, 10656.059
937.973, 12210.641
939.231, 14365.301
940.490, 15020.030
941.748, 17184.826
943.006, 17529.691
944.264, 17374.619
945.522, 18059.611
946.780, 15904.672
948.037, 14909.795
949.294, 13484.998
950.551, 11050.267
951.808, 10315.603
953.064, 8511.007
954.320, 7416.479
955.577, 6752.016
956.832, 5337.619
958.088, 5023.291
959.344, 4349.030
960.599, 3706.837
961.854, 3683.105
963.109, 3038.094
964.364, 2973.441
965.618, 2751.340
966.872, 2476.515
968.127, 2682.586
969.380, 2362.877
970.634, 2423.287
971.888, 2477.768
973.141, 2152.334
974.394, 2401.969
975.647, 2247.670
976.900, 2161.440
978.152, 2304.658
979.404, 1958.596
980.656, 2127.639
981.908, 2040.504
983.160, 1771.678
984.411, 2066.938
985.663, 1789.952
986.914, 1695.379
988.165, 1782.406
989.415, 1491.009
990.666, 1666.696
991.916, 1507.456
993.166, 1516.325
994.416, 1677.254
995.665, 1521.260
996.915, 1651.348
998.164, 1741.500
999.413, 1634.748
1000.662, 1973.066
1001.911, 1841.462
1003.159, 2041.935
1004.407, 2235.476
1005.655, 2039.113
1006.903, 2398.826
1008.151, 2244.618
1009.398, 2431.489
1010.646, 2562.438
1011.893, 2366.463
1013.139, 2607.569
1014.386, 2668.158
1015.633, 2500.409
1016.879, 2663.155
1018.125, 2517.528
1019.371, 2580.856
1020.616, 2602.807
1021.862, 2200.548
1023.107, 2330.386
1024.352, 2097.825
1025.597, 1952.083
1026.842, 1899.988
1028.086, 1781.092
1029.330, 1705.148
1030.574, 1738.509
1031.818, 1437.156
1033.062, 1511.241
1034.305, 1287.150
1035.548, 1251.581
1036.791, 1264.954
1038.034, 1146.076
1039.277, 1227.047
1040.519, 1131.284
1041.762, 1098.142
1043.004, 1325.373
1044.246, 1013.574
1045.487, 1059.748
1046.729, 1087.737
1047.970, 947.854
1049.211, 968.389
1050.452, 879.618
1051.692, 842.019
1052.933, 739.831
1054.173, 643.254
1055.413, 730.143
1056.653, 686.982
1057.893, 458.876
1059.132, 655.876
1060.371, 469.919
1061.610, 515.638
1062.849, 533.242
1064.088, 347.896
1065.326, 512.072
1066.565, 386.714
1067.803, 382.767
1069.041, 439.084
1070.278, 362.253
1071.516, 457.090
1072.753, 491.988
1073.990, 421.385
1075.227, 570.747
1076.464, 403.200
1077.700, 408.930
1078.936, 507.438
1080.173, 314.976
1081.408, 405.540
1082.644, 353.129
1083.880, 272.396
1085.115, 362.039
1086.350, 326.706
1087.585, 327.519
1088.820, 352.236
1090.054, 265.749
1091.288, 333.528
1092.522, 267.594
1093.756, 250.647
1094.990, 274.490
1096.224, 203.353
1097.457, 294.499
1098.690, 144.401
1099.923, 93.419
1101.156, 213.659
1102.388, 50.616
1103.621, 92.588
1104.853, 114.729
1106.085, 7.767
1107.316, 121.916
1108.548, 123.021
1109.779, 28.930
1111.010, 1.024
1112.241, 24.847
1113.472, 47.132
1114.703, 25.050
1115.933, 107.852
1117.163, 52.138
1118.393, 56.064
1119.623, 5.334
1120.853, 248.204
1122.082, 304.880
1123.311, 104.902
1124.540, 122.090
1125.769, 23.681
1126.997, 71.581
1128.226, 0.294
1129.454, 69.322
1130.682, 74.336
1131.910, 5.516
1133.138, 33.647
1134.365, 41.314
1135.592, 58.378
1136.819, 159.685
1138.046, 47.438
1139.273, 100.266
1140.499, 231.842
1141.725, 66.244
1142.951, 169.518
1144.177, 237.900
1145.403, 187.065
1146.628, 246.616
1147.854, 158.393
1149.079, 229.923
1150.304, 189.868
1151.528, 136.354
1152.753, 142.685
1153.977, 150.097
1155.201, 41.605
1156.425, 85.301
1157.649, 57.788
1158.872, 23.769
1160.096, 111.442
1161.319, 95.152
1162.542, 23.900
1163.764, 92.111
1164.987, 43.204
1166.209, 17.652
1167.431, 5.975
1168.653, 2.151
1169.875, 2.028
1171.097, 51.743
1172.318, 25.946
1173.539, 55.570
1174.760, 93.241
1175.981, 53.451
1177.202, 18.286
1178.422, 110.404
1179.642, 20.327
1180.862, 76.356
1182.082, 11.065
1183.302, 78.870
1184.521, 88.319
1185.740, 32.847
1186.959, 1.711
1188.178, 44.373
1189.397, 31.274
1190.615, 109.064
1191.834, 11.670
1193.052, 18.897
1194.269, 132.733
1195.487, 10.237
1196.705, 19.653
1197.922, 17.849
1199.139, 63.743
1200.356, 63.114
1201.573, 53.574
1202.789, 17.846
1204.006, 32.588
1205.222, 63.875
1206.438, 18.583
1207.653, 39.853
1208.869, 4.230
1210.084, 3.090
1211.299, 128.278
1212.514, 41.705
1213.729, 2.326
1214.944, 107.790
1216.158, 73.575
1217.372, 23.508
1218.586, 24.419
1219.800, 81.601
1221.014, 41.402
1222.227, 139.266
1223.440, 37.375
1224.654, 159.222
1225.866, 180.389
1227.079, 139.397
1228.292, 172.965
1229.504, 62.966
1230.716, 109.903
1231.928, 212.605
1233.139, 10.968
1234.351, 116.485
1235.562, 41.275
1236.773, 133.192
1237.984, 95.541
1239.195, 99.822
1240.406, 156.320
1241.616, 202.477
1242.826, 19.158
1244.036, 152.202
1245.246, 126.208
1246.456, 110.413
1247.665, 206.378
1248.874, 163.278
1250.083, 128.438
1251.292, 158.268
1252.501, 84.042
1253.709, 155.819
1254.917, 204.508
1256.125, 97.808
1257.333, 167.481
1258.541, 112.936
1259.748, 162.797
1260.956, 210.391
1262.163, 114.979
1263.370, 162.458
1264.576, 151.750
1265.783, 25.187
1266.989, 125.625
1268.195, 109.765
1269.401, 190.132
1270.607, 184.357
1271.813, 104.232
1273.018, 88.602
1274.223, 68.590
1275.428, 91.006
1276.633, 75.032
1277.838, 131.695
1279.042, 124.907
1280.246, 184.524
1281.450, 80.475
1282.654, 92.200
1283.858, 136.672
1285.061, 155.971
1286.265, 174.449
1287.468, 199.460
1288.671, 75.973
1289.873, 228.292
1291.076, 107.376
1292.278, 100.928
1293.480, 170.851
1294.682, 142.108
1295.884, 177.211
1297.086, 123.109
1298.287, 119.818
1299.488, 176.646
1300.689, 162.251
1301.890, 117.829
1303.091, 144.330
1304.291, 110.801
1305.491, 189.189
1306.691, 243.117
1307.891, 62.398
1309.091, 321.160
1310.290, 156.319
1311.490, 145.522
1312.689, 194.106
1313.888, 87.910
1315.086, 113.625
1316.285, 249.803
1317.483, 157.105
1318.681, 154.766
1319.879, 210.229
1321.077, 58.741
1322.275, 176.954
1323.472, 34.877
1324.669, 125.359
1325.866, 229.018
1327.063, 133.145
1328.260, 173.324
1329.456, 90.749
1330.653, 82.317
1331.849, 115.612
1333.045, 98.282
1334.240, 179.572
1335.436, 102.881
1336.631, 147.215
1337.826, 126.683
1339.021, 159.011
1340.216, 102.911
1341.411, 117.600
1342.605, 152.123
1343.799, 116.717
1344.993, 171.690
1346.187, 191.188
1347.381, 87.727
1348.574, 184.197
1349.767, 127.551
1350.961, 142.850
1352.153, 119.556
1353.346, 69.270
1354.539, 137.918
1355.731, 122.034
1356.923, 69.670
1358.115, 166.192
1359.307, 73.168
1360.498, 198.098
1361.690, 186.487
1362.881, 115.804
1364.072, 192.609
1365.263, 165.534
1366.453, 110.255
1367.644, 148.689
1368.834, 92.332
1370.024, 106.923
1371.214, 196.475
1372.404, 99.115
1373.593, 100.931
1374.783, 129.693
1375.972, 60.087
1377.161, 146.299
1378.349, 94.569
1379.538, 15.282
1380.726, 156.128
1381.915, 165.494
1383.103, 107.671
1384.290, 175.990
1385.478, 81.021
1386.665, 187.129
1387.853, 189.085
1389.040, 131.115
1390.227, 179.117
1391.413, 247.271
1392.600, 115.460
1393.786, 234.958
1394.972, 191.843
1396.158, 171.375
1397.344, 213.515
1398.530, 169.562
1399.715, 147.751
1400.900, 118.189
1402.085, 132.640
1403.270, 133.078
1404.455, 189.132
1405.639, 145.021
1406.824, 189.917
1408.008, 117.932
1409.192, 101.888
1410.375, 157.014
1411.559, 90.935
1412.742, 108.040
1413.925, 89.448
1415.108, 62.312
1416.291, 110.346
1417.474, 69.695
1418.656, 75.651
1419.839, 160.367
1421.021, 76.866
1422.202, 121.305
1423.384, 150.900
1424.566, 64.303
1425.747, 102.561
1426.928, 126.785
1428.109, 69.406
1429.290, 112.157
1430.470, 88.525
1431.651, 64.112
1432.831, 107.309
1434.011, 23.606
1435.191, 153.390
1436.370, 41.796
1437.550, 51.975
1438.729, 82.416
1439.908, 141.012
1441.087, 68.893
1442.266, 109.519
1443.444, 103.577
1444.623, 113.758
1445.801, 100.163
1446.979, 130.343
1448.157, 135.005
1449.334, 166.769
1450.512, 157.415
1451.689, 92.647
1452.866, 140.456
1454.043, 132.661
1455.220, 90.486
1456.396, 142.618
1457.573, 73.033
1458.749, 243.951
1459.925, 172.824
1461.100, 125.952
1462.276, 194.074
1463.451, 143.680
1464.627, 122.001
1465.802, 166.072
1466.977, 151.508
1468.151, 210.266
1469.326, 153.443
1470.500, 88.281
1471.674, 184.959
1472.848, 115.828
1474.022, 135.250
1475.195, 137.155
1476.369, 155.681
1477.542, 46.758
1478.715, 154.844
1479.888, 107.703
1481.061, 106.304
1482.233, 145.336
1483.405, 49.273
1484.577, 135.247
1485.749, 144.318
1486.921, 58.419
1488.093, 163.507
1489.264, 140.273
1490.435, 106.216
1491.606, 179.120
1492.777, 14.971
1493.948, 216.801
1495.118, 202.695
1496.288, 37.604
1497.459, 177.493
1498.628, 3.638
1499.798, 100.452
1500.968, 172.913
