##NAMES=Pyromorphite
##RRUFFID=R050015
##IDEAL CHEMISTRY=Pb^2+^_5_(PO_4_)_3_Cl
##LOCALITY=Bunker Hill mine, Shoshone County, Idaho, USA
##OWNER=RRUFF
##SOURCE=Eugene Schlepp
##DESCRIPTION=Yellowish green prismatic hexagonal single crystals
##STATUS=The identification of this mineral has been confirmed by X-ray diffraction and chemical analysis
##URL=rruff.info/R050015
##MEASURED CHEMISTRY=Pb_5.00_((P_0.88_As_0.12_)O_4_)_3_Cl_1.00_
##PIN_ID=M00344
##ORIENTATION=Laser parallel to -a* (-1 0 0). Fiducial mark perpendicular to laser is parallel to -c [0 0 -1]
81.463, 0.000
82.863, 9.440
84.264, 11.551
85.664, 119.955
87.064, 616.915
88.463, 1071.454
89.863, 1212.978
91.262, 1492.126
92.661, 1221.313
94.059, 1460.272
95.458, 1325.805
96.856, 1714.251
98.254, 2214.120
99.652, 3104.087
101.049, 5251.023
102.446, 6878.992
103.843, 10451.301
105.240, 10167.692
106.637, 10118.112
108.033, 8632.448
109.429, 6780.467
110.825, 6181.717
112.220, 4805.602
113.616, 4731.609
115.011, 3679.330
116.406, 3738.439
117.800, 3296.670
119.195, 2885.804
120.589, 2933.665
121.983, 2510.119
123.377, 2747.110
124.770, 2373.714
126.163, 2591.056
127.556, 2576.631
128.949, 2503.614
130.342, 2715.420
131.734, 2639.629
133.126, 3082.021
134.518, 2806.242
135.909, 3341.963
137.301, 3378.481
138.692, 3583.734
140.083, 3932.065
141.473, 3656.316
142.864, 4259.519
144.254, 3858.749
145.644, 4343.070
147.034, 4198.543
148.423, 4153.218
149.812, 4417.140
151.201, 4020.348
152.590, 4392.877
153.979, 3940.757
155.367, 4226.019
156.755, 4217.689
158.143, 4067.792
159.530, 4336.354
160.918, 3939.389
162.305, 4464.683
163.692, 4074.589
165.078, 4492.908
166.465, 4522.956
167.851, 4535.799
169.237, 5068.731
170.623, 4819.664
172.008, 5660.224
173.393, 5390.984
174.778, 6054.009
176.163, 6376.635
177.548, 6394.041
178.932, 7130.739
180.316, 6763.351
181.700, 7662.833
183.083, 7069.278
184.467, 7547.144
185.850, 7347.053
187.233, 6786.062
188.616, 7001.738
189.998, 5883.875
191.380, 5959.444
192.762, 5168.439
194.144, 4881.920
195.525, 4533.381
196.907, 3842.684
198.288, 3935.294
199.669, 3187.011
201.049, 3113.204
202.429, 2727.451
203.810, 2599.742
205.189, 2537.075
206.569, 2155.439
207.949, 2284.825
209.328, 1881.224
210.707, 1905.620
212.085, 1676.998
213.464, 1551.348
214.842, 1585.654
216.220, 1347.902
217.598, 1400.082
218.976, 1163.177
220.353, 1203.185
221.730, 1028.101
223.107, 890.921
224.483, 985.647
225.860, 776.278
227.236, 851.813
228.612, 689.251
229.988, 739.590
231.363, 624.828
232.738, 543.964
234.113, 524.995
235.488, 390.923
236.863, 463.748
238.237, 336.470
239.611, 310.091
240.985, 275.609
242.359, 128.026
243.732, 263.342
245.105, 123.556
246.478, 212.669
247.851, 50.602
249.223, 97.081
250.595, 40.234
251.967, 18.361
253.339, 69.943
254.711, 122.029
256.082, 49.451
257.453, 57.409
258.824, 92.991
260.195, 59.274
261.565, 169.307
262.935, 55.166
264.305, 170.866
265.675, 122.472
267.044, 119.001
268.414, 217.478
269.783, 106.953
271.151, 214.418
272.520, 151.922
273.888, 194.469
275.256, 164.090
276.624, 103.793
277.992, 214.577
279.359, 126.483
280.726, 159.497
282.093, 160.636
283.460, 190.909
284.827, 151.276
286.193, 114.486
287.559, 160.145
288.925, 123.690
290.290, 149.531
291.656, 123.524
293.021, 127.468
294.386, 109.754
295.750, 47.823
297.115, 150.485
298.479, 36.293
299.843, 90.203
301.207, 17.351
302.570, 44.530
303.933, 9.908
305.296, 153.608
306.659, 137.803
308.022, 269.103
309.384, 283.368
310.746, 333.197
312.108, 439.191
313.470, 465.801
314.831, 646.690
316.193, 613.671
317.554, 765.069
318.914, 886.856
320.275, 922.273
321.635, 1120.433
322.995, 1128.463
324.355, 1330.735
325.715, 1369.924
327.074, 1562.610
328.434, 1772.381
329.792, 1785.816
331.151, 2082.128
332.510, 2117.341
333.868, 2395.266
335.226, 2594.985
336.584, 2602.178
337.941, 2934.298
339.299, 2772.932
340.656, 3081.171
342.013, 2919.454
343.370, 2980.034
344.726, 3018.479
346.082, 2744.623
347.438, 2832.198
348.794, 2473.591
350.150, 2499.584
351.505, 2254.266
352.860, 2046.507
354.215, 2068.543
355.570, 1749.542
356.924, 1868.209
358.278, 1573.859
359.632, 1564.404
360.986, 1547.627
362.339, 1342.787
363.693, 1450.004
365.046, 1277.288
366.399, 1281.280
367.751, 1296.286
369.104, 1274.158
370.456, 1362.907
371.808, 1228.724
373.159, 1399.085
374.511, 1354.374
375.862, 1412.855
377.213, 1527.011
378.564, 1511.108
379.914, 1740.995
381.265, 1684.755
382.615, 1910.452
383.965, 2029.083
385.315, 2167.647
386.664, 2468.154
388.013, 2605.604
389.362, 2831.997
390.711, 2917.328
392.060, 2906.605
393.408, 3127.812
394.756, 2949.952
396.104, 3098.026
397.451, 3010.023
398.799, 3253.967
400.146, 3579.838
401.493, 3836.646
402.840, 4892.410
404.186, 5314.089
405.533, 6762.612
406.879, 7569.170
408.225, 8048.588
409.570, 8745.044
410.916, 7786.585
412.261, 7651.403
413.606, 6465.640
414.951, 5522.433
416.295, 4886.641
417.639, 3971.453
418.983, 3649.668
420.327, 3085.807
421.671, 2716.636
423.014, 2449.143
424.357, 2064.713
425.700, 2047.984
427.043, 1728.611
428.386, 1631.285
429.728, 1448.693
431.070, 1376.393
432.412, 1318.817
433.753, 1149.987
435.095, 1190.891
436.436, 1028.695
437.777, 1036.937
439.118, 930.698
440.458, 905.111
441.798, 934.824
443.138, 757.071
444.478, 740.712
445.818, 691.177
447.157, 605.783
448.496, 668.168
449.835, 589.356
451.174, 611.708
452.513, 593.896
453.851, 527.590
455.189, 551.828
456.527, 440.732
457.864, 527.173
459.202, 491.940
460.539, 457.304
461.876, 446.113
463.212, 378.947
464.549, 445.363
465.885, 311.478
467.221, 387.033
468.557, 317.176
469.893, 285.111
471.228, 350.066
472.563, 277.392
473.898, 328.300
475.233, 253.314
476.567, 224.821
477.902, 277.241
479.236, 213.821
480.570, 241.219
481.903, 255.416
483.237, 254.476
484.570, 210.587
485.903, 204.447
487.235, 248.535
488.568, 223.082
489.900, 246.580
491.232, 244.115
492.564, 236.557
493.896, 241.704
495.227, 237.306
496.558, 269.332
497.889, 240.434
499.220, 267.949
500.551, 286.109
501.881, 225.898
503.211, 280.283
504.541, 246.017
505.870, 244.290
507.200, 290.573
508.529, 261.926
509.858, 285.129
511.187, 292.342
512.515, 327.400
513.844, 318.534
515.172, 268.172
516.500, 304.693
517.827, 274.679
519.155, 276.198
520.482, 339.895
521.809, 340.172
523.136, 307.465
524.462, 277.937
525.789, 330.702
527.115, 310.823
528.441, 325.803
529.766, 340.772
531.092, 311.791
532.417, 403.670
533.742, 408.972
535.067, 347.431
536.391, 412.640
537.716, 416.899
539.040, 455.067
540.364, 469.151
541.688, 482.469
543.011, 548.886
544.334, 555.160
545.657, 609.616
546.980, 660.081
548.303, 698.370
549.625, 760.206
550.947, 796.079
552.269, 834.027
553.591, 839.815
554.913, 802.479
556.234, 676.581
557.555, 577.144
558.876, 573.127
560.197, 463.192
561.517, 450.904
562.837, 452.529
564.157, 385.768
565.477, 446.492
566.797, 361.500
568.116, 417.770
569.435, 441.263
570.754, 411.925
572.073, 494.173
573.391, 409.535
574.709, 454.828
576.027, 390.875
577.345, 361.324
578.663, 423.497
579.980, 361.725
581.297, 385.205
582.614, 308.059
583.931, 331.900
585.248, 335.701
586.564, 244.493
587.880, 270.263
589.196, 306.012
590.511, 265.769
591.827, 296.505
593.142, 250.250
594.457, 261.813
595.772, 282.735
597.086, 255.482
598.401, 259.215
599.715, 223.965
601.029, 228.708
602.343, 267.457
603.656, 245.213
604.969, 239.934
606.282, 279.362
607.595, 272.102
608.908, 215.589
610.220, 260.228
611.532, 205.869
612.844, 174.295
614.156, 195.888
615.468, 197.079
616.779, 171.662
618.090, 228.185
619.401, 190.595
620.712, 244.018
622.022, 170.189
623.332, 194.635
624.642, 182.539
625.952, 138.730
627.262, 196.604
628.571, 186.304
629.880, 166.237
631.189, 163.805
632.498, 134.559
633.807, 156.840
635.115, 120.839
636.423, 121.232
637.731, 127.051
639.039, 145.056
640.346, 149.140
641.653, 61.176
642.960, 139.791
644.267, 93.316
645.574, 64.170
646.880, 140.761
648.186, 105.515
649.492, 101.214
650.798, 55.814
652.103, 80.413
653.409, 86.939
654.714, 83.673
656.019, 56.161
657.323, 31.806
658.628, 37.475
659.932, 44.708
661.236, 30.502
662.540, 38.857
663.843, 11.839
665.147, 28.283
666.450, 7.561
667.753, 27.122
669.056, 24.143
670.358, 52.490
671.660, 12.740
672.963, 10.287
674.264, 20.227
675.566, 15.362
676.868, 68.555
678.169, 32.586
679.470, 13.309
680.771, 24.971
682.071, 0.440
683.372, 8.734
684.672, 9.161
685.972, 27.575
687.271, 46.987
688.571, 15.595
689.870, 56.867
691.169, 30.196
692.468, 60.839
693.767, 80.288
695.065, 65.683
696.364, 35.251
697.662, 57.687
698.960, 30.185
700.257, 30.734
701.555, 68.333
702.852, 72.000
704.149, 70.735
705.446, 53.537
706.742, 82.396
708.038, 23.324
709.335, 46.291
710.631, 43.306
711.926, 8.634
713.222, 96.448
714.517, 21.599
715.812, 61.782
717.107, 21.014
718.402, 42.302
719.696, 73.611
720.990, 29.249
722.284, 75.648
723.578, 46.448
724.872, 32.038
726.165, 38.544
727.458, 3.811
728.751, 36.717
730.044, 7.381
731.336, 30.051
732.629, 87.683
733.921, 9.581
735.213, 14.218
736.504, 25.108
737.796, 35.099
739.087, 42.992
740.378, 77.994
741.669, 33.021
742.960, 60.677
744.250, 89.450
745.540, 92.384
746.830, 118.160
748.120, 127.075
749.410, 131.809
750.699, 187.602
751.988, 136.493
753.277, 220.283
754.566, 212.100
755.854, 246.781
757.143, 341.495
758.431, 292.383
759.719, 400.191
761.006, 449.989
762.294, 408.967
763.581, 633.927
764.868, 552.665
766.155, 727.604
767.442, 821.330
768.728, 908.928
770.014, 1118.642
771.300, 1121.376
772.586, 1353.020
773.872, 1635.915
775.157, 1677.669
776.442, 2131.664
777.727, 2099.366
779.012, 2387.187
780.297, 2523.976
781.581, 2378.547
782.865, 2675.434
784.149, 2472.299
785.433, 2688.100
786.716, 2736.913
787.999, 2386.607
789.282, 2619.438
790.565, 2288.090
791.848, 2249.782
793.130, 2272.562
794.413, 2072.452
795.695, 2394.387
796.977, 2349.182
798.258, 2424.137
799.540, 2745.775
800.821, 2733.866
802.102, 3276.919
803.382, 3652.849
804.663, 4013.787
805.943, 5166.936
807.224, 5862.715
808.504, 8138.655
809.783, 10808.605
811.063, 14568.068
812.342, 21426.807
813.621, 27565.848
814.900, 37025.219
816.179, 43454.172
817.457, 43393.523
818.736, 42931.809
820.014, 32110.951
821.292, 25689.189
822.569, 20125.354
823.847, 14424.610
825.124, 12649.383
826.401, 9778.306
827.678, 8425.931
828.954, 7673.039
830.231, 6230.562
831.507, 6124.854
832.783, 5298.514
834.059, 4910.111
835.334, 4957.477
836.610, 4305.499
837.885, 4546.118
839.160, 4160.832
840.435, 3927.506
841.709, 4258.084
842.983, 3930.758
844.258, 4434.963
845.532, 4692.968
846.805, 4739.178
848.079, 5572.298
849.352, 5213.467
850.625, 5408.679
851.898, 5182.618
853.171, 4199.420
854.443, 4037.326
855.715, 2946.013
856.988, 2474.611
858.259, 2069.434
859.531, 1585.482
860.803, 1489.867
862.074, 1200.994
863.345, 1093.916
864.616, 1124.154
865.886, 873.922
867.157, 983.198
868.427, 873.023
869.697, 817.735
870.967, 940.779
872.236, 820.896
873.506, 977.375
874.775, 974.357
876.044, 867.051
877.313, 882.457
878.581, 704.640
879.849, 723.644
881.118, 571.059
882.386, 413.356
883.653, 434.722
884.921, 290.341
886.188, 265.597
887.455, 264.146
888.722, 160.669
889.989, 275.956
891.255, 179.890
892.522, 181.881
893.788, 309.942
895.054, 97.070
896.319, 346.259
897.585, 273.501
898.850, 299.809
900.115, 489.177
901.380, 477.598
902.645, 688.091
903.909, 941.644
905.174, 1039.267
906.438, 1459.963
907.701, 1667.712
908.965, 2180.527
910.229, 2815.396
911.492, 3303.332
912.755, 4988.349
914.018, 6536.423
915.280, 8820.571
916.543, 11644.786
917.805, 12559.055
919.067, 14533.383
920.329, 13627.766
921.590, 12382.217
922.852, 12026.725
924.113, 9931.290
925.374, 9525.919
926.635, 9030.606
927.895, 8355.354
929.156, 9350.155
930.416, 9045.016
931.676, 10529.930
932.936, 12074.904
934.195, 12889.934
935.454, 16065.035
936.714, 17650.191
937.973, 20475.406
939.231, 24480.682
940.490, 25316.018
941.748, 29291.408
943.006, 29536.863
944.264, 28652.367
945.522, 29677.943
946.780, 25383.570
948.037, 23969.252
949.294, 21405.004
950.551, 17160.807
951.808, 16336.675
953.064, 13112.609
954.320, 11298.600
955.577, 10214.654
956.832, 8040.775
958.088, 7596.959
959.344, 6213.203
960.599, 5439.505
961.854, 5215.976
963.109, 4131.397
964.364, 4044.888
965.618, 3486.456
966.872, 3118.438
968.127, 3165.137
969.380, 2622.882
970.634, 2635.707
971.888, 2532.843
973.141, 2147.796
974.394, 2287.827
975.647, 2107.920
976.900, 1956.097
978.152, 2073.338
979.404, 1761.658
980.656, 1905.082
981.908, 1816.559
983.160, 1534.130
984.411, 1746.786
985.663, 1459.503
986.914, 1514.293
988.165, 1589.146
989.415, 1294.069
990.666, 1437.060
991.916, 1323.124
993.166, 1282.268
994.416, 1425.480
995.665, 1222.770
996.915, 1524.132
998.164, 1467.571
999.413, 1394.091
1000.662, 1690.692
1001.911, 1583.363
1003.159, 1836.112
1004.407, 1916.928
1005.655, 1872.810
1006.903, 2184.771
1008.151, 2258.808
1009.398, 2424.920
1010.646, 2797.102
1011.893, 2662.366
1013.139, 3205.692
1014.386, 3232.021
1015.633, 3254.482
1016.879, 3715.289
1018.125, 3373.892
1019.371, 3503.551
1020.616, 3549.114
1021.862, 3092.314
1023.107, 3224.091
1024.352, 2949.672
1025.597, 2766.813
1026.842, 2782.858
1028.086, 2337.977
1029.330, 2417.632
1030.574, 2297.690
1031.818, 2009.234
1033.062, 2118.985
1034.305, 1791.493
1035.548, 1797.949
1036.791, 1817.004
1038.034, 1644.932
1039.277, 1762.478
1040.519, 1585.654
1041.762, 1541.854
1043.004, 1692.631
1044.246, 1371.995
1045.487, 1436.500
1046.729, 1444.363
1047.970, 1182.455
1049.211, 1295.008
1050.452, 1066.922
1051.692, 1067.275
1052.933, 1115.719
1054.173, 851.575
1055.413, 1001.051
1056.653, 805.150
1057.893, 666.827
1059.132, 809.996
1060.371, 646.399
1061.610, 670.473
1062.849, 636.347
1064.088, 526.344
1065.326, 613.524
1066.565, 479.010
1067.803, 475.409
1069.041, 616.838
1070.278, 480.067
1071.516, 580.557
1072.753, 572.076
1073.990, 407.858
1075.227, 600.436
1076.464, 467.720
1077.700, 461.751
1078.936, 513.505
1080.173, 322.195
1081.408, 528.945
1082.644, 443.688
1083.880, 356.551
1085.115, 495.346
1086.350, 440.165
1087.585, 470.537
1088.820, 440.607
1090.054, 354.499
1091.288, 345.419
1092.522, 341.409
1093.756, 283.688
1094.990, 308.769
1096.224, 219.775
1097.457, 283.655
1098.690, 253.702
1099.923, 129.768
1101.156, 202.940
1102.388, 132.124
1103.621, 53.248
1104.853, 166.736
1106.085, 78.249
1107.316, 68.589
1108.548, 43.782
1109.779, 11.009
1111.010, 14.214
1112.241, 4.523
1113.472, 0.827
1114.703, 27.908
1115.933, 87.605
1117.163, 40.173
1118.393, 53.874
1119.623, 19.817
1120.853, 169.712
1122.082, 149.253
1123.311, 125.666
1124.540, 63.432
1125.769, 43.343
1126.997, 89.291
1128.226, 0.162
1129.454, 25.314
1130.682, 60.284
1131.910, 9.869
1133.138, 22.532
1134.365, 107.083
1135.592, 38.483
1136.819, 192.604
1138.046, 121.673
1139.273, 176.672
1140.499, 166.557
1141.725, 153.639
1142.951, 276.300
1144.177, 214.787
1145.403, 242.312
1146.628, 326.839
1147.854, 198.437
1149.079, 258.489
1150.304, 337.953
1151.528, 205.884
1152.753, 208.784
1153.977, 192.282
1155.201, 90.939
1156.425, 146.015
1157.649, 47.809
1158.872, 16.855
1160.096, 64.103
1161.319, 25.692
1162.542, 29.447
1163.764, 5.904
1164.987, 37.730
1166.209, 21.570
1167.431, 40.669
1168.653, 70.415
1169.875, 18.684
1171.097, 72.156
1172.318, 97.913
1173.539, 8.846
1174.760, 109.199
1175.981, 45.180
1177.202, 86.027
1178.422, 56.866
1179.642, 39.947
1180.862, 102.321
1182.082, 66.365
1183.302, 56.977
1184.521, 85.656
1185.740, 34.044
1186.959, 34.882
1188.178, 14.985
1189.397, 58.156
1190.615, 49.389
1191.834, 14.871
1193.052, 23.834
1194.269, 38.666
1195.487, 10.250
1196.705, 58.173
1197.922, 52.601
1199.139, 2.939
1200.356, 40.661
1201.573, 48.608
1202.789, 56.572
1204.006, 16.096
1205.222, 59.896
1206.438, 23.946
1207.653, 64.627
1208.869, 24.300
1210.084, 43.929
1211.299, 13.260
1212.514, 44.466
1213.729, 73.425
1214.944, 83.374
1216.158, 23.225
1217.372, 65.554
1218.586, 62.191
1219.800, 4.807
1221.014, 80.746
1222.227, 39.225
1223.440, 48.807
1224.654, 62.291
1225.866, 103.295
1227.079, 69.903
1228.292, 101.177
1229.504, 0.205
1230.716, 87.036
1231.928, 90.322
1233.139, 32.688
1234.351, 73.196
1235.562, 112.384
1236.773, 99.699
1237.984, 88.830
1239.195, 76.712
1240.406, 89.820
1241.616, 129.740
1242.826, 62.564
1244.036, 143.516
1245.246, 148.433
1246.456, 60.243
1247.665, 61.909
1248.874, 124.875
1250.083, 32.665
1251.292, 94.262
1252.501, 107.223
1253.709, 158.144
1254.917, 175.581
1256.125, 165.540
1257.333, 127.733
1258.541, 135.030
1259.748, 150.413
1260.956, 145.269
1262.163, 37.532
1263.370, 93.884
1264.576, 90.179
1265.783, 74.137
1266.989, 122.185
1268.195, 139.170
1269.401, 112.084
1270.607, 135.950
1271.813, 56.001
1273.018, 82.752
1274.223, 55.702
1275.428, 44.413
1276.633, 55.014
1277.838, 133.706
1279.042, 146.346
1280.246, 181.396
1281.450, 110.805
1282.654, 114.795
1283.858, 120.164
1285.061, 83.435
1286.265, 117.969
1287.468, 148.308
1288.671, 101.446
1289.873, 170.606
1291.076, 171.658
1292.278, 99.670
1293.480, 126.638
1294.682, 106.664
1295.884, 135.697
1297.086, 138.403
1298.287, 107.330
1299.488, 160.388
1300.689, 130.096
1301.890, 149.758
1303.091, 88.533
1304.291, 122.098
1305.491, 124.616
1306.691, 127.155
1307.891, 43.580
1309.091, 162.656
1310.290, 146.115
1311.490, 152.387
1312.689, 227.776
1313.888, 145.542
1315.086, 160.744
1316.285, 197.165
1317.483, 127.032
1318.681, 115.015
1319.879, 208.937
1321.077, 93.333
1322.275, 153.336
1323.472, 92.856
1324.669, 104.178
1325.866, 149.750
1327.063, 102.374
1328.260, 100.418
1329.456, 158.592
1330.653, 108.146
1331.849, 117.068
1333.045, 119.969
1334.240, 117.290
1335.436, 145.026
1336.631, 109.655
1337.826, 134.893
1339.021, 140.063
1340.216, 128.606
1341.411, 170.787
1342.605, 89.655
1343.799, 130.303
1344.993, 183.537
1346.187, 118.147
1347.381, 95.133
1348.574, 144.539
1349.767, 105.451
1350.961, 80.126
1352.153, 116.129
1353.346, 145.329
1354.539, 166.403
1355.731, 121.492
1356.923, 78.072
1358.115, 127.735
1359.307, 109.821
1360.498, 83.643
1361.690, 101.199
1362.881, 99.722
1364.072, 56.978
1365.263, 112.564
1366.453, 85.338
1367.644, 94.340
1368.834, 43.604
1370.024, 70.901
1371.214, 123.131
1372.404, 64.363
1373.593, 107.453
1374.783, 89.599
1375.972, 75.712
1377.161, 56.265
1378.349, 86.459
1379.538, 14.159
1380.726, 87.006
1381.915, 157.419
1383.103, 83.306
1384.290, 118.995
1385.478, 132.358
1386.665, 90.421
1387.853, 92.318
1389.040, 111.688
1390.227, 152.916
1391.413, 72.096
1392.600, 90.483
1393.786, 124.981
1394.972, 55.354
1396.158, 55.682
1397.344, 144.051
1398.530, 99.993
1399.715, 51.039
1400.900, 133.039
1402.085, 92.616
1403.270, 166.460
1404.455, 97.123
1405.639, 68.670
1406.824, 70.467
1408.008, 79.179
1409.192, 105.078
1410.375, 107.841
1411.559, 119.318
1412.742, 151.218
1413.925, 55.457
1415.108, 125.394
1416.291, 44.548
1417.474, 87.157
1418.656, 109.214
1419.839, 63.368
1421.021, 63.313
1422.202, 9.482
1423.384, 125.014
1424.566, 4.951
1425.747, 76.053
1426.928, 103.974
1428.109, 25.179
1429.290, 46.657
1430.470, 148.365
1431.651, 67.238
1432.831, 100.361
1434.011, 82.297
1435.191, 98.815
1436.370, 53.797
1437.550, 40.727
1438.729, 81.845
1439.908, 81.332
1441.087, 15.756
1442.266, 92.294
1443.444, 175.223
1444.623, 35.492
1445.801, 110.437
1446.979, 110.419
1448.157, 122.743
1449.334, 113.062
1450.512, 118.186
1451.689, 30.062
1452.866, 133.008
1454.043, 74.126
1455.220, 93.989
1456.396, 160.657
1457.573, 139.455
1458.749, 137.697
1459.925, 177.627
1461.100, 156.946
1462.276, 144.823
1463.451, 117.227
1464.627, 132.437
1465.802, 119.378
1466.977, 152.521
1468.151, 225.121
1469.326, 217.466
1470.500, 114.292
1471.674, 145.427
1472.848, 59.816
1474.022, 65.861
1475.195, 46.592
1476.369, 80.503
1477.542, 31.592
1478.715, 170.299
1479.888, 1.762
1481.061, 112.599
1482.233, 39.475
1483.405, 4.752
1484.577, 135.602
1485.749, 99.490
1486.921, 87.793
1488.093, 63.662
1489.264, 100.532
1490.435, 102.459
1491.606, 111.404
1492.777, 62.381
1493.948, 159.363
1495.118, 82.365
1496.288, 3.573
1497.459, 109.614
1498.628, 55.877
1499.798, 10.070
1500.968, 126.122
1502.137, 46.517
1503.306, 72.915
