##NAMES=Pyromorphite
##RRUFFID=R050015
##IDEAL CHEMISTRY=Pb^2+^_5_(PO_4_)_3_Cl
##LOCALITY=Bunker Hill mine, Shoshone County, Idaho, USA
##OWNER=RRUFF
##SOURCE=Eugene Schlepp
##DESCRIPTION=Yellowish green prismatic hexagonal single crystals
##STATUS=The identification of this mineral has been confirmed by X-ray diffraction and chemical analysis
##URL=rruff.info/R050015
##MEASURED CHEMISTRY=Pb_5.00_((P_0.88_As_0.12_)O_4_)_3_Cl_1.00_
##PIN_ID=L00424
##ORIENTATION=Laser parallel to -c* (0 0 -1). Fiducial mark perpendicular to laser is parallel to -b [0 -1 0]
81.521, 0.000
82.916, 22.508
84.311, 128.310
85.706, 661.278
87.101, 1565.938
88.496, 2645.826
89.890, 3928.903
91.284, 4957.260
92.678, 5185.350
94.071, 5499.418
95.465, 4666.831
96.858, 4365.498
98.251, 3963.582
99.644, 3799.491
101.036, 4401.906
102.428, 5269.920
103.820, 7993.130
105.212, 10531.263
106.604, 14724.020
107.995, 15871.029
109.387, 15011.834
110.777, 12865.859
112.168, 9552.486
113.559, 7941.159
114.949, 5881.412
116.339, 5052.865
117.729, 3825.213
119.119, 3118.336
120.508, 2592.289
121.897, 1797.375
123.286, 1534.547
124.675, 1054.299
126.063, 884.646
127.452, 559.314
128.840, 546.237
130.228, 343.277
131.615, 280.040
133.003, 410.184
134.390, 243.320
135.777, 287.976
137.164, 216.667
138.550, 317.800
139.937, 557.984
141.323, 660.982
142.709, 961.692
144.094, 1128.042
145.480, 1353.247
146.865, 1537.132
148.250, 1821.783
149.635, 2045.232
151.019, 2308.573
152.403, 2689.900
153.788, 2750.250
155.171, 3140.567
156.555, 3262.752
157.939, 3335.789
159.322, 3498.523
160.705, 3195.264
162.088, 3336.858
163.470, 2941.506
164.853, 2866.570
166.235, 2595.686
167.617, 2465.432
168.998, 2397.415
170.380, 1999.579
171.761, 2168.351
173.142, 1877.653
174.523, 2125.250
175.904, 1989.304
177.284, 1968.107
178.664, 2070.699
180.044, 1900.089
181.424, 2123.656
182.803, 1914.622
184.183, 2067.659
185.562, 1977.507
186.940, 2007.535
188.319, 2009.593
189.698, 1934.242
191.076, 1976.436
192.454, 1902.642
193.831, 1930.037
195.209, 1865.170
196.586, 1771.091
197.963, 1741.065
199.340, 1640.381
200.717, 1711.526
202.093, 1558.575
203.470, 1509.542
204.846, 1544.799
206.221, 1387.125
207.597, 1404.994
208.972, 1335.176
210.347, 1391.312
211.722, 1195.159
213.097, 1199.867
214.472, 1136.359
215.846, 1040.050
217.220, 1081.956
218.594, 883.452
219.967, 871.343
221.341, 754.912
222.714, 621.080
224.087, 588.868
225.460, 482.770
226.832, 468.878
228.204, 374.561
229.577, 310.237
230.948, 243.755
232.320, 184.554
233.692, 179.153
235.063, 147.552
236.434, 148.753
237.805, 34.754
239.175, 5.545
240.545, 23.881
241.916, 11.525
243.286, 11.406
244.655, 130.558
246.025, 44.012
247.394, 108.759
248.763, 132.373
250.132, 79.080
251.501, 154.551
252.869, 166.126
254.237, 169.028
255.605, 81.422
256.973, 163.409
258.340, 88.106
259.708, 105.575
261.075, 166.886
262.442, 89.111
263.808, 168.276
265.175, 173.444
266.541, 110.649
267.907, 180.903
269.273, 123.252
270.639, 127.707
272.004, 135.293
273.369, 194.034
274.734, 129.965
276.099, 111.088
277.463, 124.411
278.828, 39.948
280.192, 155.690
281.556, 89.673
282.919, 125.885
284.283, 104.192
285.646, 99.582
287.009, 109.231
288.372, 39.899
289.734, 84.829
291.097, 11.786
292.459, 42.027
293.821, 40.424
295.183, 11.777
296.544, 2.209
297.905, 8.448
299.266, 6.796
300.627, 67.836
301.988, 111.406
303.348, 61.776
304.709, 175.914
306.069, 117.872
307.428, 188.566
308.788, 216.722
310.147, 288.808
311.507, 328.667
312.865, 368.735
314.224, 376.789
315.583, 432.092
316.941, 492.169
318.299, 494.917
319.657, 545.425
321.015, 644.675
322.372, 606.613
323.729, 725.365
325.086, 724.852
326.443, 710.060
327.800, 816.914
329.156, 785.418
330.512, 850.568
331.868, 833.251
333.224, 892.518
334.579, 912.341
335.935, 959.732
337.290, 1031.758
338.645, 953.367
339.999, 1082.646
341.354, 1048.524
342.708, 1190.732
344.062, 1095.593
345.416, 1169.072
346.769, 1241.092
348.123, 1159.855
349.476, 1227.118
350.829, 1109.156
352.182, 1133.965
353.534, 1058.164
354.887, 1037.198
356.239, 1041.814
357.591, 952.416
358.942, 950.832
360.294, 994.979
361.645, 947.803
362.996, 999.614
364.347, 978.105
365.698, 1045.327
367.048, 1073.550
368.398, 1037.621
369.748, 1206.476
371.098, 1222.095
372.448, 1338.584
373.797, 1381.952
375.146, 1509.065
376.495, 1639.000
377.844, 1556.711
379.192, 1713.002
380.540, 1709.181
381.889, 1800.249
383.236, 1710.211
384.584, 1816.055
385.932, 1961.781
387.279, 2033.393
388.626, 2201.885
389.973, 2306.263
391.319, 2473.128
392.666, 2616.593
394.012, 2546.648
395.358, 2547.326
396.704, 2355.842
398.049, 2227.089
399.394, 2099.198
400.740, 2004.220
402.084, 2072.664
403.429, 2034.410
404.774, 2168.696
406.118, 2272.744
407.462, 2515.077
408.806, 2727.606
410.150, 2964.866
411.493, 3340.471
412.836, 3642.145
414.179, 4066.766
415.522, 4286.327
416.865, 4529.339
418.207, 4698.465
419.549, 4353.048
420.891, 4053.948
422.233, 3521.333
423.575, 3076.439
424.916, 2690.990
426.257, 2342.131
427.598, 2194.503
428.939, 1880.369
430.279, 1797.376
431.619, 1716.552
432.959, 1588.998
434.299, 1595.532
435.639, 1497.916
436.978, 1460.874
438.318, 1343.571
439.657, 1349.134
440.996, 1230.413
442.334, 1042.137
443.673, 1029.621
445.011, 945.206
446.349, 891.926
447.687, 879.470
449.024, 804.816
450.361, 793.181
451.699, 716.243
453.036, 706.513
454.372, 659.490
455.709, 668.225
457.045, 629.864
458.381, 603.166
459.717, 636.815
461.053, 596.955
462.388, 625.735
463.724, 593.135
465.059, 565.078
466.394, 532.727
467.728, 518.214
469.063, 573.246
470.397, 518.856
471.731, 505.431
473.065, 500.450
474.398, 456.733
475.732, 444.874
477.065, 437.444
478.398, 456.397
479.731, 453.053
481.063, 452.841
482.396, 465.375
483.728, 447.381
485.060, 443.820
486.391, 436.146
487.723, 433.101
489.054, 429.543
490.385, 420.674
491.716, 426.000
493.047, 428.354
494.377, 437.045
495.708, 440.185
497.038, 429.240
498.368, 427.479
499.697, 402.545
501.027, 400.702
502.356, 454.604
503.685, 443.500
505.014, 441.128
506.342, 458.922
507.671, 426.299
508.999, 457.803
510.327, 428.455
511.655, 400.220
512.982, 476.614
514.310, 440.617
515.637, 482.003
516.964, 425.845
518.291, 412.609
519.617, 431.239
520.944, 464.421
522.270, 425.902
523.596, 461.915
524.921, 489.717
526.247, 451.415
527.572, 449.087
528.897, 469.340
530.222, 492.361
531.547, 488.034
532.871, 486.959
534.196, 509.869
535.520, 521.440
536.844, 544.398
538.167, 635.685
539.491, 652.584
540.814, 792.008
542.137, 922.221
543.460, 1017.925
544.783, 1034.402
546.105, 1028.533
547.427, 998.750
548.749, 858.648
550.071, 817.154
551.393, 913.540
552.714, 927.070
554.035, 1087.040
555.356, 1102.396
556.677, 1074.004
557.998, 1112.098
559.318, 898.269
560.638, 895.478
561.958, 765.936
563.278, 761.423
564.597, 756.143
565.917, 685.571
567.236, 835.895
568.555, 900.456
569.874, 1031.135
571.192, 1285.655
572.511, 1508.109
573.829, 1922.708
575.147, 2087.410
576.464, 2136.221
577.782, 1840.588
579.099, 1410.934
580.416, 1154.766
581.733, 886.066
583.050, 787.358
584.366, 717.625
585.683, 556.942
586.999, 577.207
588.315, 495.459
589.630, 548.717
590.946, 476.968
592.261, 461.216
593.576, 494.463
594.891, 466.728
596.206, 456.996
597.520, 408.262
598.834, 458.532
600.148, 396.787
601.462, 379.057
602.776, 420.327
604.089, 366.457
605.402, 370.431
606.715, 415.420
608.028, 379.174
609.341, 389.201
610.653, 374.981
611.965, 365.912
613.277, 345.261
614.589, 329.702
615.901, 343.014
617.212, 306.257
618.523, 320.686
619.834, 382.992
621.145, 277.438
622.456, 303.754
623.766, 255.979
625.076, 291.065
626.386, 323.103
627.696, 257.371
629.006, 269.407
630.315, 233.375
631.624, 229.306
632.933, 226.036
634.242, 192.700
635.551, 206.818
636.859, 208.982
638.167, 223.617
639.475, 173.231
640.783, 188.871
642.090, 182.413
643.398, 163.007
644.705, 191.362
646.012, 136.774
647.318, 135.147
648.625, 109.462
649.931, 124.775
651.237, 135.076
652.543, 88.394
653.849, 114.702
655.155, 101.945
656.460, 67.160
657.765, 41.247
659.070, 81.293
660.375, 23.546
661.679, 118.712
662.984, 14.853
664.288, 54.026
665.592, 33.039
666.895, 31.157
668.199, 36.125
669.502, 15.048
670.805, 16.044
672.108, 12.043
673.411, 9.996
674.713, 19.771
676.016, 31.528
677.318, 8.804
678.620, 19.978
679.921, 12.355
681.223, 29.618
682.524, 10.811
683.825, 4.804
685.126, 58.609
686.427, 31.001
687.727, 11.341
689.028, 46.727
690.328, 22.829
691.628, 31.523
692.927, 40.864
694.227, 81.152
695.526, 62.195
696.825, 73.751
698.124, 105.468
699.423, 68.716
700.721, 74.025
702.020, 76.394
703.318, 53.823
704.616, 68.690
705.913, 129.829
707.211, 83.441
708.508, 72.112
709.805, 82.833
711.102, 40.608
712.399, 48.417
713.695, 21.258
714.992, 82.121
716.288, 50.031
717.584, 14.973
718.879, 60.930
720.175, 4.080
721.470, 21.919
722.765, 20.933
724.060, 25.039
725.355, 4.995
726.649, 1.964
727.944, 5.917
729.238, 60.135
730.532, 12.211
731.825, 17.294
733.119, 33.614
734.412, 36.480
735.705, 22.587
736.998, 5.299
738.291, 14.183
739.584, 7.065
740.876, 2.052
742.168, 5.977
743.460, 18.203
744.752, 30.590
746.043, 63.472
747.334, 114.355
748.626, 148.225
749.916, 100.111
751.207, 177.000
752.498, 234.891
753.788, 180.641
755.078, 287.539
756.368, 257.293
757.658, 287.999
758.947, 275.905
760.237, 315.612
761.526, 369.364
762.815, 445.290
764.104, 376.137
765.392, 521.055
766.680, 531.944
767.969, 600.827
769.257, 698.654
770.544, 726.449
771.832, 853.331
773.119, 1019.093
774.406, 1048.947
775.693, 1380.974
776.980, 1404.713
778.267, 1855.596
779.553, 1948.313
780.839, 2233.213
782.125, 2644.283
783.411, 2729.111
784.697, 3077.027
785.982, 3120.829
787.267, 3177.650
788.552, 3508.499
789.837, 3220.246
791.122, 3482.092
792.406, 3225.987
793.690, 3033.984
794.974, 3133.811
796.258, 2905.744
797.542, 3012.692
798.825, 2970.603
800.108, 2832.674
801.391, 3265.561
802.674, 3110.485
803.957, 3253.347
805.239, 3455.317
806.522, 3342.377
807.804, 4181.288
809.085, 4483.353
810.367, 5756.413
811.649, 7174.198
812.930, 9191.318
814.211, 12849.436
815.492, 16776.043
816.772, 23374.418
818.053, 29410.824
819.333, 30468.855
820.613, 31076.320
821.893, 24263.820
823.173, 18141.625
824.452, 14186.812
825.732, 10013.991
827.011, 8319.610
828.290, 6426.711
829.568, 5294.435
830.847, 4547.208
832.125, 3517.534
833.403, 3051.289
834.681, 2657.653
835.959, 2187.065
837.236, 2117.791
838.514, 1807.590
839.791, 1842.587
841.068, 1690.455
842.345, 1512.670
843.621, 1745.831
844.898, 1550.951
846.174, 1645.351
847.450, 1834.309
848.726, 1877.883
850.001, 2263.793
851.277, 2343.127
852.552, 2426.620
853.827, 2409.573
855.102, 1934.349
856.376, 1789.134
857.651, 1318.431
858.925, 1034.000
860.199, 821.916
861.473, 523.911
862.746, 425.720
864.020, 441.052
865.293, 264.960
866.566, 372.586
867.839, 155.693
869.112, 231.690
870.384, 207.628
871.656, 239.301
872.928, 310.929
874.200, 42.332
875.472, 273.012
876.744, 194.828
878.015, 107.432
879.286, 339.939
880.557, 174.642
881.828, 118.425
883.098, 303.104
884.369, 251.724
885.639, 373.286
886.909, 373.329
888.178, 306.445
889.448, 469.107
890.717, 349.345
891.987, 629.655
893.256, 548.026
894.524, 672.413
895.793, 897.910
897.061, 755.483
898.330, 1018.142
899.598, 1256.877
900.865, 1279.675
902.133, 1585.554
903.401, 1804.499
904.668, 2198.519
905.935, 2721.594
907.202, 3281.745
908.468, 4386.966
909.735, 5249.243
911.001, 6691.598
912.267, 9154.009
913.533, 11686.489
914.799, 17289.041
916.064, 23331.652
917.330, 32364.324
918.595, 44527.062
919.860, 47849.852
921.124, 50422.711
922.389, 43355.625
923.653, 33228.605
924.918, 26981.637
926.182, 19224.732
927.445, 14787.884
928.709, 11661.094
929.972, 8384.364
931.236, 7557.708
932.499, 6171.110
933.761, 5684.587
935.024, 5768.122
936.286, 5301.719
937.549, 5855.376
938.811, 6229.093
940.073, 6842.870
941.334, 7936.716
942.596, 8080.625
943.857, 9374.591
945.118, 9888.626
946.379, 9982.719
947.640, 10256.871
948.900, 9351.087
950.161, 8525.363
951.421, 8129.701
952.681, 6624.111
953.940, 6198.582
955.200, 4973.120
956.459, 4247.720
957.719, 3822.387
958.978, 3119.115
960.236, 2800.909
961.495, 2509.765
962.753, 2017.685
964.012, 1970.667
965.270, 1645.723
966.527, 1527.841
967.785, 1605.028
969.043, 1216.276
970.300, 1393.599
971.557, 1203.988
972.814, 1216.443
974.071, 1265.965
975.327, 1122.553
976.583, 1197.218
977.840, 1225.952
979.095, 1089.761
980.351, 1321.637
981.607, 1303.590
982.862, 1206.634
984.117, 1321.754
985.372, 1195.957
986.627, 1393.232
987.882, 1315.586
989.136, 1272.030
990.390, 1472.540
991.644, 1293.133
992.898, 1438.801
994.152, 1435.539
995.405, 1498.361
996.659, 1808.250
997.912, 1626.212
999.165, 1933.254
1000.417, 2251.384
1001.670, 2261.597
1002.922, 2675.898
1004.174, 2687.288
1005.426, 2953.758
1006.678, 3333.309
1007.930, 3276.941
1009.181, 3684.652
1010.432, 3562.440
1011.683, 3442.326
1012.934, 3638.302
1014.185, 3232.353
1015.435, 3204.484
1016.685, 2941.396
1017.935, 2714.667
1019.185, 2595.007
1020.435, 2281.093
1021.684, 2133.379
1022.934, 2054.927
1024.183, 1789.714
1025.432, 1676.381
1026.680, 1436.222
1027.929, 1387.535
1029.177, 1346.653
1030.425, 1094.864
1031.673, 1099.799
1032.921, 937.883
1034.169, 848.023
1035.416, 897.853
1036.663, 821.393
1037.911, 759.675
1039.157, 749.569
1040.404, 568.455
1041.650, 692.451
1042.897, 660.720
1044.143, 547.817
1045.389, 602.164
1046.634, 579.896
1047.880, 592.225
1049.125, 537.808
1050.371, 525.435
1051.615, 491.582
1052.860, 394.707
1054.105, 430.465
1055.349, 380.837
1056.593, 384.142
1057.837, 299.569
1059.081, 369.549
1060.325, 293.194
1061.568, 451.251
1062.812, 332.891
1064.055, 336.453
1065.298, 503.627
1066.540, 264.004
1067.783, 427.521
1069.025, 434.802
1070.267, 414.776
1071.509, 518.141
1072.751, 417.529
1073.993, 380.951
1075.234, 596.406
1076.475, 374.895
1077.716, 560.431
1078.957, 443.986
1080.198, 413.563
1081.438, 507.184
1082.679, 405.796
1083.919, 442.647
1085.159, 431.357
1086.398, 338.098
1087.638, 547.869
1088.877, 373.667
1090.116, 493.401
1091.355, 486.795
1092.594, 374.183
1093.833, 473.539
1095.071, 414.476
1096.309, 396.562
1097.547, 546.551
1098.785, 401.565
1100.023, 309.955
1101.260, 405.090
1102.498, 308.177
1103.735, 350.469
1104.972, 294.601
1106.208, 280.966
1107.445, 283.183
1108.681, 197.653
1109.918, 181.554
1111.154, 247.793
1112.389, 166.052
1113.625, 207.070
1114.860, 177.368
1116.096, 139.685
1117.331, 124.021
1118.566, 96.381
1119.800, 133.375
1121.035, 141.823
1122.269, 194.508
1123.503, 191.854
1124.737, 194.982
1125.971, 133.646
1127.205, 211.123
1128.438, 52.724
1129.671, 122.601
1130.904, 117.102
1132.137, 51.506
1133.370, 83.215
1134.602, 88.898
1135.834, 42.089
1137.066, 238.338
1138.298, 81.018
1139.530, 201.586
1140.762, 251.758
1141.993, 159.728
1143.224, 239.989
1144.455, 135.369
1145.686, 331.064
1146.917, 253.162
1148.147, 237.881
1149.377, 357.642
1150.607, 283.180
1151.837, 308.901
1153.067, 363.988
1154.296, 218.154
1155.526, 250.436
1156.755, 227.912
1157.984, 126.615
1159.213, 150.180
1160.441, 192.661
1161.670, 70.466
1162.898, 157.075
1164.126, 26.062
1165.354, 6.542
1166.581, 27.171
1167.809, 48.239
1169.036, 25.577
1170.263, 15.192
1171.490, 114.118
1172.717, 95.557
1173.943, 72.087
1175.170, 134.204
1176.396, 31.561
1177.622, 72.250
1178.848, 22.685
1180.073, 45.130
1181.299, 43.704
1182.524, 55.189
1183.749, 84.426
1184.974, 59.048
1186.199, 29.878
1187.423, 65.550
1188.648, 65.398
1189.872, 31.024
1191.096, 44.537
1192.320, 8.465
1193.543, 87.181
1194.767, 111.302
1195.990, 80.328
1197.213, 25.578
1198.436, 83.954
1199.659, 32.888
1200.881, 61.373
1202.104, 40.175
1203.326, 68.645
1204.548, 29.104
1205.770, 66.780
1206.991, 62.760
1208.213, 29.771
1209.434, 7.661
1210.655, 55.475
1211.876, 32.648
1213.096, 26.043
1214.317, 1.250
1215.537, 54.770
1216.757, 3.594
1217.977, 39.539
1219.197, 60.056
1220.417, 57.168
1221.636, 64.208
1222.855, 63.471
1224.074, 47.931
1225.293, 85.958
1226.512, 15.612
1227.731, 128.342
1228.949, 12.801
1230.167, 46.947
1231.385, 168.677
1232.603, 94.957
1233.820, 70.776
1235.038, 71.465
1236.255, 11.737
1237.472, 92.289
1238.689, 67.115
1239.906, 49.763
1241.122, 160.176
1242.338, 65.941
1243.555, 146.535
1244.771, 95.104
1245.986, 62.649
1247.202, 20.120
1248.417, 97.483
1249.633, 42.712
1250.848, 127.881
1252.063, 45.023
1253.277, 91.299
1254.492, 80.380
1255.706, 65.802
1256.920, 162.037
1258.134, 125.987
1259.348, 40.399
1260.562, 155.458
1261.775, 168.578
1262.988, 128.653
1264.201, 66.422
1265.414, 82.118
1266.627, 115.778
1267.839, 102.604
1269.052, 94.174
1270.264, 141.874
1271.476, 103.344
1272.688, 140.181
1273.899, 123.755
1275.111, 40.338
1276.322, 27.984
1277.533, 87.178
1278.744, 48.835
1279.955, 133.017
1281.165, 103.275
1282.376, 1.415
1283.586, 142.454
1284.796, 180.354
1286.006, 113.580
1287.215, 127.546
1288.425, 72.821
1289.634, 71.588
1290.843, 167.261
1292.052, 83.164
1293.261, 98.747
1294.469, 98.286
1295.678, 72.055
1296.886, 175.744
1298.094, 137.144
1299.302, 133.684
1300.509, 128.054
1301.717, 78.318
1302.924, 189.935
1304.131, 77.103
1305.338, 52.355
1306.545, 172.572
1307.752, 116.592
1308.958, 70.636
1310.164, 268.846
1311.370, 77.720
1312.576, 222.573
1313.782, 113.676
1314.987, 71.602
1316.193, 187.710
1317.398, 176.171
1318.603, 79.757
1319.807, 149.179
1321.012, 160.138
1322.216, 109.298
1323.421, 159.374
1324.625, 91.734
1325.829, 94.951
1327.032, 153.124
1328.236, 125.609
1329.439, 153.396
1330.642, 184.425
1331.845, 147.852
1333.048, 167.456
1334.251, 126.756
1335.453, 113.759
1336.656, 151.934
1337.858, 63.858
1339.060, 172.396
1340.261, 131.335
1341.463, 160.015
1342.664, 203.649
1343.866, 94.868
1345.067, 185.890
1346.267, 149.190
1347.468, 72.583
1348.669, 128.198
1349.869, 80.006
1351.069, 130.256
1352.269, 102.836
1353.469, 96.000
1354.668, 212.573
1355.868, 172.218
1357.067, 30.241
1358.266, 127.056
1359.465, 76.551
1360.664, 65.646
1361.862, 118.837
1363.061, 68.648
1364.259, 112.432
1365.457, 124.180
1366.655, 84.892
1367.852, 65.568
1369.050, 109.200
1370.247, 63.892
1371.444, 105.484
1372.641, 122.143
1373.838, 132.711
1375.035, 130.041
1376.231, 55.896
1377.427, 98.597
1378.623, 120.337
1379.819, 50.137
1381.015, 140.737
1382.211, 85.857
1383.406, 109.239
1384.601, 160.316
1385.796, 84.510
1386.991, 102.548
1388.185, 101.364
1389.380, 100.530
1390.574, 113.593
1391.768, 128.672
1392.962, 155.579
1394.156, 196.589
1395.350, 180.955
1396.543, 121.097
1397.736, 250.263
1398.929, 82.865
1400.122, 97.715
1401.315, 203.258
1402.507, 58.060
1403.700, 102.001
1404.892, 82.809
1406.084, 79.455
1407.276, 137.276
1408.467, 141.133
1409.659, 136.928
1410.850, 87.343
1412.041, 134.468
1413.232, 90.087
1414.423, 129.197
1415.614, 46.867
1416.804, 74.015
1417.994, 62.328
1419.184, 44.775
1420.374, 129.558
1421.564, 8.792
1422.753, 95.108
1423.943, 61.148
1425.132, 77.415
1426.321, 86.493
1427.510, 145.431
1428.698, 26.490
1429.887, 67.548
1431.075, 18.595
1432.263, 22.918
1433.451, 191.935
1434.639, 41.252
1435.827, 128.759
1437.014, 117.713
1438.201, 38.800
1439.388, 40.247
1440.575, 150.794
1441.762, 51.989
1442.949, 81.151
1444.135, 146.640
1445.321, 17.505
1446.507, 102.241
1447.693, 60.120
1448.879, 53.889
1450.064, 140.336
1451.250, 70.809
1452.435, 132.634
1453.620, 101.726
1454.805, 77.499
1455.989, 128.219
1457.174, 119.461
1458.358, 4.947
1459.542, 132.932
1460.726, 185.794
1461.910, 85.906
1463.093, 160.979
1464.277, 118.426
1465.460, 133.631
1466.643, 117.277
1467.826, 108.035
1469.009, 188.639
1470.191, 247.168
1471.373, 62.217
1472.556, 198.650
1473.738, 174.234
1474.919, 13.144
1476.101, 153.101
1477.283, 149.368
1478.464, 203.193
1479.645, 186.883
1480.826, 131.571
1482.007, 56.160
1483.187, 114.039
1484.368, 100.831
1485.548, 103.434
1486.728, 209.281
1487.908, 85.219
1489.088, 228.223
1490.268, 118.099
1491.447, 99.877
1492.626, 201.613
1493.805, 111.237
1494.984, 127.774
1496.163, 167.256
1497.341, 87.829
1498.520, 165.460
1499.698, 200.599
1500.876, 72.773
1502.054, 110.026
1503.232, 152.361
1504.409, 74.754
1505.586, 133.275
1506.763, 66.983
