##NAMES=Pyrope
##RRUFFID=R040159
##IDEAL CHEMISTRY=Mg_3_Al_2_(SiO_4_)_3_
##LOCALITY=Meronitz, Bohemia
##OWNER=RRUFF
##SOURCE=University of Arizona Mineral Museum
##DESCRIPTION=Deep red crystal fragments
##STATUS=The identification of this mineral has been confirmed by X-ray diffraction and chemical analysis
##URL=rruff.info/R040159
##MEASURED CHEMISTRY=(Mg_2.17_Fe^2+^_0.47_Ca_0.34_Mn_0.02_)_Σ=3_(Al_1.86_Cr_0.11_Ti_0.03_)_Σ=2_((Si_0.99_Al_0.01_)_Σ=1_O_4_)_3_; trace amounts of Rb?
##PIN_ID=L00224
##ORIENTATION=Laser parallel to -a* (-1 0 0). Fiducial mark perpendicular to laser is parallel to c [0 0 1]
113.559, 0.000
114.949, 29.066
116.339, 176.234
117.729, 80.919
119.119, 1.586
120.508, 31.177
121.897, 83.352
123.286, 136.392
124.675, 127.682
126.063, 140.704
127.452, 129.030
128.840, 150.677
130.228, 199.357
131.615, 177.859
133.003, 183.943
134.390, 182.989
135.777, 253.712
137.164, 266.208
138.550, 349.011
139.937, 352.964
141.323, 377.839
142.709, 513.370
144.094, 462.984
145.480, 483.495
146.865, 436.113
148.250, 413.213
149.635, 431.176
151.019, 384.781
152.403, 364.466
153.788, 355.231
155.171, 309.078
156.555, 231.015
157.939, 201.055
159.322, 159.200
160.705, 128.450
162.088, 70.799
163.470, 45.241
164.853, 23.768
166.235, 19.628
167.617, 22.957
168.998, 36.229
170.380, 48.461
171.761, 13.664
173.142, 8.839
174.523, 2.987
175.904, 4.106
177.284, 88.804
178.664, 107.742
180.044, 197.709
181.424, 251.707
182.803, 354.734
184.183, 469.791
185.562, 564.879
186.940, 638.998
188.319, 731.148
189.698, 773.331
191.076, 778.545
192.454, 717.794
193.831, 762.102
195.209, 647.486
196.586, 581.956
197.963, 540.605
199.340, 534.414
200.717, 491.350
202.093, 479.423
203.470, 446.586
204.846, 438.816
206.221, 407.094
207.597, 412.409
208.972, 426.756
210.347, 443.120
211.722, 379.487
213.097, 384.845
214.472, 354.194
215.846, 336.531
217.220, 338.856
218.594, 330.158
219.967, 349.425
221.341, 308.638
222.714, 292.761
224.087, 275.748
225.460, 352.590
226.832, 334.341
228.204, 331.030
229.577, 345.710
230.948, 347.403
232.320, 365.118
233.692, 410.855
235.063, 417.614
236.434, 501.395
237.805, 416.198
239.175, 463.022
240.545, 479.869
241.916, 559.737
243.286, 514.627
244.655, 540.540
246.025, 589.474
247.394, 596.431
248.763, 622.411
250.132, 616.414
251.501, 595.440
252.869, 649.489
254.237, 627.563
255.605, 665.662
256.973, 604.786
258.340, 664.935
259.708, 676.110
261.075, 621.312
262.442, 574.539
263.808, 594.793
265.175, 555.073
266.541, 510.379
267.907, 503.712
269.273, 518.071
270.639, 538.529
272.004, 512.759
273.369, 518.235
274.734, 565.940
276.099, 563.206
277.463, 636.871
278.828, 624.837
280.192, 652.915
281.556, 697.436
282.919, 714.869
284.283, 730.775
285.646, 734.376
287.009, 699.280
288.372, 789.067
289.734, 724.472
291.097, 776.882
292.459, 781.508
293.821, 872.017
295.183, 831.537
296.544, 862.572
297.905, 893.430
299.266, 870.105
300.627, 871.892
301.988, 953.526
303.348, 977.028
304.709, 1007.260
306.069, 981.130
307.428, 1034.365
308.788, 1069.204
310.147, 1115.547
311.507, 1164.767
312.865, 1218.925
314.224, 1230.201
315.583, 1262.324
316.941, 1312.403
318.299, 1379.483
319.657, 1429.464
321.015, 1431.049
322.372, 1549.510
323.729, 1617.674
325.086, 1669.622
326.443, 1855.849
327.800, 1858.664
329.156, 2038.987
330.512, 2264.124
331.868, 2426.161
333.224, 2686.469
334.579, 2857.115
335.935, 3145.047
337.290, 3485.384
338.645, 3764.188
339.999, 4146.021
341.354, 4348.181
342.708, 4670.573
344.062, 5126.638
345.416, 5406.958
346.769, 5816.729
348.123, 6128.515
349.476, 6922.315
350.829, 7544.129
352.182, 8331.959
353.534, 9433.803
354.887, 10625.662
356.239, 12037.535
357.591, 13339.423
358.942, 14651.325
360.294, 15293.237
361.645, 15695.168
362.996, 15557.109
364.347, 14749.064
365.698, 13691.033
367.048, 12363.018
368.398, 11145.017
369.748, 9847.035
371.098, 8919.064
372.448, 8081.112
373.797, 7105.183
375.146, 6589.267
376.495, 5961.368
377.844, 5577.484
379.192, 4994.621
380.540, 4464.779
381.889, 4115.959
383.236, 3686.166
384.584, 3338.394
385.932, 3070.646
387.279, 2692.926
388.626, 2471.228
389.973, 2241.559
391.319, 2042.925
392.666, 1780.317
394.012, 1588.728
395.358, 1432.161
396.704, 1271.623
398.049, 1146.109
399.394, 967.629
400.740, 889.170
402.084, 785.738
403.429, 703.330
404.774, 654.948
406.118, 557.587
407.462, 520.242
408.806, 472.915
410.150, 394.610
411.493, 368.318
412.836, 312.049
414.179, 270.800
415.522, 193.571
416.865, 181.363
418.207, 178.174
419.549, 90.004
420.891, 80.850
422.233, 28.713
423.575, 50.592
424.916, 5.486
426.257, 23.605
427.598, 1.691
428.939, 32.766
430.279, 9.164
431.619, 21.896
432.959, 21.952
434.299, 3.006
435.639, 23.059
436.978, 3.114
438.318, 8.837
439.657, 23.207
440.996, 6.269
442.334, 0.655
443.673, 40.431
445.011, 18.537
446.349, 3.653
447.687, 45.777
449.024, 44.920
450.361, 11.082
451.699, 17.252
453.036, 13.569
454.372, 0.613
455.709, 4.797
457.045, 64.015
458.381, 71.826
459.717, 107.637
461.053, 134.449
462.388, 146.261
463.724, 175.519
465.059, 180.887
466.394, 219.703
467.728, 218.523
469.063, 243.347
470.397, 294.176
471.731, 293.010
473.065, 315.851
474.398, 261.698
475.732, 282.551
477.065, 266.410
478.398, 269.275
479.731, 264.146
481.063, 221.024
482.396, 237.665
483.728, 266.804
485.060, 245.708
486.391, 273.623
487.723, 285.552
489.054, 296.495
490.385, 318.456
491.716, 322.443
493.047, 326.457
494.377, 334.501
495.708, 350.171
497.038, 367.815
498.368, 392.798
499.697, 427.938
501.027, 462.097
502.356, 523.264
503.685, 557.079
505.014, 593.619
506.342, 633.802
507.671, 659.987
508.999, 675.173
510.327, 720.364
511.655, 744.920
512.982, 798.740
514.310, 820.930
515.637, 860.122
516.964, 919.481
518.291, 1015.779
519.617, 999.249
520.944, 1087.542
522.270, 1196.071
523.596, 1244.590
524.921, 1243.715
526.247, 1288.005
527.572, 1373.609
528.897, 1371.103
530.222, 1406.609
531.547, 1439.692
532.871, 1528.241
534.196, 1578.214
535.520, 1642.796
536.844, 1789.461
538.167, 1929.155
539.491, 2093.026
540.814, 2342.066
542.137, 2562.529
543.460, 2759.769
544.783, 3165.105
546.105, 3504.722
547.427, 4047.560
548.749, 4527.689
550.071, 5291.235
551.393, 6225.249
552.714, 7180.174
554.035, 8616.395
555.356, 10043.603
556.677, 11359.728
557.998, 12217.595
559.318, 12173.296
560.638, 11539.868
561.958, 9945.804
563.278, 8542.494
564.597, 6761.676
565.917, 5453.911
567.236, 4334.830
568.555, 3414.185
569.874, 2815.033
571.192, 2279.888
572.511, 1882.054
573.829, 1605.411
575.147, 1361.085
576.464, 1236.136
577.782, 1075.294
579.099, 976.732
580.416, 935.429
581.733, 812.073
583.050, 751.479
584.366, 703.518
585.683, 661.096
586.999, 627.488
588.315, 614.613
589.630, 574.913
590.946, 550.350
592.261, 519.829
593.576, 499.492
594.891, 496.980
596.206, 466.401
597.520, 469.275
598.834, 454.532
600.148, 471.296
601.462, 446.098
602.776, 441.738
604.089, 402.056
605.402, 361.782
606.715, 403.019
608.028, 373.289
609.341, 410.623
610.653, 369.772
611.965, 379.607
613.277, 341.238
614.589, 309.743
615.901, 357.382
617.212, 313.975
618.523, 378.536
619.834, 326.077
621.145, 344.604
622.456, 375.220
623.766, 329.719
625.076, 361.205
626.386, 356.676
627.696, 412.134
629.006, 437.577
630.315, 495.006
631.624, 526.421
632.933, 606.822
634.242, 584.208
635.551, 689.579
636.859, 674.936
638.167, 804.279
639.475, 824.606
640.783, 813.919
642.090, 850.217
643.398, 831.500
644.705, 837.768
646.012, 807.021
647.318, 764.302
648.625, 681.481
649.931, 663.688
651.237, 578.879
652.543, 543.054
653.849, 583.214
655.155, 489.357
656.460, 480.484
657.765, 457.595
659.070, 390.689
660.375, 369.767
661.679, 346.828
662.984, 277.873
664.288, 314.901
665.592, 234.913
666.895, 207.907
668.199, 210.885
669.502, 177.847
670.805, 139.791
672.108, 129.719
673.411, 77.630
674.713, 92.522
676.016, 51.397
677.318, 93.252
678.620, 37.090
679.921, 38.908
681.223, 8.707
682.524, 5.479
683.825, 23.224
685.126, 14.052
686.427, 1.634
687.727, 9.291
689.028, 31.078
690.328, 11.507
691.628, 0.068
692.927, 1.402
694.227, 17.902
695.526, 20.900
696.825, 23.725
698.124, 30.644
699.423, 27.312
700.721, 29.023
702.020, 33.779
703.318, 21.582
704.616, 42.426
705.913, 65.320
707.211, 25.277
708.508, 8.276
709.805, 13.308
711.102, 45.375
712.399, 28.494
713.695, 56.655
714.992, 22.575
716.288, 36.941
717.584, 27.146
718.879, 39.784
720.175, 16.178
721.470, 1.607
722.765, 13.063
724.060, 20.552
725.355, 2.923
726.649, 29.626
727.944, 19.216
729.238, 22.842
730.532, 28.503
731.825, 19.204
733.119, 21.547
734.412, 10.710
735.705, 15.509
736.998, 15.339
738.291, 12.200
739.584, 8.148
740.876, 6.994
742.168, 1.063
743.460, 8.112
744.752, 1.148
746.043, 28.165
747.334, 13.169
748.626, 35.159
749.916, 37.675
751.207, 5.899
752.498, 39.045
753.788, 33.974
755.078, 17.892
756.368, 32.797
757.658, 21.687
758.947, 34.569
760.237, 22.439
761.526, 55.296
762.815, 50.147
764.104, 75.992
765.392, 80.826
766.680, 6.650
767.969, 31.461
769.257, 39.259
770.544, 42.045
771.832, 48.819
773.119, 51.581
774.406, 64.332
775.693, 62.071
776.980, 24.799
778.267, 90.515
779.553, 50.220
780.839, 45.913
782.125, 68.596
783.411, 82.269
784.697, 91.930
785.982, 114.582
787.267, 88.223
788.552, 104.854
789.837, 78.474
791.122, 106.085
792.406, 111.686
793.690, 107.277
794.974, 160.859
796.258, 156.431
797.542, 122.994
798.825, 172.547
800.108, 180.092
801.391, 205.627
802.674, 198.154
803.957, 251.672
805.239, 210.181
806.522, 228.682
807.804, 304.175
809.085, 299.660
810.367, 353.137
811.649, 358.609
812.930, 393.080
814.211, 431.544
815.492, 422.005
816.772, 460.458
818.053, 499.903
819.333, 536.342
820.613, 558.773
821.893, 588.198
823.173, 617.617
824.452, 650.028
825.732, 698.433
827.011, 710.832
828.290, 740.057
829.568, 757.345
830.847, 771.465
832.125, 725.770
833.403, 797.844
834.681, 792.926
835.959, 847.407
837.236, 856.729
838.514, 883.740
839.791, 987.868
841.068, 1044.983
842.345, 1113.529
843.621, 1280.611
844.898, 1318.271
846.174, 1380.328
847.450, 1542.308
848.726, 1612.267
850.001, 1736.054
851.277, 1883.669
852.552, 2035.872
853.827, 2203.301
855.102, 2360.634
856.376, 2498.687
857.651, 2671.517
858.925, 2856.055
860.199, 2947.177
861.473, 2928.826
862.746, 3001.561
864.020, 2896.996
865.293, 2831.437
866.566, 2690.956
867.839, 2619.727
869.112, 2606.658
870.384, 2467.711
871.656, 2446.403
872.928, 2480.325
874.200, 2395.755
875.472, 2370.128
876.744, 2470.808
878.015, 2410.046
879.286, 2542.787
880.557, 2596.515
881.828, 2762.927
883.098, 2851.142
884.369, 2981.036
885.639, 3194.545
886.909, 3315.942
888.178, 3515.055
889.448, 3771.902
890.717, 3899.797
891.987, 4294.926
893.256, 4553.348
894.524, 4872.625
895.793, 5385.702
897.061, 5802.038
898.330, 6395.198
899.598, 6976.645
900.865, 7876.041
902.133, 9051.544
903.401, 10071.069
904.668, 11819.985
905.935, 13869.545
907.202, 16059.095
908.468, 19318.592
909.735, 22498.166
911.001, 27207.707
912.267, 32017.318
913.533, 37306.891
914.799, 43376.613
916.064, 46636.324
917.330, 50976.121
918.595, 51895.902
919.860, 49275.480
921.124, 45945.180
922.389, 41104.930
923.653, 34994.691
924.918, 30434.512
926.182, 24744.355
927.445, 21284.215
928.709, 18214.086
929.972, 15803.861
931.236, 13923.752
932.499, 12063.652
933.761, 10593.562
935.024, 9333.482
936.286, 8065.413
937.549, 7211.354
938.811, 6388.307
940.073, 5629.270
941.334, 5138.245
942.596, 4504.229
943.857, 4045.225
945.118, 3648.233
946.379, 3277.251
947.640, 3146.281
948.900, 2859.323
950.161, 2662.375
951.421, 2562.439
952.681, 2341.515
953.940, 2314.602
955.200, 2154.701
956.459, 2066.812
957.719, 1993.936
958.978, 1845.071
960.236, 1821.217
961.495, 1744.531
962.753, 1597.071
964.012, 1640.637
965.270, 1491.914
966.527, 1495.864
967.785, 1374.082
969.043, 1372.313
970.300, 1366.556
971.557, 1235.811
972.814, 1243.079
974.071, 1179.359
975.327, 1141.651
976.583, 1124.955
977.840, 1082.272
979.095, 1079.601
980.351, 1072.341
981.607, 1009.534
982.862, 1054.479
984.117, 1013.603
985.372, 1007.206
986.627, 1028.697
987.882, 953.565
989.136, 939.934
990.390, 896.054
991.644, 843.540
992.898, 812.048
994.152, 778.116
995.405, 745.636
996.659, 747.034
997.912, 710.818
999.165, 706.792
1000.417, 663.217
1001.670, 648.051
1002.922, 629.733
1004.174, 672.283
1005.426, 582.456
1006.678, 615.326
1007.930, 576.127
1009.181, 628.026
1010.432, 637.446
1011.683, 675.286
1012.934, 740.393
1014.185, 722.275
1015.435, 774.229
1016.685, 800.158
1017.935, 801.110
1019.185, 919.092
1020.435, 884.096
1021.684, 930.126
1022.934, 967.177
1024.183, 954.255
1025.432, 984.352
1026.680, 1030.465
1027.929, 983.595
1029.177, 1100.746
1030.425, 995.911
1031.673, 1017.099
1032.921, 1033.305
1034.169, 981.532
1035.416, 974.781
1036.663, 998.048
1037.911, 996.334
1039.157, 994.637
1040.404, 993.958
1041.650, 981.296
1042.897, 980.650
1044.143, 992.597
1045.389, 1056.400
1046.634, 1022.793
1047.880, 1039.197
1049.125, 1052.614
1050.371, 982.041
1051.615, 1036.479
1052.860, 1017.927
1054.105, 968.386
1055.349, 974.858
1056.593, 859.341
1057.837, 827.833
1059.081, 695.335
1060.325, 620.851
1061.568, 553.376
1062.812, 466.911
1064.055, 409.455
1065.298, 379.010
1066.540, 321.577
1067.783, 284.151
1069.025, 267.737
1070.267, 264.333
1071.509, 245.937
1072.751, 174.550
1073.993, 187.173
1075.234, 180.805
1076.475, 140.446
1077.716, 175.098
1078.957, 124.760
1080.198, 135.430
1081.438, 101.108
1082.679, 124.793
1083.919, 114.494
1085.159, 71.203
1086.398, 56.924
1087.638, 86.653
1088.877, 70.394
1090.116, 42.142
1091.355, 101.900
1092.594, 28.666
1093.833, 59.439
1095.071, 45.219
1096.309, 28.005
1097.547, 28.802
1098.785, 21.603
1100.023, 36.411
1101.260, 33.224
1102.498, 40.047
1103.735, 37.878
1104.972, 5.715
1106.208, 2.558
1107.445, 4.405
1108.681, 4.259
1109.918, 6.883
1111.154, 13.021
1112.389, 34.159
1113.625, 3.307
1114.860, 20.451
1116.096, 5.782
1117.331, 13.467
1118.566, 50.122
1119.800, 48.988
1121.035, 55.859
1122.269, 52.325
1123.503, 43.230
1124.737, 27.493
1125.971, 11.378
1127.205, 3.266
1128.438, 27.842
1129.671, 34.961
1130.904, 62.093
1132.137, 32.255
1133.370, 22.429
1134.602, 36.612
1135.834, 41.812
1137.066, 33.032
1138.298, 44.267
1139.530, 16.524
1140.762, 48.789
1141.993, 25.078
1143.224, 31.380
1144.455, 28.699
1145.686, 50.033
1146.917, 36.395
1148.147, 42.776
1149.377, 1.818
1150.607, 54.589
1151.837, 33.027
1153.067, 2.485
1154.296, 29.948
1155.526, 7.570
1156.755, 12.913
1157.984, 20.406
1159.213, 23.085
1160.441, 3.576
1161.670, 27.062
1162.898, 9.548
1164.126, 19.032
1165.354, 13.516
1166.581, 23.999
1167.809, 53.479
1169.036, 47.959
1170.263, 45.436
1171.490, 50.911
1172.717, 88.383
1173.943, 81.853
1175.170, 97.321
1176.396, 81.787
1177.622, 74.249
1178.848, 105.709
1180.073, 98.165
1181.299, 123.618
1182.524, 149.067
1183.749, 100.513
1184.974, 93.956
1186.199, 148.415
1187.423, 128.849
1188.648, 115.311
1189.872, 140.746
1191.096, 157.168
1192.320, 161.592
1193.543, 130.144
1194.767, 127.636
1195.990, 146.206
1197.213, 97.875
1198.436, 123.554
1199.659, 142.151
1200.881, 107.739
1202.104, 114.318
1203.326, 138.955
1204.548, 151.549
1205.770, 122.134
1206.991, 148.535
1208.213, 167.012
1209.434, 97.465
1210.655, 146.127
1211.876, 150.974
1213.096, 124.104
1214.317, 149.603
1215.537, 123.704
1216.757, 128.188
1217.977, 155.689
1219.197, 160.308
1220.417, 164.368
1221.636, 133.872
1222.855, 162.404
1224.074, 127.679
1225.293, 119.406
1226.512, 121.086
1227.731, 152.390
1228.949, 109.965
1230.167, 116.206
1231.385, 163.894
1232.603, 98.107
1233.820, 111.067
1235.038, 144.400
1236.255, 128.762
1237.472, 147.943
1238.689, 134.421
1239.906, 134.091
1241.122, 138.300
1242.338, 117.845
1243.555, 121.846
1244.771, 117.027
1245.986, 121.253
1247.202, 121.561
1248.417, 91.559
1249.633, 85.463
1250.848, 134.668
1252.063, 101.056
1253.277, 118.208
1254.492, 115.625
1255.706, 126.807
1256.920, 111.822
1258.134, 136.585
1259.348, 126.261
1260.562, 156.272
1261.775, 161.796
1262.988, 165.977
1264.201, 143.003
1265.414, 145.226
1266.627, 181.275
1267.839, 157.332
1269.052, 170.366
1270.264, 183.396
1271.476, 143.361
1272.688, 174.472
1273.899, 177.424
1275.111, 165.971
1276.322, 186.193
1277.533, 194.571
1278.744, 161.955
1279.955, 177.736
1281.165, 173.572
1282.376, 161.036
1283.586, 220.011
1284.796, 172.240
1286.006, 182.161
1287.215, 139.221
1288.425, 172.538
1289.634, 189.434
1290.843, 185.445
1292.052, 131.099
1293.261, 151.627
1294.469, 144.690
1295.678, 146.380
1296.886, 143.600
1298.094, 132.568
1299.302, 126.415
1300.509, 126.146
1301.717, 103.936
1302.924, 127.590
1304.131, 116.696
1305.338, 112.447
1306.545, 98.907
1307.752, 112.567
1308.958, 105.242
1310.164, 140.131
1311.370, 62.855
1312.576, 120.446
1313.782, 89.028
1314.987, 71.592
1316.193, 131.167
1317.398, 117.734
1318.603, 86.308
1319.807, 83.871
1321.012, 73.442
1322.216, 74.958
1323.421, 80.435
1324.625, 69.901
1325.829, 73.438
1327.032, 57.814
1328.236, 70.247
1329.439, 48.706
1330.642, 44.112
1331.845, 54.515
1333.048, 41.899
1334.251, 47.268
1335.453, 50.723
1336.656, 48.066
1337.858, 20.395
1339.060, 29.762
1340.261, 18.062
1341.463, 11.346
1342.664, 10.652
1343.866, 14.906
1345.067, 15.145
1346.267, 15.365
1347.468, 11.571
1348.669, 13.764
1349.869, 13.943
1351.069, 5.894
1352.269, 22.253
1353.469, 24.387
1354.668, 8.508
1355.868, 2.614
1357.067, 2.295
1358.266, 16.778
1359.465, 2.162
1360.664, 16.881
1361.862, 14.909
1363.061, 7.925
1364.259, 1.928
1365.457, 2.918
1366.655, 10.894
1367.852, 6.141
1369.050, 2.808
1370.247, 3.746
1371.444, 33.728
1372.641, 6.646
1373.838, 22.444
1375.035, 2.451
1376.231, 6.383
1377.427, 2.513
1378.623, 8.669
1379.819, 15.916
1381.015, 6.637
1382.211, 7.784
1383.406, 1.184
1384.601, 36.558
1385.796, 3.912
1386.991, 4.763
1388.185, 38.538
1389.380, 25.817
1390.574, 15.077
1391.768, 5.669
1392.962, 4.423
1394.156, 23.807
1395.350, 7.016
1396.543, 32.206
1397.736, 4.376
1398.929, 22.525
1400.122, 22.680
1401.315, 29.872
1402.507, 45.079
1403.700, 35.317
1404.892, 9.583
1406.084, 16.880
1407.276, 46.203
1408.467, 11.571
1409.659, 37.971
1410.850, 34.415
1412.041, 38.879
1413.232, 38.353
1414.423, 53.845
1415.614, 20.333
1416.804, 79.813
1417.994, 60.284
1419.184, 24.749
1420.374, 49.207
1421.564, 15.659
1422.753, 38.105
1423.943, 53.547
1425.132, 54.984
1426.321, 55.416
1427.510, 79.815
1428.698, 46.179
1429.887, 18.591
1431.075, 73.661
1432.263, 53.381
1433.451, 56.990
1434.639, 51.720
1435.827, 38.289
1437.014, 42.247
1438.201, 37.471
1439.388, 48.357
1440.575, 53.950
1441.762, 67.525
1442.949, 27.836
1444.135, 32.258
1445.321, 41.122
1446.507, 70.610
1447.693, 39.996
1448.879, 41.318
1450.064, 58.911
1451.250, 21.280
1452.435, 0.436
1453.620, 13.303
1454.805, 47.513
1455.989, 39.000
1457.174, 37.420
1458.358, 28.103
1459.542, 26.909
1460.726, 21.206
1461.910, 21.415
1463.093, 16.890
1464.277, 26.384
1465.460, 36.225
1466.643, 46.289
1467.826, 33.328
1469.009, 28.194
1470.191, 39.398
1471.373, 22.135
1472.556, 35.412
1473.738, 28.354
1474.919, 30.235
1476.101, 35.148
1477.283, 5.971
1478.464, 35.549
1479.645, 28.707
1480.826, 13.895
1482.007, 26.423
1483.187, 57.229
1484.368, 15.582
1485.548, 35.861
1486.728, 58.172
1487.908, 52.301
1489.088, 32.007
1490.268, 46.638
1491.447, 38.017
1492.626, 35.500
1493.805, 62.710
1494.984, 35.365
1496.163, 41.896
1497.341, 46.271
1498.520, 62.785
1499.698, 50.713
1500.876, 62.250
1502.054, 59.431
1503.232, 25.732
1504.409, 22.337
1505.586, 47.052
1506.763, 26.776
1507.940, 63.561
1509.117, 40.368
1510.294, 23.235
1511.470, 52.234
1512.647, 8.396
1513.823, 26.711
1514.999, 68.193
1516.174, 40.909
1517.350, 0.935
1518.526, 52.736
1519.701, 2.856
1520.876, 0.000
##END=



