##NAMES=Pyromorphite
##RRUFFID=R050085
##IDEAL CHEMISTRY=Pb^2+^_5_(PO_4_)_3_Cl
##LOCALITY=Bunker Hill mine, Shoshone County, Idaho, USA
##OWNER=RRUFF
##SOURCE=Eugene Schlepp
##DESCRIPTION=Group of orange hexagonal prisms
##STATUS=The identification of this mineral has been confirmed by X-ray diffraction and chemical analysis
##URL=rruff.info/R050085
##MEASURED CHEMISTRY=Pb_5.00_(P_0.96_As_0.04_O_4_)_3_Cl_1.00_
##PIN_ID=L00335
##ORIENTATION=Laser parallel to c* (0 0 1). Fiducial mark perpendicular to laser is parallel to a [1 0 0]
51.274, 0.000
52.673, 11.672
54.072, 34.676
55.470, 37.554
56.868, 7.355
58.266, 64.580
59.664, 231.902
61.061, 329.758
62.458, 493.613
63.855, 711.547
65.252, 773.058
66.649, 886.978
68.045, 1021.446
69.441, 1082.807
70.837, 1175.492
72.233, 1232.987
73.628, 1485.830
75.023, 1507.608
76.418, 1611.969
77.813, 1574.610
79.208, 1693.282
80.602, 1931.833
81.996, 2386.220
83.390, 3520.403
84.784, 5514.327
86.178, 8639.896
87.571, 11716.949
88.964, 15115.305
90.357, 17164.795
91.749, 17645.279
93.142, 16266.623
94.534, 14078.708
95.926, 11861.425
97.318, 9954.703
98.709, 9168.475
100.101, 9142.690
101.492, 10327.308
102.883, 12082.290
104.273, 14287.606
105.664, 16703.254
107.054, 18119.312
108.444, 18786.127
109.834, 17363.857
111.223, 14982.782
112.613, 12612.811
114.002, 10193.823
115.391, 8285.819
116.780, 6698.671
118.168, 5692.333
119.556, 4600.497
120.944, 3887.876
122.332, 3397.270
123.720, 2977.573
125.107, 2571.680
126.495, 2241.535
127.882, 2020.139
129.268, 1916.531
130.655, 1892.732
132.041, 1672.728
133.427, 1576.479
134.813, 1610.937
136.199, 1496.046
137.584, 1602.853
138.970, 1580.440
140.355, 1658.849
141.740, 1730.109
143.124, 1831.246
144.509, 1934.276
145.893, 2047.218
147.277, 2371.080
148.660, 2590.873
150.044, 2882.603
151.427, 3144.276
152.810, 3346.897
154.193, 3633.468
155.576, 3950.992
156.958, 4023.492
158.341, 4092.267
159.723, 4082.615
161.105, 4051.343
162.486, 3876.222
163.867, 3751.692
165.249, 3523.991
166.630, 3276.706
168.010, 2987.086
169.391, 2707.047
170.771, 2591.115
172.151, 2348.145
173.531, 2293.697
174.911, 2124.628
176.290, 2026.854
177.669, 1973.370
179.049, 1873.759
180.427, 1877.301
181.806, 1831.953
183.184, 1825.351
184.562, 1764.567
185.940, 1725.603
187.318, 1719.162
188.696, 1736.429
190.073, 1712.812
191.450, 1667.328
192.827, 1645.671
194.204, 1603.588
195.580, 1586.038
196.956, 1590.138
198.332, 1526.399
199.708, 1544.662
201.084, 1500.693
202.459, 1418.723
203.834, 1441.191
205.209, 1455.106
206.584, 1431.057
207.958, 1337.187
209.333, 1396.336
210.707, 1301.755
212.081, 1330.478
213.454, 1258.507
214.828, 1196.696
216.201, 1200.618
217.574, 1061.339
218.947, 1116.135
220.320, 1004.745
221.692, 965.948
223.064, 853.030
224.436, 772.650
225.808, 724.724
227.179, 608.186
228.551, 585.981
229.922, 524.067
231.293, 471.406
232.663, 405.965
234.034, 386.717
235.404, 301.639
236.774, 311.708
238.144, 245.907
239.514, 250.218
240.883, 260.627
242.252, 186.120
243.621, 173.687
244.990, 201.316
246.359, 158.000
247.727, 165.727
249.095, 139.489
250.463, 147.277
251.831, 137.083
253.198, 102.900
254.566, 100.720
255.933, 81.538
257.299, 78.349
258.666, 98.148
260.033, 71.930
261.399, 83.439
262.765, 61.434
264.131, 74.147
265.496, 49.833
266.862, 18.486
268.227, 45.105
269.592, 0.313
270.957, 35.229
272.321, 51.270
273.685, 37.829
275.050, 50.451
276.413, 51.145
277.777, 48.917
279.141, 56.570
280.504, 62.720
281.867, 74.731
283.230, 67.770
284.592, 99.714
285.955, 111.943
287.317, 126.141
288.679, 71.390
290.041, 61.911
291.403, 131.401
292.764, 40.002
294.125, 108.783
295.486, 94.472
296.847, 90.484
298.207, 76.596
299.568, 60.717
300.928, 115.916
302.288, 82.282
303.647, 103.693
305.007, 66.302
306.366, 70.960
307.725, 73.769
309.084, 75.626
310.443, 80.624
311.801, 85.739
313.159, 78.096
314.517, 60.063
315.875, 61.401
317.233, 37.823
318.590, 27.265
319.947, 14.889
321.304, 1.627
322.661, 0.507
324.018, 18.146
325.374, 45.455
326.730, 44.276
328.086, 54.903
329.442, 61.460
330.797, 67.775
332.153, 88.122
333.508, 98.093
334.863, 112.920
336.217, 125.579
337.572, 162.083
338.926, 177.334
340.280, 205.445
341.634, 228.358
342.988, 239.079
344.341, 294.696
345.694, 323.101
347.047, 328.428
348.400, 335.366
349.753, 342.254
351.105, 315.940
352.457, 277.476
353.809, 283.000
355.161, 281.399
356.512, 228.654
357.864, 248.786
359.215, 254.888
360.566, 231.866
361.916, 248.722
363.267, 230.584
364.617, 244.310
365.967, 262.138
367.317, 292.793
368.667, 314.087
370.016, 330.837
371.366, 378.220
372.715, 416.495
374.064, 467.729
375.412, 518.738
376.761, 557.607
378.109, 573.427
379.457, 578.197
380.805, 566.933
382.152, 573.631
383.500, 554.291
384.847, 595.910
386.194, 663.480
387.541, 706.998
388.887, 812.464
390.233, 918.877
391.580, 979.230
392.926, 1022.789
394.271, 1038.767
395.617, 1024.944
396.962, 963.062
398.307, 881.112
399.652, 882.101
400.997, 876.023
402.341, 851.881
403.686, 938.666
405.030, 1016.381
406.374, 1133.022
407.717, 1297.597
409.061, 1473.094
410.404, 1694.516
411.747, 1958.859
413.090, 2272.133
414.433, 2605.324
415.775, 2926.433
417.117, 3333.464
418.459, 3368.413
419.801, 3261.281
421.143, 3029.067
422.484, 2576.756
423.825, 2174.379
425.166, 1795.800
426.507, 1582.162
427.848, 1345.306
429.188, 1184.202
430.528, 1045.095
431.868, 967.611
433.208, 840.236
434.547, 833.847
435.887, 790.043
437.226, 763.186
438.565, 686.022
439.904, 648.738
441.242, 630.714
442.580, 574.044
443.918, 551.362
445.256, 498.860
446.594, 533.097
447.932, 489.315
449.269, 463.389
450.606, 496.651
451.943, 458.261
453.280, 445.265
454.616, 459.762
455.952, 400.703
457.288, 442.303
458.624, 430.917
459.960, 399.170
461.295, 386.187
462.631, 387.509
463.966, 363.715
465.300, 373.352
466.635, 352.112
467.969, 354.359
469.304, 331.221
470.638, 329.739
471.972, 321.729
473.305, 285.193
474.639, 271.055
475.972, 267.772
477.305, 253.228
478.638, 226.908
479.970, 238.136
481.303, 234.892
482.635, 236.374
483.967, 247.771
485.298, 213.099
486.630, 221.470
487.961, 231.634
489.293, 211.138
490.624, 229.600
491.954, 191.098
493.285, 222.005
494.615, 210.191
495.945, 204.738
497.275, 200.414
498.605, 216.522
499.935, 209.417
501.264, 211.879
502.593, 216.103
503.922, 200.821
505.251, 209.391
506.579, 191.526
507.908, 240.186
509.236, 218.292
510.564, 235.098
511.891, 243.489
513.219, 222.538
514.546, 231.416
515.873, 244.621
517.200, 253.026
518.527, 243.764
519.853, 256.823
521.180, 269.400
522.506, 253.425
523.832, 269.109
525.157, 231.571
526.483, 255.206
527.808, 257.688
529.133, 270.914
530.458, 276.239
531.783, 286.105
533.107, 281.478
534.431, 322.353
535.756, 377.079
537.079, 402.981
538.403, 508.593
539.727, 615.182
541.050, 710.628
542.373, 879.365
543.696, 969.584
545.018, 962.535
546.341, 811.661
547.663, 682.276
548.985, 618.320
550.307, 587.786
551.629, 648.688
552.950, 671.522
554.271, 728.474
555.592, 803.302
556.913, 791.561
558.234, 725.201
559.554, 661.966
560.875, 591.551
562.195, 576.137
563.514, 565.320
564.834, 532.813
566.154, 573.241
567.473, 650.963
568.792, 725.735
570.111, 888.107
571.429, 1197.085
572.748, 1559.922
574.066, 1946.369
575.384, 2223.067
576.702, 2114.090
578.019, 1891.410
579.337, 1485.794
580.654, 1126.388
581.971, 959.060
583.288, 746.584
584.605, 636.848
585.921, 536.653
587.237, 483.068
588.553, 465.925
589.869, 413.813
591.185, 415.044
592.500, 381.313
593.815, 355.468
595.130, 366.192
596.445, 345.135
597.760, 333.537
599.074, 353.389
600.389, 337.270
601.703, 338.041
603.016, 331.979
604.330, 328.154
605.644, 316.757
606.957, 309.200
608.270, 314.564
609.583, 305.073
610.895, 317.424
612.208, 294.759
613.520, 292.150
614.832, 276.324
616.144, 271.698
617.455, 264.050
618.767, 253.289
620.078, 252.890
621.389, 257.734
622.700, 249.910
624.011, 253.166
625.321, 252.356
626.631, 226.583
627.941, 228.743
629.251, 228.930
630.561, 218.120
631.870, 184.197
633.180, 197.253
634.489, 187.326
635.798, 196.370
637.106, 172.319
638.415, 180.340
639.723, 155.360
641.031, 157.394
642.339, 132.483
643.647, 134.427
644.954, 126.397
646.261, 103.402
647.568, 115.310
648.875, 114.286
650.182, 113.042
651.488, 87.961
652.795, 74.814
654.101, 72.622
655.407, 71.391
656.712, 89.201
658.018, 63.960
659.323, 38.700
660.628, 53.421
661.933, 70.047
663.238, 45.682
664.542, 60.188
665.847, 39.889
667.151, 46.465
668.455, 23.081
669.758, 23.693
671.062, 5.180
672.365, 14.657
673.668, 19.149
674.971, 4.356
676.274, 5.051
677.577, 7.473
678.879, 0.090
680.181, 19.240
681.483, 12.392
682.785, 19.772
684.086, 5.011
685.388, 22.775
686.689, 9.560
687.990, 1.367
689.290, 9.170
690.591, 16.035
691.891, 12.776
693.192, 17.712
694.491, 15.214
695.791, 16.998
697.091, 16.860
698.390, 23.692
699.689, 17.604
700.988, 15.555
702.287, 20.544
703.586, 30.573
704.884, 39.645
706.182, 16.763
707.480, 41.916
708.778, 43.115
710.076, 31.360
711.373, 47.643
712.670, 24.971
713.968, 49.333
715.264, 37.738
716.561, 53.181
717.857, 22.668
719.154, 35.182
720.450, 25.728
721.746, 60.301
723.041, 14.916
724.337, 37.551
725.632, 11.215
726.927, 62.896
728.222, 0.384
729.517, 19.346
730.811, 27.094
732.105, 12.862
733.400, 22.642
734.693, 26.279
735.987, 5.251
737.281, 37.073
738.574, 35.913
739.867, 31.772
741.160, 21.645
742.453, 10.530
743.745, 27.421
745.038, 30.325
746.330, 41.240
747.622, 44.169
748.913, 43.114
750.205, 33.073
751.496, 1.041
752.788, 26.012
754.079, 21.011
755.369, 3.967
756.660, 25.053
757.950, 43.073
759.241, 48.095
760.531, 66.118
761.820, 93.143
763.110, 60.170
764.399, 113.201
765.689, 61.234
766.978, 147.271
768.267, 152.311
769.555, 137.356
770.844, 215.406
772.132, 223.460
773.420, 260.519
774.708, 268.584
775.996, 278.654
777.283, 335.731
778.570, 387.814
779.857, 396.904
781.144, 501.001
782.431, 558.095
783.718, 645.207
785.004, 721.326
786.290, 815.446
787.576, 858.445
788.862, 941.520
790.147, 1023.575
791.433, 1038.690
792.718, 1095.727
794.003, 1042.820
795.288, 1046.831
796.572, 1059.873
797.857, 1028.834
799.141, 1041.827
800.425, 1072.810
801.709, 1044.691
802.992, 988.676
804.276, 999.682
805.559, 913.708
806.842, 961.572
808.125, 944.271
809.407, 1016.977
810.690, 1159.713
811.972, 1367.756
813.254, 1754.448
814.536, 2128.487
815.818, 2778.043
817.099, 3936.021
818.381, 5169.490
819.662, 6106.391
820.943, 6146.819
822.223, 5733.514
823.504, 5202.457
824.784, 4768.501
826.065, 4872.700
827.345, 4528.493
828.624, 4274.582
829.904, 3710.441
831.183, 2918.971
832.462, 2446.727
833.741, 2036.118
835.020, 1792.636
836.299, 1636.434
837.577, 1589.150
838.856, 1596.218
840.134, 1618.645
841.412, 1609.995
842.689, 1580.957
843.967, 1540.526
845.244, 1747.764
846.521, 1989.305
847.798, 2271.637
849.075, 2700.227
850.351, 3054.810
851.628, 3434.505
852.904, 3604.877
854.180, 3296.739
855.455, 2892.837
856.731, 2097.732
858.006, 1550.109
859.281, 1062.029
860.556, 711.498
861.831, 495.504
863.106, 323.552
864.380, 234.456
865.655, 162.458
866.929, 81.003
868.202, 146.143
869.476, 108.134
870.750, 94.281
872.023, 107.405
873.296, 115.910
874.569, 157.085
875.842, 142.307
877.114, 188.219
878.386, 219.070
879.658, 224.309
880.930, 234.928
882.202, 261.680
883.474, 260.817
884.745, 317.692
886.016, 381.238
887.287, 394.476
888.558, 416.647
889.829, 503.604
891.099, 603.483
892.369, 681.509
893.639, 740.796
894.909, 854.546
896.179, 896.690
897.448, 1048.396
898.718, 1196.070
899.987, 1287.403
901.256, 1559.700
902.524, 1759.125
903.793, 2171.997
905.061, 2630.668
906.329, 3087.899
907.597, 4020.703
908.865, 4964.503
910.133, 6161.408
911.400, 8054.367
912.667, 10317.372
913.934, 14175.428
915.201, 19113.533
916.468, 26221.688
917.734, 36489.895
919.001, 44718.160
920.267, 49446.465
921.532, 45674.836
922.798, 38783.238
924.064, 30411.705
925.329, 23490.219
926.594, 18028.775
927.859, 14177.382
929.124, 10716.037
930.388, 8924.743
931.653, 7153.504
932.917, 6328.315
934.181, 5758.179
935.445, 5431.089
936.708, 5416.050
937.972, 5389.058
939.235, 5934.115
940.498, 6575.217
941.761, 7159.365
943.024, 7971.560
944.286, 8673.801
945.548, 9213.092
946.811, 9552.429
948.072, 9501.814
949.334, 8951.251
950.596, 8390.740
951.857, 7338.279
953.118, 6566.863
954.379, 5692.497
955.640, 4816.179
956.901, 4069.911
958.161, 3369.691
959.421, 3029.521
960.681, 2595.403
961.941, 2279.335
963.201, 2048.315
964.460, 1802.343
965.720, 1596.423
966.979, 1456.557
968.238, 1372.744
969.496, 1289.980
970.755, 1191.268
972.013, 1217.605
973.272, 1197.993
974.529, 1107.435
975.787, 1150.928
977.045, 1046.475
978.302, 1033.079
979.560, 1072.736
980.817, 987.448
982.073, 1013.219
983.330, 1013.049
984.587, 935.936
985.843, 1025.881
987.099, 1008.878
988.355, 1042.936
989.611, 1058.047
990.866, 1053.211
992.122, 1155.438
993.377, 1184.722
994.632, 1221.062
995.887, 1379.459
997.141, 1359.916
998.396, 1595.429
999.650, 1793.000
1000.904, 1935.627
1002.158, 2210.309
1003.412, 2399.046
1004.665, 2728.839
1005.918, 3039.687
1007.172, 3249.588
1008.425, 3453.544
1009.677, 3735.557
1010.930, 3867.628
1012.182, 3992.752
1013.434, 3821.934
1014.687, 3683.174
1015.938, 3493.467
1017.190, 3224.820
1018.441, 3003.224
1019.693, 2786.684
1020.944, 2497.199
1022.195, 2331.905
1023.445, 2118.578
1024.696, 2006.478
1025.946, 1711.867
1027.197, 1625.645
1028.446, 1453.412
1029.696, 1316.844
1030.946, 1182.727
1032.195, 1068.094
1033.445, 968.885
1034.694, 925.433
1035.942, 820.673
1037.191, 759.551
1038.440, 749.379
1039.688, 691.823
1040.936, 663.136
1042.184, 708.622
1043.432, 677.005
1044.679, 654.868
1045.927, 646.743
1047.174, 608.925
1048.421, 648.729
1049.668, 580.160
1050.914, 550.675
1052.161, 545.014
1053.407, 467.804
1054.653, 497.494
1055.899, 397.863
1057.145, 428.104
1058.391, 416.123
1059.636, 416.517
1060.881, 406.743
1062.126, 415.701
1063.371, 420.426
1064.615, 440.677
1065.860, 440.381
1067.104, 460.753
1068.348, 463.322
1069.592, 496.677
1070.836, 516.116
1072.079, 487.840
1073.323, 548.711
1074.566, 522.049
1075.809, 575.484
1077.052, 567.160
1078.294, 591.789
1079.537, 544.705
1080.779, 548.159
1082.021, 503.018
1083.263, 509.789
1084.504, 506.100
1085.746, 479.498
1086.987, 452.608
1088.228, 461.560
1089.469, 450.251
1090.710, 492.988
1091.951, 437.874
1093.191, 427.753
1094.431, 462.816
1095.671, 442.146
1096.911, 480.173
1098.151, 437.908
1099.390, 456.653
1100.630, 448.880
1101.869, 413.970
1103.108, 413.082
1104.346, 389.735
1105.585, 367.685
1106.823, 346.859
1108.062, 317.114
1109.300, 279.915
1110.537, 261.905
1111.775, 240.832
1113.013, 247.948
1114.250, 214.457
1115.487, 219.770
1116.724, 211.644
1117.961, 209.008
1119.197, 222.358
1120.434, 238.405
1121.670, 249.704
1122.906, 283.464
1124.142, 298.066
1125.377, 336.013
1126.613, 370.890
1127.848, 404.949
1129.083, 454.342
1130.318, 470.061
1131.553, 465.804
1132.787, 478.643
1134.022, 394.194
1135.256, 358.858
1136.490, 358.454
1137.724, 329.091
1138.957, 332.665
1140.191, 313.196
1141.424, 320.756
1142.657, 355.499
1143.890, 357.051
1145.123, 348.813
1146.355, 358.532
1147.588, 408.862
1148.820, 386.184
1150.052, 367.511
1151.284, 414.721
1152.516, 361.970
1153.747, 311.232
1154.978, 303.464
1156.209, 262.897
1157.440, 269.232
1158.671, 200.747
1159.902, 215.100
1161.132, 141.308
1162.362, 116.715
1163.592, 104.984
1164.822, 67.264
1166.052, 55.578
1167.281, 23.794
1168.511, 41.085
1169.740, 7.537
1170.969, 2.209
1172.197, 10.946
1173.426, 24.652
1174.654, 32.383
1175.883, 52.236
1177.111, 43.176
1178.338, 29.021
1179.566, 57.895
1180.794, 63.902
1182.021, 37.600
1183.248, 49.577
1184.475, 40.507
1185.702, 56.465
1186.928, 47.466
1188.155, 61.577
1189.381, 62.756
1190.607, 58.995
1191.833, 65.268
1193.059, 63.586
1194.284, 49.912
1195.509, 41.277
1196.735, 32.675
1197.960, 32.474
1199.184, 27.506
1200.409, 34.088
1201.633, 30.589
1202.858, 23.098
1204.082, 36.679
1205.306, 31.244
1206.529, 18.934
1207.753, 31.587
1208.976, 13.323
1210.199, 5.062
1211.422, 19.841
1212.645, 32.602
1213.868, 9.428
1215.090, 11.335
1216.313, 6.226
1217.535, 6.185
1218.757, 25.116
1219.978, 10.028
1221.200, 0.063
1222.421, 20.890
1223.643, 15.840
1224.864, 0.335
1226.084, 3.487
1227.305, 10.677
1228.526, 0.202
1229.746, 2.971
1230.966, 12.901
1232.186, 12.830
1233.406, 20.705
1234.625, 26.526
1235.845, 36.255
1237.064, 37.066
1238.283, 34.545
1239.502, 36.861
1240.721, 33.501
1241.939, 28.247
1243.157, 38.701
1244.376, 22.048
1245.594, 23.393
1246.811, 38.672
1248.029, 45.107
1249.247, 46.476
1250.464, 53.125
1251.681, 35.192
1252.898, 50.486
1254.115, 49.747
1255.331, 35.118
1256.548, 65.279
1257.764, 69.442
1258.980, 65.580
1260.196, 50.589
1261.411, 59.694
1262.627, 42.666
1263.842, 61.573
1265.057, 71.534
1266.272, 72.430
1267.487, 70.285
1268.702, 54.108
1269.916, 97.107
1271.130, 86.986
1272.344, 77.014
1273.558, 96.854
1274.772, 77.565
1275.986, 65.136
1277.199, 65.739
1278.412, 63.587
1279.625, 76.849
1280.838, 73.381
1282.051, 77.980
1283.263, 77.609
1284.475, 82.229
1285.687, 85.742
1286.899, 85.799
1288.111, 78.488
1289.323, 89.025
1290.534, 80.322
1291.745, 83.730
1292.957, 107.875
1294.167, 110.009
1295.378, 111.086
1296.589, 124.193
1297.799, 121.252
1299.009, 121.410
1300.219, 126.395
1301.429, 109.326
1302.639, 118.180
1303.848, 106.070
1305.057, 119.006
1306.267, 136.720
1307.476, 116.660
1308.684, 130.346
1309.893, 129.966
1311.101, 126.548
1312.310, 139.381
1313.518, 130.902
1314.725, 123.521
1315.933, 127.774
1317.141, 135.222
1318.348, 131.427
1319.555, 133.346
1320.762, 148.670
1321.969, 162.980
1323.176, 137.634
1324.382, 138.928
1325.589, 160.618
1326.795, 111.867
1328.001, 137.448
1329.206, 126.250
1330.412, 125.458
1331.617, 124.649
1332.823, 135.365
1334.028, 140.131
1335.233, 142.860
1336.437, 139.430
1337.642, 137.044
1338.846, 126.219
1340.051, 125.684
1341.255, 124.418
1342.458, 118.177
1343.662, 127.257
1344.866, 130.980
1346.069, 115.740
1347.272, 108.048
1348.475, 116.681
1349.678, 102.494
1350.880, 121.507
1352.083, 104.094
1353.285, 112.896
1354.487, 105.506
1355.689, 109.337
1356.891, 95.570
1358.093, 98.723
1359.294, 109.198
1360.495, 96.412
1361.696, 103.843
1362.897, 89.799
1364.098, 79.676
1365.298, 91.331
1366.499, 85.419
1367.699, 82.364
1368.899, 103.020
1370.099, 87.623
1371.298, 85.876
1372.498, 68.519
1373.697, 75.637
1374.896, 53.768
1376.095, 50.282
1377.294, 40.628
1378.493, 66.183
1379.691, 55.828
1380.889, 74.671
1382.087, 75.435
1383.285, 61.708
1384.483, 53.364
1385.681, 42.646
1386.878, 65.711
1388.075, 78.572
1389.272, 72.015
1390.469, 80.639
1391.666, 53.871
1392.862, 58.901
1394.059, 53.078
1395.255, 55.781
1396.451, 56.388
1397.647, 56.239
1398.842, 44.143
1400.038, 61.709
1401.233, 57.412
1402.428, 55.524
1403.623, 67.011
1404.818, 50.424
1406.013, 61.933
1407.207, 65.144
1408.401, 53.272
1409.595, 56.657
1410.789, 57.470
1411.983, 57.456
1413.177, 36.334
1414.370, 42.786
1415.563, 29.025
1416.756, 39.503
1417.949, 48.980
1419.142, 65.387
1420.335, 52.503
1421.527, 41.613
1422.719, 64.638
1423.911, 46.011
1425.103, 34.118
1426.295, 28.020
1427.486, 25.028
1428.677, 29.915
1429.869, 47.085
1431.060, 29.363
1432.250, 18.606
1433.441, 34.806
1434.632, 21.985
1435.822, 42.181
1437.012, 40.249
1438.202, 42.352
1439.392, 34.442
1440.581, 35.611
1441.771, 21.473
1442.960, 35.541
1444.149, 37.530
1445.338, 43.349
1446.527, 33.192
1447.715, 23.219
1448.904, 50.940
1450.092, 16.350
1451.280, 37.979
1452.468, 44.391
1453.656, 45.290
1454.843, 11.515
1456.031, 40.491
1457.218, 22.218
1458.405, 54.584
1459.592, 26.543
1460.778, 29.469
1461.965, 10.025
1463.151, 31.919
1464.337, 37.881
1465.523, 37.642
1466.709, 24.520
1467.895, 49.311
1469.080, 50.517
1470.266, 32.068
1471.451, 51.108
1472.636, 40.721
1473.821, 57.045
1475.005, 25.823
1476.190, 39.728
1477.374, 17.332
1478.558, 19.932
1479.742, 30.780
1480.926, 16.320
1482.109, 4.379
1483.293, 2.815
1484.476, 14.143
1485.659, 3.955
1486.842, 29.586
1488.025, 3.534
1489.207, 40.237
1490.390, 34.580
1491.572, 21.511
1492.754, 21.863
1493.936, 25.320
1495.118, 16.832
1496.299, 44.906
1497.481, 7.870
1498.662, 9.371
