##NAMES=Pyromorphite
##RRUFFID=R050085
##IDEAL CHEMISTRY=Pb^2+^_5_(PO_4_)_3_Cl
##LOCALITY=Bunker Hill mine, Shoshone County, Idaho, USA
##OWNER=RRUFF
##SOURCE=Eugene Schlepp
##DESCRIPTION=Group of orange hexagonal prisms
##STATUS=The identification of this mineral has been confirmed by X-ray diffraction and chemical analysis
##URL=rruff.info/R050085
##MEASURED CHEMISTRY=Pb_5.00_(P_0.96_As_0.04_O_4_)_3_Cl_1.00_
##PIN_ID=L00335
##ORIENTATION=Laser parallel to c* (0 0 1). Fiducial mark perpendicular to laser is parallel to a [1 0 0]
51.274, 0.000
52.673, 9.989
54.072, 4.597
55.470, 30.916
56.868, 121.595
58.266, 108.156
59.664, 282.083
61.061, 333.603
62.458, 433.079
63.855, 617.535
65.252, 643.440
66.649, 720.624
68.045, 585.235
69.441, 658.623
70.837, 580.221
72.233, 437.513
73.628, 621.036
75.023, 557.380
76.418, 538.195
77.813, 682.184
79.208, 870.111
80.602, 1198.861
81.996, 1847.394
83.390, 3309.688
84.784, 5423.692
86.178, 8495.286
87.571, 12058.309
88.964, 15262.569
90.357, 17657.896
91.749, 18254.139
93.142, 17061.172
94.534, 14928.871
95.926, 12757.140
97.318, 10995.899
98.709, 10045.094
100.101, 10334.672
101.492, 11674.591
102.883, 13624.827
104.273, 15985.375
105.664, 18696.252
107.054, 20237.652
108.444, 20879.928
109.834, 19263.277
111.223, 16927.670
112.613, 14063.172
114.002, 11539.812
115.391, 9437.506
116.780, 7556.061
118.168, 6495.231
119.556, 5294.745
120.944, 4465.390
122.332, 3913.969
123.720, 3326.388
125.107, 2902.548
126.495, 2613.389
127.882, 2313.911
129.268, 2151.153
130.655, 2088.132
132.041, 1896.833
133.427, 1839.223
134.813, 1749.256
136.199, 1702.912
137.584, 1740.255
138.970, 1718.356
140.355, 1819.255
141.740, 1925.981
143.124, 2112.556
144.509, 2296.000
145.893, 2469.397
147.277, 2674.546
148.660, 2937.667
150.044, 3225.697
151.427, 3625.643
152.810, 3871.507
154.193, 4156.409
155.576, 4452.536
156.958, 4640.526
158.341, 4646.408
159.723, 4700.040
161.105, 4587.832
162.486, 4512.891
163.867, 4246.869
165.249, 4050.257
166.630, 3790.018
168.010, 3557.811
169.391, 3282.409
170.771, 3059.026
172.151, 2953.073
173.531, 2683.790
174.911, 2520.362
176.290, 2453.555
177.669, 2413.512
179.049, 2336.814
180.427, 2223.700
181.806, 2144.474
183.184, 2168.186
184.562, 2070.170
185.940, 2066.586
187.318, 1987.396
188.696, 1953.722
190.073, 1944.696
191.450, 1890.424
192.827, 1872.201
194.204, 1863.657
195.580, 1877.709
196.956, 1829.463
198.332, 1762.870
199.708, 1811.517
201.084, 1704.729
202.459, 1615.917
203.834, 1646.573
205.209, 1723.460
206.584, 1583.649
207.958, 1570.603
209.333, 1539.172
210.707, 1442.389
212.081, 1573.123
213.454, 1445.893
214.828, 1356.682
216.201, 1398.198
217.574, 1291.153
218.947, 1214.756
220.320, 1180.131
221.692, 1080.838
223.064, 1010.745
224.436, 934.838
225.808, 856.101
227.179, 768.182
228.551, 708.674
229.922, 630.426
231.293, 551.400
232.663, 491.565
234.034, 449.896
235.404, 426.368
236.774, 374.961
238.144, 283.656
239.514, 302.438
240.883, 280.292
242.252, 231.207
243.621, 257.170
244.990, 277.173
246.359, 158.206
247.727, 194.260
249.095, 153.325
250.463, 183.395
251.831, 112.459
253.198, 139.512
254.566, 165.546
255.933, 118.557
257.299, 136.539
258.666, 97.487
260.033, 91.397
261.399, 30.266
262.765, 59.089
264.131, 95.865
265.496, 22.592
266.862, 31.264
268.227, 4.882
269.592, 17.560
270.957, 41.068
272.321, 28.653
273.685, 54.318
275.050, 39.075
276.413, 69.925
277.777, 42.884
279.141, 75.951
280.504, 68.140
281.867, 85.453
283.230, 87.726
284.592, 50.109
285.955, 82.626
287.317, 76.163
288.679, 63.724
290.041, 105.408
291.403, 82.134
292.764, 51.021
294.125, 130.053
295.486, 113.257
296.847, 87.629
298.207, 136.119
299.568, 70.802
300.928, 94.509
302.288, 96.314
303.647, 100.291
305.007, 81.441
306.366, 70.693
307.725, 80.047
309.084, 62.511
310.443, 72.980
311.801, 47.683
313.159, 47.552
314.517, 26.388
315.875, 19.070
317.233, 16.600
318.590, 5.932
319.947, 12.765
321.304, 16.358
322.661, 26.852
324.018, 31.166
325.374, 50.469
326.730, 39.466
328.086, 95.309
329.442, 120.969
330.797, 117.405
332.153, 102.698
333.508, 138.756
334.863, 139.618
336.217, 178.255
337.572, 179.689
338.926, 198.910
340.280, 265.859
341.634, 265.636
342.988, 344.152
344.341, 351.388
345.694, 364.460
347.047, 404.368
348.400, 394.165
349.753, 386.770
351.105, 405.199
352.457, 343.518
353.809, 332.771
355.161, 337.858
356.512, 303.820
357.864, 314.695
359.215, 287.394
360.566, 295.997
361.916, 326.614
363.267, 330.058
364.617, 330.479
365.967, 328.890
367.317, 376.071
368.667, 358.221
370.016, 414.216
371.366, 466.096
372.715, 512.830
374.064, 582.415
375.412, 611.794
376.761, 655.106
378.109, 654.358
379.457, 665.550
380.805, 665.695
382.152, 653.792
383.500, 747.834
384.847, 754.819
386.194, 815.743
387.541, 908.603
388.887, 1074.406
390.233, 1219.147
391.580, 1313.826
392.926, 1419.439
394.271, 1380.979
395.617, 1313.440
396.962, 1242.821
398.307, 1173.121
399.652, 1097.337
400.997, 1079.468
402.341, 1103.515
403.686, 1128.476
405.030, 1201.351
406.374, 1353.135
407.717, 1554.829
409.061, 1735.431
410.404, 1970.938
411.747, 2208.355
413.090, 2586.680
414.433, 2976.914
415.775, 3388.053
417.117, 3757.100
418.459, 3821.979
419.801, 3752.802
421.143, 3413.328
422.484, 3045.694
423.825, 2564.670
425.166, 2165.633
426.507, 1824.615
427.848, 1569.154
429.188, 1405.600
430.528, 1228.659
431.868, 1113.666
433.208, 984.917
434.547, 932.667
435.887, 909.528
437.226, 811.068
438.565, 793.394
439.904, 747.140
441.242, 689.535
442.580, 674.148
443.918, 624.402
445.256, 612.244
446.594, 609.179
447.932, 574.808
449.269, 541.577
450.606, 533.865
451.943, 501.275
453.280, 499.815
454.616, 498.196
455.952, 493.289
457.288, 489.186
458.624, 476.443
459.960, 475.411
461.295, 442.235
462.631, 423.330
463.966, 422.085
465.300, 420.341
466.635, 403.547
467.969, 388.196
469.304, 373.033
470.638, 334.780
471.972, 349.602
473.305, 350.905
474.639, 304.936
475.972, 314.102
477.305, 316.639
478.638, 316.099
479.970, 274.087
481.303, 265.052
482.635, 255.062
483.967, 264.311
485.298, 238.510
486.630, 261.293
487.961, 252.543
489.293, 251.344
490.624, 257.711
491.954, 241.919
493.285, 249.395
494.615, 248.741
495.945, 249.774
497.275, 247.579
498.605, 246.754
499.935, 258.605
501.264, 249.026
502.593, 261.709
503.922, 281.117
505.251, 275.442
506.579, 272.771
507.908, 261.050
509.236, 270.041
510.564, 279.272
511.891, 274.321
513.219, 260.400
514.546, 275.954
515.873, 280.947
517.200, 277.600
518.527, 299.821
519.853, 303.040
521.180, 279.645
522.506, 304.598
523.832, 292.622
525.157, 280.209
526.483, 319.527
527.808, 310.833
529.133, 332.316
530.458, 343.558
531.783, 361.361
533.107, 381.620
534.431, 414.534
535.756, 455.127
537.079, 536.099
538.403, 624.567
539.727, 753.643
541.050, 874.168
542.373, 1048.827
543.696, 1111.812
545.018, 1114.814
546.341, 1017.085
547.663, 818.070
548.985, 759.739
550.307, 709.269
551.629, 729.638
552.950, 799.656
554.271, 845.800
555.592, 913.752
556.913, 908.911
558.234, 846.109
559.554, 778.821
560.875, 689.102
562.195, 644.075
563.514, 641.877
564.834, 666.603
566.154, 672.920
567.473, 730.568
568.792, 850.829
570.111, 1019.065
571.429, 1330.831
572.748, 1714.757
574.066, 2126.184
575.384, 2430.941
576.702, 2342.185
578.019, 2044.049
579.337, 1647.324
580.654, 1286.484
581.971, 1079.560
583.288, 859.510
584.605, 748.562
585.921, 611.691
587.237, 555.723
588.553, 508.638
589.869, 478.709
591.185, 489.691
592.500, 433.343
593.815, 409.139
595.130, 447.891
596.445, 404.291
597.760, 382.663
599.074, 398.000
600.389, 377.312
601.703, 407.599
603.016, 396.804
604.330, 378.740
605.644, 385.766
606.957, 378.656
608.270, 360.415
609.583, 335.144
610.895, 311.762
612.208, 341.390
613.520, 326.013
614.832, 368.659
616.144, 305.326
617.455, 292.965
618.767, 305.652
620.078, 289.220
621.389, 276.745
622.700, 299.302
624.011, 280.892
625.321, 276.445
626.631, 263.963
627.941, 251.454
629.251, 268.812
630.561, 226.269
631.870, 236.754
633.180, 227.071
634.489, 192.444
635.798, 192.839
637.106, 172.246
638.415, 156.485
639.723, 138.687
641.031, 153.847
642.339, 161.044
643.647, 158.093
644.954, 132.268
646.261, 145.403
647.568, 113.517
648.875, 104.637
650.182, 137.672
651.488, 98.724
652.795, 117.753
654.101, 87.767
655.407, 63.748
656.712, 80.694
658.018, 77.664
659.323, 59.564
660.628, 94.483
661.933, 46.456
663.238, 43.366
664.542, 45.226
665.847, 47.998
667.151, 35.772
668.455, 38.546
669.758, 27.263
671.062, 12.881
672.365, 21.517
673.668, 19.135
674.971, 9.300
676.274, 0.301
677.577, 8.868
678.879, 11.703
680.181, 0.776
681.483, 26.840
682.785, 25.572
684.086, 23.200
685.388, 29.924
686.689, 25.008
687.990, 15.329
689.290, 26.012
690.591, 16.669
691.891, 28.237
693.192, 19.852
694.491, 15.517
695.791, 27.228
697.091, 36.989
698.390, 25.805
699.689, 33.668
700.988, 36.581
702.287, 43.546
703.586, 73.562
704.884, 71.265
706.182, 71.796
707.480, 72.009
708.778, 53.284
710.076, 25.611
711.373, 41.973
712.670, 31.378
713.968, 34.818
715.264, 29.295
716.561, 41.804
717.857, 39.350
719.154, 39.243
720.450, 20.544
721.746, 35.181
723.041, 23.847
724.337, 17.535
725.632, 41.243
726.927, 33.978
728.222, 39.962
729.517, 31.523
730.811, 41.329
732.105, 32.158
733.400, 25.007
734.693, 8.871
735.987, 6.983
737.281, 6.248
738.574, 2.520
739.867, 11.418
741.160, 17.323
742.453, 16.238
743.745, 14.160
745.038, 23.088
746.330, 22.025
747.622, 8.969
748.913, 18.916
750.205, 18.868
751.496, 21.175
752.788, 25.218
754.079, 23.261
755.369, 28.304
756.660, 39.348
757.950, 57.394
759.241, 42.443
760.531, 73.494
761.820, 92.548
763.110, 89.607
764.399, 166.671
765.689, 178.741
766.978, 197.817
768.267, 206.899
769.555, 233.988
770.844, 264.085
772.132, 303.188
773.420, 351.299
774.708, 340.418
775.996, 387.546
777.283, 428.670
778.570, 485.985
779.857, 578.971
781.144, 649.136
782.431, 731.307
783.718, 838.451
785.004, 894.648
786.290, 1053.740
787.576, 1119.903
788.862, 1289.052
790.147, 1346.084
791.433, 1388.146
792.718, 1442.150
794.003, 1462.318
795.288, 1441.038
796.572, 1494.053
797.857, 1479.128
799.141, 1488.223
800.425, 1487.240
801.709, 1437.343
802.992, 1433.315
804.276, 1376.229
805.559, 1350.397
806.842, 1366.344
808.125, 1313.495
809.407, 1387.383
810.690, 1485.811
811.972, 1698.702
813.254, 2057.599
814.536, 2516.145
815.818, 3367.410
817.099, 4419.718
818.381, 5735.007
819.662, 6589.446
820.943, 6748.064
822.223, 6527.346
823.504, 6036.825
824.784, 5798.951
826.065, 5922.492
827.345, 5735.559
828.624, 5510.618
829.904, 4726.131
831.183, 3942.353
832.462, 3300.194
833.741, 2847.877
835.020, 2507.454
836.299, 2329.408
837.577, 2312.556
838.856, 2350.966
840.134, 2346.071
841.412, 2364.602
842.689, 2285.860
843.967, 2168.570
845.244, 2285.986
846.521, 2614.801
847.798, 2938.266
849.075, 3482.129
850.351, 3745.385
851.628, 4388.158
852.904, 4445.766
854.180, 4212.010
855.455, 3703.207
856.731, 2709.104
858.006, 1991.254
859.281, 1454.689
860.556, 874.233
861.831, 651.909
863.106, 422.907
864.380, 268.751
865.655, 211.758
866.929, 152.531
868.202, 137.240
869.476, 97.049
870.750, 114.983
872.023, 73.843
873.296, 80.850
874.569, 121.915
875.842, 120.371
877.114, 174.479
878.386, 166.960
879.658, 230.452
880.930, 240.407
882.202, 244.198
883.474, 271.478
884.745, 296.419
886.016, 348.874
887.287, 428.706
888.558, 476.130
889.829, 561.674
891.099, 636.300
892.369, 697.057
893.639, 800.634
894.909, 892.302
896.179, 1017.990
897.448, 1149.802
898.718, 1305.464
899.987, 1472.231
901.256, 1665.349
902.524, 2068.339
903.793, 2417.399
905.061, 2859.828
906.329, 3631.322
907.597, 4450.873
908.865, 5600.486
910.133, 7021.169
911.400, 9121.910
912.667, 11719.713
913.934, 15887.578
915.201, 21335.502
916.468, 28833.488
917.734, 39551.539
919.001, 48209.645
920.267, 52777.809
921.532, 48826.043
922.798, 42094.324
924.064, 33302.664
925.329, 26121.078
926.594, 20269.539
927.859, 15998.062
929.124, 12206.639
930.388, 10245.275
931.653, 8243.964
932.917, 7218.712
934.181, 6561.518
935.445, 6163.378
936.708, 6126.293
937.972, 6121.265
939.235, 6765.297
940.498, 7248.388
941.761, 8135.543
943.024, 8934.754
944.286, 9564.022
945.548, 10083.353
946.811, 10532.740
948.072, 10542.187
949.334, 9901.695
950.596, 9291.261
951.857, 8230.887
953.118, 7344.570
954.379, 6319.311
955.640, 5400.109
956.901, 4635.968
958.161, 3878.886
959.421, 3426.861
960.681, 2974.896
961.941, 2574.988
963.201, 2263.142
964.460, 1993.355
965.720, 1819.624
966.979, 1688.952
968.238, 1582.338
969.496, 1519.785
970.755, 1411.295
972.013, 1415.870
973.272, 1368.503
974.529, 1305.199
975.787, 1359.958
977.045, 1254.780
978.302, 1229.668
979.560, 1246.620
980.817, 1172.635
982.073, 1254.721
983.330, 1205.875
984.587, 1148.094
985.843, 1221.383
987.099, 1223.739
988.355, 1259.167
989.611, 1268.668
990.866, 1305.240
992.122, 1395.883
993.377, 1426.597
994.632, 1462.379
995.887, 1648.229
997.141, 1674.148
998.396, 1883.135
999.650, 1978.189
1000.904, 2228.309
1002.158, 2495.497
1003.412, 2739.754
1004.665, 3088.079
1005.918, 3494.469
1007.172, 3736.927
1008.425, 3958.454
1009.677, 4287.056
1010.930, 4387.734
1012.182, 4379.485
1013.434, 4345.311
1014.687, 4177.206
1015.938, 3971.158
1017.190, 3695.176
1018.441, 3399.252
1019.693, 3175.388
1020.944, 2869.584
1022.195, 2665.216
1023.445, 2390.564
1024.696, 2238.911
1025.946, 1979.112
1027.197, 1820.433
1028.446, 1667.514
1029.696, 1492.424
1030.946, 1359.959
1032.195, 1246.512
1033.445, 1127.432
1034.694, 1056.888
1035.942, 953.958
1037.191, 878.681
1038.440, 844.689
1039.688, 856.844
1040.936, 822.738
1042.184, 815.930
1043.432, 832.423
1044.679, 820.125
1045.927, 878.129
1047.174, 768.559
1048.421, 811.704
1049.668, 710.218
1050.914, 702.185
1052.161, 654.962
1053.407, 612.716
1054.653, 565.681
1055.899, 547.093
1057.145, 503.439
1058.391, 523.578
1059.636, 517.327
1060.881, 534.797
1062.126, 520.664
1063.371, 469.899
1064.615, 524.331
1065.860, 527.371
1067.104, 548.095
1068.348, 489.090
1069.592, 587.698
1070.836, 573.683
1072.079, 572.476
1073.323, 657.828
1074.566, 607.435
1075.809, 658.740
1077.052, 681.355
1078.294, 614.746
1079.537, 653.388
1080.779, 633.704
1082.021, 590.057
1083.263, 585.294
1084.504, 540.925
1085.746, 540.776
1086.987, 510.938
1088.228, 505.490
1089.469, 495.314
1090.710, 548.027
1091.951, 481.814
1093.191, 466.776
1094.431, 509.418
1095.671, 468.856
1096.911, 527.334
1098.151, 480.173
1099.390, 454.656
1100.630, 442.141
1101.869, 446.160
1103.108, 410.331
1104.346, 357.635
1105.585, 357.333
1106.823, 387.635
1108.062, 303.828
1109.300, 332.629
1110.537, 272.411
1111.775, 251.901
1113.013, 256.086
1114.250, 218.933
1115.487, 231.864
1116.724, 206.123
1117.961, 206.280
1119.197, 224.035
1120.434, 229.810
1121.670, 233.906
1122.906, 250.535
1124.142, 257.952
1125.377, 319.623
1126.613, 359.960
1127.848, 387.506
1129.083, 462.663
1130.318, 526.513
1131.553, 526.054
1132.787, 478.476
1134.022, 390.033
1135.256, 408.757
1136.490, 416.993
1137.724, 351.778
1138.957, 351.266
1140.191, 339.556
1141.424, 340.047
1142.657, 395.555
1143.890, 361.980
1145.123, 396.750
1146.355, 372.191
1147.588, 412.616
1148.820, 411.565
1150.052, 414.042
1151.284, 406.568
1152.516, 401.245
1153.747, 392.580
1154.978, 353.860
1156.209, 304.485
1157.440, 250.911
1158.671, 238.376
1159.902, 176.014
1161.132, 155.276
1162.362, 145.740
1163.592, 104.104
1164.822, 85.382
1166.052, 88.676
1167.281, 17.904
1168.511, 32.339
1169.740, 17.447
1170.969, 0.165
1172.197, 33.703
1173.426, 27.462
1174.654, 28.299
1175.883, 44.082
1177.111, 38.097
1178.338, 69.038
1179.566, 70.851
1180.794, 47.894
1182.021, 40.623
1183.248, 87.509
1184.475, 60.480
1185.702, 81.623
1186.928, 81.824
1188.155, 57.013
1189.381, 60.387
1190.607, 63.817
1191.833, 65.194
1193.059, 50.739
1194.284, 56.248
1195.509, 49.282
1196.735, 53.477
1197.960, 42.096
1199.184, 36.726
1200.409, 34.427
1201.633, 18.033
1202.858, 41.753
1204.082, 21.432
1205.306, 33.281
1206.529, 57.184
1207.753, 18.221
1208.976, 23.176
1210.199, 27.246
1211.422, 12.238
1212.645, 36.313
1213.868, 13.494
1215.090, 0.320
1216.313, 23.972
1217.535, 3.829
1218.757, 7.455
1219.978, 1.309
1221.200, 1.055
1222.421, 5.623
1223.643, 2.206
1224.864, 30.686
1226.084, 5.186
1227.305, 39.588
1228.526, 14.158
1229.746, 18.518
1230.966, 35.894
1232.186, 32.169
1233.406, 26.606
1234.625, 19.928
1235.845, 16.259
1237.064, 20.405
1238.283, 20.761
1239.502, 43.887
1240.721, 27.883
1241.939, 35.027
1243.157, 36.124
1244.376, 29.224
1245.594, 40.291
1246.811, 42.379
1248.029, 60.234
1249.247, 57.020
1250.464, 54.879
1251.681, 44.844
1252.898, 59.642
1254.115, 66.335
1255.331, 48.066
1256.548, 95.667
1257.764, 62.199
1258.980, 76.727
1260.196, 100.153
1261.411, 96.589
1262.627, 80.828
1263.842, 88.202
1265.057, 65.438
1266.272, 66.685
1267.487, 99.917
1268.702, 76.141
1269.916, 87.343
1271.130, 78.448
1272.344, 95.623
1273.558, 87.688
1274.772, 111.905
1275.986, 78.910
1277.199, 94.128
1278.412, 102.123
1279.625, 97.293
1280.838, 91.127
1282.051, 120.897
1283.263, 91.714
1284.475, 108.357
1285.687, 123.296
1286.899, 111.926
1288.111, 112.643
1289.323, 119.434
1290.534, 102.127
1291.745, 121.751
1292.957, 124.230
1294.167, 97.726
1295.378, 124.042
1296.589, 122.582
1297.799, 114.857
1299.009, 139.284
1300.219, 145.397
1301.429, 121.635
1302.639, 135.856
1303.848, 134.028
1305.057, 124.040
1306.267, 154.154
1307.476, 137.145
1308.684, 145.986
1309.893, 154.844
1311.101, 153.675
1312.310, 162.207
1313.518, 143.237
1314.725, 164.963
1315.933, 156.297
1317.141, 141.872
1318.348, 159.509
1319.555, 167.245
1320.762, 158.822
1321.969, 195.652
1323.176, 172.694
1324.382, 150.194
1325.589, 175.529
1326.795, 134.878
1328.001, 144.397
1329.206, 144.596
1330.412, 158.858
1331.617, 157.947
1332.823, 145.811
1334.028, 172.859
1335.233, 173.716
1336.437, 148.518
1337.642, 174.857
1338.846, 182.024
1340.051, 144.724
1341.255, 150.541
1342.458, 143.176
1343.662, 134.177
1344.866, 140.303
1346.069, 116.415
1347.272, 125.303
1348.475, 112.724
1349.678, 133.333
1350.880, 133.938
1352.083, 149.044
1353.285, 119.327
1354.487, 135.206
1355.689, 107.821
1356.891, 114.127
1358.093, 124.747
1359.294, 114.775
1360.495, 131.363
1361.696, 100.004
1362.897, 109.001
1364.098, 93.791
1365.298, 106.970
1366.499, 92.676
1367.699, 98.487
1368.899, 111.924
1370.099, 99.517
1371.298, 111.778
1372.498, 80.202
1373.697, 103.464
1374.896, 91.755
1376.095, 104.689
1377.294, 75.110
1378.493, 83.103
1379.691, 75.533
1380.889, 90.521
1382.087, 62.985
1383.285, 82.349
1384.483, 98.396
1385.681, 70.016
1386.878, 71.474
1388.075, 66.961
1389.272, 65.883
1390.469, 60.795
1391.666, 82.467
1392.862, 90.391
1394.059, 75.135
1395.255, 60.062
1396.451, 73.004
1397.647, 80.715
1398.842, 71.428
1400.038, 83.448
1401.233, 90.625
1402.428, 82.224
1403.623, 97.789
1404.818, 85.916
1406.013, 124.566
1407.207, 82.962
1408.401, 105.937
1409.595, 92.501
1410.789, 85.415
1411.983, 77.611
1413.177, 72.588
1414.370, 85.476
1415.563, 64.239
1416.756, 73.975
1417.949, 48.932
1419.142, 67.637
1420.335, 40.432
1421.527, 56.789
1422.719, 35.421
1423.911, 65.345
1425.103, 69.903
1426.295, 53.884
1427.486, 77.333
1428.677, 31.916
1429.869, 59.862
1431.060, 42.721
1432.250, 31.655
1433.441, 35.430
1434.632, 37.119
1435.822, 48.534
1437.012, 40.998
1438.202, 61.848
1439.392, 27.550
1440.581, 51.033
1441.771, 28.724
1442.960, 69.343
1444.149, 38.714
1445.338, 35.081
1446.527, 35.600
1447.715, 52.124
1448.904, 31.300
1450.092, 40.696
1451.280, 60.570
1452.468, 45.655
1453.656, 42.366
1454.843, 42.420
1456.031, 36.896
1457.218, 37.104
1458.405, 33.235
1459.592, 39.435
1460.778, 32.964
1461.965, 39.446
1463.151, 51.151
1464.337, 49.917
1465.523, 41.880
1466.709, 30.738
1467.895, 23.205
1469.080, 29.588
1470.266, 43.655
1471.451, 9.253
1472.636, 41.320
1473.821, 23.391
1475.005, 32.085
1476.190, 48.195
1477.374, 26.403
1478.558, 3.524
1479.742, 24.160
1480.926, 10.055
1482.109, 12.207
1483.293, 29.547
1484.476, 8.385
1485.659, 25.412
1486.842, 33.870
1488.025, 40.032
1489.207, 39.642
1490.390, 39.735
1491.572, 16.609
1492.754, 51.291
1493.936, 23.419
