##NAMES=Pyrosmalite-(Fe)
##RRUFFID=R050158
##IDEAL CHEMISTRY=Fe^2+^_8_Si_6_O_15_(OH)_10_
##LOCALITY=Burguillos del Cerro, Badajos, Spain
##OWNER=RRUFF
##SOURCE=Jim McGlasson
##DESCRIPTION=Green subhedral crystal aggregate
##STATUS=The identification of this mineral has been confirmed by X-ray diffraction and chemical analysis
##URL=rruff.info/R050158
##MEASURED CHEMISTRY=(Fe^2+^_0.92_Mn^2+^_0.06_Mg_0.02_)_8_Si_6_O_15_(OH_0.83_Cl_0.17_)_10_
##PIN_ID=L00098
##ORIENTATION=Laser parallel to c* (0 0 1). Fiducial mark perpendicular to laser is parallel to a [1 0 0]
128.263, 0.000
129.653, 7.474
131.042, 66.156
132.432, 60.493
133.821, 117.955
135.210, 281.146
136.599, 608.935
137.987, 860.919
139.376, 1026.365
140.764, 1423.537
142.152, 1682.831
143.539, 1745.977
144.927, 1838.984
146.314, 1864.734
147.701, 1730.644
149.088, 1575.947
150.474, 1517.558
151.861, 1502.634
153.247, 1445.458
154.633, 1386.133
156.018, 1514.962
157.404, 1567.296
158.789, 1719.339
160.174, 1766.655
161.559, 1891.725
162.943, 1935.948
164.327, 1986.660
165.711, 2115.146
167.095, 2188.566
168.479, 2349.199
169.862, 2339.682
171.246, 2483.535
172.628, 2615.992
174.011, 2869.120
175.394, 3126.414
176.776, 3307.356
178.158, 3622.608
179.540, 3999.900
180.922, 4470.987
182.303, 4672.465
183.684, 5140.973
185.065, 5154.251
186.446, 5260.381
187.826, 5138.145
189.207, 5002.059
190.587, 4698.118
191.967, 4411.450
193.346, 4081.612
194.726, 3601.009
196.105, 3121.487
197.484, 2567.035
198.862, 2215.644
200.241, 1787.313
201.619, 1392.039
202.997, 1161.818
204.375, 884.646
205.753, 592.826
207.130, 461.131
208.507, 282.627
209.884, 220.591
211.261, 42.684
212.638, 51.985
214.014, 77.397
215.390, 122.558
216.766, 94.485
218.141, 153.207
219.517, 84.743
220.892, 89.112
222.267, 41.331
223.642, 35.678
225.016, 71.380
226.391, 46.247
227.765, 75.028
229.139, 113.733
230.512, 54.374
231.886, 70.960
233.259, 31.511
234.632, 26.049
236.005, 30.417
237.377, 191.883
238.749, 222.349
240.122, 346.812
241.493, 502.269
242.865, 533.713
244.237, 748.135
245.608, 904.531
246.979, 1116.910
248.350, 1339.267
249.720, 1508.664
251.090, 1792.059
252.461, 1970.503
253.830, 2167.856
255.200, 2363.050
256.570, 2593.067
257.939, 2767.948
259.308, 2814.754
260.677, 2884.450
262.045, 2909.018
263.414, 2895.482
264.782, 2757.850
266.150, 2641.180
267.517, 2457.499
268.885, 2286.540
270.252, 1999.147
271.619, 1860.470
272.986, 1592.786
274.353, 1299.089
275.719, 1102.377
277.085, 909.649
278.451, 724.904
279.817, 703.141
281.182, 554.361
282.548, 489.563
283.913, 475.748
285.278, 406.914
286.642, 452.062
288.007, 566.192
289.371, 590.441
290.735, 686.530
292.099, 823.203
293.462, 949.695
294.826, 1114.005
296.189, 1365.938
297.552, 1676.159
298.914, 1972.706
300.277, 2391.311
301.639, 2819.084
303.001, 3112.574
304.363, 3299.719
305.724, 3509.399
307.086, 3482.105
308.447, 3418.535
309.808, 3139.751
311.168, 3011.830
312.529, 2812.773
313.889, 2779.578
315.249, 2920.213
316.609, 3294.642
317.969, 3844.855
319.328, 4717.842
320.687, 6199.608
322.046, 7790.175
323.405, 9360.562
324.764, 10690.780
326.122, 10820.848
327.480, 9830.777
328.838, 8220.575
330.196, 6350.251
331.553, 4745.814
332.910, 3623.230
334.267, 2655.429
335.624, 2065.187
336.981, 1670.452
338.337, 1411.242
339.693, 1193.109
341.049, 1030.731
342.405, 890.264
343.760, 893.824
345.116, 850.107
346.471, 726.753
347.826, 812.246
349.180, 760.683
350.535, 824.870
351.889, 845.108
353.243, 1031.266
354.597, 1178.385
355.950, 1344.866
357.304, 1609.471
358.657, 1816.859
360.010, 2124.257
361.362, 2318.465
362.715, 2480.140
364.067, 2602.038
365.419, 2618.366
366.771, 2646.592
368.123, 2483.065
369.474, 2379.062
370.825, 2132.804
372.176, 2034.287
373.527, 1844.002
374.877, 1671.476
376.228, 1573.762
377.578, 1376.698
378.928, 1408.114
380.277, 1199.974
381.627, 1181.782
382.976, 1166.194
384.325, 1122.629
385.674, 1117.741
387.023, 1148.769
388.371, 1108.785
389.719, 1085.741
391.067, 1019.678
392.415, 1087.742
393.762, 1165.521
395.110, 1143.915
396.457, 1249.391
397.804, 1347.932
399.150, 1333.782
400.497, 1424.744
401.843, 1573.883
403.189, 1669.491
404.535, 1820.962
405.881, 1968.369
407.226, 2147.749
408.571, 2408.968
409.916, 2689.825
411.261, 3032.369
412.605, 3372.378
413.950, 3800.245
415.294, 4177.052
416.638, 4497.427
417.981, 4747.034
419.325, 4839.340
420.668, 4675.626
422.011, 4166.890
423.354, 3730.131
424.697, 3200.352
426.039, 2847.553
427.381, 2353.733
428.723, 2156.894
430.065, 1754.034
431.406, 1614.154
432.748, 1544.254
434.089, 1427.333
435.430, 1392.392
436.770, 1330.431
438.111, 1230.448
439.451, 1124.445
440.791, 978.422
442.131, 777.378
443.471, 708.314
444.810, 556.084
446.149, 499.783
447.488, 376.181
448.827, 296.753
450.166, 281.583
451.504, 236.389
452.842, 190.167
454.180, 164.914
455.518, 168.606
456.855, 183.249
458.193, 178.837
459.530, 186.369
460.867, 211.844
462.203, 168.263
463.540, 224.625
464.876, 290.931
466.212, 378.184
467.548, 343.387
468.883, 376.539
470.219, 447.642
471.554, 548.697
472.889, 578.705
474.224, 656.665
475.558, 874.578
476.892, 1184.445
478.227, 1624.267
479.561, 2165.045
480.894, 2729.779
482.228, 3239.469
483.561, 3452.118
484.894, 3555.726
486.227, 3081.292
487.559, 2550.819
488.892, 2093.306
490.224, 1566.753
491.556, 1235.161
492.888, 971.531
494.220, 709.864
495.551, 594.158
496.882, 493.418
498.213, 368.644
499.544, 265.839
500.874, 250.000
502.205, 199.129
503.535, 115.224
504.865, 121.285
506.194, 30.312
507.524, 42.301
508.853, 46.253
510.182, 89.169
511.511, 76.052
512.840, 93.899
514.168, 101.712
515.496, 252.492
516.824, 221.243
518.152, 270.964
519.480, 266.658
520.807, 310.323
522.134, 195.961
523.461, 140.569
524.788, 80.143
526.114, 32.683
527.441, 24.186
528.767, 8.350
530.093, 17.222
531.418, 56.395
532.744, 68.078
534.069, 91.721
535.394, 58.517
536.719, 92.948
538.044, 96.760
539.368, 58.684
540.693, 99.621
542.017, 87.577
543.340, 59.577
544.664, 53.600
545.987, 93.644
547.311, 64.742
548.634, 69.871
549.956, 34.037
551.279, 74.217
552.601, 105.420
553.923, 51.677
555.245, 12.952
556.567, 24.234
557.889, 10.466
559.210, 18.146
560.531, 25.808
561.852, 71.441
563.173, 25.052
564.493, 57.628
565.813, 101.171
567.133, 55.682
568.453, 190.160
569.773, 142.609
571.092, 163.027
572.412, 190.416
573.731, 197.779
575.049, 294.116
576.368, 232.429
577.686, 361.721
579.005, 335.990
580.323, 401.239
581.640, 410.472
582.958, 451.680
584.275, 536.872
585.593, 562.044
586.909, 616.195
588.226, 724.466
589.543, 845.472
590.859, 978.597
592.175, 1121.697
593.491, 1326.774
594.807, 1530.844
596.122, 1841.890
597.438, 2131.921
598.753, 2587.940
600.068, 3141.936
601.382, 3792.910
602.697, 4798.875
604.011, 6011.826
605.325, 7502.760
606.639, 9733.532
607.952, 12373.949
609.266, 15724.286
610.579, 20154.414
611.892, 24264.330
613.205, 28554.127
614.518, 31253.916
615.830, 31873.744
617.142, 30273.535
618.454, 26863.340
619.766, 22123.232
621.078, 18612.922
622.389, 14362.829
623.700, 11492.996
625.011, 9103.509
626.322, 7373.859
627.632, 6006.330
628.943, 4909.855
630.253, 4192.359
631.563, 3553.839
632.872, 3015.298
634.182, 2791.736
635.491, 2368.152
636.800, 2083.547
638.109, 1969.920
639.418, 1768.273
640.726, 1512.604
642.035, 1427.916
643.343, 1312.206
644.651, 1136.476
645.958, 1176.725
647.266, 1063.954
648.573, 971.164
649.880, 945.352
651.187, 906.521
652.494, 789.671
653.800, 762.800
655.106, 743.910
656.412, 694.996
657.718, 640.637
659.024, 646.198
660.329, 629.531
661.634, 659.500
662.939, 655.480
664.244, 612.927
665.549, 631.464
666.853, 626.023
668.157, 553.813
669.461, 516.536
670.765, 470.320
672.069, 426.438
673.372, 383.901
674.675, 361.822
675.978, 308.295
677.281, 289.737
678.583, 282.348
679.886, 228.469
681.188, 291.345
682.490, 236.956
683.792, 222.269
685.093, 261.501
686.394, 175.966
687.696, 241.120
688.997, 253.607
690.297, 176.405
691.598, 189.706
692.898, 91.104
694.198, 165.420
695.498, 180.315
696.798, 257.110
698.097, 165.940
699.397, 213.655
700.696, 221.914
701.995, 254.819
703.293, 269.082
704.592, 278.113
705.890, 270.171
707.188, 227.151
708.486, 286.670
709.784, 254.499
711.081, 339.810
712.378, 277.682
713.675, 327.660
714.972, 374.924
716.269, 293.921
717.565, 447.259
718.862, 450.122
720.158, 520.324
721.453, 442.848
722.749, 532.302
724.045, 544.758
725.340, 573.809
726.635, 640.412
727.930, 733.315
729.224, 733.760
730.519, 789.308
731.813, 811.620
733.107, 1074.263
734.401, 1097.635
735.694, 1108.123
736.988, 1273.216
738.281, 1257.540
739.574, 1235.439
740.867, 1311.775
742.160, 1218.847
743.452, 1160.864
744.744, 1066.445
746.036, 930.142
747.328, 861.444
748.620, 700.711
749.911, 620.120
751.202, 641.152
752.493, 488.366
753.784, 542.428
755.075, 454.600
756.365, 475.392
757.655, 489.683
758.945, 470.133
760.235, 469.541
761.525, 570.484
762.814, 587.609
764.103, 670.614
765.392, 731.731
766.681, 793.973
767.969, 755.947
769.258, 819.833
770.546, 789.817
771.834, 662.689
773.122, 632.708
774.409, 623.657
775.697, 538.546
776.984, 426.389
778.271, 373.224
779.558, 446.388
780.844, 333.204
782.131, 343.011
783.417, 331.817
784.703, 300.603
785.989, 288.379
787.274, 273.144
788.560, 284.898
789.845, 350.643
791.130, 312.378
792.415, 316.102
793.699, 357.816
794.983, 304.521
796.268, 427.215
797.552, 435.900
798.835, 384.575
800.119, 469.241
801.402, 516.896
802.686, 580.543
803.969, 639.180
805.251, 726.808
806.534, 842.426
807.816, 846.036
809.098, 965.636
810.380, 992.228
811.662, 1130.810
812.944, 1182.385
814.225, 1137.954
815.506, 1310.517
816.787, 1286.076
818.068, 1400.630
819.349, 1326.183
820.629, 1301.733
821.909, 1358.281
823.189, 1123.825
824.469, 954.366
825.749, 824.903
827.028, 583.437
828.307, 544.964
829.586, 420.486
830.865, 346.002
832.144, 296.511
833.422, 202.013
834.700, 212.510
835.978, 171.002
837.256, 161.492
838.534, 105.980
839.811, 120.467
841.088, 89.803
842.365, 75.293
843.642, 61.798
844.919, 62.214
846.195, 56.737
847.472, 34.882
848.748, 76.390
850.023, 22.995
851.299, 45.623
852.575, 13.260
853.850, 62.926
855.125, 36.391
856.400, 26.286
857.674, 35.987
858.949, 3.295
860.223, 29.437
861.497, 14.178
862.771, 3.062
864.045, 23.279
865.318, 25.497
866.591, 3.725
867.864, 4.047
869.137, 28.184
870.410, 14.567
871.682, 20.683
872.955, 43.052
874.227, 5.783
875.499, 64.511
876.770, 16.236
878.042, 6.957
879.313, 64.671
880.584, 11.382
881.855, 3.913
883.126, 5.219
884.396, 39.464
885.667, 21.861
886.937, 24.794
888.207, 14.558
889.476, 24.929
890.746, 27.677
892.015, 21.721
893.284, 12.141
894.553, 7.578
895.822, 72.030
897.090, 16.530
898.359, 67.049
899.627, 11.398
900.895, 16.837
902.163, 62.727
903.430, 71.665
904.698, 27.938
905.965, 41.567
907.232, 23.772
908.499, 3.896
909.765, 45.577
911.032, 32.292
912.298, 15.034
913.564, 62.206
914.830, 15.441
916.095, 41.669
917.361, 11.891
918.626, 12.894
919.891, 41.305
921.156, 71.497
922.420, 34.689
923.685, 65.876
924.949, 22.058
926.213, 36.234
927.477, 48.404
928.740, 74.570
930.004, 56.730
931.267, 5.887
932.530, 77.035
933.793, 86.179
935.056, 52.318
936.318, 86.453
937.581, 67.583
938.843, 96.710
940.104, 96.832
941.366, 52.949
942.628, 91.063
943.889, 108.173
945.150, 161.279
946.411, 109.380
947.672, 94.478
948.932, 144.573
950.193, 54.666
951.453, 130.754
952.713, 123.841
953.973, 106.926
955.232, 80.007
956.491, 91.776
957.751, 117.170
959.010, 91.258
960.268, 150.349
961.527, 117.438
962.785, 156.523
964.044, 176.607
965.302, 173.688
966.559, 151.768
967.817, 143.847
969.075, 191.922
970.332, 150.994
971.589, 235.062
972.846, 230.128
974.102, 232.191
975.359, 217.250
976.615, 261.306
977.871, 270.359
979.127, 267.409
980.383, 300.456
981.638, 352.500
982.893, 302.540
984.149, 424.579
985.404, 325.614
986.658, 298.646
987.913, 434.676
989.167, 376.704
990.421, 411.737
991.675, 503.766
992.929, 542.794
994.183, 604.787
995.436, 603.724
996.689, 698.661
997.942, 723.576
999.195, 824.399
1000.448, 921.396
1001.700, 1011.875
1002.952, 1075.739
1004.204, 1232.467
1005.456, 1379.401
1006.708, 1500.055
1007.959, 1719.833
1009.210, 1930.648
1010.461, 2251.110
1011.712, 2594.892
1012.963, 3037.609
1014.213, 3684.052
1015.464, 4202.385
1016.714, 5014.567
1017.964, 5856.946
1019.214, 6797.607
1020.463, 7683.592
1021.712, 8601.908
1022.962, 9238.306
1024.210, 10006.119
1025.459, 10053.774
1026.708, 9911.673
1027.956, 9489.368
1029.204, 8697.023
1030.452, 8084.917
1031.700, 7172.584
1032.948, 6484.817
1034.195, 5688.967
1035.442, 4998.748
1036.689, 4475.929
1037.936, 4019.643
1039.183, 3619.228
1040.429, 3373.194
1041.676, 2891.648
1042.922, 2711.780
1044.168, 2477.463
1045.413, 2199.395
1046.659, 2126.369
1047.904, 1954.766
1049.149, 1787.784
1050.394, 1688.433
1051.639, 1518.943
1052.884, 1433.459
1054.128, 1275.470
1055.372, 1198.157
1056.616, 1206.982
1057.860, 1046.686
1059.104, 1105.757
1060.347, 995.316
1061.590, 873.794
1062.833, 874.212
1064.076, 782.083
1065.319, 737.761
1066.561, 705.550
1067.803, 675.216
1069.046, 633.750
1070.287, 619.544
1071.529, 566.361
1072.771, 568.131
1074.012, 521.142
1075.253, 472.727
1076.494, 465.510
1077.735, 408.347
1078.975, 426.222
1080.216, 395.098
1081.456, 350.637
1082.696, 337.515
1083.936, 312.393
1085.175, 338.261
1086.415, 314.295
1087.654, 402.021
1088.893, 303.901
1090.132, 318.782
1091.371, 331.663
1092.609, 282.546
1093.847, 269.429
1095.085, 261.313
1096.323, 225.198
1097.561, 235.495
1098.799, 259.382
1100.036, 246.269
1101.273, 263.727
1102.510, 218.921
1103.747, 234.810
1104.983, 264.960
1106.220, 266.851
1107.456, 302.462
1108.692, 314.003
1109.928, 256.896
1111.163, 316.907
1112.399, 330.194
1113.634, 277.088
1114.869, 372.549
1116.104, 429.744
1117.339, 424.641
1118.573, 587.539
1119.808, 555.437
1121.042, 631.337
1122.276, 731.237
1123.509, 716.138
1124.743, 875.040
1125.976, 868.943
1127.210, 903.847
1128.443, 834.752
1129.675, 874.658
1130.908, 857.565
1132.141, 782.502
1133.373, 642.411
1134.605, 654.321
1135.837, 540.232
1137.068, 460.478
1138.300, 463.968
1139.531, 435.883
1140.762, 378.799
1141.993, 292.716
1143.224, 262.635
1144.455, 169.555
1145.685, 249.477
1146.915, 163.401
1148.145, 164.327
1149.375, 131.254
1150.605, 141.190
1151.834, 177.127
1153.063, 83.068
1154.292, 115.010
1155.521, 125.965
1156.750, 54.921
1157.978, 31.880
1159.207, 87.844
1160.435, 37.810
1161.663, 45.778
1162.891, 98.751
1164.118, 6.734
1165.345, 8.726
1166.573, 60.723
1167.800, 77.723
1169.026, 11.265
1170.253, 49.743
1171.480, 46.760
1172.706, 15.780
1173.932, 85.803
1175.158, 21.828
1176.383, 33.857
1177.609, 61.889
1178.834, 79.922
1180.059, 86.959
1181.284, 96.002
1182.509, 83.779
1183.734, 72.023
1184.958, 44.164
1186.182, 31.229
1187.406, 2.302
1188.630, 13.614
1189.854, 43.467
1191.077, 29.558
1192.301, 196.658
1193.524, 94.000
1194.747, 141.895
1195.969, 49.965
1197.192, 48.173
1198.414, 15.684
1199.636, 10.454
1200.858, 39.387
1202.080, 6.757
1203.302, 42.914
1204.523, 13.087
1205.744, 9.264
1206.966, 79.448
1208.186, 0.350
1209.407, 55.864
1210.628, 37.088
1211.848, 4.315
1213.068, 97.546
1214.288, 52.780
1215.508, 61.018
1216.727, 114.266
1217.947, 17.482
1219.166, 89.765
1220.385, 44.015
1221.604, 15.269
1222.822, 76.527
1224.041, 49.789
1225.259, 21.054
1226.477, 88.323
1227.695, 33.596
1228.913, 81.126
1230.130, 43.407
1231.348, 33.693
1232.565, 98.982
1233.782, 27.278
1234.999, 67.575
1236.215, 13.875
1237.432, 34.179
1238.648, 61.485
1239.864, 33.793
1241.080, 59.103
1242.296, 54.412
1243.511, 6.282
1244.726, 18.012
1245.942, 44.301
1247.156, 9.410
1248.371, 4.124
1249.586, 73.162
1250.800, 22.550
1252.014, 40.736
1253.228, 47.976
1254.442, 29.696
1255.656, 60.579
1256.869, 0.144
1258.083, 5.864
1259.296, 69.414
1260.509, 9.313
1261.722, 4.040
1262.934, 45.234
1264.147, 38.511
1265.359, 60.791
1266.571, 23.073
1267.783, 74.358
1268.994, 120.646
1270.206, 6.937
1271.417, 24.230
1272.628, 15.527
1273.839, 53.827
1275.050, 39.129
1276.260, 58.434
1277.471, 1.742
1278.681, 38.052
1279.891, 17.365
1281.101, 53.681
1282.310, 5.000
1283.520, 28.680
1284.729, 95.636
1285.938, 63.955
1287.147, 103.322
1288.356, 88.646
1289.564, 77.534
1290.773, 73.305
1291.981, 69.640
1293.189, 8.978
1294.397, 43.318
1295.604, 30.662
1296.812, 41.010
1298.019, 60.360
1299.226, 77.714
1300.433, 63.071
1301.640, 70.432
1302.846, 63.795
1304.053, 34.162
1305.259, 15.529
1306.465, 11.899
1307.671, 49.273
1308.876, 24.649
1310.082, 53.028
1311.287, 58.479
1312.492, 73.796
1313.697, 66.185
1314.902, 63.960
1316.106, 48.357
1317.310, 80.757
1318.515, 64.160
1319.719, 32.568
1320.922, 103.979
1322.126, 66.395
1323.329, 80.815
1324.533, 120.239
1325.736, 52.667
1326.939, 65.099
1328.141, 79.536
1329.344, 44.978
1330.546, 145.423
1331.748, 79.873
1332.950, 67.328
1334.152, 91.065
1335.354, 39.528
1336.555, 69.997
1337.757, 108.470
1338.958, 77.948
1340.159, 82.432
1341.359, 102.171
1342.560, 19.665
1343.760, 108.327
1344.960, 17.832
1346.160, 57.214
1347.360, 97.816
1348.560, 35.340
1349.759, 79.870
1350.959, 71.465
1352.158, 49.009
1353.357, 120.471
1354.555, 113.029
1355.754, 26.595
1356.952, 149.169
1358.151, 72.750
1359.349, 77.340
1360.546, 89.939
1361.744, 61.688
1362.941, 110.364
1364.139, 60.000
1365.336, 40.633
1366.533, 111.278
1367.730, 57.934
1368.926, 15.603
1370.123, 79.286
1371.319, 19.971
1372.515, 7.330
1373.711, 57.421
1374.906, 37.150
1376.102, 81.899
1377.297, 112.140
1378.492, 100.542
1379.687, 107.999
1380.882, 93.557
1382.077, 140.118
1383.271, 135.255
1384.465, 67.819
1385.659, 107.464
1386.853, 69.689
1388.047, 32.328
1389.240, 65.077
1390.434, 63.041
1391.627, 46.937
1392.820, 98.119
1394.013, 87.635
1395.205, 36.153
1396.398, 96.675
1397.590, 93.199
1398.782, 81.727
1399.974, 89.224
1401.166, 23.757
1402.357, 234.893
1403.549, 196.517
1404.740, 72.036
1405.931, 120.556
1407.122, 3.080
1408.313, 110.606
1409.503, 100.135
1410.693, 43.666
1411.883, 77.198
1413.073, 86.734
1414.263, 25.271
1415.453, 93.811
1416.642, 0.353
1417.831, 34.896
1419.020, 59.449
1420.209, 98.005
1421.398, 35.563
1422.587, 49.122
1423.775, 28.682
1424.963, 53.244
1426.151, 94.807
1427.339, 20.371
1428.526, 9.947
1429.714, 3.477
1430.901, 29.100
1432.088, 40.716
1433.275, 4.345
1434.462, 90.005
1435.648, 63.666
1436.835, 43.328
1438.021, 40.992
1439.207, 18.657
1440.393, 37.322
1441.579, 72.985
1442.764, 63.662
1443.949, 37.337
1445.135, 50.009
1446.320, 30.679
1447.504, 32.846
1448.689, 70.505
1449.873, 40.144
1451.058, 56.785
1452.242, 66.431
1453.426, 52.090
1454.609, 72.812
1455.793, 62.607
1456.976, 46.433
1458.159, 91.271
1459.342, 37.117
1460.525, 44.975
1461.708, 69.848
1462.890, 56.777
1464.073, 57.721
1465.255, 43.679
1466.437, 46.771
1467.619, 46.643
1468.800, 60.646
1469.982, 63.670
1471.163, 89.713
1472.344, 72.776
1473.525, 43.860
1474.706, 62.238
1475.886, 1.046
1477.066, 45.104
1478.247, 115.277
1479.427, 58.476
1480.607, 75.700
1481.786, 18.953
1482.966, 57.236
1484.145, 87.564
1485.324, 1.941
1486.503, 75.364
1487.682, 96.834
1488.860, 4.650
1490.039, 60.910
1491.217, 83.518
1492.395, 2.825
1493.573, 82.885
1494.751, 70.650
1495.928, 67.477
1497.106, 68.369
1498.283, 103.279
1499.460, 57.327
1500.637, 85.461
1501.814, 36.690
1502.990, 2.976
1504.166, 116.469
1505.342, 16.219
1506.518, 76.247
1507.694, 57.960
1508.870, 47.820
1510.045, 89.848
1511.221, 33.052
1512.396, 57.874
1513.571, 78.023
1514.745, 29.570
1515.920, 130.227
1517.094, 78.971
1518.269, 0.203
1519.443, 0.000
##END=



