##NAMES=Pyromorphite
##RRUFFID=R050027
##IDEAL CHEMISTRY=Pb^2+^_5_(PO_4_)_3_Cl
##LOCALITY=Yangshuo, Guangxi Autonomous Region, China
##OWNER=RRUFF
##SOURCE=Eugene Schlepp
##DESCRIPTION=Light green hexagonal prismatic hoppered single crystals
##STATUS=The identification of this mineral has been confirmed by X-ray diffraction and chemical analysis
##URL=rruff.info/R050027
##MEASURED CHEMISTRY=Pb_5.00_(P_1.00_O_4_)_3_Cl_1.00_
##PIN_ID=L00481
##ORIENTATION=Laser parallel to -a* (-1 0 0). Fiducial mark perpendicular to laser is parallel to -c [0 0 -1]
46.637, 0.000
48.043, 1.888
49.450, 59.406
50.856, 123.730
52.261, 167.279
53.667, 334.449
55.072, 468.723
56.477, 506.009
57.882, 558.078
59.287, 599.352
60.691, 665.283
62.095, 793.758
63.499, 869.239
64.903, 814.800
66.306, 619.638
67.709, 463.082
69.112, 349.083
70.515, 218.596
71.917, 189.577
73.319, 100.980
74.721, 97.763
76.123, 3.111
77.525, 44.674
78.926, 40.948
80.327, 65.940
81.728, 4.628
83.128, 205.007
84.529, 447.952
85.929, 927.176
87.329, 1667.646
88.728, 2494.334
90.128, 3033.222
91.527, 3202.298
92.926, 3078.547
94.324, 2892.950
95.723, 2860.489
97.121, 2883.140
98.519, 3156.879
99.917, 3838.695
101.314, 5291.585
102.712, 7363.540
104.109, 9931.558
105.505, 12023.638
106.902, 12705.771
108.298, 12817.966
109.694, 11950.247
111.090, 10832.643
112.486, 8315.204
113.881, 7280.043
115.277, 6286.247
116.672, 5600.825
118.066, 5132.690
119.461, 4844.716
120.855, 4566.837
122.249, 4377.946
123.643, 4283.034
125.036, 4149.091
126.430, 4179.110
127.823, 4067.090
129.216, 4074.918
130.608, 4175.937
132.001, 4130.932
133.393, 4300.992
134.785, 4432.096
136.176, 4474.221
137.568, 4652.355
138.959, 4742.468
140.350, 5090.539
141.741, 5163.571
143.131, 5389.544
144.521, 5560.440
145.911, 5755.185
147.301, 5886.719
148.691, 6050.471
150.080, 6113.528
151.469, 6331.922
152.858, 6429.311
154.247, 6549.697
155.635, 6566.079
157.024, 6654.459
158.411, 6533.838
159.799, 6533.213
161.187, 6418.590
162.574, 6260.965
163.961, 6336.335
165.348, 6100.709
166.734, 6225.080
168.121, 6187.590
169.507, 6250.438
170.893, 6252.756
172.278, 6412.476
173.664, 6629.416
175.049, 6653.502
176.434, 6724.785
177.819, 6864.474
179.203, 6866.458
180.587, 6907.817
181.971, 6981.219
183.355, 7000.242
184.739, 7028.417
186.122, 7102.032
187.505, 7162.578
188.888, 7012.633
190.271, 6949.926
191.653, 6811.238
193.035, 6364.656
194.417, 5894.774
195.799, 5507.542
197.180, 5048.203
198.562, 4618.767
199.943, 4318.190
201.324, 4015.408
202.704, 3747.192
204.084, 3540.554
205.465, 3353.527
206.844, 3188.509
208.224, 3045.127
209.603, 2865.732
210.983, 2819.197
212.362, 2713.657
213.740, 2651.818
215.119, 2530.109
216.497, 2442.809
217.875, 2362.731
219.253, 2255.647
220.631, 2151.292
222.008, 2082.589
223.385, 2038.576
224.762, 1872.313
226.139, 1830.771
227.515, 1758.924
228.891, 1647.502
230.267, 1584.480
231.643, 1468.315
233.018, 1453.189
234.394, 1395.099
235.769, 1308.649
237.144, 1234.655
238.518, 1202.513
239.893, 1223.590
241.267, 1135.736
242.641, 1097.464
244.014, 1012.798
245.388, 981.570
246.761, 967.966
248.134, 909.392
249.507, 857.845
250.879, 877.021
252.252, 783.209
253.624, 784.407
254.996, 795.615
256.367, 767.831
257.739, 724.054
259.110, 681.284
260.481, 676.519
261.852, 612.759
263.222, 608.004
264.592, 552.252
265.962, 570.504
267.332, 544.759
268.702, 459.015
270.071, 432.274
271.440, 448.534
272.809, 430.796
274.178, 370.059
275.546, 332.322
276.915, 360.585
278.283, 330.847
279.650, 279.107
281.018, 253.363
282.385, 288.613
283.752, 215.856
285.119, 214.091
286.486, 240.316
287.852, 175.533
289.218, 169.740
290.584, 142.938
291.950, 117.126
293.316, 107.304
294.681, 77.471
296.046, 68.536
297.411, 40.773
298.775, 56.906
300.140, 24.027
301.504, 38.136
302.868, 15.724
304.231, 9.356
305.595, 17.510
306.958, 5.425
308.321, 26.285
309.684, 33.179
311.047, 36.920
312.409, 41.590
313.771, 44.996
315.133, 48.794
316.495, 49.113
317.856, 54.818
319.217, 53.594
320.578, 54.540
321.939, 52.288
323.299, 50.579
324.660, 44.376
326.020, 46.179
327.380, 42.061
328.739, 30.021
330.099, 27.270
331.458, 21.785
332.817, 16.825
334.176, 17.818
335.534, 22.982
336.892, 30.008
338.251, 13.885
339.608, 18.884
340.966, 79.770
342.323, 21.680
343.681, 70.387
345.037, 49.168
346.394, 71.690
347.751, 63.311
349.107, 36.847
350.463, 123.396
351.819, 96.964
353.174, 103.295
354.530, 79.558
355.885, 92.868
357.240, 146.180
358.594, 130.500
359.949, 100.700
361.303, 138.951
362.657, 119.245
364.011, 113.342
365.365, 146.541
366.718, 138.673
368.071, 167.714
369.424, 204.758
370.777, 220.807
372.129, 298.849
373.481, 297.883
374.833, 326.912
376.185, 416.934
377.537, 502.934
378.888, 623.916
380.239, 793.880
381.590, 922.825
382.941, 1143.750
384.291, 1417.669
385.642, 1840.573
386.992, 2347.469
388.341, 2985.350
389.691, 3612.223
391.040, 4199.088
392.389, 4314.947
393.738, 4302.792
395.087, 3994.629
396.435, 3520.460
397.784, 3133.285
399.132, 3009.111
400.479, 3143.942
401.827, 3449.765
403.174, 4186.586
404.521, 5080.406
405.868, 5969.251
407.215, 6705.116
408.561, 6906.997
409.908, 6742.908
411.254, 6030.830
412.599, 5306.739
413.945, 4558.643
415.290, 4063.533
416.636, 3608.429
417.980, 3157.325
419.325, 2660.208
420.670, 2220.097
422.014, 1822.976
423.358, 1503.837
424.702, 1242.696
426.045, 1037.545
427.389, 868.386
428.732, 726.213
430.075, 610.028
431.417, 524.831
432.760, 524.626
434.102, 481.411
435.444, 371.192
436.786, 357.960
438.127, 310.722
439.469, 295.480
440.810, 257.228
442.151, 274.960
443.492, 213.800
444.832, 260.529
446.172, 218.209
447.512, 184.870
448.852, 216.512
450.192, 187.034
451.531, 183.512
452.870, 223.860
454.209, 214.080
455.548, 204.261
456.887, 219.277
458.225, 206.275
459.563, 195.099
460.901, 193.073
462.238, 205.918
463.576, 149.851
464.913, 172.902
466.250, 143.683
467.587, 150.640
468.923, 134.061
470.259, 136.482
471.596, 93.505
472.931, 96.258
474.267, 68.749
475.603, 112.958
476.938, 80.922
478.273, 47.704
479.608, 56.259
480.942, 18.794
482.276, 10.294
483.611, 4.980
484.944, 26.651
486.278, 20.911
487.612, 31.829
488.945, 42.906
490.278, 14.757
491.611, 41.846
492.943, 19.112
494.276, 28.917
495.608, 64.613
496.940, 24.875
498.271, 38.858
499.603, 9.724
500.934, 31.467
502.265, 21.129
503.596, 60.707
504.927, 33.776
506.257, 84.135
507.587, 49.005
508.917, 58.064
510.247, 43.478
511.577, 30.113
512.906, 79.219
514.235, 89.600
515.564, 74.097
516.892, 68.851
518.221, 65.676
519.549, 93.042
520.877, 79.240
522.205, 67.976
523.533, 114.544
524.860, 92.496
526.187, 110.492
527.514, 160.652
528.841, 136.355
530.167, 136.911
531.493, 167.815
532.820, 155.294
534.145, 230.386
535.471, 232.978
536.796, 252.280
538.122, 310.772
539.447, 433.670
540.771, 490.673
542.096, 585.646
543.420, 601.235
544.744, 526.734
546.068, 568.168
547.392, 515.261
548.715, 573.280
550.039, 760.223
551.362, 817.718
552.684, 987.637
554.007, 951.687
555.329, 853.285
556.652, 778.189
557.973, 563.722
559.295, 461.504
560.617, 377.229
561.938, 375.343
563.259, 302.750
564.580, 350.233
565.901, 343.526
567.221, 358.150
568.541, 461.338
569.861, 571.222
571.181, 744.590
572.501, 1031.621
573.820, 1264.986
575.139, 1334.185
576.458, 1291.020
577.777, 937.975
579.095, 724.419
580.414, 567.124
581.732, 482.251
583.049, 391.443
584.367, 335.658
585.685, 274.413
587.002, 288.332
588.319, 251.445
589.636, 229.884
590.952, 232.826
592.268, 232.802
593.585, 246.735
594.900, 226.858
596.216, 201.488
597.532, 215.721
598.847, 234.479
600.162, 191.867
601.477, 161.129
602.792, 183.353
604.106, 197.184
605.420, 222.145
606.734, 206.664
608.048, 208.494
609.361, 215.949
610.675, 198.372
611.988, 206.763
613.301, 179.123
614.614, 198.453
615.926, 172.752
617.238, 206.020
618.550, 155.260
619.862, 147.468
621.174, 134.646
622.485, 130.750
623.797, 120.870
625.108, 120.100
626.418, 124.923
627.729, 121.557
629.039, 106.779
630.349, 107.508
631.659, 92.234
632.969, 100.833
634.279, 94.819
635.588, 126.242
636.897, 86.730
638.206, 102.250
639.515, 88.609
640.823, 73.927
642.131, 91.218
643.439, 60.594
644.747, 82.935
646.055, 99.313
647.362, 87.729
648.669, 69.011
649.976, 93.389
651.283, 53.652
652.589, 54.932
653.896, 63.337
655.202, 18.557
656.508, 38.804
657.814, 42.894
659.119, 21.042
660.424, 47.102
661.729, 34.296
663.034, 67.340
664.339, 38.566
665.643, 29.611
666.947, 48.656
668.251, 18.610
669.555, 28.465
670.859, 20.488
672.162, 14.514
673.465, 9.432
674.768, 11.505
676.071, 19.072
677.373, 18.937
678.676, 9.705
679.978, 10.381
681.280, 13.792
682.581, 13.118
683.883, 17.570
685.184, 24.693
686.485, 23.013
687.786, 23.610
689.087, 37.199
690.387, 15.759
691.687, 28.283
692.987, 8.776
694.287, 4.232
695.586, 3.352
696.886, 11.021
698.185, 10.358
699.484, 33.339
700.783, 1.093
702.081, 17.055
703.379, 3.270
704.677, 12.609
705.975, 12.531
707.273, 6.498
708.570, 30.495
709.868, 18.463
711.165, 11.388
712.462, 1.488
713.758, 28.624
715.055, 33.808
716.351, 23.957
717.647, 6.774
718.943, 15.514
720.238, 49.841
721.533, 16.226
722.829, 12.351
724.124, 33.096
725.418, 29.590
726.713, 34.873
728.007, 18.685
729.301, 9.280
730.595, 71.906
731.889, 51.595
733.182, 6.337
734.476, 80.105
735.769, 21.939
737.061, 17.193
738.354, 48.694
739.647, 34.627
740.939, 28.599
742.231, 15.605
743.523, 20.614
744.814, 27.700
746.106, 37.793
747.397, 39.922
748.688, 57.088
749.978, 28.297
751.269, 55.536
752.559, 66.816
753.849, 44.142
755.139, 19.503
756.429, 17.885
757.719, 18.414
759.008, 8.868
760.297, 14.308
761.586, 4.634
762.875, 13.237
764.163, 34.276
765.451, 26.777
766.739, 26.265
768.027, 53.743
769.315, 74.188
770.602, 97.644
771.890, 49.050
773.177, 93.485
774.463, 114.807
775.750, 96.093
777.036, 128.320
778.323, 101.526
779.609, 120.688
780.894, 149.844
782.180, 98.017
783.465, 121.173
784.750, 150.266
786.035, 167.362
787.320, 185.392
788.605, 178.459
789.889, 245.501
791.173, 283.674
792.457, 262.683
793.741, 299.758
795.024, 331.779
796.307, 273.725
797.591, 282.762
798.873, 332.571
800.156, 319.579
801.439, 308.659
802.721, 325.694
804.003, 293.636
805.285, 240.703
806.566, 193.459
807.848, 181.249
809.129, 146.598
810.410, 109.918
811.691, 122.394
812.971, 102.991
814.252, 119.901
815.532, 174.629
816.812, 190.049
818.092, 210.069
819.371, 272.652
820.651, 253.990
821.930, 262.844
823.209, 256.819
824.488, 310.195
825.766, 298.304
827.045, 263.181
828.323, 235.839
829.601, 186.633
830.878, 150.802
832.156, 127.999
833.433, 127.802
834.710, 109.675
835.987, 92.124
837.264, 58.653
838.540, 60.751
839.817, 58.203
841.093, 57.878
842.369, 87.542
843.644, 99.614
844.920, 135.058
846.195, 169.830
847.470, 189.191
848.745, 245.190
850.020, 297.768
851.294, 328.227
852.568, 346.702
853.842, 303.547
855.116, 243.469
856.390, 180.443
857.663, 110.745
858.936, 73.109
860.209, 32.534
861.482, 5.397
862.755, 8.109
864.027, 22.892
865.299, 31.831
866.571, 21.237
867.843, 34.003
869.115, 37.508
870.386, 9.939
871.657, 88.213
872.928, 43.062
874.199, 41.825
875.470, 97.769
876.740, 107.372
878.010, 128.401
879.280, 171.728
880.550, 186.562
881.820, 246.725
883.089, 254.547
884.358, 267.527
885.627, 328.865
886.896, 393.074
888.164, 434.788
889.433, 480.245
890.701, 564.273
891.969, 598.234
893.236, 678.173
894.504, 732.564
895.771, 831.800
897.038, 832.835
898.305, 1029.545
899.572, 1100.755
900.838, 1291.929
902.105, 1575.149
903.371, 1703.174
904.637, 2087.695
905.902, 2518.628
907.168, 3145.040
908.433, 3932.817
909.698, 5014.729
910.963, 6409.684
912.228, 8336.043
913.492, 11441.271
914.757, 15816.940
916.021, 21912.299
917.285, 30538.041
918.548, 36773.812
919.812, 38749.625
921.075, 33985.492
922.338, 27171.381
923.601, 21447.328
924.864, 16843.295
926.126, 13609.303
927.388, 11835.356
928.650, 10231.453
929.912, 9497.583
931.174, 9303.749
932.435, 9569.953
933.697, 10356.211
934.958, 11322.495
936.218, 12758.819
937.479, 14825.187
938.739, 17261.586
940.000, 20268.018
941.260, 23424.490
942.520, 26781.008
943.779, 29927.557
945.039, 31634.143
946.298, 32350.762
947.557, 31527.420
948.816, 28494.115
950.074, 25830.848
951.333, 22057.625
952.591, 18964.447
953.849, 15811.309
955.107, 13548.203
956.365, 11365.134
957.622, 9622.109
958.879, 8239.121
960.136, 7246.176
961.393, 6153.272
962.650, 5523.409
963.906, 4855.585
965.162, 4346.799
966.418, 3941.521
967.674, 3641.358
968.930, 3387.701
970.185, 3142.096
971.441, 3081.536
972.696, 2940.017
973.950, 2885.546
975.205, 2838.121
976.459, 2828.741
977.714, 2753.412
978.968, 2793.130
980.222, 2762.895
981.475, 2564.705
982.729, 2636.556
983.982, 2422.452
985.235, 2335.392
986.488, 2220.376
987.740, 2116.414
988.993, 2050.502
990.245, 1973.633
991.497, 1913.817
992.749, 1897.053
994.000, 1852.343
995.252, 1880.670
996.503, 1836.041
997.754, 1858.456
999.005, 1916.912
1000.256, 2066.412
1001.506, 2161.957
1002.756, 2271.544
1004.006, 2522.174
1005.256, 2703.856
1006.506, 2877.589
1007.755, 3142.370
1009.005, 3314.195
1010.254, 3448.067
1011.502, 3713.984
1012.751, 3790.946
1014.000, 3912.945
1015.248, 4072.777
1016.496, 4183.860
1017.744, 4388.986
1018.991, 4478.161
1020.239, 4664.385
1021.486, 4718.569
1022.733, 4662.867
1023.980, 4590.208
1025.227, 4411.603
1026.473, 4209.038
1027.719, 4000.510
1028.965, 3758.865
1030.211, 3497.428
1031.457, 3347.030
1032.702, 2979.363
1033.948, 2837.045
1035.193, 2581.204
1036.438, 2438.992
1037.682, 2348.022
1038.927, 2271.346
1040.171, 2209.501
1041.415, 2102.577
1042.659, 2044.163
1043.903, 2071.211
1045.146, 1984.353
1046.390, 1946.477
1047.633, 1857.463
1048.876, 1620.087
1050.118, 1634.273
1051.361, 1460.399
1052.603, 1324.729
1053.845, 1316.580
1055.087, 1224.787
1056.329, 1107.687
1057.571, 1139.181
1058.812, 1023.671
1060.053, 1056.171
1061.294, 1008.927
1062.535, 942.505
1063.775, 961.155
1065.016, 864.425
1066.256, 900.283
1067.496, 870.739
1068.736, 893.657
1069.975, 899.652
1071.214, 872.705
1072.454, 952.896
1073.693, 975.761
1074.931, 958.477
1076.170, 895.510
1077.408, 868.353
1078.647, 797.325
1079.885, 854.293
1081.122, 809.023
1082.360, 852.269
1083.597, 826.336
1084.835, 785.115
1086.072, 842.912
1087.308, 778.052
1088.545, 817.386
1089.781, 791.570
1091.018, 745.235
1092.254, 730.953
1093.490, 713.319
1094.725, 700.588
1095.961, 678.879
1097.196, 655.765
1098.431, 624.636
1099.666, 642.545
1100.900, 520.354
1102.135, 550.598
1103.369, 541.001
1104.603, 439.440
1105.837, 458.359
1107.071, 415.962
1108.304, 377.573
1109.538, 364.988
1110.771, 335.602
1112.004, 341.127
1113.236, 259.663
1114.469, 257.262
1115.701, 259.324
1116.933, 227.998
1118.165, 257.014
1119.397, 267.186
1120.629, 220.808
1121.860, 275.069
1123.091, 289.944
1124.322, 177.545
1125.553, 218.491
1126.783, 173.289
1128.014, 251.945
1129.244, 199.124
1130.474, 154.931
1131.704, 244.581
1132.933, 183.480
1134.163, 221.543
1135.392, 271.799
1136.621, 205.825
1137.850, 296.020
1139.079, 227.388
1140.307, 222.586
1141.535, 362.649
1142.763, 241.526
1143.991, 440.998
1145.219, 456.148
1146.446, 414.119
1147.674, 555.339
1148.901, 549.301
1150.128, 493.273
1151.354, 537.874
1152.581, 461.852
1153.807, 492.686
1155.033, 525.783
1156.259, 383.097
1157.485, 325.468
1158.710, 295.513
1159.936, 261.571
1161.161, 250.888
1162.386, 221.470
1163.611, 216.588
1164.835, 154.730
1166.060, 141.613
1167.284, 121.863
1168.508, 81.000
1169.732, 72.869
1170.955, 92.734
1172.179, 7.597
1173.402, 10.458
1174.625, 31.316
1175.848, 31.829
1177.070, 46.149
1178.293, 26.761
1179.515, 26.100
1180.737, 45.735
1181.959, 17.215
1183.181, 5.595
1184.402, 8.817
1185.624, 60.955
1186.845, 9.187
1188.066, 32.107
1189.286, 41.247
1190.507, 26.547
1191.727, 67.365
1192.947, 7.311
1194.167, 42.640
1195.387, 33.824
1196.607, 23.203
1197.826, 40.372
1199.045, 4.544
1200.264, 31.890
1201.483, 87.112
1202.702, 29.474
1203.920, 10.990
1205.138, 54.500
1206.356, 36.027
1207.574, 55.531
1208.792, 16.156
1210.009, 17.227
1211.227, 7.462
1212.444, 35.143
1213.661, 8.660
1214.877, 33.161
1216.094, 32.957
1217.310, 48.356
1218.526, 17.228
1219.742, 13.928
1220.958, 22.970
1222.173, 42.557
1223.389, 22.272
1224.604, 26.562
1225.819, 5.241
1227.034, 16.088
1228.248, 38.969
1229.463, 29.990
1230.677, 3.069
1231.891, 11.978
1233.105, 47.217
1234.318, 17.261
1235.532, 27.120
1236.745, 21.022
1237.958, 12.776
1239.171, 24.226
1240.384, 39.919
1241.596, 33.174
1242.809, 15.225
1244.021, 17.221
1245.233, 16.972
1246.444, 1.636
1247.656, 13.243
1248.867, 56.743
1250.079, 44.799
1251.290, 4.134
1252.500, 38.690
1253.711, 12.134
1254.921, 17.577
1256.132, 44.904
1257.342, 61.338
1258.552, 91.616
1259.761, 54.983
1260.971, 6.677
1262.180, 53.501
1263.389, 20.128
1264.598, 11.103
1265.807, 87.193
1267.015, 5.606
1268.223, 20.545
1269.432, 28.537
1270.640, 1.763
1271.847, 25.757
1273.055, 30.653
1274.262, 47.718
1275.470, 70.562
1276.677, 34.400
1277.883, 67.326
1279.090, 59.089
1280.296, 21.872
1281.503, 64.573
1282.709, 57.248
1283.915, 51.308
1285.120, 60.082
1286.326, 7.330
1287.531, 89.511
1288.736, 52.031
1289.941, 31.521
1291.146, 82.577
1292.350, 67.009
1293.555, 87.414
1294.759, 88.002
1295.963, 53.354
1297.167, 90.773
1298.370, 20.322
1299.574, 82.582
1300.777, 69.840
1301.980, 68.024
1303.183, 90.178
1304.386, 90.294
1305.588, 73.380
1306.790, 61.436
1307.993, 88.460
1309.195, 87.451
1310.396, 128.414
1311.598, 81.345
1312.799, 90.247
1314.000, 134.118
1315.201, 151.959
1316.402, 164.579
1317.603, 175.594
1318.803, 163.315
1320.003, 160.044
1321.203, 108.905
1322.403, 65.576
1323.603, 93.215
1324.802, 139.133
1326.002, 99.710
1327.201, 159.839
1328.400, 66.360
1329.599, 128.649
1330.797, 162.666
1331.995, 91.863
1333.194, 114.233
1334.392, 124.010
1335.589, 86.342
1336.787, 174.587
1337.985, 83.853
1339.182, 102.266
1340.379, 141.053
1341.576, 94.290
1342.772, 82.602
1343.969, 149.728
1345.165, 91.341
1346.361, 97.617
1347.557, 164.218
1348.753, 118.238
1349.949, 115.270
1351.144, 101.298
1352.339, 118.076
1353.534, 110.037
1354.729, 132.932
1355.924, 118.207
1357.118, 78.901
1358.312, 74.001
1359.506, 135.644
1360.700, 56.216
1361.894, 142.736
1363.088, 102.124
1364.281, 111.844
1365.474, 56.719
1366.667, 61.288
1367.860, 0.943
1369.052, 64.708
1370.245, 66.376
1371.437, 65.299
1372.629, 82.726
1373.821, 8.736
1375.013, 75.743
1376.204, 43.266
1377.395, 56.117
1378.586, 80.597
1379.777, 77.889
1380.968, 87.757
1382.159, 23.416
1383.349, 97.977
1384.539, 99.762
1385.729, 145.803
1386.919, 41.003
1388.109, 57.410
1389.298, 92.889
1390.487, 83.503
1391.676, 102.932
1392.865, 52.452
1394.054, 44.278
1395.242, 54.710
1396.431, 73.356
1397.619, 67.687
1398.807, 96.339
1399.995, 55.039
1401.182, 92.022
1402.370, 59.559
1403.557, 54.118
1404.744, 82.227
1405.931, 37.073
1407.118, 54.208
1408.304, 89.478
1409.490, 42.926
1410.676, 44.922
1411.862, 76.626
1413.048, 25.199
1414.234, 57.567
1415.419, 83.042
1416.604, 31.627
1417.789, 81.536
1418.974, 67.393
1420.159, 39.010
1421.343, 104.196
1422.528, 57.539
1423.712, 78.012
1424.896, 111.514
1426.079, 5.412
1427.263, 28.255
1428.446, 91.180
1429.629, 11.406
1430.812, 88.969
1431.995, 80.029
1433.178, 5.733
1434.360, 117.540
1435.543, 69.793
1436.725, 15.172
1437.907, 82.192
1439.088, 32.185
1440.270, 6.890
1441.451, 79.243
1442.632, 45.552
1443.813, 85.055
1444.994, 72.653
1446.175, 69.469
1447.355, 45.779
1448.535, 45.358
1449.715, 46.210
1450.895, 103.789
1452.075, 147.907
1453.255, 88.708
1454.434, 87.484
1455.613, 42.045
1456.792, 81.195
1457.971, 105.911
1459.149, 82.643
1460.328, 98.396
1461.506, 97.592
1462.684, 55.390
1463.862, 103.043
1465.040, 87.722
1466.217, 99.921
1467.395, 128.244
1468.572, 102.112
1469.749, 126.613
1470.925, 156.359
1472.102, 81.946
1473.278, 112.278
1474.455, 2.129
1475.631, 122.890
1476.807, 68.573
1477.982, 33.475
1479.158, 36.777
1480.333, 124.202
1481.508, 83.838
1482.683, 86.542
1483.858, 147.251
1485.033, 51.988
1486.207, 81.750
1487.381, 106.527
1488.555, 78.316
1489.729, 133.104
1490.903, 103.915
1492.076, 14.747
1493.250, 141.611
1494.423, 56.490
1495.596, 86.451
1496.769, 176.924
1497.941, 40.115
1499.114, 135.486
