##NAMES=Pyromorphite
##RRUFFID=R050085
##IDEAL CHEMISTRY=Pb^2+^_5_(PO_4_)_3_Cl
##LOCALITY=Bunker Hill mine, Shoshone County, Idaho, USA
##OWNER=RRUFF
##SOURCE=Eugene Schlepp
##DESCRIPTION=Group of orange hexagonal prisms
##STATUS=The identification of this mineral has been confirmed by X-ray diffraction and chemical analysis
##URL=rruff.info/R050085
##MEASURED CHEMISTRY=Pb_5.00_(P_0.96_As_0.04_O_4_)_3_Cl_1.00_
##PIN_ID=L00459
##ORIENTATION=Laser parallel to a* (1 0 0). Fiducial mark perpendicular to laser is parallel to c [0 0 1]
51.274, 0.000
52.673, 135.952
54.072, 224.695
55.470, 12.041
56.868, 28.018
58.266, 17.252
59.664, 57.866
61.061, 118.345
62.458, 335.235
63.855, 452.226
65.252, 539.456
66.649, 666.426
68.045, 812.986
69.441, 1121.297
70.837, 1359.647
72.233, 1569.370
73.628, 1786.873
75.023, 2324.545
76.418, 2251.969
77.813, 2455.713
79.208, 2915.425
80.602, 3449.805
81.996, 4400.668
83.390, 5792.968
84.784, 8203.750
86.178, 11016.997
87.571, 14242.508
88.964, 16990.012
90.357, 18249.262
91.749, 18030.041
93.142, 16292.172
94.534, 14725.484
95.926, 13189.826
97.318, 11985.078
98.709, 12231.150
100.101, 13387.973
101.492, 16135.476
102.883, 19053.607
104.273, 22602.322
105.664, 25341.572
107.054, 26181.330
108.444, 25001.562
109.834, 22082.312
111.223, 18643.973
112.613, 15416.967
114.002, 13051.318
115.391, 11177.591
116.780, 9686.085
118.168, 8796.434
119.556, 7748.199
120.944, 7260.717
122.332, 6823.331
123.720, 6515.682
125.107, 6247.738
126.495, 6129.511
127.882, 5961.021
129.268, 5902.278
130.655, 6053.293
132.041, 5924.081
133.427, 6174.647
134.813, 6334.949
136.199, 6464.854
137.584, 6764.369
138.970, 6943.615
140.355, 7442.665
141.740, 7521.564
143.124, 7830.349
144.509, 7859.045
145.893, 7977.675
147.277, 8296.260
148.660, 8274.807
150.044, 8223.337
151.427, 8191.849
152.810, 8150.358
154.193, 7958.865
155.576, 7857.375
156.958, 7775.891
158.341, 7604.414
159.723, 7532.945
161.105, 7491.488
162.486, 7430.039
163.867, 7338.601
165.249, 7367.170
166.630, 7196.087
168.010, 7287.630
169.391, 7415.626
170.771, 7583.918
172.151, 7554.019
173.531, 7845.482
174.911, 7974.755
176.290, 8365.526
177.669, 8783.749
179.049, 9348.319
180.427, 9605.873
181.806, 10208.946
183.184, 10689.172
184.562, 11146.490
185.940, 11668.816
187.318, 11866.073
188.696, 12153.507
190.073, 11972.614
191.450, 11705.370
192.827, 11071.731
194.204, 10596.166
195.580, 9679.787
196.956, 8873.390
198.332, 7937.001
199.708, 7330.614
201.084, 6596.211
202.459, 5968.787
203.834, 5388.335
205.209, 5094.853
206.584, 4727.335
207.958, 4385.784
209.333, 4114.197
210.707, 3924.640
212.081, 3754.152
213.454, 3431.449
214.828, 3372.705
216.201, 3136.917
217.574, 3002.442
218.947, 2804.154
220.320, 2700.901
221.692, 2599.247
223.064, 2440.137
224.436, 2323.452
225.808, 2215.615
227.179, 2041.374
228.551, 1999.658
229.922, 1817.409
231.293, 1849.576
232.663, 1700.114
234.034, 1598.986
235.404, 1499.161
236.774, 1406.605
238.144, 1308.294
239.514, 1274.203
240.883, 1152.312
242.252, 1057.602
243.621, 1047.055
244.990, 1035.658
246.359, 944.397
247.727, 903.259
249.095, 873.231
250.463, 842.302
251.831, 785.716
253.198, 740.691
254.566, 663.987
255.933, 649.339
257.299, 573.739
258.666, 558.179
260.033, 536.655
261.399, 465.159
262.765, 414.688
264.131, 371.236
265.496, 318.801
266.862, 295.377
268.227, 223.962
269.592, 169.552
270.957, 145.143
272.321, 156.734
273.685, 118.322
275.050, 108.904
276.413, 74.473
277.777, 51.024
279.141, 26.550
280.504, 15.040
281.867, 9.516
283.230, 20.133
284.592, 36.820
285.955, 55.587
287.317, 42.442
288.679, 41.381
290.041, 61.403
291.403, 148.514
292.764, 89.738
294.125, 128.059
295.486, 96.487
296.847, 87.682
298.207, 127.102
299.568, 67.373
300.928, 203.198
302.288, 197.150
303.647, 251.226
305.007, 225.442
306.366, 241.792
307.725, 272.199
309.084, 214.638
310.443, 244.322
311.801, 197.845
313.159, 225.555
314.517, 188.280
315.875, 197.937
317.233, 164.747
318.590, 156.496
319.947, 127.219
321.304, 126.296
322.661, 61.088
324.018, 59.933
325.374, 0.768
326.730, 4.041
328.086, 25.857
329.442, 84.044
330.797, 143.604
332.153, 190.338
333.508, 243.731
334.863, 308.736
336.217, 367.830
337.572, 437.684
338.926, 522.291
340.280, 583.688
341.634, 661.668
342.988, 780.456
344.341, 873.874
345.694, 845.124
347.047, 935.999
348.400, 853.648
349.753, 869.049
351.105, 848.264
352.457, 761.325
353.809, 780.246
355.161, 695.107
356.512, 744.858
357.864, 1321.544
359.215, 1242.188
360.566, 1314.699
361.916, 782.265
363.267, 483.688
364.617, 538.177
365.967, 456.570
367.317, 481.937
368.667, 454.193
370.016, 466.375
371.366, 505.446
372.715, 511.473
374.064, 538.306
375.412, 600.103
376.761, 650.359
378.109, 732.591
379.457, 797.284
380.805, 879.974
382.152, 955.660
383.500, 1141.332
384.847, 1246.002
386.194, 1420.655
387.541, 1591.288
388.887, 1828.897
390.233, 2054.477
391.580, 2343.022
392.926, 2503.533
394.271, 2795.008
395.617, 3006.447
396.962, 3283.847
398.307, 3673.212
399.652, 4378.541
400.997, 5291.825
402.341, 6557.069
403.686, 8315.266
405.030, 10403.416
406.374, 12562.520
407.717, 14241.569
409.061, 14950.562
410.404, 14299.499
411.747, 12998.379
413.090, 11177.197
414.433, 9255.948
415.775, 7570.641
417.117, 6255.267
418.459, 5121.820
419.801, 4293.300
421.143, 3681.712
422.484, 3133.048
423.825, 2692.307
425.166, 2417.489
426.507, 2077.595
427.848, 1898.626
429.188, 1745.585
430.528, 1596.472
431.868, 1479.290
433.208, 1363.043
434.547, 1264.721
435.887, 1207.370
437.226, 1119.952
438.565, 1082.472
439.904, 1067.896
441.242, 1005.217
442.580, 951.330
443.918, 958.828
445.256, 905.548
446.594, 840.910
447.932, 858.781
449.269, 830.170
450.606, 828.319
451.943, 847.904
453.280, 826.716
454.616, 808.913
455.952, 764.404
457.288, 768.579
458.624, 752.011
459.960, 736.675
461.295, 732.798
462.631, 672.107
463.966, 649.510
465.300, 580.238
466.635, 549.305
467.969, 505.072
469.304, 459.659
470.638, 471.590
471.972, 382.394
473.305, 381.853
474.639, 336.359
475.972, 274.903
477.305, 264.624
478.638, 227.265
479.970, 197.272
481.303, 214.849
482.635, 157.398
483.967, 146.863
485.298, 131.057
486.630, 159.857
487.961, 130.358
489.293, 100.288
490.624, 141.503
491.954, 119.957
493.285, 138.141
494.615, 156.797
495.945, 153.470
497.275, 149.868
498.605, 161.094
499.935, 167.283
501.264, 189.578
502.593, 181.568
503.922, 194.140
505.251, 183.913
506.579, 207.407
507.908, 207.708
509.236, 217.859
510.564, 217.711
511.891, 221.041
513.219, 228.884
514.546, 225.957
515.873, 241.073
517.200, 248.918
518.527, 250.619
519.853, 273.304
521.180, 252.134
522.506, 276.177
523.832, 251.776
525.157, 269.000
526.483, 268.393
527.808, 287.689
529.133, 298.507
530.458, 316.714
531.783, 319.694
533.107, 361.998
534.431, 363.009
535.756, 410.465
537.079, 427.360
538.403, 433.658
539.727, 479.852
541.050, 465.270
542.373, 495.595
543.696, 536.029
545.018, 588.943
546.341, 597.408
547.663, 708.363
548.985, 795.619
550.307, 932.305
551.629, 1126.427
552.950, 1221.988
554.271, 1270.867
555.592, 1171.124
556.913, 1005.210
558.234, 888.617
559.554, 736.413
560.875, 661.363
562.195, 586.811
563.514, 545.044
564.834, 524.617
566.154, 506.839
567.473, 549.031
568.792, 559.443
570.111, 543.018
571.429, 605.507
572.748, 573.915
574.066, 553.616
575.384, 558.932
576.702, 563.078
578.019, 545.473
579.337, 525.869
580.654, 524.400
581.971, 494.288
583.288, 483.523
584.605, 459.737
585.921, 420.339
587.237, 445.584
588.553, 414.974
589.869, 409.958
591.185, 414.883
592.500, 388.820
593.815, 419.772
595.130, 389.268
596.445, 389.196
597.760, 418.793
599.074, 382.639
600.389, 400.122
601.703, 421.101
603.016, 407.825
604.330, 438.192
605.644, 400.139
606.957, 409.267
608.270, 419.555
609.583, 411.089
610.895, 423.585
612.208, 439.068
613.520, 415.524
614.832, 418.963
616.144, 434.380
617.455, 439.773
618.767, 389.153
620.078, 440.506
621.389, 394.869
622.700, 413.241
624.011, 385.638
625.321, 396.053
626.631, 368.413
627.941, 366.692
629.251, 349.102
630.561, 327.237
631.870, 307.447
633.180, 316.558
634.489, 303.489
635.798, 279.458
637.106, 253.254
638.415, 254.909
639.723, 214.804
641.031, 195.298
642.339, 216.730
643.647, 181.038
644.954, 160.667
646.261, 173.008
647.568, 157.945
648.875, 149.387
650.182, 126.515
651.488, 114.943
652.795, 123.218
654.101, 88.535
655.407, 92.754
656.712, 89.002
658.018, 79.236
659.323, 87.589
660.628, 72.812
661.933, 72.068
663.238, 55.177
664.542, 57.354
665.847, 58.463
667.151, 64.549
668.455, 45.570
669.758, 48.536
671.062, 27.467
672.365, 41.309
673.668, 21.147
674.971, 45.939
676.274, 42.675
677.577, 35.443
678.879, 55.055
680.181, 34.712
681.483, 0.203
682.785, 10.682
684.086, 11.082
685.388, 5.489
686.689, 16.865
687.990, 9.250
689.290, 1.577
690.591, 3.992
691.891, 5.352
693.192, 11.615
694.491, 17.171
695.791, 24.032
697.091, 29.972
698.390, 1.008
699.689, 19.075
700.988, 13.230
702.287, 24.453
703.586, 34.749
704.884, 26.122
706.182, 19.566
707.480, 29.076
708.778, 38.657
710.076, 46.312
711.373, 39.044
712.670, 70.848
713.968, 62.739
715.264, 55.712
716.561, 63.761
717.857, 52.890
719.154, 55.091
720.450, 63.365
721.746, 44.713
723.041, 47.126
724.337, 37.602
725.632, 43.135
726.927, 44.727
728.222, 13.377
729.517, 54.068
730.811, 34.818
732.105, 4.384
733.400, 24.443
734.693, 27.309
735.987, 13.216
737.281, 1.845
738.574, 11.120
739.867, 13.114
741.160, 25.137
742.453, 41.769
743.745, 47.288
745.038, 61.158
746.330, 80.601
747.622, 83.834
748.913, 87.135
750.205, 99.474
751.496, 92.892
752.788, 70.367
754.079, 56.858
755.369, 50.970
756.660, 40.985
757.950, 36.569
759.241, 28.176
760.531, 14.804
761.820, 24.449
763.110, 32.113
764.399, 22.204
765.689, 61.510
766.978, 62.804
768.267, 68.089
769.555, 102.363
770.844, 128.628
772.132, 144.884
773.420, 141.131
774.708, 191.369
775.996, 209.600
777.283, 263.824
778.570, 311.040
779.857, 375.249
781.144, 421.451
782.431, 477.648
783.718, 547.839
785.004, 633.024
786.290, 719.206
787.576, 737.338
788.862, 841.513
790.147, 793.648
791.433, 740.694
792.718, 744.642
794.003, 598.609
795.288, 602.421
796.572, 582.165
797.857, 513.015
799.141, 539.732
800.425, 523.310
801.709, 538.018
802.992, 573.630
804.276, 635.196
805.559, 753.537
806.842, 834.745
808.125, 1071.115
809.407, 1362.913
810.690, 1764.847
811.972, 2428.752
813.254, 3371.484
814.536, 4692.459
815.818, 6560.139
817.099, 8697.859
818.381, 10389.146
819.662, 10090.569
820.943, 8632.091
822.223, 6880.851
823.504, 5219.084
824.784, 4114.489
826.065, 3389.139
827.345, 2708.433
828.624, 2469.948
829.904, 2116.558
831.183, 1828.136
832.462, 1700.523
833.741, 1625.648
835.020, 1645.172
836.299, 1618.026
837.577, 1679.601
838.856, 1725.292
840.134, 1677.755
841.412, 1729.941
842.689, 1707.820
843.967, 1773.333
845.244, 1972.099
846.521, 2185.380
847.798, 2529.793
849.075, 2917.544
850.351, 3117.971
851.628, 3302.136
852.904, 3122.358
854.180, 2797.434
855.455, 2272.992
856.731, 1605.965
858.006, 1165.411
859.281, 777.521
860.556, 536.168
861.831, 405.344
863.106, 282.048
864.380, 235.401
865.655, 200.344
866.929, 144.427
868.202, 148.156
869.476, 102.467
870.750, 144.415
872.023, 227.193
873.296, 226.979
874.569, 288.398
875.842, 304.142
877.114, 380.889
878.386, 326.397
879.658, 278.718
880.930, 295.107
882.202, 142.560
883.474, 139.704
884.745, 105.216
886.016, 119.883
887.287, 145.285
888.558, 133.671
889.829, 132.908
891.099, 163.777
892.369, 177.286
893.639, 193.808
894.909, 299.930
896.179, 320.399
897.448, 436.711
898.718, 499.419
899.987, 586.175
901.256, 712.915
902.524, 927.637
903.793, 1152.809
905.061, 1335.545
906.329, 1761.611
907.597, 2206.424
908.865, 2752.594
910.133, 3554.265
911.400, 4420.197
912.667, 5681.495
913.934, 7722.223
915.201, 10328.799
916.468, 14154.243
917.734, 18570.463
919.001, 22076.750
920.267, 23183.104
921.532, 21569.523
922.798, 20616.006
924.064, 18242.564
925.329, 16739.180
926.594, 15785.872
927.859, 15042.627
929.124, 14849.453
930.388, 15696.354
931.653, 16063.324
932.917, 18220.367
934.181, 19977.477
935.445, 23194.656
936.708, 26951.906
937.972, 30149.230
939.235, 37106.621
940.498, 41834.086
941.761, 49281.637
943.024, 54879.254
944.286, 57836.934
945.548, 59661.504
946.811, 59842.531
948.072, 56980.434
949.334, 52038.414
950.596, 45616.461
951.857, 39754.574
953.118, 34142.770
954.379, 28811.033
955.640, 24899.373
956.901, 20847.795
958.161, 17866.291
959.421, 15614.866
960.681, 13353.518
961.941, 11862.245
963.201, 10171.053
964.460, 9089.937
965.720, 8298.897
966.979, 7313.935
968.238, 6777.052
969.496, 6072.249
970.755, 5512.526
972.013, 5415.882
973.272, 4888.320
974.529, 4633.833
975.787, 4431.429
977.045, 4013.102
978.302, 4035.859
979.560, 3740.697
980.817, 3534.622
982.073, 3451.628
983.330, 3281.715
984.587, 3065.886
985.843, 3061.132
987.099, 2854.460
988.355, 2803.875
989.611, 2629.377
990.866, 2514.961
992.122, 2501.631
993.377, 2364.382
994.632, 2403.218
995.887, 2249.137
997.141, 2233.142
998.396, 2358.232
999.650, 2246.406
1000.904, 2374.668
1002.158, 2394.020
1003.412, 2484.466
1004.665, 2708.993
1005.918, 2748.607
1007.172, 3013.305
1008.425, 3075.087
1009.677, 3449.957
1010.930, 3869.914
1012.182, 4252.952
1013.434, 4705.073
1014.687, 5189.281
1015.938, 5599.576
1017.190, 6400.955
1018.441, 6665.424
1019.693, 7163.985
1020.944, 7495.634
1022.195, 7708.411
1023.445, 7822.234
1024.696, 7826.358
1025.946, 7250.583
1027.197, 7228.698
1028.446, 6765.000
1029.696, 6484.696
1030.946, 6069.408
1032.195, 5547.405
1033.445, 5338.406
1034.694, 5067.235
1035.942, 4713.243
1037.191, 4508.044
1038.440, 4150.048
1039.688, 4118.502
1040.936, 3877.841
1042.184, 3767.397
1043.432, 3695.218
1044.679, 3358.661
1045.927, 3329.473
1047.174, 3219.231
1048.421, 3009.871
1049.668, 2844.037
1050.914, 2652.797
1052.161, 2519.474
1053.407, 2500.448
1054.653, 2217.218
1055.899, 2093.278
1057.145, 2080.391
1058.391, 1900.205
1059.636, 1884.318
1060.881, 1741.592
1062.126, 1622.547
1063.371, 1561.128
1064.615, 1481.435
1065.860, 1429.160
1067.104, 1380.272
1068.348, 1296.201
1069.592, 1307.405
1070.836, 1280.210
1072.079, 1263.432
1073.323, 1297.691
1074.566, 1205.151
1075.809, 1251.992
1077.052, 1271.875
1078.294, 1172.146
1079.537, 1171.904
1080.779, 1110.115
1082.021, 1067.957
1083.263, 1104.495
1084.504, 973.294
1085.746, 973.100
1086.987, 923.488
1088.228, 916.686
1089.469, 877.402
1090.710, 861.944
1091.951, 859.634
1093.191, 834.195
1094.431, 825.358
1095.671, 787.043
1096.911, 785.375
1098.151, 695.048
1099.390, 693.439
1100.630, 579.677
1101.869, 567.134
1103.108, 516.352
1104.346, 460.261
1105.585, 482.564
1106.823, 402.992
1108.062, 369.322
1109.300, 394.951
1110.537, 345.259
1111.775, 314.302
1113.013, 284.752
1114.250, 284.121
1115.487, 310.154
1116.724, 276.484
1117.961, 332.882
1119.197, 442.194
1120.434, 394.289
1121.670, 499.974
1122.906, 642.879
1124.142, 790.145
1125.377, 1095.275
1126.613, 1429.267
1127.848, 1833.639
1129.083, 2081.500
1130.318, 1812.392
1131.553, 1674.279
1132.787, 1275.157
1134.022, 963.038
1135.256, 874.740
1136.490, 675.023
1137.724, 662.967
1138.957, 602.148
1140.191, 556.491
1141.424, 543.750
1142.657, 604.667
1143.890, 643.460
1145.123, 651.446
1146.355, 693.754
1147.588, 732.727
1148.820, 703.014
1150.052, 644.919
1151.284, 676.586
1152.516, 616.217
1153.747, 586.488
1154.978, 541.693
1156.209, 453.709
1157.440, 411.623
1158.671, 348.041
1159.902, 292.645
1161.132, 262.476
1162.362, 208.438
1163.592, 188.060
1164.822, 133.813
1166.052, 104.436
1167.281, 91.580
1168.511, 61.478
1169.740, 1.967
1170.969, 11.997
1172.197, 15.270
1173.426, 15.629
1174.654, 1.956
1175.883, 48.282
1177.111, 24.602
1178.338, 53.666
1179.566, 58.036
1180.794, 55.329
1182.021, 47.587
1183.248, 49.368
1184.475, 41.208
1185.702, 43.733
1186.928, 52.233
1188.155, 46.793
1189.381, 49.379
1190.607, 53.074
1191.833, 41.435
1193.059, 47.540
1194.284, 18.340
1195.509, 38.082
1196.735, 23.875
1197.960, 56.617
1199.184, 52.056
1200.409, 34.275
1201.633, 48.103
1202.858, 51.032
1204.082, 28.984
1205.306, 19.924
1206.529, 23.902
1207.753, 24.906
1208.976, 35.958
1210.199, 5.063
1211.422, 56.175
1212.645, 61.367
1213.868, 9.622
1215.090, 41.864
1216.313, 26.183
1217.535, 16.527
1218.757, 21.872
1219.978, 20.272
1221.200, 21.685
1222.421, 26.480
1223.643, 6.632
1224.864, 29.198
1226.084, 34.938
1227.305, 23.594
1228.526, 2.702
1229.746, 24.109
1230.966, 9.897
1232.186, 7.690
1233.406, 14.637
1234.625, 9.268
1235.845, 15.257
1237.064, 10.213
1238.283, 10.364
1239.502, 10.482
1240.721, 2.397
1241.939, 3.772
1243.157, 22.905
1244.376, 18.525
1245.594, 27.194
1246.811, 33.689
1248.029, 5.744
1249.247, 17.728
1250.464, 7.264
1251.681, 2.631
1252.898, 43.898
1254.115, 25.202
1255.331, 21.420
1256.548, 30.624
1257.764, 17.741
1258.980, 58.793
1260.196, 36.781
1261.411, 47.808
1262.627, 42.728
1263.842, 43.564
1265.057, 48.395
1266.272, 57.039
1267.487, 43.839
1268.702, 68.555
1269.916, 60.154
1271.130, 66.846
1272.344, 74.361
1273.558, 64.805
1274.772, 53.543
1275.986, 54.976
1277.199, 57.377
1278.412, 59.838
1279.625, 96.065
1280.838, 69.736
1282.051, 85.914
1283.263, 67.007
1284.475, 95.216
1285.687, 91.388
1286.899, 97.332
1288.111, 76.393
1289.323, 124.455
1290.534, 78.422
1291.745, 105.177
1292.957, 82.902
1294.167, 110.571
1295.378, 89.231
1296.589, 99.739
1297.799, 103.213
1299.009, 120.676
1300.219, 126.044
1301.429, 138.406
1302.639, 146.805
1303.848, 122.134
1305.057, 177.445
1306.267, 159.648
1307.476, 152.775
1308.684, 183.754
1309.893, 172.662
1311.101, 188.609
1312.310, 149.413
1313.518, 167.145
1314.725, 209.789
1315.933, 165.304
1317.141, 185.777
1318.348, 198.020
1319.555, 195.165
1320.762, 196.379
1321.969, 194.451
1323.176, 172.095
1324.382, 198.747
1325.589, 187.170
1326.795, 182.657
1328.001, 201.331
1329.206, 172.825
1330.412, 206.487
1331.617, 201.061
1332.823, 205.209
1334.028, 205.637
1335.233, 225.773
1336.437, 219.661
1337.642, 231.043
1338.846, 232.063
1340.051, 215.283
1341.255, 221.714
1342.458, 205.752
1343.662, 214.133
1344.866, 214.783
1346.069, 205.242
1347.272, 220.957
1348.475, 217.011
1349.678, 206.852
1350.880, 210.244
1352.083, 210.002
1353.285, 214.117
1354.487, 217.195
1355.689, 213.617
1356.891, 219.534
1358.093, 219.701
1359.294, 209.505
1360.495, 215.460
1361.696, 211.166
1362.897, 202.081
1364.098, 204.466
1365.298, 196.402
1366.499, 204.065
1367.699, 181.255
1368.899, 197.308
1370.099, 223.855
1371.298, 187.787
1372.498, 184.118
1373.697, 198.684
1374.896, 177.636
1376.095, 167.102
1377.294, 187.488
1378.493, 132.965
1379.691, 165.393
1380.889, 151.065
1382.087, 171.558
1383.285, 160.587
1384.483, 144.341
1385.681, 149.100
1386.878, 166.190
1388.075, 166.827
1389.272, 145.874
1390.469, 171.671
1391.666, 143.032
1392.862, 152.039
1394.059, 133.449
1395.255, 151.462
1396.451, 161.373
1397.647, 141.945
1398.842, 150.552
1400.038, 139.855
1401.233, 145.468
1402.428, 147.213
1403.623, 149.636
1404.818, 127.829
1406.013, 139.585
1407.207, 146.143
1408.401, 132.904
1409.595, 162.612
1410.789, 115.825
1411.983, 117.775
1413.177, 131.500
1414.370, 106.983
1415.563, 127.544
1416.756, 132.820
1417.949, 86.276
1419.142, 112.722
1420.335, 109.760
1421.527, 95.876
1422.719, 121.897
1423.911, 67.375
1425.103, 109.071
1426.295, 115.632
1427.486, 90.979
1428.677, 88.654
1429.869, 112.448
1431.060, 88.300
1432.250, 81.050
1433.441, 85.564
1434.632, 106.012
1435.822, 100.353
1437.012, 99.630
1438.202, 92.785
1439.392, 110.947
1440.581, 105.018
1441.771, 94.160
1442.960, 103.220
1444.149, 91.094
1445.338, 78.915
1446.527, 79.814
1447.715, 74.545
1448.904, 80.353
1450.092, 81.890
1451.280, 101.005
1452.468, 104.404
1453.656, 82.077
1454.843, 102.208
1456.031, 105.818
1457.218, 113.278
1458.405, 121.555
1459.592, 126.621
1460.778, 115.918
1461.965, 123.050
1463.151, 138.243
1464.337, 133.277
1465.523, 156.401
1466.709, 148.666
1467.895, 137.258
1469.080, 122.837
1470.266, 124.688
1471.451, 127.328
1472.636, 136.111
1473.821, 109.064
1475.005, 105.095
1476.190, 65.049
1477.374, 82.363
1478.558, 76.786
1479.742, 53.114
1480.926, 52.077
1482.109, 34.319
