##NAMES=Pyromorphite
##RRUFFID=R050027
##IDEAL CHEMISTRY=Pb^2+^_5_(PO_4_)_3_Cl
##LOCALITY=Yangshuo, Guangxi Autonomous Region, China
##OWNER=RRUFF
##SOURCE=Eugene Schlepp
##DESCRIPTION=Light green hexagonal prismatic hoppered single crystals
##STATUS=The identification of this mineral has been confirmed by X-ray diffraction and chemical analysis
##URL=rruff.info/R050027
##MEASURED CHEMISTRY=Pb_5.00_(P_1.00_O_4_)_3_Cl_1.00_
##PIN_ID=M00303
##ORIENTATION=Laser parallel to -c* (0 0 -1). Fiducial mark perpendicular to laser is parallel to a [1 0 0]
49.184, 0.000
50.590, 11.027
51.996, 29.698
53.401, 12.260
54.807, 63.082
56.212, 49.241
57.617, 163.269
59.021, 99.872
60.426, 107.866
61.830, 143.428
63.234, 168.853
64.637, 241.509
66.041, 160.508
67.444, 145.252
68.847, 78.456
70.250, 32.092
71.652, 12.134
73.054, 16.552
74.456, 37.319
75.858, 18.405
77.260, 36.218
78.661, 59.573
80.062, 14.680
81.463, 61.442
82.863, 142.780
84.264, 392.332
85.664, 764.101
87.064, 1340.086
88.463, 1994.273
89.863, 2599.647
91.262, 2780.194
92.661, 2697.909
94.059, 2624.784
95.458, 2587.803
96.856, 2633.956
98.254, 3171.222
99.652, 3926.583
101.049, 5472.032
102.446, 7574.563
103.843, 10488.170
105.240, 12728.857
106.637, 13809.612
108.033, 13880.437
109.429, 12451.326
110.825, 11332.279
112.220, 9683.297
113.616, 8614.375
115.011, 7336.524
116.406, 6788.790
117.800, 6082.201
119.195, 5412.759
120.589, 4984.473
121.983, 4709.374
123.377, 4430.362
124.770, 4259.401
126.163, 4037.479
127.556, 3943.598
128.949, 3830.752
130.342, 3784.932
131.734, 3754.131
133.126, 3742.380
134.518, 3702.747
135.909, 3781.192
137.301, 3772.684
138.692, 3878.198
140.083, 4024.710
141.473, 4168.203
142.864, 4446.662
144.254, 4639.067
145.644, 4958.419
147.034, 5345.711
148.423, 5768.880
149.812, 6166.028
151.201, 6555.187
152.590, 7004.360
153.979, 7211.551
155.367, 7476.757
156.755, 7685.981
158.143, 7696.222
159.530, 7675.479
160.918, 7422.756
162.305, 7179.048
163.692, 6836.360
165.078, 6439.688
166.465, 6160.036
167.851, 5822.403
169.237, 5698.790
170.623, 5421.197
172.008, 5191.628
173.393, 5092.078
174.778, 4835.549
176.163, 4765.109
177.548, 4539.634
178.932, 4396.405
180.316, 4248.487
181.700, 4092.011
183.083, 3929.253
184.467, 3850.595
185.850, 3713.453
187.233, 3677.248
188.616, 3554.321
189.998, 3399.202
191.380, 3338.428
192.762, 3275.018
194.144, 3199.452
195.525, 3127.301
196.907, 3100.828
198.288, 3088.088
199.669, 2992.239
201.049, 3017.289
202.429, 2970.500
203.810, 2941.665
205.189, 2880.973
206.569, 2820.070
207.949, 2846.042
209.328, 2847.914
210.707, 2820.701
212.085, 2744.465
213.464, 2747.232
214.842, 2667.001
216.220, 2523.615
217.598, 2455.668
218.976, 2307.185
220.353, 2288.070
221.730, 2090.633
223.107, 2013.637
224.483, 1878.533
225.860, 1808.832
227.236, 1684.657
228.612, 1642.310
229.988, 1544.575
231.363, 1477.542
232.738, 1408.194
234.113, 1249.849
235.488, 1212.039
236.863, 1177.689
238.237, 1136.987
239.611, 1060.613
240.985, 1036.754
242.359, 1028.716
243.732, 953.988
245.105, 968.983
246.478, 877.974
247.851, 893.772
249.223, 859.068
250.595, 834.763
251.967, 807.480
253.339, 782.217
254.711, 778.974
256.082, 704.750
257.453, 714.543
258.824, 695.354
260.195, 657.180
261.565, 635.022
262.935, 578.879
264.305, 585.750
265.675, 554.634
267.044, 506.531
268.414, 556.442
269.783, 511.365
271.151, 455.299
272.520, 476.246
273.888, 468.203
275.256, 384.171
276.624, 355.150
277.992, 325.139
279.359, 338.138
280.726, 333.147
282.093, 282.275
283.460, 249.374
284.827, 238.572
286.193, 242.689
287.559, 191.953
288.925, 219.159
290.290, 150.311
291.656, 164.597
293.021, 171.870
294.386, 98.239
295.750, 109.470
297.115, 85.889
298.479, 95.085
299.843, 115.396
301.207, 35.752
302.570, 61.039
303.933, 45.379
305.296, 29.791
306.659, 21.189
308.022, 5.457
309.384, 19.908
310.746, 15.563
312.108, 2.109
313.470, 24.416
314.831, 33.400
316.193, 17.527
317.554, 33.258
318.914, 35.698
320.275, 7.722
321.635, 10.096
322.995, 30.137
324.355, 33.395
325.715, 10.361
327.074, 9.132
328.434, 29.735
329.792, 17.252
331.151, 46.331
332.510, 47.834
333.868, 23.082
335.226, 37.734
336.584, 12.282
337.941, 0.138
339.299, 14.502
340.656, 7.151
342.013, 3.760
343.370, 7.059
344.726, 7.372
346.082, 15.580
347.438, 23.881
348.794, 55.107
350.150, 8.635
351.505, 28.920
352.860, 2.120
354.215, 11.251
355.570, 30.412
356.924, 10.467
358.278, 1.524
359.632, 21.709
360.986, 36.761
362.339, 18.780
363.693, 72.784
365.046, 49.783
366.399, 62.655
367.751, 63.628
369.104, 81.565
370.456, 124.472
371.808, 126.306
373.159, 173.138
374.511, 164.966
375.862, 215.796
377.213, 233.623
378.564, 293.451
379.914, 339.266
381.265, 432.067
382.615, 513.851
383.965, 709.621
385.315, 899.380
386.664, 1115.131
388.013, 1391.883
389.362, 1640.634
390.711, 1915.382
392.060, 1940.136
393.408, 2047.898
394.756, 1774.658
396.104, 1594.426
397.451, 1399.201
398.799, 1220.979
400.146, 1136.764
401.493, 1041.552
402.840, 1090.348
404.186, 1148.143
405.533, 1339.941
406.879, 1518.759
408.225, 1735.600
409.570, 2039.452
410.916, 2365.310
412.261, 2864.167
413.606, 3289.025
414.951, 3809.886
416.295, 4192.756
417.639, 4324.627
418.983, 4060.497
420.327, 3625.362
421.671, 3012.230
423.014, 2381.102
424.357, 1865.967
425.700, 1476.834
427.043, 1137.704
428.386, 861.574
429.728, 702.439
431.070, 536.307
432.412, 390.173
433.753, 340.041
435.095, 316.908
436.436, 259.774
437.777, 227.643
439.118, 147.502
440.458, 129.353
441.798, 106.200
443.138, 70.038
444.478, 79.859
445.818, 58.665
447.157, 80.456
448.496, 47.230
449.835, 62.987
451.174, 77.726
452.513, 47.448
453.851, 52.152
455.189, 30.837
456.527, 65.503
457.864, 22.150
459.202, 76.778
460.539, 50.386
461.876, 40.976
463.212, 58.494
464.549, 47.044
465.885, 30.576
467.221, 35.031
468.557, 46.479
469.893, 44.795
471.228, 17.180
472.563, 13.035
473.898, 1.661
475.233, 5.985
476.567, 7.366
477.902, 13.460
479.236, 19.324
480.570, 10.483
481.903, 20.610
483.237, 25.771
484.570, 6.784
485.903, 11.923
487.235, 1.007
488.568, 32.854
489.900, 19.677
491.232, 5.997
492.564, 16.223
493.896, 7.193
495.227, 33.425
496.558, 16.057
497.889, 19.531
499.220, 27.448
500.551, 29.431
501.881, 3.063
503.211, 40.852
504.541, 36.547
505.870, 60.259
507.200, 35.484
508.529, 51.453
509.858, 13.988
511.187, 34.188
512.515, 50.711
513.844, 64.494
515.172, 53.475
516.500, 76.191
517.827, 71.814
519.155, 39.433
520.482, 70.618
521.809, 79.130
523.136, 84.040
524.462, 85.057
525.789, 115.402
527.115, 91.751
528.441, 99.942
529.766, 109.197
531.092, 153.662
532.417, 163.863
533.742, 220.533
535.067, 267.517
536.391, 382.715
537.716, 464.392
539.040, 710.467
540.364, 958.742
541.688, 1113.096
543.011, 1148.333
544.334, 1035.032
545.657, 846.870
546.980, 679.735
548.303, 643.388
549.625, 571.940
550.947, 617.125
552.269, 689.543
553.591, 712.102
554.913, 703.242
556.234, 647.309
557.555, 518.985
558.876, 512.780
560.197, 400.578
561.517, 427.988
562.837, 370.748
564.157, 375.083
565.477, 422.859
566.797, 484.070
568.116, 633.030
569.435, 877.247
570.754, 1196.086
572.073, 1668.872
573.391, 2028.103
574.709, 2203.659
576.027, 2061.843
577.345, 1671.595
578.663, 1333.485
579.980, 1008.831
581.297, 766.191
582.614, 639.575
583.931, 531.530
585.248, 456.193
586.564, 391.622
587.880, 354.385
589.196, 342.925
590.511, 292.296
591.827, 311.508
593.142, 260.182
594.457, 271.569
595.772, 302.241
597.086, 283.923
598.401, 265.881
599.715, 249.971
601.029, 288.722
602.343, 246.238
603.656, 245.758
604.969, 232.522
606.282, 255.970
607.595, 252.242
608.908, 246.544
610.220, 254.870
611.532, 247.033
612.844, 248.178
614.156, 226.198
615.468, 226.327
616.779, 206.237
618.090, 207.340
619.401, 199.296
620.712, 192.176
622.022, 196.094
623.332, 184.928
624.642, 181.656
625.952, 168.368
627.262, 148.091
628.571, 169.773
629.880, 197.258
631.189, 156.570
632.498, 139.048
633.807, 110.954
635.115, 181.917
636.423, 138.562
637.731, 162.830
639.039, 146.652
640.346, 121.794
641.653, 124.571
642.960, 102.533
644.267, 79.173
645.574, 83.584
646.880, 111.794
648.186, 109.888
649.492, 70.512
650.798, 77.526
652.103, 73.253
653.409, 65.350
654.714, 80.309
656.019, 70.268
657.323, 46.254
658.628, 71.212
659.932, 71.577
661.236, 77.519
662.540, 72.412
663.843, 46.373
665.147, 56.192
666.450, 38.043
667.753, 40.546
669.056, 89.246
670.358, 50.985
671.660, 42.749
672.963, 22.431
674.264, 53.164
675.566, 48.846
676.868, 30.360
678.169, 21.967
679.470, 10.567
680.771, 36.139
682.071, 22.680
683.372, 22.307
684.672, 24.796
685.972, 2.280
687.271, 15.752
688.571, 20.257
689.870, 33.728
691.169, 2.168
692.468, 15.566
693.767, 4.928
695.065, 2.749
696.364, 9.531
697.662, 31.775
698.960, 33.990
700.257, 17.179
701.555, 12.337
702.852, 22.538
704.149, 4.463
705.446, 13.572
706.742, 31.423
708.038, 20.471
709.335, 8.434
710.631, 18.691
711.926, 18.860
713.222, 1.928
714.517, 1.317
715.812, 17.406
717.107, 13.895
718.402, 13.766
719.696, 0.403
720.990, 23.989
722.284, 16.422
723.578, 13.892
724.872, 35.396
726.165, 14.945
727.458, 31.528
728.751, 40.153
730.044, 62.822
731.336, 42.547
732.629, 21.318
733.921, 25.121
735.213, 49.959
736.504, 51.842
737.796, 21.772
739.087, 48.732
740.378, 61.734
741.669, 43.785
742.960, 34.874
744.250, 64.997
745.540, 48.166
746.830, 63.374
748.120, 56.626
749.410, 53.918
750.699, 76.248
751.988, 26.627
753.277, 34.028
754.566, 56.454
755.854, 32.916
757.143, 21.600
758.431, 14.104
759.719, 16.403
761.006, 15.076
762.294, 49.544
763.581, 24.003
764.868, 37.452
766.155, 44.892
767.442, 61.324
768.728, 69.747
770.014, 69.163
771.300, 60.572
772.586, 79.974
773.872, 70.370
775.157, 92.759
776.442, 93.143
777.727, 115.521
779.012, 108.881
780.297, 134.228
781.581, 129.520
782.865, 169.728
784.149, 188.028
785.433, 177.384
786.716, 219.636
787.999, 201.827
789.282, 248.891
790.565, 243.250
791.848, 269.474
793.130, 302.822
794.413, 287.119
795.695, 300.337
796.977, 340.592
798.258, 272.773
799.540, 277.755
800.821, 251.826
802.102, 252.087
803.382, 246.348
804.663, 178.280
805.943, 156.347
807.224, 126.371
808.504, 124.275
809.783, 114.434
811.063, 77.473
812.342, 89.989
813.621, 101.089
814.900, 109.224
816.179, 177.447
817.457, 212.634
818.736, 232.322
820.014, 219.283
821.292, 255.790
822.569, 234.414
823.847, 300.784
825.124, 282.761
826.401, 268.561
827.678, 236.690
828.954, 184.811
830.231, 141.876
831.507, 80.449
832.783, 60.741
834.059, 54.544
835.334, 101.436
836.610, 64.903
837.885, 31.404
839.160, 17.052
840.435, 62.649
841.709, 64.022
842.983, 69.647
844.258, 50.790
845.532, 93.606
846.805, 122.195
848.079, 172.294
849.352, 211.982
850.625, 237.458
851.898, 264.846
853.171, 247.337
854.443, 192.357
855.715, 129.226
856.988, 123.058
858.259, 118.092
859.531, 84.217
860.803, 92.698
862.074, 86.938
863.345, 67.027
864.616, 92.526
865.886, 100.088
867.157, 77.032
868.427, 128.850
869.697, 128.655
870.967, 155.840
872.236, 151.667
873.506, 210.911
874.775, 223.706
876.044, 255.058
877.313, 277.654
878.581, 330.986
879.849, 417.690
881.118, 423.441
882.386, 452.740
883.653, 441.707
884.921, 594.041
886.188, 621.804
887.455, 669.424
888.722, 756.587
889.989, 889.736
891.255, 1019.856
892.522, 1056.417
893.788, 1130.271
895.054, 1226.365
896.319, 1320.134
897.585, 1465.136
898.850, 1654.314
900.115, 1909.655
901.380, 2216.531
902.645, 2549.703
903.909, 3163.602
905.174, 3689.498
906.438, 4563.119
907.701, 5666.609
908.965, 7248.448
910.229, 9308.415
911.492, 12215.417
912.755, 16432.092
914.018, 23299.176
915.280, 32666.297
916.543, 44303.457
917.805, 52750.664
919.067, 55957.914
920.329, 50005.195
921.590, 41032.531
922.852, 31479.914
924.113, 24357.342
925.374, 18664.816
926.635, 14562.327
927.895, 11229.878
929.156, 9187.471
930.416, 7839.109
931.676, 6966.784
932.936, 6674.502
934.195, 6369.268
935.454, 6573.071
936.714, 7197.917
937.973, 7578.801
939.231, 8629.727
940.490, 9727.694
941.748, 10675.709
943.006, 11793.759
944.264, 12621.848
945.522, 13089.978
946.780, 13098.152
948.037, 12416.369
949.294, 11704.637
950.551, 10192.952
951.808, 9281.308
953.064, 7867.707
954.320, 6801.145
955.577, 5906.623
956.832, 5114.141
958.088, 4400.700
959.344, 3864.298
960.599, 3340.942
961.854, 3005.626
963.109, 2691.351
964.364, 2505.123
965.618, 2321.933
966.872, 2182.783
968.127, 2101.672
969.380, 2015.599
970.634, 1923.567
971.888, 1923.575
973.141, 1897.628
974.394, 1888.724
975.647, 1881.862
976.900, 1891.041
978.152, 1937.260
979.404, 1941.523
980.656, 1878.825
981.908, 1918.167
983.160, 1856.556
984.411, 1885.989
985.663, 1840.466
986.914, 1876.984
988.165, 1889.544
989.415, 1826.147
990.666, 1936.792
991.916, 2029.484
993.166, 2057.220
994.416, 2166.999
995.665, 2319.819
996.915, 2550.687
998.164, 2785.598
999.413, 3059.552
1000.662, 3409.553
1001.911, 3858.597
1003.159, 4230.680
1004.407, 4709.802
1005.655, 5190.962
1006.903, 5506.164
1008.151, 5912.416
1009.398, 6119.713
1010.646, 6182.052
1011.893, 5977.440
1013.139, 5779.876
1014.386, 5387.354
1015.633, 5015.876
1016.879, 4566.444
1018.125, 4286.054
1019.371, 3875.705
1020.616, 3586.391
1021.862, 3308.123
1023.107, 2978.890
1024.352, 2825.696
1025.597, 2533.547
1026.842, 2245.442
1028.086, 2082.453
1029.330, 1905.772
1030.574, 1803.797
1031.818, 1615.924
1033.062, 1565.042
1034.305, 1435.433
1035.548, 1359.153
1036.791, 1330.438
1038.034, 1232.932
1039.277, 1166.411
1040.519, 1202.806
1041.762, 1186.812
1043.004, 1219.071
1044.246, 1216.424
1045.487, 1171.342
1046.729, 1198.839
1047.970, 1116.981
1049.211, 1009.341
1050.452, 974.088
1051.692, 863.109
1052.933, 874.753
1054.173, 801.860
1055.413, 770.839
1056.653, 773.399
1057.893, 741.967
1059.132, 747.124
1060.371, 714.474
1061.610, 718.694
1062.849, 751.576
1064.088, 728.935
1065.326, 730.382
1066.565, 779.769
1067.803, 750.261
1069.041, 812.808
1070.278, 814.538
1071.516, 846.317
1072.753, 882.336
1073.990, 836.226
1075.227, 861.415
1076.464, 820.803
1077.700, 763.938
1078.936, 805.862
1080.173, 775.738
1081.408, 743.616
1082.644, 794.240
1083.880, 675.501
1085.115, 766.792
1086.350, 774.425
1087.585, 756.849
1088.820, 744.681
1090.054, 797.146
1091.288, 741.379
1092.522, 762.062
1093.756, 754.143
1094.990, 713.107
1096.224, 701.843
1097.457, 725.946
1098.690, 693.916
1099.923, 644.794
1101.156, 688.083
1102.388, 624.292
1103.621, 604.283
1104.853, 555.815
1106.085, 573.114
1107.316, 464.495
1108.548, 487.995
1109.779, 414.169
1111.010, 416.812
1112.241, 446.277
1113.472, 371.385
1114.703, 402.628
1115.933, 345.663
1117.163, 361.202
1118.393, 381.232
1119.623, 326.461
1120.853, 376.346
1122.082, 431.011
1123.311, 352.094
1124.540, 334.380
1125.769, 267.800
1126.997, 269.996
1128.226, 255.112
1129.454, 276.796
1130.682, 294.892
1131.910, 278.470
1133.138, 308.647
1134.365, 325.811
1135.592, 300.111
1136.819, 339.412
1138.046, 334.949
1139.273, 345.511
1140.499, 355.964
1141.725, 333.493
1142.951, 421.175
1144.177, 415.091
1145.403, 476.372
1146.628, 515.652
1147.854, 528.154
1149.079, 563.499
1150.304, 518.026
1151.528, 513.393
1152.753, 473.653
1153.977, 419.009
1155.201, 414.362
1156.425, 310.988
1157.649, 306.322
1158.872, 239.584
1160.096, 257.879
1161.319, 188.143
1162.542, 192.407
1163.764, 134.712
1164.987, 117.976
1166.209, 94.240
1167.431, 87.559
1168.653, 41.821
1169.875, 58.082
1171.097, 8.340
1172.318, 47.596
1173.539, 23.849
1174.760, 4.861
1175.981, 16.615
1177.202, 5.627
1178.422, 3.099
1179.642, 12.130
1180.862, 10.646
1182.082, 19.431
1183.302, 0.226
1184.521, 34.893
1185.740, 32.713
1186.959, 6.512
1188.178, 76.320
1189.397, 43.180
1190.615, 42.986
1191.834, 68.919
1193.052, 59.892
1194.269, 51.899
1195.487, 35.863
1196.705, 5.139
1197.922, 60.821
1199.139, 52.935
1200.356, 42.040
1201.573, 20.160
1202.789, 10.344
1204.006, 44.496
1205.222, 18.676
1206.438, 20.822
1207.653, 34.078
1208.869, 9.414
1210.084, 16.771
1211.299, 33.052
1212.514, 14.404
1213.729, 30.785
1214.944, 30.193
1216.158, 31.664
1217.372, 46.929
1218.586, 33.426
1219.800, 14.058
1221.014, 33.377
1222.227, 22.990
1223.440, 13.770
1224.654, 24.961
1225.866, 10.072
1227.079, 21.545
1228.292, 16.229
1229.504, 7.182
1230.716, 8.440
1231.928, 26.693
1233.139, 8.150
1234.351, 2.583
1235.562, 6.366
1236.773, 17.224
1237.984, 60.360
1239.195, 3.306
1240.406, 9.739
1241.616, 12.177
1242.826, 25.716
1244.036, 6.591
1245.246, 13.311
1246.456, 29.147
1247.665, 9.367
1248.874, 44.171
1250.083, 27.320
1251.292, 36.004
1252.501, 35.101
1253.709, 9.676
1254.917, 46.867
1256.125, 32.523
1257.333, 14.159
1258.541, 57.663
1259.748, 52.513
1260.956, 71.382
1262.163, 43.788
1263.370, 82.235
1264.576, 61.587
1265.783, 37.017
1266.989, 45.526
1268.195, 33.913
1269.401, 66.358
1270.607, 60.627
1271.813, 77.911
1273.018, 106.173
1274.223, 53.820
1275.428, 40.967
1276.633, 61.431
1277.838, 98.615
1279.042, 119.717
1280.246, 83.923
1281.450, 85.934
1282.654, 70.920
1283.858, 71.087
1285.061, 79.020
1286.265, 75.928
1287.468, 68.986
1288.671, 59.847
1289.873, 104.805
1291.076, 107.740
1292.278, 84.516
1293.480, 100.422
1294.682, 85.338
1295.884, 101.173
1297.086, 123.845
1298.287, 105.492
1299.488, 107.112
1300.689, 84.726
1301.890, 113.286
1303.091, 144.883
1304.291, 125.381
1305.491, 136.850
1306.691, 142.466
1307.891, 126.880
1309.091, 159.388
1310.290, 146.745
1311.490, 126.133
1312.689, 148.476
1313.888, 146.747
1315.086, 163.988
1316.285, 189.205
1317.483, 153.385
1318.681, 135.528
1319.879, 169.599
1321.077, 145.346
1322.275, 137.404
1323.472, 188.375
1324.669, 153.375
1325.866, 161.126
1327.063, 163.563
1328.260, 121.446
1329.456, 186.134
1330.653, 133.854
1331.849, 146.677
1333.045, 140.902
1334.240, 120.891
1335.436, 150.802
1336.631, 163.164
1337.826, 159.955
1339.021, 119.121
1340.216, 120.084
1341.411, 109.679
1342.605, 134.015
1343.799, 120.741
1344.993, 115.022
1346.187, 124.438
1347.381, 112.281
1348.574, 108.129
1349.767, 96.397
1350.961, 113.474
1352.153, 131.684
1353.346, 143.236
1354.539, 97.314
1355.731, 104.307
1356.923, 104.362
1358.115, 100.315
1359.307, 105.216
1360.498, 66.937
1361.690, 86.612
1362.881, 110.050
1364.072, 55.623
1365.263, 86.900
1366.453, 22.982
1367.644, 38.324
1368.834, 24.884
1370.024, 63.498
1371.214, 65.119
1372.404, 50.332
1373.593, 50.591
1374.783, 77.835
1375.972, 67.688
1377.161, 22.727
1378.349, 75.346
1379.538, 24.106
1380.726, 51.814
1381.915, 77.548
1383.103, 59.804
1384.290, 61.067
1385.478, 35.294
1386.665, 30.911
1387.853, 46.405
1389.040, 51.030
1390.227, 18.829
1391.413, 48.037
1392.600, 19.927
1393.786, 61.205
1394.972, 18.750
1396.158, 74.455
1397.344, 12.605
1398.530, 0.041
1399.715, 44.644
1400.900, 65.573
1402.085, 22.039
1403.270, 19.266
1404.455, 71.219
1405.639, 54.148
1406.824, 79.553
1408.008, 46.807
1409.192, 33.331
1410.375, 44.712
1411.559, 33.719
1412.742, 59.203
1413.925, 49.677
1415.108, 49.045
1416.291, 11.337
1417.474, 63.652
1418.656, 16.915
1419.839, 41.069
1421.021, 54.225
1422.202, 30.279
1423.384, 66.340
1424.566, 63.158
1425.747, 23.052
1426.928, 69.965
1428.109, 58.784
1429.290, 23.789
1430.470, 55.590
1431.651, 27.418
1432.831, 26.289
1434.011, 58.179
1435.191, 21.870
1436.370, 16.830
1437.550, 22.693
1438.729, 58.527
1439.908, 84.408
1441.087, 67.846
1442.266, 43.377
1443.444, 81.649
1444.623, 27.218
1445.801, 48.684
1446.979, 53.727
1448.157, 9.516
1449.334, 67.087
1450.512, 12.498
1451.689, 66.368
1452.866, 23.722
1454.043, 26.756
1455.220, 42.448
1456.396, 73.080
1457.573, 31.825
1458.749, 54.312
1459.925, 35.244
1461.100, 20.049
1462.276, 69.764
1463.451, 52.371
1464.627, 37.343
1465.802, 106.268
1466.977, 72.614
1468.151, 91.685
1469.326, 58.203
1470.500, 26.288
1471.674, 74.241
1472.848, 66.032
1474.022, 57.407
1475.195, 37.170
1476.369, 46.601
1477.542, 59.316
1478.715, 86.368
1479.888, 54.481
1481.061, 35.485
1482.233, 93.332
1483.405, 52.456
1484.577, 116.866
1485.749, 74.437
1486.921, 108.059
1488.093, 101.117
1489.264, 125.178
1490.435, 96.211
1491.606, 143.411
1492.777, 110.613
1493.948, 143.836
1495.118, 145.120
1496.288, 82.433
1497.459, 99.764
1498.628, 117.173
1499.798, 103.687
1500.968, 115.257
1502.137, 74.912
