##NAMES=Pyrope
##RRUFFID=R050112
##IDEAL CHEMISTRY=Mg_3_Al_2_(SiO_4_)_3_
##LOCALITY=Cruzeiro mine, San Jose, Minas Gerais, Brazil
##OWNER=RRUFF
##SOURCE=Carlos and Paulo Vasconcelos
##DESCRIPTION=Dark red crystal fragment
##STATUS=The identification of this mineral has been confirmed by X-ray diffraction and chemical analysis
##URL=rruff.info/R050112
##MEASURED CHEMISTRY=(Mg_1.49_Fe^2+^_1.18_Ca_0.29_Mn_0.04_)_Σ=3_(Al_1.99_Fe^3+^_0.01_)_Σ=2_(Si_1.00_O_4_)_3_
##PIN_ID=L00493
##ORIENTATION=Laser parallel to -a* (-1 0 0). Fiducial mark perpendicular to laser is parallel to -b [0 -1 0]
75.280, 0.000
76.678, 13.551
78.076, 127.484
79.474, 32.738
80.872, 1.406
82.270, 1.186
83.667, 85.914
85.064, 78.158
86.461, 111.462
87.858, 8.808
89.254, 5.258
90.650, 49.801
92.046, 69.164
93.442, 67.208
94.838, 102.872
96.233, 114.543
97.628, 97.636
99.023, 82.255
100.418, 91.904
101.812, 71.338
103.206, 42.190
104.600, 40.145
105.994, 17.722
107.387, 122.930
108.781, 180.366
110.174, 195.394
111.566, 39.939
112.959, 102.527
114.351, 76.743
115.744, 48.439
117.136, 142.886
118.527, 15.793
119.919, 88.217
121.310, 158.263
122.701, 153.010
124.092, 159.522
125.482, 190.428
126.873, 159.497
128.263, 162.967
129.653, 142.605
131.042, 179.908
132.432, 204.785
133.821, 211.311
135.210, 243.246
136.599, 246.251
137.987, 257.294
139.376, 254.328
140.764, 324.348
142.152, 271.346
143.539, 274.317
144.927, 274.260
146.314, 270.173
147.701, 333.055
149.088, 274.909
150.474, 245.013
151.861, 268.735
153.247, 268.913
154.633, 230.557
156.018, 203.193
157.404, 162.475
158.789, 144.494
160.174, 99.446
161.559, 79.324
162.943, 77.684
164.327, 41.137
165.711, 17.938
167.095, 34.603
168.479, 57.915
169.862, 0.487
171.246, 46.072
172.628, 17.670
174.011, 44.270
175.394, 2.882
176.776, 43.523
178.158, 86.937
179.540, 41.357
180.922, 29.761
182.303, 25.161
183.684, 52.551
185.065, 58.908
186.446, 38.231
187.826, 33.521
189.207, 13.780
190.587, 71.005
191.967, 96.201
193.346, 140.365
194.726, 192.500
196.105, 230.607
197.484, 258.684
198.862, 375.730
200.241, 398.740
201.619, 408.705
202.997, 527.622
204.375, 559.461
205.753, 627.173
207.130, 689.774
208.507, 748.269
209.884, 708.717
211.261, 716.125
212.638, 730.490
214.014, 666.818
215.390, 626.106
216.766, 529.360
218.141, 471.591
219.517, 442.808
220.892, 390.014
222.267, 329.211
223.642, 272.398
225.016, 234.575
226.391, 233.743
227.765, 189.902
229.139, 168.053
230.512, 193.195
231.886, 164.330
233.259, 130.456
234.632, 148.572
236.005, 132.676
237.377, 158.766
238.749, 149.842
240.122, 164.905
241.493, 171.852
242.865, 182.616
244.237, 182.638
245.608, 218.801
246.979, 168.052
248.350, 221.015
249.720, 239.324
251.090, 252.338
252.461, 206.366
253.830, 195.641
255.200, 223.566
256.570, 223.604
257.939, 244.666
259.308, 205.525
260.677, 236.341
262.045, 266.159
263.414, 227.665
264.782, 244.061
266.150, 240.355
267.517, 240.312
268.885, 278.236
270.252, 246.220
271.619, 260.948
272.986, 299.268
274.353, 272.183
275.719, 313.143
277.085, 267.640
278.451, 280.068
279.817, 297.722
281.182, 279.332
282.548, 291.966
283.913, 284.215
285.278, 293.510
286.642, 290.580
288.007, 313.419
289.371, 326.247
290.735, 344.641
292.099, 336.721
293.462, 371.941
294.826, 358.977
296.189, 356.033
297.552, 366.036
298.914, 405.192
300.277, 442.330
301.639, 411.346
303.001, 456.243
304.363, 485.120
305.724, 501.290
307.086, 575.233
308.447, 638.187
309.808, 679.138
311.168, 761.070
312.529, 862.226
313.889, 915.173
315.249, 1026.992
316.609, 1041.904
317.969, 1023.809
319.328, 1053.543
320.687, 1042.154
322.046, 967.584
323.405, 1024.932
324.764, 1026.995
326.122, 1050.887
327.480, 1086.764
328.838, 1156.232
330.196, 1228.235
331.553, 1373.323
332.910, 1515.965
334.267, 1683.227
335.624, 1850.645
336.981, 2058.861
338.337, 2231.421
339.693, 2589.590
341.049, 2783.097
342.405, 3081.022
343.760, 3491.500
345.116, 4174.811
346.471, 4709.045
347.826, 5607.661
349.180, 6439.330
350.535, 7443.763
351.889, 8452.135
353.243, 9493.141
354.597, 10474.895
355.950, 10706.860
357.304, 10409.022
358.657, 9811.395
360.010, 8843.927
361.362, 7701.569
362.715, 6699.317
364.067, 5818.060
365.419, 4972.792
366.771, 4454.519
368.123, 4016.240
369.474, 3575.957
370.825, 3268.670
372.176, 2948.387
373.527, 2763.102
374.877, 2430.811
376.228, 2280.524
377.578, 2086.239
378.928, 1857.962
380.277, 1671.689
381.627, 1473.420
382.976, 1304.152
384.325, 1191.883
385.674, 972.618
387.023, 958.356
388.371, 808.970
389.719, 712.587
391.067, 658.023
392.415, 536.379
393.762, 535.848
395.110, 425.206
396.457, 352.428
397.804, 343.735
399.150, 306.979
400.497, 227.337
401.843, 204.660
403.189, 195.047
404.535, 153.425
405.881, 145.813
407.226, 125.170
408.571, 131.653
409.916, 108.907
411.261, 87.359
412.605, 82.867
413.950, 53.405
415.294, 29.725
416.638, 38.984
417.981, 43.341
419.325, 18.676
420.668, 22.083
422.011, 29.312
423.354, 5.658
424.697, 18.050
426.039, 2.319
427.381, 1.638
428.723, 20.075
430.065, 25.819
431.406, 12.544
432.748, 47.316
434.089, 13.100
435.430, 11.098
436.770, 2.278
438.111, 28.561
439.451, 3.570
440.791, 11.316
442.131, 16.223
443.471, 6.153
444.810, 10.896
446.149, 8.067
447.488, 5.950
448.827, 21.049
450.166, 6.070
451.504, 31.891
452.842, 64.839
454.180, 20.775
455.518, 26.698
456.855, 53.608
458.193, 77.506
459.530, 40.393
460.867, 73.267
462.203, 103.128
463.540, 141.978
464.876, 144.817
466.212, 141.647
467.548, 170.465
468.883, 150.272
470.219, 209.069
471.554, 219.854
472.889, 253.630
474.224, 301.393
475.558, 360.145
476.892, 446.887
478.227, 477.618
479.561, 576.338
480.894, 685.047
482.228, 823.747
483.561, 861.437
484.894, 979.119
486.227, 905.793
487.559, 818.459
488.892, 724.119
490.224, 645.773
491.556, 597.423
492.888, 542.082
494.220, 554.756
495.551, 617.429
496.882, 747.114
498.213, 866.803
499.544, 1094.502
500.874, 1417.201
502.205, 1767.894
503.535, 2030.579
504.865, 2320.257
506.194, 2343.930
507.524, 2162.598
508.853, 1910.258
510.182, 1551.911
511.511, 1308.584
512.840, 1045.243
514.168, 955.036
515.496, 865.818
516.824, 771.642
518.152, 758.357
519.480, 691.901
520.807, 737.759
522.134, 712.764
523.461, 658.750
524.788, 673.599
526.114, 705.575
527.441, 689.134
528.767, 705.803
530.093, 717.000
531.418, 719.089
532.744, 743.975
534.069, 788.879
535.394, 814.689
536.719, 816.366
538.044, 940.292
539.368, 940.147
540.693, 1061.375
542.017, 1170.473
543.340, 1291.130
544.664, 1455.168
545.987, 1653.642
547.311, 1887.685
548.634, 2160.916
549.956, 2525.399
551.279, 2857.962
552.601, 3524.591
553.923, 4267.984
555.245, 5049.070
556.567, 5608.237
557.889, 6287.787
559.210, 6471.854
560.531, 6179.435
561.852, 5535.282
563.173, 4703.647
564.493, 3881.049
565.813, 3122.531
567.133, 2438.488
568.453, 2034.245
569.773, 1608.313
571.092, 1377.493
572.412, 1196.367
573.731, 1011.119
575.049, 873.006
576.368, 752.844
577.686, 740.517
579.005, 649.188
580.323, 623.151
581.640, 627.676
582.958, 600.088
584.275, 594.567
585.593, 668.251
586.909, 608.957
588.226, 615.394
589.543, 583.334
590.859, 551.356
592.175, 526.007
593.491, 486.102
594.807, 433.647
596.122, 382.810
597.438, 339.562
598.753, 362.819
600.068, 328.526
601.382, 317.929
602.697, 285.755
604.011, 269.921
605.325, 316.703
606.639, 288.743
607.952, 287.617
609.266, 259.380
610.579, 305.491
611.892, 308.727
613.205, 310.767
614.518, 278.818
615.830, 271.970
617.142, 253.209
618.454, 236.281
619.766, 231.477
621.078, 290.786
622.389, 209.246
623.700, 257.696
625.011, 297.129
626.322, 307.551
627.632, 386.959
628.943, 389.352
630.253, 464.732
631.563, 607.097
632.872, 690.448
634.182, 846.785
635.491, 1035.109
636.800, 1181.418
638.109, 1396.714
639.418, 1472.995
640.726, 1488.263
642.035, 1374.517
643.343, 1217.757
644.651, 1049.983
645.958, 936.196
647.266, 794.395
648.573, 628.581
649.880, 571.753
651.187, 521.911
652.494, 431.055
653.800, 391.186
655.106, 332.303
656.412, 320.406
657.718, 249.495
659.024, 231.571
660.329, 227.632
661.634, 186.681
662.939, 138.715
664.244, 143.736
665.549, 121.743
666.853, 128.737
668.157, 100.717
669.461, 101.683
670.765, 67.636
672.069, 67.574
673.372, 54.498
674.675, 77.406
675.978, 4.300
677.281, 36.173
678.583, 16.029
679.886, 15.869
681.188, 26.692
682.490, 14.500
683.792, 1.290
685.093, 0.941
686.394, 6.804
687.696, 24.470
688.997, 5.779
690.297, 11.887
691.598, 21.463
692.898, 19.846
694.198, 40.261
695.498, 23.717
696.798, 30.207
698.097, 12.733
699.397, 6.286
700.696, 28.862
701.995, 20.473
703.293, 30.114
704.592, 17.789
705.890, 6.493
707.188, 40.219
708.486, 25.983
709.784, 38.779
711.081, 18.613
712.378, 36.474
713.675, 11.371
714.972, 20.291
716.269, 13.237
717.565, 2.206
718.862, 11.192
720.158, 3.801
721.453, 0.782
722.749, 9.252
724.045, 22.304
725.340, 7.619
726.635, 17.467
727.930, 18.425
729.224, 13.309
730.519, 18.815
731.813, 0.959
733.107, 7.886
734.401, 18.276
735.694, 23.456
736.988, 32.656
738.281, 11.119
739.574, 4.887
740.867, 6.351
742.160, 7.599
743.452, 2.144
744.744, 28.884
746.036, 5.374
747.328, 3.362
748.620, 26.896
749.911, 7.169
751.202, 16.550
752.493, 1.264
753.784, 2.020
755.075, 7.691
756.365, 13.400
757.655, 36.108
758.945, 1.815
760.235, 4.518
761.525, 37.218
762.814, 22.084
764.103, 38.607
765.392, 49.296
766.681, 55.983
767.969, 46.666
769.258, 51.346
770.546, 25.024
771.834, 29.699
773.122, 29.371
774.409, 42.040
775.697, 13.706
776.984, 56.369
778.271, 52.028
779.558, 40.683
780.844, 33.335
782.131, 2.983
783.417, 30.628
784.703, 53.269
785.989, 48.907
787.274, 46.542
788.560, 17.174
789.845, 39.804
791.130, 55.431
792.415, 59.055
793.699, 85.677
794.983, 64.297
796.268, 96.914
797.552, 109.530
798.835, 104.143
800.119, 119.755
801.402, 127.365
802.686, 156.974
803.969, 157.582
805.251, 163.188
806.534, 216.794
807.816, 228.400
809.098, 244.006
810.380, 275.612
811.662, 306.220
812.944, 329.828
814.225, 285.443
815.506, 343.062
816.787, 359.682
818.068, 370.301
819.349, 367.923
820.629, 401.548
821.909, 381.174
823.189, 413.774
824.469, 409.383
825.749, 425.854
827.028, 431.330
828.307, 427.757
829.586, 434.293
830.865, 463.995
832.144, 473.383
833.422, 528.627
834.700, 562.890
835.978, 592.291
837.256, 609.565
838.534, 668.271
839.811, 703.859
841.088, 782.924
842.365, 874.091
843.642, 944.461
844.919, 1084.813
846.195, 1214.257
847.472, 1330.830
848.748, 1526.152
850.023, 1663.549
851.299, 1913.564
852.575, 2211.701
853.850, 2479.275
855.125, 2833.463
856.400, 3240.210
857.674, 3623.384
858.949, 4160.365
860.223, 4473.086
861.497, 4581.719
862.771, 4712.278
864.045, 4703.066
865.318, 4288.156
866.591, 4097.158
867.864, 3788.769
869.137, 3471.857
870.410, 3209.425
871.682, 2871.721
872.955, 2767.491
874.227, 2556.180
875.499, 2528.751
876.770, 2406.760
878.042, 2394.986
879.313, 2377.805
880.584, 2356.415
881.855, 2531.308
883.126, 2514.196
884.396, 2725.843
885.667, 2814.577
886.937, 2998.489
888.207, 3239.295
889.476, 3383.819
890.746, 3647.809
892.015, 4010.799
893.284, 4242.778
894.553, 4719.461
895.822, 5045.113
897.090, 5437.132
898.359, 5838.281
899.627, 6190.135
900.895, 6770.210
902.163, 7274.955
903.430, 8325.814
904.698, 9322.997
905.965, 10682.130
907.232, 12351.226
908.499, 14920.424
909.765, 17539.664
911.032, 21058.951
912.298, 25108.180
913.564, 30207.438
914.830, 35836.770
916.095, 40595.207
917.361, 44854.562
918.626, 47663.926
919.891, 47073.293
921.156, 45122.676
922.420, 39632.078
923.685, 35071.492
924.949, 29610.916
926.213, 24720.344
927.477, 20669.795
928.740, 17239.256
930.004, 14578.726
931.267, 12228.212
932.530, 10517.708
933.793, 9067.215
935.056, 7700.738
936.318, 6820.272
937.581, 6003.818
938.843, 5326.379
940.104, 4668.951
941.366, 4102.537
942.628, 3654.135
943.889, 3326.746
945.150, 2885.370
946.411, 2706.007
947.672, 2395.658
948.932, 2225.320
950.193, 2061.997
951.453, 1904.687
952.713, 1767.390
953.973, 1660.106
955.232, 1555.835
956.491, 1505.588
957.751, 1363.344
959.010, 1344.380
960.268, 1312.327
961.527, 1223.122
962.785, 1137.540
964.044, 1107.362
965.302, 1010.992
966.559, 1039.417
967.817, 988.373
969.075, 957.248
970.332, 955.541
971.589, 910.991
972.846, 908.905
974.102, 842.831
975.359, 886.771
976.615, 826.724
977.871, 842.939
979.127, 865.920
980.383, 815.787
981.638, 861.847
982.893, 839.909
984.149, 900.009
985.404, 825.203
986.658, 812.061
987.913, 799.515
989.167, 817.144
990.421, 733.196
991.675, 726.334
992.929, 686.577
994.183, 645.737
995.436, 640.256
996.689, 597.998
997.942, 565.539
999.195, 573.631
1000.448, 547.718
1001.700, 566.223
1002.952, 491.532
1004.204, 513.952
1005.456, 538.480
1006.708, 579.748
1007.959, 559.709
1009.210, 554.143
1010.461, 536.569
1011.712, 579.010
1012.963, 607.476
1014.213, 647.962
1015.464, 643.563
1016.714, 664.090
1017.964, 695.639
1019.214, 750.204
1020.463, 769.787
1021.712, 798.386
1022.962, 816.998
1024.210, 841.625
1025.459, 901.262
1026.708, 884.912
1027.956, 966.575
1029.204, 1043.256
1030.452, 1044.946
1031.700, 1126.653
1032.948, 1166.371
1034.195, 1215.098
1035.442, 1239.842
1036.689, 1340.597
1037.936, 1477.364
1039.183, 1565.146
1040.429, 1727.945
1041.676, 1798.762
1042.922, 1881.591
1044.168, 2118.428
1045.413, 2211.280
1046.659, 2310.146
1047.904, 2472.022
1049.149, 2513.907
1050.394, 2544.803
1051.639, 2489.711
1052.884, 2368.635
1054.128, 2288.569
1055.372, 2073.513
1056.616, 1911.466
1057.860, 1653.428
1059.104, 1429.410
1060.347, 1291.401
1061.590, 1049.398
1062.833, 896.408
1064.076, 795.427
1065.319, 682.457
1066.561, 568.498
1067.803, 462.547
1069.046, 453.608
1070.287, 419.680
1071.529, 384.763
1072.771, 324.857
1074.012, 262.958
1075.253, 260.073
1076.494, 257.194
1077.735, 183.323
1078.975, 198.458
1080.216, 189.599
1081.456, 151.749
1082.696, 162.905
1083.936, 130.067
1085.175, 118.241
1086.415, 103.422
1087.654, 111.609
1088.893, 92.819
1090.132, 77.021
1091.371, 94.229
1092.609, 92.441
1093.847, 63.659
1095.085, 61.896
1096.323, 72.125
1097.561, 66.359
1098.799, 43.696
1100.036, 26.939
1101.273, 30.187
1102.510, 5.439
1103.747, 29.694
1104.983, 0.954
1106.220, 39.221
1107.456, 9.508
1108.692, 6.236
1109.928, 17.039
1111.163, 16.684
1112.399, 7.590
1113.634, 38.132
1114.869, 14.868
1116.104, 2.608
1117.339, 18.652
1118.573, 10.086
1119.808, 12.826
1121.042, 12.430
1122.276, 75.687
1123.509, 62.946
1124.743, 66.207
1125.976, 4.531
1127.210, 20.729
1128.443, 33.010
1129.675, 18.766
1130.908, 34.531
1132.141, 50.315
1133.373, 35.125
1134.605, 44.954
1135.837, 37.809
1137.068, 87.684
1138.300, 13.608
1139.531, 46.541
1140.762, 15.501
1141.993, 29.473
1143.224, 34.463
1144.455, 21.475
1145.685, 17.503
1146.915, 25.545
1148.145, 40.605
1149.375, 2.309
1150.605, 16.217
1151.834, 11.876
1153.063, 12.982
1154.292, 8.101
1155.521, 2.233
1156.750, 9.373
1157.978, 13.473
1159.207, 18.316
1160.435, 22.156
1161.663, 27.991
1162.891, 9.823
1164.118, 26.649
1165.345, 40.471
1166.573, 29.289
1167.800, 62.102
1169.026, 52.945
1170.253, 81.749
1171.480, 71.550
1172.706, 82.350
1173.932, 89.226
1175.158, 95.009
1176.383, 94.814
1177.609, 134.700
1178.834, 112.584
1180.059, 131.683
1181.284, 145.570
1182.509, 111.563
1183.734, 118.522
1184.958, 163.916
1186.182, 129.791
1187.406, 119.599
1188.630, 151.732
1189.854, 143.760
1191.077, 127.754
1192.301, 149.043
1193.524, 136.993
1194.747, 126.889
1195.969, 139.735
1197.192, 142.649
1198.414, 114.371
1199.636, 135.332
1200.858, 132.101
1202.080, 139.417
1203.302, 109.279
1204.523, 115.428
1205.744, 138.627
1206.966, 133.650
1208.186, 128.436
1209.407, 130.128
1210.628, 146.408
1211.848, 127.734
1213.068, 137.477
1214.288, 108.672
1215.508, 112.321
1216.727, 142.978
1217.947, 128.706
1219.166, 124.380
1220.385, 150.258
1221.604, 115.519
1222.822, 146.304
1224.041, 132.325
1225.259, 103.069
1226.477, 132.794
1227.695, 126.814
1228.913, 123.723
1230.130, 90.540
1231.348, 104.884
1232.565, 114.751
1233.782, 119.279
1234.999, 81.920
1236.215, 105.401
1237.432, 118.965
1238.648, 111.683
1239.864, 106.246
1241.080, 86.402
1242.296, 94.806
1243.511, 117.313
1244.726, 67.776
1245.942, 147.661
1247.156, 110.052
1248.371, 99.589
1249.586, 138.938
1250.800, 101.668
1252.014, 128.965
1253.228, 111.465
1254.442, 128.862
1255.656, 148.347
1256.869, 155.687
1258.083, 168.580
1259.296, 126.100
1260.509, 142.596
1261.722, 164.301
1262.934, 129.398
1264.147, 154.593
1265.359, 205.496
1266.571, 181.094
1267.783, 178.315
1268.994, 179.510
1270.206, 156.717
1271.417, 191.831
1272.628, 217.792
1273.839, 169.820
1275.050, 177.024
1276.260, 195.015
1277.471, 175.099
1278.681, 170.104
1279.891, 180.941
1281.101, 174.232
1282.310, 178.902
1283.520, 160.340
1284.729, 166.388
1285.938, 166.406
1287.147, 146.255
1288.356, 147.162
1289.564, 123.774
1290.773, 170.169
1291.981, 136.747
1293.189, 134.698
1294.397, 126.838
1295.604, 131.386
1296.812, 126.161
1298.019, 125.013
1299.226, 105.537
1300.433, 98.311
1301.640, 151.383
1302.846, 136.015
1304.053, 88.628
1305.259, 118.222
1306.465, 74.789
1307.671, 104.328
1308.876, 106.829
1310.082, 81.336
1311.287, 101.822
1312.492, 93.292
1313.697, 66.743
1314.902, 119.241
1316.106, 74.646
1317.310, 74.031
1318.515, 54.395
1319.719, 75.738
1320.922, 69.076
1322.126, 48.385
1323.329, 47.675
1324.533, 19.946
1325.736, 44.197
1326.939, 27.429
1328.141, 30.661
1329.344, 5.854
1330.546, 41.025
1331.748, 55.176
1332.950, 15.305
1334.152, 21.443
1335.354, 23.528
1336.555, 7.592
1337.757, 5.368
1338.958, 30.644
1340.159, 35.636
1341.359, 26.608
1342.560, 2.439
1343.760, 21.490
1344.960, 43.400
1346.160, 4.290
1347.360, 27.158
1348.560, 9.008
1349.759, 27.163
1350.959, 13.637
1352.158, 31.418
1353.357, 3.819
1354.555, 2.920
1355.754, 1.639
1356.952, 31.336
1358.151, 4.016
1359.349, 4.324
1360.546, 4.686
1361.744, 6.067
1362.941, 5.470
1364.139, 14.107
1365.336, 15.332
1366.533, 18.207
1367.730, 5.730
1368.926, 19.239
1370.123, 19.734
1371.319, 4.355
1372.515, 7.825
1373.711, 11.284
1374.906, 11.260
1376.102, 5.149
1377.297, 6.532
1378.492, 9.104
1379.687, 34.238
1380.882, 23.568
1382.077, 11.858
1383.271, 22.134
1384.465, 1.720
1385.659, 41.502
1386.853, 24.698
1388.047, 28.858
1389.240, 1.994
1390.434, 35.107
1391.627, 18.204
1392.820, 40.293
1394.013, 5.361
1395.205, 6.587
1396.398, 17.440
1397.590, 6.443
1398.782, 6.434
1399.974, 30.434
1401.166, 13.464
1402.357, 11.525
1403.549, 32.641
1404.740, 32.781
1405.931, 50.943
1407.122, 48.125
1408.313, 26.335
1409.503, 55.548
1410.693, 35.766
1411.883, 39.993
1413.073, 35.226
1414.263, 55.447
1415.453, 32.659
1416.642, 71.860
1417.831, 58.005
1419.020, 64.183
1420.209, 43.223
1421.398, 54.347
1422.587, 80.165
1423.775, 45.616
1424.963, 52.056
1426.151, 64.958
1427.339, 58.281
1428.526, 45.408
1429.714, 57.558
1430.901, 65.949
1432.088, 49.832
1433.275, 48.075
1434.462, 53.497
1435.648, 85.189
1436.835, 26.970
1438.021, 68.653
1439.207, 55.750
1440.393, 17.349
1441.579, 53.807
1442.764, 69.573
1443.949, 55.252
1445.135, 44.130
1446.320, 63.903
1447.504, 51.562
1448.689, 80.922
1449.873, 61.530
1451.058, 26.016
1452.242, 59.872
1453.426, 55.975
1454.609, 63.153
1455.793, 43.501
1456.976, 22.526
1458.159, 44.758
1459.342, 44.735
1460.525, 61.902
1461.708, 74.775
1462.890, 27.524
1464.073, 50.534
1465.255, 59.174
1466.437, 57.703
1467.619, 55.264
1468.800, 31.826
1469.982, 21.483
1471.163, 100.712
1472.344, 80.064
1473.525, 30.295
1474.706, 60.257
1475.886, 13.463
1477.066, 43.272
1478.247, 69.393
1479.427, 50.133
1480.607, 49.588
1481.786, 59.919
1482.966, 24.241
1484.145, 89.640
1485.324, 67.135
1486.503, 37.332
1487.682, 75.799
1488.860, 59.956
1490.039, 52.472
1491.217, 46.022
1492.395, 54.496
1493.573, 54.014
1494.751, 72.524
1495.928, 63.919
1497.106, 285.434
1498.283, 99.799
1499.460, 32.405
1500.637, 79.108
1501.814, 40.881
1502.990, 28.697
1504.166, 105.574
1505.342, 50.528
1506.518, 25.544
1507.694, 54.641
1508.870, 30.855
1510.045, 7.223
1511.221, 84.739
1512.396, 2.571
1513.571, 49.333
1514.745, 80.513
1515.920, 4.035
1517.094, 30.342
1518.269, 37.924
1519.443, 0.000
##END=



