##NAMES=Pyromorphite
##RRUFFID=R050027
##IDEAL CHEMISTRY=Pb^2+^_5_(PO_4_)_3_Cl
##LOCALITY=Yangshuo, Guangxi Autonomous Region, China
##OWNER=RRUFF
##SOURCE=Eugene Schlepp
##DESCRIPTION=Light green hexagonal prismatic hoppered single crystals
##STATUS=The identification of this mineral has been confirmed by X-ray diffraction and chemical analysis
##URL=rruff.info/R050027
##MEASURED CHEMISTRY=Pb_5.00_(P_1.00_O_4_)_3_Cl_1.00_
##PIN_ID=M00303
##ORIENTATION=Laser parallel to -c* (0 0 -1). Fiducial mark perpendicular to laser is parallel to a [1 0 0]
49.184, 0.000
50.590, 23.064
51.996, 15.207
53.401, 80.492
54.807, 122.191
56.212, 156.172
57.617, 151.503
59.021, 149.787
60.426, 188.905
61.830, 227.065
63.234, 283.236
64.637, 257.761
66.041, 178.855
67.444, 128.591
68.847, 45.754
70.250, 57.322
71.652, 6.273
73.054, 24.585
74.456, 7.769
75.858, 10.815
77.260, 44.576
78.661, 24.073
80.062, 0.673
81.463, 55.648
82.863, 154.837
84.264, 491.230
85.664, 905.828
87.064, 1649.627
88.463, 2676.617
89.863, 3212.792
91.262, 3471.142
92.661, 3289.661
94.059, 3114.337
95.458, 2943.163
96.856, 3122.121
98.254, 3337.196
99.652, 4019.372
101.049, 5448.640
102.446, 7553.995
103.843, 10400.438
105.240, 12839.957
106.637, 14099.559
108.033, 14179.230
109.429, 12708.976
110.825, 11468.792
112.220, 9728.679
113.616, 8478.631
115.011, 7354.648
116.406, 6704.730
117.800, 5917.904
119.195, 5429.200
120.589, 4998.623
121.983, 4704.184
123.377, 4452.855
124.770, 4252.583
126.163, 4074.365
127.556, 3931.219
128.949, 3812.160
130.342, 3719.171
131.734, 3669.457
133.126, 3667.313
134.518, 3662.500
135.909, 3686.756
137.301, 3772.062
138.692, 3902.397
140.083, 3993.743
141.473, 4156.391
142.864, 4310.397
144.254, 4531.672
145.644, 4809.899
147.034, 5094.049
148.423, 5498.125
149.812, 5859.199
151.201, 6084.291
152.590, 6344.401
153.979, 6727.535
155.367, 6810.689
156.755, 6939.865
158.143, 7012.062
159.530, 6809.284
160.918, 6535.525
162.305, 6358.792
163.692, 5924.083
165.078, 5611.394
166.465, 5365.729
167.851, 5022.090
169.237, 4791.566
170.623, 4500.893
172.008, 4346.335
173.393, 4149.800
174.778, 4016.293
176.163, 3898.810
177.548, 3760.397
178.932, 3635.918
180.316, 3540.513
181.700, 3468.148
183.083, 3370.843
184.467, 3360.774
185.850, 3288.429
187.233, 3232.364
188.616, 3285.923
189.998, 3163.311
191.380, 3132.333
192.762, 3155.244
194.144, 3155.637
195.525, 3076.658
196.907, 2994.543
198.288, 3013.777
199.669, 2998.873
201.049, 2898.987
202.429, 2861.503
203.810, 2831.222
205.189, 2840.793
206.569, 2725.700
207.949, 2789.254
209.328, 2677.646
210.707, 2674.789
212.085, 2611.768
213.464, 2569.740
214.842, 2552.721
216.220, 2475.070
217.598, 2370.134
218.976, 2292.463
220.353, 2169.428
221.730, 2068.699
223.107, 1958.689
224.483, 1833.393
225.860, 1768.788
227.236, 1703.913
228.612, 1565.781
229.988, 1527.295
231.363, 1437.528
232.738, 1404.475
234.113, 1341.487
235.488, 1232.381
236.863, 1220.766
238.237, 1190.258
239.611, 1113.436
240.985, 1068.541
242.359, 1041.662
243.732, 1006.861
245.105, 991.534
246.478, 950.887
247.851, 914.958
249.223, 874.563
250.595, 871.366
251.967, 818.195
253.339, 818.048
254.711, 790.925
256.082, 774.824
257.453, 726.746
258.824, 725.688
260.195, 721.651
261.565, 668.634
262.935, 650.635
264.305, 646.654
265.675, 578.691
267.044, 570.746
268.414, 579.817
269.783, 517.904
271.151, 461.008
272.520, 472.126
273.888, 488.260
275.256, 445.409
276.624, 409.572
277.992, 381.749
279.359, 375.940
280.726, 320.191
282.093, 303.430
283.460, 316.722
284.827, 268.084
286.193, 258.551
287.559, 235.993
288.925, 190.768
290.290, 193.151
291.656, 187.603
293.021, 154.965
294.386, 126.391
295.750, 145.789
297.115, 123.300
298.479, 103.922
299.843, 102.459
301.207, 104.008
302.570, 62.539
303.933, 89.090
305.296, 37.629
306.659, 15.170
308.022, 55.827
309.384, 49.836
310.746, 13.823
312.108, 18.479
313.470, 16.810
314.831, 6.990
316.193, 11.786
317.554, 6.235
318.914, 27.211
320.275, 23.029
321.635, 4.305
322.995, 23.680
324.355, 4.415
325.715, 16.380
327.074, 17.673
328.434, 20.986
329.792, 30.297
331.151, 21.616
332.510, 9.778
333.868, 37.036
335.226, 4.244
336.584, 30.271
337.941, 36.577
339.299, 12.832
340.656, 20.991
342.013, 36.693
343.370, 1.695
344.726, 1.988
346.082, 28.679
347.438, 2.703
348.794, 2.983
350.150, 6.527
351.505, 11.215
352.860, 12.136
354.215, 18.437
355.570, 28.326
356.924, 1.946
358.278, 11.511
359.632, 40.064
360.986, 8.424
362.339, 11.990
363.693, 12.685
365.046, 31.750
366.399, 40.788
367.751, 2.205
369.104, 16.663
370.456, 68.121
371.808, 28.518
373.159, 35.915
374.511, 42.312
375.862, 67.710
377.213, 57.109
378.564, 73.517
379.914, 80.918
381.265, 102.316
382.615, 150.708
383.965, 178.097
385.315, 240.479
386.664, 294.853
388.013, 352.031
389.362, 413.826
390.711, 476.972
392.060, 515.357
393.408, 563.742
394.756, 569.136
396.104, 524.541
397.451, 463.954
398.799, 465.380
400.146, 473.809
401.493, 525.252
402.840, 581.710
404.186, 692.179
405.533, 821.662
406.879, 1003.172
408.225, 1250.698
409.570, 1481.237
410.916, 1758.784
412.261, 2180.338
413.606, 2634.902
414.951, 3056.473
416.295, 3261.049
417.639, 3380.626
418.983, 3246.209
420.327, 2868.795
421.671, 2435.380
423.014, 1943.975
424.357, 1489.575
425.700, 1112.180
427.043, 876.784
428.386, 671.387
429.728, 552.989
431.070, 410.590
432.412, 335.188
433.753, 252.787
435.095, 170.383
436.436, 182.981
437.777, 136.570
439.118, 117.151
440.458, 108.726
441.798, 54.291
443.138, 60.849
444.478, 52.395
445.818, 38.929
447.157, 17.450
448.496, 26.958
449.835, 2.451
451.174, 46.927
452.513, 33.389
453.851, 57.836
455.189, 45.270
456.527, 54.690
457.864, 30.095
459.202, 11.485
460.539, 28.858
461.876, 28.216
463.212, 34.557
464.549, 31.883
465.885, 37.192
467.221, 38.484
468.557, 15.763
469.893, 7.108
471.228, 8.618
472.563, 19.597
473.898, 2.883
475.233, 6.137
476.567, 3.613
477.902, 11.604
479.236, 6.427
480.570, 9.037
481.903, 17.723
483.237, 15.782
484.570, 7.447
485.903, 8.053
487.235, 24.569
488.568, 29.160
489.900, 28.691
491.232, 30.353
492.564, 16.891
493.896, 21.473
495.227, 18.059
496.558, 13.100
497.889, 26.928
499.220, 19.774
500.551, 16.858
501.881, 26.773
503.211, 50.136
504.541, 30.127
505.870, 41.048
507.200, 54.669
508.529, 40.089
509.858, 73.083
511.187, 37.961
512.515, 48.547
513.844, 35.305
515.172, 27.088
516.500, 53.191
517.827, 71.850
519.155, 96.282
520.482, 84.934
521.809, 61.880
523.136, 42.583
524.462, 71.359
525.789, 78.712
527.115, 107.931
528.441, 99.273
529.766, 98.535
531.092, 116.360
532.417, 160.933
533.742, 207.987
535.067, 223.122
536.391, 331.211
537.716, 432.082
539.040, 550.434
540.364, 748.482
541.688, 893.544
543.011, 939.728
544.334, 859.157
545.657, 689.208
546.980, 518.398
548.303, 461.837
549.625, 474.871
550.947, 483.514
552.269, 607.805
553.591, 639.903
554.913, 661.108
556.234, 639.668
557.555, 534.589
558.876, 476.408
560.197, 417.861
561.517, 394.432
562.837, 388.796
564.157, 399.965
565.477, 452.193
566.797, 537.410
568.116, 687.496
569.435, 957.204
570.754, 1307.538
572.073, 1851.121
573.391, 2345.669
574.709, 2617.563
576.027, 2443.706
577.345, 1982.732
578.663, 1579.884
579.980, 1159.855
581.297, 906.842
582.614, 702.708
583.931, 584.149
585.248, 493.734
586.564, 430.394
587.880, 379.933
589.196, 321.862
590.511, 301.009
591.827, 297.343
593.142, 304.695
594.457, 261.065
595.772, 280.232
597.086, 280.702
598.401, 262.162
599.715, 248.300
601.029, 285.808
602.343, 238.486
603.656, 262.136
604.969, 272.651
606.282, 263.040
607.595, 243.433
608.908, 232.471
610.220, 222.815
611.532, 221.511
612.844, 206.574
614.156, 221.869
615.468, 217.167
616.779, 203.328
618.090, 219.353
619.401, 184.438
620.712, 177.486
622.022, 191.526
623.332, 197.521
624.642, 180.502
625.952, 171.455
627.262, 150.267
628.571, 160.700
629.880, 165.131
631.189, 142.867
632.498, 142.902
633.807, 132.064
635.115, 134.585
636.423, 145.898
637.731, 113.139
639.039, 159.198
640.346, 123.690
641.653, 108.254
642.960, 65.323
644.267, 106.254
645.574, 83.655
646.880, 107.051
648.186, 72.419
649.492, 88.766
650.798, 105.929
652.103, 82.163
653.409, 65.318
654.714, 80.266
656.019, 58.463
657.323, 46.581
658.628, 74.591
659.932, 49.693
661.236, 24.857
662.540, 57.890
663.843, 35.936
665.147, 34.997
666.450, 50.958
667.753, 55.022
669.056, 28.906
670.358, 39.792
671.660, 29.590
672.963, 14.281
674.264, 20.070
675.566, 2.106
676.868, 25.765
678.169, 35.563
679.470, 6.229
680.771, 11.769
682.071, 4.617
683.372, 22.983
684.672, 15.666
685.972, 17.273
687.271, 28.837
688.571, 7.570
689.870, 18.977
691.169, 15.491
692.468, 14.971
693.767, 16.583
695.065, 6.816
696.364, 5.822
697.662, 9.498
698.960, 5.785
700.257, 21.038
701.555, 34.263
702.852, 24.464
704.149, 19.361
705.446, 1.769
706.742, 25.135
708.038, 12.915
709.335, 19.063
710.631, 22.083
711.926, 13.146
713.222, 20.248
714.517, 15.609
715.812, 15.556
717.107, 34.758
718.402, 1.007
719.696, 15.284
720.990, 33.596
722.284, 18.951
723.578, 34.273
724.872, 29.776
726.165, 41.249
727.458, 46.766
728.751, 47.783
730.044, 38.941
731.336, 28.593
732.629, 44.279
733.921, 32.007
735.213, 30.770
736.504, 64.566
737.796, 48.413
739.087, 59.299
740.378, 31.231
741.669, 34.193
742.960, 33.853
744.250, 42.206
745.540, 30.260
746.830, 52.339
748.120, 37.454
749.410, 56.596
750.699, 12.775
751.988, 22.969
753.277, 24.183
754.566, 16.416
755.854, 29.665
757.143, 16.068
758.431, 2.211
759.719, 7.499
761.006, 41.200
762.294, 40.892
763.581, 44.575
764.868, 38.252
766.155, 64.921
767.442, 93.582
768.728, 86.235
770.014, 104.881
771.300, 105.520
772.586, 108.153
773.872, 118.746
775.157, 110.404
776.442, 132.022
777.727, 147.635
779.012, 155.243
780.297, 181.847
781.581, 179.446
782.865, 202.957
784.149, 227.518
785.433, 220.110
786.716, 237.613
787.999, 276.124
789.282, 307.598
790.565, 310.096
791.848, 322.649
793.130, 391.080
794.413, 361.701
795.695, 351.217
796.977, 426.691
798.258, 396.687
799.540, 361.181
800.821, 383.531
802.102, 343.044
803.382, 260.266
804.663, 264.708
805.943, 220.242
807.224, 217.657
808.504, 147.844
809.783, 129.276
811.063, 115.374
812.342, 113.203
813.621, 131.362
814.900, 167.602
816.179, 196.781
817.457, 252.005
818.736, 309.677
820.014, 283.355
821.292, 271.525
822.569, 300.811
823.847, 375.393
825.124, 328.376
826.401, 331.070
827.678, 291.161
828.954, 289.568
830.231, 162.826
831.507, 120.559
832.783, 108.667
834.059, 65.587
835.334, 101.856
836.610, 54.220
837.885, 40.096
839.160, 75.716
840.435, 58.466
841.709, 91.704
842.983, 107.169
844.258, 92.158
845.532, 100.057
846.805, 138.993
848.079, 228.138
849.352, 275.793
850.625, 303.742
851.898, 350.670
853.171, 323.467
854.443, 281.011
855.715, 175.926
856.988, 152.693
858.259, 134.204
859.531, 58.113
860.803, 87.406
862.074, 57.044
863.345, 55.868
864.616, 87.579
865.886, 70.928
867.157, 81.910
868.427, 122.989
869.697, 128.427
870.967, 131.741
872.236, 139.258
873.506, 192.963
874.775, 193.604
876.044, 218.251
877.313, 243.025
878.581, 257.172
879.849, 347.690
881.118, 398.958
882.386, 472.259
883.653, 505.212
884.921, 596.916
886.188, 598.741
887.455, 696.438
888.722, 801.324
889.989, 902.197
891.255, 1038.188
892.522, 1048.609
893.788, 1214.889
895.054, 1290.103
896.319, 1382.445
897.585, 1588.396
898.850, 1756.134
900.115, 2067.695
901.380, 2383.240
902.645, 2770.774
903.909, 3426.512
905.174, 4116.958
906.438, 5029.419
907.701, 6178.215
908.965, 7960.611
910.229, 10297.870
911.492, 13395.139
912.755, 18082.490
914.018, 25219.889
915.280, 35317.324
916.543, 48214.797
917.805, 57572.301
919.067, 61369.859
920.329, 55247.449
921.590, 45205.094
922.852, 34352.777
924.113, 26530.508
925.374, 19988.275
926.635, 15556.095
927.895, 11923.954
929.156, 9641.847
930.416, 8088.786
931.676, 7048.761
932.936, 6624.786
934.195, 6296.858
935.454, 6355.974
936.714, 6771.138
937.973, 7143.337
939.231, 7980.574
940.490, 8844.852
941.748, 9873.167
943.006, 10881.521
944.264, 11399.916
945.522, 11818.353
946.780, 11836.824
948.037, 11125.339
949.294, 10553.898
950.551, 9102.497
951.808, 8211.138
953.064, 6961.814
954.320, 6020.529
955.577, 5094.286
956.832, 4424.084
958.088, 3768.921
959.344, 3239.796
960.599, 2876.711
961.854, 2581.667
963.109, 2206.664
964.364, 2055.701
965.618, 1873.778
966.872, 1739.900
968.127, 1672.071
969.380, 1487.283
970.634, 1489.538
971.888, 1485.837
973.141, 1426.178
974.394, 1368.557
975.647, 1367.979
976.900, 1320.442
978.152, 1297.951
979.404, 1354.505
980.656, 1270.103
981.908, 1331.750
983.160, 1339.438
984.411, 1369.168
985.663, 1335.943
986.914, 1302.762
988.165, 1428.629
989.415, 1421.539
990.666, 1496.493
991.916, 1553.490
993.166, 1587.528
994.416, 1752.617
995.665, 1827.746
996.915, 2017.917
998.164, 2257.129
999.413, 2505.390
1000.662, 2801.694
1001.911, 3191.043
1003.159, 3525.435
1004.407, 3919.869
1005.655, 4301.341
1006.903, 4716.851
1008.151, 5019.399
1009.398, 5131.995
1010.646, 5219.632
1011.893, 5039.318
1013.139, 4984.042
1014.386, 4686.812
1015.633, 4390.629
1016.879, 4090.490
1018.125, 3747.397
1019.371, 3504.339
1020.616, 3216.325
1021.862, 2892.359
1023.107, 2720.432
1024.352, 2443.547
1025.597, 2260.709
1026.842, 2030.912
1028.086, 1923.488
1029.330, 1710.782
1030.574, 1599.857
1031.818, 1427.801
1033.062, 1291.510
1034.305, 1241.716
1035.548, 1182.034
1036.791, 1075.982
1038.034, 1051.814
1039.277, 1030.750
1040.519, 1097.482
1041.762, 1028.875
1043.004, 1121.656
1044.246, 1127.862
1045.487, 1168.041
1046.729, 1119.947
1047.970, 1026.626
1049.211, 871.942
1050.452, 867.696
1051.692, 764.518
1052.933, 691.911
1054.173, 686.552
1055.413, 624.919
1056.653, 667.149
1057.893, 580.237
1059.132, 662.613
1060.371, 650.292
1061.610, 604.501
1062.849, 640.033
1064.088, 645.706
1065.326, 670.154
1066.565, 679.679
1067.803, 708.408
1069.041, 765.303
1070.278, 767.764
1071.516, 785.022
1072.753, 823.067
1073.990, 781.155
1075.227, 812.865
1076.464, 735.472
1077.700, 709.768
1078.936, 783.262
1080.173, 726.186
1081.408, 710.177
1082.644, 734.087
1083.880, 724.275
1085.115, 727.865
1086.350, 677.107
1087.585, 705.437
1088.820, 711.872
1090.054, 655.767
1091.288, 762.057
1092.522, 717.794
1093.756, 669.014
1094.990, 719.287
1096.224, 706.093
1097.457, 660.133
1098.690, 669.712
1099.923, 641.903
1101.156, 580.483
1102.388, 603.800
1103.621, 558.324
1104.853, 549.958
1106.085, 522.270
1107.316, 428.418
1108.548, 472.333
1109.779, 390.053
1111.010, 367.273
1112.241, 403.807
1113.472, 319.419
1114.703, 355.027
1115.933, 297.233
1117.163, 317.122
1118.393, 325.938
1119.623, 279.776
1120.853, 311.446
1122.082, 344.735
1123.311, 319.217
1124.540, 290.955
1125.769, 273.155
1126.997, 285.801
1128.226, 286.287
1129.454, 274.766
1130.682, 277.313
1131.910, 286.052
1133.138, 253.442
1134.365, 286.785
1135.592, 278.510
1136.819, 288.070
1138.046, 308.099
1139.273, 313.716
1140.499, 331.537
1141.725, 383.667
1142.951, 400.122
1144.177, 426.683
1145.403, 450.078
1146.628, 491.591
1147.854, 517.108
1149.079, 533.656
1150.304, 518.328
1151.528, 498.031
1152.753, 480.456
1153.977, 440.247
1155.201, 406.688
1156.425, 323.110
1157.649, 260.891
1158.872, 261.353
1160.096, 254.834
1161.319, 191.393
1162.542, 179.861
1163.764, 160.478
1164.987, 121.902
1166.209, 103.414
1167.431, 78.834
1168.653, 56.669
1169.875, 56.846
1171.097, 32.354
1172.318, 11.768
1173.539, 25.176
1174.760, 15.358
1175.981, 7.038
1177.202, 26.524
1178.422, 21.071
1179.642, 11.694
1180.862, 24.332
1182.082, 46.986
1183.302, 13.663
1184.521, 53.303
1185.740, 33.980
1186.959, 0.321
1188.178, 39.423
1189.397, 25.190
1190.615, 50.952
1191.834, 48.766
1193.052, 7.493
1194.269, 36.157
1195.487, 46.038
1196.705, 14.951
1197.922, 33.794
1199.139, 3.752
1200.356, 44.724
1201.573, 20.713
1202.789, 50.743
1204.006, 62.796
1205.222, 33.882
1206.438, 69.030
1207.653, 44.095
1208.869, 3.725
1210.084, 48.515
1211.299, 9.190
1212.514, 11.121
1213.729, 54.453
1214.944, 4.785
1216.158, 22.112
1217.372, 33.425
1218.586, 28.684
1219.800, 12.091
1221.014, 52.577
1222.227, 26.965
1223.440, 4.515
1224.654, 29.268
1225.866, 15.437
1227.079, 34.599
1228.292, 32.094
1229.504, 3.434
1230.716, 31.096
1231.928, 28.845
1233.139, 16.078
1234.351, 15.284
1235.562, 7.420
1236.773, 22.016
1237.984, 13.162
1239.195, 5.271
1240.406, 27.760
1241.616, 15.926
1242.826, 4.797
1244.036, 24.227
1245.246, 38.185
1246.456, 27.283
1247.665, 37.251
1248.874, 32.119
1250.083, 8.029
1251.292, 43.337
1252.501, 54.482
1253.709, 27.300
1254.917, 34.254
1256.125, 57.044
1257.333, 43.698
1258.541, 42.502
1259.748, 17.307
1260.956, 27.748
1262.163, 37.919
1263.370, 41.802
1264.576, 42.495
1265.783, 50.206
1266.989, 77.051
1268.195, 62.689
1269.401, 52.203
1270.607, 37.894
1271.813, 59.382
1273.018, 70.008
1274.223, 72.447
1275.428, 69.828
1276.633, 61.132
1277.838, 88.430
1279.042, 105.718
1280.246, 66.066
1281.450, 77.215
1282.654, 55.337
1283.858, 76.446
1285.061, 66.567
1286.265, 54.666
1287.468, 96.733
1288.671, 86.804
1289.873, 124.862
1291.076, 94.801
1292.278, 95.759
1293.480, 93.760
1294.682, 84.623
1295.884, 83.787
1297.086, 121.600
1298.287, 80.511
1299.488, 121.270
1300.689, 137.169
1301.890, 83.915
1303.091, 120.593
1304.291, 117.271
1305.491, 104.916
1306.691, 122.509
1307.891, 100.063
1309.091, 138.591
1310.290, 114.100
1311.490, 142.570
1312.689, 115.076
1313.888, 118.562
1315.086, 116.948
1316.285, 139.371
1317.483, 149.699
1318.681, 127.001
1319.879, 162.946
1321.077, 132.187
1322.275, 125.664
1323.472, 141.288
1324.669, 143.165
1325.866, 162.559
1327.063, 143.854
1328.260, 131.537
1329.456, 132.407
1330.653, 132.130
1331.849, 149.078
1333.045, 142.383
1334.240, 134.317
1335.436, 137.840
1336.631, 111.399
1337.826, 99.239
1339.021, 141.316
1340.216, 142.763
1341.411, 112.786
1342.605, 150.752
1343.799, 157.161
1344.993, 126.327
1346.187, 141.772
1347.381, 123.358
1348.574, 117.091
1349.767, 128.542
1350.961, 88.694
1352.153, 102.318
1353.346, 112.622
1354.539, 116.786
1355.731, 115.360
1356.923, 111.594
1358.115, 97.022
1359.307, 89.561
1360.498, 77.949
1361.690, 64.544
1362.881, 76.355
1364.072, 87.128
1365.263, 67.282
1366.453, 64.544
1367.644, 21.123
1368.834, 41.509
1370.024, 26.474
1371.214, 49.380
1372.404, 32.709
1373.593, 56.440
1374.783, 13.378
1375.972, 59.391
1377.161, 59.799
1378.349, 70.434
1379.538, 22.385
1380.726, 55.869
1381.915, 54.957
1383.103, 21.186
1384.290, 42.296
1385.478, 29.073
1386.665, 51.653
1387.853, 59.977
1389.040, 37.252
1390.227, 47.917
1391.413, 61.694
1392.600, 46.941
1393.786, 14.953
1394.972, 21.661
1396.158, 48.630
1397.344, 30.595
1398.530, 45.169
1399.715, 71.374
1400.900, 37.903
1402.085, 33.965
1403.270, 16.611
1404.455, 55.363
1405.639, 20.217
1406.824, 32.839
1408.008, 28.026
1409.192, 16.365
1410.375, 29.114
1411.559, 40.317
1412.742, 19.730
1413.925, 36.025
1415.108, 19.460
1416.291, 34.836
1417.474, 38.261
1418.656, 50.429
1419.839, 44.685
1421.021, 40.810
1422.202, 27.053
1423.384, 60.288
1424.566, 75.373
1425.747, 55.514
1426.928, 45.654
1428.109, 43.670
1429.290, 43.506
1430.470, 35.526
1431.651, 31.672
1432.831, 60.792
1434.011, 41.903
1435.191, 24.912
1436.370, 60.060
1437.550, 2.343
1438.729, 68.540
1439.908, 20.486
1441.087, 48.244
1442.266, 14.274
1443.444, 35.762
1444.623, 42.167
1445.801, 34.243
1446.979, 32.805
1448.157, 38.791
1449.334, 57.967
1450.512, 42.889
1451.689, 35.733
1452.866, 40.055
1454.043, 21.650
1455.220, 19.496
1456.396, 35.221
1457.573, 18.248
1458.749, 58.504
1459.925, 40.175
1461.100, 71.689
1462.276, 37.673
1463.451, 49.545
1464.627, 69.884
1465.802, 41.621
1466.977, 53.247
1468.151, 72.344
1469.326, 53.726
1470.500, 9.679
1471.674, 42.365
1472.848, 34.827
1474.022, 38.120
1475.195, 62.148
1476.369, 49.558
1477.542, 26.694
1478.715, 84.002
1479.888, 34.947
1481.061, 59.532
1482.233, 92.745
1483.405, 50.965
1484.577, 91.354
1485.749, 98.703
1486.921, 91.477
1488.093, 131.539
1489.264, 94.898
1490.435, 119.289
1491.606, 73.732
1492.777, 116.247
1493.948, 104.801
1495.118, 119.018
1496.288, 80.582
1497.459, 107.181
1498.628, 125.843
1499.798, 87.620
1500.968, 88.484
1502.137, 122.413
1503.306, 99.475
