##NAMES=Quartz
##RRUFFID=R050125
##IDEAL CHEMISTRY=SiO_2_
##LOCALITY=Linopolis, Minas Gerais, Brazil
##OWNER=RRUFF
##SOURCE=Carlos and Paulo Vasconcelos
##DESCRIPTION=Pale pink group of single crystals, variety rose quartz
##STATUS=The identification of this mineral has been confirmed by X-ray diffraction and chemical analysis
##URL=rruff.info/R050125
##MEASURED CHEMISTRY=Si_1.00_O_2_
##PIN_ID=L00165
##ORIENTATION=Laser parallel to -c* (0 0 -1). Fiducial mark perpendicular to laser is parallel to -b [0 -1 0]
47.490, 0.000
48.899, 4.203
50.308, 39.490
51.717, 107.876
53.126, 150.753
54.534, 165.983
55.942, 233.432
57.350, 251.091
58.758, 289.527
60.165, 348.147
61.572, 377.184
62.979, 409.531
64.386, 392.156
65.792, 403.766
67.198, 398.278
68.604, 424.712
70.010, 392.262
71.415, 300.450
72.820, 273.136
74.225, 213.814
75.630, 152.635
77.034, 120.699
78.438, 95.541
79.842, 24.477
81.246, 40.518
82.649, 16.666
84.053, 33.915
85.455, 21.749
86.858, 33.336
88.260, 0.141
89.663, 15.320
91.065, 8.718
92.466, 10.054
93.868, 14.668
95.269, 22.445
96.670, 33.269
98.070, 79.133
99.471, 78.031
100.871, 84.951
102.271, 112.887
103.670, 150.835
105.070, 139.794
106.469, 197.763
107.868, 209.747
109.267, 242.761
110.665, 302.825
112.063, 413.032
113.461, 453.397
114.859, 597.857
116.256, 782.356
117.653, 1055.898
119.050, 1443.467
120.447, 2253.039
121.843, 3367.587
123.240, 5045.107
124.636, 6665.601
126.031, 8406.065
127.427, 8524.509
128.822, 7006.932
130.217, 5126.410
131.612, 3321.964
133.006, 2357.568
134.400, 1703.213
135.794, 1334.890
137.188, 1173.590
138.581, 1101.304
139.975, 1016.025
141.368, 1025.743
142.760, 960.447
144.153, 923.132
145.545, 930.797
146.937, 887.437
148.329, 841.037
149.720, 814.595
151.112, 745.067
152.503, 767.464
153.893, 650.793
155.284, 653.083
156.674, 614.351
158.064, 650.605
159.454, 655.851
160.843, 630.091
162.233, 695.327
163.622, 707.558
165.011, 797.785
166.399, 891.081
167.787, 904.699
169.175, 973.326
170.563, 1040.301
171.951, 1159.183
173.338, 1211.084
174.725, 1328.641
176.112, 1418.797
177.499, 1618.443
178.885, 1753.840
180.271, 1930.153
181.657, 2110.200
183.043, 2319.852
184.428, 2651.050
185.813, 2885.205
187.198, 3281.724
188.583, 3801.975
189.967, 4133.670
191.351, 4877.518
192.735, 5383.634
194.119, 6141.673
195.502, 6855.515
196.885, 7545.347
198.268, 8379.175
199.651, 8926.003
201.033, 9865.826
202.415, 10185.650
203.797, 10685.468
205.179, 10655.283
206.561, 10345.098
207.942, 10434.979
209.323, 9595.203
210.703, 9137.164
212.084, 8343.732
213.464, 7643.152
214.844, 7098.421
216.224, 6051.652
217.603, 5566.685
218.983, 4836.658
220.362, 4405.496
221.741, 3966.221
223.119, 3477.831
224.497, 3254.312
225.875, 2842.652
227.253, 2715.865
228.631, 2367.969
230.008, 2139.960
231.385, 2069.810
232.762, 1836.533
234.139, 1708.980
235.515, 1539.275
236.891, 1467.432
238.267, 1270.537
239.643, 1244.618
241.018, 1175.687
242.393, 1048.614
243.768, 1078.421
245.143, 986.136
246.517, 956.160
247.891, 872.446
249.265, 850.386
250.639, 809.638
252.012, 738.704
253.386, 713.564
254.759, 673.622
256.131, 643.226
257.504, 604.284
258.876, 580.297
260.248, 558.412
261.620, 541.667
262.991, 538.072
264.363, 480.832
265.734, 432.592
267.104, 317.385
268.475, 303.299
269.845, 230.375
271.215, 266.409
272.585, 220.497
273.955, 184.584
275.324, 149.669
276.693, 166.752
278.062, 121.833
279.431, 142.912
280.799, 98.987
282.167, 96.058
283.535, 79.125
284.903, 49.189
286.270, 63.247
287.638, 58.301
289.005, 48.351
290.371, 15.396
291.738, 25.436
293.104, 48.472
294.470, 8.504
295.836, 33.530
297.201, 10.448
298.567, 8.567
299.932, 29.423
301.296, 30.428
302.661, 6.448
304.025, 23.476
305.389, 8.517
306.753, 23.567
308.117, 6.630
309.480, 14.701
310.843, 2.783
312.206, 7.129
313.569, 15.966
314.931, 12.930
316.293, 8.820
317.655, 19.294
319.017, 5.582
320.378, 1.547
321.740, 3.681
323.101, 11.820
324.461, 5.033
325.822, 9.118
327.182, 6.724
328.542, 2.438
329.902, 20.395
331.261, 12.224
332.621, 4.952
333.980, 44.866
335.339, 44.681
336.697, 40.489
338.056, 62.290
339.414, 70.074
340.772, 75.839
342.129, 144.590
343.487, 171.328
344.844, 241.061
346.201, 291.787
347.557, 504.510
348.914, 751.223
350.270, 1235.928
351.626, 1928.624
352.982, 2732.319
354.337, 3373.008
355.693, 2881.697
357.048, 2004.384
358.402, 1046.072
359.757, 577.760
361.111, 334.446
362.465, 149.132
363.819, 89.816
365.173, 46.500
366.526, 26.182
367.879, 1.862
369.232, 12.460
370.585, 17.787
371.937, 32.121
373.290, 24.467
374.642, 18.503
375.993, 21.220
377.345, 18.373
378.696, 25.954
380.047, 64.378
381.398, 50.082
382.748, 111.631
384.099, 141.170
385.449, 148.700
386.799, 283.222
388.148, 415.736
389.497, 778.242
390.847, 1346.741
392.196, 2057.234
393.544, 2360.721
394.893, 1924.203
396.241, 1171.680
397.589, 705.153
398.936, 411.623
400.284, 316.091
401.631, 213.556
402.978, 193.020
404.325, 162.481
405.672, 153.941
407.018, 135.400
408.364, 120.858
409.710, 126.318
411.055, 118.780
412.401, 134.245
413.746, 127.711
415.091, 149.187
416.435, 193.679
417.780, 218.180
419.124, 213.690
420.468, 205.207
421.812, 219.732
423.155, 237.260
424.498, 273.788
425.842, 306.318
427.184, 310.846
428.527, 363.374
429.869, 353.902
431.211, 407.432
432.553, 494.960
433.895, 509.488
435.236, 583.018
436.577, 645.546
437.918, 739.072
439.259, 845.596
440.599, 935.118
441.940, 1133.638
443.280, 1295.156
444.619, 1551.674
445.959, 1867.139
447.298, 2281.485
448.637, 2799.893
449.976, 3309.281
451.315, 4003.627
452.653, 4853.839
453.991, 6300.091
455.329, 8338.438
456.667, 11372.604
458.004, 16291.894
459.341, 22360.982
460.678, 31490.154
462.015, 40127.395
463.352, 46034.594
464.688, 47993.320
466.024, 41670.965
467.360, 34029.543
468.695, 25827.172
470.031, 19075.895
471.366, 14694.130
472.701, 11053.070
474.035, 9082.245
475.370, 7243.380
476.704, 6131.593
478.038, 5312.788
479.372, 4445.729
480.705, 4048.903
482.038, 3498.923
483.371, 3111.842
484.704, 2868.272
486.037, 2518.451
487.369, 2400.060
488.701, 2145.278
490.033, 2036.276
491.365, 1794.540
492.696, 1682.799
494.027, 1581.994
495.358, 1439.921
496.689, 1472.300
498.019, 1371.498
499.350, 1238.970
500.680, 1307.838
502.009, 1169.087
503.339, 1179.484
504.668, 1066.920
505.997, 956.968
507.326, 936.878
508.655, 857.599
509.983, 831.074
511.311, 758.591
512.639, 701.229
513.967, 752.750
515.295, 683.394
516.622, 708.867
517.949, 648.205
519.276, 607.683
520.602, 610.199
521.929, 530.670
523.255, 569.140
524.581, 539.610
525.906, 526.010
527.232, 469.327
528.557, 455.543
529.882, 448.114
531.207, 399.354
532.531, 414.700
533.855, 403.532
535.179, 407.744
536.503, 407.792
537.827, 393.089
539.150, 345.420
540.473, 360.885
541.796, 305.321
543.119, 318.787
544.441, 335.254
545.764, 268.720
547.086, 305.187
548.407, 298.654
549.729, 272.121
551.050, 241.589
552.371, 229.056
553.692, 214.525
555.013, 195.937
556.333, 153.463
557.653, 163.932
558.973, 157.402
560.293, 133.880
561.612, 150.351
562.932, 102.822
564.251, 110.294
565.569, 121.767
566.888, 134.240
568.206, 148.713
569.524, 143.468
570.842, 115.661
572.160, 121.136
573.477, 114.612
574.795, 83.478
576.112, 81.740
577.428, 102.555
578.745, 102.060
580.061, 70.766
581.377, 96.271
582.693, 84.748
584.009, 90.267
585.324, 113.743
586.639, 64.250
587.954, 105.835
589.269, 71.209
590.583, 80.839
591.897, 106.417
593.212, 62.027
594.525, 102.612
595.839, 93.088
597.152, 77.585
598.465, 98.061
599.778, 50.580
601.091, 85.138
602.403, 66.074
603.716, 61.584
605.028, 58.786
606.339, 47.085
607.651, 53.595
608.962, 32.078
610.273, 40.183
611.584, 32.660
612.895, 26.166
614.205, 49.266
615.515, 11.745
616.825, 13.323
618.135, 71.190
619.444, 10.670
620.754, 11.174
622.063, 4.677
623.372, 7.212
624.680, 29.722
625.989, 28.244
627.297, 6.766
628.605, 3.290
629.912, 31.819
631.220, 20.351
632.527, 26.110
633.834, 35.422
635.141, 25.962
636.447, 19.502
637.754, 24.048
639.060, 17.997
640.366, 29.145
641.671, 17.696
642.977, 21.252
644.282, 24.809
645.587, 6.369
646.892, 30.930
648.196, 9.492
649.501, 3.055
650.805, 5.381
652.109, 9.978
653.412, 7.738
654.716, 14.705
656.019, 3.844
657.322, 6.607
658.625, 13.063
659.927, 15.526
661.230, 31.998
662.532, 9.484
663.834, 6.976
665.135, 3.472
666.437, 24.028
667.738, 2.528
669.039, 18.964
670.340, 1.534
671.640, 18.970
672.940, 19.519
674.241, 13.992
675.540, 11.488
676.840, 1.968
678.139, 27.452
679.439, 44.936
680.738, 53.420
682.036, 38.902
683.335, 71.385
684.633, 64.867
685.931, 112.350
687.229, 174.836
688.527, 251.328
689.824, 243.828
691.121, 429.334
692.418, 455.846
693.715, 590.364
695.012, 603.881
696.308, 589.399
697.604, 502.915
698.900, 397.431
700.195, 258.947
701.491, 217.461
702.786, 145.976
704.081, 103.490
705.376, 100.006
706.670, 55.521
707.964, 84.036
709.259, 44.550
710.552, 42.065
711.846, 29.579
713.139, 32.098
714.433, 30.617
715.726, 13.135
717.018, 43.652
718.311, 35.168
719.603, 21.683
720.895, 34.198
722.187, 47.711
723.479, 40.223
724.770, 44.308
726.061, 31.250
727.352, 24.765
728.643, 28.279
729.934, 3.208
731.224, 9.699
732.514, 2.199
733.804, 9.297
735.094, 0.208
736.383, 9.443
737.672, 16.086
738.961, 6.262
740.250, 28.750
741.539, 9.236
742.827, 2.721
744.115, 10.796
745.403, 1.678
746.691, 3.149
747.978, 14.383
749.265, 3.075
750.552, 25.530
751.839, 11.984
753.126, 23.436
754.412, 6.888
755.698, 4.338
756.984, 3.214
758.270, 9.228
759.555, 23.331
760.840, 8.906
762.125, 9.510
763.410, 15.924
764.695, 5.662
765.979, 26.744
767.263, 11.150
768.547, 5.447
769.831, 46.950
771.114, 2.654
772.398, 9.080
773.681, 34.469
774.964, 13.854
776.246, 16.240
777.529, 9.598
778.811, 39.965
780.093, 15.347
781.375, 61.727
782.656, 42.087
783.937, 71.432
785.219, 53.808
786.499, 70.131
787.780, 76.065
789.060, 102.926
790.341, 93.295
791.621, 119.663
792.901, 142.030
794.180, 151.395
795.459, 154.925
796.739, 122.119
798.017, 134.479
799.296, 128.838
800.575, 96.172
801.853, 101.527
803.131, 98.870
804.409, 72.185
805.686, 118.223
806.964, 86.005
808.241, 137.333
809.518, 75.826
810.795, 71.134
812.071, 92.119
813.347, 72.690
814.623, 105.114
815.899, 53.448
817.175, 96.218
818.450, 65.142
819.726, 48.236
821.001, 67.573
822.275, 66.059
823.550, 70.230
824.824, 95.525
826.098, 66.643
827.372, 31.973
828.646, 60.447
829.920, 54.769
831.193, 68.453
832.466, 65.799
833.739, 80.122
835.011, 79.264
836.284, 88.791
837.556, 76.110
838.828, 71.428
840.100, 59.745
841.371, 59.060
842.642, 50.387
843.914, 67.700
845.184, 90.010
846.455, 81.352
847.726, 93.659
848.996, 88.781
850.266, 89.292
851.536, 81.595
852.805, 78.900
854.075, 90.200
855.344, 80.660
856.613, 74.242
857.881, 92.887
859.150, 54.218
860.418, 41.572
861.686, 37.328
862.954, 29.099
864.222, 52.762
865.489, 49.594
866.756, 69.879
868.023, 105.162
869.290, 79.437
870.557, 90.717
871.823, 69.995
873.089, 66.272
874.355, 84.547
875.621, 40.820
876.886, 24.092
878.152, 83.594
879.417, 35.863
880.682, 61.130
881.946, 43.487
883.211, 115.360
884.475, 120.836
885.739, 104.757
887.003, 69.988
888.266, 103.016
889.530, 110.244
890.793, 108.497
892.056, 85.708
893.318, 106.960
894.581, 66.180
895.843, 103.321
897.105, 77.671
898.367, 54.764
899.629, 134.907
900.890, 58.016
902.152, 109.150
903.413, 100.391
904.673, 102.610
905.934, 104.848
907.194, 58.042
908.454, 72.196
909.714, 76.970
910.974, 99.170
912.234, 134.676
913.493, 100.084
914.752, 97.281
916.011, 122.503
917.270, 76.104
918.528, 94.333
919.786, 102.532
921.044, 87.137
922.302, 123.363
923.560, 100.137
924.817, 136.329
926.074, 108.556
927.331, 96.767
928.588, 114.987
929.844, 48.178
931.101, 72.402
932.357, 85.616
933.613, 31.838
934.868, 88.060
936.124, 59.281
937.379, 83.502
938.634, 111.722
939.889, 99.941
941.144, 39.160
942.398, 52.378
943.652, 18.595
944.906, 66.812
946.160, 68.027
947.414, 43.243
948.667, 47.458
949.920, 47.672
951.173, 46.885
952.426, 67.098
953.678, 46.311
954.931, 29.523
956.183, 47.734
957.435, 73.947
958.686, 39.162
959.938, 60.376
961.189, 63.594
962.440, 0.812
963.691, 36.030
964.941, 32.442
966.192, 14.333
967.442, 24.911
968.692, 7.137
969.942, 48.365
971.191, 19.594
972.441, 34.178
973.690, 24.031
974.939, 9.245
976.187, 14.542
977.436, 39.667
978.684, 8.876
979.932, 16.089
981.180, 21.700
982.428, 6.500
983.675, 34.699
984.922, 17.897
986.169, 5.095
987.416, 29.292
988.663, 25.488
989.909, 33.685
991.155, 21.880
992.401, 8.076
993.647, 14.271
994.893, 12.466
996.138, 3.661
997.383, 28.855
998.628, 6.050
999.873, 21.246
1001.117, 31.443
1002.362, 10.647
1003.606, 14.851
1004.850, 1.945
1006.093, 8.258
1007.337, 9.539
1008.580, 2.658
1009.823, 0.146
1011.066, 12.050
1012.308, 4.754
1013.551, 28.440
1014.793, 24.367
1016.035, 57.815
1017.277, 18.997
1018.518, 27.178
1019.760, 24.360
1021.001, 24.541
1022.242, 34.722
1023.483, 65.903
1024.723, 34.083
1025.964, 59.263
1027.204, 19.557
1028.444, 29.611
1029.683, 30.780
1030.923, 1.050
1032.162, 49.118
1033.401, 28.287
1034.640, 29.460
1035.879, 24.635
1037.117, 25.221
1038.355, 14.990
1039.593, 37.174
1040.831, 39.359
1042.069, 46.545
1043.306, 29.732
1044.544, 37.919
1045.781, 38.560
1047.017, 20.303
1048.254, 44.497
1049.490, 49.692
1050.726, 47.892
1051.962, 68.092
1053.198, 45.292
1054.434, 77.492
1055.669, 70.692
1056.904, 67.892
1058.139, 122.093
1059.374, 83.295
1060.608, 120.498
1061.843, 169.707
1063.077, 191.933
1064.311, 207.158
1065.544, 152.386
1066.778, 172.616
1068.011, 153.847
1069.244, 154.077
1070.477, 128.310
1071.710, 92.543
1072.942, 117.777
1074.174, 146.011
1075.406, 112.245
1076.638, 151.479
1077.870, 221.712
1079.101, 232.945
1080.332, 261.177
1081.563, 241.410
1082.794, 219.642
1084.025, 144.874
1085.255, 131.109
1086.485, 103.344
1087.715, 68.578
1088.945, 62.813
1090.175, 57.047
1091.404, 83.281
1092.633, 58.514
1093.862, 70.747
1095.091, 79.979
1096.319, 44.211
1097.548, 65.443
1098.776, 60.674
1100.004, 53.905
1101.231, 52.135
1102.459, 74.423
1103.686, 50.653
1104.913, 21.882
1106.140, 54.111
1107.367, 55.339
1108.593, 21.567
1109.819, 41.795
1111.046, 54.982
1112.271, 18.792
1113.497, 51.424
1114.722, 9.689
1115.948, 15.903
1117.173, 32.098
1118.398, 23.311
1119.622, 105.534
1120.847, 86.552
1122.071, 71.763
1123.295, 32.963
1124.519, 18.215
1125.742, 37.423
1126.966, 77.649
1128.189, 39.857
1129.412, 52.718
1130.635, 39.904
1131.857, 22.110
1133.080, 58.315
1134.302, 74.493
1135.524, 62.728
1136.746, 112.971
1137.967, 110.174
1139.188, 119.470
1140.410, 132.658
1141.631, 126.912
1142.851, 135.262
1144.072, 207.487
1145.292, 193.761
1146.512, 244.642
1147.732, 266.865
1148.952, 374.093
1150.172, 387.285
1151.391, 501.548
1152.610, 685.870
1153.829, 801.161
1155.048, 1118.797
1156.266, 1380.958
1157.484, 1732.277
1158.702, 1849.572
1159.920, 1628.598
1161.138, 1416.995
1162.356, 1106.946
1163.573, 759.263
1164.790, 615.543
1166.007, 439.808
1167.224, 375.025
1168.440, 267.248
1169.656, 213.424
1170.872, 185.599
1172.088, 149.773
1173.304, 99.946
1174.519, 139.886
1175.735, 91.440
1176.950, 68.609
1178.165, 117.778
1179.379, 77.979
1180.594, 82.144
1181.808, 64.428
1183.022, 58.103
1184.236, 81.475
1185.449, 74.799
1186.663, 22.569
1187.876, 38.830
1189.089, 46.396
1190.302, 25.589
1191.515, 35.270
1192.727, 61.508
1193.939, 33.713
1195.151, 62.943
1196.363, 43.090
1197.575, 83.325
1198.786, 37.523
1199.997, 32.772
1201.208, 50.959
1202.419, 64.161
1203.630, 95.297
1204.840, 40.556
1206.051, 47.688
1207.261, 41.909
1208.470, 55.983
1209.680, 56.178
1210.889, 71.833
1212.099, 96.022
1213.308, 84.308
1214.516, 78.478
1215.725, 46.593
1216.933, 91.706
1218.142, 37.828
1219.350, 82.033
1220.557, 84.139
1221.765, 77.245
1222.972, 65.383
1224.180, 78.483
1225.387, 52.624
1226.593, 87.805
1227.800, 53.907
1229.006, 85.148
1230.213, 69.079
1231.419, 75.177
1232.624, 107.261
1233.830, 93.448
1235.035, 114.627
1236.241, 76.703
1237.446, 35.827
1238.650, 36.910
1239.855, 86.004
1241.059, 50.132
1242.264, 70.202
1243.468, 86.341
1244.671, 42.408
1245.875, 74.475
1247.078, 12.625
1248.282, 62.779
1249.485, 49.842
1250.687, 36.929
1251.890, 78.989
1253.092, 41.141
1254.295, 42.210
1255.497, 77.278
1256.699, 41.333
1257.900, 61.196
1259.102, 31.248
1260.303, 31.313
1261.504, 58.366
1262.705, 40.417
1263.905, 24.462
1265.106, 31.503
1266.306, 30.543
1267.506, 55.580
1268.706, 37.649
1269.905, 46.685
1271.105, 20.797
1272.304, 79.825
1273.503, 13.850
1274.702, 50.890
1275.900, 35.917
1277.099, 35.072
1278.297, 37.093
1279.495, 21.113
1280.693, 19.182
1281.891, 81.194
1283.088, 6.195
1284.285, 52.263
1285.482, 16.252
1286.679, 1.280
1287.876, 15.260
1289.072, 11.236
1290.268, 7.791
1291.464, 23.176
1292.660, 28.861
1293.856, 55.092
1295.051, 13.020
1296.247, 1.058
1297.442, 4.859
1298.637, 13.772
1299.831, 27.685
1301.026, 0.596
1302.220, 5.503
1303.414, 1.405
1304.608, 0.305
1305.802, 1.290
1306.995, 3.083
1308.188, 6.969
1309.381, 9.851
1310.574, 21.098
1311.767, 19.603
1312.960, 37.196
1314.152, 51.339
1315.344, 44.201
1316.536, 43.058
1317.728, 46.911
1318.919, 2.233
1320.110, 50.616
1321.301, 8.461
1322.492, 22.303
1323.683, 32.140
1324.874, 4.974
1326.064, 4.198
1327.254, 0.624
1328.444, 14.561
1329.634, 5.755
1330.823, 7.406
1332.013, 2.352
1333.202, 21.985
1334.391, 4.232
1335.580, 10.545
1336.768, 18.324
1337.956, 11.557
1339.145, 31.862
1340.333, 9.622
1341.520, 18.379
1342.708, 7.132
1343.895, 19.882
1345.083, 15.869
1346.270, 43.370
1347.456, 5.109
1348.643, 31.844
1349.829, 9.540
1351.016, 42.696
1352.202, 15.017
1353.387, 4.226
1354.573, 15.478
1355.759, 2.170
1356.944, 18.917
1358.129, 50.602
1359.314, 36.284
1360.498, 28.964
1361.683, 8.641
1362.867, 35.315
1364.051, 31.030
1365.235, 22.699
1366.419, 44.373
1367.602, 21.036
1368.785, 10.726
1369.968, 29.382
1371.151, 3.073
1372.334, 9.190
1373.517, 28.453
1374.699, 38.142
1375.881, 7.881
1377.063, 8.654
1378.245, 39.882
1379.426, 19.833
1380.608, 29.781
1381.789, 26.726
1382.970, 18.668
1384.150, 41.546
1385.331, 15.480
1386.511, 49.412
1387.691, 41.340
1388.871, 12.265
1390.051, 11.199
1391.231, 72.130
1392.410, 27.046
1393.589, 53.972
1394.768, 10.894
1395.947, 30.781
1397.126, 30.630
1398.304, 59.543
1399.483, 50.451
1400.661, 71.275
1401.838, 27.064
1403.016, 37.898
1404.194, 37.537
1405.371, 45.460
1406.548, 29.762
1407.725, 50.522
1408.901, 37.852
1410.078, 23.592
1411.254, 50.034
1412.430, 12.369
1413.606, 48.591
1414.782, 57.154
1415.958, 28.847
1417.133, 49.651
1418.308, 5.452
1419.483, 33.709
1420.658, 46.367
1421.832, 19.104
1423.007, 47.961
1424.181, 67.692
1425.355, 11.358
1426.529, 97.401
1427.702, 17.167
1428.876, 49.652
1430.049, 54.202
1431.222, 31.631
1432.395, 36.130
1433.567, 36.602
1434.740, 30.122
1435.912, 31.681
1437.084, 53.245
1438.256, 32.436
1439.428, 83.000
1440.599, 46.367
1441.770, 44.915
1442.942, 63.394
1444.112, 39.690
1445.283, 76.917
1446.454, 58.776
1447.624, 60.056
1448.794, 59.333
1449.964, 69.676
1451.134, 43.957
1452.303, 47.229
1453.473, 74.629
1454.642, 54.623
1455.811, 76.917
1456.980, 88.030
1458.148, 90.275
1459.317, 64.547
1460.485, 33.726
1461.653, 33.950
1462.821, 52.177
1463.989, 22.432
1465.156, 65.584
1466.323, 28.604
1467.490, 24.790
1468.657, 77.617
1469.824, 55.781
1470.991, 7.226
1472.157, 82.740
1473.323, 34.799
1474.489, 67.989
1475.655, 57.161
1476.820, 15.315
1477.986, 15.604
1479.151, 44.903
1480.316, 40.190
1481.481, 20.465
1482.645, 62.763
1483.810, 18.086
1484.974, 48.409
1486.138, 25.730
1487.302, 31.061
1488.465, 43.402
1489.629, 17.748
1490.792, 35.104
1491.955, 25.470
1493.118, 5.859
1494.281, 34.282
1495.443, 22.527
1496.606, 1.908
1497.768, 51.260
1498.930, 50.629
1500.091, 47.048
1501.253, 29.478
1502.414, 28.917
1503.575, 6.366
1504.736, 45.824
1505.897, 14.761
1507.058, 50.287
1508.218, 10.155
1509.379, 22.786
1510.539, 10.455
1511.698, 1.241
1512.858, 27.670
1514.018, 10.362
1515.177, 0.958
1516.336, 0.163
1517.495, 0.000
##END=



