##NAMES=Quartz
##RRUFFID=R050125
##IDEAL CHEMISTRY=SiO_2_
##LOCALITY=Linopolis, Minas Gerais, Brazil
##OWNER=RRUFF
##SOURCE=Carlos and Paulo Vasconcelos
##DESCRIPTION=Pale pink group of single crystals, variety rose quartz
##STATUS=The identification of this mineral has been confirmed by X-ray diffraction and chemical analysis
##URL=rruff.info/R050125
##MEASURED CHEMISTRY=Si_1.00_O_2_
##PIN_ID=L00315
##ORIENTATION=Laser parallel to a* (1 0 0). Fiducial mark perpendicular to laser is parallel to c [0 0 1]
47.490, 0.000
48.899, 0.634
50.308, 37.848
51.717, 10.775
53.126, 43.037
54.534, 44.715
55.942, 79.056
57.350, 100.290
58.758, 87.190
60.165, 118.979
61.572, 142.285
62.979, 152.262
64.386, 170.173
65.792, 186.283
67.198, 125.935
68.604, 129.024
70.010, 147.979
71.415, 190.090
72.820, 234.434
74.225, 244.930
75.630, 189.269
77.034, 166.758
78.438, 159.321
79.842, 137.955
81.246, 147.671
82.649, 121.473
84.053, 135.353
85.455, 74.301
86.858, 45.307
88.260, 14.365
89.663, 33.471
91.065, 16.372
92.466, 19.833
93.868, 8.080
95.269, 10.633
96.670, 25.310
98.070, 0.956
99.471, 16.574
100.871, 18.834
102.271, 2.262
103.670, 33.706
105.070, 74.165
106.469, 133.638
107.868, 280.123
109.267, 330.865
110.665, 348.816
112.063, 508.783
113.461, 390.559
114.859, 465.435
116.256, 602.361
117.653, 795.295
119.050, 1191.230
120.447, 1781.151
121.843, 2658.058
123.240, 4036.951
124.636, 5374.832
126.031, 6800.701
127.427, 7110.559
128.822, 5988.406
130.217, 4561.268
131.612, 3023.221
133.006, 2153.223
134.400, 1584.231
135.794, 1294.240
137.188, 1086.251
138.581, 1029.261
139.975, 981.270
141.368, 940.277
142.760, 965.280
144.153, 917.277
145.545, 910.265
146.937, 886.245
148.329, 872.218
149.720, 789.183
151.112, 734.142
152.503, 704.092
153.893, 683.013
155.284, 680.918
156.674, 627.782
158.064, 608.619
159.454, 657.450
160.843, 670.280
162.233, 766.109
163.622, 734.936
165.011, 851.762
166.399, 858.588
167.787, 983.413
169.175, 1014.237
170.563, 1086.137
171.951, 1206.445
173.338, 1290.259
174.725, 1430.135
176.112, 1529.830
177.499, 1661.828
178.885, 1903.184
180.271, 2032.510
181.657, 2254.750
183.043, 2480.275
184.428, 2801.055
185.813, 3092.506
187.198, 3495.263
188.583, 3996.480
189.967, 4406.153
191.351, 5132.821
192.735, 5744.441
194.119, 6502.063
195.502, 7222.688
196.885, 7954.314
198.268, 9042.939
199.651, 9486.568
201.033, 10376.193
202.415, 10845.822
203.797, 11175.454
205.179, 11195.082
206.561, 11014.714
207.942, 11014.350
209.323, 10274.044
210.703, 9893.962
212.084, 8996.243
213.464, 8269.879
214.844, 7477.419
216.224, 6578.203
217.603, 5974.822
218.983, 5294.983
220.362, 4773.142
221.741, 4241.291
223.119, 3732.426
224.497, 3487.548
225.875, 3107.654
227.253, 2863.736
228.631, 2529.790
230.008, 2308.823
231.385, 2130.840
232.762, 1963.842
234.139, 1815.833
235.515, 1676.797
236.891, 1555.699
238.267, 1441.586
239.643, 1344.382
241.018, 1260.141
242.393, 1166.898
243.768, 1099.255
245.143, 1044.073
246.517, 988.203
247.891, 955.983
249.265, 941.767
250.639, 899.555
252.012, 791.347
253.386, 801.125
254.759, 727.715
256.131, 710.458
257.504, 712.675
258.876, 679.355
260.248, 682.915
261.620, 687.575
262.991, 694.339
264.363, 635.656
265.734, 512.016
267.104, 465.739
268.475, 422.273
269.845, 325.073
271.215, 264.901
272.585, 236.730
273.955, 235.561
275.324, 218.393
276.693, 199.656
278.062, 174.061
279.431, 163.896
280.799, 130.731
282.167, 111.565
283.535, 95.398
284.903, 97.231
286.270, 70.064
287.638, 84.896
289.005, 40.728
290.371, 70.560
291.738, 13.391
293.104, 46.222
294.470, 1.947
295.836, 10.882
297.201, 19.290
298.567, 2.530
299.932, 7.651
301.296, 6.836
302.661, 13.975
304.025, 25.215
305.389, 20.414
306.753, 22.621
308.117, 28.836
309.480, 4.060
310.843, 10.287
312.206, 16.519
313.569, 16.242
314.931, 4.997
316.293, 13.239
317.655, 12.514
319.017, 5.266
320.378, 3.983
321.740, 1.234
323.101, 9.514
324.461, 9.261
325.822, 19.008
327.182, 5.245
328.542, 26.500
329.902, 11.244
331.261, 11.989
332.621, 30.733
333.980, 27.480
335.339, 33.230
336.697, 29.977
338.056, 68.716
339.414, 86.454
340.772, 115.189
342.129, 151.909
343.487, 137.614
344.844, 259.315
346.201, 352.015
347.557, 598.712
348.914, 908.413
350.270, 1398.117
351.626, 2077.828
352.982, 2848.543
354.337, 3441.258
355.693, 3002.979
357.048, 2090.703
358.402, 1279.435
359.757, 801.168
361.111, 459.903
362.465, 267.638
363.819, 165.375
365.173, 69.112
366.526, 7.851
367.879, 11.590
369.232, 6.330
370.585, 2.929
371.937, 19.188
373.290, 5.452
374.642, 27.719
375.993, 35.001
377.345, 20.309
378.696, 27.631
380.047, 6.968
381.398, 31.688
382.748, 48.344
384.099, 72.998
385.449, 92.652
386.799, 199.304
388.148, 343.956
389.497, 603.606
390.847, 992.256
392.196, 1409.905
393.544, 1629.553
394.893, 1273.202
396.241, 899.849
397.589, 685.496
398.936, 661.143
400.284, 689.790
401.631, 728.437
402.978, 686.084
404.325, 515.732
405.672, 331.381
407.018, 235.031
408.364, 147.682
409.710, 192.332
411.055, 145.984
412.401, 165.638
413.746, 169.292
415.091, 184.947
416.435, 191.303
417.780, 196.263
419.124, 205.925
420.468, 222.594
421.812, 237.266
423.155, 291.940
424.498, 266.619
425.842, 354.310
427.184, 323.003
428.527, 396.704
429.869, 406.405
431.211, 444.109
432.553, 517.812
433.895, 562.517
435.236, 636.222
436.577, 686.928
437.918, 764.633
439.259, 922.339
440.599, 1001.046
441.940, 1170.753
443.280, 1392.465
444.619, 1626.178
445.959, 1963.891
447.298, 2337.608
448.637, 2849.325
449.976, 3444.042
451.315, 4266.762
452.653, 5351.484
453.991, 6964.146
455.329, 9323.870
456.667, 12823.225
458.004, 18162.885
459.341, 24831.160
460.678, 33800.762
462.015, 42619.781
463.352, 48078.844
464.688, 50368.527
466.024, 43816.434
467.360, 36144.664
468.695, 27932.756
470.031, 20650.449
471.366, 16279.718
472.701, 12038.596
474.035, 9947.087
475.370, 7989.783
476.704, 6681.005
478.038, 5780.717
479.372, 4871.402
480.705, 4358.061
482.038, 3783.366
483.371, 3358.849
484.704, 3160.531
486.037, 2770.213
487.369, 2591.938
488.701, 2389.188
490.033, 2224.931
491.365, 2032.628
492.696, 1850.331
494.027, 1758.590
495.358, 1640.988
496.689, 1616.735
498.019, 1543.562
499.350, 1542.063
500.680, 1533.077
502.009, 1417.794
503.339, 1388.336
504.668, 1275.019
505.997, 1234.841
507.326, 1134.616
508.655, 1026.406
509.983, 954.337
511.311, 919.975
512.639, 834.562
513.967, 830.326
515.295, 764.573
516.622, 743.334
517.949, 718.929
519.276, 713.691
520.602, 677.453
521.929, 653.990
523.255, 589.979
524.581, 593.742
525.906, 532.506
527.232, 500.232
528.557, 476.975
529.882, 499.698
531.207, 469.230
532.531, 486.747
533.855, 435.129
535.179, 446.117
536.503, 425.652
537.827, 394.114
539.150, 396.121
540.473, 366.431
541.796, 347.204
543.119, 384.977
544.441, 344.752
545.764, 336.527
547.086, 302.304
548.407, 325.082
549.729, 326.861
551.050, 248.642
552.371, 256.423
553.692, 212.206
555.013, 246.989
556.333, 202.774
557.653, 165.560
558.973, 163.346
560.293, 148.134
561.612, 171.924
562.932, 165.714
564.251, 138.505
565.569, 138.368
566.888, 109.161
568.206, 161.956
569.524, 138.751
570.842, 124.858
572.160, 139.707
573.477, 109.506
574.795, 102.536
576.112, 97.408
577.428, 110.767
578.745, 112.570
580.061, 108.666
581.377, 118.485
582.693, 86.290
584.009, 81.687
585.324, 92.521
586.639, 111.328
587.954, 96.144
589.269, 122.990
590.583, 110.810
591.897, 123.688
593.212, 109.497
594.525, 131.319
595.839, 91.130
597.152, 105.941
598.465, 97.773
599.778, 93.585
601.091, 82.583
602.403, 78.709
603.716, 55.231
605.028, 69.780
606.339, 52.610
607.651, 49.424
608.962, 51.777
610.273, 37.607
611.584, 48.423
612.895, 47.240
614.205, 43.056
615.515, 38.013
616.825, 26.832
618.135, 34.677
619.444, 35.504
620.754, 54.335
622.063, 61.183
623.372, 41.018
624.680, 33.860
625.989, 6.710
627.297, 28.566
628.605, 13.432
629.912, 37.301
631.220, 40.173
632.527, 34.052
633.834, 44.930
635.141, 2.811
636.447, 19.697
637.754, 11.583
639.060, 25.470
640.366, 18.359
641.671, 18.249
642.977, 30.140
644.282, 18.486
645.587, 25.686
646.892, 8.815
648.196, 17.708
649.501, 20.602
650.805, 8.505
652.109, 10.617
653.412, 10.266
654.716, 0.853
656.019, 11.972
657.322, 4.099
658.625, 15.228
659.927, 12.367
661.230, 14.513
662.532, 16.668
663.834, 15.833
665.135, 16.007
666.437, 18.191
667.738, 29.385
669.039, 12.597
670.340, 5.184
671.640, 23.035
672.940, 16.734
674.241, 28.498
675.540, 24.263
676.840, 18.024
678.139, 19.786
679.439, 36.549
680.738, 38.312
682.036, 60.075
683.335, 79.837
684.633, 84.604
685.931, 118.374
687.229, 127.145
688.527, 172.926
689.824, 227.713
691.121, 319.510
692.418, 401.315
693.715, 491.130
695.012, 508.460
696.308, 557.778
697.604, 482.608
698.900, 394.439
700.195, 280.271
701.491, 248.102
702.786, 176.933
704.081, 137.764
705.376, 113.594
706.670, 79.423
707.964, 68.251
709.259, 55.079
710.552, 37.907
711.846, 23.734
713.139, 16.560
714.433, 51.386
715.726, 40.211
717.018, 46.037
718.311, 13.861
719.603, 9.685
720.895, 1.508
722.187, 22.329
723.479, 13.151
724.770, 17.971
726.061, 2.209
727.352, 2.373
728.643, 19.420
729.934, 0.766
731.224, 2.043
732.514, 5.868
733.804, 11.654
735.094, 1.544
736.383, 7.254
737.672, 26.050
738.961, 6.154
740.250, 4.635
741.539, 18.424
742.827, 9.211
744.115, 3.997
745.403, 8.970
746.691, 2.971
747.978, 15.347
749.265, 9.128
750.552, 22.907
751.839, 44.686
753.126, 7.463
754.412, 24.240
755.698, 14.985
756.984, 15.779
758.270, 7.542
759.555, 7.696
760.840, 9.057
762.125, 16.810
763.410, 4.438
764.695, 9.307
765.979, 13.052
767.263, 25.795
768.547, 24.183
769.831, 2.278
771.114, 23.016
772.398, 8.753
773.681, 14.489
774.964, 18.224
776.246, 9.958
777.529, 21.149
778.811, 35.421
780.093, 37.150
781.375, 38.878
782.656, 50.605
783.937, 60.331
785.219, 40.055
786.499, 65.778
787.780, 46.499
789.060, 102.219
790.341, 135.938
791.621, 128.654
792.901, 162.370
794.180, 194.084
795.459, 202.796
796.739, 212.507
798.017, 191.216
799.296, 233.924
800.575, 222.361
801.853, 181.334
803.131, 232.037
804.409, 235.739
805.686, 247.925
806.964, 325.972
808.241, 314.668
809.518, 297.285
810.795, 230.227
812.071, 241.656
813.347, 149.382
814.623, 141.281
815.899, 134.040
817.175, 136.660
818.450, 109.327
819.726, 86.978
821.001, 107.488
822.275, 115.292
823.550, 96.146
824.824, 74.947
826.098, 76.231
827.372, 58.911
828.646, 62.017
829.920, 83.711
831.193, 82.567
832.466, 94.695
833.739, 81.371
835.011, 88.046
836.284, 87.720
837.556, 104.572
838.828, 93.758
840.100, 65.969
841.371, 86.585
842.642, 82.267
843.914, 108.185
845.184, 110.867
846.455, 97.532
847.726, 112.196
848.996, 80.023
850.266, 97.685
851.536, 113.560
852.805, 93.586
854.075, 89.243
855.344, 89.898
856.613, 94.552
857.881, 88.204
859.150, 84.655
860.418, 77.504
861.686, 74.152
862.954, 78.801
864.222, 83.446
865.489, 51.090
866.756, 76.740
868.023, 62.578
869.290, 23.221
870.557, 45.859
871.823, 74.495
873.089, 57.129
874.355, 72.695
875.621, 72.448
876.886, 85.079
878.152, 67.708
879.417, 79.025
880.682, 70.599
881.946, 73.224
883.211, 90.617
884.475, 103.244
885.739, 81.326
887.003, 100.946
888.266, 99.271
889.530, 93.872
890.793, 124.488
892.056, 90.510
893.318, 63.096
894.581, 92.708
895.843, 107.309
897.105, 103.881
898.367, 99.479
899.629, 108.018
900.890, 119.624
902.152, 126.218
903.413, 112.822
904.673, 92.425
905.934, 80.007
907.194, 96.607
908.454, 100.022
909.714, 117.621
910.974, 103.198
912.234, 101.059
913.493, 91.640
914.752, 98.234
916.011, 110.291
917.270, 104.868
918.528, 112.460
919.786, 147.051
921.044, 88.642
922.302, 131.093
923.560, 111.681
924.817, 80.250
926.074, 125.837
927.331, 113.423
928.588, 74.993
929.844, 60.578
931.101, 44.161
932.357, 96.744
933.613, 33.326
934.868, 74.907
936.124, 80.488
937.379, 44.068
938.634, 65.647
939.889, 47.644
941.144, 56.803
942.398, 39.380
943.652, 45.956
944.906, 60.532
946.160, 29.107
947.414, 60.681
948.667, 48.254
949.920, 23.827
951.173, 51.400
952.426, 60.971
953.678, 47.542
954.931, 66.113
956.183, 63.683
957.435, 51.254
958.686, 45.828
959.938, 52.402
961.189, 48.981
962.440, 37.557
963.691, 42.135
964.941, 51.716
966.192, 25.301
967.442, 11.048
968.692, 24.640
969.942, 8.237
971.191, 11.013
972.441, 25.443
973.690, 11.056
974.939, 1.327
976.187, 0.712
977.436, 14.907
978.684, 35.474
979.932, 3.134
981.180, 2.259
982.428, 6.655
983.675, 16.945
984.922, 9.545
986.169, 24.144
987.416, 18.258
988.663, 7.670
989.909, 8.087
991.155, 30.510
992.401, 4.050
993.647, 35.390
994.893, 3.150
996.138, 14.690
997.383, 12.229
998.628, 2.232
999.873, 38.305
1001.117, 3.158
1002.362, 5.624
1003.606, 20.909
1004.850, 17.441
1006.093, 20.973
1007.337, 16.505
1008.580, 14.650
1009.823, 12.421
1011.066, 12.098
1012.308, 5.629
1013.551, 12.159
1014.793, 10.690
1016.035, 4.220
1017.277, 3.250
1018.518, 5.281
1019.760, 38.812
1021.001, 21.344
1022.242, 19.876
1023.483, 5.408
1024.723, 2.060
1025.964, 15.473
1027.204, 9.009
1028.444, 24.544
1029.683, 35.084
1030.923, 24.624
1032.162, 13.164
1033.401, 1.295
1034.640, 1.246
1035.879, 26.791
1037.117, 20.337
1038.355, 12.884
1039.593, 44.434
1040.831, 35.985
1042.069, 56.537
1043.306, 26.091
1044.544, 42.644
1045.781, 23.197
1047.017, 27.751
1048.254, 56.304
1049.490, 46.858
1050.726, 44.412
1051.962, 52.966
1053.198, 57.520
1054.434, 56.074
1055.669, 75.628
1056.904, 68.183
1058.139, 100.742
1059.374, 124.302
1060.608, 116.863
1061.843, 198.426
1063.077, 183.994
1064.311, 178.561
1065.544, 213.131
1066.778, 135.703
1068.011, 159.274
1069.244, 114.845
1070.477, 120.417
1071.710, 144.990
1072.942, 138.562
1074.174, 120.135
1075.406, 145.708
1076.638, 167.281
1077.870, 271.855
1079.101, 249.432
1080.332, 256.010
1081.563, 256.589
1082.794, 190.167
1084.025, 180.749
1085.255, 118.331
1086.485, 88.913
1087.715, 100.495
1088.945, 85.078
1090.175, 88.660
1091.404, 56.243
1092.633, 52.826
1093.862, 60.410
1095.091, 84.993
1096.319, 44.577
1097.548, 54.160
1098.776, 22.744
1100.004, 15.327
1101.231, 45.912
1102.459, 23.496
1103.686, 47.082
1104.913, 15.667
1106.140, 56.252
1107.367, 52.837
1108.593, 5.422
1109.819, 26.007
1111.046, 39.593
1112.271, 21.178
1113.497, 41.763
1114.722, 3.652
1115.948, 27.932
1117.173, 40.517
1118.398, 49.101
1119.622, 68.731
1120.847, 58.316
1122.071, 41.900
1123.295, 55.359
1124.519, 38.853
1125.742, 33.437
1126.966, 29.761
1128.189, 28.329
1129.412, 31.552
1130.635, 33.982
1131.857, 43.462
1133.080, 47.051
1134.302, 56.642
1135.524, 68.054
1136.746, 75.131
1137.967, 64.182
1139.188, 87.827
1140.410, 109.406
1141.631, 100.747
1142.851, 138.322
1144.072, 131.915
1145.292, 179.508
1146.512, 198.936
1147.732, 236.568
1148.952, 293.946
1150.172, 378.688
1151.391, 486.575
1152.610, 624.887
1153.829, 767.481
1155.048, 973.076
1156.266, 1160.670
1157.484, 1273.282
1158.702, 1348.893
1159.920, 1160.507
1161.138, 955.192
1162.356, 788.787
1163.573, 542.424
1164.790, 445.356
1166.007, 304.389
1167.224, 228.984
1168.440, 203.641
1169.656, 149.235
1170.872, 144.878
1172.088, 117.905
1173.304, 74.152
1174.519, 96.746
1175.735, 55.001
1176.950, 50.601
1178.165, 64.195
1179.379, 40.816
1180.594, 47.333
1181.808, 79.499
1183.022, 24.162
1184.236, 53.754
1185.449, 41.115
1186.663, 58.707
1187.876, 66.298
1189.089, 53.956
1190.302, 39.562
1191.515, 67.212
1192.727, 35.823
1193.939, 68.432
1195.151, 50.035
1196.363, 67.626
1197.575, 67.216
1198.786, 49.803
1199.997, 40.419
1201.208, 26.039
1202.419, 57.694
1203.630, 56.279
1204.840, 72.970
1206.051, 40.640
1207.261, 61.223
1208.470, 39.640
1209.680, 41.221
1210.889, 63.026
1212.099, 64.706
1213.308, 68.192
1214.516, 75.999
1215.725, 67.629
1216.933, 96.206
1218.142, 94.782
1219.350, 102.394
1220.557, 149.008
1221.765, 156.680
1222.972, 237.252
1224.180, 214.906
1225.387, 230.524
1226.593, 212.136
1227.800, 222.821
1229.006, 213.505
1230.213, 248.717
1231.419, 200.337
1232.624, 193.930
1233.830, 200.530
1235.035, 152.186
1236.241, 148.744
1237.446, 96.440
1238.650, 102.044
1239.855, 112.602
1241.059, 91.228
1242.264, 103.786
1243.468, 83.345
1244.671, 71.958
1245.875, 83.676
1247.078, 58.303
1248.282, 69.952
1249.485, 105.510
1250.687, 53.069
1251.890, 65.627
1253.092, 70.185
1254.295, 47.839
1255.497, 78.396
1256.699, 63.954
1257.900, 65.513
1259.102, 44.071
1260.303, 57.564
1261.504, 54.305
1262.705, 32.862
1263.905, 3.431
1265.106, 71.006
1266.306, 44.559
1267.506, 51.125
1268.706, 67.866
1269.905, 22.419
1271.105, 52.015
1272.304, 48.593
1273.503, 19.149
1274.702, 24.060
1275.900, 35.618
1277.099, 21.224
1278.297, 41.155
1279.495, 29.699
1280.693, 30.322
1281.891, 29.906
1283.088, 34.450
1284.285, 30.806
1285.482, 34.430
1286.679, 22.109
1287.876, 39.927
1289.072, 29.484
1290.268, 33.040
1291.464, 9.595
1292.660, 34.149
1293.856, 7.298
1295.051, 31.248
1296.247, 16.791
1297.442, 31.384
1298.637, 21.927
1299.831, 22.419
1301.026, 16.001
1302.220, 16.528
1303.414, 15.053
1304.608, 1.570
1305.802, 25.084
1306.995, 8.597
1308.188, 6.893
1309.381, 5.386
1310.574, 24.116
1311.767, 6.617
1312.960, 24.115
1314.152, 9.609
1315.344, 6.898
1316.536, 8.409
1317.728, 26.075
1318.919, 8.443
1320.110, 21.033
1321.301, 30.505
1322.492, 15.975
1323.683, 31.442
1324.874, 7.094
1326.064, 6.363
1327.254, 26.803
1328.444, 9.761
1329.634, 24.665
1330.823, 26.098
1332.013, 7.516
1333.202, 19.932
1334.391, 9.340
1335.580, 18.746
1336.768, 19.148
1337.956, 20.394
1339.145, 23.485
1340.333, 23.332
1341.520, 24.720
1342.708, 17.129
1343.895, 16.813
1345.083, 8.191
1346.270, 48.565
1347.456, 3.935
1348.643, 6.302
1349.829, 31.664
1351.016, 9.978
1352.202, 40.373
1353.387, 0.153
1354.573, 5.190
1355.759, 20.529
1356.944, 3.888
1358.129, 13.220
1359.314, 36.573
1360.498, 32.940
1361.683, 17.252
1362.867, 16.590
1364.051, 5.895
1365.235, 31.235
1366.419, 13.475
1367.602, 14.819
1368.785, 16.216
1369.968, 4.507
1371.151, 8.227
1372.334, 28.016
1373.517, 13.257
1374.699, 19.541
1375.881, 17.724
1377.063, 6.915
1378.245, 41.935
1379.426, 3.498
1380.608, 16.060
1381.789, 55.620
1382.970, 11.181
1384.150, 28.739
1385.331, 56.295
1386.511, 14.851
1387.691, 3.406
1388.871, 11.960
1390.051, 9.513
1391.231, 29.066
1392.410, 28.567
1393.589, 36.118
1394.768, 41.666
1395.947, 9.213
1397.126, 30.759
1398.304, 57.291
1399.483, 29.819
1400.661, 53.344
1401.838, 10.868
1403.016, 4.390
1404.194, 49.910
1405.371, 28.427
1406.548, 26.893
1407.725, 51.753
1408.901, 28.242
1410.078, 4.746
1411.254, 56.203
1412.430, 21.553
1413.606, 27.981
1414.782, 53.158
1415.958, 15.447
1417.133, 57.960
1418.308, 16.749
1419.483, 0.731
1420.658, 57.703
1421.832, 13.103
1423.007, 20.571
1424.181, 71.856
1425.355, 47.267
1426.529, 77.551
1427.702, 53.832
1428.876, 1.182
1430.049, 55.575
1431.222, 71.930
1432.395, 34.161
1433.567, 66.382
1434.740, 59.630
1435.912, 35.606
1437.084, 45.421
1438.256, 16.545
1439.428, 28.339
1440.599, 42.098
1441.770, 44.199
1442.942, 58.543
1444.112, 64.690
1445.283, 27.325
1446.454, 44.505
1447.624, 38.658
1448.794, 62.752
1449.964, 61.656
1451.134, 27.775
1452.303, 62.021
1453.473, 67.791
1454.642, 56.654
1455.811, 82.841
1456.980, 71.018
1458.148, 63.945
1459.317, 67.081
1460.485, 45.974
1461.653, 51.620
1462.821, 76.614
1463.989, 39.646
1465.156, 62.196
1466.323, 80.049
1467.490, 29.346
1468.657, 99.119
1469.824, 45.958
1470.991, 19.535
1472.157, 69.449
1473.323, 30.340
1474.489, 56.374
1475.655, 26.188
1476.820, 49.978
1477.986, 44.783
1479.151, 40.369
1480.316, 29.120
1481.481, 55.903
1482.645, 14.710
1483.810, 2.509
1484.974, 54.255
1486.138, 24.991
1487.302, 25.712
1488.465, 24.398
1489.629, 28.054
1490.792, 38.695
1491.955, 68.311
1493.118, 0.008
1494.281, 71.770
1495.443, 21.503
1496.606, 13.316
1497.768, 25.148
1498.930, 12.985
1500.091, 8.833
1501.253, 46.984
1502.414, 9.641
1503.575, 26.281
1504.736, 6.911
1505.897, 28.091
1507.058, 12.521
1508.218, 0.465
1509.379, 8.648
1510.539, 12.284
1511.698, 19.308
1512.858, 12.665
1514.018, 0.013
1515.177, 28.916
1516.336, 0.003
1517.495, 0.000
##END=



