##NAMES=Quartz
##RRUFFID=R050125
##IDEAL CHEMISTRY=SiO_2_
##LOCALITY=Linopolis, Minas Gerais, Brazil
##OWNER=RRUFF
##SOURCE=Carlos and Paulo Vasconcelos
##DESCRIPTION=Pale pink group of single crystals, variety rose quartz
##STATUS=The identification of this mineral has been confirmed by X-ray diffraction and chemical analysis
##URL=rruff.info/R050125
##MEASURED CHEMISTRY=Si_1.00_O_2_
##PIN_ID=L00315
##ORIENTATION=Laser parallel to a* (1 0 0). Fiducial mark perpendicular to laser is parallel to c [0 0 1]
47.490, 0.000
48.899, 56.264
50.308, 58.994
51.717, 50.645
53.126, 102.598
54.534, 160.026
55.942, 184.671
57.350, 255.408
58.758, 241.114
60.165, 244.628
61.572, 209.457
62.979, 233.533
64.386, 231.014
65.792, 235.705
67.198, 257.609
68.604, 250.160
70.010, 250.564
71.415, 208.021
72.820, 206.309
74.225, 200.343
75.630, 205.820
77.034, 135.458
78.438, 73.243
79.842, 74.132
81.246, 34.119
82.649, 29.200
84.053, 34.388
85.455, 1.298
86.858, 30.871
88.260, 44.345
89.663, 20.733
91.065, 8.039
92.466, 0.265
93.868, 20.585
95.269, 15.506
96.670, 34.490
98.070, 56.529
99.471, 59.617
100.871, 75.740
102.271, 61.890
103.670, 67.065
105.070, 115.262
106.469, 153.479
107.868, 348.717
109.267, 510.973
110.665, 372.248
112.063, 289.544
113.461, 238.870
114.859, 219.241
116.256, 229.647
117.653, 187.119
119.050, 230.795
120.447, 299.749
121.843, 366.864
123.240, 477.972
124.636, 525.054
126.031, 583.724
127.427, 707.149
128.822, 642.164
130.217, 623.161
131.612, 588.159
133.006, 661.216
134.400, 694.324
135.794, 739.474
137.188, 887.657
138.581, 969.861
139.975, 1057.080
141.368, 1130.302
142.760, 1174.525
144.153, 1170.717
145.545, 1216.902
146.937, 1207.065
148.329, 1164.196
149.720, 1149.289
151.112, 1023.315
152.503, 1042.229
153.893, 951.082
155.284, 950.904
156.674, 889.708
158.064, 930.502
159.454, 982.288
160.843, 1017.072
162.233, 1048.859
163.622, 1081.649
165.011, 1162.442
166.399, 1291.238
167.787, 1391.038
169.175, 1458.842
170.563, 1547.649
171.951, 1727.459
173.338, 1821.273
174.725, 2051.171
176.112, 2160.192
177.499, 2388.214
178.885, 2652.552
180.271, 2857.102
181.657, 3250.222
183.043, 3500.280
184.428, 4016.187
185.813, 4425.258
187.198, 4939.974
188.583, 5686.952
189.967, 6308.275
191.351, 7403.925
192.735, 8160.088
194.119, 9239.345
195.502, 10369.689
196.885, 11378.278
198.268, 12896.802
199.651, 13565.332
201.033, 14823.872
202.415, 15522.419
203.797, 16190.974
205.179, 16269.534
206.561, 15998.098
207.942, 16046.670
209.323, 14875.247
210.703, 14333.830
212.084, 13122.419
213.464, 12201.013
214.844, 11082.009
216.224, 9822.987
217.603, 8869.895
218.983, 7808.706
220.362, 7196.402
221.741, 6367.979
223.119, 5730.434
224.497, 5250.758
225.875, 4732.928
227.253, 4392.963
228.631, 3898.886
230.008, 3556.679
231.385, 3304.337
232.762, 2963.868
234.139, 2817.160
235.515, 2566.187
236.891, 2417.097
238.267, 2189.937
239.643, 2097.752
241.018, 2016.547
242.393, 1813.363
243.768, 1830.912
245.143, 1674.115
246.517, 1627.359
247.891, 1538.199
249.265, 1493.006
250.639, 1390.943
252.012, 1330.400
253.386, 1292.114
254.759, 1190.528
256.131, 1147.489
257.504, 1086.307
258.876, 986.671
260.248, 1034.654
261.620, 941.586
262.991, 871.810
264.363, 849.250
265.734, 780.736
267.104, 716.343
268.475, 583.887
269.845, 519.484
271.215, 473.295
272.585, 458.278
273.955, 391.265
275.324, 341.258
276.693, 299.256
278.062, 273.259
279.431, 281.267
280.799, 237.279
282.167, 261.296
283.535, 218.317
284.903, 156.342
286.270, 203.368
287.638, 178.396
289.005, 164.424
290.371, 132.455
291.738, 78.487
293.104, 120.520
294.470, 63.555
295.836, 79.593
297.201, 86.632
298.567, 44.672
299.932, 33.714
301.296, 13.757
302.661, 39.801
304.025, 16.846
305.389, 33.891
306.753, 22.937
308.117, 3.017
309.480, 16.029
310.843, 6.924
312.206, 1.122
313.569, 25.168
314.931, 16.215
316.293, 15.264
317.655, 8.685
319.017, 4.634
320.378, 3.418
321.740, 16.528
323.101, 5.474
324.461, 5.419
325.822, 30.362
327.182, 45.311
328.542, 46.269
329.902, 63.235
331.261, 47.215
332.621, 69.205
333.980, 34.209
335.339, 36.219
336.697, 56.235
338.056, 31.260
339.414, 16.290
340.772, 15.309
342.129, 20.678
343.487, 18.665
344.844, 100.651
346.201, 160.651
347.557, 418.658
348.914, 775.678
350.270, 1437.698
351.626, 2340.725
352.982, 3623.737
354.337, 4736.725
355.693, 4588.686
357.048, 3584.630
358.402, 2458.562
359.757, 1644.490
361.111, 1162.428
362.465, 835.371
363.819, 651.318
365.173, 445.269
366.526, 381.226
367.879, 328.186
369.232, 254.151
370.585, 233.121
371.937, 172.095
373.290, 212.074
374.642, 138.057
375.993, 132.044
377.345, 133.036
378.696, 112.022
380.047, 97.003
381.398, 88.979
382.748, 83.549
384.099, 82.875
385.449, 85.879
386.799, 90.839
388.148, 95.795
389.497, 101.750
390.847, 110.703
392.196, 107.656
393.544, 148.607
394.893, 138.559
396.241, 151.512
397.589, 141.466
398.936, 152.423
400.284, 122.389
401.631, 155.361
402.978, 170.340
404.325, 172.323
405.672, 148.310
407.018, 161.302
408.364, 177.303
409.710, 163.312
411.055, 207.333
412.401, 226.366
413.746, 237.407
415.091, 264.959
416.435, 299.532
417.780, 284.627
419.124, 319.737
420.468, 298.860
421.812, 373.994
423.155, 392.138
424.498, 427.291
425.842, 472.450
427.184, 495.615
428.527, 512.785
429.869, 553.966
431.211, 606.151
432.553, 705.342
433.895, 773.191
435.236, 872.735
436.577, 978.939
437.918, 1070.146
439.259, 1224.358
440.599, 1358.576
441.940, 1654.799
443.280, 1833.024
444.619, 2179.253
445.959, 2617.485
447.298, 3123.719
448.637, 3761.956
449.976, 4502.195
451.315, 5629.438
452.653, 7050.682
453.991, 9269.930
455.329, 12309.182
456.667, 16908.438
458.004, 24017.693
459.341, 32386.951
460.678, 44206.203
462.015, 55435.414
463.352, 62624.555
464.688, 64273.809
466.024, 56742.957
467.360, 46702.195
468.695, 35731.387
470.031, 26700.346
471.366, 20689.521
472.701, 15558.336
474.035, 12677.441
475.370, 10076.670
476.704, 8591.869
478.038, 7385.068
479.372, 6139.833
480.705, 5574.775
482.038, 4805.940
483.371, 4232.649
484.704, 3972.573
486.037, 3455.506
487.369, 3295.088
488.701, 2963.742
490.033, 2744.346
491.365, 2591.895
492.696, 2366.461
494.027, 2195.656
495.358, 2066.060
496.689, 1977.349
498.019, 1968.109
499.350, 1917.734
500.680, 1931.974
502.009, 1835.428
503.339, 1760.762
504.668, 1661.086
505.997, 1532.190
507.326, 1410.889
508.655, 1291.635
509.983, 1243.660
511.311, 1053.917
512.639, 1014.462
513.967, 1007.173
515.295, 905.361
516.622, 888.748
517.949, 841.338
519.276, 843.731
520.602, 836.340
521.929, 750.756
523.255, 689.161
524.581, 698.566
525.906, 668.973
527.232, 635.383
528.557, 627.796
529.882, 595.664
531.207, 524.630
532.531, 544.063
533.855, 525.486
535.179, 490.914
536.503, 535.343
537.827, 462.774
539.150, 482.208
540.473, 482.644
541.796, 445.084
543.119, 435.525
544.441, 395.970
545.764, 405.417
547.086, 404.867
548.407, 401.319
549.729, 392.774
551.050, 337.232
552.371, 322.692
553.692, 279.173
555.013, 280.639
556.333, 278.119
557.653, 256.620
558.973, 217.229
560.293, 230.255
561.612, 203.451
562.932, 199.949
564.251, 153.441
565.569, 210.927
566.888, 178.175
568.206, 183.858
569.524, 140.260
570.842, 173.770
572.160, 185.265
573.477, 174.785
574.795, 207.284
576.112, 187.785
577.428, 161.287
578.745, 178.791
580.061, 166.296
581.377, 150.795
582.693, 189.303
584.009, 172.956
585.324, 158.466
586.639, 132.978
587.954, 169.833
589.269, 159.346
590.583, 187.966
591.897, 171.489
593.212, 185.074
594.525, 170.284
595.839, 171.842
597.152, 148.436
598.465, 147.102
599.778, 141.738
601.091, 157.258
602.403, 135.779
603.716, 101.300
605.028, 152.822
606.339, 91.345
607.651, 101.868
608.962, 91.391
610.273, 73.915
611.584, 68.439
612.895, 80.963
614.205, 118.488
615.515, 49.013
616.825, 75.538
618.135, 104.063
619.444, 37.589
620.754, 60.115
622.063, 61.642
623.372, 93.169
624.680, 38.697
625.989, 85.225
627.297, 18.754
628.605, 29.284
629.912, 44.815
631.220, 59.348
632.527, 58.326
633.834, 32.417
635.141, 43.951
636.447, 50.487
637.754, 21.024
639.060, 56.564
640.366, 5.896
641.671, 44.645
642.977, 55.188
644.282, 33.732
645.587, 48.284
646.892, 43.848
648.196, 54.424
649.501, 14.015
650.805, 32.619
652.109, 8.240
653.412, 25.870
654.716, 11.492
656.019, 15.154
657.322, 43.194
658.625, 29.561
659.927, 5.057
661.230, 11.676
662.532, 42.706
663.834, 20.113
665.135, 52.533
666.437, 8.983
667.738, 28.440
669.039, 16.913
670.340, 19.399
671.640, 10.897
672.940, 15.601
674.241, 32.902
675.540, 14.574
676.840, 16.951
678.139, 5.512
679.439, 8.974
680.738, 20.437
682.036, 20.897
683.335, 24.629
684.633, 11.817
685.931, 24.275
687.229, 15.732
688.527, 8.190
689.824, 24.647
691.121, 11.102
692.418, 51.556
693.715, 26.012
695.012, 56.469
696.308, 62.924
697.604, 34.378
698.900, 35.830
700.195, 35.283
701.491, 31.734
702.786, 40.184
704.081, 32.974
705.376, 22.079
706.670, 30.524
707.964, 23.629
709.259, 9.415
710.552, 21.858
711.846, 11.299
713.139, 7.744
714.433, 12.811
715.726, 3.379
717.018, 5.953
718.311, 10.464
719.603, 12.880
720.895, 31.293
722.187, 6.295
723.479, 3.108
724.770, 8.493
726.061, 10.105
727.352, 19.273
728.643, 10.649
729.934, 33.023
731.224, 34.395
732.514, 23.765
733.804, 20.134
735.094, 29.500
736.383, 9.135
737.672, 18.218
738.961, 5.570
740.250, 42.919
741.539, 29.265
742.827, 14.390
744.115, 17.940
745.403, 7.269
746.691, 15.594
747.978, 8.918
749.265, 3.761
750.552, 10.551
751.839, 8.861
753.126, 10.832
754.412, 7.463
755.698, 33.755
756.984, 49.044
758.270, 23.332
759.555, 40.617
760.840, 39.901
762.125, 21.183
763.410, 31.462
764.695, 32.740
765.979, 42.566
767.263, 39.278
768.547, 58.560
769.831, 50.830
771.114, 22.097
772.398, 66.363
773.681, 25.626
774.964, 52.887
776.246, 41.147
777.529, 73.404
778.811, 54.659
780.093, 59.912
781.375, 68.163
782.656, 83.412
783.937, 76.659
785.219, 93.904
786.499, 117.146
787.780, 98.387
789.060, 131.626
790.341, 149.862
791.621, 158.096
792.901, 192.328
794.180, 188.558
795.459, 195.484
796.739, 228.710
798.017, 232.934
799.296, 250.155
800.575, 239.374
801.853, 250.591
803.131, 278.806
804.409, 332.018
805.686, 367.228
806.964, 398.435
808.241, 388.250
809.518, 394.128
810.795, 330.327
812.071, 280.797
813.347, 226.109
814.623, 221.295
815.899, 192.332
817.175, 180.932
818.450, 163.785
819.726, 164.591
821.001, 144.120
822.275, 130.639
823.550, 108.650
824.824, 102.822
826.098, 132.800
827.372, 103.973
828.646, 136.944
829.920, 161.114
831.193, 142.070
832.466, 149.219
833.739, 142.658
835.011, 122.822
836.284, 142.984
837.556, 146.196
838.828, 165.356
840.100, 135.518
841.371, 141.153
842.642, 114.297
843.914, 172.452
845.184, 91.603
846.455, 135.420
847.726, 171.987
848.996, 141.136
850.266, 162.283
851.536, 159.429
852.805, 138.891
854.075, 152.034
855.344, 118.176
856.613, 120.316
857.881, 152.455
859.150, 122.593
860.418, 149.199
861.686, 123.341
862.954, 119.456
864.222, 128.589
865.489, 112.992
866.756, 142.442
868.023, 108.434
869.290, 99.011
870.557, 99.419
871.823, 75.525
873.089, 75.639
874.355, 132.766
875.621, 90.130
876.886, 115.062
878.152, 128.276
879.417, 53.383
880.682, 139.505
881.946, 144.609
883.211, 130.735
884.475, 97.860
885.739, 110.984
887.003, 153.107
888.266, 158.230
889.530, 171.359
890.793, 159.480
892.056, 149.457
893.318, 180.577
894.581, 181.696
895.843, 127.471
897.105, 113.589
898.367, 126.609
899.629, 147.726
900.890, 138.780
902.152, 155.210
903.413, 93.293
904.673, 104.340
905.934, 85.316
907.194, 129.322
908.454, 109.444
909.714, 136.566
910.974, 125.687
912.234, 118.808
913.493, 104.929
914.752, 129.051
916.011, 136.171
917.270, 114.292
918.528, 157.413
919.786, 141.533
921.044, 124.654
922.302, 121.774
923.560, 146.895
924.817, 143.015
926.074, 143.135
927.331, 106.256
928.588, 101.173
929.844, 79.497
931.101, 81.617
932.357, 54.738
933.613, 79.858
934.868, 52.979
936.124, 98.100
937.379, 47.221
938.634, 98.342
939.889, 42.463
941.144, 24.584
942.398, 58.706
943.652, 8.828
944.906, 52.950
946.160, 0.072
947.414, 81.196
948.667, 53.320
949.920, 44.445
951.173, 19.569
952.426, 25.694
953.678, 49.819
954.931, 44.945
956.183, 42.071
957.435, 35.197
958.686, 29.323
959.938, 36.450
961.189, 48.581
962.440, 21.712
963.691, 34.856
964.941, 13.008
966.192, 24.161
967.442, 3.314
968.692, 15.479
969.942, 10.651
971.191, 20.839
972.441, 6.970
973.690, 15.227
974.939, 12.481
976.187, 19.309
977.436, 11.897
978.684, 16.104
979.932, 33.321
981.180, 18.539
982.428, 21.749
983.675, 8.013
984.922, 4.210
986.169, 16.433
987.416, 2.343
988.663, 0.880
989.909, 0.105
991.155, 11.670
992.401, 9.552
993.647, 2.774
994.893, 21.998
996.138, 14.778
997.383, 10.559
998.628, 5.656
999.873, 15.873
1001.117, 9.090
1002.362, 8.691
1003.606, 2.525
1004.850, 2.742
1006.093, 4.960
1007.337, 2.179
1008.580, 1.398
1009.823, 11.382
1011.066, 0.165
1012.308, 18.052
1013.551, 16.270
1014.793, 24.510
1016.035, 9.299
1017.277, 1.911
1018.518, 13.126
1019.760, 23.181
1021.001, 26.569
1022.242, 31.794
1023.483, 32.229
1024.723, 17.456
1025.964, 43.686
1027.204, 20.920
1028.444, 63.159
1029.683, 58.409
1030.923, 36.949
1032.162, 39.200
1033.401, 46.452
1034.640, 7.705
1035.879, 46.974
1037.117, 41.234
1038.355, 63.491
1039.593, 75.762
1040.831, 43.033
1042.069, 45.306
1043.306, 45.584
1044.544, 54.860
1045.781, 76.143
1047.017, 65.162
1048.254, 66.450
1049.490, 93.739
1050.726, 93.036
1051.962, 111.338
1053.198, 121.640
1054.434, 109.943
1055.669, 98.252
1056.904, 94.578
1058.139, 115.943
1059.374, 135.993
1060.608, 179.527
1061.843, 200.840
1063.077, 246.163
1064.311, 268.487
1065.544, 279.811
1066.778, 324.136
1068.011, 360.462
1069.244, 365.788
1070.477, 384.115
1071.710, 479.443
1072.942, 642.772
1074.174, 829.102
1075.406, 1151.432
1076.638, 1532.763
1077.870, 2155.095
1079.101, 2478.427
1080.332, 2619.759
1081.563, 2254.092
1082.794, 1650.425
1084.025, 1289.763
1085.255, 860.100
1086.485, 693.440
1087.715, 558.779
1088.945, 374.120
1090.175, 362.461
1091.404, 312.802
1092.633, 215.144
1093.862, 232.486
1095.091, 187.824
1096.319, 156.167
1097.548, 157.510
1098.776, 143.854
1100.004, 114.198
1101.231, 125.542
1102.459, 106.887
1103.686, 98.407
1104.913, 83.577
1106.140, 88.922
1107.367, 84.269
1108.593, 95.615
1109.819, 90.906
1111.046, 72.308
1112.271, 73.655
1113.497, 81.002
1114.722, 45.350
1115.948, 54.698
1117.173, 64.047
1118.398, 48.397
1119.622, 94.753
1120.847, 82.888
1122.071, 0.245
1123.295, 58.602
1124.519, 46.024
1125.742, 36.380
1126.966, 51.738
1128.189, 19.095
1129.412, 46.453
1130.635, 50.815
1131.857, 42.900
1133.080, 40.262
1134.302, 15.624
1135.524, 24.935
1136.746, 38.297
1137.967, 12.654
1139.188, 18.606
1140.410, 40.006
1141.631, 23.366
1142.851, 43.786
1144.072, 66.481
1145.292, 21.422
1146.512, 8.781
1147.732, 29.143
1148.952, 47.645
1150.172, 68.692
1151.391, 70.049
1152.610, 115.405
1153.829, 97.760
1155.048, 128.115
1156.266, 129.469
1157.484, 145.353
1158.702, 140.525
1159.920, 105.188
1161.138, 108.539
1162.356, 81.199
1163.573, 36.198
1164.790, 65.548
1166.007, 19.047
1167.224, 39.395
1168.440, 31.743
1169.656, 18.843
1170.872, 39.493
1172.088, 26.841
1173.304, 13.420
1174.519, 19.754
1175.735, 19.384
1176.950, 19.284
1178.165, 47.036
1179.379, 37.388
1180.594, 14.705
1181.808, 7.488
1183.022, 9.881
1184.236, 26.210
1185.449, 30.372
1186.663, 29.683
1187.876, 53.993
1189.089, 12.726
1190.302, 24.033
1191.515, 42.494
1192.727, 24.590
1193.939, 37.698
1195.151, 59.094
1196.363, 26.131
1197.575, 36.414
1198.786, 26.727
1199.997, 49.007
1201.208, 31.285
1202.419, 13.599
1203.630, 13.874
1204.840, 64.175
1206.051, 21.520
1207.261, 59.790
1208.470, 30.303
1209.680, 49.623
1210.889, 42.919
1212.099, 69.181
1213.308, 75.440
1214.516, 44.698
1215.725, 47.098
1216.933, 84.352
1218.142, 22.877
1219.350, 52.127
1220.557, 78.374
1221.765, 46.676
1222.972, 73.944
1224.180, 87.185
1225.387, 40.445
1226.593, 78.682
1227.800, 67.916
1229.006, 116.962
1230.213, 85.192
1231.419, 58.706
1232.624, 62.933
1233.830, 98.158
1235.035, 50.489
1236.241, 82.711
1237.446, 53.932
1238.650, 60.152
1239.855, 95.371
1241.059, 39.589
1242.264, 91.807
1243.468, 48.023
1244.671, 38.238
1245.875, 76.453
1247.078, 89.666
1248.282, 41.878
1249.485, 79.090
1250.687, 27.300
1251.890, 79.519
1253.092, 107.727
1254.295, 72.934
1255.497, 45.139
1256.699, 73.344
1257.900, 62.556
1259.102, 84.758
1260.303, 43.958
1261.504, 84.579
1262.705, 68.776
1263.905, 24.971
1265.106, 61.917
1266.306, 79.109
1267.506, 79.251
1268.706, 99.441
1269.905, 53.633
1271.105, 29.189
1272.304, 42.374
1273.503, 29.557
1274.702, 53.002
1275.900, 48.182
1277.099, 31.360
1278.297, 79.528
1279.495, 54.695
1280.693, 46.857
1281.891, 82.018
1283.088, 17.164
1284.285, 21.309
1285.482, 37.450
1286.679, 18.585
1287.876, 30.706
1289.072, 40.827
1290.268, 31.949
1291.464, 30.068
1292.660, 12.185
1293.856, 29.283
1295.051, 31.379
1296.247, 43.474
1297.442, 46.565
1298.637, 52.425
1299.831, 44.991
1301.026, 51.818
1302.220, 37.900
1303.414, 12.980
1304.608, 39.050
1305.802, 0.115
1306.995, 76.179
1308.188, 33.243
1309.381, 12.304
1310.574, 76.362
1311.767, 59.418
1312.960, 18.471
1314.152, 36.311
1315.344, 27.358
1316.536, 7.402
1317.728, 30.442
1318.919, 11.521
1320.110, 43.503
1321.301, 47.234
1322.492, 21.233
1323.683, 37.228
1324.874, 1.214
1326.064, 15.182
1327.254, 25.139
1328.444, 20.904
1329.634, 40.041
1330.823, 52.981
1332.013, 1.917
1333.202, 53.844
1334.391, 9.771
1335.580, 1.308
1336.768, 53.875
1337.956, 10.787
1339.145, 20.306
1340.333, 49.590
1341.520, 18.483
1342.708, 27.371
1343.895, 34.504
1345.083, 17.385
1346.270, 47.247
1347.456, 19.198
1348.643, 13.067
1349.829, 63.931
1351.016, 28.208
1352.202, 14.640
1353.387, 17.486
1354.573, 49.329
1355.759, 43.171
1356.944, 28.011
1358.129, 7.850
1359.314, 42.687
1360.498, 3.523
1361.683, 54.347
1362.867, 81.167
1364.051, 12.986
1365.235, 17.805
1366.419, 32.625
1367.602, 18.445
1368.785, 54.267
1369.968, 51.093
1371.151, 6.077
1372.334, 49.757
1373.517, 2.601
1374.699, 26.460
1375.881, 22.342
1377.063, 8.266
1378.245, 61.380
1379.426, 66.492
1380.608, 50.602
1381.789, 42.710
1382.970, 29.816
1384.150, 34.920
1385.331, 60.021
1386.511, 26.121
1387.691, 69.218
1388.871, 83.313
1390.051, 35.405
1391.231, 44.492
1392.410, 66.561
1393.589, 20.626
1394.768, 49.688
1395.947, 29.745
1397.126, 43.792
1398.304, 34.830
1399.483, 20.865
1400.661, 70.898
1401.838, 52.794
1403.016, 0.746
1404.194, 77.767
1405.371, 49.782
1406.548, 20.393
1407.725, 67.621
1408.901, 28.633
1410.078, 34.643
1411.254, 84.471
1412.430, 1.685
1413.606, 68.679
1414.782, 78.467
1415.958, 12.636
1417.133, 47.346
1418.308, 35.998
1419.483, 31.134
1420.658, 99.072
1421.832, 21.373
1423.007, 47.211
1424.181, 61.406
1425.355, 43.701
1426.529, 94.392
1427.702, 49.375
1428.876, 32.367
1430.049, 110.215
1431.222, 64.114
1432.395, 86.950
1433.567, 102.675
1434.740, 92.762
1435.912, 65.452
1437.084, 86.288
1438.256, 51.868
1439.428, 73.207
1440.599, 62.031
1441.770, 52.702
1442.942, 106.483
1444.112, 93.302
1445.283, 34.540
1446.454, 105.766
1447.624, 73.324
1448.794, 96.086
1449.964, 81.835
1451.134, 69.571
1452.303, 73.293
1453.473, 84.000
1454.642, 12.692
1455.811, 72.345
1456.980, 81.006
1458.148, 58.650
1459.317, 108.254
1460.485, 55.825
1461.653, 58.400
1462.821, 132.456
1463.989, 32.895
1465.156, 73.330
1466.323, 52.718
1467.490, 38.529
1468.657, 67.808
1469.824, 73.085
1470.991, 48.374
1472.157, 76.685
1473.323, 51.032
1474.489, 32.390
1475.655, 59.721
1476.820, 35.135
1477.986, 27.530
1479.151, 59.917
1480.316, 52.280
1481.481, 46.640
1482.645, 56.021
1483.810, 7.621
1484.974, 59.707
1486.138, 53.005
1487.302, 3.727
1488.465, 44.510
1489.629, 31.760
1490.792, 59.188
1491.955, 87.664
1493.118, 29.329
1494.281, 46.031
1495.443, 62.772
1496.606, 14.556
1497.768, 34.383
1498.930, 49.264
1500.091, 7.212
1501.253, 46.045
1502.414, 41.117
1503.575, 19.119
1504.736, 41.224
1505.897, 23.414
1507.058, 70.688
1508.218, 31.052
1509.379, 0.315
1510.539, 57.897
1511.698, 55.531
1512.858, 49.827
1514.018, 42.072
1515.177, 39.000
1516.336, 0.000
##END=



