##NAMES=Quartz
##RRUFFID=R050125
##IDEAL CHEMISTRY=SiO_2_
##LOCALITY=Linopolis, Minas Gerais, Brazil
##OWNER=RRUFF
##SOURCE=Carlos and Paulo Vasconcelos
##DESCRIPTION=Pale pink group of single crystals, variety rose quartz
##STATUS=The identification of this mineral has been confirmed by X-ray diffraction and chemical analysis
##URL=rruff.info/R050125
##MEASURED CHEMISTRY=Si_1.00_O_2_
##PIN_ID=L00315
##ORIENTATION=Laser parallel to a* (1 0 0). Fiducial mark perpendicular to laser is parallel to c [0 0 1]
47.490, 0.000
48.899, 15.519
50.308, 0.229
51.717, 25.517
53.126, 68.309
54.534, 123.996
55.942, 190.452
57.350, 218.129
58.758, 254.535
60.165, 364.258
61.572, 433.885
62.979, 484.804
64.386, 519.759
65.792, 512.452
67.198, 434.203
68.604, 415.723
70.010, 454.248
71.415, 525.922
72.820, 530.837
74.225, 512.032
75.630, 491.176
77.034, 411.906
78.438, 329.401
79.842, 291.983
81.246, 210.656
82.649, 183.426
84.053, 128.306
85.455, 79.296
86.858, 61.379
88.260, 2.541
89.663, 0.231
91.065, 19.941
92.466, 1.411
93.868, 41.179
95.269, 29.715
96.670, 3.797
98.070, 12.351
99.471, 5.941
100.871, 15.559
102.271, 50.193
103.670, 69.837
105.070, 128.488
106.469, 266.145
107.868, 486.807
109.267, 538.694
110.665, 598.134
112.063, 752.967
113.461, 662.879
114.859, 792.876
116.256, 955.932
117.653, 1225.120
119.050, 1769.495
120.447, 2792.987
121.843, 4157.514
123.240, 6201.999
124.636, 8266.437
126.031, 10520.828
127.427, 11081.181
128.822, 9291.493
130.217, 7101.771
131.612, 4592.045
133.006, 3189.374
134.400, 2291.749
135.794, 1800.156
137.188, 1483.588
138.581, 1324.035
139.975, 1279.490
141.368, 1262.949
142.760, 1170.401
144.153, 1125.836
145.545, 1098.248
146.937, 1034.639
148.329, 979.009
149.720, 967.355
151.112, 891.667
152.503, 887.915
153.893, 764.078
155.284, 760.132
156.674, 715.122
158.064, 708.067
159.454, 739.986
160.843, 734.892
162.233, 819.793
163.622, 837.688
165.011, 913.577
166.399, 981.462
167.787, 1071.341
169.175, 1074.214
170.563, 1141.605
171.951, 1277.158
173.338, 1360.718
174.725, 1534.713
176.112, 1668.981
177.499, 1812.097
178.885, 2024.639
180.271, 2197.969
181.657, 2455.274
183.043, 2736.144
184.428, 2993.368
185.813, 3419.652
187.198, 3814.790
188.583, 4362.654
189.967, 4917.625
191.351, 5634.626
192.735, 6270.919
194.119, 7001.610
195.502, 7924.483
196.885, 8717.823
198.268, 9857.150
199.651, 10346.474
201.033, 11435.798
202.415, 11735.122
203.797, 12424.443
205.179, 12773.762
206.561, 12173.082
207.942, 12052.398
209.323, 11471.711
210.703, 10961.072
212.084, 10000.573
213.464, 9200.209
214.844, 8482.337
216.224, 7416.425
217.603, 6734.461
218.983, 5912.335
220.362, 5271.083
221.741, 4808.598
223.119, 4231.975
224.497, 3975.256
225.875, 3474.423
227.253, 3285.458
228.631, 2920.374
230.008, 2665.192
231.385, 2474.927
232.762, 2209.577
234.139, 2103.121
235.515, 1901.484
236.891, 1809.654
238.267, 1661.565
239.643, 1570.387
241.018, 1536.139
242.393, 1379.863
243.768, 1422.586
245.143, 1258.313
246.517, 1249.045
247.891, 1229.780
249.265, 1211.414
250.639, 1221.829
252.012, 1155.942
253.386, 1217.921
254.759, 1261.724
256.131, 1426.407
257.504, 1714.897
258.876, 2106.768
260.248, 2643.007
261.620, 3149.004
262.991, 3570.113
264.363, 3586.520
265.734, 3073.775
267.104, 2326.296
268.475, 1567.316
269.845, 1080.510
271.215, 761.023
272.585, 627.762
273.955, 472.499
275.324, 435.236
276.693, 334.971
278.062, 292.704
279.431, 274.435
280.799, 208.163
282.167, 200.888
283.535, 162.609
284.903, 136.325
286.270, 164.036
287.638, 110.742
289.005, 110.443
290.371, 68.138
291.738, 57.828
293.104, 35.513
294.470, 56.192
295.836, 48.865
297.201, 35.533
298.567, 28.196
299.932, 13.148
301.296, 24.497
302.661, 4.865
304.025, 26.235
305.389, 2.380
306.753, 34.012
308.117, 10.579
309.480, 2.163
310.843, 6.260
312.206, 6.692
313.569, 1.874
314.931, 0.567
316.293, 1.985
317.655, 12.530
319.017, 21.930
320.378, 7.401
321.740, 15.880
323.101, 47.368
324.461, 28.873
325.822, 25.390
327.182, 35.919
328.542, 19.462
329.902, 22.014
331.261, 17.049
332.621, 32.149
333.980, 7.731
335.339, 23.320
336.697, 23.917
338.056, 22.477
339.414, 21.872
340.772, 41.264
342.129, 84.645
343.487, 106.017
344.844, 198.384
346.201, 235.741
347.557, 504.106
348.914, 779.466
350.270, 1236.821
351.626, 1982.162
352.982, 2911.478
354.337, 3624.785
355.693, 3367.081
357.048, 2561.364
358.402, 1621.639
359.757, 1073.910
361.111, 721.181
362.465, 464.452
363.819, 256.723
365.173, 213.993
366.526, 147.263
367.879, 88.531
369.232, 84.800
370.585, 66.067
371.937, 54.334
373.290, 53.600
374.642, 33.864
375.993, 38.126
377.345, 0.385
378.696, 2.631
380.047, 1.863
381.398, 22.080
382.748, 31.286
384.099, 62.480
385.449, 105.664
386.799, 156.839
388.148, 198.004
389.497, 387.161
390.847, 651.310
392.196, 894.451
393.544, 1053.586
394.893, 923.713
396.241, 732.834
397.589, 622.949
398.936, 731.059
400.284, 948.165
401.631, 1098.274
402.978, 1072.379
404.325, 805.481
405.672, 498.581
407.018, 369.679
408.364, 228.774
409.710, 222.867
411.055, 182.958
412.401, 222.048
413.746, 206.136
415.091, 208.225
416.435, 201.314
417.780, 223.409
419.124, 235.510
420.468, 267.623
421.812, 246.741
423.155, 302.875
424.498, 324.023
425.842, 372.175
427.184, 354.330
428.527, 408.488
429.869, 446.649
431.211, 469.810
432.553, 531.971
433.895, 572.130
435.236, 715.286
436.577, 726.441
437.918, 861.594
439.259, 1047.742
440.599, 1165.889
441.940, 1370.033
443.280, 1661.174
444.619, 2086.312
445.959, 2628.448
447.298, 3155.137
448.637, 3944.710
449.976, 4529.837
451.315, 5304.962
452.653, 6260.910
453.991, 7734.815
455.329, 10207.627
456.667, 13656.525
458.004, 19285.414
459.341, 26154.240
460.678, 35743.020
462.015, 45020.785
463.352, 51139.562
464.688, 53447.910
466.024, 46984.883
467.360, 38633.500
468.695, 30009.984
470.031, 22448.664
471.366, 17497.281
472.701, 13275.549
474.035, 10745.243
475.370, 8713.954
476.704, 7230.493
478.038, 6363.222
479.372, 5380.934
480.705, 4836.235
482.038, 4220.472
483.371, 3725.210
484.704, 3507.933
486.037, 3034.009
487.369, 2854.180
488.701, 2655.663
490.033, 2433.187
491.365, 2261.609
492.696, 2092.384
494.027, 2016.723
495.358, 1814.371
496.689, 1718.797
498.019, 1659.320
499.350, 1697.364
500.680, 1758.848
502.009, 1659.363
503.339, 1749.636
504.668, 1748.681
505.997, 1823.850
507.326, 1795.945
508.655, 1717.095
509.983, 1682.672
511.311, 1485.414
512.639, 1318.538
513.967, 1178.678
515.295, 1072.834
516.622, 1081.323
517.949, 944.601
519.276, 935.715
520.602, 916.787
521.929, 772.919
523.255, 786.975
524.581, 744.989
525.906, 706.060
527.232, 667.070
528.557, 626.078
529.882, 609.084
531.207, 560.042
532.531, 592.952
533.855, 515.858
535.179, 519.683
536.503, 483.525
537.827, 447.195
539.150, 451.890
540.473, 410.580
541.796, 412.357
543.119, 412.172
544.441, 403.119
545.764, 387.104
547.086, 335.088
548.407, 347.070
549.729, 353.051
551.050, 304.030
552.371, 347.007
553.692, 265.984
555.013, 301.959
556.333, 251.933
557.653, 212.930
558.973, 221.932
560.293, 181.129
561.612, 202.097
562.932, 199.065
564.251, 219.031
565.569, 204.055
566.888, 147.018
568.206, 215.072
569.524, 165.032
570.842, 178.340
572.160, 183.297
573.477, 147.254
574.795, 169.208
576.112, 168.251
577.428, 180.203
578.745, 160.153
580.061, 153.102
581.377, 178.049
582.693, 158.994
584.009, 167.946
585.324, 171.893
586.639, 164.367
587.954, 179.771
589.269, 161.707
590.583, 157.788
591.897, 159.720
593.212, 135.651
594.525, 133.801
595.839, 170.727
597.152, 150.652
598.465, 148.621
599.778, 126.542
601.091, 114.563
602.403, 82.480
603.716, 98.395
605.028, 121.308
606.339, 60.248
607.651, 103.163
608.962, 65.070
610.273, 65.975
611.584, 57.879
612.895, 33.782
614.205, 37.510
615.515, 29.585
616.825, 29.485
618.135, 64.384
619.444, 62.283
620.754, 50.186
622.063, 19.088
623.372, 59.991
624.680, 40.903
625.989, 42.814
627.297, 57.735
628.605, 37.656
629.912, 29.577
631.220, 21.500
632.527, 11.412
633.834, 76.323
635.141, 8.235
636.447, 65.146
637.754, 45.057
639.060, 28.974
640.366, 22.892
641.671, 33.815
642.977, 0.750
644.282, 20.691
645.587, 28.638
646.892, 28.594
648.196, 16.555
649.501, 8.521
650.805, 6.510
652.109, 2.538
653.412, 14.569
654.716, 16.492
656.019, 48.645
657.322, 23.715
658.625, 22.800
659.927, 31.902
661.230, 12.025
662.532, 3.840
663.834, 52.298
665.135, 28.465
666.437, 29.651
667.738, 54.859
669.039, 11.903
670.340, 29.337
671.640, 29.598
672.940, 2.879
674.241, 0.834
675.540, 11.542
676.840, 21.121
678.139, 5.953
679.439, 23.664
680.738, 34.373
682.036, 19.083
683.335, 61.796
684.633, 82.507
685.931, 84.216
687.229, 118.923
688.527, 171.633
689.824, 230.237
691.121, 341.047
692.418, 397.752
693.715, 486.463
695.012, 505.069
696.308, 569.886
697.604, 475.598
698.900, 448.309
700.195, 335.028
701.491, 269.744
702.786, 187.466
704.081, 130.186
705.376, 71.904
706.670, 66.620
707.964, 84.334
709.259, 80.046
710.552, 44.756
711.846, 66.464
713.139, 25.172
714.433, 23.877
715.726, 14.420
717.018, 54.270
718.311, 35.957
719.603, 31.643
720.895, 16.326
722.187, 50.007
723.479, 8.686
724.770, 34.362
726.061, 0.036
727.352, 32.704
728.643, 47.370
729.934, 40.033
731.224, 8.695
732.514, 45.354
733.804, 35.011
735.094, 36.666
736.383, 40.318
737.672, 40.969
738.961, 27.617
740.250, 28.264
741.539, 33.908
742.827, 61.550
744.115, 47.190
745.403, 4.828
746.691, 38.463
747.978, 50.095
749.265, 2.726
750.552, 37.351
751.839, 41.975
753.126, 17.597
754.412, 67.216
755.698, 6.834
756.984, 38.448
758.270, 63.061
759.555, 31.671
760.840, 21.280
762.125, 26.886
763.410, 75.490
764.695, 80.092
765.979, 67.693
767.263, 83.291
768.547, 83.820
769.831, 65.479
771.114, 94.052
772.398, 99.623
773.681, 97.211
774.964, 135.798
776.246, 131.383
777.529, 140.903
778.811, 150.484
780.093, 133.062
781.375, 172.639
782.656, 220.214
783.937, 222.787
785.219, 238.339
786.499, 317.441
787.780, 309.913
789.060, 439.478
790.341, 543.932
791.621, 615.493
792.901, 775.052
794.180, 824.587
795.459, 900.096
796.739, 838.648
798.017, 785.012
799.296, 854.504
800.575, 863.028
801.853, 977.549
803.131, 1214.016
804.409, 1463.449
805.686, 1745.373
806.964, 1809.517
808.241, 1821.922
809.518, 1611.196
810.795, 1209.444
812.071, 1040.494
813.347, 734.349
814.623, 610.625
815.899, 511.143
817.175, 399.532
818.450, 354.476
819.726, 298.945
821.001, 266.336
822.275, 247.132
823.550, 235.552
824.824, 238.953
826.098, 237.699
827.372, 189.747
828.646, 200.020
829.920, 157.505
831.193, 183.426
832.466, 192.604
833.739, 150.530
835.011, 197.407
836.284, 185.286
837.556, 202.792
838.828, 186.296
840.100, 163.800
841.371, 136.287
842.642, 158.789
843.914, 205.290
845.184, 174.790
846.455, 132.958
847.726, 176.808
848.996, 161.306
850.266, 187.096
851.536, 175.592
852.805, 147.157
854.075, 167.650
855.344, 149.835
856.613, 176.327
857.881, 168.817
859.150, 120.330
860.418, 113.818
861.686, 132.305
862.954, 118.791
864.222, 137.276
865.489, 101.155
866.756, 101.613
868.023, 133.065
869.290, 103.319
870.557, 105.799
871.823, 118.279
873.089, 108.758
874.355, 128.176
875.621, 103.653
876.886, 97.038
878.152, 94.514
879.417, 74.640
880.682, 109.114
881.946, 90.588
883.211, 127.061
884.475, 139.444
885.739, 109.916
887.003, 147.387
888.266, 131.858
889.530, 140.328
890.793, 123.798
892.056, 107.258
893.318, 166.721
894.581, 163.189
895.843, 132.657
897.105, 144.124
898.367, 127.454
899.629, 173.929
900.890, 102.404
902.152, 92.657
903.413, 126.131
904.673, 71.605
905.934, 106.032
907.194, 85.506
908.454, 97.877
909.714, 83.350
910.974, 112.823
912.234, 122.295
913.493, 129.738
914.752, 143.204
916.011, 120.676
917.270, 121.147
918.528, 121.619
919.786, 154.089
921.044, 104.560
922.302, 123.031
923.560, 103.501
924.817, 77.971
926.074, 107.441
927.331, 95.911
928.588, 112.381
929.844, 103.360
931.101, 74.320
932.357, 78.789
933.613, 54.258
934.868, 39.728
936.124, 56.197
937.379, 59.665
938.634, 87.141
939.889, 65.617
941.144, 12.092
942.398, 91.568
943.652, 42.044
944.906, 114.520
946.160, 24.996
947.414, 54.472
948.667, 39.948
949.920, 21.425
951.173, 80.903
952.426, 52.380
953.678, 42.858
954.931, 54.336
956.183, 37.814
957.435, 31.296
958.686, 29.295
959.938, 47.269
961.189, 27.765
962.440, 4.726
963.691, 13.789
964.941, 7.311
966.192, 52.844
967.442, 3.381
968.692, 17.080
969.942, 47.465
971.191, 11.019
972.441, 17.417
973.690, 16.154
974.939, 3.726
976.187, 6.693
977.436, 3.895
978.684, 0.484
979.932, 0.925
981.180, 8.334
982.428, 29.748
983.675, 8.177
984.922, 6.609
986.169, 24.045
987.416, 24.507
988.663, 14.059
989.909, 41.612
991.155, 16.834
992.401, 9.710
993.647, 7.255
994.893, 32.800
996.138, 27.655
997.383, 6.124
998.628, 9.404
999.873, 5.064
1001.117, 41.465
1002.362, 34.006
1003.606, 46.505
1004.850, 27.982
1006.093, 20.517
1007.337, 41.016
1008.580, 0.516
1009.823, 34.022
1011.066, 54.528
1012.308, 22.044
1013.551, 8.561
1014.793, 6.914
1016.035, 53.608
1017.277, 42.132
1018.518, 86.655
1019.760, 44.191
1021.001, 36.726
1022.242, 66.262
1023.483, 92.803
1024.723, 8.345
1025.964, 87.887
1027.204, 38.429
1028.444, 75.973
1029.683, 88.529
1030.923, 58.085
1032.162, 94.642
1033.401, 51.199
1034.640, 82.757
1035.879, 69.315
1037.117, 72.879
1038.355, 76.442
1039.593, 117.005
1040.831, 66.569
1042.069, 111.144
1043.306, 76.708
1044.544, 108.309
1045.781, 126.883
1047.017, 119.538
1048.254, 141.104
1049.490, 105.669
1050.726, 127.235
1051.962, 154.875
1053.198, 106.443
1054.434, 161.013
1055.669, 176.641
1056.904, 218.234
1058.139, 268.803
1059.374, 340.410
1060.608, 396.983
1061.843, 534.555
1063.077, 551.166
1064.311, 575.739
1065.544, 524.312
1066.778, 456.918
1068.011, 465.491
1069.244, 456.064
1070.477, 419.637
1071.710, 457.210
1072.942, 443.783
1074.174, 548.356
1075.406, 663.929
1076.638, 858.502
1077.870, 1146.074
1079.101, 1323.647
1080.332, 1401.222
1081.563, 1263.797
1082.794, 947.372
1084.025, 717.947
1085.255, 552.522
1086.485, 376.096
1087.715, 353.671
1088.945, 299.245
1090.175, 315.819
1091.404, 234.393
1092.633, 180.969
1093.862, 211.544
1095.091, 176.119
1096.319, 118.694
1097.548, 185.269
1098.776, 135.844
1100.004, 140.418
1101.231, 176.992
1102.459, 102.566
1103.686, 97.140
1104.913, 99.714
1106.140, 129.370
1107.367, 121.943
1108.593, 108.516
1109.819, 143.088
1111.046, 91.429
1112.271, 57.001
1113.497, 119.674
1114.722, 105.244
1115.948, 98.814
1117.173, 96.418
1118.398, 104.987
1119.622, 96.339
1120.847, 150.131
1122.071, 72.720
1123.295, 97.340
1124.519, 57.542
1125.742, 130.106
1126.966, 86.651
1128.189, 17.145
1129.412, 93.242
1130.635, 79.017
1131.857, 107.117
1133.080, 116.415
1134.302, 103.541
1135.524, 106.097
1136.746, 141.812
1137.967, 94.369
1139.188, 157.940
1140.410, 161.574
1141.631, 117.155
1142.851, 207.781
1144.072, 201.665
1145.292, 206.866
1146.512, 270.224
1147.732, 265.480
1148.952, 340.130
1150.172, 410.608
1151.391, 489.403
1152.610, 713.370
1153.829, 806.036
1155.048, 1019.641
1156.266, 1199.712
1157.484, 1256.313
1158.702, 1355.002
1159.920, 1089.621
1161.138, 938.152
1162.356, 778.581
1163.573, 518.128
1164.790, 458.666
1166.007, 314.696
1167.224, 257.231
1168.440, 219.821
1169.656, 195.431
1170.872, 142.992
1172.088, 139.614
1173.304, 90.143
1174.519, 90.776
1175.735, 98.886
1176.950, 53.411
1178.165, 72.990
1179.379, 47.595
1180.594, 32.116
1181.808, 96.714
1183.022, 47.303
1184.236, 30.819
1185.449, 51.348
1186.663, 26.874
1187.876, 18.386
1189.089, 41.949
1190.302, 12.458
1191.515, 18.964
1192.727, 31.532
1193.939, 42.953
1195.151, 31.436
1196.363, 55.940
1197.575, 4.426
1198.786, 63.990
1199.997, 21.472
1201.208, 8.035
1202.419, 16.719
1203.630, 89.202
1204.840, 15.501
1206.051, 60.973
1207.261, 99.443
1208.470, 15.002
1209.680, 75.468
1210.889, 92.932
1212.099, 16.394
1213.308, 48.854
1214.516, 70.313
1215.725, 69.859
1216.933, 132.313
1218.142, 105.825
1219.350, 126.276
1220.557, 125.725
1221.765, 115.171
1222.972, 161.616
1224.180, 183.058
1225.387, 231.123
1226.593, 254.562
1227.800, 252.998
1229.006, 236.481
1230.213, 234.913
1231.419, 199.368
1232.624, 231.796
1233.830, 207.223
1235.035, 121.646
1236.241, 141.069
1237.446, 97.948
1238.650, 82.369
1239.855, 108.789
1241.059, 62.208
1242.264, 59.627
1243.468, 74.044
1244.671, 70.534
1245.875, 76.950
1247.078, 62.364
1248.282, 87.808
1249.485, 64.220
1250.687, 9.632
1251.890, 90.041
1253.092, 101.450
1254.295, 33.858
1255.497, 26.265
1256.699, 57.671
1257.900, 7.077
1259.102, 58.480
1260.303, 43.882
1261.504, 79.283
1262.705, 87.687
1263.905, 68.085
1265.106, 92.497
1266.306, 25.896
1267.506, 18.292
1268.706, 52.677
1269.905, 42.051
1271.105, 50.410
1272.304, 87.768
1273.503, 64.800
1274.702, 51.458
1275.900, 64.805
1277.099, 8.153
1278.297, 46.484
1279.495, 39.819
1280.693, 4.675
1281.891, 43.998
1283.088, 38.319
1284.285, 14.720
1285.482, 27.040
1286.679, 16.358
1287.876, 68.674
1289.072, 54.995
1290.268, 7.685
1291.464, 43.627
1292.660, 10.933
1293.856, 81.236
1295.051, 1.545
1296.247, 9.851
1297.442, 9.161
1298.637, 20.467
1299.831, 19.229
1301.026, 21.067
1302.220, 28.646
1303.414, 16.631
1304.608, 26.097
1305.802, 1.165
1306.995, 33.425
1308.188, 71.678
1309.381, 18.072
1310.574, 41.169
1311.767, 22.407
1312.960, 11.358
1314.152, 28.868
1315.344, 14.092
1316.536, 59.312
1317.728, 12.529
1318.919, 35.259
1320.110, 48.940
1321.301, 23.135
1322.492, 16.416
1323.683, 64.584
1324.874, 17.769
1326.064, 11.050
1327.254, 55.124
1328.444, 33.296
1329.634, 33.458
1330.823, 79.681
1332.013, 23.827
1333.202, 45.981
1334.391, 38.097
1335.580, 74.236
1336.768, 91.293
1337.956, 48.439
1339.145, 29.582
1340.333, 47.169
1341.520, 17.235
1342.708, 66.372
1343.895, 16.504
1345.083, 4.578
1346.270, 34.684
1347.456, 7.167
1348.643, 54.924
1349.829, 58.047
1351.016, 15.169
1352.202, 52.251
1353.387, 65.370
1354.573, 48.488
1355.759, 93.572
1356.944, 37.726
1358.129, 15.844
1359.314, 71.915
1360.498, 22.983
1361.683, 52.049
1362.867, 135.111
1364.051, 42.170
1365.235, 79.226
1366.419, 102.292
1367.602, 3.664
1368.785, 45.373
1369.968, 40.410
1371.151, 25.445
1372.334, 92.479
1373.517, 31.778
1374.699, 88.819
1375.881, 114.856
1377.063, 55.666
1378.245, 104.025
1379.426, 0.622
1380.608, 65.729
1381.789, 114.079
1382.970, 45.427
1384.150, 44.773
1385.331, 97.029
1386.511, 21.371
1387.691, 103.694
1388.871, 110.921
1390.051, 32.257
1391.231, 125.590
1392.410, 112.922
1393.589, 94.165
1394.768, 88.493
1395.947, 58.819
1397.126, 56.145
1398.304, 91.340
1399.483, 44.662
1400.661, 77.790
1401.838, 67.008
1403.016, 59.198
1404.194, 68.506
1405.371, 58.804
1406.548, 37.973
1407.725, 45.094
1408.901, 53.865
1410.078, 48.050
1411.254, 66.375
1412.430, 82.566
1413.606, 110.747
1414.782, 94.896
1415.958, 97.057
1417.133, 88.469
1418.308, 70.461
1419.483, 83.897
1420.658, 67.784
1421.832, 5.249
1423.007, 73.237
1424.181, 112.250
1425.355, 10.216
1426.529, 79.261
1427.702, 73.316
1428.876, 42.346
1430.049, 99.260
1431.222, 32.163
1432.395, 53.845
1433.567, 111.493
1434.740, 53.342
1435.912, 56.340
1437.084, 131.332
1438.256, 58.162
1439.428, 112.037
1440.599, 146.013
1441.770, 65.985
1442.942, 130.777
1444.112, 67.722
1445.283, 53.567
1446.454, 99.449
1447.624, 64.374
1448.794, 67.356
1449.964, 116.237
1451.134, 51.100
1452.303, 136.787
1453.473, 89.611
1454.642, 54.347
1455.811, 108.130
1456.980, 87.890
1458.148, 84.628
1459.317, 136.344
1460.485, 54.039
1461.653, 93.719
1462.821, 103.351
1463.989, 8.026
1465.156, 73.801
1466.323, 126.615
1467.490, 55.475
1468.657, 99.371
1469.824, 100.762
1470.991, 8.695
1472.157, 103.379
1473.323, 28.291
1474.489, 70.198
1475.655, 108.129
1476.820, 28.079
1477.986, 69.025
1479.151, 36.972
1480.316, 21.066
1481.481, 62.916
1482.645, 75.902
1483.810, 71.926
1484.974, 101.961
1486.138, 90.013
1487.302, 21.085
1488.465, 89.179
1489.629, 39.304
1490.792, 60.094
1491.955, 88.272
1493.118, 37.476
1494.281, 110.402
1495.443, 68.740
1496.606, 20.121
1497.768, 101.546
1498.930, 52.880
1500.091, 62.648
1501.253, 76.365
1502.414, 66.837
1503.575, 63.377
1504.736, 64.816
1505.897, 17.085
1507.058, 100.577
1508.218, 21.856
1509.379, 61.761
1510.539, 39.731
1511.698, 84.480
1512.858, 0.918
