##NAMES=Quartz
##RRUFFID=R050125
##IDEAL CHEMISTRY=SiO_2_
##LOCALITY=Linopolis, Minas Gerais, Brazil
##OWNER=RRUFF
##SOURCE=Carlos and Paulo Vasconcelos
##DESCRIPTION=Pale pink group of single crystals, variety rose quartz
##STATUS=The identification of this mineral has been confirmed by X-ray diffraction and chemical analysis
##URL=rruff.info/R050125
##MEASURED CHEMISTRY=Si_1.00_O_2_
##PIN_ID=L00165
##ORIENTATION=Laser parallel to -c* (0 0 -1). Fiducial mark perpendicular to laser is parallel to -b [0 -1 0]
47.490, 0.000
48.899, 0.637
50.308, 35.338
51.717, 57.525
53.126, 85.301
54.534, 119.137
55.942, 126.828
57.350, 152.439
58.758, 180.388
60.165, 189.369
61.572, 219.421
62.979, 228.294
64.386, 218.205
65.792, 185.170
67.198, 184.561
68.604, 202.237
70.010, 177.982
71.415, 167.981
72.820, 146.386
74.225, 137.396
75.630, 104.560
77.034, 94.002
78.438, 71.599
79.842, 58.724
81.246, 61.938
82.649, 29.250
84.053, 29.660
85.455, 17.152
86.858, 14.288
88.260, 38.673
89.663, 5.988
91.065, 20.690
92.466, 12.570
93.868, 7.205
95.269, 12.012
96.670, 51.845
98.070, 29.700
99.471, 45.572
100.871, 56.455
102.271, 73.343
103.670, 92.222
105.070, 115.474
106.469, 134.021
107.868, 166.925
109.267, 190.856
110.665, 211.870
112.063, 301.995
113.461, 384.282
114.859, 507.740
116.256, 710.312
117.653, 898.947
119.050, 1397.618
120.447, 2122.271
121.843, 3215.883
123.240, 4701.446
124.636, 6256.961
126.031, 7470.434
127.427, 7437.863
128.822, 6056.256
130.217, 4425.624
131.612, 2894.984
133.006, 1971.359
134.400, 1482.746
135.794, 1183.142
137.188, 1042.541
138.581, 978.938
139.975, 967.331
141.368, 911.714
142.760, 888.081
144.153, 824.428
145.545, 815.756
146.937, 762.062
148.329, 723.343
149.720, 711.595
151.112, 630.806
152.503, 622.937
153.893, 535.030
155.284, 571.087
156.674, 512.123
158.064, 527.142
159.454, 561.149
160.843, 555.147
162.233, 627.135
163.622, 616.115
165.011, 714.086
166.399, 739.302
167.787, 800.575
169.175, 856.041
170.563, 901.086
171.951, 974.800
173.338, 1078.234
174.725, 1219.077
176.112, 1314.832
177.499, 1447.188
178.885, 1562.033
180.271, 1774.308
181.657, 1951.926
183.043, 2154.927
184.428, 2438.935
185.813, 2762.258
187.198, 3087.022
188.583, 3536.632
189.967, 3995.768
191.351, 4549.020
192.735, 5070.852
194.119, 5696.546
195.502, 6311.903
196.885, 7004.255
198.268, 7822.601
199.651, 8267.943
201.033, 9052.281
202.415, 9402.609
203.797, 9722.936
205.179, 9663.256
206.561, 9533.569
207.942, 9343.898
209.323, 8837.643
210.703, 8359.438
212.084, 7643.249
213.464, 6943.837
214.844, 6295.245
216.224, 5570.994
217.603, 4980.967
218.983, 4424.800
220.362, 3964.576
221.741, 3613.287
223.119, 3197.935
224.497, 2903.514
225.875, 2618.011
227.253, 2433.435
228.631, 2190.791
230.008, 1947.082
231.385, 1837.311
232.762, 1657.470
234.139, 1483.509
235.515, 1389.389
236.891, 1320.190
238.267, 1232.949
239.643, 1132.690
241.018, 1058.421
242.393, 1011.058
243.768, 965.658
245.143, 867.171
246.517, 837.633
247.891, 833.117
249.265, 763.338
250.639, 687.578
252.012, 699.663
253.386, 641.366
254.759, 598.568
256.131, 601.473
257.504, 553.647
258.876, 567.560
260.248, 533.537
261.620, 530.612
262.991, 529.069
264.363, 447.361
265.734, 370.788
267.104, 331.262
268.475, 274.805
269.845, 246.426
271.215, 213.105
272.585, 177.781
273.955, 172.453
275.324, 152.120
276.693, 131.784
278.062, 135.442
279.431, 105.095
280.799, 106.741
282.167, 87.381
283.535, 55.013
284.903, 60.637
286.270, 68.253
287.638, 54.862
289.005, 36.463
290.371, 3.056
291.738, 14.640
293.104, 6.784
294.470, 14.782
295.836, 0.660
297.201, 12.112
298.567, 5.575
299.932, 1.049
301.296, 4.468
302.661, 33.024
304.025, 7.533
305.389, 20.054
306.753, 39.588
308.117, 8.142
309.480, 25.707
310.843, 29.287
312.206, 10.883
313.569, 1.509
314.931, 36.107
316.293, 5.740
317.655, 31.383
319.017, 1.959
320.378, 23.706
321.740, 2.615
323.101, 4.070
324.461, 3.236
325.822, 4.464
327.182, 13.172
328.542, 10.889
329.902, 2.615
331.261, 27.650
332.621, 41.908
333.980, 28.163
335.339, 36.409
336.697, 41.646
338.056, 47.867
339.414, 87.077
340.772, 115.269
342.129, 138.444
343.487, 175.595
344.844, 238.723
346.201, 326.840
347.557, 458.939
348.914, 754.023
350.270, 1215.097
351.626, 1849.166
352.982, 2602.226
354.337, 2976.280
355.693, 2560.333
357.048, 1774.382
358.402, 1066.428
359.757, 589.472
361.111, 356.513
362.465, 151.553
363.819, 90.590
365.173, 66.626
366.526, 31.659
367.879, 6.690
369.232, 20.717
370.585, 3.741
371.937, 13.763
373.290, 2.779
374.642, 39.790
375.993, 20.797
377.345, 11.800
378.696, 54.790
380.047, 44.773
381.398, 70.747
382.748, 103.712
384.099, 139.669
385.449, 189.619
386.799, 290.561
388.148, 500.495
389.497, 832.423
390.847, 1365.344
392.196, 1881.258
393.544, 2052.167
394.893, 1596.069
396.241, 1056.967
397.589, 716.859
398.936, 499.746
400.284, 423.630
401.631, 350.509
402.978, 311.385
404.325, 223.257
405.672, 177.126
407.018, 152.992
408.364, 151.855
409.710, 148.715
411.055, 149.572
412.401, 145.430
413.746, 140.286
415.091, 146.140
416.435, 161.074
417.780, 195.873
419.124, 200.745
420.468, 233.616
421.812, 248.491
423.155, 248.366
424.498, 281.240
425.842, 314.115
427.184, 318.988
428.527, 359.858
429.869, 383.726
431.211, 401.591
432.553, 451.453
433.895, 488.311
435.236, 582.165
436.577, 616.017
437.918, 669.864
439.259, 806.710
440.599, 911.554
441.940, 1045.396
443.280, 1233.236
444.619, 1441.051
445.959, 1737.729
447.298, 2120.427
448.637, 2528.158
449.976, 3029.830
451.315, 3741.422
452.653, 4581.770
453.991, 5906.230
455.329, 7986.040
456.667, 10970.504
458.004, 15519.710
459.341, 21228.197
460.678, 29597.090
462.015, 37436.277
463.352, 42435.645
464.688, 43222.828
466.024, 37921.617
467.360, 30659.609
468.695, 23356.381
470.031, 17405.131
471.366, 13272.785
472.701, 10130.216
474.035, 8284.805
475.370, 6758.175
476.704, 5529.191
478.038, 4820.123
479.372, 4079.443
480.705, 3678.795
482.038, 3243.624
483.371, 2840.989
484.704, 2645.042
486.037, 2291.417
487.369, 2199.465
488.701, 1969.387
490.033, 1818.033
491.365, 1706.228
492.696, 1574.786
494.027, 1430.145
495.358, 1402.222
496.689, 1266.526
498.019, 1214.472
499.350, 1140.680
500.680, 1146.035
502.009, 1097.287
503.339, 1038.848
504.668, 980.361
505.997, 881.598
507.326, 819.208
508.655, 780.574
509.983, 740.719
511.311, 641.074
512.639, 652.752
513.967, 616.760
515.295, 575.224
516.622, 623.009
517.949, 568.791
519.276, 561.536
520.602, 568.277
521.929, 527.017
523.255, 471.756
524.581, 462.495
525.906, 425.214
527.232, 416.789
528.557, 398.256
529.882, 438.786
531.207, 398.234
532.531, 396.737
533.855, 406.181
535.179, 343.795
536.503, 383.331
537.827, 331.830
539.150, 313.510
540.473, 299.150
541.796, 293.879
543.119, 291.608
544.441, 283.550
545.764, 292.063
547.086, 273.791
548.407, 270.517
549.729, 263.244
551.050, 241.313
552.371, 201.696
553.692, 201.422
555.013, 182.148
556.333, 165.873
557.653, 171.598
558.973, 156.483
560.293, 131.051
561.612, 150.776
562.932, 119.500
564.251, 127.244
565.569, 118.976
566.888, 115.700
568.206, 139.431
569.524, 100.191
570.842, 98.195
572.160, 119.978
573.477, 79.702
574.795, 89.426
576.112, 85.500
577.428, 104.224
578.745, 71.992
580.061, 80.740
581.377, 81.502
582.693, 92.248
584.009, 81.861
585.324, 107.583
586.639, 87.305
587.954, 109.071
589.269, 109.792
590.583, 94.553
591.897, 90.273
593.212, 85.015
594.525, 91.778
595.839, 98.534
597.152, 90.664
598.465, 88.454
599.778, 77.804
601.091, 76.873
602.403, 50.844
603.716, 55.723
605.028, 28.441
606.339, 27.472
607.651, 38.191
608.962, 21.960
610.273, 49.679
611.584, 41.401
612.895, 27.165
614.205, 40.452
615.515, 20.306
616.825, 15.037
618.135, 21.773
619.444, 26.512
620.754, 40.255
622.063, 21.004
623.372, 40.759
624.680, 34.518
625.989, 13.284
627.297, 27.064
628.605, 12.847
629.912, 12.640
631.220, 20.630
632.527, 5.438
633.834, 19.246
635.141, 11.067
636.447, 23.891
637.754, 39.725
639.060, 8.560
640.366, 16.404
641.671, 17.249
642.977, 21.098
644.282, 10.947
645.587, 8.201
646.892, 25.653
648.196, 7.511
649.501, 8.372
650.805, 13.768
652.109, 9.832
653.412, 13.030
654.716, 6.221
656.019, 10.381
657.322, 10.547
658.625, 8.719
659.927, 13.896
661.230, 13.080
662.532, 8.272
663.834, 14.491
665.135, 10.386
666.437, 22.887
667.738, 10.112
669.039, 15.339
670.340, 20.575
671.640, 11.823
672.940, 3.924
674.241, 4.670
675.540, 13.416
676.840, 20.163
678.139, 25.909
679.439, 47.655
680.738, 40.401
682.036, 70.146
683.335, 47.891
684.633, 110.635
685.931, 98.386
687.229, 142.136
688.527, 204.888
689.824, 268.641
691.121, 354.394
692.418, 438.148
693.715, 517.902
695.012, 518.075
696.308, 576.416
697.604, 456.176
698.900, 354.935
700.195, 237.699
701.491, 198.462
702.786, 149.227
704.081, 110.992
705.376, 97.762
706.670, 76.538
707.964, 57.413
709.259, 41.090
710.552, 33.865
711.846, 29.640
713.139, 30.413
714.433, 48.186
715.726, 13.958
717.018, 16.730
718.311, 28.502
719.603, 10.273
720.895, 13.043
722.187, 24.813
723.479, 13.582
724.770, 6.350
726.061, 1.883
727.352, 2.880
728.643, 17.642
729.934, 30.403
731.224, 2.836
732.514, 15.921
733.804, 4.677
735.094, 9.432
736.383, 6.186
737.672, 9.939
738.961, 11.310
740.250, 16.433
741.539, 23.175
742.827, 4.916
744.115, 16.656
745.403, 6.395
746.691, 30.132
747.978, 10.869
749.265, 5.604
750.552, 7.338
751.839, 2.929
753.126, 0.799
754.412, 4.476
755.698, 1.757
756.984, 0.042
758.270, 1.670
759.555, 17.379
760.840, 0.914
762.125, 26.790
763.410, 5.493
764.695, 32.194
765.979, 31.894
767.263, 6.593
768.547, 20.709
769.831, 2.974
771.114, 16.655
772.398, 23.334
773.681, 22.013
774.964, 34.792
776.246, 15.366
777.529, 50.041
778.811, 31.714
780.093, 34.387
781.375, 47.058
782.656, 56.727
783.937, 45.396
785.219, 2.062
786.499, 68.726
787.780, 32.357
789.060, 69.017
790.341, 101.669
791.621, 136.326
792.901, 160.981
794.180, 142.617
795.459, 186.269
796.739, 151.920
798.017, 123.568
799.296, 122.206
800.575, 104.427
801.853, 97.070
803.131, 113.688
804.409, 84.307
805.686, 90.183
806.964, 118.282
808.241, 95.187
809.518, 71.470
810.795, 66.516
812.071, 95.571
813.347, 66.702
814.623, 76.520
815.899, 81.383
817.175, 63.521
818.450, 58.282
819.726, 57.302
821.001, 59.524
822.275, 80.383
823.550, 61.068
824.824, 57.421
826.098, 38.752
827.372, 62.323
828.646, 78.896
829.920, 67.029
831.193, 78.639
832.466, 74.267
833.739, 44.875
835.011, 77.481
836.284, 61.116
837.556, 42.720
838.828, 71.495
840.100, 70.097
841.371, 82.823
842.642, 74.422
843.914, 66.020
845.184, 81.767
846.455, 41.392
847.726, 41.986
848.996, 75.869
850.266, 102.460
851.536, 60.050
852.805, 45.960
854.075, 84.568
855.344, 63.721
856.613, 75.327
857.881, 77.357
859.150, 61.354
860.418, 70.198
861.686, 55.781
862.954, 45.358
864.222, 69.932
865.489, 45.506
866.756, 54.077
868.023, 41.647
869.290, 65.212
870.557, 49.054
871.823, 52.619
873.089, 74.163
874.355, 47.717
875.621, 65.340
876.886, 49.892
878.152, 51.689
879.417, 66.688
880.682, 59.182
881.946, 69.734
883.211, 81.306
884.475, 67.705
885.739, 48.252
887.003, 85.753
888.266, 54.273
889.530, 82.776
890.793, 105.294
892.056, 90.950
893.318, 84.488
894.581, 107.026
895.843, 98.516
897.105, 87.050
898.367, 99.543
899.629, 76.075
900.890, 86.584
902.152, 73.069
903.413, 94.560
904.673, 65.676
905.934, 66.006
907.194, 67.022
908.454, 61.194
909.714, 74.463
910.974, 98.821
912.234, 82.340
913.493, 93.546
914.752, 97.063
916.011, 91.528
917.270, 84.042
918.528, 86.556
919.786, 79.026
921.044, 76.978
922.302, 93.361
923.560, 84.954
924.817, 65.378
926.074, 88.886
927.331, 73.392
928.588, 85.892
929.844, 71.397
931.101, 69.900
932.357, 61.403
933.613, 50.905
934.868, 79.406
936.124, 55.906
937.379, 61.217
938.634, 46.716
939.889, 87.214
941.144, 35.710
942.398, 75.207
943.652, 28.702
944.906, 65.196
946.160, 15.690
947.414, 61.183
948.667, 47.675
949.920, 26.167
951.173, 39.657
952.426, 40.149
953.678, 49.641
954.931, 54.131
956.183, 14.621
957.435, 34.114
958.686, 26.609
959.938, 41.106
961.189, 19.604
962.440, 3.104
963.691, 8.607
964.941, 23.111
966.192, 14.618
967.442, 19.127
968.692, 24.639
969.942, 5.154
971.191, 10.671
972.441, 12.807
973.690, 11.710
974.939, 34.231
976.187, 6.243
977.436, 14.282
978.684, 21.806
979.932, 7.671
981.180, 17.848
982.428, 4.366
983.675, 13.883
984.922, 16.400
986.169, 1.917
987.416, 19.433
988.663, 18.052
989.909, 26.454
991.155, 1.042
992.401, 12.461
993.647, 14.964
994.893, 1.534
996.138, 1.965
997.383, 29.465
998.628, 20.036
999.873, 12.451
1001.117, 31.938
1002.362, 20.576
1003.606, 3.899
1004.850, 8.627
1006.093, 3.841
1007.337, 22.692
1008.580, 22.237
1009.823, 3.795
1011.066, 7.645
1012.308, 23.083
1013.551, 20.522
1014.793, 27.741
1016.035, 26.399
1017.277, 19.837
1018.518, 20.275
1019.760, 4.287
1021.001, 19.148
1022.242, 46.583
1023.483, 21.019
1024.723, 0.542
1025.964, 29.895
1027.204, 16.335
1028.444, 25.775
1029.683, 11.219
1030.923, 10.663
1032.162, 3.110
1033.401, 3.442
1034.640, 18.005
1035.879, 30.453
1037.117, 7.900
1038.355, 25.348
1039.593, 18.796
1040.831, 6.246
1042.069, 25.699
1043.306, 40.151
1044.544, 9.604
1045.781, 39.057
1047.017, 35.513
1048.254, 22.968
1049.490, 61.426
1050.726, 14.890
1051.962, 43.353
1053.198, 58.821
1054.434, 53.290
1055.669, 38.760
1056.904, 74.233
1058.139, 75.707
1059.374, 88.183
1060.608, 154.659
1061.843, 177.135
1063.077, 215.613
1064.311, 194.091
1065.544, 168.569
1066.778, 162.052
1068.011, 155.534
1069.244, 109.017
1070.477, 135.507
1071.710, 92.998
1072.942, 100.489
1074.174, 116.979
1075.406, 152.470
1076.638, 201.960
1077.870, 223.451
1079.101, 210.941
1080.332, 231.432
1081.563, 231.923
1082.794, 146.414
1084.025, 129.906
1085.255, 129.397
1086.485, 89.889
1087.715, 94.382
1088.945, 35.875
1090.175, 65.369
1091.404, 86.863
1092.633, 58.356
1093.862, 52.850
1095.091, 56.344
1096.319, 33.838
1097.548, 58.331
1098.776, 52.825
1100.004, 36.319
1101.231, 33.814
1102.459, 35.308
1103.686, 63.803
1104.913, 24.299
1106.140, 48.794
1107.367, 34.290
1108.593, 15.785
1109.819, 50.281
1111.046, 14.752
1112.271, 40.246
1113.497, 31.742
1114.722, 31.237
1115.948, 18.733
1117.173, 18.228
1118.398, 55.707
1119.622, 66.202
1120.847, 71.848
1122.071, 67.343
1123.295, 66.136
1124.519, 43.897
1125.742, 46.391
1126.966, 38.894
1128.189, 19.864
1129.412, 53.358
1130.635, 32.900
1131.857, 49.394
1133.080, 87.016
1134.302, 63.480
1135.524, 99.010
1136.746, 100.391
1137.967, 98.884
1139.188, 117.288
1140.410, 125.794
1141.631, 135.987
1142.851, 168.634
1144.072, 171.122
1145.292, 196.668
1146.512, 237.872
1147.732, 257.366
1148.952, 329.859
1150.172, 367.032
1151.391, 510.504
1152.610, 633.429
1153.829, 807.900
1155.048, 1113.946
1156.266, 1365.023
1157.484, 1596.261
1158.702, 1724.749
1159.920, 1590.275
1161.138, 1290.863
1162.356, 1021.439
1163.573, 739.991
1164.790, 554.488
1166.007, 388.059
1167.224, 326.276
1168.440, 267.975
1169.656, 204.476
1170.872, 150.823
1172.088, 126.252
1173.304, 111.245
1174.519, 139.783
1175.735, 123.989
1176.950, 113.608
1178.165, 111.833
1179.379, 79.410
1180.594, 71.813
1181.808, 54.382
1183.022, 35.932
1184.236, 44.421
1185.449, 59.226
1186.663, 35.839
1187.876, 45.349
1189.089, 80.836
1190.302, 53.324
1191.515, 81.837
1192.727, 14.089
1193.939, 37.575
1195.151, 60.542
1196.363, 10.434
1197.575, 40.958
1198.786, 50.317
1199.997, 36.800
1201.208, 58.315
1202.419, 61.821
1203.630, 64.302
1204.840, 64.678
1206.051, 37.427
1207.261, 44.906
1208.470, 40.385
1209.680, 15.862
1210.889, 35.432
1212.099, 31.007
1213.308, 35.491
1214.516, 28.971
1215.725, 25.661
1216.933, 70.138
1218.142, 39.672
1219.350, 68.147
1220.557, 58.622
1221.765, 51.097
1222.972, 93.604
1224.180, 77.076
1225.387, 49.661
1226.593, 92.130
1227.800, 94.732
1229.006, 69.263
1230.213, 108.727
1231.419, 80.364
1232.624, 64.825
1233.830, 78.285
1235.035, 56.120
1236.241, 86.580
1237.446, 50.040
1238.650, 52.500
1239.855, 64.959
1241.059, 34.441
1242.264, 49.941
1243.468, 53.466
1244.671, 48.931
1245.875, 70.554
1247.078, 61.489
1248.282, 54.719
1249.485, 54.178
1250.687, 50.651
1251.890, 42.283
1253.092, 61.742
1254.295, 30.266
1255.497, 24.724
1256.699, 44.182
1257.900, 36.657
1259.102, 52.118
1260.303, 42.587
1261.504, 54.113
1262.705, 74.569
1263.905, 37.025
1265.106, 37.481
1266.306, 75.940
1267.506, 18.399
1268.706, 40.932
1269.905, 39.391
1271.105, 16.964
1272.304, 61.422
1273.503, 20.913
1274.702, 3.395
1275.900, 53.861
1277.099, 1.594
1278.297, 40.844
1279.495, 11.280
1280.693, 5.715
1281.891, 55.152
1283.088, 11.588
1284.285, 18.706
1285.482, 44.136
1286.679, 41.552
1287.876, 15.967
1289.072, 9.376
1290.268, 25.784
1291.464, 31.203
1292.660, 26.614
1293.856, 37.790
1295.051, 35.350
1296.247, 41.831
1297.442, 36.235
1298.637, 26.638
1299.831, 26.721
1301.026, 20.399
1302.220, 23.868
1303.414, 15.277
1304.608, 2.683
1305.802, 4.084
1306.995, 9.484
1308.188, 22.882
1309.381, 5.278
1310.574, 28.672
1311.767, 1.936
1312.960, 22.450
1314.152, 12.167
1315.344, 34.211
1316.536, 6.414
1317.728, 13.957
1318.919, 9.675
1320.110, 10.690
1321.301, 10.950
1322.492, 3.404
1323.683, 2.763
1324.874, 7.110
1326.064, 11.454
1327.254, 28.794
1328.444, 2.869
1329.634, 2.465
1330.823, 19.846
1332.013, 27.165
1333.202, 32.706
1334.391, 21.020
1335.580, 9.668
1336.768, 33.667
1337.956, 5.028
1339.145, 19.728
1340.333, 18.563
1341.520, 11.147
1342.708, 32.136
1343.895, 20.456
1345.083, 22.734
1346.270, 50.026
1347.456, 9.301
1348.643, 9.573
1349.829, 41.843
1351.016, 31.146
1352.202, 42.412
1353.387, 8.675
1354.573, 14.070
1355.759, 27.179
1356.944, 40.680
1358.129, 0.925
1359.314, 41.187
1360.498, 17.454
1361.683, 38.692
1362.867, 54.929
1364.051, 31.163
1365.235, 23.396
1366.419, 43.544
1367.602, 8.678
1368.785, 55.792
1369.968, 6.906
1371.151, 16.002
1372.334, 38.042
1373.517, 4.073
1374.699, 46.010
1375.881, 41.477
1377.063, 1.060
1378.245, 47.403
1379.426, 42.866
1380.608, 33.328
1381.789, 49.788
1382.970, 28.246
1384.150, 23.703
1385.331, 18.158
1386.511, 32.611
1387.691, 7.065
1388.871, 49.517
1390.051, 2.969
1391.231, 75.420
1392.410, 31.869
1393.589, 7.319
1394.768, 40.756
1395.947, 20.123
1397.126, 64.416
1398.304, 51.813
1399.483, 32.181
1400.661, 35.559
1401.838, 33.991
1403.016, 20.329
1404.194, 43.760
1405.371, 39.191
1406.548, 42.622
1407.725, 60.053
1408.901, 49.469
1410.078, 20.855
1411.254, 67.042
1412.430, 16.381
1413.606, 50.699
1414.782, 31.822
1415.958, 32.035
1417.133, 34.657
1418.308, 16.933
1419.483, 41.985
1420.658, 88.068
1421.832, 51.341
1423.007, 44.035
1424.181, 79.347
1425.355, 3.340
1426.529, 71.802
1427.702, 53.110
1428.876, 32.920
1430.049, 63.142
1431.222, 53.376
1432.395, 32.369
1433.567, 53.636
1434.740, 38.739
1435.912, 83.042
1437.084, 86.876
1438.256, 53.980
1439.428, 82.183
1440.599, 72.318
1441.770, 65.298
1442.942, 88.235
1444.112, 44.301
1445.283, 37.149
1446.454, 72.570
1447.624, 41.733
1448.794, 43.886
1449.964, 85.892
1451.134, 46.862
1452.303, 81.606
1453.473, 56.133
1454.642, 75.760
1455.811, 67.642
1456.980, 54.663
1458.148, 65.612
1459.317, 90.390
1460.485, 33.351
1461.653, 46.291
1462.821, 54.008
1463.989, 31.588
1465.156, 76.366
1466.323, 49.121
1467.490, 37.731
1468.657, 56.631
1469.824, 56.527
1470.991, 18.240
1472.157, 59.152
1473.323, 5.080
1474.489, 62.964
1475.655, 69.890
1476.820, 25.839
1477.986, 44.773
1479.151, 77.701
1480.316, 35.623
1481.481, 55.559
1482.645, 54.480
1483.810, 24.398
1484.974, 93.339
1486.138, 30.286
1487.302, 34.231
1488.465, 102.164
1489.629, 35.073
1490.792, 26.053
1491.955, 36.057
1493.118, 48.742
1494.281, 77.342
1495.443, 41.400
1496.606, 10.753
1497.768, 44.312
1498.930, 31.391
1500.091, 30.126
1501.253, 54.057
1502.414, 59.141
1503.575, 44.795
1504.736, 61.601
1505.897, 35.268
1507.058, 44.181
1508.218, 22.823
1509.379, 9.209
1510.539, 4.144
1511.698, 23.187
1512.858, 0.040
1514.018, 0.000
##END=



