##NAMES=Rhodonite
##RRUFFID=R040041
##IDEAL CHEMISTRY=CaMn^2+^_3_Mn^2+^Si_5_O_15_
##LOCALITY=Franklin, Sussex County, New Jersey, USA
##OWNER=RRUFF
##SOURCE=University of Arizona Mineral Museum
##DESCRIPTION=Pink prismatic crystals
##STATUS=The identification of this mineral has been confirmed by X-ray diffraction and chemical analysis
##URL=rruff.info/R040041
##MEASURED CHEMISTRY=(Mn_0.63_Ca_0.21_Zn_0.12_Mg_0.02_Fe_0.02_)_Î£=1_Si_1.00_O_3_
##PIN_ID=L00464
##ORIENTATION=Laser parallel to (1 0 1). Fiducial mark perpendicular to laser is parallel to b [0 1 0]
90.003, 0.000
91.398, 5.187
92.793, 13.975
94.188, 110.772
95.582, 503.990
96.976, 1172.899
98.370, 2226.242
99.764, 3406.750
101.157, 4124.237
102.550, 4062.662
103.943, 2843.651
105.336, 2062.555
106.729, 1732.016
108.121, 2367.898
109.513, 3289.390
110.905, 4254.886
112.297, 5110.925
113.688, 4640.085
115.079, 3992.606
116.470, 3197.525
117.861, 3172.615
119.251, 3297.057
120.642, 4029.897
122.032, 5242.953
123.422, 6356.262
124.811, 7249.850
126.201, 6973.731
127.590, 5817.917
128.979, 4222.410
130.367, 2964.211
131.756, 2010.321
133.144, 1537.719
134.532, 1401.399
135.920, 1302.260
137.307, 1528.018
138.695, 1733.950
140.082, 2053.831
141.469, 2149.093
142.856, 1983.445
144.242, 1680.324
145.628, 1242.687
147.014, 936.193
148.400, 809.853
149.786, 751.055
151.171, 798.658
152.556, 898.641
153.941, 944.984
155.325, 1067.667
156.710, 1176.672
158.094, 1173.980
159.478, 1141.575
160.862, 1130.431
162.245, 1010.533
163.629, 920.875
165.012, 788.451
166.395, 779.256
167.777, 745.281
169.160, 954.518
170.542, 1158.959
171.924, 1070.597
173.306, 1148.354
174.687, 763.078
176.068, 578.872
177.449, 401.922
178.830, 259.293
180.211, 150.008
181.591, 7.866
182.972, 17.336
184.351, 207.493
185.731, 80.395
187.111, 58.108
188.490, 62.385
189.869, 502.056
191.248, 290.812
192.626, 311.771
194.005, 98.749
195.383, 21.194
196.761, 91.056
198.139, 211.842
199.516, 236.557
200.893, 221.205
202.271, 191.796
203.647, 247.332
205.024, 84.813
206.400, 4.238
207.777, 113.391
209.152, 335.074
210.528, 555.812
211.904, 876.604
213.279, 965.448
214.654, 1020.345
216.029, 1034.293
217.403, 859.292
218.778, 707.339
220.152, 487.383
221.526, 530.398
222.900, 387.453
224.273, 322.556
225.646, 196.701
227.019, 242.816
228.392, 343.805
229.765, 310.681
231.137, 481.527
232.509, 555.424
233.881, 836.378
235.253, 1199.415
236.625, 1558.584
237.996, 2177.848
239.367, 2551.205
240.738, 2832.638
242.108, 3048.118
243.479, 2975.643
244.849, 2843.222
246.219, 2891.834
247.589, 2838.479
248.958, 2774.152
250.328, 2599.855
251.697, 2479.587
253.065, 2278.345
254.434, 2310.188
255.803, 2293.601
257.171, 2516.133
258.539, 2833.469
259.906, 3078.308
261.274, 3552.210
262.641, 3340.960
264.008, 3509.254
265.375, 3180.132
266.742, 2864.796
268.108, 2497.498
269.475, 2211.696
270.840, 2143.757
272.206, 1965.674
273.572, 1897.127
274.937, 1862.265
276.302, 1789.186
277.667, 1762.394
279.032, 1488.869
280.396, 1499.720
281.760, 1288.055
283.125, 1204.832
284.488, 1072.723
285.852, 1063.155
287.215, 1098.313
288.578, 1150.389
289.941, 1304.676
291.304, 1467.857
292.666, 1783.087
294.029, 2033.365
295.391, 2377.690
296.753, 3060.059
298.114, 3505.473
299.476, 4180.926
300.837, 4606.413
302.198, 4852.049
303.558, 5027.429
304.919, 4962.848
306.279, 4938.306
307.639, 4693.791
308.999, 4469.579
310.359, 4234.366
311.718, 3709.399
313.077, 3224.436
314.436, 2563.516
315.795, 2297.635
317.154, 1873.794
318.512, 1701.989
319.870, 1508.220
321.228, 1495.483
322.586, 1436.780
323.943, 1326.107
325.300, 1366.463
326.657, 1324.848
328.014, 1205.259
329.371, 1393.696
330.727, 1378.157
332.083, 1612.643
333.439, 1573.150
334.795, 1705.679
336.150, 1989.228
337.506, 2102.796
338.861, 2426.385
340.215, 2671.993
341.570, 3037.619
342.924, 3133.262
344.279, 3818.919
345.633, 3964.344
346.986, 4009.579
348.340, 4078.074
349.693, 3911.468
351.046, 3775.601
352.399, 3641.316
353.752, 3447.037
355.104, 3732.761
356.457, 3838.491
357.809, 4344.225
359.160, 4539.403
360.512, 5042.433
361.863, 5710.654
363.214, 5697.782
364.565, 6105.583
365.916, 6214.598
367.267, 6361.163
368.617, 6354.368
369.967, 6219.935
371.317, 6105.691
372.666, 5461.695
374.016, 4907.453
375.365, 4214.265
376.714, 3562.015
378.063, 3109.649
379.411, 2631.213
380.760, 2162.948
382.108, 1845.062
383.456, 1637.100
384.803, 1535.088
386.151, 1346.761
387.498, 1216.371
388.845, 1181.321
390.192, 910.128
391.539, 819.481
392.885, 598.212
394.231, 501.699
395.577, 368.457
396.923, 360.179
398.269, 350.897
399.614, 348.611
400.959, 170.320
402.304, 139.023
403.649, 287.720
404.993, 164.411
406.337, 245.094
407.681, 217.771
409.025, 189.439
410.369, 242.100
411.712, 179.752
413.055, 184.397
414.398, 155.033
415.741, 63.661
417.084, 123.277
418.426, 36.920
419.768, 1.579
421.110, 41.234
422.452, 12.105
423.793, 84.465
425.134, 67.883
426.475, 104.355
427.816, 59.901
429.157, 105.502
430.497, 91.986
431.837, 133.286
433.177, 137.303
434.517, 105.053
435.857, 138.894
437.196, 51.037
438.535, 52.258
439.874, 37.208
441.213, 41.391
442.551, 24.281
443.889, 19.125
445.227, 17.624
446.565, 70.240
447.903, 10.471
449.240, 166.869
450.577, 18.676
451.914, 145.656
453.251, 107.973
454.588, 224.274
455.924, 209.561
457.260, 124.833
458.596, 267.091
459.932, 259.338
461.267, 169.572
462.602, 89.788
463.938, 134.988
465.272, 202.175
466.607, 129.352
467.941, 214.513
469.276, 188.660
470.610, 274.799
471.943, 398.921
473.277, 370.029
474.610, 403.124
475.944, 528.204
477.276, 500.268
478.609, 645.317
479.942, 534.355
481.274, 619.378
482.606, 641.383
483.938, 622.382
485.270, 611.365
486.601, 664.329
487.932, 867.280
489.263, 873.214
490.594, 1233.130
491.925, 1448.030
493.255, 1774.911
494.585, 1933.786
495.915, 1807.641
497.245, 1824.494
498.575, 1545.329
499.904, 1229.145
501.233, 1050.960
502.562, 776.755
503.891, 806.528
505.219, 562.309
506.548, 606.072
507.876, 467.818
509.203, 607.576
510.531, 684.323
511.859, 544.057
513.186, 607.771
514.513, 814.462
515.840, 795.133
517.166, 1047.809
518.493, 904.495
519.819, 974.163
521.145, 761.840
522.470, 776.532
523.796, 490.243
525.121, 494.992
526.446, 522.749
527.771, 355.559
529.096, 301.369
530.421, 220.180
531.745, 127.971
533.069, 169.741
534.393, 86.492
535.716, 51.211
537.040, 55.889
538.363, 26.458
539.686, 2.948
541.009, 77.667
542.331, 17.187
543.654, 46.653
544.976, 27.076
546.298, 60.553
547.620, 87.735
548.941, 158.113
550.263, 119.409
551.584, 173.674
552.905, 102.915
554.225, 65.122
555.546, 257.288
556.866, 403.429
558.186, 224.553
559.506, 442.652
560.826, 357.725
562.145, 360.774
563.465, 329.797
564.784, 318.795
566.103, 326.767
567.421, 349.714
568.740, 338.460
570.058, 437.530
571.376, 326.400
572.694, 453.244
574.011, 440.063
575.329, 328.797
576.646, 382.563
577.963, 352.668
579.279, 341.273
580.596, 264.383
581.912, 309.082
583.228, 194.468
584.544, 275.749
585.860, 295.824
587.175, 168.435
588.491, 130.284
589.806, 102.881
591.121, 70.819
592.435, 104.419
593.750, 36.969
595.064, 112.309
596.378, 19.007
597.692, 68.497
599.006, 78.832
600.319, 17.877
601.632, 146.512
602.945, 47.235
604.258, 33.925
605.571, 36.124
606.883, 174.786
608.195, 68.852
609.507, 94.738
610.819, 145.770
612.131, 161.775
613.442, 205.716
614.753, 246.135
616.064, 264.083
617.375, 268.428
618.685, 260.748
619.995, 299.972
621.306, 314.916
622.615, 395.251
623.925, 397.650
625.235, 495.690
626.544, 581.027
627.853, 558.571
629.162, 637.661
630.471, 710.627
631.779, 729.335
633.087, 861.384
634.395, 966.132
635.703, 993.134
637.011, 1126.588
638.318, 1134.679
639.625, 1252.274
640.932, 1504.031
642.239, 1525.889
643.546, 1837.578
644.852, 1999.775
646.158, 2131.579
647.464, 2463.295
648.770, 2755.204
650.076, 3366.642
651.381, 3550.863
652.686, 4352.332
653.991, 5137.527
655.296, 6109.283
656.600, 7700.816
657.905, 9296.414
659.209, 11537.712
660.513, 15048.988
661.817, 18246.385
663.120, 24067.936
664.423, 29409.342
665.726, 35220.570
667.029, 40531.742
668.332, 41572.891
669.635, 41784.180
670.937, 37175.316
672.239, 32226.607
673.541, 27403.908
674.842, 22542.281
676.144, 19213.338
677.445, 16318.698
678.746, 14310.061
680.047, 13311.764
681.348, 12408.409
682.648, 10039.330
683.948, 8258.504
685.248, 6671.414
686.548, 5637.475
687.848, 4418.807
689.147, 3790.323
690.447, 3322.100
691.746, 2731.888
693.044, 2340.923
694.343, 2053.331
695.641, 1888.221
696.940, 1701.701
698.238, 1652.805
699.535, 1590.313
700.833, 1578.976
702.130, 1546.846
703.427, 1847.530
704.724, 1930.150
706.021, 2070.604
707.318, 2380.533
708.614, 2981.015
709.910, 3800.571
711.206, 4439.267
712.502, 5559.686
713.798, 5711.821
715.093, 6162.197
716.388, 5952.555
717.683, 4882.890
718.978, 4473.205
720.272, 3163.501
721.567, 2803.777
722.861, 2104.033
724.155, 1854.269
725.448, 1614.485
726.742, 1224.683
728.035, 1214.861
729.328, 1045.020
730.621, 915.159
731.914, 975.280
733.206, 725.383
734.499, 865.471
735.791, 685.551
737.083, 665.615
738.374, 725.678
739.666, 645.752
740.957, 598.839
742.248, 675.944
743.539, 525.061
744.830, 516.002
746.120, 431.701
747.410, 365.052
748.701, 344.062
749.990, 358.104
751.280, 343.372
752.570, 318.668
753.859, 229.640
755.148, 181.798
756.437, 120.050
757.725, 170.344
759.014, 167.437
760.302, 175.105
761.590, 49.139
762.878, 191.441
764.166, 190.660
765.453, 109.954
766.740, 199.233
768.027, 95.499
769.314, 34.748
770.601, 225.980
771.887, 7.802
773.174, 25.389
774.460, 106.562
775.745, 7.720
777.031, 14.860
778.316, 11.018
779.602, 54.074
780.887, 10.151
782.172, 14.790
783.456, 129.238
784.741, 28.253
786.025, 57.250
787.309, 27.233
788.593, 89.201
789.876, 27.155
791.160, 0.907
792.443, 11.009
793.726, 143.908
795.009, 23.205
796.291, 32.647
797.574, 67.486
798.856, 0.312
800.138, 30.118
801.420, 45.907
802.702, 9.685
803.983, 115.445
805.264, 34.806
806.545, 84.907
807.826, 51.392
809.107, 13.263
810.387, 53.903
811.667, 59.469
812.947, 123.109
814.227, 112.678
815.507, 89.766
816.786, 21.728
818.065, 51.207
819.344, 90.674
820.623, 100.932
821.902, 139.580
823.180, 58.448
824.459, 88.444
825.737, 47.861
827.014, 93.732
828.292, 111.391
829.569, 85.878
830.847, 64.861
832.124, 4.350
833.401, 6.452
834.677, 87.270
835.954, 91.854
837.230, 129.029
838.506, 29.993
839.782, 80.984
841.057, 2.030
842.333, 13.089
843.608, 14.164
844.883, 64.743
846.158, 13.647
847.433, 57.448
848.707, 81.425
849.981, 109.684
851.255, 30.839
852.529, 37.987
853.803, 6.819
855.076, 25.654
856.350, 35.506
857.623, 56.684
858.895, 102.109
860.168, 60.896
861.441, 189.681
862.713, 58.460
863.985, 47.238
865.257, 276.028
866.528, 35.187
867.800, 223.577
869.071, 372.338
870.342, 331.093
871.613, 459.844
872.884, 368.605
874.154, 647.362
875.425, 506.141
876.695, 504.915
877.965, 443.686
879.234, 462.458
880.504, 481.228
881.773, 419.999
883.042, 418.262
884.311, 407.542
885.580, 386.311
886.848, 445.080
888.117, 513.848
889.385, 490.454
890.653, 451.379
891.920, 500.140
893.188, 478.908
894.455, 517.676
895.722, 496.454
896.989, 625.230
898.256, 594.006
899.523, 512.814
900.789, 831.626
902.055, 740.437
903.321, 869.250
904.587, 1298.062
905.852, 1336.910
907.118, 1645.756
908.383, 1844.600
909.648, 2423.469
910.913, 2932.334
912.177, 3141.219
913.442, 3640.105
914.706, 3578.741
915.970, 3287.668
917.233, 3046.592
918.497, 2385.507
919.760, 2414.426
921.024, 2003.277
922.287, 1801.845
923.550, 1530.753
924.812, 1348.241
926.075, 1386.732
927.337, 1215.618
928.599, 1033.905
929.861, 1312.294
931.122, 1299.616
932.384, 1478.273
933.645, 1696.614
934.906, 1823.724
936.167, 2222.605
937.428, 2221.129
938.688, 1949.797
939.948, 1908.323
941.208, 1567.129
942.468, 1385.685
943.728, 1163.766
944.987, 1062.191
946.247, 1191.094
947.506, 947.813
948.765, 1086.412
950.023, 1275.156
951.282, 953.374
952.540, 1291.965
953.798, 1330.646
955.056, 1319.114
956.314, 1588.044
957.572, 1674.172
958.829, 1943.033
960.086, 2288.150
961.343, 2566.689
962.600, 3395.432
963.856, 3760.087
965.113, 4799.021
966.369, 6247.970
967.625, 7690.779
968.881, 10149.406
970.136, 11578.214
971.392, 13957.187
972.647, 15276.185
973.902, 14375.186
975.157, 13954.033
976.411, 12673.009
977.666, 11271.814
978.920, 10444.588
980.174, 9496.271
981.428, 8895.247
982.682, 9359.896
983.935, 9018.530
985.188, 10416.999
986.441, 10930.315
987.694, 12659.331
988.947, 15030.298
990.199, 15967.286
991.452, 17881.113
992.704, 17679.650
993.956, 16647.734
995.207, 16525.965
996.459, 15884.937
997.710, 17463.814
998.961, 18849.314
1000.212, 20058.375
1001.463, 22820.996
1002.714, 22548.264
1003.964, 21617.189
1005.214, 20036.299
1006.464, 16025.190
1007.714, 13752.312
1008.964, 10848.141
1010.213, 8707.253
1011.462, 7726.514
1012.711, 6195.836
1013.960, 5884.930
1015.209, 5166.320
1016.457, 4505.469
1017.705, 4263.008
1018.954, 3882.675
1020.201, 3521.860
1021.449, 3241.176
1022.697, 2903.643
1023.944, 2842.840
1025.191, 2617.957
1026.438, 2297.161
1027.685, 2286.540
1028.931, 2077.018
1030.177, 1976.257
1031.423, 2126.879
1032.669, 1697.110
1033.915, 1776.344
1035.161, 1556.188
1036.406, 1596.218
1037.651, 1586.032
1038.896, 1435.692
1040.141, 1564.986
1041.386, 1864.217
1042.630, 1765.826
1043.874, 2035.450
1045.118, 2037.948
1046.362, 2577.429
1047.606, 3046.839
1048.849, 3464.158
1050.092, 3964.114
1051.336, 4283.808
1052.578, 4393.514
1053.821, 4202.896
1055.064, 3428.436
1056.306, 2957.657
1057.548, 2497.196
1058.790, 1761.929
1060.032, 1741.449
1061.273, 1331.147
1062.515, 1411.362
1063.756, 1150.568
1064.997, 1007.377
1066.237, 1016.865
1067.478, 896.061
1068.718, 785.954
1069.959, 905.141
1071.199, 914.335
1072.438, 843.792
1073.678, 893.258
1074.918, 797.657
1076.157, 851.816
1077.396, 680.980
1078.635, 610.143
1079.873, 649.544
1081.112, 578.703
1082.350, 628.017
1083.588, 627.179
1084.826, 427.284
1086.064, 546.443
1087.301, 475.596
1088.539, 486.606
1089.776, 475.747
1091.013, 210.966
1092.250, 410.117
1093.486, 489.980
1094.723, 179.955
1095.959, 369.065
1097.195, 188.353
1098.431, 288.084
1099.666, 267.179
1100.902, 256.970
1102.137, 351.794
1103.372, 230.867
1104.607, 203.056
1105.842, 443.062
1107.076, 252.116
1108.311, 322.627
1109.545, 282.246
1110.779, 101.287
1112.012, 350.421
1113.246, 339.875
1114.479, 191.730
1115.712, 280.866
1116.945, 199.994
1118.178, 321.486
1119.411, 420.492
1120.643, 179.484
1121.875, 309.610
1123.108, 318.580
1124.339, 317.715
1125.571, 376.695
1126.802, 314.422
1128.034, 284.873
1129.265, 194.106
1130.496, 243.366
1131.727, 152.952
1132.957, 42.469
1134.187, 122.434
1135.418, 281.712
1136.648, 40.770
1137.877, 209.957
1139.107, 121.091
1140.336, 100.404
1141.566, 330.199
1142.795, 59.671
1144.023, 219.192
1145.252, 80.598
1146.480, 149.705
1147.709, 319.185
1148.937, 29.139
1150.165, 188.685
1151.392, 209.681
1152.620, 39.081
1153.847, 189.019
1155.074, 149.457
1156.301, 138.859
1157.528, 148.236
1158.755, 77.568
1159.981, 77.952
1161.207, 200.044
1162.433, 40.759
1163.659, 258.365
1164.885, 113.329
1166.110, 22.182
1167.336, 191.521
1168.561, 110.972
1169.786, 50.261
1171.010, 159.704
1172.235, 91.227
1173.459, 157.466
1174.683, 107.268
1175.907, 14.062
1177.131, 144.633
1178.355, 15.896
1179.578, 7.273
1180.801, 151.678
1182.024, 10.728
1183.247, 0.759
1184.470, 18.257
1185.692, 56.776
1186.915, 145.194
1188.137, 164.327
1189.359, 27.310
1190.580, 71.249
1191.802, 40.438
1193.023, 107.815
1194.244, 126.053
1195.465, 115.826
1196.686, 12.234
1197.907, 60.665
1199.127, 58.688
1200.347, 136.688
1201.567, 85.335
1202.787, 192.585
1204.007, 100.483
1205.226, 71.233
1206.446, 106.571
1207.665, 64.498
1208.884, 2.227
1210.102, 279.914
1211.321, 102.444
1212.539, 115.127
1213.758, 252.654
1214.976, 30.304
1216.193, 187.718
1217.411, 185.102
1218.628, 122.384
1219.846, 119.624
1221.063, 186.819
1222.280, 143.979
1223.496, 221.094
1224.713, 208.163
1225.929, 135.280
1227.145, 202.271
1228.361, 162.195
1229.577, 229.096
1230.793, 16.324
1232.008, 203.144
1233.223, 279.928
1234.438, 3.271
1235.653, 283.425
1236.868, 69.916
1238.082, 197.061
1239.297, 43.604
1240.511, 30.104
1241.725, 266.560
1242.938, 162.972
1244.152, 59.347
1245.365, 245.681
1246.578, 51.980
1247.791, 61.760
1249.004, 324.441
1250.217, 19.486
1251.429, 26.521
1252.642, 262.483
1253.854, 8.405
1255.066, 74.264
1256.277, 220.077
1257.489, 185.848
1258.700, 111.575
1259.911, 12.747
1261.122, 183.220
1262.333, 188.815
1263.544, 165.623
1264.754, 230.019
1265.964, 335.435
1267.174, 21.854
1268.384, 217.154
1269.594, 171.346
1270.803, 210.032
1272.013, 198.708
1273.222, 181.670
1274.431, 168.940
1275.640, 164.432
1276.848, 92.808
1278.057, 111.380
1279.265, 49.741
1280.473, 178.146
1281.681, 266.635
1282.888, 211.374
1284.096, 12.790
1285.303, 191.172
1286.510, 89.523
1287.717, 157.409
1288.924, 142.972
1290.131, 11.040
1291.337, 268.598
1292.543, 152.651
1293.749, 63.568
1294.955, 131.285
1296.161, 17.594
1297.366, 162.446
1298.571, 69.440
1299.777, 35.434
1300.981, 162.506
1302.186, 167.108
1303.391, 169.947
1304.595, 36.928
1305.799, 7.327
1307.003, 178.763
1308.207, 177.249
1309.411, 55.989
1310.614, 393.054
1311.818, 108.001
1313.021, 74.129
1314.224, 300.567
1315.426, 26.366
1316.629, 142.731
1317.831, 239.043
1319.033, 35.491
1320.235, 231.847
1321.437, 218.308
1322.639, 63.475
1323.840, 270.091
1325.042, 143.668
1326.243, 100.153
1327.444, 443.891
1328.644, 99.945
1329.845, 215.207
1331.045, 350.283
1332.245, 60.899
1333.445, 315.246
1334.645, 157.563
1335.845, 213.338
1337.044, 383.189
1338.244, 238.630
1339.443, 290.242
1340.642, 193.431
1341.840, 98.465
1343.039, 253.547
1344.237, 197.929
1345.435, 211.265
1346.633, 533.087
1347.831, 247.272
1349.029, 87.025
1350.226, 369.318
1351.424, 151.652
1352.621, 260.145
1353.818, 380.895
1355.014, 268.728
1356.211, 229.146
1357.407, 297.926
1358.604, 139.331
1359.800, 470.271
1360.995, 201.752
1362.191, 307.415
1363.387, 336.428
1364.582, 235.061
1365.777, 215.971
1366.972, 344.158
1368.167, 162.687
1369.361, 122.513
1370.556, 141.810
1371.750, 39.415
1372.944, 248.649
1374.138, 48.299
1375.331, 298.570
1376.525, 298.997
1377.718, 117.985
1378.911, 168.171
1380.104, 248.117
1381.297, 35.938
1382.490, 464.727
1383.682, 324.146
1384.874, 263.570
1386.066, 512.114
1387.258, 251.741
1388.450, 192.014
1389.641, 212.364
1390.833, 132.844
1392.024, 145.310
1393.215, 252.010
1394.406, 118.660
1395.596, 137.359
1396.787, 126.366
1397.977, 281.658
1399.167, 210.268
1400.357, 138.733
1401.547, 366.771
1402.736, 204.167
1403.925, 23.837
1405.115, 263.797
1406.304, 174.627
1407.492, 66.276
1408.681, 398.006
1409.870, 1.542
1411.058, 166.718
1412.246, 0.000
##END=



