##NAMES=Rhodonite
##RRUFFID=R040041
##IDEAL CHEMISTRY=CaMn^2+^_3_Mn^2+^Si_5_O_15_
##LOCALITY=Franklin, Sussex County, New Jersey, USA
##OWNER=RRUFF
##SOURCE=University of Arizona Mineral Museum
##DESCRIPTION=Pink prismatic crystals
##STATUS=The identification of this mineral has been confirmed by X-ray diffraction and chemical analysis
##URL=rruff.info/R040041
##MEASURED CHEMISTRY=(Mn_0.63_Ca_0.21_Zn_0.12_Mg_0.02_Fe_0.02_)_Î£=1_Si_1.00_O_3_
##PIN_ID=M00442
##ORIENTATION=Laser parallel to a* (1 0 0). Fiducial mark perpendicular to laser is parallel to -b [0 -1 0]
88.496, 0.000
89.890, 54.873
91.284, 10.408
92.678, 13.697
94.071, 32.852
95.465, 235.536
96.858, 455.948
98.251, 842.130
99.644, 1137.447
101.036, 1300.667
102.428, 1324.966
103.820, 1570.510
105.212, 2585.550
106.604, 4345.322
107.995, 6555.278
109.387, 7880.015
110.777, 8962.236
112.168, 8045.751
113.559, 6374.436
114.949, 4640.038
116.339, 3635.419
117.729, 2702.239
119.119, 2233.422
120.508, 2079.391
121.897, 2034.224
123.286, 2139.189
124.675, 2370.131
126.063, 2499.057
127.452, 2548.001
128.840, 2565.990
130.228, 2493.045
131.615, 2374.171
133.003, 2063.367
134.390, 1779.640
135.777, 1739.808
137.164, 1757.685
138.550, 1891.205
139.937, 1943.834
141.323, 1741.580
142.709, 1499.535
144.094, 1017.827
145.480, 769.201
146.865, 588.327
148.250, 552.357
149.635, 581.688
151.019, 676.307
152.403, 808.202
153.788, 997.364
155.171, 1025.782
156.555, 1108.865
157.939, 1091.731
159.322, 1056.764
160.705, 896.005
162.088, 768.448
163.470, 596.091
164.853, 474.929
166.235, 416.957
167.617, 461.169
168.998, 536.562
170.380, 627.130
171.761, 898.833
173.142, 1078.534
174.523, 1188.274
175.904, 1275.085
177.284, 1100.985
178.664, 876.988
180.044, 456.102
181.424, 181.335
182.803, 5.309
184.183, 0.828
185.562, 65.779
186.940, 139.513
188.319, 279.371
189.698, 350.351
191.076, 365.452
192.454, 344.673
193.831, 178.011
195.209, 36.466
196.586, 103.954
197.963, 199.110
199.340, 281.999
200.717, 285.686
202.093, 259.241
203.470, 208.716
204.846, 39.112
206.221, 83.595
207.597, 315.380
208.972, 511.243
210.347, 788.182
211.722, 891.199
213.097, 930.291
214.472, 820.459
215.846, 648.702
217.220, 416.020
218.594, 238.409
219.967, 93.866
221.341, 44.396
222.714, 49.001
224.087, 6.327
225.460, 19.601
226.832, 73.039
228.204, 33.521
229.577, 149.939
230.948, 199.430
232.320, 349.003
233.692, 519.690
235.063, 746.470
236.434, 1005.355
237.805, 1414.312
239.175, 1724.322
240.545, 2170.394
241.916, 2489.534
243.286, 2728.741
244.655, 3071.014
246.025, 3244.351
247.394, 3182.752
248.763, 2963.217
250.132, 2640.743
251.501, 2364.330
252.869, 2074.977
254.237, 1971.906
255.605, 1967.944
256.973, 2041.343
258.340, 2078.898
259.708, 2184.884
261.075, 2198.227
262.442, 2191.894
263.808, 2104.839
265.175, 1912.040
266.541, 1777.474
267.907, 1711.124
269.273, 1591.962
270.639, 1581.973
272.004, 1650.148
273.369, 1657.477
274.734, 1759.932
276.099, 1779.514
277.463, 1700.209
278.828, 1792.008
280.192, 1693.907
281.556, 1705.891
282.919, 1544.935
284.283, 1465.036
285.646, 1282.191
287.009, 1079.397
288.372, 906.654
289.734, 724.962
291.097, 634.320
292.459, 472.729
293.821, 465.188
295.183, 492.697
296.544, 538.255
297.905, 673.862
299.266, 749.518
300.627, 831.215
301.988, 917.956
303.348, 1040.324
304.709, 1148.667
306.069, 1273.199
307.428, 1405.010
308.788, 1673.705
310.147, 1729.582
311.507, 1982.955
312.865, 2196.544
314.224, 2655.054
315.583, 3088.618
316.941, 3633.235
318.299, 4136.903
319.657, 4644.623
321.015, 5092.009
322.372, 5130.800
323.729, 5280.639
325.086, 5380.524
326.443, 5529.454
327.800, 5902.431
329.156, 6267.449
330.512, 6847.511
331.868, 7475.616
333.224, 8107.763
334.579, 8619.948
335.935, 8412.177
337.290, 8304.443
338.645, 7476.748
339.999, 7039.093
341.354, 6421.477
342.708, 5970.899
344.062, 5631.360
345.416, 5301.859
346.769, 4869.159
348.123, 4315.597
349.476, 3703.203
350.829, 3157.845
352.182, 2621.521
353.534, 2318.231
354.887, 2053.974
356.239, 1762.749
357.591, 1614.557
358.942, 1662.396
360.294, 1642.930
361.645, 1429.412
362.996, 1377.934
364.347, 1266.313
365.698, 1167.062
367.048, 1084.265
368.398, 987.286
369.748, 930.349
371.098, 801.438
372.448, 681.553
373.797, 557.715
375.146, 413.361
376.495, 373.031
377.844, 288.046
379.192, 297.403
380.540, 375.897
381.889, 406.311
383.236, 501.612
384.584, 598.935
385.932, 682.025
387.279, 738.227
388.626, 723.175
389.973, 705.580
391.319, 630.005
392.666, 511.452
394.012, 389.920
395.358, 318.408
396.704, 305.916
398.049, 301.443
399.394, 357.041
400.740, 403.553
402.084, 567.136
403.429, 744.735
404.774, 935.352
406.118, 1260.985
407.462, 1569.635
408.806, 2047.301
410.150, 2373.982
411.493, 3039.679
412.836, 3716.390
414.179, 4582.116
415.522, 5589.856
416.865, 6547.628
418.207, 7088.716
419.549, 7213.346
420.891, 6821.429
422.233, 5921.603
423.575, 4936.955
424.916, 3871.592
426.257, 3041.903
427.598, 2337.635
428.939, 1727.294
430.279, 1390.804
431.619, 1039.678
432.959, 844.048
434.299, 747.971
435.639, 674.847
436.978, 641.437
438.318, 574.341
439.657, 512.641
440.996, 466.756
442.334, 421.710
443.673, 412.363
445.011, 411.076
446.349, 425.335
447.687, 466.488
449.024, 500.652
450.361, 624.824
451.699, 634.012
453.036, 791.206
454.372, 786.406
455.709, 727.622
457.045, 669.844
458.381, 480.078
459.717, 253.335
461.053, 119.604
462.388, 10.893
463.724, 31.803
465.059, 121.510
466.394, 140.261
467.728, 93.067
469.063, 127.903
470.397, 45.794
471.731, 91.697
473.065, 19.638
474.398, 11.413
475.732, 56.476
477.065, 100.565
478.398, 21.663
479.731, 25.774
481.063, 27.104
482.396, 20.018
483.728, 35.144
485.060, 111.274
486.391, 191.416
487.723, 282.558
489.054, 578.698
490.385, 727.847
491.716, 935.002
493.047, 1122.167
494.377, 1108.329
495.708, 1104.489
497.038, 1084.646
498.368, 877.798
499.697, 859.955
501.027, 817.110
502.356, 873.261
503.685, 1026.416
505.014, 1394.565
506.342, 1740.710
507.671, 2173.853
508.999, 2787.992
510.327, 3228.134
511.655, 3478.271
512.982, 3480.404
514.310, 3160.533
515.637, 2767.655
516.964, 2228.774
518.291, 1837.885
519.617, 1474.987
520.944, 1153.097
522.270, 815.239
523.596, 673.425
524.921, 455.651
526.247, 393.914
527.572, 230.200
528.897, 146.482
530.222, 98.751
531.547, 59.009
532.871, 8.255
534.196, 15.523
535.520, 25.662
536.844, 16.828
538.167, 9.972
539.491, 7.909
540.814, 47.174
542.137, 95.241
543.460, 188.293
544.783, 195.331
546.105, 243.361
547.427, 361.377
548.749, 553.381
550.071, 735.370
551.393, 975.343
552.714, 1371.300
554.035, 1651.241
555.356, 1984.166
556.677, 1932.074
557.998, 1939.965
559.318, 1604.838
560.638, 1239.695
561.958, 954.535
563.278, 685.356
564.597, 540.160
565.917, 458.945
567.236, 359.712
568.555, 300.460
569.874, 247.190
571.192, 187.901
572.511, 133.592
573.829, 137.264
575.147, 109.916
576.464, 42.549
577.782, 61.148
579.099, 46.281
580.416, 1.215
581.733, 48.341
583.050, 19.974
584.366, 45.671
585.683, 51.446
586.999, 65.302
588.315, 30.246
589.630, 35.262
590.946, 58.352
592.261, 50.528
593.576, 16.212
594.891, 12.073
596.206, 17.165
597.520, 31.940
598.834, 37.734
600.148, 43.227
601.462, 58.882
602.776, 47.460
604.089, 123.908
605.402, 147.634
606.715, 161.180
608.028, 151.031
609.341, 232.617
610.653, 227.118
611.965, 216.859
613.277, 318.732
614.589, 311.373
615.901, 370.461
617.212, 455.014
618.523, 457.264
619.834, 494.481
621.145, 600.214
622.456, 589.582
623.766, 660.921
625.076, 725.142
626.386, 750.049
627.696, 849.270
629.006, 969.804
630.315, 1022.750
631.624, 1104.759
632.933, 1255.125
634.242, 1334.415
635.551, 1492.975
636.859, 1629.452
638.167, 1838.467
639.475, 2046.267
640.783, 2162.985
642.090, 2442.496
643.398, 2721.748
644.705, 3007.659
646.012, 3467.303
647.318, 3894.069
648.625, 4419.444
649.931, 5278.625
651.237, 6308.173
652.543, 7389.804
653.849, 8935.306
655.155, 10866.786
656.460, 13439.665
657.765, 16711.725
659.070, 20723.000
660.375, 25706.244
661.679, 32207.523
662.984, 39139.016
664.288, 45760.559
665.592, 51271.977
666.895, 53294.820
668.199, 52216.594
669.502, 47497.941
670.805, 41520.102
672.108, 35031.027
673.411, 29483.078
674.713, 24103.979
676.016, 20515.102
677.318, 17546.170
678.620, 15268.680
679.921, 12970.214
681.223, 11040.960
682.524, 9232.045
683.825, 7561.692
685.126, 6323.387
686.427, 5244.968
687.727, 4427.517
689.028, 3777.034
690.328, 3166.495
691.628, 2855.467
692.927, 2478.407
694.227, 2128.992
695.526, 1992.229
696.825, 1757.319
698.124, 1636.480
699.423, 1493.745
700.721, 1377.979
702.020, 1317.182
703.318, 1317.353
704.616, 1324.494
705.913, 1368.459
707.211, 1444.470
708.508, 1544.732
709.805, 1646.750
711.102, 1804.737
712.399, 1912.693
713.695, 1946.619
714.992, 1849.515
716.288, 1649.380
717.584, 1494.215
718.879, 1216.021
720.175, 1116.795
721.470, 956.540
722.765, 830.255
724.060, 764.940
725.355, 650.595
726.649, 576.221
727.944, 561.818
729.238, 535.385
730.532, 598.923
731.825, 547.054
733.119, 527.633
734.412, 499.296
735.705, 438.508
736.998, 422.627
738.291, 434.565
739.584, 364.213
740.876, 359.180
742.168, 325.719
743.460, 309.325
744.752, 285.070
746.043, 200.442
747.334, 194.307
748.626, 190.609
749.916, 122.946
751.207, 155.558
752.498, 104.843
753.788, 121.719
755.078, 115.767
756.368, 67.963
757.658, 71.602
758.947, 90.850
760.237, 44.698
761.526, 8.634
762.815, 30.538
764.104, 10.584
765.392, 52.254
766.680, 29.069
767.969, 18.140
769.257, 29.607
770.544, 7.669
771.832, 47.983
773.119, 12.355
774.406, 44.765
775.693, 22.231
776.980, 5.260
778.267, 26.268
779.553, 27.811
780.839, 28.365
782.125, 3.939
783.411, 16.513
784.697, 1.112
785.982, 23.283
787.267, 26.334
788.552, 73.992
789.837, 15.715
791.122, 31.471
792.406, 25.269
793.690, 49.104
794.974, 6.980
796.258, 4.883
797.542, 33.810
798.825, 4.223
800.108, 35.237
801.391, 29.765
802.674, 24.802
803.957, 38.872
805.239, 23.019
806.522, 3.896
807.804, 16.755
809.085, 12.601
810.367, 24.568
811.649, 12.766
812.930, 36.015
814.211, 34.217
815.492, 15.519
816.772, 5.757
818.053, 8.050
819.333, 6.358
820.613, 34.682
821.893, 18.035
823.173, 8.407
824.452, 27.792
825.732, 42.798
827.011, 28.621
828.290, 14.938
829.568, 8.512
830.847, 7.976
832.125, 41.452
833.403, 24.954
834.681, 4.528
835.959, 15.000
837.236, 29.459
838.514, 2.089
839.791, 37.353
841.068, 50.788
842.345, 38.216
843.621, 72.637
844.898, 79.058
846.174, 68.483
847.450, 103.906
848.726, 97.327
850.001, 139.748
851.277, 161.175
852.552, 163.598
853.827, 206.015
855.102, 226.428
856.376, 308.837
857.651, 383.241
858.925, 439.641
860.199, 509.037
861.473, 681.429
862.746, 794.818
864.020, 1140.204
865.293, 1352.587
866.566, 1695.967
867.839, 2202.345
869.112, 2602.720
870.384, 3181.094
871.656, 3491.467
872.928, 3796.839
874.200, 3877.218
875.472, 3771.594
876.744, 3540.970
878.015, 3326.350
879.286, 3167.732
880.557, 2966.113
881.828, 2838.504
883.098, 2785.895
884.369, 2944.287
885.639, 2950.681
886.909, 3127.082
888.178, 3022.489
889.448, 2891.924
890.717, 2628.385
891.987, 2243.874
893.256, 1974.398
894.524, 1714.953
895.793, 1528.554
897.061, 1363.193
898.330, 1216.875
899.598, 1170.207
900.865, 1194.347
902.133, 1182.157
903.401, 1306.966
904.668, 1425.834
905.935, 1570.654
907.202, 1839.553
908.468, 2182.473
909.735, 2526.212
911.001, 2749.001
912.267, 2831.910
913.533, 2797.523
914.799, 2639.300
916.064, 2445.773
917.330, 2229.493
918.595, 2042.288
919.860, 1874.831
921.124, 1798.226
922.389, 1712.834
923.653, 1648.978
924.918, 1653.643
926.182, 1823.599
927.445, 1892.570
928.709, 2204.013
929.972, 2591.226
931.236, 3096.525
932.499, 3865.779
933.761, 4586.049
935.024, 5149.910
936.286, 5394.038
937.549, 4891.183
938.811, 4281.091
940.073, 3616.759
941.334, 2912.489
942.596, 2465.937
943.857, 2087.457
945.118, 1973.429
946.379, 1821.967
947.640, 1758.207
948.900, 1818.638
950.161, 1722.317
951.421, 1925.323
952.681, 1960.586
953.940, 2113.716
955.200, 2409.222
956.459, 2682.911
957.719, 2994.215
958.978, 3539.424
960.236, 4180.750
961.495, 5102.091
962.753, 6041.019
964.012, 7564.751
965.270, 9573.256
966.527, 12019.785
967.785, 15328.255
969.043, 18146.500
970.300, 21054.699
971.557, 22842.994
972.814, 22449.850
974.071, 21217.775
975.327, 19646.111
976.583, 17453.609
977.840, 15972.339
979.095, 14889.931
980.351, 14108.655
981.607, 14577.147
982.862, 14845.675
984.117, 16842.756
985.372, 18720.787
986.627, 21839.600
987.882, 26098.051
989.136, 28576.928
990.390, 30675.742
991.644, 29974.656
992.898, 27083.582
994.152, 25212.529
995.405, 23041.496
996.659, 22520.479
997.912, 22469.473
999.165, 22298.494
1000.417, 22757.520
1001.670, 21636.574
1002.922, 20075.635
1004.174, 17994.719
1005.426, 15173.821
1006.678, 13092.935
1007.930, 11292.068
1009.181, 9571.218
1010.432, 8650.382
1011.683, 7799.565
1012.934, 7288.765
1014.185, 6949.982
1015.435, 6483.216
1016.685, 6384.467
1017.935, 6414.735
1019.185, 6243.021
1020.435, 6340.322
1021.684, 6408.032
1022.934, 6729.366
1024.183, 7079.170
1025.432, 7135.537
1026.680, 7482.921
1027.929, 7663.344
1029.177, 7632.974
1030.425, 7802.538
1031.673, 7573.736
1032.921, 7633.231
1034.169, 7552.774
1035.416, 7632.585
1036.663, 7682.094
1037.911, 7931.616
1039.157, 8451.271
1040.404, 9292.248
1041.650, 9971.870
1042.897, 11274.005
1044.143, 12043.639
1045.389, 12606.618
1046.634, 12576.442
1047.880, 11539.826
1049.125, 9900.751
1050.371, 8460.895
1051.615, 6889.687
1052.860, 5754.577
1054.105, 4497.900
1055.349, 3726.693
1056.593, 3117.473
1057.837, 2405.954
1059.081, 2179.365
1060.325, 1883.222
1061.568, 1644.695
1062.812, 1556.868
1064.055, 1259.821
1065.298, 1231.851
1066.540, 1117.009
1067.783, 975.914
1069.025, 993.319
1070.267, 925.976
1071.509, 896.033
1072.751, 865.029
1073.993, 829.407
1075.234, 819.748
1076.475, 786.825
1077.716, 670.645
1078.957, 691.480
1080.198, 594.966
1081.438, 589.216
1082.679, 586.436
1083.919, 497.348
1085.159, 517.776
1086.398, 439.940
1087.638, 466.280
1088.877, 385.634
1090.116, 364.324
1091.355, 337.797
1092.594, 303.137
1093.833, 255.263
1095.071, 288.333
1096.309, 273.808
1097.547, 318.328
1098.785, 244.594
1100.023, 278.639
1101.260, 297.631
1102.498, 294.861
1103.735, 196.936
1104.972, 277.285
1106.208, 256.767
1107.445, 232.464
1108.681, 281.125
1109.918, 242.940
1111.154, 225.842
1112.389, 233.430
1113.625, 196.979
1114.860, 220.619
1116.096, 197.109
1117.331, 260.788
1118.566, 241.515
1119.800, 248.246
1121.035, 267.045
1122.269, 252.774
1123.503, 261.315
1124.737, 237.254
1125.971, 204.821
1127.205, 184.535
1128.438, 189.214
1129.671, 158.990
1130.904, 157.309
1132.137, 137.741
1133.370, 140.326
1134.602, 149.082
1135.834, 136.962
1137.066, 186.565
1138.298, 110.563
1139.530, 146.143
1140.762, 70.866
1141.993, 142.462
1143.224, 111.339
1144.455, 116.090
1145.686, 117.419
1146.917, 106.977
1148.147, 127.638
1149.377, 103.282
1150.607, 120.878
1151.837, 150.845
1153.067, 116.452
1154.296, 109.237
1155.526, 97.922
1156.755, 93.529
1157.984, 122.208
1159.213, 58.875
1160.441, 124.627
1161.670, 34.406
1162.898, 57.256
1164.126, 108.049
1165.354, 79.812
1166.581, 45.444
1167.809, 84.141
1169.036, 17.280
1170.263, 39.313
1171.490, 40.180
1172.717, 12.289
1173.943, 60.829
1175.170, 29.785
1176.396, 9.246
1177.622, 5.771
1178.848, 41.424
1180.073, 0.037
1181.299, 1.532
1182.524, 10.211
1183.749, 27.172
1184.974, 12.522
1186.199, 2.195
1187.423, 30.921
1188.648, 2.330
1189.872, 47.418
1191.096, 8.848
1192.320, 58.949
1193.543, 2.757
1194.767, 63.576
1195.990, 23.465
1197.213, 8.375
1198.436, 83.300
1199.659, 20.278
1200.881, 42.275
1202.104, 12.692
1203.326, 19.649
1204.548, 26.345
1205.770, 24.425
1206.991, 13.469
1208.213, 55.647
1209.434, 1.788
1210.655, 13.923
1211.876, 62.088
1213.096, 0.705
1214.317, 26.554
1215.537, 17.844
1216.757, 5.156
1217.977, 8.511
1219.197, 27.165
1220.417, 14.193
1221.636, 12.577
1222.855, 27.014
1224.074, 18.408
1225.293, 1.859
1226.512, 4.670
1227.731, 12.250
1228.949, 23.746
1230.167, 0.228
1231.385, 7.263
1232.603, 53.171
1233.820, 17.705
1235.038, 18.115
1236.255, 8.502
1237.472, 4.030
1238.689, 9.690
1239.906, 4.383
1241.122, 4.940
1242.338, 25.205
1243.555, 22.485
1244.771, 3.795
1245.986, 9.008
1247.202, 6.537
1248.417, 6.646
1249.633, 10.768
1250.848, 6.011
1252.063, 54.113
1253.277, 25.225
1254.492, 2.385
1255.706, 15.523
1256.920, 20.505
1258.134, 41.447
1259.348, 53.405
1260.562, 10.689
1261.775, 73.188
1262.988, 6.048
1264.201, 33.922
1265.414, 34.734
1266.627, 16.472
1267.839, 15.291
1269.052, 69.031
1270.264, 28.953
1271.476, 72.650
1272.688, 44.327
1273.899, 10.980
1275.111, 40.606
1276.322, 31.211
1277.533, 42.830
1278.744, 78.422
1279.955, 47.100
1281.165, 38.695
1282.376, 78.192
1283.586, 34.668
1284.796, 85.121
1286.006, 54.555
1287.215, 82.009
1288.425, 42.436
1289.634, 52.806
1290.843, 26.155
1292.052, 92.507
1293.261, 67.873
1294.469, 72.338
1295.678, 83.645
1296.886, 41.154
1298.094, 81.438
1299.302, 52.641
1300.509, 63.955
1301.717, 81.120
1302.924, 64.989
1304.131, 66.419
1305.338, 56.532
1306.545, 54.613
1307.752, 50.100
1308.958, 54.032
1310.164, 56.544
1311.370, 72.268
1312.576, 63.242
1313.782, 83.195
1314.987, 77.738
1316.193, 97.647
1317.398, 101.009
1318.603, 83.035
1319.807, 118.882
1321.012, 77.685
1322.216, 91.275
1323.421, 150.930
1324.625, 85.948
1325.829, 91.665
1327.032, 116.326
1328.236, 98.717
1329.439, 105.408
1330.642, 140.081
1331.845, 143.616
1333.048, 145.823
1334.251, 117.382
1335.453, 104.425
1336.656, 140.962
1337.858, 108.152
1339.060, 108.490
1340.261, 168.256
1341.463, 118.477
1342.664, 139.474
1343.866, 108.815
1345.067, 105.053
1346.267, 144.844
1347.468, 126.160
1348.669, 89.481
1349.869, 169.096
1351.069, 124.773
1352.269, 170.998
1353.469, 93.603
1354.668, 88.501
1355.868, 89.615
1357.067, 84.828
1358.266, 99.733
1359.465, 113.894
1360.664, 100.035
1361.862, 164.436
1363.061, 115.488
1364.259, 104.600
1365.457, 118.285
1366.655, 190.022
1367.852, 106.026
1369.050, 130.303
1370.247, 136.050
1371.444, 70.658
1372.641, 127.481
1373.838, 118.332
1375.035, 74.493
1376.231, 96.131
1377.427, 57.973
1378.623, 83.617
1379.819, 124.333
1381.015, 60.576
1382.211, 126.885
1383.406, 106.653
1384.601, 72.368
1385.796, 95.845
1386.991, 70.030
1388.185, 56.938
1389.380, 74.348
1390.574, 24.179
1391.768, 64.513
1392.962, 95.584
1394.156, 37.471
1395.350, 64.103
1396.543, 52.049
1397.736, 35.139
1398.929, 45.664
1400.122, 52.146
1401.315, 93.312
1402.507, 58.908
1403.700, 80.152
1404.892, 79.391
1406.084, 128.937
1407.276, 56.227
1408.467, 96.718
1409.659, 83.203
1410.850, 70.606
1412.041, 101.531
1413.232, 20.520
1414.423, 81.678
1415.614, 73.593
1416.804, 65.158
1417.994, 86.737
1419.184, 85.539
1420.374, 50.467
1421.564, 51.574
1422.753, 25.663
1423.943, 39.529
1425.132, 76.584
1426.321, 80.622
1427.510, 60.592
1428.698, 63.732
1429.887, 44.839
1431.075, 45.870
1432.263, 65.903
1433.451, 66.043
1434.639, 46.196
1435.827, 37.379
1437.014, 13.452
1438.201, 40.623
1439.388, 4.766
1440.575, 34.827
1441.762, 68.984
1442.949, 17.214
1444.135, 47.436
1445.321, 89.639
1446.507, 38.846
1447.693, 44.057
1448.879, 62.123
1450.064, 2.798
1451.250, 103.155
1452.435, 16.291
1453.620, 59.235
1454.805, 109.329
1455.989, 60.416
1457.174, 44.371
1458.358, 125.869
1459.542, 21.735
1460.726, 144.727
1461.910, 82.432
1463.093, 85.526
1464.277, 124.678
1465.460, 74.899
1466.643, 123.024
1467.826, 107.239
1469.009, 83.935
1470.191, 134.146
1471.373, 86.886
1472.556, 115.736
1473.738, 130.712
1474.919, 133.157
1476.101, 84.764
1477.283, 102.190
1478.464, 131.894
1479.645, 92.083
1480.826, 163.570
1482.007, 45.798
1483.187, 53.814
1484.368, 115.556
1485.548, 54.630
1486.728, 119.784
1487.908, 49.310
1489.088, 58.978
1490.268, 115.114
1491.447, 53.265
1492.626, 76.053
1493.805, 125.227
1494.984, 56.396
1496.163, 101.559
1497.341, 65.733
1498.520, 2.897
1499.698, 117.077
1500.876, 77.249
1502.054, 4.587
1503.232, 83.633
1504.409, 23.900
1505.586, 23.188
1506.763, 73.618
1507.940, 47.094
1509.117, 65.634
1510.294, 119.222
1511.470, 2.139
1512.647, 86.371
1513.823, 81.114
1514.999, 53.306
1516.174, 105.504
