##NAMES=Rhodochrosite
##RRUFFID=R050019
##IDEAL CHEMISTRY=Mn^2+^CO_3_
##LOCALITY=Home Sweet Home mine, Colorado, USA
##OWNER=RRUFF
##SOURCE=Eugene Schlepp
##DESCRIPTION=Pink single crystal rhombs on quartz
##STATUS=The identification of this mineral has been confirmed by X-ray diffraction and chemical analysis
##URL=rruff.info/R050019
##MEASURED CHEMISTRY=Mn_1.00_CO_3_
##PIN_ID=L00392
##ORIENTATION=Laser parallel to -c* (0 0 -1). Fiducial mark perpendicular to laser is parallel to -a [-1 0 0]
99.471, 0.000
100.871, 36.369
102.271, 11.713
103.670, 14.905
105.070, 6.423
106.469, 52.521
107.868, 119.760
109.267, 142.042
110.665, 130.128
112.063, 227.028
113.461, 65.840
114.859, 81.027
116.256, 51.530
117.653, 57.318
119.050, 31.372
120.447, 47.653
121.843, 43.124
123.240, 78.756
124.636, 60.527
126.031, 43.418
127.427, 39.414
128.822, 25.507
130.217, 29.629
131.612, 38.938
133.006, 44.295
134.400, 47.763
135.794, 47.213
137.188, 12.237
138.581, 38.053
139.975, 32.901
141.368, 22.766
142.760, 47.646
144.153, 41.541
145.545, 25.449
146.937, 55.369
148.329, 42.303
149.720, 71.248
151.112, 46.206
152.503, 68.175
153.893, 58.156
155.284, 61.149
156.674, 61.204
158.064, 76.232
159.454, 75.276
160.843, 75.337
162.233, 126.407
163.622, 114.485
165.011, 133.857
166.399, 134.952
167.787, 161.041
169.175, 188.707
170.563, 248.091
171.951, 370.210
173.338, 423.358
174.725, 603.636
176.112, 907.675
177.499, 1286.724
178.885, 1917.159
180.271, 2547.245
181.657, 3194.337
183.043, 3369.439
184.428, 3009.538
185.813, 2241.634
187.198, 1475.736
188.583, 987.840
189.967, 616.946
191.351, 449.057
192.735, 319.172
194.119, 250.292
195.502, 166.425
196.885, 141.564
198.268, 119.708
199.651, 81.858
201.033, 107.015
202.415, 79.177
203.797, 36.346
205.179, 48.521
206.561, 18.704
207.942, 72.892
209.323, 27.090
210.703, 22.302
212.084, 28.519
213.464, 0.993
214.844, 12.229
216.224, 9.912
217.603, 10.136
218.983, 10.364
220.362, 13.906
221.741, 1.137
223.119, 23.370
224.497, 35.606
225.875, 10.845
227.253, 11.125
228.631, 4.630
230.008, 28.992
231.385, 0.238
232.762, 12.514
234.139, 26.783
235.515, 10.351
236.891, 6.394
238.267, 14.136
239.643, 9.874
241.018, 18.431
242.393, 9.604
243.768, 16.281
245.143, 13.882
246.517, 27.702
247.891, 4.035
249.265, 5.471
250.639, 26.738
252.012, 6.177
253.386, 21.426
254.759, 10.674
256.131, 4.917
257.504, 5.829
258.876, 16.047
260.248, 7.288
261.620, 1.521
262.991, 38.763
264.363, 22.099
265.734, 23.556
267.104, 22.453
268.475, 17.420
269.845, 24.441
271.215, 39.502
272.585, 64.902
273.955, 37.026
275.324, 51.174
276.693, 98.344
278.062, 130.532
279.431, 173.736
280.799, 240.955
282.167, 323.187
283.535, 465.433
284.903, 608.689
286.270, 794.955
287.638, 838.229
289.005, 859.973
290.371, 798.262
291.738, 625.558
293.104, 515.888
294.470, 361.195
295.836, 286.507
297.201, 205.824
298.567, 165.145
299.932, 120.568
301.296, 121.898
302.661, 108.230
304.025, 51.564
305.389, 84.900
306.753, 31.246
308.117, 36.586
309.480, 38.215
310.843, 22.558
312.206, 48.903
313.569, 52.250
314.931, 34.599
316.293, 14.326
317.655, 23.679
319.017, 49.747
320.378, 33.103
321.740, 28.459
323.101, 20.817
324.461, 1.825
325.822, 22.533
327.182, 6.893
328.542, 35.253
329.902, 4.388
331.261, 48.966
332.621, 12.321
333.980, 30.670
335.339, 34.009
336.697, 14.340
338.056, 19.667
339.414, 2.006
340.772, 24.320
342.129, 32.660
343.487, 7.988
344.844, 29.317
346.201, 32.646
347.557, 24.976
348.914, 20.307
350.270, 27.638
351.626, 52.004
352.982, 3.337
354.337, 78.670
355.693, 36.028
357.048, 2.638
358.402, 29.695
359.757, 15.029
361.111, 26.363
362.465, 9.698
363.819, 18.033
365.173, 16.368
366.526, 3.704
367.879, 31.039
369.232, 1.409
370.585, 40.926
371.937, 19.313
373.290, 10.716
374.642, 50.081
375.993, 15.586
377.345, 32.906
378.696, 0.241
380.047, 5.574
381.398, 4.093
382.748, 10.238
384.099, 29.567
385.449, 4.141
386.799, 25.469
388.148, 3.202
389.497, 43.124
390.847, 9.450
392.196, 9.664
393.544, 36.988
394.893, 0.310
396.241, 26.260
397.589, 6.581
398.936, 14.901
400.284, 14.043
401.631, 0.878
402.978, 40.888
404.325, 6.520
405.672, 11.246
407.018, 37.961
408.364, 24.775
409.710, 31.085
411.055, 4.282
412.401, 28.598
413.746, 11.906
415.091, 23.759
416.435, 28.540
417.780, 4.840
419.124, 35.139
420.468, 24.255
421.812, 50.495
423.155, 27.786
424.498, 2.076
425.842, 36.457
427.184, 8.254
428.527, 20.031
429.869, 32.317
431.211, 16.604
432.553, 46.892
433.895, 1.819
435.236, 33.467
436.577, 21.753
437.918, 19.039
439.259, 38.327
440.599, 16.613
441.940, 26.898
443.280, 17.184
444.619, 11.899
445.959, 14.183
447.298, 26.467
448.637, 40.762
449.976, 3.956
451.315, 50.322
452.653, 27.599
453.991, 5.876
455.329, 28.151
456.667, 10.425
458.004, 10.699
459.341, 14.984
460.678, 3.256
462.015, 50.853
463.352, 14.126
464.688, 36.398
466.024, 22.669
467.360, 7.943
468.695, 42.215
470.031, 0.514
471.366, 72.754
472.701, 22.021
474.035, 52.287
475.370, 12.933
476.704, 1.804
478.038, 64.610
479.372, 7.132
480.705, 75.119
482.038, 17.368
483.371, 22.617
484.704, 54.866
486.037, 17.928
487.369, 46.176
488.701, 15.423
490.033, 17.672
491.365, 34.598
492.696, 9.844
494.027, 28.091
495.358, 31.337
496.689, 20.581
498.019, 38.899
499.350, 23.141
500.680, 66.154
502.009, 8.598
503.339, 18.843
504.668, 42.164
505.997, 14.407
507.326, 41.649
508.655, 17.930
509.983, 41.173
511.311, 7.428
512.639, 19.669
513.967, 48.878
515.295, 8.117
516.622, 42.354
517.949, 11.293
519.276, 26.527
520.602, 39.760
521.929, 27.044
523.255, 53.275
524.581, 42.505
525.906, 34.733
527.232, 51.925
528.557, 1.155
529.882, 47.122
531.207, 6.854
532.531, 6.081
533.855, 8.306
535.179, 2.529
536.503, 25.749
537.827, 32.968
539.150, 44.992
540.473, 39.196
541.796, 10.977
543.119, 48.191
544.441, 0.404
545.764, 37.560
547.086, 19.768
548.407, 20.572
549.729, 31.778
551.050, 34.982
552.371, 50.185
553.692, 12.387
555.013, 7.367
556.333, 31.568
557.653, 33.761
558.973, 37.960
560.293, 28.158
561.612, 16.188
562.932, 24.387
564.251, 7.412
565.569, 34.782
566.888, 33.977
568.206, 60.173
569.524, 23.369
570.842, 9.552
572.160, 63.745
573.477, 7.936
574.795, 34.549
576.112, 17.738
577.428, 12.917
578.745, 44.103
580.061, 11.711
581.377, 14.465
582.693, 12.640
584.009, 3.721
585.324, 28.892
586.639, 23.393
587.954, 22.622
589.269, 32.790
590.583, 18.956
591.897, 28.121
593.212, 19.980
594.525, 44.143
595.839, 13.304
597.152, 8.473
598.465, 30.631
599.778, 30.788
601.091, 34.944
602.403, 3.901
603.716, 28.253
605.028, 14.401
606.339, 7.548
607.651, 24.693
608.962, 25.376
610.273, 62.519
611.584, 33.661
612.895, 19.772
614.205, 30.911
615.515, 62.049
616.825, 7.318
618.135, 27.454
619.444, 2.509
620.754, 64.374
622.063, 16.503
623.372, 26.631
624.680, 79.571
625.989, 45.688
627.297, 78.866
628.605, 32.703
629.912, 49.827
631.220, 69.949
632.527, 2.930
633.834, 38.186
635.141, 0.925
636.447, 36.055
637.754, 23.452
639.060, 18.561
640.366, 48.993
641.671, 29.099
642.977, 80.204
644.282, 47.824
645.587, 42.932
646.892, 67.896
648.196, 48.001
649.501, 55.106
650.805, 48.381
652.109, 23.485
653.412, 86.586
654.716, 4.686
656.019, 62.784
657.322, 22.880
658.625, 0.024
659.927, 27.575
661.230, 5.666
662.532, 33.756
663.834, 17.050
665.135, 8.143
666.437, 47.944
667.738, 11.027
669.039, 32.077
670.340, 46.173
671.640, 29.260
672.940, 26.322
674.241, 25.407
675.540, 16.605
676.840, 36.580
678.139, 7.665
679.439, 26.765
680.738, 22.846
682.036, 41.925
683.335, 60.755
684.633, 19.832
685.931, 50.693
687.229, 3.411
688.527, 75.609
689.824, 34.612
691.121, 21.652
692.418, 62.549
693.715, 49.613
695.012, 66.675
696.308, 47.864
697.604, 59.924
698.900, 77.984
700.195, 70.427
701.491, 101.854
702.786, 80.910
704.081, 88.964
705.376, 107.018
706.670, 82.080
707.964, 128.131
709.259, 188.181
710.552, 226.229
711.846, 341.245
713.139, 593.296
714.433, 1166.340
715.726, 2105.383
717.018, 3599.424
718.311, 4031.465
719.603, 3017.504
720.895, 1664.821
722.187, 990.857
723.479, 535.891
724.770, 368.923
726.061, 212.954
727.352, 200.976
728.643, 123.006
729.934, 93.011
731.224, 103.042
732.514, 89.073
733.804, 72.101
735.094, 39.128
736.383, 51.205
737.672, 91.229
738.961, 26.252
740.250, 52.183
741.539, 47.203
742.827, 5.225
744.115, 68.245
745.403, 43.263
746.691, 43.280
747.978, 26.296
749.265, 20.314
750.552, 29.039
751.839, 10.341
753.126, 41.350
754.412, 27.360
755.698, 13.369
756.984, 86.376
758.270, 10.951
759.555, 35.045
760.840, 42.048
762.125, 18.039
763.410, 29.040
764.695, 34.041
765.979, 35.041
767.263, 26.039
768.547, 17.037
769.831, 28.033
771.114, 1.028
772.398, 40.334
773.681, 24.325
774.964, 9.011
776.246, 12.971
777.529, 22.953
778.811, 10.067
780.093, 25.905
781.375, 3.875
782.656, 48.464
783.937, 28.433
785.219, 34.400
786.499, 71.367
787.780, 14.950
789.060, 43.914
790.341, 6.724
791.621, 40.687
792.901, 56.653
794.180, 2.383
795.459, 23.577
796.739, 25.536
798.017, 5.506
799.296, 53.674
800.575, 10.375
801.853, 57.568
803.131, 22.509
804.409, 0.449
805.686, 11.386
806.964, 12.322
808.241, 22.257
809.518, 11.116
810.795, 24.049
812.071, 58.013
813.347, 21.260
814.623, 30.657
815.899, 30.844
817.175, 0.242
818.450, 9.670
819.726, 8.458
821.001, 35.446
822.275, 16.689
823.550, 7.591
824.824, 29.145
826.098, 23.044
827.372, 41.943
828.646, 51.443
829.920, 55.495
831.193, 51.391
832.466, 8.234
833.739, 15.127
835.011, 40.019
836.284, 8.090
837.556, 33.794
838.828, 25.023
840.100, 9.095
841.371, 51.275
842.642, 23.149
843.914, 64.022
845.184, 21.895
846.455, 28.767
847.726, 47.639
848.996, 1.510
850.266, 56.378
851.536, 42.245
852.805, 22.112
854.075, 49.978
855.344, 25.844
856.613, 51.709
857.881, 48.574
859.150, 7.438
860.418, 48.301
861.686, 38.163
862.954, 30.025
864.222, 33.885
865.489, 7.745
866.756, 57.605
868.023, 41.464
869.290, 15.322
870.557, 30.179
871.823, 12.036
873.089, 46.892
874.355, 44.750
875.621, 44.608
876.886, 54.466
878.152, 42.323
879.417, 18.179
880.682, 7.035
881.946, 5.890
883.211, 46.744
884.475, 12.599
885.739, 52.452
887.003, 37.305
888.266, 7.160
889.530, 11.017
890.793, 16.874
892.056, 15.731
893.318, 65.588
894.581, 7.446
895.843, 54.243
897.105, 24.100
898.367, 15.959
899.629, 62.817
900.890, 4.677
902.152, 52.536
903.413, 45.395
904.673, 53.245
905.934, 57.103
907.194, 41.962
908.454, 23.820
909.714, 19.678
910.974, 0.467
912.234, 11.414
913.493, 11.249
914.752, 33.108
916.011, 29.966
917.270, 34.825
918.528, 13.684
919.786, 34.543
921.044, 17.402
922.302, 14.261
923.560, 5.013
924.817, 25.844
926.074, 15.701
927.331, 18.809
928.588, 58.667
929.844, 3.526
931.101, 30.572
932.357, 37.431
933.613, 10.765
934.868, 43.089
936.124, 12.944
937.379, 27.798
938.634, 44.653
939.889, 39.510
941.144, 22.368
942.398, 5.207
943.652, 22.066
944.906, 13.222
946.160, 33.461
947.414, 15.321
948.667, 35.181
949.920, 21.473
951.173, 36.378
952.426, 22.374
953.678, 12.226
954.931, 78.084
956.183, 4.771
957.435, 85.629
958.686, 13.489
959.938, 15.349
961.189, 26.210
962.440, 0.926
963.691, 14.938
964.941, 17.286
966.192, 8.847
967.442, 32.018
968.692, 8.678
969.942, 21.539
971.191, 52.691
972.441, 9.440
973.690, 38.426
974.939, 30.720
976.187, 12.133
977.436, 37.988
978.684, 14.156
979.932, 5.305
981.180, 8.546
982.428, 16.397
983.675, 23.233
984.922, 23.086
986.169, 18.941
987.416, 40.045
988.663, 10.099
989.909, 38.756
991.155, 13.791
992.401, 11.650
993.647, 42.511
994.893, 28.372
996.138, 49.234
997.383, 15.098
998.628, 68.963
999.873, 120.700
1001.117, 78.567
1002.362, 101.438
1003.606, 125.310
1004.850, 86.183
1006.093, 143.057
1007.337, 123.932
1008.580, 102.809
1009.823, 169.677
1011.066, 95.556
1012.308, 144.439
1013.551, 136.322
1014.793, 117.207
1016.035, 159.088
1017.277, 144.976
1018.518, 194.866
1019.760, 242.757
1021.001, 170.649
1022.242, 227.543
1023.483, 163.438
1024.723, 181.334
1025.964, 215.231
1027.204, 150.129
1028.444, 191.029
1029.683, 178.930
1030.923, 112.831
1032.162, 183.731
1033.401, 148.638
1034.640, 162.547
1035.879, 205.462
1037.117, 145.664
1038.355, 229.583
1039.593, 210.504
1040.831, 198.426
1042.069, 273.354
1043.306, 204.521
1044.544, 267.456
1045.781, 284.392
1047.017, 261.792
1048.254, 366.731
1049.490, 335.025
1050.726, 369.962
1051.962, 407.904
1053.198, 395.867
1054.434, 462.810
1055.669, 502.758
1056.904, 493.704
1058.139, 550.651
1059.374, 583.611
1060.608, 691.483
1061.843, 863.445
1063.077, 929.411
1064.311, 927.379
1065.544, 872.609
1066.778, 837.579
1068.011, 947.549
1069.244, 961.531
1070.477, 1128.513
1071.710, 1294.496
1072.942, 1494.426
1074.174, 1843.414
1075.406, 2256.402
1076.638, 3020.399
1077.870, 4264.396
1079.101, 6526.398
1080.332, 11910.403
1081.563, 24569.410
1082.794, 46657.816
1084.025, 58716.832
1085.255, 43255.852
1086.485, 23164.873
1087.715, 12533.903
1088.945, 6981.930
1090.175, 4322.993
1091.404, 2742.023
1092.633, 1881.119
1093.862, 1485.157
1095.091, 1043.198
1096.319, 887.260
1097.548, 730.306
1098.776, 612.245
1100.004, 602.319
1101.231, 456.374
1102.459, 437.464
1103.686, 451.521
1104.913, 338.580
1106.140, 347.718
1107.367, 313.779
1108.593, 248.840
1109.819, 238.376
1111.046, 202.407
1112.271, 208.512
1113.497, 232.583
1114.722, 149.307
1115.948, 181.449
1117.173, 173.523
1118.398, 114.677
1119.622, 232.757
1120.847, 125.483
1122.071, 166.582
1123.295, 136.011
1124.519, 106.094
1125.742, 139.265
1126.966, 93.747
1128.189, 77.676
1129.412, 122.762
1130.635, 68.849
1131.857, 110.013
1133.080, 82.102
1134.302, 62.191
1135.524, 114.313
1136.746, 64.061
1137.967, 72.187
1139.188, 106.347
1140.410, 54.447
1141.631, 58.547
1142.851, 60.648
1144.072, 77.749
1145.292, 101.851
1146.512, 61.040
1147.732, 78.144
1148.952, 70.810
1150.172, 48.914
1151.391, 77.024
1152.610, 68.153
1153.829, 7.258
1155.048, 89.364
1156.266, 24.488
1157.484, 65.594
1158.702, 54.277
1159.920, 43.383
1161.138, 67.537
1162.356, 46.647
1163.573, 14.753
1164.790, 82.135
1166.007, 38.240
1167.224, 35.346
1168.440, 55.515
1169.656, 1.620
1170.872, 67.725
1172.088, 20.829
1173.304, 6.933
1174.519, 74.116
1175.735, 16.315
1176.950, 36.417
1178.165, 68.010
1179.379, 9.112
1180.594, 45.213
1181.808, 40.733
1183.022, 9.167
1184.236, 58.001
1185.449, 7.448
1186.663, 34.544
1187.876, 33.778
1189.089, 7.220
1190.302, 34.870
1191.515, 3.982
1192.727, 11.929
1193.939, 46.155
1195.151, 9.744
1196.363, 47.334
1197.575, 12.446
1198.786, 0.523
1199.997, 58.599
1201.208, 4.704
1202.419, 42.777
1203.630, 92.850
1204.840, 48.697
1206.051, 13.767
1207.261, 9.892
1208.470, -5.986
1209.680, 41.801
1210.889, 6.133
1212.099, 39.929
1213.308, 69.990
1214.516, 31.326
1215.725, 17.385
1216.933, 59.443
1218.142, 5.100
1219.350, 44.954
1220.557, 51.053
1221.765, 20.984
1222.972, 70.039
1224.180, 27.699
1225.387, 26.967
1226.593, 41.070
1227.800, 23.998
1229.006, 89.049
1230.213, 27.134
1231.419, 20.447
1232.624, 87.496
1233.830, 43.705
1235.035, 12.753
1236.241, 86.801
1237.446, 8.169
1238.650, 40.215
1239.855, 25.256
1241.059, 18.943
1242.264, 56.983
1243.468, 1.035
1244.671, 18.204
1245.875, 67.244
1247.078, 13.667
1248.282, 57.447
1249.485, 63.480
1250.687, 6.537
1251.890, 87.569
1253.092, 38.600
1254.295, 4.316
1255.497, 83.711
1256.699, 16.737
1257.900, 67.762
1259.102, 81.787
1260.303, 10.812
1261.504, 82.835
1262.705, 8.855
1263.905, 50.874
1265.106, 88.891
1266.306, 23.909
1267.506, 51.923
1268.706, 39.943
1269.905, 8.960
1271.105, 58.975
1272.304, 32.993
1273.503, 59.010
1274.702, 43.025
1275.900, 12.040
1277.099, 47.049
1278.297, 71.048
1279.495, 24.046
1280.693, 61.040
1281.891, 24.021
1283.088, 17.000
1284.285, 61.978
1285.482, 53.954
1286.679, 53.929
1287.876, 62.902
1289.072, 43.875
1290.268, 12.826
1291.464, 42.768
1292.660, 3.291
1293.856, 67.646
1295.051, 32.564
1296.247, 28.476
1297.442, 129.387
1298.637, 63.288
1299.831, 30.179
1301.026, 39.052
1302.220, 3.077
1303.414, 63.777
1304.608, 23.627
1305.802, 34.462
1306.995, 52.294
1308.188, 2.116
1309.381, 44.932
1310.574, 78.744
1311.767, 20.552
1312.960, 107.356
1314.152, 58.155
1315.344, 45.951
1316.536, 90.743
1317.728, 17.530
1318.919, 15.313
1320.110, 85.091
1321.301, 1.135
1322.492, 79.632
1323.683, 51.394
1324.874, 15.848
1326.064, 55.898
1327.254, 20.355
1328.444, 1.092
1329.634, 54.822
1330.823, 11.452
1332.013, 7.736
1333.202, 70.737
1334.391, 32.440
1335.580, 41.138
1336.768, 38.369
1337.956, 33.060
1339.145, 52.393
1340.333, 29.078
1341.520, 39.760
1342.708, 99.421
1343.895, 30.100
1345.083, 49.773
1346.270, 64.449
1347.456, 37.878
1348.643, 50.783
1349.829, 24.444
1351.016, 5.896
1352.202, 50.760
1353.387, 40.417
1354.573, 53.814
1355.759, 80.475
1356.944, 29.862
1358.129, 84.796
1359.314, 57.458
1360.498, 0.125
1361.683, 76.530
1362.867, 29.261
1364.051, 7.049
1365.235, 72.649
1366.419, 2.639
1367.602, 7.089
1368.785, 27.682
1369.968, 22.760
1371.151, 52.734
1372.334, 31.194
1373.517, 12.828
1374.699, 69.141
1375.881, 12.075
1377.063, 65.967
1378.245, 104.896
1379.426, 13.286
1380.608, 53.626
1381.789, 61.454
1382.970, 2.708
1384.150, 57.213
1385.331, 37.609
1386.511, 16.474
1387.691, 92.306
1388.871, 30.122
1390.051, 23.024
1391.231, 92.902
1392.410, 36.696
1393.589, 43.589
1394.768, 68.479
1395.947, 30.275
1397.126, 71.124
1398.304, 74.967
1399.483, 66.770
1400.661, 108.645
1401.838, 90.475
1403.016, 106.279
1404.194, 87.422
1405.371, 77.243
1406.548, 92.100
1407.725, 78.932
1408.901, 91.009
1410.078, 111.784
1411.254, 88.249
1412.430, 85.091
1413.606, 141.842
1414.782, 96.684
1415.958, 90.412
1417.133, 172.115
1418.308, 59.230
1419.483, 103.933
1420.658, 113.638
1421.832, 80.912
1423.007, 95.525
1424.181, 91.265
1425.355, 97.043
1426.529, 126.801
1427.702, 102.537
1428.876, 116.280
1430.049, 152.076
1431.222, 88.103
1432.395, 154.393
1433.567, 156.107
1434.740, 132.827
1435.912, 203.395
1437.084, 176.311
1438.256, 131.875
1439.428, 195.833
1440.599, 120.837
1441.770, 124.597
1442.942, 199.031
1444.112, 119.943
1445.283, 191.041
1446.454, 151.654
1447.624, 94.005
1448.794, 138.928
1449.964, 110.912
1451.134, 92.076
1452.303, 161.141
1453.473, 51.304
1454.642, 82.366
1455.811, 134.531
1456.980, 56.667
1458.148, 128.771
1459.317, 104.860
1460.485, 64.914
1461.653, 155.951
1462.821, 110.959
1463.989, 60.929
1465.156, 114.858
1466.323, 69.791
1467.490, 86.715
1468.657, 152.689
1469.824, 67.618
1470.991, 104.500
1472.157, 114.399
1473.323, 32.363
1474.489, 98.345
1475.655, 55.375
1476.820, 72.453
1477.986, 130.659
1479.151, 73.945
1480.316, 91.333
1481.481, 151.788
1482.645, 32.270
1483.810, 75.780
1484.974, 91.321
1486.138, 54.899
1487.302, 106.523
1488.465, 59.205
1489.629, 40.961
1490.792, 108.802
1491.955, 47.743
1493.118, 25.803
1494.281, 129.997
1495.443, 38.333
1496.606, 86.813
1497.768, 83.444
1498.930, 40.251
1500.091, 85.268
1501.253, 84.536
1502.414, 8.901
1503.575, 122.010
1504.736, 72.330
1505.897, 63.157
1507.058, 134.626
1508.218, 41.030
1509.379, 68.069
1510.539, 63.715
1511.698, 0.000
##END=



