##NAMES=Rhodizite
##RRUFFID=R050099
##IDEAL CHEMISTRY=KAl_4_Be_5_B_11_O_28_
##LOCALITY=Mont Ibity, Antsirabe, Madagascar
##OWNER=RRUFF
##SOURCE=Rock Currier
##DESCRIPTION=Pale green single crystals
##STATUS=The identification of this mineral has been confirmed by X-ray diffraction and chemical analysis
##URL=rruff.info/R050099
##MEASURED CHEMISTRY=([box]_0.49_K_0.32_Rb_0.17_Na_0.02_)(Al_3.96_Si_0.04_)_Σ=4_Be_4.00_(B_11.45_Be_0.55_)_Σ=12_O_28_
##PIN_ID=L00516
##ORIENTATION=Laser parallel to a* (1 0 0). Fiducial mark perpendicular to laser is parallel to b [0 1 0]
102.428, 0.000
103.820, 21.645
105.212, 192.608
106.604, 254.701
107.995, 242.482
109.387, 126.809
110.777, 136.285
112.168, 34.434
113.559, 443.257
114.949, 740.031
116.339, 1096.199
117.729, 888.352
119.119, 849.225
120.508, 489.612
121.897, 481.312
123.286, 374.145
124.675, 501.965
126.063, 360.633
127.452, 285.004
128.840, 471.977
130.228, 354.474
131.615, 197.524
133.003, 320.204
134.390, 523.503
135.777, 441.322
137.164, 450.708
138.550, 577.391
139.937, 523.457
141.323, 483.823
142.709, 473.312
144.094, 483.131
145.480, 611.083
146.865, 460.338
148.250, 522.731
149.635, 860.774
151.019, 598.945
152.403, 310.084
153.788, 530.194
155.171, 485.577
156.555, 344.628
157.939, 425.317
159.322, 453.450
160.705, 489.901
162.088, 445.919
163.470, 388.396
164.853, 295.483
166.235, 319.725
167.617, 222.545
168.998, 317.944
170.380, 322.307
171.761, 155.621
173.142, 166.429
174.523, 256.073
175.904, 171.857
177.284, 284.360
178.664, 228.303
180.044, 232.726
181.424, 295.961
182.803, 291.569
184.183, 262.623
185.562, 247.866
186.940, 314.347
188.319, 168.184
189.698, 341.950
191.076, 149.733
192.454, 266.758
193.831, 231.648
195.209, 207.339
196.586, 224.009
197.963, 149.661
199.340, 283.298
200.717, 282.922
202.093, 318.534
203.470, 204.132
204.846, 46.719
206.221, 75.916
207.597, 11.380
208.972, 39.411
210.347, 4.221
211.722, 12.449
213.097, 46.942
214.472, 102.389
215.846, 121.949
217.220, 172.747
218.594, 207.126
219.967, 100.840
221.341, 28.878
222.714, 195.973
224.087, 23.771
225.460, 88.304
226.832, 148.054
228.204, 17.418
229.577, 134.105
230.948, 4.906
232.320, 72.155
233.692, 34.248
235.063, 80.711
236.434, 72.529
237.805, 29.896
239.175, 127.741
240.545, 5.872
241.916, 113.584
243.286, 127.336
244.655, 121.755
246.025, 60.190
247.394, 9.557
248.763, 4.654
250.132, 22.165
251.501, 76.982
252.869, 7.909
254.237, 44.161
255.605, 137.205
256.973, 10.238
258.340, 74.247
259.708, 18.239
261.075, 177.229
262.442, 86.236
263.808, 55.754
265.175, 116.304
266.541, 90.370
267.907, 147.188
269.273, 93.576
270.639, 49.322
272.004, 34.320
273.369, 36.486
274.734, 1.148
276.099, 28.689
277.463, 209.859
278.828, 150.492
280.192, 75.199
281.556, 208.961
282.919, 94.773
284.283, 269.621
285.646, 219.500
287.009, 248.404
288.372, 421.332
289.734, 397.334
291.097, 737.350
292.459, 1013.396
293.821, 1329.449
295.183, 1850.506
296.544, 1930.605
297.905, 1855.699
299.266, 1541.803
300.627, 1308.895
301.988, 931.988
303.348, 801.094
304.709, 530.178
306.069, 490.283
307.428, 409.367
308.788, 395.428
310.147, 291.475
311.507, 435.492
312.865, 322.520
314.224, 301.521
315.583, 161.500
316.941, 217.451
318.299, 100.375
319.657, 54.271
321.015, 64.865
322.372, 78.066
323.729, 30.666
325.086, 46.648
326.443, 39.033
327.800, 133.486
329.156, 153.033
330.512, 80.688
331.868, 161.424
333.224, 117.260
334.579, 77.203
335.935, 63.775
337.290, 8.295
338.645, 79.420
339.999, 56.365
341.354, 34.908
342.708, 342.746
344.062, 225.361
345.416, 374.939
346.769, 364.479
348.123, 240.949
349.476, 294.385
350.829, 325.812
352.182, 356.152
353.534, 364.428
354.887, 376.146
356.239, 242.994
357.591, 338.168
358.942, 286.307
360.294, 178.414
361.645, 330.482
362.996, 193.516
364.347, 151.811
365.698, 282.770
367.048, 118.432
368.398, 256.322
369.748, 246.311
371.098, 174.154
372.448, 317.938
373.797, 110.902
375.146, 355.496
376.495, 449.074
377.844, 329.578
379.192, 324.939
380.540, 256.160
381.889, 438.203
383.236, 321.162
384.584, 363.018
385.932, 560.803
387.279, 316.559
388.626, 440.289
389.973, 375.986
391.319, 548.723
392.666, 458.361
394.012, 568.877
395.358, 693.449
396.704, 606.992
398.049, 812.498
399.394, 911.969
400.740, 973.699
402.084, 1349.285
403.429, 1354.752
404.774, 1453.295
406.118, 1239.354
407.462, 1492.023
408.806, 1449.553
410.150, 1667.865
411.493, 1863.969
412.836, 2134.455
414.179, 2293.854
415.522, 2703.660
416.865, 3215.438
418.207, 3876.873
419.549, 4546.877
420.891, 5897.367
422.233, 7018.590
423.575, 9102.182
424.916, 11524.557
426.257, 14588.223
427.598, 18628.020
428.939, 22158.533
430.279, 25677.367
431.619, 27352.928
432.959, 25748.365
434.299, 21716.666
435.639, 16364.590
436.978, 12780.434
438.318, 9662.547
439.657, 7305.002
440.996, 6029.234
442.334, 4877.387
443.673, 4194.457
445.011, 3705.154
446.349, 3175.824
447.687, 3073.771
449.024, 2769.109
450.361, 3040.404
451.699, 2738.232
453.036, 3256.428
454.372, 3715.053
455.709, 4246.496
457.045, 4771.717
458.381, 5789.299
459.717, 7158.299
461.053, 8980.055
462.388, 11036.865
463.724, 14449.035
465.059, 18218.455
466.394, 23457.551
467.728, 28411.795
469.063, 32406.512
470.397, 35135.184
471.731, 34311.750
473.065, 31940.785
474.398, 27341.500
475.732, 22300.936
477.065, 18013.234
478.398, 14606.398
479.731, 11873.268
481.063, 9197.615
482.396, 8842.791
483.728, 6254.021
485.060, 5143.564
486.391, 4269.533
487.723, 3165.861
489.054, 2680.148
490.385, 2159.096
491.716, 1702.477
493.047, 1583.684
494.377, 1117.559
495.708, 1186.844
497.038, 699.365
498.368, 733.779
499.697, 703.631
501.027, 593.770
502.356, 752.227
503.685, 597.410
505.014, 782.350
506.342, 684.438
507.671, 438.475
508.999, 566.301
510.327, 419.496
511.655, 512.387
512.982, 576.230
514.310, 400.023
515.637, 588.947
516.964, 486.422
518.291, 710.068
519.617, 478.682
520.944, 489.709
522.270, 669.207
523.596, 360.178
524.921, 610.910
526.247, 256.281
527.572, 606.734
528.897, 400.396
530.222, 403.281
531.547, 477.033
532.871, 381.207
534.196, 539.691
535.520, 754.197
536.844, 655.752
538.167, 934.633
539.491, 844.084
540.814, 1466.547
542.137, 1847.191
543.460, 2028.170
544.783, 2803.840
546.105, 2443.363
547.427, 2567.809
548.749, 1853.398
550.071, 1605.883
551.393, 1347.326
552.714, 1102.727
554.035, 822.078
555.356, 668.383
556.677, 522.641
557.998, 486.854
559.318, 458.020
560.638, 393.148
561.958, 282.229
563.278, 389.299
564.597, 258.281
565.917, 111.232
567.236, 132.373
568.555, 225.465
569.874, 163.203
571.192, 248.406
572.511, 13.586
573.829, 99.371
575.147, 61.205
576.464, 16.264
577.782, 141.711
579.099, 18.303
580.416, 17.918
581.733, 69.430
583.050, 98.762
584.366, 68.229
585.683, 44.465
586.999, 69.379
588.315, 36.566
589.630, 56.410
590.946, 48.373
592.261, 53.213
593.576, 37.742
594.891, 44.184
596.206, 46.141
597.520, 45.557
598.834, 64.250
600.148, 50.117
601.462, 72.119
602.776, 350.215
604.089, 129.279
605.402, 80.123
606.715, 36.434
608.028, 188.645
609.341, 77.551
610.653, 61.768
611.965, 89.062
613.277, 104.916
614.589, 145.189
615.901, 286.182
617.212, 32.525
618.523, 218.674
619.834, 31.932
621.145, 54.871
622.456, 261.084
623.766, 119.961
625.076, 277.854
626.386, 148.621
627.696, 17.330
629.006, 398.975
630.315, 109.432
631.624, 335.029
632.933, 149.439
634.242, 126.885
635.551, 468.270
636.859, 133.660
638.167, 517.990
639.475, 681.281
640.783, 613.551
642.090, 902.812
643.398, 676.035
644.705, 1318.238
646.012, 1496.414
647.318, 1655.635
648.625, 2648.861
649.931, 2487.078
651.237, 3322.309
652.543, 3218.537
653.849, 3002.758
655.155, 2959.934
656.460, 2093.082
657.765, 1700.297
659.070, 1592.471
660.375, 968.625
661.679, 1060.732
662.984, 531.797
664.288, 732.822
665.592, 682.805
666.895, 351.740
668.199, 528.602
669.502, 545.447
670.805, 675.250
672.108, 367.891
673.411, 509.600
674.713, 865.266
676.016, 390.887
677.318, 556.467
678.620, 454.000
679.921, 423.492
681.223, 607.658
682.524, 132.074
683.825, 420.732
685.126, 244.082
686.427, 419.252
687.727, 350.408
689.028, 139.643
690.328, 303.609
691.628, 282.816
692.927, 40.979
694.227, 407.127
695.526, 42.768
696.825, 492.250
698.124, 190.277
699.423, 316.254
700.721, 573.189
702.020, 185.084
703.318, 580.928
704.616, 385.775
705.913, 542.578
707.211, 659.338
708.508, 521.055
709.805, 622.416
711.102, 453.369
712.399, 592.969
713.695, 550.523
714.992, 505.420
716.288, 463.680
717.584, 419.750
718.879, 147.725
720.175, 503.852
721.470, 151.529
722.765, 330.432
724.060, 328.404
725.355, 161.717
726.649, 275.719
727.944, 311.029
729.238, 61.818
730.532, 315.346
731.825, 134.508
733.119, 243.029
734.412, 81.650
735.705, 297.957
736.998, 40.221
738.291, 8.730
739.584, 378.447
740.876, 184.494
742.168, 116.096
743.460, 333.898
744.752, 15.686
746.043, 295.908
747.334, 45.621
748.626, 369.809
749.916, 284.012
751.207, 76.916
752.498, 446.314
753.788, 270.504
755.078, 214.336
756.368, 322.506
757.658, 116.176
758.947, 371.301
760.237, 159.814
761.526, 52.137
762.815, 460.381
764.104, 18.006
765.392, 503.408
766.680, 286.951
767.969, 283.928
769.257, 260.051
770.544, 337.582
771.832, 604.816
773.119, 343.170
774.406, 282.057
775.693, 739.268
776.980, 334.137
778.267, 802.543
779.553, 623.309
780.839, 734.988
782.125, 1043.381
783.411, 624.309
784.697, 1369.256
785.982, 1094.648
787.267, 1374.293
788.552, 2024.102
789.837, 1620.789
791.122, 2249.227
792.406, 2193.961
793.690, 2604.797
794.974, 3214.887
796.258, 2781.316
797.542, 3605.432
798.825, 3183.430
800.108, 3344.086
801.391, 3585.561
802.674, 3086.148
803.957, 2987.213
805.239, 2905.004
806.522, 2665.479
807.804, 2736.375
809.085, 2313.777
810.367, 2546.145
811.649, 2218.188
812.930, 2286.480
814.211, 2783.760
815.492, 2226.564
816.772, 1974.744
818.053, 2172.662
819.333, 1543.764
820.613, 2180.746
821.893, 1647.732
823.173, 1605.727
824.452, 1959.441
825.732, 1389.359
827.011, 1744.062
828.290, 1286.588
829.568, 1159.396
830.847, 1396.697
832.125, 1279.461
833.403, 1247.957
834.681, 992.879
835.959, 866.506
837.236, 1385.219
838.514, 808.770
839.791, 1018.781
841.068, 1295.213
842.345, 850.133
843.621, 1028.623
844.898, 829.434
846.174, 958.289
847.450, 1122.805
848.726, 1026.094
850.001, 1426.699
851.277, 1207.768
852.552, 1294.061
853.827, 1294.527
855.102, 975.219
856.376, 1154.107
857.651, 1144.977
858.925, 1203.916
860.199, 1416.875
861.473, 1295.145
862.746, 1345.031
864.020, 1192.148
865.293, 1199.961
866.566, 1383.734
867.839, 915.348
869.112, 1014.055
870.384, 1125.727
871.656, 317.359
872.928, 1252.922
874.200, 366.602
875.472, 784.113
876.744, 1124.348
878.015, 403.543
879.286, 975.016
880.557, 535.930
881.828, 866.965
883.098, 899.953
884.369, 478.402
885.639, 811.641
886.909, 611.332
888.178, 673.324
889.448, 897.195
890.717, 420.941
891.987, 628.035
893.256, 719.223
894.524, 448.629
895.793, 815.723
897.061, 372.707
898.330, 809.445
899.598, 487.227
900.865, 453.168
902.133, 603.203
903.401, 203.875
904.668, 319.652
905.935, 539.613
907.202, 238.160
908.468, 453.441
909.735, 457.156
911.001, 357.379
912.267, 627.207
913.533, 113.828
914.799, 207.543
916.064, 366.211
917.330, 246.465
918.595, 546.145
919.860, 111.438
921.124, 401.828
922.389, 272.973
923.653, 29.512
924.918, 324.039
926.182, 28.562
927.445, 120.801
928.709, 521.270
929.972, 144.262
931.236, 619.074
932.499, 57.430
933.761, 226.754
935.024, 406.082
936.286, 1126.328
937.549, 344.582
938.811, 317.844
940.073, 291.914
941.334, 386.125
942.596, 141.859
943.857, 299.031
945.118, 455.902
946.379, 247.738
947.640, 156.555
948.900, 221.336
950.161, 240.094
951.421, 580.820
952.681, 102.484
953.940, 618.113
955.200, 183.688
956.459, 239.230
957.719, 732.742
958.978, 194.238
960.236, 323.703
961.495, 560.141
962.753, 247.441
964.012, 529.805
965.270, 289.023
966.527, 153.215
967.785, 796.391
969.043, 4.539
970.300, 894.645
971.557, 68.734
972.814, 234.793
974.071, 765.828
975.327, 100.848
976.583, 598.836
977.840, 479.805
979.095, 114.758
980.351, 439.688
981.607, 129.598
982.862, 265.484
984.117, 80.352
985.372, 10.805
986.627, 316.004
987.882, 60.207
989.136, 27.516
990.390, 225.352
991.644, 39.957
992.898, 94.684
994.152, 221.855
995.405, 245.516
996.659, 370.961
997.912, 150.578
999.165, 373.785
1000.417, 412.141
1001.670, 169.496
1002.922, 699.754
1004.174, 6.004
1005.426, 104.250
1006.678, 534.492
1007.930, 168.277
1009.181, 408.852
1010.432, 352.969
1011.683, 152.074
1012.934, 552.172
1014.185, 39.758
1015.435, 367.273
1016.685, 357.281
1017.935, 18.270
1019.185, 718.234
1020.435, 350.121
1021.684, 1070.992
1022.934, 607.594
1024.183, 218.562
1025.432, 707.117
1026.680, 455.867
1027.929, 240.598
1029.177, 807.316
1030.425, 658.027
1031.673, 522.719
1032.921, 1019.395
1034.169, 98.066
1035.416, 1187.715
1036.663, 577.359
1037.911, 584.988
1039.157, 1168.605
1040.404, 635.211
1041.650, 930.805
1042.897, 1022.395
1044.143, 675.977
1045.389, 1439.547
1046.634, 888.105
1047.880, 717.652
1049.125, 1266.195
1050.371, 143.730
1051.615, 1006.270
1052.860, 917.797
1054.105, 726.660
1055.349, 1183.008
1056.593, 760.512
1057.837, 1080.512
1059.081, 1126.004
1060.325, 566.488
1061.568, 1390.000
1062.812, 1171.508
1064.055, 590.832
1065.298, 1572.754
1066.540, 356.254
1067.783, 1441.344
1069.025, 1173.832
1070.267, 532.367
1071.509, 1308.852
1072.751, 767.055
1073.993, 1038.105
1075.234, 1345.523
1076.475, 721.562
1077.716, 1140.125
1078.957, 1129.578
1080.198, 555.137
1081.438, 1368.559
1082.679, 616.844
1083.919, 1106.844
1085.159, 1487.273
1086.398, 359.699
1087.638, 1343.129
1088.877, 802.527
1090.116, 978.961
1091.355, 1667.395
1092.594, 529.301
1093.833, 877.656
1095.071, 1064.105
1096.309, 576.273
1097.547, 1442.070
1098.785, 721.156
1100.023, 698.332
1101.260, 1389.824
1102.498, 664.473
1103.735, 1213.988
1104.972, 1127.000
1106.208, 330.262
1107.445, 1029.816
1108.681, 783.934
1109.918, 1057.523
1111.154, 1002.133
1112.389, 200.043
1113.625, 1151.688
1114.860, 791.332
1116.096, 467.434
1117.331, 1144.148
1118.566, 237.117
1119.800, 990.883
1121.035, 1054.766
1122.269, 477.375
1123.503, 986.234
1124.737, 625.367
1125.971, 485.293
1127.205, 1285.258
1128.438, 326.582
1129.671, 1505.719
1130.904, 750.203
1132.137, 500.312
1133.370, 827.699
1134.602, 769.680
1135.834, 677.973
1137.066, 1467.055
1138.298, 63.523
1139.530, 815.270
1140.762, 1538.867
1141.993, 110.215
1143.224, 1732.469
1144.455, 665.391
1145.686, 352.238
1146.917, 1106.375
1148.147, 459.410
1149.377, 1163.555
1150.607, 879.223
1151.837, 235.582
1153.067, 1380.934
1154.296, 487.613
1155.526, 378.973
1156.755, 917.668
1157.984, 754.168
1159.213, 1134.934
1160.441, 924.578
1161.670, 134.879
1162.898, 1451.324
1164.126, 488.809
1165.354, 978.398
1166.581, 1077.859
1167.809, 218.719
1169.036, 670.055
1170.263, 834.383
1171.490, 604.707
1172.717, 1203.566
1173.943, 828.879
1175.170, 916.191
1176.396, 1235.551
1177.622, 464.805
1178.848, 1406.105
1180.073, 1012.402
1181.299, 322.551
1182.524, 1397.848
1183.749, 461.145
1184.974, 1040.445
1186.199, 1334.750
1187.423, 270.098
1188.648, 1310.512
1189.872, 760.926
1191.096, 949.449
1192.320, 1497.988
1193.543, 467.547
1194.767, 1652.129
1195.990, 1517.844
1197.213, 850.590
1198.436, 1735.340
1199.659, 1607.105
1200.881, 1410.121
1202.104, 2352.285
1203.326, 1737.469
1204.548, 2302.684
1205.770, 2271.922
1206.991, 1965.289
1208.213, 2902.688
1209.434, 2913.105
1210.655, 2328.551
1211.876, 3354.242
1213.096, 2829.965
1214.317, 3004.730
1215.537, 3990.539
1216.757, 2693.379
1217.977, 3526.258
1219.197, 3726.156
1220.417, 2926.086
1221.636, 4210.043
1222.855, 3262.062
1224.074, 3486.246
1225.293, 4495.387
1226.512, 3402.035
1227.731, 3894.348
1228.949, 4317.832
1230.167, 3347.418
1231.385, 4197.047
1232.603, 3746.641
1233.820, 3108.410
1235.038, 4759.199
1236.255, 3408.082
1237.472, 3951.090
1238.689, 3748.328
1239.906, 2910.793
1241.122, 3714.379
1242.338, 2599.082
1243.555, 2843.910
1244.771, 3621.863
1245.986, 1859.957
1247.202, 3511.207
1248.417, 2138.605
1249.633, 1937.160
1250.848, 2900.879
1252.063, 1672.766
1253.277, 1851.828
1254.492, 2795.074
1255.706, 1523.500
1256.920, 2184.113
1258.134, 2340.926
1259.348, 952.941
1260.562, 1772.172
1261.775, 1718.609
1262.988, 1306.281
1264.201, 1638.191
1265.414, 516.359
1266.627, 1418.832
1267.839, 1671.711
1269.052, 426.980
1270.264, 1514.582
1271.476, 1049.539
1272.688, 466.887
1273.899, 1662.633
1275.111, 40.797
1276.322, 1024.398
1277.533, 1120.473
1278.744, 209.047
1279.955, 996.152
1281.165, 904.836
1282.376, 352.125
1283.586, 1572.070
1284.796, 32.734
1286.006, 250.172
1287.215, 1246.461
1288.425, 77.332
1289.634, 1215.863
1290.843, 997.133
1292.052, 264.793
1293.261, 1143.500
1294.469, 994.656
1295.678, 243.426
1296.886, 1462.926
1298.094, 34.145
1299.302, 1238.488
1300.509, 997.332
1301.717, 210.324
1302.924, 963.129
1304.131, 135.879
1305.338, 321.660
1306.545, 173.984
1307.752, 0.000
##END=



