##NAMES=Rhodochrosite
##RRUFFID=R040133
##IDEAL CHEMISTRY=Mn^2+^CO_3_
##LOCALITY=Imuris, Sonora, Mexico
##OWNER=RRUFF
##SOURCE=University of Arizona Mineral Museum
##DESCRIPTION=Pink cleavage fragment
##STATUS=The identification of this mineral has been confirmed by X-ray diffraction and chemical analysis
##URL=rruff.info/R040133
##MEASURED CHEMISTRY=(Mn_0.92_Mg_0.02_Ca_0.01_)C_1.02_O_3_
##PIN_ID=L00279
##ORIENTATION=Laser parallel to a* (1 0 0). Fiducial mark perpendicular to laser is parallel to c [0 0 1]
122.654, 0.000
124.037, 10.852
125.421, 14.293
126.804, 20.184
128.187, 20.526
129.570, 15.413
130.953, 0.373
132.335, 28.596
133.717, 9.064
135.100, 18.268
136.481, 17.257
137.863, 3.294
139.245, 9.396
140.626, 21.535
142.007, 1.315
143.388, 8.825
144.768, 4.946
146.149, 14.078
147.529, 7.206
148.909, 25.356
150.289, 27.555
151.669, 18.826
153.048, 22.237
154.427, 16.737
155.806, 46.176
157.185, 37.545
158.564, 38.849
159.942, 44.078
161.320, 30.233
162.698, 42.323
164.076, 59.352
165.454, 60.328
166.831, 57.360
168.209, 80.643
169.586, 102.973
170.962, 111.923
172.339, 160.163
173.715, 216.641
175.092, 295.823
176.468, 413.497
177.843, 605.557
179.219, 861.043
180.594, 1165.855
181.970, 1451.358
183.345, 1669.813
184.719, 1904.609
186.094, 1876.401
187.468, 1536.148
188.843, 1111.930
190.217, 705.360
191.590, 482.945
192.964, 330.545
194.337, 236.868
195.711, 174.177
197.084, 134.380
198.456, 107.583
199.829, 82.783
201.201, 71.980
202.574, 52.174
203.946, 51.366
205.317, 52.558
206.689, 37.757
208.060, 31.962
209.432, 40.172
210.803, 19.387
212.173, 9.605
213.544, 18.827
214.914, 11.050
216.285, 10.277
217.655, 18.509
219.024, 20.743
220.394, 12.978
221.763, 7.215
223.133, 1.452
224.502, 15.690
225.870, 9.928
227.239, 7.191
228.607, 2.516
229.976, 1.803
231.344, 1.206
232.711, 0.715
234.079, 2.517
235.446, 1.826
236.814, 2.138
238.181, 6.550
239.547, 1.240
240.914, 2.976
242.280, 11.695
243.647, 1.590
245.013, 9.167
246.378, 3.091
247.744, 7.291
249.109, 3.509
250.475, 4.757
251.840, 5.948
253.204, 2.193
254.569, 7.415
255.933, 12.630
257.298, 12.880
258.662, 4.142
260.025, 12.790
261.389, 3.033
262.753, 14.210
264.116, 12.411
265.479, 21.605
266.842, 11.781
268.204, 32.205
269.567, 43.397
270.929, 36.552
272.291, 35.855
273.653, 64.980
275.014, 73.071
276.376, 74.195
277.737, 111.324
279.098, 165.447
280.459, 240.556
281.820, 328.254
283.180, 438.847
284.540, 557.931
285.900, 693.069
287.260, 851.520
288.620, 932.957
289.979, 981.375
291.339, 988.770
292.698, 849.175
294.056, 712.553
295.415, 561.850
296.774, 417.227
298.132, 315.623
299.490, 221.977
300.848, 212.316
302.206, 152.621
303.563, 126.951
304.920, 104.304
306.277, 87.485
307.634, 79.803
308.991, 67.360
310.347, 63.713
311.704, 48.037
313.060, 51.356
314.416, 48.650
315.772, 52.939
317.127, 41.241
318.482, 39.518
319.837, 41.808
321.192, 38.073
322.547, 54.343
323.902, 32.598
325.256, 28.848
326.610, 41.093
327.964, 39.334
329.318, 28.571
330.671, 17.804
332.025, 17.035
333.378, 12.577
334.731, 21.478
336.084, 13.690
337.436, 18.896
338.789, 22.100
340.141, 24.294
341.493, 31.480
342.844, 35.683
344.196, 31.049
345.547, 8.025
346.899, 24.166
348.250, 11.296
349.600, 16.422
350.951, 6.544
352.302, 26.664
353.652, 8.796
355.002, 16.914
356.352, 27.037
357.701, 12.163
359.051, 22.272
360.400, 8.380
361.749, 11.487
363.098, 15.592
364.446, 18.717
365.795, 14.821
367.143, 13.948
368.491, 16.050
369.839, 22.150
371.187, 21.258
372.534, 16.372
373.882, 19.298
375.229, 10.488
376.576, 18.595
377.922, 19.620
379.269, 19.638
380.615, 12.713
381.961, 14.805
383.307, 11.842
384.653, 21.833
385.998, 14.726
387.344, 15.858
388.689, 7.875
390.034, 14.881
391.379, 27.808
392.723, 2.708
394.068, 4.385
395.412, 9.416
396.756, 4.333
398.099, 13.234
399.443, 16.143
400.786, 11.565
402.130, 3.330
403.473, 18.971
404.815, 7.063
406.158, 8.057
407.501, 16.309
408.843, 1.271
410.185, 6.248
411.527, 3.818
412.868, 6.152
414.210, 2.115
415.551, 9.034
416.892, 6.009
418.233, 13.017
419.574, 2.966
420.914, 22.974
422.254, 5.977
423.595, 12.894
424.934, 13.901
426.274, 11.900
427.614, 5.942
428.953, 8.956
430.292, 7.011
431.631, 12.246
432.970, 5.284
434.308, 15.321
435.647, 7.503
436.985, 10.539
438.323, 0.331
439.661, 6.707
440.998, 8.740
442.336, 13.776
443.673, 21.807
445.010, 4.838
446.347, 6.867
447.683, 15.910
449.020, 12.938
450.356, 22.963
451.692, 15.004
453.028, 7.025
454.364, 16.138
455.699, 9.156
457.034, 6.336
458.369, 0.350
459.704, 9.362
461.039, 14.495
462.374, 14.515
463.708, 11.522
465.042, 5.527
466.376, 6.531
467.710, 9.533
469.043, 4.456
470.377, 0.563
471.710, 2.581
473.043, 6.574
474.376, 12.572
475.708, 18.565
477.041, 6.554
478.373, 19.541
479.705, 6.527
481.037, 13.511
482.368, 8.495
483.700, 18.496
485.031, 20.479
486.362, 11.461
487.693, 26.442
489.024, 13.421
490.354, 17.409
491.684, 9.368
493.014, 26.326
494.344, 9.289
495.674, 14.261
497.004, 14.199
498.333, 9.159
499.662, 13.214
500.991, 17.260
502.320, 4.229
503.648, 8.197
504.977, 7.164
506.305, 12.075
507.633, 15.041
508.961, 16.965
510.288, 10.910
511.616, 10.812
512.943, 5.777
514.270, 8.688
515.597, 6.633
516.924, 5.592
518.250, 16.516
519.576, 13.477
520.902, 10.387
522.228, 13.311
523.554, 4.252
524.880, 14.205
526.205, 3.144
527.530, 15.079
528.855, 10.025
530.180, 7.006
531.504, 4.968
532.829, 4.915
534.153, 4.874
535.477, 0.203
536.801, 8.753
538.124, 17.712
539.448, 5.670
540.771, 3.601
542.094, 11.541
543.417, 11.467
544.740, 6.423
546.062, 1.636
547.384, 7.308
548.707, 4.219
550.028, 6.159
551.350, 8.114
552.672, 1.994
553.993, 1.578
555.314, 9.499
556.635, 8.397
557.956, 18.335
559.277, 5.285
560.597, 3.221
561.917, 7.121
563.237, 9.080
564.557, 1.992
565.877, 9.939
567.196, 0.097
568.515, 8.808
569.835, 11.738
571.153, 2.451
572.472, 12.381
573.791, 5.293
575.109, 11.234
576.427, 12.163
577.745, 5.121
579.063, 6.893
580.380, 8.852
581.698, 14.780
583.015, 9.737
584.332, 10.694
585.649, 5.646
586.965, 2.572
588.282, 3.511
589.598, 3.559
590.914, 8.390
592.230, 9.310
593.546, 2.740
594.861, 9.189
596.176, 1.870
597.492, 6.030
598.807, 12.953
600.121, 5.889
601.436, 17.835
602.750, 10.780
604.064, 14.694
605.378, 3.616
606.692, 6.559
608.006, 12.503
609.319, 2.451
610.632, 12.393
611.946, 1.687
613.258, 7.268
614.571, 2.805
615.884, 10.108
617.196, 6.995
618.508, 2.080
619.820, 3.854
621.132, 14.786
622.443, 7.717
623.755, 18.622
625.066, 14.531
626.377, 4.452
627.688, 1.113
628.998, 0.995
630.309, 8.884
631.619, 4.801
632.929, 5.729
634.239, 9.652
635.548, 8.574
636.858, 7.538
638.167, 19.450
639.476, 7.759
640.785, 2.944
642.094, 15.870
643.403, 6.787
644.711, 6.723
646.019, 11.652
647.327, 4.567
648.635, 7.481
649.943, 6.396
651.250, 0.308
652.557, 12.218
653.864, 7.137
655.171, 10.153
656.478, 0.942
657.785, 0.592
659.091, 9.320
660.397, 11.257
661.703, 20.324
663.009, 11.288
664.314, 13.231
665.620, 15.170
666.925, 14.071
668.230, 6.981
669.535, 6.880
670.839, 14.762
672.144, 23.655
673.448, 22.888
674.752, 20.447
676.056, 24.036
677.360, 23.135
678.664, 19.027
679.967, 17.215
681.270, 18.114
682.573, 14.453
683.876, 23.657
685.178, 9.835
686.481, 5.215
687.783, 23.226
689.085, 10.098
690.387, 19.979
691.689, 20.023
692.990, 9.889
694.292, 24.776
695.593, 35.663
696.894, 33.640
698.194, 28.500
699.495, 29.376
700.795, 37.250
702.096, 48.539
703.396, 50.392
704.695, 62.258
705.995, 59.111
707.295, 74.971
708.594, 85.839
709.893, 105.945
711.192, 168.786
712.491, 229.660
713.789, 426.525
715.087, 727.389
716.386, 1310.242
717.684, 1890.084
718.981, 2301.943
720.279, 2112.802
721.576, 1404.605
722.874, 823.462
724.171, 455.283
725.468, 290.138
726.764, 195.992
728.061, 145.884
729.357, 107.737
730.653, 85.579
731.949, 58.532
733.245, 44.381
734.541, 36.220
735.836, 35.066
737.131, 22.912
738.426, 30.757
739.721, 37.600
741.016, 34.442
742.310, 26.336
743.605, 16.228
744.899, 22.052
746.193, 13.694
747.487, 19.530
748.780, 18.492
750.074, 14.750
751.367, 10.582
752.660, 5.317
753.953, 20.144
755.245, 7.973
756.538, 22.821
757.830, 15.648
759.122, 20.845
760.414, 13.669
761.706, 18.479
762.997, 14.538
764.289, 8.359
765.580, 12.164
766.871, 13.982
768.162, 5.705
769.452, 11.524
770.743, 17.449
772.033, 18.261
773.323, 17.646
774.613, 14.762
775.903, 9.560
777.193, 15.368
778.482, 9.175
779.771, 15.981
781.060, 12.874
782.349, 15.668
783.638, 12.619
784.926, 17.229
786.214, 6.031
787.502, 7.824
788.790, 8.620
790.078, 4.418
791.366, 3.214
792.653, 6.009
793.940, 3.197
795.227, 1.408
796.514, 6.361
797.801, 11.146
799.087, 3.928
800.373, 4.710
801.659, 10.490
802.945, 19.260
804.231, 6.039
805.517, 12.814
806.802, 6.563
808.087, 5.338
809.372, 1.112
810.657, 12.884
811.942, 4.431
813.226, 5.259
814.510, 2.024
815.794, 0.213
817.078, 1.548
818.362, 2.307
819.646, 2.354
820.929, 5.821
822.212, 3.576
823.495, 7.950
824.778, 8.079
826.061, 9.831
827.343, 8.583
828.625, 2.333
829.907, 8.918
831.189, 1.176
832.471, 5.564
833.753, 2.698
835.034, 2.037
836.315, 5.229
837.596, 3.500
838.877, 2.775
840.158, 6.053
841.438, 0.355
842.718, 3.359
843.999, 2.073
845.278, 1.214
846.558, 1.496
847.838, 2.206
849.117, 2.076
850.396, 0.378
851.675, 2.328
852.954, 7.033
854.233, 4.737
855.511, 5.559
856.790, 0.140
858.068, 5.839
859.346, 2.536
860.624, 18.233
861.901, 5.929
863.179, 3.375
864.456, 23.318
865.733, 1.010
867.010, 7.701
868.286, 11.392
869.563, 6.082
870.839, 5.772
872.115, 12.461
873.391, 10.149
874.667, 0.163
875.943, 6.525
877.218, 7.211
878.493, 17.898
879.768, 1.584
881.043, 0.731
882.318, 0.954
883.593, 11.638
884.867, 1.679
886.141, 2.003
887.415, 9.685
888.689, 9.366
889.962, 11.047
891.236, 3.728
892.509, 15.408
893.782, 11.088
895.055, 1.233
896.328, 1.554
897.601, 6.124
898.873, 5.801
900.145, 2.479
901.417, 2.844
902.689, 10.167
903.961, 4.505
905.232, 8.176
906.503, 1.830
907.775, 10.502
909.045, 0.832
910.316, 10.839
911.587, 7.490
912.857, 12.178
914.128, 0.845
915.398, 5.487
916.667, 11.178
917.937, 0.161
919.207, 4.504
920.476, 2.169
921.745, 0.180
923.014, 6.514
924.283, 2.150
925.552, 2.814
926.820, 11.479
928.088, 0.144
929.356, 11.809
930.624, 5.475
931.892, 13.140
933.160, 3.194
934.427, 4.472
935.694, 6.137
936.961, 3.803
938.228, 8.469
939.495, 6.125
940.761, 15.789
942.028, 14.456
943.294, 11.106
944.560, 33.731
945.825, 14.390
947.091, 17.670
948.356, 29.064
949.622, 6.727
950.887, 0.397
952.152, 14.048
953.416, 25.706
954.681, 4.378
955.945, 22.050
957.210, 2.716
958.474, 13.389
959.737, 10.060
961.001, 1.726
962.265, 11.294
963.528, 7.970
964.791, 7.204
966.054, 7.876
967.317, 15.498
968.579, 23.006
969.842, 20.052
971.104, 14.253
972.366, 18.897
973.628, 10.578
974.890, 15.250
976.151, 8.934
977.412, 27.619
978.674, 0.304
979.935, 18.991
981.195, 13.650
982.456, 10.644
983.717, 16.126
984.977, 14.816
986.237, 7.210
987.497, 24.874
988.757, 20.116
990.016, 20.472
991.276, 28.879
992.535, 14.084
993.794, 25.651
995.053, 23.349
996.312, 22.038
997.570, 34.566
998.829, 35.077
1000.087, 47.947
1001.345, 50.648
1002.603, 62.246
1003.860, 76.954
1005.118, 68.666
1006.375, 72.380
1007.632, 91.671
1008.889, 96.321
1010.146, 104.039
1011.402, 112.757
1012.659, 118.459
1013.915, 135.200
1015.171, 133.658
1016.427, 141.382
1017.683, 153.100
1018.938, 149.828
1020.194, 160.558
1021.449, 185.289
1022.704, 159.021
1023.959, 186.755
1025.213, 177.490
1026.468, 189.184
1027.722, 190.923
1028.976, 204.663
1030.230, 209.406
1031.484, 203.151
1032.738, 202.840
1033.991, 219.589
1035.245, 210.341
1036.498, 202.991
1037.751, 225.746
1039.003, 206.502
1040.256, 244.260
1041.508, 261.019
1042.760, 244.780
1044.013, 288.543
1045.264, 264.307
1046.516, 288.016
1047.768, 314.714
1049.019, 315.485
1050.270, 362.259
1051.521, 355.037
1052.772, 384.689
1054.023, 417.903
1055.273, 427.688
1056.523, 453.478
1057.774, 483.271
1059.023, 499.070
1060.273, 558.846
1061.523, 592.649
1062.772, 660.083
1064.022, 771.890
1065.271, 924.699
1066.520, 1046.273
1067.768, 1062.088
1069.017, 989.901
1070.265, 980.721
1071.513, 1030.543
1072.761, 1123.365
1074.009, 1256.919
1075.257, 1447.750
1076.505, 1724.583
1077.752, 2084.419
1078.999, 2582.256
1080.246, 3482.097
1081.493, 4716.940
1082.740, 7467.786
1083.986, 13159.545
1085.232, 24899.396
1086.478, 45779.246
1087.724, 58079.105
1088.970, 49928.977
1090.216, 31428.832
1091.461, 16918.693
1092.706, 10108.560
1093.952, 6173.429
1095.196, 3794.297
1096.441, 2679.170
1097.686, 1887.046
1098.930, 1477.924
1100.174, 1149.805
1101.418, 925.687
1102.662, 775.572
1103.906, 643.458
1105.150, 542.347
1106.393, 472.238
1107.636, 427.131
1108.879, 375.025
1110.122, 336.419
1111.365, 297.819
1112.607, 278.722
1113.849, 259.623
1115.092, 245.560
1116.334, 232.467
1117.575, 212.707
1118.817, 187.286
1120.058, 179.199
1121.300, 166.113
1122.541, 157.029
1123.782, 154.946
1125.023, 130.864
1126.263, 143.784
1127.504, 108.705
1128.744, 112.627
1129.984, 115.550
1131.224, 104.474
1132.464, 120.403
1133.703, 99.333
1134.943, 88.265
1136.182, 91.199
1137.421, 88.143
1138.660, 70.381
1139.898, 71.612
1141.137, 74.554
1142.375, 73.594
1143.613, 72.552
1144.851, 71.740
1146.089, 56.881
1147.327, 52.837
1148.565, 50.433
1149.802, 51.738
1151.039, 50.690
1152.276, 52.642
1153.513, 59.595
1154.749, 47.548
1155.986, 43.502
1157.222, 61.458
1158.458, 49.415
1159.694, 46.395
1160.930, 33.495
1162.166, 32.526
1163.401, 38.420
1164.636, 35.380
1165.872, 26.341
1167.106, 39.534
1168.341, 31.525
1169.576, 34.506
1170.810, 40.472
1172.044, 28.445
1173.279, 34.415
1174.512, 30.406
1175.746, 13.552
1176.980, 22.565
1178.213, 36.841
1179.446, 28.057
1180.679, 19.212
1181.912, 11.306
1183.145, 10.328
1184.378, 34.360
1185.610, 23.375
1186.842, 19.398
1188.074, 27.402
1189.306, 15.421
1190.538, 27.446
1191.769, 6.502
1193.001, 16.558
1194.232, 20.748
1195.463, 32.802
1196.694, 7.002
1197.924, 22.206
1199.155, 7.854
1200.385, 9.878
1201.615, 18.411
1202.845, 15.456
1204.075, 31.254
1205.305, 21.394
1206.534, 6.580
1207.763, 11.629
1208.993, 10.677
1210.222, 11.940
1211.450, 21.972
1212.679, 13.002
1213.907, 6.473
1215.136, 14.525
1216.364, 9.824
1217.592, 10.898
1218.820, 14.044
1220.047, 13.612
1221.275, 11.720
1222.502, 9.123
1223.729, 4.221
1224.956, 10.352
1226.183, 7.470
1227.409, 2.699
1228.636, 12.980
1229.862, 11.131
1231.088, 10.249
1232.314, 14.818
1233.540, 6.268
1234.765, 15.363
1235.991, 10.499
1237.216, 6.558
1238.441, 3.674
1239.666, 5.724
1240.891, 5.878
1242.115, 5.956
1243.339, 2.045
1244.564, 18.088
1245.788, 12.154
1247.012, 24.192
1248.235, 14.264
1249.459, 9.333
1250.682, 2.500
1251.905, 11.598
1253.128, 1.675
1254.351, 19.712
1255.574, 6.749
1256.797, 5.780
1258.019, 4.797
1259.241, 0.822
1260.463, 10.832
1261.685, 1.171
1262.907, 3.816
1264.128, 14.797
1265.350, 13.773
1266.571, 8.745
1267.792, 20.703
1269.013, 13.658
1270.233, 5.607
1271.454, 17.548
1272.674, 16.484
1273.894, 20.401
1275.114, 18.312
1276.334, 16.218
1277.554, 23.118
1278.773, 19.011
1279.993, 15.898
1281.212, 23.780
1282.431, 5.652
1283.650, 2.517
1284.868, 5.626
1286.087, 5.437
1287.305, 10.062
1288.523, 2.105
1289.741, 2.721
1290.959, 4.460
1292.177, 3.649
1293.394, 4.155
1294.612, 5.952
1295.829, 13.743
1297.046, 10.528
1298.263, 17.308
1299.479, 16.088
1300.696, 15.111
1301.912, 14.614
1303.128, 9.373
1304.344, 9.129
1305.560, 0.881
1306.776, 2.368
1307.991, 4.381
1309.207, 15.132
1310.422, 20.885
1311.637, 6.646
1312.852, 3.576
1314.066, 0.536
1315.281, 3.649
1316.495, 9.764
1317.709, 7.092
1318.923, 10.997
1320.137, 4.110
1321.351, 1.776
1322.564, 1.339
1323.777, 3.545
1324.991, 2.428
1326.204, 1.310
1327.416, 0.192
1328.629, 2.924
1329.841, 2.034
1331.054, 5.374
1332.266, 4.240
1333.478, 9.328
1334.690, 6.415
1335.901, 5.502
1337.113, 2.584
1338.324, 2.938
1339.535, 0.260
1340.746, 3.809
1341.957, 0.124
1343.168, 0.059
1344.378, 6.998
1345.589, 11.057
1346.799, 4.895
1348.009, 8.151
1349.219, 8.805
1350.428, 2.238
1351.638, 14.722
1352.847, 9.318
1354.056, 10.357
1355.265, 0.392
1356.474, 15.426
1357.683, 16.459
1358.891, 2.512
1360.100, 12.474
1361.308, 0.506
1362.516, 9.539
1363.724, 4.573
1364.931, 3.392
1366.139, 1.354
1367.346, 13.686
1368.553, 8.729
1369.760, 6.776
1370.967, 7.810
1372.174, 2.864
1373.380, 1.747
1374.587, 5.356
1375.793, 7.053
1376.999, 5.897
1378.205, 2.161
1379.410, 10.227
1380.616, 7.301
1381.821, 17.340
1383.026, 9.138
1384.231, 20.236
1385.436, 6.874
1386.641, 13.884
1387.846, 12.972
1389.050, 40.026
1390.254, 17.667
1391.458, 36.576
1392.662, 13.996
1393.866, 14.849
1395.069, 6.747
1396.273, 11.687
1397.476, 14.494
1398.679, 22.897
1399.882, 22.268
1401.085, 20.086
1402.287, 24.593
1403.490, 15.293
1404.692, 12.568
1405.894, 15.137
1407.096, 25.128
1408.297, 34.476
1409.499, 39.210
1410.700, 69.297
1411.902, 70.808
1413.103, 105.947
1414.304, 144.749
1415.504, 225.589
1416.705, 320.167
1417.905, 430.913
1419.106, 572.390
1420.306, 597.995
1421.506, 547.396
1422.705, 459.851
1423.905, 342.453
1425.105, 236.957
1426.304, 213.761
1427.503, 137.692
1428.702, 108.970
1429.901, 88.241
1431.099, 75.437
1432.298, 70.755
1433.496, 57.054
1434.694, 51.491
1435.892, 40.727
1437.090, 36.057
1438.288, 28.545
1439.485, 15.030
1440.682, 13.517
1441.879, 12.090
1443.076, 28.629
1444.273, 18.299
1445.470, 17.049
1446.666, 21.898
1447.863, 11.873
1449.059, 16.991
1450.255, 7.310
1451.451, 2.891
1452.646, 0.161
1453.842, 0.337
1455.037, 10.678
1456.233, 0.000
##END=



