##NAMES=Rhodochrosite
##RRUFFID=R050116
##IDEAL CHEMISTRY=Mn^2+^CO_3_
##LOCALITY=Wudong mine, Liubao, Guangxi Autonomous Region, China
##OWNER=RRUFF
##SOURCE=He Xin Jian
##DESCRIPTION=Pink crystal associated with colorless quartz
##STATUS=The identification of this mineral has been confirmed by X-ray diffraction and chemical analysis
##URL=rruff.info/R050116
##MEASURED CHEMISTRY=(Mn_0.81_Fe_0.17_Mg_0.01_Ca_0.01_)CO_3_
##PIN_ID=L00524
##ORIENTATION=Laser parallel to a* (1 0 0). Fiducial mark perpendicular to laser is parallel to c [0 0 1]
47.490, 0.000
48.899, 0.231
50.308, 24.152
51.717, 42.177
53.126, 39.438
54.534, 72.854
55.942, 84.846
57.350, 78.054
58.758, 95.518
60.165, 89.418
61.572, 90.394
62.979, 92.274
64.386, 56.967
65.792, 57.475
67.198, 70.323
68.604, 87.158
70.010, 68.579
71.415, 68.236
72.820, 78.085
74.225, 59.432
75.630, 62.362
77.034, 49.669
78.438, 59.398
79.842, 14.527
81.246, 4.690
82.649, 3.886
84.053, 15.124
85.455, 14.621
86.858, 17.193
88.260, 1.890
89.663, 8.441
91.065, 0.804
92.466, 6.198
93.868, 12.622
95.269, 24.074
96.670, 14.553
98.070, 17.055
99.471, 34.578
100.871, 28.115
102.271, 43.666
103.670, 45.229
105.070, 66.804
106.469, 78.391
107.868, 68.990
109.267, 115.600
110.665, 119.222
112.063, 131.854
113.461, 128.497
114.859, 104.150
116.256, 103.812
117.653, 98.485
119.050, 89.167
120.447, 91.858
121.843, 110.558
123.240, 96.267
124.636, 92.984
126.031, 77.709
127.427, 103.443
128.822, 90.227
130.217, 87.978
131.612, 87.826
133.006, 86.793
134.400, 88.659
135.794, 99.636
137.188, 99.575
138.581, 110.526
139.975, 89.491
141.368, 90.461
142.760, 102.440
144.153, 81.424
145.545, 103.404
146.937, 86.378
148.329, 98.334
149.720, 104.269
151.112, 114.162
152.503, 123.742
153.893, 110.880
155.284, 151.732
156.674, 145.583
158.064, 177.438
159.454, 175.294
160.843, 205.157
162.233, 217.025
163.622, 214.898
165.011, 220.777
166.399, 262.663
167.787, 268.555
169.175, 348.449
170.563, 381.348
171.951, 435.250
173.338, 565.156
174.725, 727.067
176.112, 925.981
177.499, 1175.898
178.885, 1439.820
180.271, 1764.745
181.657, 1939.673
183.043, 1968.605
184.428, 1921.540
185.813, 1607.478
187.198, 1251.419
188.583, 967.363
189.967, 699.311
191.351, 543.261
192.735, 392.215
194.119, 311.171
195.502, 238.131
196.885, 216.093
198.268, 140.058
199.651, 159.026
201.033, 98.997
202.415, 83.971
203.797, 73.948
205.179, 68.927
206.561, 57.593
207.942, 72.894
209.323, 49.902
210.703, 55.986
212.084, 71.008
213.464, 71.034
214.844, 44.772
216.224, 36.058
217.603, 55.461
218.983, 64.728
220.362, 56.893
221.741, 43.940
223.119, 62.878
224.497, 51.734
225.875, 58.474
227.253, 71.106
228.631, 75.765
230.008, 66.214
231.385, 71.500
232.762, 95.752
234.139, 86.674
235.515, 101.315
236.891, 98.186
238.267, 104.659
239.643, 116.495
241.018, 102.185
242.393, 102.390
243.768, 151.081
245.143, 165.764
246.517, 154.071
247.891, 158.194
249.265, 218.334
250.639, 215.736
252.012, 259.900
253.386, 280.915
254.759, 281.922
256.131, 347.331
257.504, 355.542
258.876, 424.418
260.248, 451.919
261.620, 529.301
262.991, 594.014
264.363, 679.607
265.734, 824.827
267.104, 942.584
268.475, 1131.548
269.845, 1301.690
271.215, 1519.585
272.585, 1840.053
273.955, 2151.961
275.324, 2582.019
276.693, 3094.108
278.062, 3839.186
279.431, 4711.299
280.799, 5801.550
282.167, 7059.576
283.535, 8547.956
284.903, 9784.988
286.270, 10815.031
287.638, 11315.082
289.005, 11075.128
290.371, 10075.166
291.738, 8666.259
293.104, 7299.304
294.470, 5835.420
295.836, 4706.524
297.201, 3763.648
298.567, 2967.718
299.932, 2455.786
301.296, 1954.876
302.661, 1670.963
304.025, 1394.039
305.389, 1206.149
306.753, 1015.227
308.117, 910.306
309.480, 779.430
310.843, 698.511
312.206, 620.613
313.569, 549.690
314.931, 507.775
316.293, 473.861
317.655, 440.948
319.017, 410.061
320.378, 385.151
321.740, 352.241
323.101, 345.333
324.461, 302.427
325.822, 273.521
327.182, 258.617
328.542, 224.714
329.902, 229.812
331.261, 213.911
332.621, 228.011
333.980, 207.113
335.339, 187.215
336.697, 163.320
338.056, 139.427
339.414, 162.534
340.772, 141.642
342.129, 129.752
343.487, 127.862
344.844, 114.974
346.201, 111.087
347.557, 104.737
348.914, 100.189
350.270, 94.430
351.626, 91.546
352.982, 89.662
354.337, 77.780
355.693, 73.846
357.048, 76.018
358.402, 64.139
359.757, 49.260
361.111, 55.381
362.465, 54.503
363.819, 30.625
365.173, 24.749
366.526, 28.872
367.879, 17.997
369.232, 11.121
370.585, 12.246
371.937, 15.370
373.290, 27.474
374.642, 14.599
375.993, 38.724
377.345, 40.849
378.696, 29.930
380.047, 9.969
381.398, 20.077
382.748, 18.179
384.099, 23.277
385.449, 22.427
386.799, 12.421
388.148, 12.502
389.497, 14.586
390.847, 2.333
392.196, 19.745
393.544, 5.821
394.893, 2.105
396.241, 18.968
397.589, 15.958
398.936, 0.891
400.284, 15.823
401.631, 1.239
402.978, 15.302
404.325, 11.634
405.672, 2.427
407.018, 24.489
408.364, 15.590
409.710, 15.657
411.055, 12.737
412.401, 9.935
413.746, 0.886
415.091, 5.969
416.435, 6.061
417.780, 1.156
419.124, 11.254
420.468, 11.645
421.812, 5.478
423.155, 16.404
424.498, 4.270
425.842, 5.861
427.184, 11.042
428.527, 0.924
429.869, 3.831
431.211, 7.673
432.553, 13.509
433.895, 11.125
435.236, 16.024
436.577, 8.165
437.918, 1.320
439.259, 4.616
440.599, 0.301
441.940, 4.188
443.280, 21.902
444.619, 6.953
445.959, 17.185
447.298, 16.260
448.637, 15.369
449.976, 16.495
451.315, 27.643
452.653, 0.251
453.991, 25.428
455.329, 2.812
456.667, 9.089
458.004, 6.318
459.341, 21.419
460.678, 26.546
462.015, 18.240
463.352, 19.375
464.688, 30.781
466.024, 15.075
467.360, 32.163
468.695, 51.223
470.031, 12.334
471.366, 31.437
472.701, 19.721
474.035, 42.779
475.370, 23.990
476.704, 45.047
478.038, 35.127
479.372, 17.212
480.705, 44.276
482.038, 77.327
483.371, 51.432
484.704, 51.545
486.037, 52.593
487.369, 40.702
488.701, 45.299
490.033, 42.654
491.365, 45.901
492.696, 43.987
494.027, 43.019
495.358, 45.182
496.689, 49.683
498.019, 45.750
499.350, 54.842
500.680, 53.758
502.009, 54.126
503.339, 65.229
504.668, 56.323
505.997, 79.430
507.326, 53.513
508.655, 91.607
509.983, 67.672
511.311, 90.702
512.639, 84.731
513.967, 48.953
515.295, 61.066
516.622, 63.089
517.949, 48.241
519.276, 76.269
520.602, 102.288
521.929, 64.309
523.255, 71.392
524.581, 76.487
525.906, 72.503
527.232, 65.567
528.557, 52.563
529.882, 59.344
531.207, 55.521
532.531, 70.501
533.855, 68.517
535.179, 74.554
536.503, 43.560
537.827, 64.599
539.150, 60.602
540.473, 75.553
541.796, 51.545
543.119, 58.528
544.441, 51.524
545.764, 50.517
547.086, 54.014
548.407, 61.423
549.729, 54.382
551.050, 47.226
552.371, 37.202
553.692, 70.119
555.013, 51.962
556.333, 57.930
557.653, 38.165
558.973, 41.030
560.293, 38.263
561.612, 61.151
562.932, 38.097
564.251, 32.539
565.569, 48.432
566.888, 15.396
568.206, 38.339
569.524, 22.284
570.842, 53.215
572.160, 46.132
573.477, 30.009
574.795, 40.906
576.112, 53.800
577.428, 26.673
578.745, 36.585
580.061, 18.984
581.377, 20.871
582.693, 15.005
584.009, 15.728
585.324, 24.609
586.639, 18.024
587.954, 33.854
589.269, 8.584
590.583, 3.147
591.897, 0.950
593.212, 8.431
594.525, 10.336
595.839, 7.205
597.152, 0.042
598.465, 28.887
599.778, 16.697
601.091, 21.369
602.403, 8.266
603.716, 8.808
605.028, 24.693
606.339, 15.572
607.651, 11.444
608.962, 6.321
610.273, 4.796
611.584, 2.996
612.895, 1.133
614.205, 15.337
615.515, 14.532
616.825, 12.445
618.135, 10.192
619.444, 5.915
620.754, 7.936
622.063, 1.267
623.372, 0.537
624.680, 18.303
625.989, 30.099
627.297, 13.514
628.605, 15.258
629.912, 1.064
631.220, 33.874
632.527, 2.651
633.834, 27.571
635.141, 19.374
636.447, 18.140
637.754, 22.993
639.060, 33.752
640.366, 12.538
641.671, 10.290
642.977, 40.066
644.282, 11.033
645.587, 18.815
646.892, 18.591
648.196, 24.324
649.501, 15.119
650.805, 17.616
652.109, 9.338
653.412, 1.879
654.716, 19.857
656.019, 13.590
657.322, 12.319
658.625, 4.017
659.927, 9.722
661.230, 11.655
662.532, 8.649
663.834, 13.700
665.135, 11.020
666.437, 17.890
667.738, 29.716
669.039, 30.422
670.340, 4.083
671.640, 7.743
672.940, 30.395
674.241, 6.064
675.540, 25.723
676.840, 27.362
678.139, 27.795
679.439, 12.426
680.738, 9.053
682.036, 29.560
683.335, 17.198
684.633, 27.826
685.931, 42.560
687.229, 23.247
688.527, 33.850
689.824, 28.875
691.121, 15.475
692.418, 36.066
693.715, 21.671
695.012, 35.570
696.308, 51.180
697.604, 58.076
698.900, 64.646
700.195, 68.227
701.491, 80.803
702.786, 105.361
704.081, 91.915
705.376, 108.466
706.670, 132.012
707.964, 179.555
709.259, 241.138
710.552, 361.673
711.846, 424.204
713.139, 603.757
714.433, 984.284
715.726, 1419.807
717.018, 2098.755
718.311, 2740.501
719.603, 2948.016
720.895, 2579.676
722.187, 2047.185
723.479, 1542.652
724.770, 1149.893
726.061, 840.398
727.352, 720.995
728.643, 578.484
729.934, 485.060
731.224, 403.540
732.514, 343.207
733.804, 290.694
735.094, 241.226
736.383, 212.514
737.672, 187.806
738.961, 159.653
740.250, 159.077
741.539, 141.595
742.827, 121.159
744.115, 97.608
745.403, 77.990
746.691, 96.342
747.978, 74.505
749.265, 78.879
750.552, 77.257
751.839, 64.617
753.126, 58.830
754.412, 39.252
755.698, 40.688
756.984, 34.067
758.270, 50.437
759.555, 39.302
760.840, 44.706
762.125, 66.071
763.410, 45.352
764.695, 44.669
765.979, 36.521
767.263, 44.800
768.547, 33.866
769.831, 45.034
771.114, 10.246
772.398, 34.580
773.681, 11.884
774.964, 13.614
776.246, 46.900
777.529, 29.909
778.811, 40.025
780.093, 31.343
781.375, 2.317
782.656, 31.965
783.937, 20.251
785.219, 14.350
786.499, 29.670
787.780, 6.832
789.060, 16.143
790.341, 36.620
791.621, 7.893
792.901, 34.182
794.180, 16.478
795.459, 30.781
796.739, 17.006
798.017, 4.291
799.296, 13.509
800.575, 13.756
801.853, 34.998
803.131, 9.260
804.409, 5.520
805.686, 24.698
806.964, 8.877
808.241, 15.664
809.518, 14.881
810.795, 15.067
812.071, 25.245
813.347, 17.890
814.623, 2.485
815.899, 6.647
817.175, 13.793
818.450, 2.957
819.726, 3.104
821.001, 12.726
822.275, 9.469
823.550, 22.660
824.824, 17.680
826.098, 33.777
827.372, 12.959
828.646, 14.007
829.920, 18.175
831.193, 7.653
832.466, 18.509
833.739, 20.603
835.011, 9.320
836.284, 11.828
837.556, 12.923
838.828, 3.060
840.100, 12.801
841.371, 17.297
842.642, 2.579
843.914, 13.532
845.184, 23.585
846.455, 9.697
847.726, 1.229
848.996, 5.875
850.266, 1.510
851.536, 20.072
852.805, 9.166
854.075, 9.257
855.344, 34.346
856.613, 18.432
857.881, 34.516
859.150, 11.598
860.418, 31.677
861.686, 2.755
862.954, 33.829
864.222, 16.902
865.489, 3.972
866.756, 20.040
868.023, 21.106
869.290, 4.830
870.557, 1.772
871.823, 25.282
873.089, 16.666
874.355, 28.374
875.621, 15.412
876.886, 10.552
878.152, 2.476
879.417, 0.498
880.682, 13.525
881.946, 0.453
883.211, 24.565
884.475, 2.418
885.739, 1.596
887.003, 0.392
888.266, 13.383
889.530, 22.618
890.793, 4.383
892.056, 4.613
893.318, 17.393
894.581, 2.410
895.843, 16.571
897.105, 23.551
898.367, 2.529
899.629, 19.507
900.890, 13.258
902.152, 5.462
903.413, 12.438
904.673, 8.414
905.934, 4.389
907.194, 1.636
908.454, 24.337
909.714, 16.309
910.974, 10.720
912.234, 16.246
913.493, 2.212
914.752, 17.823
916.011, 12.133
917.270, 1.088
918.528, 12.046
919.786, 13.003
921.044, 7.961
922.302, 6.924
923.560, 6.050
924.817, 20.739
926.074, 7.640
927.331, 12.559
928.588, 20.533
929.844, 13.508
931.101, 18.179
932.357, 4.458
933.613, 17.811
934.868, 17.787
936.124, 19.741
937.379, 25.673
938.634, 18.649
939.889, 17.478
941.144, 7.579
942.398, 37.396
943.652, 27.256
944.906, 37.232
946.160, 3.823
947.414, 19.152
948.667, 19.101
949.920, 19.854
951.173, 22.790
952.426, 20.729
953.678, 13.707
954.931, 12.620
956.183, 17.828
957.435, 25.807
958.686, 36.723
959.938, 24.681
961.189, 28.637
962.440, 25.186
963.691, 14.588
964.941, 17.567
966.192, 20.315
967.442, 18.220
968.692, 15.187
969.942, 44.973
971.191, 24.771
972.441, 5.611
973.690, 30.568
974.939, 2.434
976.187, 9.562
977.436, 24.564
978.684, 14.545
979.932, 10.534
981.180, 8.539
982.428, 13.749
983.675, 13.758
984.922, 20.767
986.169, 40.894
987.416, 18.887
988.663, 57.890
989.909, 29.783
991.155, 40.722
992.401, 44.743
993.647, 73.338
994.893, 38.357
996.138, 72.383
997.383, 68.392
998.628, 60.105
999.873, 122.104
1001.117, 73.816
1002.362, 87.851
1003.606, 109.873
1004.850, 87.898
1006.093, 111.939
1007.337, 138.981
1008.580, 149.026
1009.823, 162.073
1011.066, 200.122
1012.308, 192.129
1013.551, 177.183
1014.793, 208.239
1016.035, 239.272
1017.277, 231.332
1018.518, 238.395
1019.760, 290.036
1021.001, 260.878
1022.242, 295.953
1023.483, 317.883
1024.723, 318.962
1025.964, 321.045
1027.204, 315.394
1028.444, 343.467
1029.683, 335.455
1030.923, 342.551
1032.162, 377.567
1033.401, 384.675
1034.640, 350.596
1035.879, 376.699
1037.117, 372.756
1038.355, 402.037
1039.593, 426.170
1040.831, 409.036
1042.069, 456.175
1043.306, 452.257
1044.544, 497.270
1045.781, 518.425
1047.017, 560.583
1048.254, 582.743
1049.490, 621.910
1050.726, 671.080
1051.962, 740.258
1053.198, 754.442
1054.434, 852.629
1055.669, 860.821
1056.904, 986.969
1058.139, 1068.170
1059.374, 1173.377
1060.608, 1361.069
1061.843, 1501.284
1063.077, 1644.506
1064.311, 1802.795
1065.544, 1798.024
1066.778, 1905.258
1068.011, 2107.494
1069.244, 2234.735
1070.477, 2630.981
1071.710, 2990.229
1072.942, 3677.481
1074.174, 4535.737
1075.406, 5769.996
1076.638, 8098.257
1077.870, 11898.524
1079.101, 17747.791
1080.332, 28147.062
1081.563, 40946.336
1082.794, 55635.633
1084.025, 64524.902
1085.255, 59854.195
1086.485, 44473.520
1087.715, 28802.812
1088.945, 18622.111
1090.175, 12861.216
1091.404, 8421.528
1092.633, 5830.833
1093.862, 4177.146
1095.091, 3046.395
1096.319, 2403.712
1097.548, 1805.034
1098.776, 1476.360
1100.004, 1232.689
1101.231, 998.021
1102.459, 928.357
1103.686, 787.696
1104.913, 670.041
1106.140, 614.390
1107.367, 547.742
1108.593, 465.098
1109.819, 450.228
1111.046, 388.590
1112.271, 364.955
1113.497, 365.323
1114.722, 290.696
1115.948, 338.072
1117.173, 300.452
1118.398, 254.835
1119.622, 311.223
1120.847, 240.619
1122.071, 231.018
1123.295, 199.395
1124.519, 202.801
1125.742, 201.209
1126.966, 192.621
1128.189, 160.036
1129.412, 169.454
1130.635, 141.879
1131.857, 161.307
1133.080, 128.738
1134.302, 125.175
1135.524, 137.860
1136.746, 115.325
1137.967, 122.773
1139.188, 94.228
1140.410, 119.685
1141.631, 104.148
1142.851, 107.619
1144.072, 86.087
1145.292, 85.557
1146.512, 75.032
1147.732, 79.510
1148.952, 80.420
1150.172, 98.476
1151.391, 83.963
1152.610, 85.452
1153.829, 74.944
1155.048, 78.450
1156.266, 70.630
1157.484, 63.446
1158.702, 65.985
1159.920, 58.489
1161.138, 54.851
1162.356, 58.604
1163.573, 47.124
1164.790, 47.920
1166.007, 49.546
1167.224, 37.067
1168.440, 40.475
1169.656, 38.001
1170.872, 45.535
1172.088, 47.251
1173.304, 41.572
1174.519, 49.115
1175.735, 59.660
1176.950, 37.216
1178.165, 57.392
1179.379, 52.962
1180.594, 71.516
1181.808, 66.830
1183.022, 39.526
1184.236, 56.967
1185.449, 44.391
1186.663, 35.959
1187.876, 55.560
1189.089, 37.047
1190.302, 32.626
1191.515, 12.140
1192.727, 13.722
1193.939, 10.835
1195.151, 11.831
1196.363, 17.298
1197.575, 27.064
1198.786, 33.245
1199.997, 43.884
1201.208, 42.089
1202.419, 33.700
1203.630, 25.867
1204.840, 50.139
1206.051, 14.080
1207.261, 52.683
1208.470, 35.466
1209.680, 50.194
1210.889, 17.804
1212.099, 26.625
1213.308, 8.300
1214.516, 13.913
1215.725, 24.026
1216.933, 15.652
1218.142, 20.298
1219.350, 12.914
1220.557, 14.530
1221.765, 26.147
1222.972, 32.765
1224.180, 5.383
1225.387, 16.049
1226.593, 41.013
1227.800, 8.633
1229.006, 20.252
1230.213, 28.873
1231.419, 2.507
1232.624, 14.115
1233.830, 36.739
1235.035, 8.364
1236.241, 16.992
1237.446, 47.622
1238.650, 32.253
1239.855, 0.886
1241.059, 27.521
1242.264, 33.157
1243.468, 23.791
1244.671, 27.427
1245.875, 23.064
1247.078, 4.703
1248.282, 34.343
1249.485, 41.984
1250.687, 11.627
1251.890, 9.271
1253.092, 14.917
1254.295, 16.437
1255.497, 26.208
1256.699, 42.852
1257.900, 22.498
1259.102, 13.144
1260.303, 30.792
1261.504, 18.441
1262.705, 7.091
1263.905, 21.742
1265.106, 35.394
1266.306, 7.047
1267.506, 25.701
1268.706, 22.355
1269.905, 12.011
1271.105, 10.664
1272.304, 23.313
1273.503, 14.963
1274.702, 20.607
1275.900, 15.731
1277.099, 18.888
1278.297, 7.523
1279.495, 4.846
1280.693, 0.228
1281.891, 17.390
1283.088, 12.003
1284.285, 11.609
1285.482, 33.209
1286.679, 2.801
1287.876, 46.388
1289.072, 11.970
1290.268, 26.542
1291.464, 18.111
1292.660, 19.669
1293.856, 22.225
1295.051, 14.779
1296.247, 29.329
1297.442, 17.876
1298.637, 4.423
1299.831, 9.969
1301.026, 10.510
1302.220, 1.049
1303.414, 12.588
1304.608, 0.124
1305.802, 15.659
1306.995, 7.192
1308.188, 1.277
1309.381, 0.748
1310.574, 17.777
1311.767, 11.699
1312.960, 42.819
1314.152, 11.335
1315.344, 0.152
1316.536, 9.642
1317.728, 14.862
1318.919, 16.363
1320.110, 9.861
1321.301, 22.644
1322.492, 7.841
1323.683, 24.322
1324.874, 10.200
1326.064, 6.271
1327.254, 10.261
1328.444, 9.801
1329.634, 14.653
1330.823, 7.104
1332.013, 10.447
1333.202, 23.995
1334.391, 10.565
1335.580, 17.869
1336.768, 33.020
1337.956, 6.551
1339.145, 4.874
1340.333, 13.703
1341.520, 4.288
1342.708, 8.123
1343.895, 4.469
1345.083, 12.935
1346.270, 3.663
1347.456, 5.266
1348.643, 0.127
1349.829, 28.516
1351.016, 13.096
1352.202, 5.286
1353.387, 53.666
1354.573, 3.045
1355.759, 8.398
1356.944, 32.792
1358.129, 1.860
1359.314, 15.484
1360.498, 11.824
1361.683, 21.162
1362.867, 22.558
1364.051, 38.889
1365.235, 35.216
1366.419, 34.539
1367.602, 10.859
1368.785, 1.169
1369.968, 21.474
1371.151, 28.775
1372.334, 57.074
1373.517, 54.105
1374.699, 55.981
1375.881, 53.615
1377.063, 61.248
1378.245, 62.879
1379.426, 61.510
1380.608, 73.342
1381.789, 81.769
1382.970, 87.397
1384.150, 90.024
1385.331, 82.807
1386.511, 74.423
1387.691, 113.038
1388.871, 124.651
1390.051, 111.262
1391.231, 140.872
1392.410, 121.479
1393.589, 148.084
1394.768, 159.688
1395.947, 194.290
1397.126, 207.890
1398.304, 234.165
1399.483, 267.758
1400.661, 365.350
1401.838, 356.933
1403.016, 507.523
1404.194, 627.112
1405.371, 684.700
1406.548, 896.288
1407.725, 1113.861
1408.901, 1236.399
1410.078, 1435.852
1411.254, 1546.427
1412.430, 1603.471
1413.606, 1634.813
1414.782, 1512.378
1415.958, 1365.562
1417.133, 1275.109
1418.308, 1035.261
1419.483, 1001.752
1420.658, 842.925
1421.832, 723.782
1423.007, 674.201
1424.181, 545.237
1425.355, 475.206
1426.529, 502.473
1427.702, 418.806
1428.876, 394.129
1430.049, 394.433
1431.222, 328.658
1432.395, 317.371
1433.567, 332.386
1434.740, 288.263
1435.912, 293.385
1437.084, 270.682
1438.256, 203.834
1439.428, 271.036
1440.599, 187.232
1441.770, 212.661
1442.942, 231.833
1444.112, 163.999
1445.283, 211.150
1446.454, 203.282
1447.624, 165.395
1448.794, 141.486
1449.964, 153.563
1451.134, 93.626
1452.303, 137.665
1453.473, 123.680
1454.642, 92.669
1455.811, 83.630
1456.980, 93.570
1458.148, 54.481
1459.317, 74.359
1460.485, 52.204
1461.653, 63.013
1462.821, 82.789
1463.989, 57.555
1465.156, 78.312
1466.323, 40.076
1467.490, 24.848
1468.657, 42.670
1469.824, 30.516
1470.991, 12.410
1472.157, 50.351
1473.323, 9.357
1474.489, 40.429
1475.655, 38.514
1476.820, 9.395
1477.986, 56.700
1479.151, 37.800
1480.316, 46.893
1481.481, 32.982
1482.645, 20.069
1483.810, 29.156
1484.974, 38.248
1486.138, 31.350
1487.302, 39.470
1488.465, 20.615
1489.629, 22.794
1490.792, 8.012
1491.955, 32.270
1493.118, 21.565
1494.281, 39.889
1495.443, 4.696
1496.606, 0.311
1497.768, 27.659
1498.930, 2.600
1500.091, 13.504
1501.253, 4.353
1502.414, 0.884
1503.575, 5.743
1504.736, 8.537
1505.897, 12.865
1507.058, 34.859
1508.218, 17.244
1509.379, 22.888
1510.539, 7.500
1511.698, 20.714
1512.858, 0.000
##END=



