##NAMES=Rhodonite
##RRUFFID=R040041
##IDEAL CHEMISTRY=CaMn^2+^_3_Mn^2+^Si_5_O_15_
##LOCALITY=Franklin, Sussex County, New Jersey, USA
##OWNER=RRUFF
##SOURCE=University of Arizona Mineral Museum
##DESCRIPTION=Pink prismatic crystals
##STATUS=The identification of this mineral has been confirmed by X-ray diffraction and chemical analysis
##URL=rruff.info/R040041
##MEASURED CHEMISTRY=(Mn_0.63_Ca_0.21_Zn_0.12_Mg_0.02_Fe_0.02_)_Î£=1_Si_1.00_O_3_
##PIN_ID=M00442
##ORIENTATION=Laser parallel to a* (1 0 0). Fiducial mark perpendicular to laser is parallel to -b [0 -1 0]
91.284, 0.000
92.678, 5.817
94.071, 9.014
95.465, 35.532
96.858, 237.980
98.251, 460.690
99.644, 549.473
101.036, 751.089
102.428, 792.731
103.820, 1183.062
105.212, 2245.496
106.604, 4172.191
107.995, 6202.104
109.387, 7658.490
110.777, 8634.776
112.168, 7782.554
113.559, 6134.528
114.949, 4444.513
116.339, 3359.337
117.729, 2447.627
119.119, 1830.998
120.508, 1677.685
121.897, 1668.755
123.286, 1796.333
124.675, 1915.861
126.063, 1996.239
127.452, 2186.312
128.840, 2146.137
130.228, 1983.764
131.615, 1895.236
133.003, 1581.584
134.390, 1340.831
135.777, 1262.990
137.164, 1182.084
138.550, 1084.489
139.937, 889.496
141.323, 676.490
142.709, 467.483
144.094, 266.573
145.480, 293.515
146.865, 247.018
148.250, 323.269
149.635, 442.402
151.019, 575.791
152.403, 699.420
153.788, 806.281
155.171, 949.362
156.555, 1087.795
157.939, 1144.626
159.322, 1179.334
160.705, 1010.986
162.088, 908.801
163.470, 759.773
164.853, 549.897
166.235, 483.168
167.617, 498.582
168.998, 515.132
170.380, 610.816
171.761, 732.631
173.142, 832.572
174.523, 900.608
175.904, 956.650
177.284, 816.741
178.664, 651.906
180.044, 371.160
181.424, 157.511
182.803, 78.966
184.183, 7.527
185.562, 66.195
186.940, 120.972
188.319, 257.856
189.698, 261.844
191.076, 227.933
192.454, 147.121
193.831, 93.405
195.209, 59.218
196.586, 142.750
197.963, 221.152
199.340, 228.330
200.717, 202.261
202.093, 234.031
203.470, 123.688
204.846, 66.267
206.221, 89.233
207.597, 218.840
208.972, 392.519
210.347, 466.244
211.722, 501.014
213.097, 534.829
214.472, 482.690
215.846, 358.596
217.220, 319.547
218.594, 126.542
219.967, 36.583
221.341, 31.337
222.714, 54.212
224.087, 20.043
225.460, 20.168
226.832, 2.358
228.204, 85.387
229.577, 152.247
230.948, 230.026
232.320, 318.842
233.692, 516.710
235.063, 730.629
236.434, 972.599
237.805, 1327.618
239.175, 1567.679
240.545, 1886.752
241.916, 2284.866
243.286, 2463.025
244.655, 2690.231
246.025, 2703.483
247.394, 2692.780
248.763, 2548.119
250.132, 2294.504
251.501, 2074.930
252.869, 1975.399
254.237, 1909.909
255.605, 1909.460
256.973, 2011.061
258.340, 2190.527
259.708, 2338.816
261.075, 2253.710
262.442, 2293.992
263.808, 2229.591
265.175, 2019.450
266.541, 1951.537
267.907, 1822.833
269.273, 1762.299
270.639, 1721.926
272.004, 1729.690
273.369, 1822.563
274.734, 1859.531
276.099, 1801.590
277.463, 1825.739
278.828, 1755.961
280.192, 1664.252
281.556, 1622.604
282.919, 1488.011
284.283, 1371.444
285.646, 1224.892
287.009, 980.356
288.372, 902.839
289.734, 675.341
291.097, 583.862
292.459, 478.403
293.821, 403.966
295.183, 441.550
296.544, 471.157
297.905, 442.788
299.266, 512.442
300.627, 588.120
301.988, 678.218
303.348, 729.377
304.709, 833.996
306.069, 1047.809
307.428, 1107.945
308.788, 1228.791
310.147, 1484.886
311.507, 1609.787
312.865, 1924.011
314.224, 2296.025
315.583, 2675.955
316.941, 3153.192
318.299, 3608.805
319.657, 4038.408
321.015, 4357.957
322.372, 4376.092
323.729, 4537.751
325.086, 4733.137
326.443, 5015.554
327.800, 5283.003
329.156, 5818.481
330.512, 6505.992
331.868, 7131.529
333.224, 7731.096
334.579, 8212.690
335.935, 8034.311
337.290, 7885.960
338.645, 7324.634
339.999, 6774.336
341.354, 6194.062
342.708, 5841.813
344.062, 5525.591
345.416, 5229.394
346.769, 4848.219
348.123, 4248.966
349.476, 3739.840
350.829, 3049.736
352.182, 2528.654
353.534, 2135.595
354.887, 1863.557
356.239, 1597.539
357.591, 1360.542
358.942, 1251.037
360.294, 1142.559
361.645, 954.961
362.996, 876.009
364.347, 813.505
365.698, 749.300
367.048, 673.934
368.398, 562.313
369.748, 556.474
371.098, 404.651
372.448, 389.842
373.797, 225.048
375.146, 164.268
376.495, 170.501
377.844, 117.749
379.192, 153.010
380.540, 104.283
381.889, 158.570
383.236, 176.869
384.584, 261.932
385.932, 250.069
387.279, 304.588
388.626, 289.935
389.973, 188.197
391.319, 157.568
392.666, 145.953
394.012, 121.351
395.358, 101.762
396.704, 87.186
398.049, 127.623
399.394, 210.071
400.740, 252.532
402.084, 405.004
403.429, 512.488
404.774, 717.984
406.118, 917.490
407.462, 1147.008
408.806, 1507.536
410.150, 1873.074
411.493, 2323.621
412.836, 2887.180
414.179, 3638.747
415.522, 4223.322
416.865, 4973.919
418.207, 5281.760
419.549, 5235.075
420.891, 4889.878
422.233, 4220.874
423.575, 3455.219
424.916, 2676.203
426.257, 2124.141
427.598, 1625.603
428.939, 1225.285
430.279, 945.601
431.619, 731.264
432.959, 553.075
434.299, 516.232
435.639, 465.617
436.978, 429.296
438.318, 335.400
439.657, 339.210
440.996, 298.246
442.334, 282.026
443.673, 278.787
445.011, 296.571
446.349, 366.358
447.687, 447.146
449.024, 512.938
450.361, 576.742
451.699, 635.556
453.036, 682.385
454.372, 718.217
455.709, 676.056
457.045, 500.907
458.381, 393.760
459.717, 197.629
461.053, 99.501
462.388, 17.613
463.724, 35.733
465.059, 93.861
466.394, 96.029
467.728, 116.239
469.063, 63.506
470.397, 54.804
471.731, 38.128
473.065, 27.470
474.398, 16.828
475.732, 9.193
477.065, 23.437
478.398, 5.075
479.731, 46.286
481.063, 27.675
482.396, 3.082
483.728, 11.498
485.060, 92.075
486.391, 75.654
487.723, 220.243
489.054, 427.841
490.385, 553.439
491.716, 692.040
493.047, 749.636
494.377, 851.247
495.708, 766.852
497.038, 751.462
498.368, 680.075
499.697, 634.687
501.027, 600.295
502.356, 682.901
503.685, 797.511
505.014, 1051.119
506.342, 1373.731
507.671, 1722.339
508.999, 2208.956
510.327, 2526.571
511.655, 2697.181
512.982, 2662.789
514.310, 2456.398
515.637, 2162.002
516.964, 1794.604
518.291, 1500.198
519.617, 1222.806
520.944, 997.441
522.270, 791.796
523.596, 604.314
524.921, 470.593
526.247, 337.391
527.572, 227.206
528.897, 203.026
530.222, 120.839
531.547, 88.642
532.871, 71.438
534.196, 62.224
535.520, 59.002
536.844, 65.261
538.167, 110.529
539.491, 100.279
540.814, 141.020
542.137, 179.750
543.460, 155.470
544.783, 304.187
546.105, 342.905
547.427, 500.616
548.749, 660.317
550.071, 835.009
551.393, 1175.689
552.714, 1480.359
554.035, 1921.018
555.356, 2194.665
556.677, 2194.301
557.998, 2115.924
559.318, 1780.536
560.638, 1421.136
561.958, 1077.724
563.278, 781.299
564.597, 579.862
565.917, 442.412
567.236, 319.950
568.555, 296.474
569.874, 211.986
571.192, 184.484
572.511, 115.969
573.829, 130.440
575.147, 82.897
576.464, 63.341
577.782, 42.768
579.099, 27.173
580.416, 1.553
581.733, 51.103
583.050, 28.823
584.366, 4.404
585.683, 19.406
586.999, 54.264
588.315, 0.189
589.630, 37.154
590.946, 23.177
592.261, 25.747
593.576, 54.643
594.891, 13.540
596.206, 10.587
597.520, 39.283
598.834, 32.052
600.148, 114.915
601.462, 42.728
602.776, 109.432
604.089, 129.448
605.402, 128.177
606.715, 204.323
608.028, 210.211
609.341, 208.165
610.653, 242.939
611.965, 265.917
613.277, 309.201
614.589, 333.867
615.901, 389.202
617.212, 400.652
618.523, 462.795
619.834, 521.582
621.145, 585.544
622.456, 657.553
623.766, 685.141
625.076, 713.641
626.386, 751.608
627.696, 894.843
629.006, 982.065
630.315, 1060.094
631.624, 1128.070
632.933, 1208.617
634.242, 1344.098
635.551, 1472.257
636.859, 1639.602
638.167, 1791.928
639.475, 2011.492
640.783, 2163.275
642.090, 2447.514
643.398, 2714.219
644.705, 3012.084
646.012, 3468.262
647.318, 3947.936
648.625, 4500.707
649.931, 5236.015
651.237, 6241.218
652.543, 7456.474
653.849, 9011.021
655.155, 11123.038
656.460, 13624.593
657.765, 16735.633
659.070, 20976.625
660.375, 25969.436
661.679, 32720.670
662.984, 39593.508
664.288, 46174.418
665.592, 51587.961
666.895, 53479.371
668.199, 52060.219
669.502, 46811.473
670.805, 40893.754
672.108, 34164.645
673.411, 29015.963
674.713, 23586.629
676.016, 20048.670
677.318, 17070.453
678.620, 14741.043
679.921, 12392.515
681.223, 10553.085
682.524, 8853.727
683.825, 7192.231
685.126, 6051.710
686.427, 4991.166
687.727, 4257.600
689.028, 3552.012
690.328, 3095.400
691.628, 2700.768
692.927, 2276.112
694.227, 2044.434
695.526, 1870.734
696.825, 1673.011
698.124, 1582.266
699.423, 1458.500
700.721, 1307.711
702.020, 1297.900
703.318, 1227.066
704.616, 1195.211
705.913, 1181.333
707.211, 1190.433
708.508, 1324.511
709.805, 1435.567
711.102, 1506.601
712.399, 1561.613
713.695, 1522.897
714.992, 1515.571
716.288, 1332.518
717.584, 1212.443
718.879, 1013.346
720.175, 929.228
721.470, 762.088
722.765, 702.927
724.060, 633.744
725.355, 590.539
726.649, 539.401
727.944, 484.067
729.238, 463.800
730.532, 409.511
731.825, 391.191
733.119, 407.613
734.412, 349.565
735.705, 347.032
736.998, 398.305
738.291, 356.227
739.584, 310.504
740.876, 262.821
742.168, 208.605
743.460, 185.131
744.752, 206.074
746.043, 146.629
747.334, 146.027
748.626, 138.065
749.916, 90.864
751.207, 86.358
752.498, 72.412
753.788, 90.748
755.078, 57.844
756.368, 65.182
757.658, 83.526
758.947, 32.831
760.237, 68.118
761.526, 21.389
762.815, 14.360
764.104, 16.145
765.392, 29.949
766.680, 23.170
767.969, 7.713
769.257, 19.626
770.544, 15.424
771.832, 44.546
773.119, 8.436
774.406, 35.603
775.693, 13.686
776.980, 47.793
778.267, 32.937
779.553, 35.096
780.839, 16.270
782.125, 18.442
783.411, 11.259
784.697, 9.686
785.982, 0.033
787.267, 16.254
788.552, 9.495
789.837, 19.756
791.122, 13.047
792.406, 2.639
793.690, 0.062
794.974, 1.726
796.258, 1.662
797.542, 17.684
798.825, 37.056
800.108, 26.974
801.391, 3.902
802.674, 6.358
803.957, 15.833
805.239, 5.670
806.522, 16.840
807.804, 22.372
809.085, 14.929
810.367, 8.507
811.649, 8.898
812.930, 13.293
814.211, 31.322
815.492, 5.965
816.772, 33.620
818.053, 8.696
819.333, 46.997
820.613, 13.723
821.893, 5.535
823.173, 12.216
824.452, 30.981
825.732, 3.768
827.011, 16.565
828.290, 14.622
829.568, 31.197
830.847, 28.037
832.125, 15.104
833.403, 24.762
834.681, 4.356
835.959, 3.532
837.236, 5.572
838.514, 35.669
839.791, 29.761
841.068, 35.847
842.345, 19.928
843.621, 36.003
844.898, 75.074
846.174, 53.140
847.450, 76.201
848.726, 64.258
850.001, 118.311
851.277, 157.359
852.552, 158.403
853.827, 164.444
855.102, 193.481
856.376, 241.514
857.651, 297.545
858.925, 384.572
860.199, 468.597
861.473, 555.619
862.746, 734.638
864.020, 945.656
865.293, 1134.670
866.566, 1474.684
867.839, 1761.695
869.112, 2199.705
870.384, 2628.713
871.656, 2849.721
872.928, 3015.297
874.200, 3172.732
875.472, 3058.737
876.744, 2898.741
878.015, 2771.746
879.286, 2700.753
880.557, 2486.758
881.828, 2400.765
883.098, 2362.784
884.369, 2593.804
885.639, 2618.835
886.909, 2746.872
888.178, 2736.918
889.448, 2634.973
890.717, 2438.042
891.987, 2106.138
893.256, 1796.265
894.524, 1534.406
895.793, 1369.571
897.061, 1261.766
898.330, 1150.993
899.598, 1133.253
900.865, 1142.533
902.133, 1205.840
903.401, 1343.131
904.668, 1432.430
905.935, 1587.708
907.202, 1896.072
908.468, 2241.329
909.735, 2570.624
911.001, 2803.014
912.267, 2973.094
913.533, 2944.450
914.799, 2705.375
916.064, 2535.558
917.330, 2193.661
918.595, 2137.936
919.860, 1943.996
921.124, 1784.736
922.389, 1730.771
923.653, 1714.760
924.918, 1702.306
926.182, 1797.151
927.445, 1932.341
928.709, 2237.956
929.972, 2530.472
931.236, 3065.962
932.499, 3790.364
933.761, 4471.990
935.024, 4945.527
936.286, 5201.567
937.549, 4695.750
938.811, 4190.584
940.073, 3435.447
941.334, 2811.777
942.596, 2437.511
943.857, 2079.717
945.118, 1931.959
946.379, 1763.078
947.640, 1720.353
948.900, 1819.676
950.161, 1756.831
951.421, 1922.823
952.681, 2041.495
953.940, 2115.672
955.200, 2393.744
956.459, 2706.272
957.719, 2931.897
958.978, 3535.462
960.236, 4092.731
961.495, 5080.521
962.753, 5982.775
964.012, 7592.538
965.270, 9700.342
966.527, 12077.324
967.785, 15475.869
969.043, 18092.814
970.300, 21001.684
971.557, 22567.904
972.814, 22096.246
974.071, 20735.158
975.327, 19113.654
976.583, 17081.107
977.840, 15689.959
979.095, 14628.373
980.351, 13957.434
981.607, 14495.110
982.862, 14843.044
984.117, 16812.162
985.372, 18730.389
986.627, 21979.512
987.882, 26238.559
989.136, 28747.729
990.390, 30676.920
991.644, 29916.127
992.898, 26805.342
994.152, 24714.578
995.405, 22343.824
996.659, 21723.090
997.912, 21492.367
999.165, 20961.662
1000.417, 20990.963
1001.670, 19470.285
1002.922, 17429.619
1004.174, 15518.969
1005.426, 12798.333
1006.678, 10877.711
1007.930, 9147.103
1009.181, 7796.513
1010.432, 6995.938
1011.683, 6257.375
1012.934, 5862.828
1014.185, 5511.295
1015.435, 5247.775
1016.685, 5130.280
1017.935, 5091.798
1019.185, 5047.330
1020.435, 5119.876
1021.684, 5202.438
1022.934, 5541.012
1024.183, 5882.599
1025.432, 6020.199
1026.680, 6135.812
1027.929, 6292.838
1029.177, 6418.478
1030.425, 6475.019
1031.673, 6433.904
1032.921, 6543.061
1034.169, 6503.753
1035.416, 6475.081
1036.663, 6624.287
1037.911, 6944.021
1039.157, 7280.168
1040.404, 8104.116
1041.650, 8654.305
1042.897, 9746.029
1044.143, 10456.399
1045.389, 10706.879
1046.634, 10427.102
1047.880, 9411.259
1049.125, 7952.875
1050.371, 6688.724
1051.615, 5274.534
1052.860, 4315.633
1054.105, 3478.748
1055.349, 2832.582
1056.593, 2363.573
1057.837, 1900.230
1059.081, 1762.222
1060.325, 1477.766
1061.568, 1309.288
1062.812, 1197.325
1064.055, 1051.373
1065.298, 973.821
1066.540, 902.897
1067.783, 776.749
1069.025, 824.865
1070.267, 770.987
1071.509, 740.176
1072.751, 719.454
1073.993, 691.728
1075.234, 654.607
1076.475, 645.125
1077.716, 577.458
1078.957, 589.732
1080.198, 552.201
1081.438, 461.332
1082.679, 465.677
1083.919, 421.555
1085.159, 367.993
1086.398, 369.428
1087.638, 381.779
1088.877, 305.871
1090.116, 278.505
1091.355, 303.653
1092.594, 296.491
1093.833, 261.769
1095.071, 267.898
1096.309, 249.910
1097.547, 227.991
1098.785, 244.539
1100.023, 196.811
1101.260, 201.522
1102.498, 199.183
1103.735, 202.878
1104.972, 243.179
1106.208, 206.891
1107.445, 223.516
1108.681, 237.796
1109.918, 198.141
1111.154, 258.659
1112.389, 223.428
1113.625, 144.717
1114.860, 162.159
1116.096, 151.114
1117.331, 166.347
1118.566, 179.573
1119.800, 150.608
1121.035, 237.960
1122.269, 253.068
1123.503, 222.864
1124.737, 206.145
1125.971, 191.379
1127.205, 179.884
1128.438, 166.921
1129.671, 156.355
1130.904, 144.500
1132.137, 131.311
1133.370, 116.949
1134.602, 116.707
1135.834, 90.607
1137.066, 99.557
1138.298, 116.078
1139.530, 117.700
1140.762, 105.246
1141.993, 128.152
1143.224, 151.042
1144.455, 124.232
1145.686, 117.925
1146.917, 93.627
1148.147, 89.446
1149.377, 86.674
1150.607, 91.054
1151.837, 86.668
1153.067, 105.455
1154.296, 103.117
1155.526, 73.923
1156.755, 55.973
1157.984, 86.830
1159.213, 67.650
1160.441, 62.516
1161.670, 34.273
1162.898, 52.993
1164.126, 70.013
1165.354, 74.663
1166.581, 43.244
1167.809, 30.238
1169.036, 31.812
1170.263, 63.453
1171.490, 35.853
1172.717, 16.613
1173.943, 19.177
1175.170, 15.271
1176.396, 4.271
1177.622, 2.100
1178.848, 2.569
1180.073, 52.045
1181.299, 11.478
1182.524, 53.032
1183.749, 14.571
1184.974, 25.113
1186.199, 11.679
1187.423, 5.256
1188.648, 11.265
1189.872, 38.352
1191.096, 13.973
1192.320, 15.607
1193.543, 9.255
1194.767, 73.915
1195.990, 32.619
1197.213, 25.653
1198.436, 66.083
1199.659, 2.861
1200.881, 21.649
1202.104, 16.457
1203.326, 6.717
1204.548, 28.117
1205.770, 14.024
1206.991, 8.843
1208.213, 55.726
1209.434, 14.352
1210.655, 15.420
1211.876, 36.521
1213.096, 18.510
1214.317, 9.447
1215.537, 21.557
1216.757, 23.553
1217.977, 12.460
1219.197, 3.505
1220.417, 4.459
1221.636, 8.600
1222.855, 7.321
1224.074, 26.769
1225.293, 25.111
1226.512, 4.979
1227.731, 5.146
1228.949, 27.688
1230.167, 15.490
1231.385, 23.694
1232.603, 21.072
1233.820, 4.982
1235.038, 0.251
1236.255, 9.459
1237.472, 0.207
1238.689, 10.121
1239.906, 16.475
1241.122, 18.146
1242.338, 23.747
1243.555, 11.673
1244.771, 31.884
1245.986, 13.571
1247.202, 17.040
1248.417, 18.449
1249.633, 21.018
1250.848, 4.472
1252.063, 22.899
1253.277, 38.308
1254.492, 6.761
1255.706, 6.129
1256.920, 12.526
1258.134, 25.795
1259.348, 9.095
1260.562, 6.450
1261.775, 19.714
1262.988, 12.316
1264.201, 13.236
1265.414, 19.439
1266.627, 11.625
1267.839, 18.792
1269.052, 36.935
1270.264, 15.115
1271.476, 4.325
1272.688, 29.405
1273.899, 23.454
1275.111, 14.485
1276.322, 22.493
1277.533, 44.483
1278.744, 10.456
1279.955, 58.407
1281.165, 37.341
1282.376, 77.257
1283.586, 54.156
1284.796, 99.057
1286.006, 14.994
1287.215, 39.896
1288.425, 41.721
1289.634, 26.527
1290.843, 79.315
1292.052, 77.162
1293.261, 75.994
1294.469, 39.816
1295.678, 60.534
1296.886, 104.296
1298.094, 57.979
1299.302, 15.645
1300.509, 55.541
1301.717, 36.198
1302.924, 49.805
1304.131, 54.394
1305.338, 48.965
1306.545, 64.518
1307.752, 73.052
1308.958, 7.432
1310.164, 89.137
1311.370, 108.607
1312.576, 41.060
1313.782, 108.495
1314.987, 88.912
1316.193, 98.312
1317.398, 154.695
1318.603, 105.062
1319.807, 113.411
1321.012, 125.347
1322.216, 85.663
1323.421, 135.918
1324.625, 120.140
1325.829, 99.931
1327.032, 119.180
1328.236, 131.792
1329.439, 102.522
1330.642, 149.721
1331.845, 111.505
1333.048, 89.485
1334.251, 97.219
1335.453, 124.417
1336.656, 129.964
1337.858, 133.396
1339.060, 134.080
1340.261, 130.825
1341.463, 133.107
1342.664, 105.148
1343.866, 155.225
1345.067, 119.011
1346.267, 143.775
1347.468, 140.817
1348.669, 101.697
1349.869, 125.909
1351.069, 112.781
1352.269, 108.100
1353.469, 102.436
1354.668, 118.255
1355.868, 134.061
1357.067, 127.406
1358.266, 81.190
1359.465, 123.204
1360.664, 134.392
1361.862, 93.147
1363.061, 116.842
1364.259, 108.456
1365.457, 122.074
1366.655, 165.886
1367.852, 92.498
1369.050, 138.090
1370.247, 117.699
1371.444, 78.100
1372.641, 134.842
1373.838, 119.371
1375.035, 111.360
1376.231, 125.926
1377.427, 37.343
1378.623, 104.839
1379.819, 100.537
1381.015, 64.644
1382.211, 138.742
1383.406, 120.953
1384.601, 84.363
1385.796, 96.565
1386.991, 74.191
1388.185, 109.234
1389.380, 135.967
1390.574, 47.324
1391.768, 63.945
1392.962, 111.121
1394.156, 64.869
1395.350, 100.520
1396.543, 68.938
1397.736, 49.752
1398.929, 83.788
1400.122, 78.086
1401.315, 72.955
1402.507, 67.275
1403.700, 43.509
1404.892, 95.920
1406.084, 46.029
1407.276, 111.529
1408.467, 72.821
1409.659, 108.749
1410.850, 75.958
1412.041, 83.766
1413.232, 43.264
1414.423, 30.931
1415.614, 97.606
1416.804, 66.392
1417.994, 54.435
1419.184, 60.960
1420.374, 54.867
1421.564, 110.869
1422.753, 53.850
1423.943, 59.666
1425.132, 104.556
1426.321, 65.480
1427.510, 43.390
1428.698, 30.200
1429.887, 33.044
1431.075, 60.920
1432.263, 54.802
1433.451, 65.704
1434.639, 26.630
1435.827, 25.551
1437.014, 23.461
1438.201, 47.358
1439.388, 28.281
1440.575, 44.186
1441.762, 66.043
1442.949, 2.907
1444.135, 33.759
1445.321, 66.593
1446.507, 55.424
1447.693, 92.208
1448.879, 84.019
1450.064, 64.846
1451.250, 97.294
1452.435, 18.012
1453.620, 100.851
1454.805, 50.707
1455.989, 80.589
1457.174, 72.257
1458.358, 45.120
1459.542, 61.017
1460.726, 73.799
1461.910, 73.741
1463.093, 75.696
1464.277, 123.467
1465.460, 62.283
1466.643, 92.234
1467.826, 118.188
1469.009, 86.739
1470.191, 59.752
1471.373, 101.805
1472.556, 79.865
1473.738, 77.930
1474.919, 152.001
1476.101, 127.797
1477.283, 96.695
1478.464, 144.778
1479.645, 83.357
1480.826, 102.150
1482.007, 123.017
1483.187, 126.204
1484.368, 131.319
1485.548, 100.236
1486.728, 109.327
1487.908, 106.117
1489.088, 58.244
1490.268, 113.389
1491.447, 75.554
1492.626, 51.738
1493.805, 50.940
1494.984, 76.167
1496.163, 123.420
1497.341, 109.701
1498.520, 11.005
1499.698, 119.312
1500.876, 78.664
1502.054, 1.925
1503.232, 104.566
1504.409, 64.135
1505.586, 190.769
1506.763, 90.474
1507.940, 34.249
1509.117, 84.104
1510.294, 143.049
1511.470, 56.269
1512.647, 66.074
1513.823, 80.836
1514.999, 41.965
1516.174, 89.054
1517.350, 0.339
1518.526, 29.783
1519.701, 64.781
1520.876, 24.808
