##NAMES=Rhodochrosite
##RRUFFID=R050116
##IDEAL CHEMISTRY=Mn^2+^CO_3_
##LOCALITY=Wudong mine, Liubao, Guangxi Autonomous Region, China
##OWNER=RRUFF
##SOURCE=He Xin Jian
##DESCRIPTION=Pink crystal associated with colorless quartz
##STATUS=The identification of this mineral has been confirmed by X-ray diffraction and chemical analysis
##URL=rruff.info/R050116
##MEASURED CHEMISTRY=(Mn_0.81_Fe_0.17_Mg_0.01_Ca_0.01_)CO_3_
##PIN_ID=L00413
##ORIENTATION=Laser parallel to c* (0 0 1). Fiducial mark perpendicular to laser is parallel to a [1 0 0]
57.350, 0.000
58.758, 27.216
60.165, 19.410
61.572, 32.287
62.979, 49.018
64.386, 55.386
65.792, 22.416
67.198, 30.901
68.604, 35.944
70.010, 28.712
71.415, 39.097
72.820, 38.774
74.225, 37.250
75.630, 29.652
77.034, 14.779
78.438, 21.903
79.842, 0.073
81.246, 8.712
82.649, 3.546
84.053, 0.842
85.455, 0.171
86.858, 3.471
88.260, 5.503
89.663, 13.315
91.065, 24.739
92.466, 40.180
93.868, 49.637
95.269, 59.708
96.670, 69.597
98.070, 71.112
99.471, 78.657
100.871, 72.232
102.271, 95.839
103.670, 69.462
105.070, 100.118
106.469, 130.804
107.868, 133.497
109.267, 128.190
110.665, 139.880
112.063, 171.570
113.461, 160.259
114.859, 163.948
116.256, 170.637
117.653, 158.325
119.050, 155.013
120.447, 157.701
121.843, 137.389
123.240, 146.077
124.636, 134.765
126.031, 148.453
127.427, 135.141
128.822, 149.832
130.217, 154.522
131.612, 153.214
133.006, 135.909
134.400, 150.653
135.794, 166.496
137.188, 132.516
138.581, 148.321
139.975, 145.372
141.368, 139.427
142.760, 145.449
144.153, 146.584
145.545, 158.690
146.937, 148.826
148.329, 166.644
149.720, 176.558
151.112, 169.566
152.503, 180.415
153.893, 187.381
155.284, 209.370
156.674, 213.240
158.064, 240.980
159.454, 262.665
160.843, 284.338
162.233, 320.020
163.622, 334.712
165.011, 357.411
166.399, 372.115
167.787, 436.819
169.175, 478.523
170.563, 514.228
171.951, 631.932
173.338, 711.637
174.725, 981.342
176.112, 1183.047
177.499, 1495.752
178.885, 1884.456
180.271, 2206.161
181.657, 2529.866
183.043, 2590.571
184.428, 2536.276
185.813, 2094.980
187.198, 1623.686
188.583, 1249.390
189.967, 896.095
191.351, 671.798
192.735, 451.502
194.119, 347.224
195.502, 264.939
196.885, 222.709
198.268, 158.411
199.651, 119.163
201.033, 94.727
202.415, 100.605
203.797, 73.305
205.179, 49.036
206.561, 66.842
207.942, 52.736
209.323, 37.480
210.703, 29.197
212.084, 40.918
213.464, 17.676
214.844, 5.682
216.224, 25.486
217.603, 21.239
218.983, 35.998
220.362, 18.734
221.741, 5.435
223.119, 6.328
224.497, 17.097
225.875, 10.793
227.253, 19.385
228.631, 10.693
230.008, 10.057
231.385, 8.269
232.762, 16.550
234.139, 17.991
235.515, 2.580
236.891, 27.240
238.267, 33.329
239.643, 35.560
241.018, 13.461
242.393, 28.985
243.768, 2.625
245.143, 9.203
246.517, 16.904
247.891, 1.637
249.265, 25.892
250.639, 15.097
252.012, 4.323
253.386, 8.433
254.759, 22.845
256.131, 40.465
257.504, 19.071
258.876, 47.714
260.248, 26.400
261.620, 34.122
262.991, 62.885
264.363, 49.624
265.734, 85.480
267.104, 93.274
268.475, 94.028
269.845, 118.270
271.215, 112.014
272.585, 129.961
273.955, 158.720
275.324, 185.434
276.693, 251.146
278.062, 314.859
279.431, 382.571
280.799, 436.365
282.167, 566.077
283.535, 658.789
284.903, 851.500
286.270, 957.211
287.638, 1037.922
289.005, 1081.633
290.371, 1025.343
291.738, 927.054
293.104, 780.764
294.470, 633.475
295.836, 506.187
297.201, 408.898
298.567, 312.608
299.932, 261.321
301.296, 184.033
302.661, 159.743
304.025, 130.463
305.389, 116.196
306.753, 85.907
308.117, 102.616
309.480, 66.323
310.843, 87.027
312.206, 84.730
313.569, 34.432
314.931, 67.133
316.293, 39.832
317.655, 43.526
319.017, 53.218
320.378, 58.909
321.740, 51.195
323.101, 30.288
324.461, 33.977
325.822, 23.666
327.182, 18.356
328.542, 27.045
329.902, 24.734
331.261, 19.423
332.621, 25.111
333.980, 7.798
335.339, 30.486
336.697, 22.172
338.056, 39.858
339.414, 10.544
340.772, 20.230
342.129, 17.915
343.487, 15.600
344.844, 29.284
346.201, 20.967
347.557, 34.650
348.914, 13.333
350.270, 28.015
351.626, 5.697
352.982, 11.378
354.337, 6.058
355.693, 1.262
357.048, 19.417
358.402, 9.095
359.757, 42.773
361.111, 14.449
362.465, 13.126
363.819, 26.801
365.173, 10.476
366.526, 13.150
367.879, 5.176
369.232, 16.496
370.585, 4.167
371.937, 6.836
373.290, 3.504
374.642, 23.150
375.993, 21.817
377.345, 1.416
378.696, 5.961
380.047, 39.590
381.398, 23.200
382.748, 13.862
384.099, 12.463
385.449, 2.992
386.799, 20.554
388.148, 10.141
389.497, 7.697
390.847, 14.716
392.196, 5.820
393.544, 13.351
394.893, 4.128
396.241, 13.423
397.589, 3.021
398.936, 17.468
400.284, 7.939
401.631, 20.674
402.978, 9.288
404.325, 9.821
405.672, 4.580
407.018, 12.093
408.364, 12.951
409.710, 2.504
411.055, 19.983
412.401, 31.575
413.746, 9.125
415.091, 1.366
416.435, 0.164
417.780, 2.754
419.124, 1.124
420.468, 8.948
421.812, 8.563
423.155, 11.171
424.498, 2.785
425.842, 8.423
427.184, 6.089
428.527, 0.363
429.869, 5.238
431.211, 9.163
432.553, 7.432
433.895, 3.975
435.236, 3.616
436.577, 14.224
437.918, 16.812
439.259, 21.401
440.599, 26.048
441.940, 0.425
443.280, 26.161
444.619, 29.746
445.959, 17.330
447.298, 47.915
448.637, 15.499
449.976, 24.082
451.315, 19.666
452.653, 19.251
453.991, 30.834
455.329, 45.828
456.667, 54.413
458.004, 31.996
459.341, 31.579
460.678, 26.696
462.015, 28.279
463.352, 48.901
464.688, 11.482
466.024, 8.064
467.360, 29.730
468.695, 25.313
470.031, 34.971
471.366, 46.552
472.701, 37.142
474.035, 32.722
475.370, 56.314
476.704, 55.892
478.038, 54.470
479.372, 40.046
480.705, 46.622
482.038, 58.212
483.371, 60.833
484.704, 43.493
486.037, 41.071
487.369, 52.832
488.701, 50.396
490.033, 64.991
491.365, 59.560
492.696, 60.118
494.027, 47.721
495.358, 46.230
496.689, 53.797
498.019, 60.415
499.350, 70.981
500.680, 77.539
502.009, 73.148
503.339, 87.705
504.668, 53.251
505.997, 66.819
507.326, 76.387
508.655, 77.962
509.983, 100.538
511.311, 106.112
512.639, 89.622
513.967, 65.159
515.295, 95.673
516.622, 44.124
517.949, 74.693
519.276, 99.218
520.602, 94.786
521.929, 104.103
523.255, 77.877
524.581, 94.448
525.906, 79.985
527.232, 76.536
528.557, 51.844
529.882, 81.409
531.207, 83.922
532.531, 69.446
533.855, 72.955
535.179, 70.536
536.503, 64.108
537.827, 68.609
539.150, 47.130
540.473, 64.701
541.796, 70.271
543.119, 79.823
544.441, 47.368
545.764, 32.746
547.086, 64.313
548.407, 36.848
549.729, 63.372
551.050, 54.057
552.371, 37.572
553.692, 59.119
555.013, 53.438
556.333, 43.984
557.653, 50.352
558.973, 29.913
560.293, 38.016
561.612, 32.681
562.932, 27.102
564.251, 29.630
565.569, 41.919
566.888, 41.755
568.206, 37.299
569.524, 52.691
570.842, 22.246
572.160, 44.801
573.477, 24.327
574.795, 34.763
576.112, 17.247
577.428, 17.501
578.745, 35.113
580.061, 15.635
581.377, 32.155
582.693, 32.685
584.009, 6.181
585.324, 34.699
586.639, 15.101
587.954, 17.566
589.269, 21.070
590.583, 20.085
591.897, 31.639
593.212, 12.947
594.525, 6.442
595.839, 20.979
597.152, 27.518
598.465, 22.055
599.778, 25.017
601.091, 32.046
602.403, 17.580
603.716, 16.132
605.028, 16.978
606.339, 19.509
607.651, 13.039
608.962, 21.832
610.273, 26.606
611.584, 13.133
612.895, 5.846
614.205, 14.676
615.515, 13.197
616.825, 31.739
618.135, 7.738
619.444, 11.802
620.754, 2.344
622.063, 19.079
623.372, 22.011
624.680, 16.050
625.989, 15.645
627.297, 0.144
628.605, 14.640
629.912, 11.170
631.220, 21.666
632.527, 10.186
633.834, 30.680
635.141, 18.173
636.447, 28.664
637.754, 17.154
639.060, 9.643
640.366, 2.129
641.671, 0.176
642.977, 12.096
644.282, 1.423
645.587, 11.054
646.892, 7.530
648.196, 26.003
649.501, 35.476
650.805, 5.130
652.109, 17.599
653.412, 20.130
654.716, 1.893
656.019, 34.357
657.322, 6.965
658.625, 4.425
659.927, 25.037
661.230, 47.514
662.532, 23.101
663.834, 35.909
665.135, 13.359
666.437, 7.794
667.738, 15.247
669.039, 17.150
670.340, 18.473
671.640, 27.916
672.940, 42.358
674.241, 18.798
675.540, 22.236
676.840, 21.672
678.139, 38.106
679.439, 38.639
680.738, 25.281
682.036, 37.345
683.335, 35.454
684.633, 15.558
685.931, 37.982
687.229, 49.402
688.527, 41.822
689.824, 46.239
691.121, 17.662
692.418, 50.622
693.715, 33.033
695.012, 61.653
696.308, 37.060
697.604, 65.464
698.900, 81.874
700.195, 64.274
701.491, 94.677
702.786, 94.073
704.081, 91.467
705.376, 118.859
706.670, 116.248
707.964, 166.639
709.259, 195.028
710.552, 271.415
711.846, 359.800
713.139, 529.218
714.433, 784.600
715.726, 1118.979
717.018, 1722.358
718.311, 2244.736
719.603, 2428.110
720.895, 2259.483
722.187, 1708.853
723.479, 1247.226
724.770, 921.595
726.061, 609.963
727.352, 521.329
728.643, 392.693
729.934, 339.054
731.224, 261.413
732.514, 183.771
733.804, 161.127
735.094, 114.481
736.383, 107.832
737.672, 95.181
738.961, 59.037
740.250, 66.357
741.539, 82.700
742.827, 52.464
744.115, 50.808
745.403, 42.149
746.691, 9.489
747.978, 60.828
749.265, 25.165
750.552, 27.481
751.839, 32.912
753.126, 33.242
754.412, 33.569
755.698, 33.076
756.984, 45.399
758.270, 14.719
759.555, 1.038
760.840, 23.368
762.125, 25.678
763.410, 1.987
764.695, 2.616
765.979, 20.915
767.263, 1.733
768.547, 32.147
769.831, 35.625
771.114, 12.910
772.398, 17.192
773.681, 10.938
774.964, 10.246
776.246, 2.480
777.529, 1.249
778.811, 1.070
780.093, 3.104
781.375, 25.358
782.656, 17.535
783.937, 9.080
785.219, 28.709
786.499, 10.954
787.780, 18.341
789.060, 25.581
790.341, 23.935
791.621, 23.171
792.901, 20.404
794.180, 19.731
795.459, 20.010
796.739, 18.943
798.017, 23.162
799.296, 26.195
800.575, 31.406
801.853, 30.600
803.131, 30.902
804.409, 3.030
805.686, 26.205
806.964, 6.413
808.241, 0.618
809.518, 15.767
810.795, 13.034
812.071, 18.120
813.347, 3.261
814.623, 8.442
815.899, 3.621
817.175, 0.677
818.450, 4.592
819.726, 10.855
821.001, 11.268
822.275, 17.870
823.550, 9.077
824.824, 24.064
826.098, 21.202
827.372, 14.339
828.646, 29.474
829.920, 19.607
831.193, 30.738
832.466, 13.132
833.739, 0.986
835.011, 5.900
836.284, 12.793
837.556, 0.697
838.828, 34.376
840.100, 17.466
841.371, 15.554
842.642, 34.641
843.914, 6.726
845.184, 5.200
846.455, 11.876
847.726, 0.049
848.996, 13.023
850.266, 10.093
851.536, 5.161
852.805, 19.228
854.075, 5.294
855.344, 12.358
856.613, 18.265
857.881, 9.586
859.150, 33.541
860.418, 5.599
861.686, 13.656
862.954, 21.712
864.222, 12.766
865.489, 1.819
866.756, 28.870
868.023, 40.920
869.290, 16.969
870.557, 15.017
871.823, 12.063
873.089, 8.803
874.355, 22.153
875.621, 12.196
876.886, 30.238
878.152, 25.279
879.417, 23.319
880.682, 39.358
881.946, 15.395
883.211, 27.432
884.475, 5.468
885.739, 16.503
887.003, 34.537
888.266, 26.570
889.530, 13.602
890.793, 8.366
892.056, 18.660
893.318, 15.685
894.581, 7.290
895.843, 21.730
897.105, 20.749
898.367, 17.768
899.629, 26.744
900.890, 4.761
902.152, 14.778
903.413, 2.205
904.673, 8.810
905.934, 1.824
907.194, 4.162
908.454, 7.850
909.714, 1.208
910.974, 5.058
912.234, 0.448
913.493, 7.563
914.752, 3.573
916.011, 7.680
917.270, 14.082
918.528, 1.911
919.786, 11.602
921.044, 5.390
922.302, 30.616
923.560, 6.600
924.817, 29.602
926.074, 1.417
927.331, 13.561
928.588, 45.345
929.844, 19.081
931.101, 14.466
932.357, 28.278
933.613, 9.285
934.868, 8.708
936.124, 10.735
937.379, 4.267
938.634, 5.755
939.889, 2.248
941.144, 4.750
942.398, 15.251
943.652, 16.254
944.906, 35.258
946.160, 36.464
947.414, 14.267
948.667, 30.273
949.920, 32.281
951.173, 9.290
952.426, 30.300
953.678, 43.310
954.931, 32.322
956.183, 27.151
957.435, 6.164
958.686, 9.707
959.938, 13.834
961.189, 10.851
962.440, 16.723
963.691, 17.742
964.941, 23.610
966.192, 10.611
967.442, 1.498
968.692, 35.172
969.942, 5.198
971.191, 24.240
972.441, 8.263
973.690, 13.164
974.939, 16.987
976.187, 19.018
977.436, 40.050
978.684, 42.214
979.932, 16.120
981.180, 28.158
982.428, 42.197
983.675, 7.138
984.922, 22.969
986.169, 13.378
987.416, 29.361
988.663, 11.112
989.909, 48.163
991.155, 21.216
992.401, 60.272
993.647, 25.329
994.893, 63.380
996.138, 47.896
997.383, 68.960
998.628, 58.815
999.873, 66.884
1001.117, 78.955
1002.362, 82.021
1003.606, 111.098
1004.850, 62.172
1006.093, 137.254
1007.337, 112.338
1008.580, 143.425
1009.823, 160.514
1011.066, 141.606
1012.308, 174.702
1013.551, 154.800
1014.793, 164.905
1016.035, 204.977
1017.277, 190.087
1018.518, 193.199
1019.760, 224.314
1021.001, 221.431
1022.242, 250.552
1023.483, 254.676
1024.723, 274.802
1025.964, 267.931
1027.204, 275.062
1028.444, 298.196
1029.683, 257.333
1030.923, 278.474
1032.162, 278.616
1033.401, 294.762
1034.640, 298.910
1035.879, 261.061
1037.117, 268.215
1038.355, 288.217
1039.593, 320.536
1040.831, 339.193
1042.069, 352.367
1043.306, 358.549
1044.544, 389.487
1045.781, 440.504
1047.017, 445.699
1048.254, 524.897
1049.490, 553.101
1050.726, 554.312
1051.962, 598.527
1053.198, 653.655
1054.434, 724.889
1055.669, 724.126
1056.904, 816.185
1058.139, 899.428
1059.374, 966.677
1060.608, 1164.930
1061.843, 1274.171
1063.077, 1367.433
1064.311, 1506.699
1065.544, 1482.644
1066.778, 1581.918
1068.011, 1743.141
1069.244, 1797.424
1070.477, 2150.522
1071.710, 2459.812
1072.942, 2909.106
1074.174, 3697.403
1075.406, 4624.672
1076.638, 6454.980
1077.870, 9337.293
1079.101, 13705.700
1080.332, 22115.061
1081.563, 32244.395
1082.794, 44643.742
1084.025, 54792.812
1085.255, 50751.758
1086.485, 38651.125
1087.715, 24840.334
1088.945, 15139.702
1090.175, 10528.960
1091.404, 6606.334
1092.633, 4557.711
1093.862, 3273.094
1095.091, 2361.479
1096.319, 1914.867
1097.548, 1469.259
1098.776, 1198.657
1100.004, 1005.059
1101.231, 823.465
1102.459, 734.874
1103.686, 655.286
1104.913, 508.703
1106.140, 498.124
1107.367, 429.549
1108.593, 395.979
1109.819, 388.415
1111.046, 295.860
1112.271, 274.309
1113.497, 303.762
1114.722, 267.218
1115.948, 259.661
1117.173, 221.126
1118.398, 204.595
1119.622, 192.385
1120.847, 196.550
1122.071, 173.682
1123.295, 181.173
1124.519, 181.668
1125.742, 167.165
1126.966, 149.666
1128.189, 129.170
1129.412, 124.443
1130.635, 151.196
1131.857, 114.714
1133.080, 131.237
1134.302, 129.765
1135.524, 94.324
1136.746, 103.864
1137.967, 85.407
1139.188, 123.960
1140.410, 90.515
1141.631, 69.067
1142.851, 93.622
1144.072, 83.182
1145.292, 86.745
1146.512, 62.335
1147.732, 93.906
1148.952, 70.660
1150.172, 72.234
1151.391, 72.812
1152.610, 71.392
1153.829, 37.974
1155.048, 79.560
1156.266, 52.147
1157.484, 59.737
1158.702, 68.698
1159.920, 24.292
1161.138, 36.704
1162.356, 54.303
1163.573, 53.904
1164.790, 18.508
1166.007, 35.113
1167.224, 42.720
1168.440, 30.437
1169.656, 49.070
1170.872, 52.683
1172.088, 21.326
1173.304, 35.943
1174.519, 43.562
1175.735, 40.198
1176.950, 25.860
1178.165, 70.484
1179.379, 44.109
1180.594, 60.736
1181.808, 64.392
1183.022, 32.032
1184.236, 71.664
1185.449, 17.191
1186.663, 61.826
1187.876, 44.567
1189.089, 11.415
1190.302, 19.055
1191.515, 37.988
1192.727, 27.217
1193.939, 36.867
1195.151, 28.248
1196.363, 22.862
1197.575, 39.579
1198.786, 13.288
1199.997, 29.977
1201.208, 26.678
1202.419, 11.329
1203.630, 19.983
1204.840, 49.295
1206.051, 22.949
1207.261, 37.042
1208.470, 36.855
1209.680, 25.556
1210.889, 50.256
1212.099, 18.964
1213.308, 31.622
1214.516, 34.517
1215.725, 16.242
1216.933, 19.902
1218.142, 30.623
1219.350, 58.290
1220.557, 46.185
1221.765, 30.674
1222.972, 33.651
1224.180, 15.386
1225.387, 2.784
1226.593, 8.529
1227.800, 35.210
1229.006, 58.970
1230.213, 38.635
1231.419, 4.193
1232.624, 26.890
1233.830, 42.654
1235.035, 55.328
1236.241, 48.004
1237.446, 11.682
1238.650, 11.360
1239.855, 31.056
1241.059, 18.774
1242.264, 26.579
1243.468, 21.911
1244.671, 24.841
1245.875, 33.527
1247.078, 18.215
1248.282, 26.951
1249.485, 38.645
1250.687, 20.663
1251.890, 25.531
1253.092, 46.229
1254.295, 36.630
1255.497, 23.323
1256.699, 23.350
1257.900, 12.046
1259.102, 32.742
1260.303, 13.455
1261.504, 26.153
1262.705, 37.850
1263.905, 21.547
1265.106, 28.245
1266.306, 5.944
1267.506, 51.642
1268.706, 64.336
1269.905, 42.031
1271.105, 19.725
1272.304, 27.420
1273.503, 2.114
1274.702, 34.808
1275.900, 43.503
1277.099, 49.198
1278.297, 24.892
1279.495, 0.587
1280.693, 26.276
1281.891, 29.950
1283.088, 5.621
1284.285, 6.288
1285.482, 25.943
1286.679, 41.582
1287.876, 56.212
1289.072, 8.842
1290.268, 3.466
1291.464, 9.085
1292.660, 1.575
1293.856, 15.316
1295.051, 15.927
1296.247, 25.536
1297.442, 43.142
1298.637, 38.738
1299.831, 32.322
1301.026, 16.881
1302.220, 3.562
1303.414, 30.984
1304.608, 10.474
1305.802, 34.062
1306.995, 39.596
1308.188, 20.125
1309.381, 23.643
1310.574, 24.158
1311.767, 1.669
1312.960, 9.093
1314.152, 23.662
1315.344, 8.145
1316.536, 15.624
1317.728, 19.099
1318.919, 11.568
1320.110, 7.033
1321.301, 35.493
1322.492, 22.948
1323.683, 28.398
1324.874, 9.842
1326.064, 14.280
1327.254, 33.711
1328.444, 9.863
1329.634, 25.554
1330.823, 13.036
1332.013, 14.635
1333.202, 19.755
1334.391, 0.139
1335.580, 4.481
1336.768, 16.887
1337.956, 6.750
1339.145, 10.395
1340.333, 6.951
1341.520, 27.708
1342.708, 11.381
1343.895, 8.936
1345.083, 27.249
1346.270, 21.557
1347.456, 5.139
1348.643, 25.158
1349.829, 1.550
1351.016, 3.736
1352.202, 10.018
1353.387, 10.296
1354.573, 9.570
1355.759, 33.840
1356.944, 2.108
1358.129, 8.373
1359.314, 22.634
1360.498, 8.894
1361.683, 18.153
1362.867, 2.411
1364.051, 7.333
1365.235, 0.922
1366.419, 8.177
1367.602, 12.564
1368.785, 4.335
1369.968, 26.070
1371.151, 7.199
1372.334, 23.492
1373.517, 7.851
1374.699, 14.801
1375.881, 8.451
1377.063, 25.100
1378.245, 22.747
1379.426, 23.314
1380.608, 24.804
1381.789, 19.655
1382.970, 15.284
1384.150, 8.907
1385.331, 2.479
1386.511, 5.130
1387.691, 26.736
1388.871, 30.339
1390.051, 15.939
1391.231, 24.806
1392.410, 4.131
1393.589, 8.722
1394.768, 25.300
1395.947, 2.115
1397.126, 66.439
1398.304, 5.017
1399.483, 43.578
1400.661, 56.150
1401.838, 24.719
1403.016, 46.254
1404.194, 39.585
1405.371, 67.145
1406.548, 70.703
1407.725, 121.259
1408.901, 100.317
1410.078, 119.751
1411.254, 109.286
1412.430, 114.820
1413.606, 167.172
1414.782, 132.663
1415.958, 141.193
1417.133, 135.642
1418.308, 115.172
1419.483, 138.662
1420.658, 138.178
1421.832, 100.332
1423.007, 131.237
1424.181, 167.250
1425.355, 113.772
1426.529, 124.462
1427.702, 72.372
1428.876, 94.924
1430.049, 113.269
1431.222, 109.482
1432.395, 83.769
1433.567, 120.925
1434.740, 89.144
1435.912, 155.899
1437.084, 129.086
1438.256, 132.930
1439.428, 138.031
1440.599, 103.876
1441.770, 129.823
1442.942, 143.751
1444.112, 78.982
1445.283, 107.837
1446.454, 133.857
1447.624, 105.820
1448.794, 113.439
1449.964, 85.380
1451.134, 86.251
1452.303, 80.968
1453.473, 80.580
1454.642, 77.642
1455.811, 84.460
1456.980, 69.078
1458.148, 63.609
1459.317, 45.143
1460.485, 25.628
1461.653, 28.878
1462.821, 38.507
1463.989, 34.877
1465.156, 46.187
1466.323, 57.434
1467.490, 46.753
1468.657, 38.880
1469.824, 35.134
1470.991, 38.487
1472.157, 44.823
1473.323, 10.151
1474.489, 51.431
1475.655, 0.336
1476.820, 43.950
1477.986, 48.399
1479.151, 0.875
1480.316, 22.313
1481.481, 43.763
1482.645, 10.219
1483.810, 12.736
1484.974, 45.312
1486.138, 37.887
1487.302, 38.469
1488.465, 30.065
1489.629, 3.689
1490.792, 24.355
1491.955, 27.063
1493.118, 15.815
1494.281, 40.602
1495.443, 25.476
1496.606, 18.407
1497.768, 49.410
1498.930, 5.492
1500.091, 21.662
1501.253, 26.942
1502.414, 4.353
1503.575, 34.924
1504.736, 5.688
1505.897, 10.695
1507.058, 44.021
1508.218, 0.216
1509.379, 21.184
1510.539, 23.507
1511.698, 0.000
##END=



