##NAMES=Rhodonite
##RRUFFID=R040041
##IDEAL CHEMISTRY=CaMn^2+^_3_Mn^2+^Si_5_O_15_
##LOCALITY=Franklin, Sussex County, New Jersey, USA
##OWNER=RRUFF
##SOURCE=University of Arizona Mineral Museum
##DESCRIPTION=Pink prismatic crystals
##STATUS=The identification of this mineral has been confirmed by X-ray diffraction and chemical analysis
##URL=rruff.info/R040041
##MEASURED CHEMISTRY=(Mn_0.63_Ca_0.21_Zn_0.12_Mg_0.02_Fe_0.02_)_Î£=1_Si_1.00_O_3_
##PIN_ID=L00454
##ORIENTATION=Laser parallel to -b* (0 -1 0). Fiducial mark perpendicular to laser is parallel to c [0 0 1]
102.550, 0.000
103.943, 12.386
105.336, 333.140
106.729, 1153.429
108.121, 2440.777
109.513, 3669.095
110.905, 4347.097
112.297, 4897.931
113.688, 4337.916
115.079, 3535.495
116.470, 2561.617
117.861, 2123.394
119.251, 1580.274
120.642, 1330.044
122.032, 1275.493
123.422, 1507.898
124.811, 1655.748
126.201, 1776.598
127.590, 1835.511
128.979, 1988.457
130.367, 2077.828
131.756, 2017.982
133.144, 2227.915
134.532, 1697.147
135.920, 1531.287
137.307, 1658.914
138.695, 1707.265
140.082, 1546.605
141.469, 1330.161
142.856, 929.128
144.242, 623.633
145.628, 267.881
147.014, 139.006
148.400, 34.514
149.786, 213.808
151.171, 444.855
152.556, 769.494
153.941, 1037.520
155.325, 1037.626
156.710, 994.448
158.094, 857.358
159.478, 746.354
160.862, 658.437
162.245, 426.752
163.629, 442.613
165.012, 364.262
166.395, 444.776
167.777, 444.201
169.160, 523.371
170.542, 688.972
171.924, 732.696
173.306, 842.540
174.687, 920.499
176.068, 931.679
177.449, 880.416
178.830, 849.955
180.211, 674.281
181.591, 404.690
182.972, 287.185
184.351, 148.763
185.731, 173.437
187.111, 189.255
188.490, 205.277
189.869, 260.523
191.248, 239.001
192.626, 208.708
194.005, 140.640
195.383, 18.785
196.761, 160.866
198.139, 299.078
199.516, 308.931
200.893, 298.229
202.271, 289.271
203.647, 303.884
205.024, 116.668
206.400, 41.669
207.777, 188.118
209.152, 531.668
210.528, 684.291
211.904, 959.958
213.279, 912.663
214.654, 935.406
216.029, 872.188
217.403, 581.997
218.778, 487.825
220.152, 280.672
221.526, 123.539
222.900, 13.424
224.273, 38.669
225.646, 45.743
227.019, 126.799
228.392, 91.836
229.765, 168.851
231.137, 51.846
232.509, 35.944
233.881, 31.526
235.253, 178.539
236.625, 332.098
237.996, 542.777
239.367, 811.440
240.738, 1062.164
242.108, 1425.941
243.479, 1770.768
244.849, 1972.638
246.219, 2127.494
247.589, 2207.249
248.958, 2134.841
250.328, 2027.327
251.697, 1932.824
253.065, 1686.369
254.434, 1821.963
255.803, 1884.605
257.171, 2159.293
258.539, 2337.028
259.906, 2548.808
261.274, 2582.632
262.641, 2510.515
264.008, 2326.478
265.375, 2009.559
266.742, 1790.795
268.108, 1532.417
269.475, 1265.817
270.840, 1258.475
272.206, 1032.759
273.572, 1091.510
274.937, 1072.603
276.302, 1110.936
277.667, 1095.458
279.032, 1028.137
280.396, 1095.906
281.760, 954.728
283.125, 963.566
284.488, 806.422
285.852, 684.265
287.215, 567.093
288.578, 405.887
289.941, 343.640
291.304, 202.342
292.666, 101.932
294.029, 31.377
295.391, 6.690
296.753, 98.877
298.114, 23.956
299.476, 62.915
300.837, 103.754
302.198, 111.486
303.558, 164.133
304.919, 204.162
306.279, 276.893
307.639, 358.287
308.999, 477.607
310.359, 677.866
311.718, 842.068
313.077, 1131.214
314.436, 1316.034
315.795, 1670.138
317.154, 2039.588
318.512, 2499.562
319.870, 3054.523
321.228, 3439.498
322.586, 3666.484
323.943, 3913.483
325.300, 4090.630
326.657, 4111.653
328.014, 4307.583
329.371, 4977.331
330.727, 5636.842
332.083, 6256.249
333.439, 6591.821
334.795, 6655.100
336.150, 6994.558
337.506, 6794.039
338.861, 6633.543
340.215, 6113.067
341.570, 5642.612
342.924, 5132.177
344.279, 4761.763
345.633, 4541.366
346.986, 4190.990
348.340, 3864.441
349.693, 3573.049
351.046, 3122.726
352.399, 2784.420
353.752, 2487.130
355.104, 2478.854
356.457, 2434.591
357.809, 2594.235
359.160, 2498.596
360.512, 2639.853
361.863, 2660.543
363.214, 2419.685
364.565, 2348.585
365.916, 2078.138
367.267, 1844.863
368.617, 1543.426
369.967, 1340.882
371.317, 1166.147
372.666, 927.265
374.016, 775.688
375.365, 711.948
376.714, 454.584
378.063, 394.561
379.411, 222.852
380.760, 318.698
382.108, 338.649
383.456, 413.505
384.803, 501.311
386.151, 569.929
387.498, 762.367
388.845, 848.420
390.192, 813.446
391.539, 777.726
392.885, 671.229
394.231, 587.133
395.577, 297.094
396.923, 293.924
398.269, 180.835
399.614, 257.756
400.959, 231.688
402.304, 288.628
403.649, 501.578
404.993, 544.538
406.337, 887.506
407.681, 1084.483
409.025, 1380.502
410.369, 1719.496
411.712, 2118.499
413.055, 2589.512
414.398, 3285.534
415.741, 3962.617
417.084, 4772.773
418.426, 5473.109
419.768, 5835.491
421.110, 5936.192
422.452, 5440.966
423.793, 4763.141
425.134, 4011.004
426.475, 3177.782
427.816, 2666.415
429.157, 2158.292
430.497, 1949.653
431.837, 1777.123
433.177, 1776.199
434.517, 1868.711
435.857, 1994.017
437.196, 1981.041
438.535, 1913.445
439.874, 1792.035
441.213, 1481.158
442.551, 1314.716
443.889, 1037.411
445.227, 887.818
446.565, 763.441
447.903, 595.871
449.240, 670.212
450.577, 524.595
451.914, 638.182
453.251, 670.585
454.588, 778.943
455.924, 837.821
457.260, 609.474
458.596, 663.553
459.932, 425.336
461.267, 259.651
462.602, 225.107
463.938, 59.562
465.272, 107.179
466.607, 56.788
467.941, 155.384
469.276, 162.961
470.610, 197.518
471.943, 298.055
473.277, 368.583
474.610, 453.101
475.944, 501.600
477.276, 516.088
478.609, 454.566
479.942, 399.040
481.274, 329.506
482.606, 359.960
483.938, 186.403
485.270, 112.852
486.601, 223.288
487.932, 247.724
489.263, 265.156
490.594, 538.578
491.925, 624.016
493.255, 781.456
494.585, 909.903
495.915, 812.345
497.245, 827.786
498.575, 760.216
499.904, 593.639
501.233, 562.084
502.562, 608.518
503.891, 703.939
505.219, 825.367
506.548, 1010.781
507.876, 1285.184
509.203, 1576.573
510.531, 1959.964
511.859, 2158.344
513.186, 2324.709
514.513, 2341.074
515.840, 2130.429
517.166, 1947.768
518.493, 1502.111
519.819, 1182.457
521.145, 1094.855
522.470, 795.339
523.796, 586.911
525.121, 371.570
526.446, 237.171
527.771, 235.134
529.096, 91.991
530.421, 65.838
531.745, 104.663
533.069, 34.469
534.393, 76.257
535.716, 9.024
537.040, 149.765
538.363, 77.487
539.686, 213.188
541.009, 163.869
542.331, 270.530
543.654, 411.173
544.976, 441.797
546.298, 505.413
547.620, 358.035
548.941, 459.664
550.263, 494.321
551.584, 484.997
552.905, 525.710
554.225, 647.431
555.546, 878.154
556.866, 950.862
558.186, 709.549
559.506, 840.214
560.826, 546.858
562.145, 503.479
563.465, 385.079
564.784, 228.656
566.103, 269.210
567.421, 209.742
568.740, 243.250
570.058, 276.734
571.376, 266.195
572.694, 324.633
574.011, 213.046
575.329, 199.435
576.646, 159.798
577.963, 9.865
579.279, 79.424
580.596, 46.317
581.912, 4.125
583.228, 93.980
584.544, 75.928
585.860, 56.960
587.175, 92.068
588.491, 83.271
589.806, 68.562
591.121, 61.937
592.435, 116.391
593.750, 96.953
595.064, 28.614
596.378, 82.338
597.692, 117.154
599.006, 14.079
600.319, 21.061
601.632, 9.479
602.945, 66.511
604.258, 6.273
605.571, 34.611
606.883, 20.695
608.195, 116.051
609.507, 74.011
610.819, 110.293
612.131, 86.423
613.442, 80.352
614.753, 194.852
616.064, 129.734
617.375, 276.676
618.685, 261.571
619.995, 336.974
621.306, 308.351
622.615, 385.471
623.925, 429.151
625.235, 369.850
626.544, 500.616
627.853, 531.430
629.162, 564.912
630.471, 549.904
631.779, 668.265
633.087, 730.912
634.395, 851.013
635.703, 940.939
637.011, 967.795
638.318, 1105.439
639.625, 1266.809
640.932, 1483.228
642.239, 1420.239
643.546, 1737.430
644.852, 1858.395
646.158, 2111.866
647.464, 2367.289
648.770, 2692.059
650.076, 3234.931
651.381, 3626.607
652.686, 4402.614
653.991, 5211.454
655.296, 6458.548
656.600, 7916.038
657.905, 9710.545
659.209, 12137.329
660.513, 15874.204
661.817, 18754.982
663.120, 23971.543
664.423, 28468.246
665.726, 33034.711
667.029, 36354.254
668.332, 36861.105
669.635, 35737.734
670.937, 31627.027
672.239, 27213.871
673.541, 22790.404
674.842, 19060.592
676.144, 15976.884
677.445, 13694.117
678.746, 11760.562
680.047, 10566.920
681.348, 8844.087
682.648, 7740.342
683.948, 6406.502
685.248, 5252.563
686.548, 4448.147
687.848, 3530.562
689.147, 3035.200
690.447, 2609.281
691.746, 2154.610
693.044, 1982.425
694.343, 1650.104
695.641, 1551.204
696.940, 1333.717
698.238, 1153.324
699.535, 1196.764
700.833, 1025.167
702.130, 1066.534
703.427, 1027.865
704.724, 945.159
706.021, 1049.417
707.318, 945.639
708.614, 1109.823
709.910, 1195.971
711.206, 1314.081
712.502, 1481.154
713.798, 1450.191
715.093, 1575.190
716.388, 1432.153
717.683, 1209.080
718.978, 1222.969
720.272, 864.822
721.567, 885.639
722.861, 753.418
724.155, 667.127
725.448, 603.834
726.742, 514.506
728.035, 667.141
729.328, 595.740
730.621, 552.252
731.914, 730.664
733.206, 644.869
734.499, 823.002
735.791, 811.789
737.083, 702.475
738.374, 893.731
739.666, 821.271
740.957, 832.869
742.248, 849.585
743.539, 660.025
744.830, 685.949
746.120, 517.730
747.410, 418.862
748.701, 369.513
749.990, 322.325
751.280, 296.368
752.570, 242.983
753.859, 226.359
755.148, 243.154
756.437, 61.461
757.725, 175.578
759.014, 94.931
760.302, 1.014
761.590, 42.231
762.878, 26.481
764.166, 104.636
765.453, 62.466
766.740, 45.540
768.027, 84.395
769.314, 52.832
770.601, 80.380
771.887, 45.709
773.174, 61.697
774.460, 229.050
775.745, 497.405
777.031, 148.736
778.316, 31.956
779.602, 20.702
780.887, 44.505
782.172, 24.685
783.456, 95.837
784.741, 24.036
786.025, 14.958
787.309, 31.078
788.593, 3.086
789.876, 5.062
791.160, 10.993
792.443, 8.911
793.726, 54.788
795.009, 34.508
796.291, 49.533
797.574, 39.236
798.856, 35.019
800.138, 12.323
801.420, 5.336
802.702, 83.032
803.983, 38.001
805.264, 51.962
806.545, 10.507
807.826, 25.085
809.107, 13.297
810.387, 4.345
811.667, 119.015
812.947, 59.227
814.227, 26.448
815.507, 63.354
816.786, 81.789
818.065, 39.911
819.344, 87.014
820.623, 48.902
821.902, 0.866
823.180, 19.148
824.459, 48.859
825.737, 4.911
827.014, 11.014
828.292, 67.081
829.569, 48.772
830.847, 19.393
832.124, 0.414
833.401, 3.202
834.677, 22.030
835.954, 5.881
837.230, 17.419
838.506, 31.144
839.782, 50.834
841.057, 53.511
842.333, 26.176
843.608, 21.175
844.883, 47.455
846.158, 82.071
847.433, 12.679
848.707, 177.272
849.981, 75.855
851.255, 7.425
852.529, 175.982
853.803, 135.527
855.076, 194.060
856.350, 145.582
857.623, 161.093
858.895, 263.593
860.168, 305.083
861.441, 441.563
862.713, 479.037
863.985, 561.500
865.257, 880.964
866.528, 885.419
867.800, 1262.864
869.071, 1575.320
870.342, 1822.767
871.613, 2199.205
872.884, 2258.635
874.154, 2636.059
875.425, 2551.498
876.695, 2389.930
877.965, 2319.354
879.234, 2052.795
880.504, 2027.229
881.773, 1787.673
883.042, 1705.111
884.311, 1708.545
885.580, 1845.974
886.848, 1769.398
888.117, 1889.829
889.385, 1734.281
890.653, 1746.748
891.920, 1536.223
893.188, 1333.727
894.455, 1225.257
895.722, 900.808
896.989, 895.391
898.256, 847.004
899.523, 689.668
900.789, 729.357
902.055, 662.084
903.321, 620.863
904.587, 838.657
905.852, 642.522
907.118, 835.426
908.383, 888.343
909.648, 982.730
910.913, 1222.609
912.177, 1191.206
913.442, 1374.339
914.706, 1428.781
915.970, 1340.144
917.233, 1341.872
918.497, 1145.246
919.760, 1309.765
921.024, 1181.455
922.287, 1098.546
923.550, 1104.234
924.812, 1065.834
926.075, 1149.461
927.337, 1300.554
928.599, 1258.649
929.861, 1727.673
931.122, 1799.306
932.384, 2108.679
933.645, 2845.289
934.906, 3266.825
936.167, 3468.693
937.428, 3658.026
938.688, 3327.964
939.948, 3009.604
941.208, 2380.765
942.468, 1968.073
943.728, 1750.429
944.987, 1375.970
946.247, 1504.770
947.506, 1202.495
948.765, 1280.602
950.023, 1437.377
951.282, 1152.488
952.540, 1380.068
953.798, 1510.686
955.056, 1526.929
956.314, 1731.049
957.572, 1849.342
958.829, 2071.278
960.086, 2523.358
961.343, 2825.160
962.600, 3646.541
963.856, 4070.880
965.113, 5162.920
966.369, 6594.837
967.625, 7922.833
968.881, 10405.015
970.136, 12037.061
971.392, 13949.325
972.647, 15048.479
973.902, 14680.321
975.157, 14142.369
976.411, 13071.721
977.666, 11943.503
978.920, 11325.573
980.174, 10903.964
981.428, 10836.231
982.682, 11847.532
983.935, 11939.595
985.188, 14251.848
986.441, 15543.146
987.694, 18065.330
988.947, 21467.594
990.199, 23339.924
991.452, 24892.359
992.704, 24594.822
993.956, 22907.191
995.207, 22238.789
996.459, 21461.283
997.710, 22593.910
998.961, 23886.311
1000.212, 25138.953
1001.463, 27351.605
1002.714, 27024.039
1003.964, 25346.713
1005.214, 22619.406
1006.464, 19062.100
1007.714, 16234.812
1008.964, 13587.791
1010.213, 11300.523
1011.462, 10223.265
1012.711, 8806.872
1013.960, 8369.638
1015.209, 7734.538
1016.457, 7087.322
1017.705, 6660.260
1018.954, 6527.223
1020.201, 6250.041
1021.449, 6063.004
1022.697, 5766.129
1023.944, 6018.982
1025.191, 5997.361
1026.438, 5800.330
1027.685, 5993.283
1028.931, 5791.627
1030.177, 5624.528
1031.423, 5651.113
1032.669, 5244.363
1033.915, 5397.643
1035.161, 5270.735
1036.406, 5103.955
1037.651, 5237.121
1038.896, 5165.289
1040.141, 5538.490
1041.386, 6131.770
1042.630, 6405.168
1043.874, 7358.182
1045.118, 7811.486
1046.362, 8105.086
1047.606, 8218.427
1048.849, 7517.867
1050.092, 6801.238
1051.336, 5934.544
1052.578, 4951.980
1053.821, 4335.049
1055.064, 3327.766
1056.306, 2721.102
1057.548, 2484.366
1058.790, 1886.301
1060.032, 1779.428
1061.273, 1556.055
1062.515, 1266.025
1063.756, 1313.197
1064.997, 1027.729
1066.237, 1086.992
1067.478, 941.121
1068.718, 882.834
1069.959, 1011.996
1071.199, 788.162
1072.438, 841.564
1073.678, 901.965
1074.918, 680.518
1076.157, 829.237
1077.396, 723.795
1078.635, 609.968
1079.873, 764.421
1081.112, 505.778
1082.350, 679.403
1083.588, 597.668
1084.826, 430.365
1086.064, 595.776
1087.301, 457.061
1088.539, 530.938
1089.776, 523.111
1091.013, 304.771
1092.250, 412.543
1093.486, 503.021
1094.723, 285.354
1095.959, 516.849
1097.195, 241.162
1098.431, 306.490
1099.666, 322.818
1100.902, 129.866
1102.137, 349.023
1103.372, 1015.369
1104.607, 857.699
1105.842, 667.504
1107.076, 485.894
1108.311, 198.786
1109.545, 410.443
1110.779, 76.951
1112.012, 264.557
1113.246, 196.304
1114.479, 217.758
1115.712, 312.221
1116.945, 141.711
1118.178, 241.807
1119.411, 381.312
1120.643, 231.029
1121.875, 613.878
1123.108, 610.421
1124.339, 405.373
1125.571, 449.320
1126.802, 305.810
1128.034, 263.448
1129.265, 141.114
1130.496, 131.733
1131.727, 177.642
1132.957, 5.440
1134.187, 148.496
1135.418, 222.715
1136.648, 38.371
1137.877, 232.539
1139.107, 87.170
1140.336, 77.806
1141.566, 189.443
1142.795, 69.055
1144.023, 155.797
1145.252, 63.923
1146.480, 101.493
1147.709, 212.064
1148.937, 90.810
1150.165, 77.453
1151.392, 225.291
1152.620, 159.827
1153.847, 129.324
1155.074, 108.239
1156.301, 7.706
1157.528, 145.109
1158.755, 80.568
1159.981, 18.093
1161.207, 244.232
1162.433, 41.455
1163.659, 145.807
1164.885, 47.226
1166.110, 71.522
1167.336, 105.702
1168.561, 53.352
1169.786, 18.548
1171.010, 193.119
1172.235, 89.745
1173.459, 68.335
1174.683, 76.386
1175.907, 86.553
1177.131, 154.459
1178.355, 56.838
1179.578, 21.122
1180.801, 18.048
1182.024, 66.124
1183.247, 39.018
1184.470, 60.815
1185.692, 76.322
1186.915, 59.514
1188.137, 43.550
1189.359, 19.301
1190.580, 120.322
1191.802, 48.094
1193.023, 1.896
1194.244, 45.745
1195.465, 90.646
1196.686, 43.908
1197.907, 62.822
1199.127, 56.667
1200.347, 132.807
1201.567, 139.498
1202.787, 65.875
1204.007, 85.224
1205.226, 125.173
1206.446, 123.087
1207.665, 15.326
1208.884, 3.543
1210.102, 120.735
1211.321, 4.107
1212.539, 104.022
1213.758, 138.125
1214.976, 68.580
1216.193, 188.437
1217.411, 152.545
1218.628, 91.506
1219.846, 93.439
1221.063, 63.300
1222.280, 32.134
1223.496, 65.278
1224.713, 7.299
1225.929, 92.429
1227.145, 120.131
1228.361, 65.929
1229.577, 222.563
1230.793, 75.118
1232.008, 122.429
1233.223, 296.948
1234.438, 28.455
1235.653, 184.991
1236.868, 102.403
1238.082, 52.024
1239.297, 121.373
1240.511, 1.306
1241.725, 120.058
1242.938, 189.181
1244.152, 0.232
1245.365, 220.231
1246.578, 34.177
1247.791, 11.547
1249.004, 229.252
1250.217, 24.979
1251.429, 66.922
1252.642, 279.473
1253.854, 58.969
1255.066, 108.646
1256.277, 143.395
1257.489, 124.969
1258.700, 103.539
1259.911, 494.105
1261.122, 331.608
1262.333, 279.086
1263.544, 63.466
1264.754, 244.971
1265.964, 139.390
1267.174, 24.203
1268.384, 253.056
1269.594, 98.421
1270.803, 106.777
1272.013, 315.122
1273.222, 52.454
1274.431, 189.760
1275.640, 264.053
1276.848, 140.330
1278.057, 170.593
1279.265, 112.539
1280.473, 94.508
1281.681, 328.959
1282.888, 101.557
1284.096, 231.398
1285.303, 294.322
1286.510, 225.035
1287.717, 254.917
1288.924, 171.747
1290.131, 33.826
1291.337, 324.739
1292.543, 259.957
1293.749, 157.420
1294.955, 183.375
1296.161, 138.445
1297.366, 307.842
1298.571, 260.932
1299.777, 106.552
1300.981, 418.634
1302.186, 194.441
1303.391, 155.172
1304.595, 256.276
1305.799, 186.791
1307.003, 246.291
1308.207, 359.453
1309.411, 26.162
1310.614, 392.180
1311.818, 212.479
1313.021, 80.335
1314.224, 411.308
1315.426, 92.194
1316.629, 212.370
1317.831, 377.409
1319.033, 28.167
1320.235, 338.178
1321.437, 305.285
1322.639, 42.623
1323.840, 372.263
1325.042, 177.824
1326.243, 125.962
1327.444, 425.765
1328.644, 14.216
1329.845, 275.440
1331.045, 315.989
1332.245, 92.462
1333.445, 422.077
1334.645, 72.520
1335.845, 90.368
1337.044, 277.575
1338.244, 96.624
1339.443, 204.577
1340.642, 341.005
1341.840, 58.316
1343.039, 266.820
1344.237, 215.199
1345.435, 79.175
1346.633, 357.405
1347.831, 224.758
1349.029, 71.900
1350.226, 338.669
1351.424, 146.742
1352.621, 184.792
1353.818, 323.065
1355.014, 137.710
1356.211, 195.779
1357.407, 182.271
1358.604, 78.863
1359.800, 343.395
1360.995, 101.204
1362.191, 226.292
1363.387, 313.366
1364.582, 149.148
1365.777, 236.121
1366.972, 392.168
1368.167, 116.953
1369.361, 273.151
1370.556, 130.243
1371.750, 34.664
1372.944, 330.863
1374.138, 7.682
1375.331, 182.817
1376.525, 129.365
1377.718, 85.800
1378.911, 192.157
1380.104, 266.931
1381.297, 52.269
1382.490, 358.744
1383.682, 225.559
1384.874, 92.536
1386.066, 427.039
1387.258, 83.066
1388.450, 205.863
1389.641, 296.243
1390.833, 3.039
1392.024, 271.207
1393.215, 147.356
1394.406, 7.105
1395.596, 242.623
1396.787, 47.594
1397.977, 0.432
1399.167, 0.000
##END=



