##NAMES=Rhodochrosite
##RRUFFID=R050116
##IDEAL CHEMISTRY=Mn^2+^CO_3_
##LOCALITY=Wudong mine, Liubao, Guangxi Autonomous Region, China
##OWNER=RRUFF
##SOURCE=He Xin Jian
##DESCRIPTION=Pink crystal associated with colorless quartz
##STATUS=The identification of this mineral has been confirmed by X-ray diffraction and chemical analysis
##URL=rruff.info/R050116
##MEASURED CHEMISTRY=(Mn_0.81_Fe_0.17_Mg_0.01_Ca_0.01_)CO_3_
##PIN_ID=L00413
##ORIENTATION=Laser parallel to c* (0 0 1). Fiducial mark perpendicular to laser is parallel to a [1 0 0]
53.126, 0.000
54.534, 33.874
55.942, 90.925
57.350, 113.285
58.758, 127.705
60.165, 147.208
61.572, 134.350
62.979, 131.760
64.386, 123.795
65.792, 122.963
67.198, 131.200
68.604, 111.211
70.010, 114.144
71.415, 137.161
72.820, 171.302
74.225, 173.240
75.630, 138.819
77.034, 129.075
78.438, 69.524
79.842, 59.480
81.246, 13.917
82.649, 17.140
84.053, 0.911
85.455, 4.989
86.858, 10.171
88.260, 16.680
89.663, 3.196
91.065, 1.701
92.466, 14.652
93.868, 17.330
95.269, 36.662
96.670, 49.576
98.070, 52.400
99.471, 57.884
100.871, 66.000
102.271, 53.894
103.670, 82.401
105.070, 82.895
106.469, 97.366
107.868, 88.795
109.267, 104.172
110.665, 99.500
112.063, 95.783
113.461, 103.022
114.859, 98.222
116.256, 105.383
117.653, 91.508
119.050, 78.604
120.447, 68.672
121.843, 78.714
123.240, 75.734
124.636, 80.735
126.031, 65.714
127.427, 84.763
128.822, 66.188
130.217, 100.921
131.612, 83.717
133.006, 91.773
134.400, 90.809
135.794, 81.909
137.188, 73.875
138.581, 98.618
139.975, 90.460
141.368, 95.415
142.760, 99.089
144.153, 110.926
145.545, 117.753
146.937, 106.515
148.329, 128.148
149.720, 133.772
151.112, 109.644
152.503, 145.140
153.893, 145.399
155.284, 159.719
156.674, 177.897
158.064, 203.023
159.454, 226.930
160.843, 227.602
162.233, 258.017
163.622, 256.406
165.011, 297.792
166.399, 319.175
167.787, 370.557
169.175, 431.935
170.563, 460.309
171.951, 557.677
173.338, 669.039
174.725, 876.397
176.112, 1109.749
177.499, 1428.098
178.885, 1803.440
180.271, 2168.776
181.657, 2523.145
183.043, 2606.655
184.428, 2534.026
185.813, 2078.468
187.198, 1619.960
188.583, 1226.381
189.967, 834.806
191.351, 641.257
192.735, 438.896
194.119, 342.431
195.502, 280.890
196.885, 181.329
198.268, 171.810
199.651, 126.454
201.033, 77.247
202.415, 66.617
203.797, 51.974
205.179, 40.374
206.561, 37.769
207.942, 27.018
209.323, 36.212
210.703, 24.515
212.084, 9.735
213.464, 13.034
214.844, 2.264
216.224, 4.332
217.603, 3.029
218.983, 2.810
220.362, 5.326
221.741, 6.261
223.119, 9.013
224.497, 6.913
225.875, 6.535
227.253, 7.993
228.631, 9.129
230.008, 9.528
231.385, 17.273
232.762, 8.719
234.139, 13.974
235.515, 8.974
236.891, 12.398
238.267, 5.868
239.643, 22.081
241.018, 20.875
242.393, 12.574
243.768, 33.210
245.143, 3.557
246.517, 3.864
247.891, 1.641
249.265, 21.483
250.639, 7.843
252.012, 19.906
253.386, 23.692
254.759, 7.046
256.131, 12.428
257.504, 7.745
258.876, 19.571
260.248, 27.424
261.620, 3.432
262.991, 25.541
264.363, 29.697
265.734, 29.819
267.104, 56.985
268.475, 60.081
269.845, 74.012
271.215, 63.620
272.585, 101.001
273.955, 103.243
275.324, 120.562
276.693, 133.854
278.062, 177.097
279.431, 212.460
280.799, 248.703
282.167, 315.980
283.535, 391.188
284.903, 512.368
286.270, 538.474
287.638, 584.619
289.005, 615.787
290.371, 532.935
291.738, 477.035
293.104, 401.194
294.470, 315.272
295.836, 266.489
297.201, 197.628
298.567, 177.793
299.932, 122.930
301.296, 134.014
302.661, 98.033
304.025, 90.141
305.389, 76.201
306.753, 62.274
308.117, 45.357
309.480, 43.470
310.843, 25.574
312.206, 51.667
313.569, 40.754
314.931, 46.832
316.293, 28.901
317.655, 26.963
319.017, 36.018
320.378, 38.066
321.740, 35.559
323.101, 38.422
324.461, 31.185
325.822, 30.215
327.182, 31.241
328.542, 14.264
329.902, 6.284
331.261, 8.300
332.621, 29.313
333.980, 13.323
335.339, 36.330
336.697, 18.333
338.056, 32.334
339.414, 2.331
340.772, 36.325
342.129, 3.684
343.487, 30.304
344.844, 13.289
346.201, 5.730
347.557, 29.246
348.914, 22.220
350.270, 27.192
351.626, 24.160
352.982, 0.125
354.337, 41.086
355.693, 6.044
357.048, 30.998
358.402, 27.947
359.757, 39.893
361.111, 40.836
362.465, 48.776
363.819, 32.712
365.173, 16.606
366.526, 28.454
367.879, 39.240
369.232, 27.977
370.585, 31.701
371.937, 30.380
373.290, 10.097
374.642, 1.236
375.993, 21.331
377.345, 10.048
378.696, 17.554
380.047, 25.823
381.398, 16.168
382.748, 32.527
384.099, 20.780
385.449, 0.083
386.799, 22.446
388.148, 1.479
389.497, 33.008
390.847, 9.501
392.196, 14.986
393.544, 11.537
394.893, 4.075
396.241, 18.538
397.589, 12.040
398.936, 8.504
400.284, 16.027
401.631, 12.364
402.978, 3.105
404.325, 0.601
405.672, 1.591
407.018, 7.432
408.364, 1.782
409.710, 11.163
411.055, 9.530
412.401, 3.034
413.746, 16.466
415.091, 6.978
416.435, 15.516
417.780, 4.010
419.124, 14.499
420.468, 5.995
421.812, 7.638
423.155, 16.125
424.498, 16.594
425.842, 8.169
427.184, 21.761
428.527, 16.356
429.869, 21.061
431.211, 2.780
432.553, 6.512
433.895, 1.758
435.236, 13.967
436.577, 9.691
437.918, 10.420
439.259, 17.147
440.599, 1.119
441.940, 29.607
443.280, 15.332
444.619, 20.056
445.959, 9.761
447.298, 24.465
448.637, 17.187
449.976, 6.887
451.315, 19.588
452.653, 11.296
453.991, 15.990
455.329, 47.184
456.667, 25.876
458.004, 34.565
459.341, 17.257
460.678, 25.947
462.015, 34.640
463.352, 29.492
464.688, 39.021
466.024, 35.711
467.360, 35.399
468.695, 44.229
470.031, 48.885
471.366, 40.533
472.701, 50.106
474.035, 52.808
475.370, 25.445
476.704, 37.106
478.038, 38.712
479.372, 16.291
480.705, 76.159
482.038, 39.446
483.371, 61.064
484.704, 55.694
486.037, 43.299
487.369, 55.904
488.701, 58.510
490.033, 52.081
491.365, 38.603
492.696, 83.118
494.027, 72.724
495.358, 54.263
496.689, 83.900
498.019, 75.485
499.350, 67.127
500.680, 56.637
502.009, 52.285
503.339, 50.295
504.668, 71.322
505.997, 58.863
507.326, 64.147
508.655, 83.964
509.983, 66.876
511.311, 52.496
512.639, 88.084
513.967, 83.568
515.295, 79.227
516.622, 76.744
517.949, 75.238
519.276, 74.474
520.602, 75.632
521.929, 74.287
523.255, 76.952
524.581, 74.613
525.906, 70.177
527.232, 60.790
528.557, 62.442
529.882, 77.058
531.207, 67.691
532.531, 63.319
533.855, 65.863
535.179, 58.326
536.503, 70.932
537.827, 53.486
539.150, 51.074
540.473, 62.704
541.796, 57.298
543.119, 63.962
544.441, 59.591
545.764, 45.136
547.086, 55.781
548.407, 49.303
549.729, 47.979
551.050, 36.217
552.371, 59.841
553.692, 44.451
555.013, 62.032
556.333, 41.675
557.653, 57.292
558.973, 51.580
560.293, 38.529
561.612, 53.653
562.932, 36.147
564.251, 30.709
565.569, 31.293
566.888, 24.902
568.206, 47.490
569.524, 13.119
570.842, 13.743
572.160, 49.342
573.477, 25.999
574.795, 33.617
576.112, 38.272
577.428, 17.757
578.745, 39.412
580.061, 27.033
581.377, 34.661
582.693, 15.325
584.009, 16.993
585.324, 28.626
586.639, 6.310
587.954, 25.980
589.269, 16.663
590.583, 20.278
591.897, 13.909
593.212, 11.473
594.525, 9.136
595.839, 4.781
597.152, 4.711
598.465, 2.677
599.778, 3.694
601.091, 3.375
602.403, 3.046
603.716, 8.724
605.028, 17.375
606.339, 2.052
607.651, 20.734
608.962, 6.370
610.273, 4.135
611.584, 23.788
612.895, 10.351
614.205, 16.315
615.515, 9.982
616.825, 16.759
618.135, 14.425
619.444, 27.198
620.754, 28.404
622.063, 11.524
623.372, 29.646
624.680, 15.319
625.989, 2.012
627.297, 13.714
628.605, 13.369
629.912, 20.035
631.220, 4.752
632.527, 13.403
633.834, 14.053
635.141, 5.702
636.447, 21.399
637.754, 3.954
639.060, 11.311
640.366, 24.172
641.671, 14.807
642.977, 24.675
644.282, 11.370
645.587, 13.027
646.892, 5.818
648.196, 9.473
649.501, 17.265
650.805, 23.482
652.109, 17.108
653.412, 19.214
654.716, 8.837
656.019, 9.344
657.322, 11.103
658.625, 11.723
659.927, 2.385
661.230, 14.192
662.532, 17.807
663.834, 37.426
665.135, 0.952
666.437, 3.069
667.738, 10.562
669.039, 16.249
670.340, 14.852
671.640, 34.466
672.940, 34.256
674.241, 33.869
675.540, 36.189
676.840, 23.542
678.139, 28.145
679.439, 13.740
680.738, 9.331
682.036, 22.919
683.335, 27.515
684.633, 33.907
685.931, 42.616
687.229, 38.205
688.527, 43.785
689.824, 22.363
691.121, 35.939
692.418, 14.514
693.715, 35.087
695.012, 60.659
696.308, 38.361
697.604, 35.929
698.900, 54.837
700.195, 39.401
701.491, 85.456
702.786, 83.016
704.081, 101.574
705.376, 109.131
706.670, 114.702
707.964, 155.256
709.259, 167.808
710.552, 218.358
711.846, 333.906
713.139, 430.452
714.433, 701.996
715.726, 1004.571
717.018, 1548.115
718.311, 1935.659
719.603, 2127.202
720.895, 2003.802
722.187, 1482.342
723.479, 1092.879
724.770, 812.414
726.061, 561.946
727.352, 466.630
728.643, 303.159
729.934, 265.685
731.224, 200.209
732.514, 134.115
733.804, 144.635
735.094, 113.153
736.383, 63.669
737.672, 89.183
738.961, 71.725
740.250, 67.234
741.539, 51.848
742.827, 47.447
744.115, 50.949
745.403, 38.530
746.691, 58.411
747.978, 29.906
749.265, 33.762
750.552, 43.252
751.839, 31.731
753.126, 53.013
754.412, 32.478
755.698, 29.946
756.984, 20.409
758.270, 29.868
759.555, 19.342
760.840, 36.829
762.125, 18.276
763.410, 45.912
764.695, 8.372
765.979, 33.819
767.263, 5.276
768.547, 21.228
769.831, 31.958
771.114, 10.594
772.398, 31.298
773.681, 10.269
774.964, 30.154
776.246, 50.573
777.529, 0.011
778.811, 16.398
780.093, 16.804
781.375, 9.066
782.656, 29.467
783.937, 15.865
785.219, 9.261
786.499, 44.631
787.780, 21.021
789.060, 28.408
790.341, 9.775
791.621, 22.157
792.901, 31.285
794.180, 6.999
795.459, 25.368
796.739, 13.266
798.017, 8.086
799.296, 10.431
800.575, 12.222
801.853, 10.081
803.131, 4.397
804.409, 3.275
805.686, 24.045
806.964, 1.637
808.241, 41.675
809.518, 13.961
810.795, 10.246
812.071, 14.536
813.347, 7.828
814.623, 3.082
815.899, 18.375
817.175, 12.669
818.450, 11.961
819.726, 1.041
821.001, 7.992
822.275, 5.255
823.550, 18.535
824.824, 11.189
826.098, 2.077
827.372, 21.443
828.646, 2.296
829.920, 5.958
831.193, 9.210
832.466, 10.460
833.739, 11.194
835.011, 20.910
836.284, 8.154
837.556, 8.604
838.828, 2.629
840.100, 7.859
841.371, 10.002
842.642, 18.312
843.914, 15.537
845.184, 17.759
846.455, 9.967
847.726, 17.186
848.996, 14.597
850.266, 34.609
851.536, 2.187
852.805, 22.012
854.075, 4.791
855.344, 14.401
856.613, 7.591
857.881, 7.087
859.150, 3.966
860.418, 14.151
861.686, 5.334
862.954, 18.516
864.222, 18.696
865.489, 19.875
866.756, 15.053
868.023, 2.229
869.290, 17.403
870.557, 16.576
871.823, 25.748
873.089, 0.918
874.355, 12.087
875.621, 8.253
876.886, 12.419
878.152, 21.079
879.417, 1.253
880.682, 33.907
881.946, 23.066
883.211, 20.224
884.475, 5.619
885.739, 23.533
887.003, 4.684
888.266, 20.834
889.530, 16.303
890.793, 0.132
892.056, 13.278
893.318, 1.576
894.581, 1.432
895.843, 21.709
897.105, 8.150
898.367, 32.986
899.629, 16.121
900.890, 6.745
902.152, 23.385
903.413, 18.514
904.673, 14.357
905.934, 14.359
907.194, 9.940
908.454, 4.005
909.714, 4.124
910.974, 4.243
912.234, 0.576
913.493, 2.060
914.752, 4.414
916.011, 6.702
917.270, 3.726
918.528, 10.841
919.786, 3.766
921.044, 7.118
922.302, 13.996
923.560, 11.003
924.817, 23.106
926.074, 0.108
927.331, 20.217
928.588, 36.327
929.844, 14.975
931.101, 1.073
932.357, 30.172
933.613, 24.212
934.868, 16.324
936.124, 27.965
937.379, 15.471
938.634, 32.583
939.889, 10.696
941.144, 14.810
942.398, 11.874
943.652, 7.989
944.906, 37.105
946.160, 15.379
947.414, 24.500
948.667, 25.610
949.920, 16.449
951.173, 19.547
952.426, 26.511
953.678, 12.612
954.931, 29.575
956.183, 28.113
957.435, 11.242
958.686, 5.892
959.938, 22.023
961.189, 28.151
962.440, 23.266
963.691, 0.401
964.941, 1.507
966.192, 16.441
967.442, 17.580
968.692, 21.716
969.942, 16.851
971.191, 0.722
972.441, 8.845
973.690, 1.912
974.939, 6.063
976.187, 4.203
977.436, 6.832
978.684, 8.323
979.932, 20.033
981.180, 11.144
982.428, 19.296
983.675, 18.455
984.922, 6.619
986.169, 22.785
987.416, 24.943
988.663, 24.306
989.909, 58.352
991.155, 35.518
992.401, 14.695
993.647, 66.875
994.893, 30.062
996.138, 54.250
997.383, 44.441
998.628, 47.635
999.873, 97.698
1001.117, 58.896
1002.362, 92.757
1003.606, 72.963
1004.850, 81.679
1006.093, 131.891
1007.337, 127.105
1008.580, 146.321
1009.823, 156.523
1011.066, 138.744
1012.308, 173.968
1013.551, 164.194
1014.793, 196.425
1016.035, 224.658
1017.277, 206.894
1018.518, 218.102
1019.760, 237.343
1021.001, 233.587
1022.242, 240.833
1023.483, 246.023
1024.723, 246.275
1025.964, 295.530
1027.204, 245.787
1028.444, 297.048
1029.683, 306.158
1030.923, 271.424
1032.162, 298.695
1033.401, 263.969
1034.640, 312.863
1035.879, 287.146
1037.117, 296.432
1038.355, 357.722
1039.593, 334.014
1040.831, 375.279
1042.069, 360.578
1043.306, 338.773
1044.544, 426.983
1045.781, 436.294
1047.017, 437.142
1048.254, 522.459
1049.490, 533.780
1050.726, 576.742
1051.962, 582.077
1053.198, 607.415
1054.434, 713.951
1055.669, 718.296
1056.904, 802.644
1058.139, 923.996
1059.374, 981.352
1060.608, 1122.712
1061.843, 1273.059
1063.077, 1399.427
1064.311, 1532.627
1065.544, 1474.010
1066.778, 1561.397
1068.011, 1751.787
1069.244, 1748.188
1070.477, 2203.311
1071.710, 2433.718
1072.942, 2923.692
1074.174, 3732.111
1075.406, 4514.536
1076.638, 6395.968
1077.870, 9303.403
1079.101, 13482.854
1080.332, 22492.309
1081.563, 32751.768
1082.794, 45681.242
1084.025, 57100.699
1085.255, 51530.184
1086.485, 39169.660
1087.715, 24889.141
1088.945, 14738.625
1090.175, 10198.116
1091.404, 6217.606
1092.633, 4317.105
1093.862, 3147.608
1095.091, 2221.125
1096.319, 1857.876
1097.548, 1419.398
1098.776, 1139.925
1100.004, 999.455
1101.231, 777.994
1102.459, 740.536
1103.686, 647.084
1104.913, 501.638
1106.140, 481.196
1107.367, 406.760
1108.593, 399.327
1109.819, 384.898
1111.046, 298.473
1112.271, 301.050
1113.497, 279.618
1114.722, 257.205
1115.948, 263.795
1117.173, 247.389
1118.398, 223.986
1119.622, 236.587
1120.847, 201.192
1122.071, 228.801
1123.295, 187.413
1124.519, 190.033
1125.742, 162.552
1126.966, 145.179
1128.189, 138.812
1129.412, 131.457
1130.635, 112.096
1131.857, 117.659
1133.080, 141.384
1134.302, 116.033
1135.524, 110.685
1136.746, 95.344
1137.967, 122.006
1139.188, 122.140
1140.410, 91.809
1141.631, 105.555
1142.851, 86.230
1144.072, 79.908
1145.292, 106.674
1146.512, 100.369
1147.732, 105.060
1148.952, 86.394
1150.172, 49.092
1151.391, 70.040
1152.610, 52.746
1153.829, 68.455
1155.048, 73.166
1156.266, 49.880
1157.484, 67.596
1158.702, 78.315
1159.920, 75.036
1161.138, 36.202
1162.356, 56.928
1163.573, 37.656
1164.790, 56.386
1166.007, 48.119
1167.224, 48.854
1168.440, 43.627
1169.656, 40.294
1170.872, 40.178
1172.088, 37.897
1173.304, 35.643
1174.519, 42.391
1175.735, 34.141
1176.950, 55.895
1178.165, 33.281
1179.379, 28.038
1180.594, 40.797
1181.808, 37.341
1183.022, 23.161
1184.236, 63.937
1185.449, 34.722
1186.663, 43.573
1187.876, 25.585
1189.089, 19.400
1190.302, 45.274
1191.515, 57.384
1192.727, 23.244
1193.939, 42.049
1195.151, 27.842
1196.363, 42.087
1197.575, 48.183
1198.786, 50.190
1199.997, 52.980
1201.208, 23.775
1202.419, 26.592
1203.630, 23.480
1204.840, 18.656
1206.051, 27.456
1207.261, 39.425
1208.470, 8.348
1209.680, 12.151
1210.889, 20.074
1212.099, 28.879
1213.308, 32.711
1214.516, 21.986
1215.725, 38.793
1216.933, 10.603
1218.142, 1.486
1219.350, 38.327
1220.557, 18.167
1221.765, 7.234
1222.972, 63.049
1224.180, 23.433
1225.387, 36.420
1226.593, 27.429
1227.800, 6.740
1229.006, 53.563
1230.213, 14.045
1231.419, 40.876
1232.624, 48.699
1233.830, 22.551
1235.035, 35.375
1236.241, 15.209
1237.446, 20.708
1238.650, 27.538
1239.855, 0.582
1241.059, 8.658
1242.264, 12.175
1243.468, 15.147
1244.671, 24.060
1245.875, 30.897
1247.078, 2.867
1248.282, 51.916
1249.485, 35.796
1250.687, 25.876
1251.890, 45.748
1253.092, 35.593
1254.295, 35.455
1255.497, 26.356
1256.699, 29.227
1257.900, 34.241
1259.102, 22.082
1260.303, 11.992
1261.504, 34.831
1262.705, 20.668
1263.905, 33.537
1265.106, 58.377
1266.306, 38.216
1267.506, 33.054
1268.706, 26.893
1269.905, 0.732
1271.105, 22.571
1272.304, 26.411
1273.503, 0.252
1274.702, 19.093
1275.900, 28.930
1277.099, 23.763
1278.297, 41.595
1279.495, 12.427
1280.693, 53.257
1281.891, 27.084
1283.088, 8.089
1284.285, 36.732
1285.482, 17.458
1286.679, 12.347
1287.876, 49.151
1289.072, 1.047
1290.268, 4.751
1291.464, 34.532
1292.660, 9.687
1293.856, 34.079
1295.051, 3.156
1296.247, 35.606
1297.442, 43.365
1298.637, 12.101
1299.831, 30.829
1301.026, 34.549
1302.220, 11.268
1303.414, 30.985
1304.608, 5.306
1305.802, 36.399
1306.995, 48.100
1308.188, 27.797
1309.381, 21.490
1310.574, 57.177
1311.767, 4.860
1312.960, 19.539
1314.152, 31.214
1315.344, 3.883
1316.536, 25.548
1317.728, 25.210
1318.919, 45.868
1320.110, 19.522
1321.301, 6.828
1322.492, 24.816
1323.683, 33.455
1324.874, 8.911
1326.064, 4.716
1327.254, 14.337
1328.444, 12.954
1329.634, 3.566
1330.823, 0.173
1332.013, 7.773
1333.202, 3.370
1334.391, 1.039
1335.580, 4.546
1336.768, 13.127
1337.956, 16.705
1339.145, 2.722
1340.333, 16.155
1341.520, 1.404
1342.708, 8.419
1343.895, 36.507
1345.083, 15.053
1346.270, 5.595
1347.456, 0.867
1348.643, -3.587
1349.829, 3.196
1351.016, 4.722
1352.202, 13.932
1353.387, 14.691
1354.573, 26.272
1355.759, 15.845
1356.944, 17.634
1358.129, 13.179
1359.314, 23.383
1360.498, 6.874
1361.683, 23.536
1362.867, 17.025
1364.051, 2.506
1365.235, 24.982
1366.419, 34.572
1367.602, 4.848
1368.785, 4.309
1369.968, 1.364
1371.151, 23.471
1372.334, 3.701
1373.517, 23.127
1374.699, 29.954
1375.881, 19.774
1377.063, 28.333
1378.245, 25.146
1379.426, 3.043
1380.608, 51.764
1381.789, 16.567
1382.970, 12.366
1384.150, 45.164
1385.331, 9.958
1386.511, 14.749
1387.691, 42.538
1388.871, 11.324
1390.051, 8.109
1391.231, 21.891
1392.410, 7.671
1393.589, 25.437
1394.768, 32.213
1395.947, 28.985
1397.126, 20.756
1398.304, 26.938
1399.483, 10.339
1400.661, 48.973
1401.838, 18.698
1403.016, 52.600
1404.194, 53.001
1405.371, 25.722
1406.548, 77.442
1407.725, 62.160
1408.901, 42.267
1410.078, 91.976
1411.254, 70.685
1412.430, 75.342
1413.606, 124.985
1414.782, 70.691
1415.958, 71.396
1417.133, 101.151
1418.308, 68.656
1419.483, 117.232
1420.658, 99.754
1421.832, 87.983
1423.007, 126.958
1424.181, 81.450
1425.355, 79.336
1426.529, 129.436
1427.702, 83.052
1428.876, 104.476
1430.049, 129.430
1431.222, 77.519
1432.395, 119.308
1433.567, 122.801
1434.740, 99.620
1435.912, 91.926
1437.084, 128.364
1438.256, 104.359
1439.428, 121.423
1440.599, 93.425
1441.770, 117.409
1442.942, 128.694
1444.112, 71.924
1445.283, 131.732
1446.454, 87.844
1447.624, 88.833
1448.794, 120.508
1449.964, 92.331
1451.134, 91.835
1452.303, 65.244
1453.473, 55.206
1454.642, 87.979
1455.811, 84.507
1456.980, 57.265
1458.148, 53.098
1459.317, 86.972
1460.485, 37.819
1461.653, 63.622
1462.821, 64.380
1463.989, 44.099
1465.156, 28.811
1466.323, 61.481
1467.490, 22.124
1468.657, 48.770
1469.824, 32.398
1470.991, 36.996
1472.157, 59.659
1473.323, 25.355
1474.489, 41.435
1475.655, 40.604
1476.820, 38.679
1477.986, 45.526
1479.151, 37.379
1480.316, 36.234
1481.481, 26.246
1482.645, 36.229
1483.810, 27.894
1484.974, 55.807
1486.138, 30.717
1487.302, 34.640
1488.465, 58.583
1489.629, 23.556
1490.792, 47.567
1491.955, 17.619
1493.118, 20.714
1494.281, 12.839
1495.443, 0.001
1496.606, 7.204
1497.768, 28.454
1498.930, 4.762
1500.091, 23.139
1501.253, 1.406
1502.414, 36.135
1503.575, 46.933
1504.736, 34.511
1505.897, 14.206
1507.058, 33.565
1508.218, 0.005
1509.379, 0.000
##END=



