##NAMES=Rhodonite
##RRUFFID=R040041
##IDEAL CHEMISTRY=CaMn^2+^_3_Mn^2+^Si_5_O_15_
##LOCALITY=Franklin, Sussex County, New Jersey, USA
##OWNER=RRUFF
##SOURCE=University of Arizona Mineral Museum
##DESCRIPTION=Pink prismatic crystals
##STATUS=The identification of this mineral has been confirmed by X-ray diffraction and chemical analysis
##URL=rruff.info/R040041
##MEASURED CHEMISTRY=(Mn_0.63_Ca_0.21_Zn_0.12_Mg_0.02_Fe_0.02_)_Î£=1_Si_1.00_O_3_
##PIN_ID=L00324
##ORIENTATION=Laser parallel to (0 -1 -1). Fiducial mark perpendicular to laser is parallel to a [1 0 0]
54.966, 0.000
56.365, 81.061
57.765, 172.471
59.164, 214.205
60.563, 829.613
61.962, 633.166
63.360, 353.304
64.758, 250.382
66.157, 114.642
67.554, 98.605
68.952, 2.646
70.349, 23.712
71.747, 3.414
73.144, 52.210
74.540, 208.637
75.937, 207.651
77.333, 165.218
78.729, 50.299
80.125, 24.143
81.521, 19.145
82.916, 7.263
84.311, 28.054
85.706, 140.204
87.101, 331.691
88.496, 638.498
89.890, 1085.607
91.284, 1885.024
92.678, 3010.774
94.071, 4451.779
95.465, 6204.026
96.858, 7549.512
98.251, 8086.304
99.644, 7715.308
101.036, 6488.503
102.428, 5720.881
103.820, 5816.438
105.212, 6904.164
106.604, 8934.049
107.995, 10975.083
109.387, 11910.266
110.777, 11130.591
112.168, 9480.052
113.559, 7373.649
114.949, 6111.373
116.339, 5645.227
117.729, 5806.205
119.119, 6449.304
120.508, 7219.522
121.897, 7689.858
123.286, 7917.308
124.675, 7031.872
126.063, 5789.543
127.452, 4547.223
128.840, 3571.054
130.228, 3071.013
131.615, 2536.075
133.003, 2322.240
134.390, 2294.506
135.777, 2424.871
137.164, 2709.338
138.550, 2962.028
139.937, 2818.704
141.323, 2554.491
142.709, 1966.333
144.094, 1643.195
145.480, 1451.042
146.865, 1509.891
148.250, 1645.821
149.635, 1874.880
151.019, 2089.008
152.403, 2347.130
153.788, 2497.279
155.171, 2543.472
156.555, 2458.711
157.939, 2244.997
159.322, 2039.332
160.705, 1863.715
162.088, 1666.150
163.470, 1590.637
164.853, 1556.177
166.235, 1564.771
167.617, 1395.421
168.998, 1318.125
170.380, 1194.886
171.761, 1032.702
173.142, 896.573
174.523, 849.500
175.904, 866.481
177.284, 739.517
178.664, 686.607
180.044, 497.751
181.424, 350.949
182.803, 295.201
184.183, 234.505
185.562, 266.861
186.940, 331.271
188.319, 340.732
189.698, 348.244
191.076, 300.808
192.454, 304.424
193.831, 158.090
195.209, 62.806
196.586, 32.573
197.963, 8.389
199.340, 34.745
200.717, 36.830
202.093, 27.134
203.470, 36.146
204.846, 134.206
206.221, 277.313
207.597, 472.468
208.972, 687.669
210.347, 629.915
211.722, 487.199
213.097, 331.532
214.472, 216.925
215.846, 140.400
217.220, 51.977
218.594, 41.722
219.967, 6.403
221.341, 38.363
222.714, 38.359
224.087, 43.625
225.460, 13.525
226.832, 82.139
228.204, 149.115
229.577, 231.464
230.948, 377.473
232.320, 587.844
233.692, 873.967
235.063, 1239.292
236.434, 1567.215
237.805, 1861.725
239.175, 2077.706
240.545, 2245.717
241.916, 2393.241
243.286, 2449.250
244.655, 2506.996
246.025, 2514.821
247.394, 2537.987
248.763, 2430.030
250.132, 2270.372
251.501, 2269.282
252.869, 2253.311
254.237, 2471.396
255.605, 2771.536
256.973, 3225.728
258.340, 3671.971
259.708, 4095.263
261.075, 4271.606
262.442, 4222.995
263.808, 3959.434
265.175, 3598.921
266.541, 3186.462
267.907, 2815.074
269.273, 2609.737
270.639, 2503.455
272.004, 2383.238
273.369, 2434.062
274.734, 2307.952
276.099, 2182.890
277.463, 1996.869
278.828, 1691.893
280.192, 1593.956
281.556, 1277.059
282.919, 1086.198
284.283, 953.374
285.646, 853.585
287.009, 737.832
288.372, 726.113
289.734, 770.428
291.097, 867.777
292.459, 1044.154
293.821, 1275.560
295.183, 1542.997
296.544, 1877.467
297.905, 2153.968
299.266, 2460.500
300.627, 2743.062
301.988, 2928.656
303.348, 3046.277
304.709, 3082.918
306.069, 3097.588
307.428, 3054.287
308.788, 2857.015
310.147, 2530.772
311.507, 2253.558
312.865, 1918.372
314.224, 1758.214
315.583, 1509.083
316.941, 1558.982
318.299, 1557.907
319.657, 1600.860
321.015, 1756.841
322.372, 1844.849
323.729, 1869.885
325.086, 1949.947
326.443, 2033.563
327.800, 2056.152
329.156, 2209.294
330.512, 2254.462
331.868, 2327.656
333.224, 2475.876
334.579, 2583.122
335.935, 2577.392
337.290, 2648.687
338.645, 2727.008
339.999, 3053.353
341.354, 3249.721
342.708, 3602.114
344.062, 3854.530
345.416, 3984.971
346.769, 4001.434
348.123, 3678.920
349.476, 3410.430
350.829, 3131.962
352.182, 2968.199
353.534, 2865.669
354.887, 2787.692
356.239, 2878.312
357.591, 3003.955
358.942, 3227.617
360.294, 3379.301
361.645, 3533.007
362.996, 3542.337
364.347, 3595.654
365.698, 3496.420
367.048, 3336.207
368.398, 3312.233
369.748, 3027.296
371.098, 2802.372
372.448, 2472.915
373.797, 2246.444
375.146, 1789.906
376.495, 1538.789
377.844, 1398.788
379.192, 1230.156
380.540, 1150.821
381.889, 1063.309
383.236, 1043.667
384.584, 1037.674
385.932, 1003.233
387.279, 900.713
388.626, 717.755
389.973, 597.813
391.319, 385.892
392.666, 298.991
394.012, 100.113
395.358, 43.261
396.704, 14.564
398.049, 114.358
399.394, 54.148
400.740, 67.921
402.084, 117.688
403.429, 67.473
404.774, 102.257
406.118, 59.053
407.462, 12.843
408.806, 90.392
410.150, 116.653
411.493, 213.937
412.836, 186.241
414.179, 344.563
415.522, 392.903
416.865, 531.260
418.207, 728.635
419.549, 734.025
420.891, 766.433
422.233, 631.856
423.575, 459.296
424.916, 372.472
426.257, 258.359
427.598, 176.647
428.939, 73.271
430.279, 61.698
431.619, 86.948
432.959, 79.719
434.299, 136.557
435.639, 275.599
436.978, 274.750
438.318, 295.027
439.657, 298.109
440.996, 261.720
442.334, 136.009
443.673, 116.641
445.011, 70.283
446.349, 113.936
447.687, 111.598
449.024, 178.271
450.361, 213.954
451.699, 280.647
453.036, 366.496
454.372, 511.060
455.709, 570.781
457.045, 544.510
458.381, 674.250
459.717, 375.000
461.053, 202.759
462.388, 110.535
463.724, 44.325
465.059, 97.132
466.394, 113.960
467.728, 142.795
469.063, 204.641
470.397, 137.505
471.731, 198.376
473.065, 345.267
474.398, 321.174
475.732, 410.093
477.065, 365.030
478.398, 368.982
479.731, 313.945
481.063, 297.925
482.396, 242.925
483.728, 155.935
485.060, 76.969
486.391, 90.008
487.723, 154.062
489.054, 253.121
490.385, 393.184
491.716, 465.250
493.047, 556.319
494.377, 607.397
495.708, 546.478
497.038, 427.561
498.368, 390.651
499.697, 254.743
501.027, 183.844
502.356, 165.955
503.685, 123.067
505.014, 115.181
506.342, 142.296
507.671, 182.425
508.999, 233.563
510.327, 325.712
511.655, 418.860
512.982, 521.017
514.310, 653.173
515.637, 615.330
516.964, 699.493
518.291, 626.661
519.617, 614.837
520.944, 431.026
522.270, 347.214
523.596, 328.411
524.921, 192.625
526.247, 126.838
527.572, 23.049
528.897, 23.255
530.222, 17.545
531.547, 7.369
532.871, 6.212
534.196, 4.074
535.520, 105.954
536.844, 90.906
538.167, 79.923
539.491, 35.999
540.814, 80.112
542.137, 1.714
543.460, 113.522
544.783, 107.327
546.105, 131.131
547.427, 170.933
548.749, 155.731
550.071, 172.525
551.393, 208.313
552.714, 278.097
554.035, 408.875
555.356, 503.647
556.677, 524.120
557.998, 520.785
559.318, 417.996
560.638, 359.658
561.958, 271.087
563.278, 171.725
564.597, 172.816
565.917, 122.755
567.236, 156.191
568.555, 106.904
569.874, 148.610
571.192, 147.309
572.511, 137.002
573.829, 123.688
575.147, 111.367
576.464, 92.038
577.782, 91.702
579.099, 66.358
580.416, 59.007
581.733, 55.300
583.050, 17.281
584.366, 25.897
585.683, 1.499
586.999, 69.921
588.315, 2.406
589.630, 14.918
590.946, 54.463
592.261, 33.936
593.576, 57.677
594.891, 0.348
596.206, 36.953
597.520, 5.242
598.834, 60.506
600.148, 25.760
601.462, 65.998
602.776, 111.225
604.089, 59.442
605.402, 109.649
606.715, 152.187
608.028, 180.440
609.341, 193.711
610.653, 186.068
611.965, 263.294
613.277, 248.539
614.589, 317.760
615.901, 352.661
617.212, 397.879
618.523, 436.455
619.834, 417.472
621.145, 514.870
622.456, 544.220
623.766, 566.459
625.076, 654.614
626.386, 703.364
627.696, 773.889
629.006, 767.289
630.315, 889.284
631.624, 964.479
632.933, 1042.750
634.242, 1184.735
635.551, 1172.672
636.859, 1408.752
638.167, 1414.360
639.475, 1723.869
640.783, 1796.080
642.090, 1976.141
643.398, 2271.353
644.705, 2507.459
646.012, 2817.537
647.318, 3076.564
648.625, 3579.350
649.931, 4092.156
651.237, 4756.090
652.543, 5706.828
653.849, 6732.732
655.155, 8266.197
656.460, 9864.885
657.765, 12605.978
659.070, 15426.479
660.375, 19586.193
661.679, 25272.852
662.984, 31061.531
664.288, 38031.051
665.592, 44655.414
666.895, 48614.070
668.199, 49402.699
669.502, 47223.793
670.805, 41608.375
672.108, 36373.934
673.411, 29799.646
674.713, 24851.531
676.016, 21053.779
677.318, 18055.250
678.620, 15773.648
679.921, 13962.080
681.223, 12068.127
682.524, 10260.472
683.825, 8436.797
685.126, 7130.917
686.427, 5752.970
687.727, 4670.010
689.028, 3827.683
690.328, 3219.271
691.628, 2934.928
692.927, 2478.369
694.227, 2152.489
695.526, 1826.279
696.825, 1691.731
698.124, 1604.500
699.423, 1624.208
700.721, 1479.308
702.020, 1487.622
703.318, 1532.769
704.616, 1621.820
705.913, 1794.855
707.211, 2071.873
708.508, 2540.876
709.805, 2950.863
711.102, 3489.833
712.399, 4107.788
713.695, 4486.729
714.992, 4538.671
716.288, 4177.606
717.584, 3626.534
718.879, 2977.465
720.175, 2300.391
721.470, 2050.317
722.765, 1623.236
724.060, 1279.141
725.355, 1149.030
726.649, 966.903
727.944, 929.760
729.238, 845.602
730.532, 749.428
731.825, 808.238
733.119, 829.033
734.412, 807.812
735.705, 839.575
736.998, 929.323
738.291, 970.056
739.584, 994.052
740.876, 960.337
742.168, 911.221
743.460, 870.769
744.752, 688.514
746.043, 650.434
747.334, 494.833
748.626, 407.164
749.916, 319.290
751.207, 259.383
752.498, 228.307
753.788, 210.274
755.078, 198.824
756.368, 209.696
757.658, 151.220
758.947, 76.733
760.237, 122.233
761.526, 28.721
762.815, 53.193
764.104, 45.653
765.392, 35.100
766.680, 50.532
767.969, 42.952
769.257, 45.359
770.544, 10.754
771.832, 40.129
773.119, 18.492
774.406, 10.161
775.693, 0.844
776.980, 16.550
778.267, 31.289
779.553, 34.934
780.839, 8.143
782.125, 21.665
783.411, 16.493
784.697, 30.363
785.982, 18.257
787.267, 4.182
788.552, 32.129
789.837, 16.114
791.122, 3.127
792.406, 28.162
793.690, 43.230
794.974, 7.341
796.258, 53.474
797.542, 9.347
798.825, 23.845
800.108, 11.932
801.391, 12.697
802.674, 60.451
803.957, 38.196
805.239, 9.068
806.522, 46.647
807.804, 10.355
809.085, 3.949
810.367, 80.731
811.649, 15.597
812.930, 22.946
814.211, 20.680
815.492, 29.297
816.772, 19.907
818.053, 42.492
819.333, 24.924
820.613, 30.380
821.893, 13.138
823.173, 23.352
824.452, 10.137
825.732, 13.618
827.011, 19.907
828.290, 23.451
829.568, 30.016
830.847, 50.603
832.125, 36.777
833.403, 35.849
834.681, 62.500
835.959, 19.811
837.236, 37.117
838.514, 9.418
839.791, 41.716
841.068, 28.010
842.345, 1.690
843.621, 59.612
844.898, 35.918
846.174, 7.772
847.450, 41.505
848.726, 0.343
850.001, 85.319
851.277, 6.280
852.552, 2.144
853.827, 42.572
855.102, 11.004
856.376, 4.585
857.651, 66.829
858.925, 65.240
860.199, 148.649
861.473, 162.055
862.746, 73.458
864.020, 160.859
865.293, 189.258
866.566, 276.655
867.839, 358.050
869.112, 373.442
870.384, 512.833
871.656, 592.222
872.928, 644.609
874.200, 719.995
875.472, 717.379
876.744, 792.762
878.015, 733.144
879.286, 722.525
880.557, 632.904
881.828, 706.283
883.098, 647.661
884.369, 632.040
885.639, 674.417
886.909, 660.803
888.178, 773.189
889.448, 769.578
890.717, 774.967
891.987, 779.356
893.256, 771.752
894.524, 774.158
895.793, 741.580
897.061, 774.039
898.330, 870.516
899.598, 879.015
900.865, 980.544
902.133, 1171.076
903.401, 1271.634
904.668, 1561.201
905.935, 1840.772
907.202, 2174.363
908.468, 2690.961
909.735, 3312.565
911.001, 3961.175
912.267, 4347.790
913.533, 4681.407
914.799, 4736.693
916.064, 4356.261
917.330, 3963.806
918.595, 3483.259
919.860, 3043.840
921.124, 2659.397
922.389, 2390.983
923.653, 2162.882
924.918, 1950.458
926.182, 1801.669
927.445, 1740.437
928.709, 1775.816
929.972, 1889.248
931.236, 2008.782
932.499, 2285.392
933.761, 2607.406
935.024, 3033.648
936.286, 3446.014
937.549, 3632.788
938.811, 3345.353
940.073, 3058.847
941.334, 2894.620
942.596, 2283.432
943.857, 1823.099
945.118, 1639.233
946.379, 1499.458
947.640, 1457.972
948.900, 1400.021
950.161, 1466.126
951.421, 1448.722
952.681, 1528.340
953.940, 1639.000
955.200, 1722.897
956.459, 1852.771
957.719, 2159.509
958.978, 2411.436
960.236, 2730.189
961.495, 3133.396
962.753, 3820.379
964.012, 4601.959
965.270, 5670.132
966.527, 7186.086
967.785, 9046.093
969.043, 11341.072
970.300, 13708.206
971.557, 16034.486
972.814, 17571.473
974.071, 17899.488
975.327, 17296.014
976.583, 15645.055
977.840, 14360.119
979.095, 12833.009
980.351, 11965.726
981.607, 11735.082
982.862, 11597.193
984.117, 12228.372
985.372, 13838.517
986.627, 14744.033
987.882, 17186.244
989.136, 20106.465
990.390, 22601.668
991.644, 25132.908
992.898, 24921.166
994.152, 23828.330
995.405, 22081.609
996.659, 20756.895
997.912, 21087.990
999.165, 21468.299
1000.417, 23054.580
1001.670, 23744.912
1002.922, 24887.111
1004.174, 24083.455
1005.426, 22048.818
1006.678, 18769.951
1007.930, 15427.249
1009.181, 12604.636
1010.432, 10385.035
1011.683, 8692.443
1012.934, 7415.862
1014.185, 6761.291
1015.435, 6149.730
1016.685, 5508.180
1017.935, 5176.639
1019.185, 4874.109
1020.435, 4630.589
1021.684, 4372.082
1022.934, 4315.587
1024.183, 4184.102
1025.432, 4091.626
1026.680, 3969.255
1027.929, 3922.798
1029.177, 3716.349
1030.425, 3624.910
1031.673, 3447.562
1032.921, 3181.161
1034.169, 2956.829
1035.416, 2723.426
1036.663, 2572.051
1037.911, 2408.713
1039.157, 2313.980
1040.404, 2159.698
1041.650, 2210.401
1042.897, 2242.337
1044.143, 2216.816
1045.389, 2316.022
1046.634, 2616.833
1047.880, 2752.246
1049.125, 2795.956
1050.371, 2895.896
1051.615, 2951.604
1052.860, 2804.416
1054.105, 2708.188
1055.349, 2294.917
1056.593, 1996.156
1057.837, 1649.252
1059.081, 1367.155
1060.325, 1152.600
1061.568, 1043.160
1062.812, 941.936
1064.055, 853.920
1065.298, 808.042
1066.540, 739.509
1067.783, 736.477
1069.025, 650.180
1070.267, 719.689
1071.509, 610.768
1072.751, 612.733
1073.993, 640.173
1075.234, 657.229
1076.475, 645.547
1077.716, 562.552
1078.957, 522.327
1080.198, 490.395
1081.438, 497.325
1082.679, 499.624
1083.919, 468.373
1085.159, 427.007
1086.398, 432.340
1087.638, 378.461
1088.877, 350.517
1090.116, 313.645
1091.355, 331.768
1092.594, 306.247
1093.833, 290.723
1095.071, 281.926
1096.309, 253.160
1097.547, 285.375
1098.785, 216.620
1100.023, 251.867
1101.260, 225.383
1102.498, 261.651
1103.735, 198.569
1104.972, 259.815
1106.208, 199.090
1107.445, 225.630
1108.681, 220.087
1109.918, 283.747
1111.154, 201.970
1112.389, 265.857
1113.625, 214.340
1114.860, 301.369
1116.096, 286.179
1117.331, 178.475
1118.566, 195.638
1119.800, 260.953
1121.035, 254.978
1122.269, 311.041
1123.503, 406.823
1124.737, 455.282
1125.971, 319.817
1127.205, 293.298
1128.438, 208.047
1129.671, 165.656
1130.904, 100.084
1132.137, 162.583
1133.370, 169.931
1134.602, 174.193
1135.834, 160.458
1137.066, 135.741
1138.298, 135.047
1139.530, 122.417
1140.762, 146.578
1141.993, 146.806
1143.224, 110.040
1144.455, 98.803
1145.686, 149.110
1146.917, 93.594
1148.147, 115.245
1149.377, 118.627
1150.607, 99.918
1151.837, 160.145
1153.067, 138.362
1154.296, 83.607
1155.526, 138.849
1156.755, 110.213
1157.984, 117.569
1159.213, 123.930
1160.441, 138.460
1161.670, 106.949
1162.898, 99.171
1164.126, 49.593
1165.354, 25.924
1166.581, 62.425
1167.809, 81.658
1169.036, 95.789
1170.263, 62.502
1171.490, 12.654
1172.717, 52.787
1173.943, 2.085
1175.170, 24.036
1176.396, 28.151
1177.622, 85.259
1178.848, 0.362
1180.073, 13.457
1181.299, 1.569
1182.524, 22.650
1183.749, 40.275
1184.974, 11.774
1186.199, 16.060
1187.423, 4.969
1188.648, 12.104
1189.872, 5.883
1191.096, 33.781
1192.320, 28.764
1193.543, 37.727
1194.767, 30.728
1195.990, 34.822
1197.213, 21.942
1198.436, 46.917
1199.659, 13.855
1200.881, 26.698
1202.104, 60.532
1203.326, 39.531
1204.548, 20.736
1205.770, 6.038
1206.991, 9.197
1208.213, 10.442
1209.434, 44.290
1210.655, 31.987
1211.876, 1.293
1213.096, 22.612
1214.317, 9.045
1215.537, 9.309
1216.757, 5.681
1217.977, 46.069
1219.197, 19.505
1220.417, 2.931
1221.636, 6.617
1222.855, 15.847
1224.074, 22.670
1225.293, 37.823
1226.512, 15.649
1227.731, 54.109
1228.949, 12.441
1230.167, 35.014
1231.385, 16.622
1232.603, 27.256
1233.820, 25.079
1235.038, 37.530
1236.255, 30.754
1237.472, 37.025
1238.689, 10.716
1239.906, 6.518
1241.122, 28.737
1242.338, 26.946
1243.555, 34.144
1244.771, 32.997
1245.986, 34.494
1247.202, 10.649
1248.417, 34.868
1249.633, 2.953
1250.848, 1.991
1252.063, 37.045
1253.277, 13.064
1254.492, 17.061
1255.706, 54.959
1256.920, 31.686
1258.134, 10.098
1259.348, 19.205
1260.562, 4.666
1261.775, 9.519
1262.988, 46.357
1264.201, 3.176
1265.414, 45.975
1266.627, 6.759
1267.839, 6.523
1269.052, 13.269
1270.264, 28.998
1271.476, 23.712
1272.688, 27.958
1273.899, 16.087
1275.111, 21.746
1276.322, 37.387
1277.533, 31.006
1278.744, 56.606
1279.955, 79.190
1281.165, 82.759
1282.376, 78.313
1283.586, 72.851
1284.796, 57.373
1286.006, 9.878
1287.215, 93.363
1288.425, 89.831
1289.634, 21.283
1290.843, 71.761
1292.052, 38.178
1293.261, 26.578
1294.469, 52.959
1295.678, 74.324
1296.886, 89.673
1298.094, 91.223
1299.302, 84.012
1300.509, 84.623
1301.717, 54.907
1302.924, 56.176
1304.131, 54.428
1305.338, 34.663
1306.545, 37.881
1307.752, 85.082
1308.958, 44.267
1310.164, 57.435
1311.370, 36.586
1312.576, 78.721
1313.782, 13.840
1314.987, 25.939
1316.193, 95.020
1317.398, 426.085
1318.603, 1002.136
1319.807, 717.273
1321.012, 677.096
1322.216, 433.103
1323.421, 372.095
1324.625, 422.991
1325.829, 93.934
1327.032, 123.804
1328.236, 112.739
1329.439, 99.641
1330.642, 68.500
1331.845, 102.749
1333.048, 70.542
1334.251, 102.345
1335.453, 73.911
1336.656, 67.929
1337.858, 129.214
1339.060, 76.890
1340.261, 92.959
1341.463, 91.726
1342.664, 101.258
1343.866, 69.017
1345.067, 132.666
1346.267, 96.353
1347.468, 63.075
1348.669, 123.285
1349.869, 115.634
1351.069, 139.169
1352.269, 84.159
1353.469, 135.030
1354.668, 108.681
1355.868, 116.120
1357.067, 119.419
1358.266, 91.369
1359.465, 100.816
1360.664, 139.525
1361.862, 152.426
1363.061, 158.840
1364.259, 165.708
1365.457, 115.284
1366.655, 150.634
1367.852, 157.837
1369.050, 138.248
1370.247, 180.893
1371.444, 122.318
1372.641, 162.834
1373.838, 120.979
1375.035, 95.676
1376.231, 142.413
1377.427, 110.441
1378.623, 50.667
1379.819, 75.958
1381.015, 129.138
1382.211, 106.309
1383.406, 66.115
1384.601, 142.524
1385.796, 96.195
1386.991, 131.851
1388.185, 112.209
1389.380, 90.105
1390.574, 118.378
1391.768, 34.059
1392.962, 70.647
1394.156, 64.871
1395.350, 53.646
1396.543, 95.984
1397.736, 60.640
1398.929, 72.200
1400.122, 82.979
1401.315, 113.345
1402.507, 82.198
1403.700, 87.403
1404.892, 58.693
1406.084, 74.792
1407.276, 99.992
1408.467, 60.607
1409.659, 59.421
1410.850, 75.886
1412.041, 70.938
1413.232, 99.011
1414.423, 86.690
1415.614, 107.505
1416.804, 69.696
1417.994, 93.311
1419.184, 88.612
1420.374, 95.120
1421.564, 132.217
1422.753, 61.069
1423.943, 136.891
1425.132, 95.681
1426.321, 57.408
1427.510, 106.136
1428.698, 57.676
1429.887, 84.204
1431.075, 73.719
1432.263, 35.207
1433.451, 21.788
1434.639, 46.491
1435.827, 45.038
1437.014, 108.509
1438.201, 100.170
1439.388, 97.804
1440.575, 113.438
1441.762, 81.076
1442.949, 98.073
1444.135, 116.341
1445.321, 94.992
1446.507, 99.626
1447.693, 68.238
1448.879, 132.866
1450.064, 100.474
1451.250, 97.125
1452.435, 83.667
1453.620, 144.372
1454.805, 141.069
1455.989, 153.751
1457.174, 123.397
1458.358, 101.045
1459.542, 97.582
1460.726, 105.416
1461.910, 86.270
1463.093, 123.141
1464.277, 96.021
1465.460, 105.887
1466.643, 104.746
1467.826, 109.616
1469.009, 115.490
1470.191, 108.115
1471.373, 114.228
1472.556, 94.118
1473.738, 74.055
1474.919, 64.002
1476.101, 86.369
1477.283, 84.917
1478.464, 88.831
1479.645, 128.762
1480.826, 103.778
1482.007, 101.817
1483.187, 125.875
1484.368, 56.954
1485.548, 51.056
1486.728, 86.183
1487.908, 72.337
1489.088, 89.523
1490.268, 89.739
1491.447, 101.989
1492.626, 84.279
