##NAMES=Rhodochrosite
##RRUFFID=R050019
##IDEAL CHEMISTRY=Mn^2+^CO_3_
##LOCALITY=Home Sweet Home mine, Colorado, USA
##OWNER=RRUFF
##SOURCE=Eugene Schlepp
##DESCRIPTION=Pink single crystal rhombs on quartz
##STATUS=The identification of this mineral has been confirmed by X-ray diffraction and chemical analysis
##URL=rruff.info/R050019
##MEASURED CHEMISTRY=Mn_1.00_CO_3_
##PIN_ID=L00297
##ORIENTATION=Laser parallel to a* (1 0 0). Fiducial mark perpendicular to laser is parallel to c [0 0 1]
112.063, 0.000
113.461, 11.730
114.859, 14.674
116.256, 38.723
117.653, 12.542
119.050, 1.299
120.447, 48.326
121.843, 1.509
123.240, 55.730
124.636, 6.031
126.031, 33.893
127.427, 20.664
128.822, 19.387
130.217, 78.067
131.612, 33.705
133.006, 81.305
134.400, 13.871
135.794, 46.524
137.188, 23.238
138.581, 46.260
139.975, 42.636
141.368, 54.059
142.760, 68.586
144.153, 49.173
145.545, 70.721
146.937, 33.236
148.329, 51.725
149.720, 29.190
151.112, 6.636
152.503, 89.067
153.893, 8.485
155.284, 48.892
156.674, 33.292
158.064, 65.684
159.454, 66.983
160.843, 72.255
162.233, 116.530
163.622, 11.192
165.011, 88.447
166.399, 15.723
167.787, 47.003
169.175, 66.017
170.563, 50.323
171.951, 79.575
173.338, 47.232
174.725, 83.401
176.112, 38.581
177.499, 54.772
178.885, 105.973
180.271, 102.185
181.657, 144.406
183.043, 135.636
184.428, 160.875
185.813, 109.121
187.198, 70.376
188.583, 87.639
189.967, 19.909
191.351, 81.192
192.735, 62.490
194.119, 70.795
195.502, 35.107
196.885, 60.425
198.268, 96.758
199.651, 58.095
201.033, 41.438
202.415, 27.787
203.797, 50.142
205.179, 54.502
206.561, 17.131
207.942, 112.240
209.323, 20.616
210.703, 70.997
212.084, 50.382
213.464, 38.772
214.844, 15.167
216.224, 1.434
217.603, 7.761
218.983, 7.379
220.362, 38.792
221.741, 10.197
223.119, 37.606
224.497, 89.027
225.875, 4.540
227.253, 41.896
228.631, 6.666
230.008, 34.776
231.385, 56.221
232.762, 27.331
234.139, 85.121
235.515, 30.575
236.891, 63.052
238.267, 28.531
239.643, 45.019
241.018, 45.516
242.393, 17.010
243.768, 60.502
245.143, 31.996
246.517, 64.493
247.891, 50.992
249.265, 81.494
250.639, 87.000
252.012, 6.507
253.386, 79.013
254.759, 30.521
256.131, 61.016
257.504, 28.515
258.876, 28.017
260.248, 93.522
261.620, 46.034
262.991, 116.551
264.363, 50.072
265.734, 97.596
267.104, 95.124
268.475, 75.654
269.845, 146.784
271.215, 44.385
272.585, 156.920
273.955, 98.458
275.324, 154.074
276.693, 241.620
278.062, 247.167
279.431, 372.725
280.799, 487.287
282.167, 639.271
283.535, 838.844
284.903, 1082.422
286.270, 1388.003
287.638, 1577.520
289.005, 1743.108
290.371, 1552.698
291.738, 1309.290
293.104, 1093.881
294.470, 758.473
295.836, 648.066
297.201, 456.660
298.567, 416.255
299.932, 288.852
301.296, 241.449
302.661, 219.047
304.025, 173.631
305.389, 165.218
306.753, 108.806
308.117, 158.395
309.480, 100.986
310.843, 61.578
312.206, 138.172
313.569, 64.767
314.931, 107.364
316.293, 54.962
317.655, 120.563
319.017, 125.238
320.378, 6.843
321.740, 72.449
323.101, 57.057
324.461, 87.652
325.822, 69.248
327.182, 40.847
328.542, 90.576
329.902, 16.179
331.261, 107.783
332.621, 38.391
333.980, 103.998
335.339, 116.904
336.697, 84.512
338.056, 88.104
339.414, 81.341
340.772, 106.296
342.129, 82.896
343.487, 62.500
344.844, 86.110
346.201, 6.723
347.557, 91.338
348.914, 31.956
350.270, 114.577
351.626, 63.201
352.982, 56.828
354.337, 88.457
355.693, 48.089
357.048, 104.723
358.402, 35.953
359.757, 38.592
361.111, 61.236
362.465, 24.881
363.819, 87.530
365.173, 92.248
366.526, 111.901
367.879, 76.556
369.232, 55.272
370.585, 64.803
371.937, 28.465
373.290, 40.656
374.642, 42.796
375.993, 44.464
377.345, 72.135
378.696, 59.813
380.047, 111.378
381.398, 32.061
382.748, 103.745
384.099, 85.431
385.449, 20.120
386.799, 123.810
388.148, 20.503
389.497, 89.944
390.847, 44.640
392.196, 111.971
393.544, 95.671
394.893, 31.374
396.241, 55.440
397.589, 1.147
398.936, 51.855
400.284, 57.565
401.631, 32.278
402.978, 100.992
404.325, 16.708
405.672, 56.425
407.018, 67.145
408.364, 17.355
409.710, 95.078
411.055, 3.803
412.401, 106.529
413.746, 22.257
415.091, 80.997
416.435, 49.729
417.780, 12.463
419.124, 82.198
420.468, 38.935
421.812, 95.674
423.155, 82.415
424.498, 13.843
425.842, 123.903
427.184, 3.349
428.527, 120.400
429.869, 44.151
431.211, 53.904
432.553, 90.658
433.895, 3.587
435.236, 76.170
436.577, 13.928
437.918, 85.252
439.259, 56.013
440.599, 36.776
441.940, 75.540
443.280, 10.694
444.619, 109.567
445.959, 1.333
447.298, 48.099
448.637, 82.868
449.976, 39.638
451.315, 105.410
452.653, 30.183
453.991, 46.957
455.329, 62.733
456.667, 49.509
458.004, 74.448
459.341, 67.078
460.678, 94.869
462.015, 77.662
463.352, 64.456
464.688, 129.105
466.024, 21.902
467.360, 120.700
468.695, 72.499
470.031, 60.300
471.366, 32.102
472.701, 8.905
474.035, 98.709
475.370, 10.514
476.704, 83.327
478.038, 122.140
479.372, 2.045
480.705, 162.770
482.038, 47.586
483.371, 52.404
484.704, 86.276
486.037, 40.098
487.369, 101.921
488.701, 45.745
490.033, 95.587
491.365, 23.429
492.696, 23.273
494.027, 82.117
495.358, 23.037
496.689, 108.808
498.019, 20.655
499.350, 53.502
500.680, 96.351
502.009, 14.200
503.339, 143.053
504.668, 57.592
505.997, 55.447
507.326, 70.303
508.655, 71.160
509.983, 71.986
511.311, 20.877
512.639, 61.737
513.967, 60.598
515.295, 35.460
516.622, 133.325
517.949, 26.808
519.276, 81.046
520.602, 96.169
521.929, 29.024
523.255, 106.881
524.581, 18.178
525.906, 108.670
527.232, 48.520
528.557, 0.630
529.882, 87.221
531.207, 4.077
532.531, 115.934
533.855, 54.792
535.179, 82.652
536.503, 77.512
537.827, 42.544
539.150, 85.406
540.473, 27.269
541.796, 74.133
543.119, 66.998
544.441, 44.864
545.764, 77.730
547.086, 36.601
548.407, 52.471
549.729, 82.344
551.050, 8.218
552.371, 67.094
553.692, 7.970
555.013, 93.847
556.333, 43.732
557.653, 42.623
558.973, 44.514
560.293, 10.406
561.612, 65.299
562.932, 46.192
564.251, 32.086
565.569, 53.980
566.888, 7.125
568.206, 102.766
569.524, 15.657
570.842, 58.549
572.160, 43.440
573.477, 2.333
574.795, 97.226
576.112, 41.119
577.428, 56.019
578.745, 33.919
580.061, 14.821
581.377, 90.723
582.693, 46.624
584.009, 87.980
585.324, 84.882
586.639, 39.718
587.954, 146.622
589.269, 71.525
590.583, 47.000
591.897, 88.904
593.212, 8.734
594.525, 146.638
595.839, 7.458
597.152, 58.441
598.465, 111.341
599.778, 58.241
601.091, 88.145
602.403, 38.371
603.716, 95.625
605.028, 67.507
606.339, 59.389
607.651, 129.272
608.962, 28.155
610.273, 102.037
611.584, 55.920
612.895, 86.803
614.205, 112.686
615.515, 35.569
616.825, 109.878
618.135, 71.761
619.444, 39.644
620.754, 167.526
622.063, 26.591
623.372, 120.302
624.680, 104.168
625.989, 62.034
627.297, 141.900
628.605, 49.767
629.912, 151.634
631.220, 49.500
632.527, 93.366
633.834, 126.477
635.141, 54.342
636.447, 159.208
637.754, 21.001
639.060, 106.866
640.366, 139.737
641.671, 4.604
642.977, 161.905
644.282, 72.770
645.587, 54.635
646.892, 151.291
648.196, 47.155
649.501, 114.019
650.805, 94.882
652.109, 138.746
653.412, 151.459
654.716, 45.323
656.019, 188.186
657.322, 88.049
658.625, 96.911
659.927, 117.105
661.230, 5.034
662.532, 105.819
663.834, 43.672
665.135, 89.523
666.437, 98.375
667.738, 66.226
669.039, 97.076
670.340, 69.925
671.640, 107.773
672.940, 155.222
674.241, 37.070
675.540, 124.323
676.840, 1.169
678.139, 98.017
679.439, 138.864
680.738, 5.711
682.036, 137.490
683.335, 36.336
684.633, 106.181
685.931, 108.985
687.229, 73.846
688.527, 154.718
689.824, 33.721
691.121, 90.592
692.418, 118.462
693.715, 13.669
695.012, 169.190
696.308, 45.048
697.604, 62.905
698.900, 74.761
700.195, 32.617
701.491, 54.222
702.786, 45.010
704.081, 49.864
705.376, 48.717
706.670, 31.569
707.964, 147.420
709.259, 58.271
710.552, 129.121
711.846, 101.970
713.139, 78.092
714.433, 236.940
715.726, 212.786
717.018, 467.632
718.311, 576.477
719.603, 425.322
720.895, 365.165
722.187, 181.008
723.479, 164.360
724.770, 154.201
726.061, 85.041
727.352, 180.881
728.643, 47.719
729.934, 140.547
731.224, 116.385
732.514, 59.716
733.804, 143.552
735.094, 11.386
736.383, 65.220
737.672, 139.052
738.961, 10.116
740.250, 190.709
741.539, 68.532
742.827, 99.356
744.115, 151.178
745.403, 3.000
746.691, 171.815
747.978, 19.629
749.265, 42.443
750.552, 123.257
751.839, 18.505
753.126, 222.384
754.412, 71.196
755.698, 96.618
756.984, 143.428
758.270, 3.743
759.555, 111.552
760.840, 94.360
762.125, 54.168
763.410, 159.976
764.695, 16.783
765.979, 129.589
767.263, 77.395
768.547, 66.200
769.831, 153.005
771.114, 34.191
772.398, 142.592
773.681, 45.374
774.964, 52.156
776.246, 130.937
777.529, 4.864
778.811, 100.644
780.093, 72.424
781.375, 64.203
782.656, 140.189
783.937, 86.968
785.219, 78.747
786.499, 85.525
787.780, 16.698
789.060, 175.069
790.341, 46.836
791.621, 113.602
792.901, 84.368
794.180, 5.134
795.459, 153.367
796.739, 3.922
798.017, 94.839
799.296, 116.600
800.575, 41.639
801.853, 165.097
803.131, 26.833
804.409, 33.569
805.686, 142.768
806.964, 31.497
808.241, 137.226
809.518, 39.949
810.795, 68.671
812.071, 132.393
813.347, 2.884
814.623, 157.834
815.899, 109.868
817.175, 82.587
818.450, 144.306
819.726, 19.025
821.001, 115.745
822.275, 66.464
823.550, 11.183
824.824, 136.903
826.098, 8.377
827.372, 104.337
828.646, 85.051
829.920, 13.773
831.193, 154.539
832.466, 22.261
833.739, 88.983
835.011, 124.882
836.284, 38.609
837.556, 122.337
838.828, 84.023
840.100, 22.752
841.371, 99.188
842.642, 2.916
843.914, 153.643
845.184, 48.370
846.455, 87.097
847.726, 135.654
848.996, 26.380
850.266, 141.108
851.536, 94.835
852.805, 51.563
854.075, 190.299
855.344, 7.965
856.613, 169.765
857.881, 81.495
859.150, 98.225
860.418, 183.957
861.686, 73.689
862.954, 123.421
864.222, 136.155
865.489, 18.112
866.756, 179.611
868.023, 76.333
869.290, 130.057
870.557, 177.781
871.823, 33.506
873.089, 105.231
874.355, 100.960
875.621, 88.688
876.886, 137.421
878.152, 46.153
879.417, 154.887
880.682, 50.622
881.946, 22.358
883.211, 168.095
884.475, 23.167
885.739, 156.559
887.003, 111.285
888.266, 84.012
889.530, 196.740
890.793, 56.469
892.056, 88.174
893.318, 148.906
894.581, 20.640
895.843, 148.375
897.105, 41.112
898.367, 101.277
899.629, 173.017
900.890, 33.769
902.152, 141.522
903.413, 115.277
904.673, 0.035
905.934, 148.795
907.194, 11.444
908.454, 169.312
909.714, 83.070
910.974, 27.726
912.234, 140.497
913.493, 56.270
914.752, 87.045
916.011, 156.822
917.270, 42.600
918.528, 147.380
919.786, 83.161
921.044, 66.945
922.302, 138.731
923.560, 3.091
924.817, 85.886
926.074, 90.683
927.331, 113.481
928.588, 147.283
929.844, 11.069
931.101, 134.883
932.357, 145.699
933.613, 5.483
934.868, 154.335
936.124, 30.155
937.379, 102.977
938.634, 160.802
939.889, 51.385
941.144, 136.213
942.398, 45.044
943.652, 108.877
944.906, 193.713
946.160, 12.456
947.414, 166.380
948.667, 104.783
949.920, 69.623
951.173, 171.466
952.426, 76.521
953.678, 52.369
954.931, 130.220
956.183, 13.926
957.435, 236.926
958.686, 63.630
959.938, 74.489
961.189, 121.350
962.440, 45.213
963.691, 109.080
964.941, 56.621
966.192, 35.499
967.442, 104.383
968.692, 33.270
969.942, 109.160
971.191, 106.052
972.441, 6.947
973.690, 120.844
974.939, 9.744
976.187, 53.646
977.436, 127.951
978.684, 5.859
979.932, 82.771
981.180, 32.316
982.428, 43.590
983.675, 147.499
984.922, 10.589
986.169, 125.323
987.416, 41.239
988.663, 74.843
989.909, 138.045
991.155, 55.065
992.401, 16.809
993.647, 97.556
994.893, 7.438
996.138, 149.322
997.383, 50.209
998.628, 74.118
999.873, 203.030
1001.117, 22.944
1002.362, 168.861
1003.606, 174.511
1004.850, 65.433
1006.093, 229.675
1007.337, 95.603
1008.580, 145.533
1009.823, 243.679
1011.066, 84.614
1012.308, 220.557
1013.551, 206.553
1014.793, 135.502
1016.035, 314.179
1017.277, 91.132
1018.518, 264.091
1019.760, 271.120
1021.001, 173.083
1022.242, 305.062
1023.483, 138.513
1024.723, 184.496
1025.964, 317.572
1027.204, 133.561
1028.444, 325.555
1029.683, 214.777
1030.923, 148.775
1032.162, 236.787
1033.401, 106.894
1034.640, 186.414
1035.879, 247.446
1037.117, 135.480
1038.355, 347.519
1039.593, 220.617
1040.831, 279.661
1042.069, 324.724
1043.306, 164.127
1044.544, 307.194
1045.781, 314.326
1047.017, 233.474
1048.254, 445.565
1049.490, 332.296
1050.726, 394.403
1051.962, 404.518
1053.198, 309.738
1054.434, 513.790
1055.669, 410.911
1056.904, 486.421
1058.139, 592.545
1059.374, 423.696
1060.608, 688.839
1061.843, 749.988
1063.077, 766.232
1064.311, 919.384
1065.544, 649.556
1066.778, 764.730
1068.011, 930.905
1069.244, 819.215
1070.477, 1093.406
1071.710, 1126.597
1072.942, 1288.072
1074.174, 1710.280
1075.406, 1767.488
1076.638, 2574.945
1077.870, 3706.155
1079.101, 5376.476
1080.332, 10170.690
1081.563, 20077.904
1082.794, 37594.977
1084.025, 45802.207
1085.255, 32479.447
1086.485, 18076.766
1087.715, 9604.002
1088.945, 5090.252
1090.175, 3449.503
1091.404, 2058.754
1092.633, 1556.010
1093.862, 1267.266
1095.091, 831.056
1096.319, 845.362
1097.548, 667.622
1098.776, 467.971
1100.004, 596.231
1101.231, 343.505
1102.459, 383.993
1103.686, 448.266
1104.913, 235.078
1106.140, 407.632
1107.367, 255.916
1108.593, 199.338
1109.819, 292.622
1111.046, 137.906
1112.271, 244.664
1113.497, 234.950
1114.722, 64.235
1115.948, 266.613
1117.173, 151.898
1118.398, 175.193
1119.622, 251.477
1120.847, 125.762
1122.071, 219.045
1123.295, 238.328
1124.519, 71.611
1125.742, 292.070
1126.966, 75.354
1128.189, 91.639
1129.412, 151.625
1130.635, 56.907
1131.857, 212.345
1133.080, 110.474
1134.302, 110.754
1135.524, 198.241
1136.746, 92.561
1137.967, 174.837
1139.188, 165.756
1140.410, 29.030
1141.631, 203.774
1142.851, 200.046
1144.072, 59.317
1145.292, 228.840
1146.512, 75.108
1147.732, 167.374
1148.952, 216.829
1150.172, 36.910
1151.391, 218.334
1152.610, 99.750
1153.829, 49.993
1155.048, 208.233
1156.266, 6.529
1157.484, 182.704
1158.702, 122.175
1159.920, 11.403
1161.138, 185.773
1162.356, 82.994
1163.573, 35.218
1164.790, 176.065
1166.007, 10.282
1167.224, 103.496
1168.440, 152.739
1169.656, 12.054
1170.872, 185.144
1172.088, 10.699
1173.304, 70.897
1174.519, 233.704
1175.735, 4.105
1176.950, 116.080
1178.165, 154.594
1179.379, 14.770
1180.594, 208.941
1181.808, 77.481
1183.022, 64.650
1184.236, 244.397
1185.449, 29.756
1186.663, 116.911
1187.876, 137.797
1189.089, 4.059
1190.302, 142.077
1191.515, 40.010
1192.727, 37.136
1193.939, 215.256
1195.151, 39.086
1196.363, 59.999
1197.575, 155.691
1198.786, 32.765
1199.997, 225.833
1201.208, 71.172
1202.419, 104.228
1203.630, 264.282
1204.840, 60.776
1206.051, 134.818
1207.261, 205.882
1208.470, 42.911
1209.680, 303.933
1210.889, 70.480
1212.099, 145.488
1213.308, 263.491
1214.516, 45.603
1215.725, 159.590
1216.933, 179.571
1218.142, 9.828
1219.350, 259.127
1220.557, 141.094
1221.765, 26.035
1222.972, 202.967
1224.180, 53.525
1225.387, 171.442
1226.593, 209.352
1227.800, 74.707
1229.006, 325.603
1230.213, 102.567
1231.419, 66.573
1232.624, 287.456
1233.830, 131.529
1235.035, 147.403
1236.241, 215.275
1237.446, 95.011
1238.650, 211.874
1239.855, 178.732
1241.059, 78.659
1242.264, 261.509
1243.468, 70.356
1244.671, 155.219
1245.875, 208.049
1247.078, 43.875
1248.282, 203.695
1249.485, 156.512
1250.687, 37.325
1251.890, 273.133
1253.092, 61.936
1254.295, 123.732
1255.497, 258.522
1256.699, 5.692
1257.900, 251.075
1259.102, 125.834
1260.303, 75.572
1261.504, 300.303
1262.705, 96.028
1263.905, 108.747
1265.106, 268.460
1266.306, 119.169
1267.506, 220.865
1268.706, 248.554
1269.905, 59.234
1271.105, 208.908
1272.304, 134.559
1273.503, 98.201
1274.702, 323.839
1275.900, 65.472
1277.099, 77.082
1278.297, 196.666
1279.495, 55.240
1280.693, 233.804
1281.891, 119.361
1283.088, 0.115
1284.285, 239.409
1285.482, 29.907
1286.679, 148.385
1287.876, 247.853
1289.072, 29.687
1290.268, 199.728
1291.464, 159.125
1292.660, 61.481
1293.856, 275.828
1295.051, 144.411
1296.247, 64.710
1297.442, 299.000
1298.637, 112.281
1299.831, 161.546
1301.026, 175.554
1302.220, 2.762
1303.414, 249.955
1304.608, 72.075
1305.802, 108.227
1306.995, 240.367
1308.188, 22.496
1309.381, 149.609
1310.574, 165.643
1311.767, 25.267
1312.960, 206.798
1314.152, 126.379
1315.344, 41.417
1316.536, 284.099
1317.728, 25.110
1318.919, 110.105
1320.110, 159.860
1321.301, 13.172
1322.492, 243.771
1323.683, 138.604
1324.874, 29.482
1326.064, 237.402
1327.254, 27.273
1328.444, 62.126
1329.634, 213.911
1330.823, 19.264
1332.013, 111.537
1333.202, 169.986
1334.391, 36.239
1335.580, 196.462
1336.768, 137.136
1337.956, 16.139
1339.145, 267.938
1340.333, 2.368
1341.520, 155.309
1342.708, 245.873
1343.895, 49.531
1345.083, 273.140
1346.270, 167.974
1347.456, 31.438
1348.643, 181.115
1349.829, 8.668
1351.016, 120.208
1352.202, 233.645
1353.387, 48.832
1354.573, 130.663
1355.759, 184.259
1356.944, 26.261
1358.129, 260.079
1359.314, 118.533
1360.498, 21.973
1361.683, 358.137
1362.867, 94.757
1364.051, 118.190
1365.235, 249.369
1366.419, 20.797
1367.602, 215.124
1368.785, 116.538
1369.968, 48.038
1371.151, 200.347
1372.334, 78.828
1373.517, 68.114
1374.699, 323.465
1375.881, 4.801
1377.063, 161.118
1378.245, 304.374
1379.426, 13.576
1380.608, 286.861
1381.789, 238.904
1382.970, 81.862
1384.150, 331.958
1385.331, 165.193
1386.511, 91.778
1387.691, 303.872
1388.871, 117.046
1390.051, 213.219
1391.231, 307.382
1392.410, 122.330
1393.589, 266.468
1394.768, 275.576
1395.947, 143.373
1397.126, 341.221
1398.304, 219.310
1399.483, 174.715
1400.661, 493.177
1401.838, 140.098
1403.016, 478.079
1404.194, 559.804
1405.371, 521.560
1406.548, 933.530
1407.725, 1226.494
1408.901, 1545.779
1410.078, 1627.113
1411.254, 1860.576
1412.430, 1478.488
1413.606, 1348.106
1414.782, 835.449
1415.958, 768.387
1417.133, 718.197
1418.308, 343.539
1419.483, 514.238
1420.658, 358.042
1421.832, 193.409
1423.007, 419.801
1424.181, 256.393
1425.355, 206.917
1426.529, 429.319
1427.702, 80.156
1428.876, 305.145
1430.049, 346.582
1431.222, 92.085
1432.395, 345.627
1433.567, 220.907
1434.740, 150.082
1435.912, 422.560
1437.084, 151.461
1438.256, 170.480
1439.428, 404.520
1440.599, 85.316
1441.770, 199.514
1442.942, 356.190
1444.112, 78.722
1445.283, 325.955
1446.454, 271.732
1447.624, 34.255
1448.794, 374.563
1449.964, 117.912
1451.134, 109.270
1452.303, 335.554
1453.473, 33.766
1454.642, 149.901
1455.811, 296.961
1456.980, 24.023
1458.148, 263.000
1459.317, 273.943
1460.485, 43.793
1461.653, 366.587
1462.821, 222.301
1463.989, 116.018
1465.156, 324.655
1466.323, 77.337
1467.490, 189.005
1468.657, 310.767
1469.824, 23.568
1470.991, 234.417
1472.157, 223.263
1473.323, 16.284
1474.489, 352.443
1475.655, 182.670
1476.820, 60.861
1477.986, 305.322
1479.151, 20.814
1480.316, 118.410
1481.481, 300.018
1482.645, 26.643
1483.810, 177.295
1484.974, 298.111
1486.138, 7.531
1487.302, 311.866
1488.465, 155.321
1489.629, 66.848
1490.792, 306.457
1491.955, 72.145
1493.118, 136.917
1494.281, 311.754
1495.443, 3.350
1496.606, 166.580
1497.768, 280.532
1498.930, 12.904
1500.091, 275.167
1501.253, 191.097
1502.414, 4.722
1503.575, 306.756
1504.736, 93.631
1505.897, 55.648
1507.058, 350.695
1508.218, 66.104
1509.379, 190.417
1510.539, 282.533
1511.698, 0.000
##END=



