##NAMES=Rhodonite
##RRUFFID=R040041
##IDEAL CHEMISTRY=CaMn^2+^_3_Mn^2+^Si_5_O_15_
##LOCALITY=Franklin, Sussex County, New Jersey, USA
##OWNER=RRUFF
##SOURCE=University of Arizona Mineral Museum
##DESCRIPTION=Pink prismatic crystals
##STATUS=The identification of this mineral has been confirmed by X-ray diffraction and chemical analysis
##URL=rruff.info/R040041
##MEASURED CHEMISTRY=(Mn_0.63_Ca_0.21_Zn_0.12_Mg_0.02_Fe_0.02_)_Î£=1_Si_1.00_O_3_
##PIN_ID=L00324
##ORIENTATION=Laser parallel to (0 -1 -1). Fiducial mark perpendicular to laser is parallel to a [1 0 0]
54.966, 0.000
56.365, 97.534
57.765, 175.522
59.164, 322.413
60.563, 360.412
61.962, 421.875
63.360, 378.080
64.758, 257.490
66.157, 143.607
67.554, 15.167
68.952, 33.182
70.349, 8.325
71.747, 10.343
73.144, 126.652
74.540, 364.576
75.937, 465.363
77.333, 364.035
78.729, 203.508
80.125, 148.686
81.521, 69.492
82.916, 121.864
84.311, 274.749
85.706, 375.105
87.101, 628.897
88.496, 1172.094
89.890, 2085.672
91.284, 3542.644
92.678, 5652.007
94.071, 7837.687
95.465, 9443.700
96.858, 9294.429
98.251, 7930.990
99.644, 6546.755
101.036, 5525.669
102.428, 5578.718
103.820, 6849.901
105.212, 9110.213
106.604, 11957.656
107.995, 14535.224
109.387, 15485.919
110.777, 13714.741
112.168, 11019.686
113.559, 8474.754
114.949, 6860.950
116.339, 6457.270
117.729, 6509.713
119.119, 7015.279
120.508, 7739.972
121.897, 8214.790
123.286, 8571.733
124.675, 7892.801
126.063, 7059.990
127.452, 6260.795
128.840, 5598.570
130.228, 4988.103
131.615, 4167.765
133.003, 3530.552
134.390, 2827.465
135.777, 2557.823
137.164, 2243.410
138.550, 2125.709
139.937, 1951.708
141.323, 1831.463
142.709, 1718.473
144.094, 1813.502
145.480, 2082.487
146.865, 2488.420
148.250, 3195.413
149.635, 3894.466
151.019, 4492.583
152.403, 4833.760
153.788, 4829.007
155.171, 4312.325
156.555, 3743.712
157.939, 2900.173
159.322, 2506.706
160.705, 2232.316
162.088, 2342.000
163.470, 2464.760
164.853, 2625.598
166.235, 2794.515
167.617, 2637.512
168.998, 2471.588
170.380, 2284.743
171.761, 2298.978
173.142, 2253.293
174.523, 2503.686
175.904, 2562.155
177.284, 2532.702
178.664, 2392.326
180.044, 1842.024
181.424, 1387.804
182.803, 1091.693
184.183, 810.706
185.562, 694.791
186.940, 643.944
188.319, 586.173
189.698, 551.478
191.076, 447.849
192.454, 296.287
193.831, 249.792
195.209, 141.362
196.586, 123.998
197.963, 11.712
199.340, 39.479
200.717, 39.521
202.093, 13.322
203.470, 15.930
204.846, 98.240
206.221, 181.606
207.597, 336.030
208.972, 478.510
210.347, 341.042
211.722, 191.625
213.097, 89.262
214.472, 61.954
215.846, 39.300
217.220, 48.500
218.594, 82.650
219.967, 125.768
221.341, 96.177
222.714, 129.026
224.087, 92.380
225.460, 25.300
226.832, 35.657
228.204, 31.175
229.577, 8.634
230.948, 120.873
232.320, 136.738
233.692, 266.032
235.063, 370.096
236.434, 564.304
237.805, 788.970
239.175, 1052.531
240.545, 1295.885
241.916, 1689.334
243.286, 1985.873
244.655, 2309.500
246.025, 2519.208
247.394, 2727.755
248.763, 2869.623
250.132, 3161.565
251.501, 3768.581
252.869, 4349.667
254.237, 5393.824
255.605, 6671.047
256.973, 8014.336
258.340, 9307.689
259.708, 10066.105
261.075, 10266.586
262.442, 9736.137
263.808, 8994.746
265.175, 7507.421
266.541, 6230.161
267.907, 5164.967
269.273, 4265.850
270.639, 3794.808
272.004, 3346.836
273.369, 3252.927
274.734, 3025.085
276.099, 2948.315
277.463, 2762.615
278.828, 2522.973
280.192, 2121.393
281.556, 2047.860
282.919, 1553.442
284.283, 1000.943
285.646, 811.551
287.009, 529.204
288.372, 461.900
289.734, 397.640
291.097, 320.422
292.459, 267.239
293.821, 294.096
295.183, 265.993
296.544, 369.932
297.905, 399.910
299.266, 422.928
300.627, 543.979
301.988, 651.043
303.348, 739.094
304.709, 843.136
306.069, 1034.337
307.428, 1160.664
308.788, 1435.286
310.147, 1694.239
311.507, 1943.091
312.865, 2343.361
314.224, 2894.671
315.583, 3541.020
316.941, 4376.407
318.299, 5233.834
319.657, 5896.409
321.015, 6473.917
322.372, 6645.459
323.729, 6727.039
325.086, 6348.657
326.443, 6248.312
327.800, 5679.002
329.156, 5434.731
330.512, 5045.496
331.868, 4686.296
333.224, 4424.131
334.579, 4213.003
335.935, 3985.908
337.290, 3948.849
338.645, 3844.191
339.999, 3926.200
341.354, 3964.577
342.708, 4135.547
344.062, 4280.835
345.416, 4285.445
346.769, 4204.644
348.123, 3811.300
349.476, 3415.533
350.829, 3060.796
352.182, 2786.089
353.534, 2675.411
354.887, 2651.762
356.239, 2621.142
357.591, 2771.551
358.942, 2874.987
360.294, 2966.451
361.645, 3059.944
362.996, 2908.808
364.347, 2802.355
365.698, 2580.764
367.048, 2315.363
368.398, 2187.987
369.748, 1926.636
371.098, 1754.310
372.448, 1503.008
373.797, 1344.732
375.146, 1082.479
376.495, 871.251
377.844, 918.046
379.192, 764.217
380.540, 855.183
381.889, 798.209
383.236, 848.747
384.584, 963.369
385.932, 946.842
387.279, 997.649
388.626, 920.283
389.973, 743.736
391.319, 705.788
392.666, 445.875
394.012, 346.999
395.358, 145.159
396.704, 15.364
398.049, 3.622
399.394, 2.076
400.740, 63.732
402.084, 21.629
403.429, 34.020
404.774, 120.442
406.118, 318.893
407.462, 401.373
408.806, 520.882
410.150, 704.421
411.493, 976.988
412.836, 1300.582
414.179, 1603.204
415.522, 2028.853
416.865, 2587.528
418.207, 2878.229
419.549, 3118.957
420.891, 3092.710
422.233, 2819.340
423.575, 2427.521
424.916, 1871.663
426.257, 1636.158
427.598, 1336.547
428.939, 1264.282
430.279, 1326.167
431.619, 1336.136
432.959, 1520.183
434.299, 1741.309
435.639, 2046.960
436.978, 2027.456
438.318, 1987.537
439.657, 1674.953
440.996, 1341.765
442.334, 1071.515
443.673, 854.809
445.011, 609.481
446.349, 551.632
447.687, 462.800
449.024, 463.984
450.361, 526.184
451.699, 557.400
453.036, 586.632
454.372, 605.879
455.709, 678.142
457.045, 455.419
458.381, 517.713
459.717, 354.024
461.053, 209.351
462.388, 144.691
463.724, 80.048
465.059, 6.432
466.394, 24.169
467.728, 47.768
469.063, 7.373
470.397, 77.961
471.731, 10.570
473.065, 55.847
474.398, 304.290
475.732, 181.566
477.065, 507.243
478.398, 63.747
479.731, 19.732
481.063, 9.793
482.396, 75.333
483.728, 437.887
485.060, 782.458
486.391, 522.042
487.723, 293.646
489.054, 153.260
490.385, 338.891
491.716, 297.533
493.047, 241.186
494.377, 169.854
495.708, 344.530
497.038, 1197.234
498.368, 39.047
499.697, 1395.665
501.027, 56.615
502.356, 102.910
503.685, 174.250
505.014, 38.670
506.342, 67.107
507.671, 17.557
508.999, 92.985
510.327, 154.535
511.655, 348.091
512.982, 403.652
514.310, 605.224
515.637, 696.803
516.964, 734.388
518.291, 712.987
519.617, 651.605
520.944, 561.254
522.270, 389.932
523.596, 338.641
524.921, 237.372
526.247, 167.116
527.572, 110.868
528.897, 49.625
530.222, 62.385
531.547, 44.149
532.871, 71.916
534.196, 85.685
535.520, 104.463
536.844, 178.253
538.167, 273.054
539.491, 398.869
540.814, 615.690
542.137, 730.521
543.460, 842.370
544.783, 1035.229
546.105, 1043.105
547.427, 953.992
548.749, 780.881
550.071, 739.773
551.393, 702.664
552.714, 699.556
554.035, 756.446
555.356, 743.336
556.677, 785.225
557.998, 788.104
559.318, 701.938
560.638, 597.146
561.958, 411.026
563.278, 313.905
564.597, 296.780
565.917, 241.652
567.236, 292.521
568.555, 282.387
569.874, 288.250
571.192, 320.108
572.511, 258.962
573.829, 218.812
575.147, 209.657
576.464, 143.498
577.782, 97.333
579.099, 92.164
580.416, 22.989
581.733, 7.200
583.050, 12.582
584.366, 10.654
585.683, 7.921
586.999, 29.219
588.315, 46.557
589.630, 62.947
590.946, 31.397
592.261, 15.891
593.576, 23.421
594.891, 51.992
596.206, 44.620
597.520, 1.300
598.834, 7.010
600.148, 38.246
601.462, 36.487
602.776, 77.712
604.089, 108.928
605.402, 93.135
606.715, 146.334
608.028, 108.524
609.341, 170.704
610.653, 161.875
611.965, 207.037
613.277, 261.189
614.589, 300.373
615.901, 343.412
617.212, 349.369
618.523, 409.608
619.834, 433.816
621.145, 440.362
622.456, 534.321
623.766, 520.879
625.076, 651.816
626.386, 650.025
627.696, 790.345
629.006, 752.964
630.315, 922.694
631.624, 914.880
632.933, 1022.153
634.242, 1178.827
635.551, 1256.499
636.859, 1389.593
638.167, 1527.548
639.475, 1674.529
640.783, 1834.151
642.090, 2089.206
643.398, 2209.684
644.705, 2517.625
646.012, 2740.623
647.318, 3054.827
648.625, 3578.069
649.931, 4110.203
651.237, 4768.088
652.543, 5662.877
653.849, 6838.984
655.155, 8388.312
656.460, 10186.064
657.765, 12822.820
659.070, 15841.891
660.375, 20228.818
661.679, 26141.600
662.984, 32506.797
664.288, 39274.047
665.592, 46016.402
666.895, 49947.238
668.199, 50520.926
669.502, 47737.578
670.805, 42058.914
672.108, 36725.754
673.411, 30319.461
674.713, 25275.209
676.016, 21638.570
677.318, 18604.381
678.620, 16459.439
679.921, 14424.244
681.223, 12780.658
682.524, 11048.063
683.825, 9570.039
685.126, 7457.747
686.427, 6148.231
687.727, 4859.745
689.028, 4069.183
690.328, 3368.528
691.628, 2947.884
692.927, 2547.624
694.227, 2134.492
695.526, 1918.743
696.825, 1862.044
698.124, 1588.386
699.423, 1534.633
700.721, 1449.841
702.020, 1340.015
703.318, 1289.169
704.616, 1353.304
705.913, 1425.421
707.211, 1528.519
708.508, 1866.598
709.805, 2123.658
711.102, 2398.699
712.399, 2869.721
713.695, 3049.724
714.992, 3129.708
716.288, 2893.674
717.584, 2511.629
718.879, 2143.565
720.175, 1712.482
721.470, 1639.379
722.765, 1344.258
724.060, 1289.118
725.355, 1141.958
726.649, 1106.779
727.944, 1167.582
729.238, 1201.365
730.532, 1282.884
731.825, 1451.875
733.119, 1522.840
734.412, 1681.310
735.705, 1864.998
736.998, 2146.817
738.291, 2348.090
739.584, 2601.407
740.876, 2643.377
742.168, 2470.459
743.460, 2257.198
744.752, 1954.794
746.043, 1575.309
747.334, 1293.752
748.626, 1006.118
749.916, 756.963
751.207, 617.969
752.498, 525.391
753.788, 471.481
755.078, 319.179
756.368, 280.941
757.658, 250.625
758.947, 207.008
760.237, 226.377
761.526, 149.731
762.815, 111.071
764.104, 150.396
765.392, 95.706
766.680, 101.002
767.969, 79.284
769.257, 65.551
770.544, 38.803
771.832, 29.038
773.119, 49.255
774.406, 51.456
775.693, 27.642
776.980, 22.191
778.267, 24.937
779.553, 72.046
780.839, 29.147
782.125, 5.759
783.411, 29.308
784.697, 47.625
785.982, 29.606
787.267, 15.630
788.552, 6.687
789.837, 0.336
791.122, 4.176
792.406, 7.977
793.690, 1.826
794.974, 8.652
796.258, 0.541
797.542, 11.240
798.825, 15.997
800.108, 37.734
801.391, 5.548
802.674, 16.143
803.957, 20.818
805.239, 2.522
806.522, 72.115
807.804, 55.260
809.085, 11.685
810.367, 9.137
811.649, 55.397
812.930, 15.081
814.211, 31.430
815.492, 15.954
816.772, 62.509
818.053, 47.936
819.333, 24.595
820.613, 17.121
821.893, 39.634
823.173, 44.099
824.452, 4.374
825.732, 9.099
827.011, 20.559
828.290, 28.993
829.568, 39.575
830.847, 95.193
832.125, 83.906
833.403, 80.797
834.681, 59.412
835.959, 28.252
837.236, 6.121
838.514, 0.119
839.791, 22.809
841.068, 11.192
842.345, 23.276
843.621, 40.350
844.898, 17.584
846.174, 40.538
847.450, 27.521
848.726, 34.529
850.001, 24.437
851.277, 9.395
852.552, 26.343
853.827, 30.284
855.102, 46.218
856.376, 33.144
857.651, 78.063
858.925, 96.975
860.199, 66.881
861.473, 80.779
862.746, 107.671
864.020, 190.557
865.293, 143.437
866.566, 252.310
867.839, 299.178
869.112, 376.039
870.384, 469.895
871.656, 536.750
872.928, 641.600
874.200, 767.444
875.472, 734.283
876.744, 745.117
878.015, 757.949
879.286, 673.777
880.557, 701.606
881.828, 641.430
883.098, 669.253
884.369, 604.078
885.639, 659.900
886.909, 587.718
888.178, 618.532
889.448, 607.343
890.717, 597.154
891.987, 600.974
893.256, 538.798
894.524, 542.630
895.793, 523.478
897.061, 520.346
898.330, 550.238
899.598, 568.155
900.865, 654.095
902.133, 697.051
903.401, 782.033
904.668, 872.043
905.935, 1040.075
907.202, 1224.116
908.468, 1422.173
909.735, 1772.244
911.001, 2132.327
912.267, 2402.407
913.533, 2587.488
914.799, 2733.567
916.064, 2533.651
917.330, 2432.733
918.595, 2193.815
919.860, 2003.912
921.124, 1836.009
922.389, 1668.071
923.653, 1591.892
924.918, 1452.539
926.182, 1447.516
927.445, 1407.514
928.709, 1432.170
929.972, 1490.403
931.236, 1637.031
932.499, 1913.141
933.761, 2371.883
935.024, 3108.246
936.286, 3007.011
937.549, 3320.795
938.811, 3087.734
940.073, 2766.583
941.334, 2326.021
942.596, 1948.927
943.857, 1772.099
945.118, 1472.465
946.379, 1307.553
947.640, 1299.993
948.900, 1275.992
950.161, 1294.557
951.421, 1278.661
952.681, 1338.699
953.940, 1483.521
955.200, 1557.458
956.459, 1579.172
957.719, 1848.296
958.978, 2009.519
960.236, 2211.417
961.495, 2522.091
962.753, 3030.960
964.012, 3509.194
965.270, 4294.780
966.527, 5446.944
967.785, 6718.968
969.043, 8303.288
970.300, 9875.984
971.557, 11559.163
972.814, 12782.281
974.071, 13276.557
975.327, 12938.868
976.583, 12058.482
977.840, 11487.574
979.095, 10793.809
980.351, 10646.991
981.607, 10918.548
982.862, 11588.651
984.117, 12359.507
985.372, 14286.592
986.627, 15346.065
987.882, 17793.537
989.136, 20759.428
990.390, 22943.576
991.644, 25155.936
992.898, 25208.258
994.152, 23922.641
995.405, 22217.115
996.659, 20951.570
997.912, 21409.629
999.165, 22673.553
1000.417, 24712.080
1001.670, 26600.551
1002.922, 29267.971
1004.174, 28948.475
1005.426, 27296.012
1006.678, 23555.570
1007.930, 19772.133
1009.181, 16296.714
1010.432, 13351.299
1011.683, 11227.892
1012.934, 9635.495
1014.185, 8740.105
1015.435, 7852.727
1016.685, 7310.358
1017.935, 6774.996
1019.185, 6532.644
1020.435, 6350.301
1021.684, 5986.945
1022.934, 5974.617
1024.183, 5977.295
1025.432, 5643.983
1026.680, 5722.679
1027.929, 5576.051
1029.177, 5386.889
1030.425, 5078.631
1031.673, 4856.462
1032.921, 4454.740
1034.169, 4060.785
1035.416, 3742.713
1036.663, 3436.977
1037.911, 3067.377
1039.157, 2953.178
1040.404, 2764.975
1041.650, 2622.894
1042.897, 2638.759
1044.143, 2399.618
1045.389, 2478.660
1046.634, 2431.929
1047.880, 2445.562
1049.125, 2360.591
1050.371, 2162.088
1051.615, 2195.561
1052.860, 1924.212
1054.105, 1835.191
1055.349, 1660.335
1056.593, 1381.361
1057.837, 1278.285
1059.081, 1090.950
1060.325, 1011.847
1061.568, 948.746
1062.812, 853.867
1064.055, 780.885
1065.298, 794.854
1066.540, 692.920
1067.783, 750.979
1069.025, 652.743
1070.267, 732.707
1071.509, 728.197
1072.751, 688.478
1073.993, 787.576
1075.234, 786.586
1076.475, 743.769
1077.716, 771.176
1078.957, 702.309
1080.198, 677.414
1081.438, 658.429
1082.679, 606.617
1083.919, 505.840
1085.159, 512.984
1086.398, 468.123
1087.638, 453.298
1088.877, 448.825
1090.116, 401.122
1091.355, 373.426
1092.594, 362.708
1093.833, 382.799
1095.071, 337.517
1096.309, 317.852
1097.547, 318.178
1098.785, 258.380
1100.023, 286.905
1101.260, 249.216
1102.498, 284.342
1103.735, 251.580
1104.972, 259.111
1106.208, 281.656
1107.445, 254.422
1108.681, 262.159
1109.918, 272.788
1111.154, 242.386
1112.389, 290.890
1113.625, 289.168
1114.860, 267.479
1116.096, 261.755
1117.331, 292.441
1118.566, 276.545
1119.800, 264.974
1121.035, 246.535
1122.269, 341.975
1123.503, 474.012
1124.737, 447.828
1125.971, 311.073
1127.205, 337.659
1128.438, 245.909
1129.671, 200.064
1130.904, 189.503
1132.137, 218.623
1133.370, 200.978
1134.602, 182.601
1135.834, 216.900
1137.066, 134.206
1138.298, 159.531
1139.530, 131.063
1140.762, 167.687
1141.993, 115.988
1143.224, 171.598
1144.455, 119.473
1145.686, 108.807
1146.917, 173.249
1148.147, 192.589
1149.377, 160.136
1150.607, 85.256
1151.837, 121.810
1153.067, 135.332
1154.296, 117.887
1155.526, 138.376
1156.755, 114.912
1157.984, 115.440
1159.213, 92.242
1160.441, 124.696
1161.670, 84.262
1162.898, 178.018
1164.126, 18.752
1165.354, 52.064
1166.581, 134.864
1167.809, 63.170
1169.036, 29.430
1170.263, 32.775
1171.490, 27.039
1172.717, 92.229
1173.943, 68.544
1175.170, 20.243
1176.396, 0.929
1177.622, 27.530
1178.848, 4.795
1180.073, 14.871
1181.299, 30.708
1182.524, 1.604
1183.749, 7.090
1184.974, 49.486
1186.199, 32.845
1187.423, 46.866
1188.648, 10.123
1189.872, 26.350
1191.096, 30.460
1192.320, 24.370
1193.543, 27.370
1194.767, 16.057
1195.990, 1.903
1197.213, 29.129
1198.436, 11.205
1199.659, 46.296
1200.881, 19.048
1202.104, 1.195
1203.326, 16.646
1204.548, 16.444
1205.770, 43.635
1206.991, 30.861
1208.213, 68.885
1209.434, 4.620
1210.655, 31.344
1211.876, 13.945
1213.096, 23.746
1214.317, 27.426
1215.537, 56.907
1216.757, 53.716
1217.977, 19.672
1219.197, 0.920
1220.417, 27.498
1221.636, 51.062
1222.855, 11.616
1224.074, 15.844
1225.293, 27.672
1226.512, 9.826
1227.731, 62.655
1228.949, 23.123
1230.167, 16.579
1231.385, 39.213
1232.603, 42.642
1233.820, 40.057
1235.038, 12.541
1236.255, 19.835
1237.472, 21.196
1238.689, 29.542
1239.906, 77.876
1241.122, 3.196
1242.338, 24.496
1243.555, 28.780
1244.771, 61.053
1245.986, 39.620
1247.202, 40.602
1248.417, 113.797
1249.633, 61.963
1250.848, 21.892
1252.063, 5.788
1253.277, 40.722
1254.492, 9.297
1255.706, 5.702
1256.920, 15.266
1258.134, 18.783
1259.348, 14.867
1260.562, 14.978
1261.775, 14.117
1262.988, 36.280
1264.201, 5.530
1265.414, 41.319
1266.627, 24.092
1267.839, 0.841
1269.052, 8.430
1270.264, 14.271
1271.476, 87.952
1272.688, 16.383
1273.899, 87.254
1275.111, 7.872
1276.322, 47.466
1277.533, 10.041
1278.744, 79.593
1279.955, 32.128
1281.165, 126.645
1282.376, 108.146
1283.586, 98.627
1284.796, 49.077
1286.006, 36.510
1287.215, 103.913
1288.425, 38.296
1289.634, 0.341
1290.843, 95.997
1292.052, 72.314
1293.261, 97.615
1294.469, 49.896
1295.678, 16.158
1296.886, 48.398
1298.094, 53.619
1299.302, 47.824
1300.509, 60.008
1301.717, 49.536
1302.924, 50.320
1304.131, 27.449
1305.338, 64.557
1306.545, 44.647
1307.752, 29.718
1308.958, 30.769
1310.164, 93.798
1311.370, 27.809
1312.576, 92.799
1313.782, 68.771
1314.987, 112.745
1316.193, 95.679
1317.398, 132.595
1318.603, 80.491
1319.807, 103.370
1321.012, 75.559
1322.216, 51.275
1323.421, 6.600
1324.625, 62.024
1325.829, 99.703
1327.032, 107.754
1328.236, 1.654
1329.439, 44.422
1330.642, 41.393
1331.845, 83.069
1333.048, 117.740
1334.251, 66.278
1335.453, 91.862
1336.656, 75.442
1337.858, 154.832
1339.060, 41.984
1340.261, 110.764
1341.463, 104.139
1342.664, 182.036
1343.866, 192.950
1345.067, 34.676
1346.267, 107.064
1347.468, 129.279
1348.669, 84.602
1349.869, 115.019
1351.069, 123.686
1352.269, 156.111
1353.469, 143.525
1354.668, 157.710
1355.868, 205.989
1357.067, 171.309
1358.266, 191.434
1359.465, 155.738
1360.664, 162.328
1361.862, 160.678
1363.061, 155.678
1364.259, 172.388
1365.457, 169.814
1366.655, 176.039
1367.852, 196.086
1369.050, 143.902
1370.247, 176.991
1371.444, 163.115
1372.641, 106.329
1373.838, 188.365
1375.035, 46.357
1376.231, 141.368
1377.427, 106.373
1378.623, 143.427
1379.819, 93.049
1381.015, 109.895
1382.211, 161.722
1383.406, 129.778
1384.601, 138.791
1385.796, 126.090
1386.991, 168.695
1388.185, 115.332
1389.380, 68.602
1390.574, 150.367
1391.768, 156.281
1392.962, 118.672
1394.156, 116.407
1395.350, 111.335
1396.543, 81.482
1397.736, 92.251
1398.929, 107.083
1400.122, 72.133
1401.315, 97.778
1402.507, 105.388
1403.700, 111.354
1404.892, 122.496
1406.084, 108.457
1407.276, 165.468
1408.467, 96.967
1409.659, 97.702
1410.850, 134.829
1412.041, 164.641
1413.232, 135.346
1414.423, 117.705
1415.614, 66.038
1416.804, 152.276
1417.994, 118.197
1419.184, 181.952
1420.374, 130.983
1421.564, 153.103
1422.753, 82.300
1423.943, 162.870
1425.132, 113.268
1426.321, 101.284
1427.510, 124.552
1428.698, 102.993
1429.887, 131.730
1431.075, 81.494
1432.263, 147.614
1433.451, 96.631
1434.639, 82.474
1435.827, 92.773
1437.014, 101.096
1438.201, 143.851
1439.388, 108.035
1440.575, 82.348
1441.762, 42.676
1442.949, 91.975
1444.135, 145.258
1445.321, 75.539
1446.507, 110.816
1447.693, 90.071
1448.879, 109.295
1450.064, 117.509
1451.250, 94.710
1452.435, 119.522
1453.620, 149.655
1454.805, 116.768
1455.989, 156.864
1457.174, 116.925
1458.358, 154.968
1459.542, 75.827
1460.726, 94.847
1461.910, 111.938
1463.093, 186.117
1464.277, 57.383
1465.460, 43.684
1466.643, 190.015
1467.826, 112.346
1469.009, 150.651
1470.191, 87.954
1471.373, 128.261
1472.556, 100.571
1473.738, 91.883
1474.919, 142.213
1476.101, 155.552
1477.283, 146.881
1478.464, 115.250
1479.645, 127.685
1480.826, 103.172
1482.007, 124.681
1483.187, 139.203
1484.368, 150.748
1485.548, 174.298
1486.728, 84.864
1487.908, 110.441
