##NAMES=Rhodonite
##RRUFFID=R040041
##IDEAL CHEMISTRY=CaMn^2+^_3_Mn^2+^Si_5_O_15_
##LOCALITY=Franklin, Sussex County, New Jersey, USA
##OWNER=RRUFF
##SOURCE=University of Arizona Mineral Museum
##DESCRIPTION=Pink prismatic crystals
##STATUS=The identification of this mineral has been confirmed by X-ray diffraction and chemical analysis
##URL=rruff.info/R040041
##MEASURED CHEMISTRY=(Mn_0.63_Ca_0.21_Zn_0.12_Mg_0.02_Fe_0.02_)_Î£=1_Si_1.00_O_3_
##PIN_ID=L00464
##ORIENTATION=Laser parallel to (1 0 1). Fiducial mark perpendicular to laser is parallel to b [0 1 0]
105.336, 0.000
106.729, 604.733
108.121, 1874.034
109.513, 3068.177
110.905, 3645.053
112.297, 3716.846
113.688, 2907.691
115.079, 1886.438
116.470, 1046.510
117.861, 676.370
119.251, 520.702
120.642, 657.013
122.032, 914.709
123.422, 1345.992
124.811, 1577.225
126.201, 1810.973
127.590, 1974.738
128.979, 2035.118
130.367, 2047.063
131.756, 1833.339
133.144, 1751.681
134.532, 1562.412
135.920, 1454.280
137.307, 1418.435
138.695, 1430.452
140.082, 1386.143
141.469, 1088.679
142.856, 781.210
144.242, 438.860
145.628, 79.734
147.014, 36.077
148.400, 152.497
149.786, 183.447
151.171, 114.378
152.556, 148.659
153.941, 317.461
155.325, 493.614
156.710, 465.049
158.094, 573.282
159.478, 549.708
160.862, 459.318
162.245, 379.108
163.629, 395.275
165.012, 449.456
166.395, 510.908
167.777, 596.136
169.160, 722.077
170.542, 864.863
171.924, 832.835
173.306, 962.964
174.687, 985.245
176.068, 1034.670
177.449, 982.232
178.830, 942.919
180.211, 713.721
181.591, 530.635
182.972, 328.658
184.351, 289.788
185.731, 427.021
187.111, 405.355
188.490, 546.767
189.869, 610.257
191.248, 619.904
192.626, 436.735
194.005, 384.761
195.383, 243.979
196.761, 53.383
198.139, 111.032
199.516, 203.280
200.893, 195.841
202.271, 298.758
203.647, 228.745
205.024, 213.572
206.400, 48.134
207.777, 43.519
209.152, 271.267
210.528, 330.996
211.904, 534.727
213.279, 484.521
214.654, 526.362
216.029, 414.272
217.403, 359.278
218.778, 225.363
220.152, 96.500
221.526, 74.664
222.900, 18.143
224.273, 33.083
225.646, 105.658
227.019, 21.372
228.392, 91.058
229.765, 38.716
231.137, 5.652
232.509, 18.954
233.881, 185.462
235.253, 180.712
236.625, 301.638
237.996, 556.224
239.367, 868.712
240.738, 1038.247
242.108, 1443.826
243.479, 1887.447
244.849, 2031.109
246.219, 2377.810
247.589, 2238.498
248.958, 2075.107
250.328, 1865.631
251.697, 1675.124
253.065, 1453.639
254.434, 1361.193
255.803, 1329.786
257.171, 1368.417
258.539, 1526.086
259.906, 1665.790
261.274, 1770.529
262.641, 1668.303
264.008, 1602.110
265.375, 1467.962
266.742, 1192.861
268.108, 1113.807
269.475, 1037.804
270.840, 950.790
272.206, 976.946
273.572, 1031.307
274.937, 1148.447
276.302, 1136.120
277.667, 1049.164
279.032, 971.495
280.396, 981.029
281.760, 751.691
283.125, 726.408
284.488, 467.179
285.852, 385.000
287.215, 256.830
288.578, 177.660
289.941, 86.484
291.304, 144.268
292.666, 124.684
294.029, 37.010
295.391, 96.222
296.753, 19.391
298.114, 128.496
299.476, 225.552
300.837, 168.198
302.198, 124.223
303.558, 196.796
304.919, 243.266
306.279, 331.727
307.639, 443.257
308.999, 420.995
310.359, 574.963
311.718, 664.999
313.077, 864.128
314.436, 1020.245
315.795, 1173.587
317.154, 1512.799
318.512, 1878.484
319.870, 2216.733
321.228, 2344.885
322.586, 2678.122
323.943, 2777.323
325.300, 3024.487
326.657, 3040.805
328.014, 3215.377
329.371, 3241.639
330.727, 3236.662
332.083, 3391.402
333.439, 3375.273
334.795, 3459.166
336.150, 3343.080
337.506, 3187.014
338.861, 3230.968
340.215, 3204.941
341.570, 3309.673
342.924, 3413.682
344.279, 3537.708
345.633, 3651.751
346.986, 3583.560
348.340, 3579.884
349.693, 3343.973
351.046, 3058.077
352.399, 2792.195
353.752, 2595.326
355.104, 2649.470
356.457, 2704.627
357.809, 2758.793
359.160, 2812.972
360.512, 2916.464
361.863, 3031.431
363.214, 2880.927
364.565, 2750.662
365.916, 2470.900
367.267, 2197.576
368.617, 1977.243
369.967, 1636.647
371.317, 1380.787
372.666, 1138.294
374.016, 1000.590
375.365, 815.893
376.714, 775.164
378.063, 654.374
379.411, 527.711
380.760, 426.927
382.108, 500.146
383.456, 481.367
384.803, 513.519
386.151, 659.078
387.498, 626.216
388.845, 837.770
390.192, 805.212
391.539, 814.656
392.885, 704.181
394.231, 655.263
395.577, 570.909
396.923, 553.144
398.269, 491.380
399.614, 630.619
400.959, 553.862
402.304, 664.110
403.649, 899.363
404.993, 1091.619
406.337, 1422.991
407.681, 1684.254
409.025, 2028.521
410.369, 2361.792
411.712, 2936.065
413.055, 3450.343
414.398, 4224.625
415.741, 5128.909
417.084, 6123.198
418.426, 7167.489
419.768, 7581.963
421.110, 7486.261
422.452, 7072.676
423.793, 6057.358
425.134, 5052.354
426.475, 3987.798
427.816, 3222.416
429.157, 2468.054
430.497, 2117.271
431.837, 1730.932
433.177, 1593.930
434.517, 1390.561
435.857, 1394.573
437.196, 1370.643
438.535, 1204.717
439.874, 1110.622
441.213, 1019.997
442.551, 696.064
443.889, 634.483
445.227, 440.700
446.565, 382.563
447.903, 344.390
449.240, 395.203
450.577, 278.633
451.914, 269.947
453.251, 287.500
454.588, 315.659
455.924, 254.842
457.260, 246.909
458.596, 249.091
459.932, 185.124
461.267, 5.151
462.602, 32.154
463.938, 44.834
465.272, 43.867
466.607, 139.929
467.941, 30.082
469.276, 53.731
470.610, 23.532
471.943, 79.313
473.277, 31.083
474.610, 8.863
475.944, 69.648
477.276, 79.434
478.609, 76.210
479.942, 49.975
481.274, 96.738
482.606, 40.491
483.938, 54.255
485.270, 32.965
486.601, 19.176
487.932, 23.504
489.263, 18.764
490.594, 1.064
491.925, 2.638
493.255, 83.322
494.585, 143.018
495.915, 111.706
497.245, 104.387
498.575, 171.078
499.904, 91.758
501.233, 6.428
502.562, 116.081
503.891, 102.721
505.219, 167.351
506.548, 179.968
507.876, 266.678
509.203, 369.167
510.531, 471.782
511.859, 569.399
513.186, 699.004
514.513, 646.596
515.840, 639.180
517.166, 736.751
518.493, 625.325
519.819, 510.885
521.145, 526.435
522.470, 524.035
523.796, 226.685
525.121, 254.387
526.446, 169.167
527.771, 145.010
529.096, 8.908
530.421, 5.811
531.745, 39.695
533.069, 72.564
534.393, 73.423
535.716, 83.320
537.040, 108.075
538.363, 71.882
539.686, 122.674
541.009, 119.450
542.331, 187.218
543.654, 162.972
544.976, 331.711
546.298, 247.450
547.620, 172.181
548.941, 297.935
550.263, 205.689
551.584, 154.464
552.905, 88.243
554.225, 231.016
555.546, 203.789
556.866, 286.547
558.186, 145.287
559.506, 242.009
560.826, 167.715
562.145, 144.403
563.465, 179.073
564.784, 100.727
566.103, 214.361
567.421, 261.977
568.740, 305.575
570.058, 401.155
571.376, 272.717
572.694, 375.260
574.011, 260.785
575.329, 287.291
576.646, 276.779
577.963, 97.248
579.279, 169.696
580.596, 4.876
581.912, 66.514
583.228, 41.881
584.544, 19.223
585.860, 77.534
587.175, 12.823
588.491, 0.080
589.806, 6.699
591.121, 43.521
592.435, 37.405
593.750, 43.348
595.064, 12.351
596.378, 12.399
597.692, 73.494
599.006, 17.323
600.319, 12.543
601.632, 112.190
602.945, 47.099
604.258, 89.452
605.571, 52.205
606.883, 53.271
608.195, 92.158
609.507, 116.019
610.819, 71.930
612.131, 145.568
613.442, 143.894
614.753, 213.614
616.064, 204.425
617.375, 222.860
618.685, 268.944
619.995, 324.649
621.306, 197.385
622.615, 371.108
623.925, 243.573
625.235, 284.294
626.544, 294.643
627.853, 354.512
629.162, 403.860
630.471, 541.232
631.779, 494.716
633.087, 514.465
634.395, 649.925
635.703, 695.903
637.011, 784.209
638.318, 894.544
639.625, 930.578
640.932, 1031.936
642.239, 1078.102
643.546, 1291.115
644.852, 1494.884
646.158, 1550.670
647.464, 1890.501
648.770, 1976.919
650.076, 2207.959
651.381, 2615.053
652.686, 3107.275
653.991, 3619.731
655.296, 4636.172
656.600, 5507.992
657.905, 6889.956
659.209, 8531.112
660.513, 10922.790
661.817, 13744.443
663.120, 17536.070
664.423, 21267.801
665.726, 24969.383
667.029, 27768.883
668.332, 28873.385
669.635, 27695.055
670.937, 24866.742
672.239, 21478.982
673.541, 17790.711
674.842, 15525.348
676.144, 12676.749
677.445, 11328.320
678.746, 9934.309
680.047, 8895.635
681.348, 7977.627
682.648, 6758.906
683.948, 5691.385
685.248, 4432.854
686.548, 3933.319
687.848, 3083.668
689.147, 2634.747
690.447, 2185.774
691.746, 1786.893
693.044, 1577.901
694.343, 1389.154
695.641, 1250.216
696.940, 1110.116
698.238, 1034.063
699.535, 895.012
700.833, 835.935
702.130, 732.833
703.427, 716.704
704.724, 820.551
706.021, 799.372
707.318, 715.169
708.614, 664.939
709.910, 1051.568
711.206, 952.287
712.502, 1112.981
713.798, 1053.649
715.093, 1024.292
716.388, 1104.909
717.683, 729.500
718.978, 956.067
720.272, 679.608
721.567, 716.012
722.861, 530.503
724.155, 637.969
725.448, 515.410
726.742, 399.828
728.035, 368.220
729.328, 478.588
730.621, 382.931
731.914, 542.250
733.206, 346.545
734.499, 660.636
735.791, 619.884
737.083, 491.993
738.374, 718.812
739.666, 678.297
740.957, 509.312
742.248, 667.133
743.539, 528.909
744.830, 492.085
746.120, 478.795
747.410, 346.157
748.701, 374.866
749.990, 261.166
751.280, 231.378
752.570, 316.554
753.859, 84.863
755.148, 204.663
756.437, 165.735
757.725, 195.419
759.014, 163.267
760.302, 124.513
761.590, 2.593
762.878, 54.723
764.166, 55.196
765.453, 39.746
766.740, 95.018
768.027, 71.647
769.314, 37.752
770.601, 41.880
771.887, 127.491
773.174, 19.914
774.460, 196.639
775.745, 80.821
777.031, 4.646
778.316, 54.896
779.602, 12.482
780.887, 9.062
782.172, 11.338
783.456, 32.715
784.741, 83.073
786.025, 4.585
787.309, 79.728
788.593, 44.025
789.876, 3.306
791.160, 68.561
792.443, 20.201
793.726, 121.001
795.009, 70.812
796.291, 83.688
797.574, 228.369
798.856, 48.574
800.138, 53.558
801.420, 125.409
802.702, 75.629
803.983, 163.277
805.264, 72.826
806.545, 11.010
807.826, 0.170
809.107, 65.371
810.387, 87.373
811.667, 46.104
812.947, 54.819
814.227, 143.524
815.507, 121.207
816.786, 240.896
818.065, 69.563
819.344, 98.219
820.623, 123.140
821.902, 44.577
823.180, 53.947
824.459, 42.458
825.737, 9.043
827.014, 19.437
828.292, 52.098
829.569, 96.327
830.847, 34.742
832.124, 76.854
833.401, 81.498
834.677, 10.160
835.954, 108.164
837.230, 23.522
838.506, 14.772
839.782, 53.055
841.057, 51.331
842.333, 9.603
843.608, 97.864
844.883, 36.117
846.158, 124.361
847.433, 12.599
848.707, 20.825
849.981, 89.045
851.255, 42.744
852.529, 155.442
853.803, 173.621
855.076, 221.794
856.350, 169.960
857.623, 178.120
858.895, 316.275
860.168, 344.423
861.441, 352.565
862.713, 330.703
863.985, 418.835
865.257, 706.963
866.528, 835.085
867.800, 1143.203
869.071, 1421.317
870.342, 1599.443
871.613, 2017.565
872.884, 1995.688
874.154, 2233.807
875.425, 2171.936
876.695, 2180.062
877.965, 1878.186
879.234, 1716.308
880.504, 1654.428
881.773, 1422.546
883.042, 1280.680
884.311, 1018.812
885.580, 1136.939
886.848, 895.090
888.117, 1013.239
889.385, 841.408
890.653, 759.605
891.920, 777.804
893.188, 606.022
894.455, 534.244
895.722, 452.469
896.989, 440.701
898.256, 478.940
899.523, 327.205
900.789, 545.501
902.055, 403.814
903.321, 302.165
904.587, 580.527
905.852, 498.937
907.118, 547.033
908.383, 605.488
909.648, 683.980
910.913, 922.474
912.177, 1000.989
913.442, 1039.465
914.706, 1136.510
915.970, 1004.711
917.233, 972.924
918.497, 851.063
919.760, 909.458
921.024, 857.760
922.287, 802.443
923.550, 800.635
924.812, 919.188
926.075, 1015.078
927.337, 1053.689
928.599, 1075.817
929.861, 1413.336
931.122, 1707.153
932.384, 1853.666
933.645, 2590.429
934.906, 3158.411
936.167, 3446.639
937.428, 3835.085
938.688, 3212.262
939.948, 2840.714
941.208, 2219.024
942.468, 1756.801
943.728, 1435.233
944.987, 1161.604
946.247, 1080.275
947.506, 1033.542
948.765, 886.037
950.023, 899.528
951.282, 872.811
952.540, 884.019
953.798, 932.738
955.056, 925.957
956.314, 1024.688
957.572, 1128.172
958.829, 1126.510
960.086, 1534.602
961.343, 1598.694
962.600, 2077.396
963.856, 2275.938
965.113, 2804.530
966.369, 3603.330
967.625, 4502.137
968.881, 5770.951
970.136, 6699.693
971.392, 7828.559
972.647, 8529.495
973.902, 8505.423
975.157, 8124.166
976.411, 7812.876
977.666, 7141.021
978.920, 6809.666
980.174, 6845.384
981.428, 6724.327
982.682, 7673.084
983.935, 7867.411
985.188, 9256.386
986.441, 10474.682
987.694, 11983.673
988.947, 14241.674
990.199, 15610.448
991.452, 16599.412
992.704, 16378.387
993.956, 15067.200
995.207, 14446.279
996.459, 14135.247
997.710, 14594.396
998.961, 16013.351
1000.212, 17512.355
1001.463, 19601.533
1002.714, 20358.982
1003.964, 19638.188
1005.214, 18017.400
1006.464, 15316.906
1007.714, 12976.173
1008.964, 10905.524
1010.213, 9244.980
1011.462, 8314.286
1012.711, 7403.859
1013.960, 6853.183
1015.209, 6212.520
1016.457, 5882.023
1017.705, 5451.431
1018.954, 5551.227
1020.201, 5154.154
1021.449, 4983.842
1022.697, 4713.980
1023.944, 4693.471
1025.191, 4766.294
1026.438, 4645.805
1027.685, 4505.335
1028.931, 4365.531
1030.177, 4055.180
1031.423, 4054.736
1032.669, 3598.516
1033.915, 3638.088
1035.161, 3317.675
1036.406, 3282.854
1037.651, 3112.460
1038.896, 3236.505
1040.141, 3381.268
1041.386, 3900.900
1042.630, 3964.512
1043.874, 4434.158
1045.118, 4864.499
1046.362, 5074.582
1047.606, 5294.252
1048.849, 5157.023
1050.092, 4599.263
1051.336, 4268.953
1052.578, 3731.992
1053.821, 3231.840
1055.064, 2579.447
1056.306, 2099.704
1057.548, 1879.422
1058.790, 1244.764
1060.032, 1424.496
1061.273, 1144.234
1062.515, 759.256
1063.756, 819.002
1064.997, 789.290
1066.237, 859.594
1067.478, 639.359
1068.718, 529.780
1069.959, 759.670
1071.199, 899.450
1072.438, 469.640
1073.678, 799.443
1074.918, 439.249
1076.157, 579.538
1077.396, 639.360
1078.635, 389.212
1079.873, 599.073
1081.112, 518.955
1082.350, 419.572
1083.588, 509.479
1084.826, 339.563
1086.064, 319.662
1087.301, 359.578
1088.539, 399.836
1089.776, 229.855
1091.013, 289.777
1092.250, 240.122
1093.486, 231.781
1094.723, 99.988
1095.959, 249.930
1097.195, 189.892
1098.431, 150.443
1099.666, 230.428
1100.902, 20.428
1102.137, 233.009
1103.372, 233.021
1104.607, 143.054
1105.842, 423.736
1107.076, 353.788
1108.311, 144.225
1109.545, 395.075
1110.779, 115.140
1112.012, 175.717
1113.246, 365.846
1114.479, 45.902
1115.712, 236.053
1116.945, 56.095
1118.178, 44.301
1119.411, 354.398
1120.643, 94.424
1121.875, 276.475
1123.108, 606.607
1124.339, 336.661
1125.571, 447.022
1126.802, 47.065
1128.034, 177.325
1129.265, 77.441
1130.496, 77.609
1131.727, 88.248
1132.957, 108.664
1134.187, 88.712
1135.418, 115.031
1136.648, 0.790
1137.877, 149.337
1139.107, 102.610
1140.336, 122.604
1141.566, 203.092
1142.795, 95.338
1144.023, 95.384
1145.252, 177.453
1146.480, 157.394
1147.709, 197.382
1148.937, 168.437
1150.165, 48.342
1151.392, 189.398
1152.620, 189.933
1153.847, 19.825
1155.074, 247.459
1156.301, 78.219
1157.528, 58.305
1158.755, 158.863
1159.981, 38.735
1161.207, 239.010
1162.433, 119.285
1163.659, 69.132
1164.885, 231.881
1166.110, 31.698
1167.336, 58.488
1168.561, 78.103
1169.786, 2.183
1171.010, 189.034
1172.235, 50.316
1173.459, 139.342
1174.683, 139.847
1175.907, 0.202
1177.131, 119.750
1178.355, 160.293
1179.578, 60.205
1180.801, 249.614
1182.024, 220.701
1183.247, 79.871
1184.470, 210.157
1185.692, 60.100
1186.915, 70.747
1188.137, 269.782
1189.359, 50.744
1190.580, 168.535
1191.802, 8.639
1193.023, 67.896
1194.244, 217.137
1195.465, 33.375
1196.686, 24.169
1197.907, 175.476
1199.127, 35.354
1200.347, 143.773
1201.567, 106.632
1202.787, 52.436
1204.007, 281.481
1205.226, 68.202
1206.446, 240.792
1207.665, 239.775
1208.884, 61.033
1210.102, 277.828
1211.321, 66.676
1212.539, 65.601
1213.758, 304.413
1214.976, 43.638
1216.193, 172.413
1217.411, 361.169
1218.628, 110.097
1219.846, 238.792
1221.063, 257.454
1222.280, 96.000
1223.496, 264.519
1224.713, 333.150
1225.929, 211.994
1227.145, 370.368
1228.361, 49.763
1229.577, 268.081
1230.793, 176.374
1232.008, 175.012
1233.223, 353.070
1234.438, 141.269
1235.653, 199.249
1236.868, 307.188
1238.082, 125.908
1239.297, 283.779
1240.511, 241.605
1241.725, 250.524
1242.938, 298.271
1244.152, 95.985
1245.365, 233.657
1246.578, 301.295
1247.791, 1.106
1249.004, 296.444
1250.217, 313.957
1251.429, 82.069
1252.642, 459.487
1253.854, 146.863
1255.066, 64.198
1256.277, 431.483
1257.489, 118.728
1258.700, 225.923
1259.911, 243.076
1261.122, 220.382
1262.333, 477.445
1263.544, 85.554
1264.754, 231.814
1265.964, 398.688
1267.174, 15.526
1268.384, 232.372
1269.594, 259.079
1270.803, 175.747
1272.013, 482.374
1273.222, 198.960
1274.431, 235.486
1275.640, 221.971
1276.848, 108.414
1278.057, 165.342
1279.265, 251.692
1280.473, 148.002
1281.681, 335.463
1282.888, 231.450
1284.096, 2.103
1285.303, 314.015
1286.510, 140.097
1287.717, 16.670
1288.924, 242.633
1290.131, 141.552
1291.337, 274.585
1292.543, 250.103
1293.749, 55.504
1294.955, 271.878
1296.161, 55.371
1297.366, 114.611
1298.571, 333.520
1299.777, 67.599
1300.981, 91.229
1302.186, 230.303
1303.391, 119.130
1304.595, 283.927
1305.799, 181.772
1307.003, 176.928
1308.207, 385.604
1309.411, 146.589
1310.614, 487.335
1311.818, 435.868
1313.021, 51.958
1314.224, 365.507
1315.426, 39.190
1316.629, 76.589
1317.831, 454.249
1319.033, 85.651
1320.235, 99.657
1321.437, 487.846
1322.639, 64.998
1323.840, 455.817
1325.042, 166.870
1326.243, 23.756
1327.444, 450.578
1328.644, 107.062
1329.845, 173.977
1331.045, 451.359
1332.245, 48.085
1333.445, 225.391
1334.645, 311.676
1335.845, 88.654
1337.044, 325.577
1338.244, 332.113
1339.443, 208.630
1340.642, 455.703
1341.840, 162.734
1343.039, 308.906
1344.237, 452.022
1345.435, 158.926
1346.633, 574.796
1347.831, 349.778
1349.029, 55.755
1350.226, 452.397
1351.424, 358.973
1352.621, 202.122
1353.818, 525.299
1355.014, 271.627
1356.211, 247.520
1357.407, 543.409
1358.604, 168.480
1359.800, 724.124
1360.995, 369.622
1362.191, 219.655
1363.387, 584.902
1364.582, 326.572
1365.777, 339.118
1366.972, 357.698
1368.167, 215.783
1369.361, 160.016
1370.556, 347.514
1371.750, 40.627
1372.944, 364.586
1374.138, 278.401
1375.331, 94.205
1376.525, 272.710
1377.718, 153.057
1378.911, 224.469
1380.104, 484.184
1381.297, 25.366
1382.490, 498.084
1383.682, 447.388
1384.874, 1.938
1386.066, 567.867
1387.258, 310.208
1388.450, 380.438
1389.641, 522.003
1390.833, 182.691
1392.024, 364.508
1393.215, 494.622
1394.406, 31.868
1395.596, 352.799
1396.787, 422.894
1397.977, 263.310
1399.167, 472.186
1400.357, 242.222
1401.547, 211.280
1402.736, 411.244
1403.925, 110.751
1405.115, 299.242
1406.304, 494.729
1407.492, 42.617
1408.681, 402.712
1409.870, 163.616
1411.058, 130.310
1412.246, 444.988
1413.434, 255.371
1414.622, 315.658
1415.809, 375.824
1416.997, 231.775
1418.184, 451.719
1419.371, 321.629
1420.558, 21.555
1421.744, 519.859
1422.931, 319.900
1424.117, 14.083
1425.303, 675.185
1426.489, 75.733
1427.675, 246.253
1428.861, 417.259
1430.046, 30.006
1431.231, 370.335
1432.416, 535.090
1433.601, 42.908
1434.786, 514.297
1435.970, 145.420
1437.155, 0.592
1438.339, 0.000
##END=



