##NAMES=Rhodochrosite
##RRUFFID=R050019
##IDEAL CHEMISTRY=Mn^2+^CO_3_
##LOCALITY=Home Sweet Home mine, Colorado, USA
##OWNER=RRUFF
##SOURCE=Eugene Schlepp
##DESCRIPTION=Pink single crystal rhombs on quartz
##STATUS=The identification of this mineral has been confirmed by X-ray diffraction and chemical analysis
##URL=rruff.info/R050019
##MEASURED CHEMISTRY=Mn_1.00_CO_3_
##PIN_ID=L00392
##ORIENTATION=Laser parallel to -c* (0 0 -1). Fiducial mark perpendicular to laser is parallel to -a [-1 0 0]
98.070, 0.000
99.471, 0.759
100.871, 43.549
102.271, 30.108
103.670, 24.786
105.070, 29.963
106.469, 78.256
107.868, 113.415
109.267, 396.270
110.665, 252.686
112.063, 376.590
113.461, 117.880
114.859, 98.513
116.256, 86.445
117.653, 37.647
119.050, 58.084
120.447, 80.728
121.843, 43.553
123.240, 84.535
124.636, 40.656
126.031, 54.901
127.427, 50.257
128.822, 37.715
130.217, 68.297
131.612, 38.003
133.006, 54.785
134.400, 26.658
135.794, 61.672
137.188, 59.733
138.581, 59.848
139.975, 78.012
141.368, 33.236
142.760, 75.492
144.153, 47.778
145.545, 83.091
146.937, 42.431
148.329, 48.796
149.720, 64.185
151.112, 60.597
152.503, 64.719
153.893, 72.487
155.284, 62.972
156.674, 79.476
158.064, 82.001
159.454, 72.546
160.843, 97.108
162.233, 121.125
163.622, 112.971
165.011, 141.567
166.399, 137.193
167.787, 179.052
169.175, 178.156
170.563, 224.980
171.951, 343.726
173.338, 416.411
174.725, 654.106
176.112, 896.812
177.499, 1299.585
178.885, 1844.683
180.271, 2503.435
181.657, 3227.189
183.043, 3549.661
184.428, 3222.390
185.813, 2420.121
187.198, 1604.863
188.583, 1092.615
189.967, 655.375
191.351, 509.138
192.735, 349.919
194.119, 259.705
195.502, 216.497
196.885, 191.296
198.268, 134.101
199.651, 82.913
201.033, 107.731
202.415, 57.556
203.797, 70.388
205.179, 70.227
206.561, 63.074
207.942, 37.930
209.323, 36.793
210.703, 25.996
212.084, 23.867
213.464, 48.744
214.844, 50.630
216.224, 13.521
217.603, 37.599
218.983, 23.083
220.362, 25.407
221.741, 17.322
223.119, 18.241
224.497, 12.164
225.875, 20.781
227.253, 21.151
228.631, 6.913
230.008, 18.239
231.385, 30.391
232.762, 5.467
234.139, 37.404
235.515, 5.654
236.891, 30.684
238.267, 9.047
239.643, 13.157
241.018, 3.893
242.393, 0.474
243.768, 41.479
245.143, 26.443
246.517, 28.507
247.891, 24.459
249.265, 25.419
250.639, 9.383
252.012, 16.347
253.386, 9.535
254.759, 1.510
256.131, 7.609
257.504, 7.424
258.876, 14.546
260.248, 32.519
261.620, 16.493
262.991, 43.470
264.363, 2.947
265.734, 32.404
267.104, 13.009
268.475, 33.632
269.845, 51.321
271.215, 12.048
272.585, 18.063
273.955, 10.851
275.324, 36.546
276.693, 73.380
278.062, 39.235
279.431, 106.298
280.799, 119.187
282.167, 221.091
283.535, 251.008
284.903, 364.693
286.270, 427.634
287.638, 483.586
289.005, 522.548
290.371, 493.527
291.738, 440.516
293.104, 346.512
294.470, 250.516
295.836, 201.527
297.201, 147.547
298.567, 101.602
299.932, 68.605
301.296, 49.641
302.661, 57.682
304.025, 59.728
305.389, 56.778
306.753, 7.832
308.117, 48.890
309.480, 32.976
310.843, 32.042
312.206, 67.156
313.569, 23.228
314.931, 58.523
316.293, 28.601
317.655, 13.683
319.017, 33.767
320.378, 6.146
321.740, 26.942
323.101, 2.033
324.461, 32.126
325.822, 9.221
327.182, 12.313
328.542, 26.577
329.902, 8.671
331.261, 41.782
332.621, 7.879
333.980, 17.976
335.339, 2.926
336.697, 14.164
338.056, 34.256
339.414, 13.607
340.772, 19.703
342.129, 19.875
343.487, 13.972
344.844, 18.557
346.201, 8.168
347.557, 17.270
348.914, 12.373
350.270, 4.478
351.626, 1.416
352.982, 23.692
354.337, 47.800
355.693, 3.910
357.048, 35.022
358.402, 2.866
359.757, 10.247
361.111, 43.366
362.465, 18.514
363.819, 42.603
365.173, 1.278
366.526, 59.842
367.879, 22.962
369.232, 18.083
370.585, 40.205
371.937, 5.586
373.290, 16.617
374.642, 4.342
375.993, 11.779
377.345, 5.902
378.696, 2.976
380.047, 14.146
381.398, 6.303
382.748, 14.892
384.099, 6.452
385.449, 21.670
386.799, 24.792
388.148, 17.086
389.497, 38.473
390.847, 2.591
392.196, 25.599
393.544, 31.716
394.893, 14.808
396.241, 22.921
397.589, 7.130
398.936, 22.152
400.284, 19.264
401.631, 5.188
402.978, 27.297
404.325, 3.023
405.672, 23.124
407.018, 1.232
408.364, 0.023
409.710, 20.079
411.055, 17.814
412.401, 44.283
413.746, 18.380
415.091, 12.605
416.435, 18.702
417.780, 30.778
419.124, 34.869
420.468, 35.313
421.812, 19.880
423.155, 38.970
424.498, 22.061
425.842, 38.298
427.184, 17.391
428.527, 43.439
429.869, 30.162
431.211, 51.032
432.553, 41.131
433.895, 1.768
435.236, 25.331
436.577, 12.569
437.918, 43.524
439.259, 59.617
440.599, 0.290
441.940, 40.802
443.280, 14.894
444.619, 33.986
445.959, 9.920
447.298, 33.167
448.637, 43.255
449.976, 15.342
451.315, 66.448
452.653, 46.534
453.991, 38.620
455.329, 21.706
456.667, 12.791
458.004, 59.357
459.341, 42.443
460.678, 58.529
462.015, 44.614
463.352, 17.699
464.688, 55.782
466.024, 19.869
467.360, 52.955
468.695, 53.040
470.031, 7.125
471.366, 42.210
472.701, 6.294
474.035, 62.376
475.370, 1.457
476.704, 43.536
478.038, 36.613
479.372, 21.689
480.705, 55.764
482.038, 20.609
483.371, 68.682
484.704, 37.754
486.037, 11.824
487.369, 49.894
488.701, 2.962
490.033, 34.032
491.365, 9.100
492.696, 24.167
494.027, 27.233
495.358, 20.297
496.689, 25.234
498.019, 43.301
499.350, 1.367
500.680, 54.429
502.009, 6.490
503.339, 58.660
504.668, 21.718
505.997, 45.774
507.326, 40.875
508.655, 42.929
509.983, 72.987
511.311, 16.148
512.639, 36.105
513.967, 48.169
515.295, 16.231
516.622, 48.295
517.949, 19.358
519.276, 69.249
520.602, 63.498
521.929, 15.556
523.255, 69.636
524.581, 30.907
525.906, 55.844
527.232, 24.896
528.557, 15.946
529.882, 55.995
531.207, 8.068
532.531, 71.784
533.855, 25.845
535.179, 37.615
536.503, 13.663
537.827, 28.750
539.150, 41.576
540.473, 10.618
541.796, 44.659
543.119, 69.698
544.441, 42.329
545.764, 36.365
547.086, 44.399
548.407, 68.430
549.729, 51.463
551.050, 48.489
552.371, 52.519
553.692, 9.452
555.013, 87.566
556.333, 7.583
557.653, 41.597
558.973, 66.609
560.293, 13.620
561.612, 68.630
562.932, 4.362
564.251, 27.628
565.569, 24.628
566.888, 2.443
568.206, 64.445
569.524, 13.438
570.842, 75.333
572.160, 79.322
573.477, 6.310
574.795, 47.294
576.112, 26.277
577.428, 24.260
578.745, 49.242
580.061, 14.222
581.377, 36.201
582.693, 30.178
584.009, 6.170
585.324, 59.142
586.639, 8.887
587.954, 44.073
589.269, 5.967
590.583, 79.984
591.897, 43.933
593.212, 46.625
594.525, 74.573
595.839, 29.636
597.152, 32.580
598.465, 30.523
599.778, 46.305
601.091, 46.244
602.403, 30.181
603.716, 92.513
605.028, 50.691
606.339, 31.622
607.651, 86.552
608.962, 26.520
610.273, 65.389
611.584, 47.296
612.895, 37.201
614.205, 57.104
615.515, 1.993
616.825, 68.508
618.135, 53.403
619.444, 55.296
620.754, 110.187
622.063, 21.076
623.372, 105.785
624.680, 54.670
625.989, 72.569
627.297, 89.830
628.605, 63.684
629.912, 107.568
631.220, 49.413
632.527, 39.285
633.834, 78.936
635.141, 17.804
636.447, 81.670
637.754, 52.533
639.060, 95.395
640.366, 44.256
641.671, 27.114
642.977, 88.985
644.282, 94.839
645.587, 69.692
646.892, 96.317
648.196, 29.165
649.501, 108.996
650.805, 57.839
652.109, 80.681
653.412, 88.703
654.716, 36.541
656.019, 89.376
657.322, 37.952
658.625, 45.783
659.927, 9.558
661.230, 37.384
662.532, 73.211
663.834, 9.967
665.135, 41.846
666.437, 61.038
667.738, 10.846
669.039, 63.655
670.340, 66.781
671.640, 64.590
672.940, 49.042
674.241, 23.846
675.540, 95.652
676.840, 10.545
678.139, 33.248
679.439, 54.039
680.738, 7.832
682.036, 82.623
683.335, 38.417
684.633, 28.203
685.931, 65.077
687.229, 18.859
688.527, 76.559
689.824, 20.855
691.121, 35.638
692.418, 55.611
693.715, 18.389
695.012, 95.164
696.308, 48.938
697.604, 74.676
698.900, 114.445
700.195, 34.212
701.491, 112.978
702.786, 72.741
704.081, 99.502
705.376, 109.265
706.670, 90.026
707.964, 105.784
709.259, 141.539
710.552, 207.313
711.846, 327.064
713.139, 492.715
714.433, 1051.461
715.726, 1808.205
717.018, 3081.944
718.311, 3552.683
719.603, 2786.743
720.895, 1747.477
722.187, 936.209
723.479, 577.380
724.770, 341.108
726.061, 239.828
727.352, 195.557
728.643, 113.283
729.934, 102.878
731.224, 119.600
732.514, 75.774
733.804, 112.491
735.094, 70.206
736.383, 57.918
737.672, 77.628
738.961, 19.336
740.250, 95.895
741.539, 55.598
742.827, 76.347
744.115, 85.046
745.403, 35.971
746.691, 81.666
747.978, 56.358
749.265, 51.607
750.552, 118.297
751.839, 54.988
753.126, 81.677
754.412, 14.364
755.698, 55.050
756.984, 79.734
758.270, 0.415
759.555, 51.091
760.840, 44.769
762.125, 59.620
763.410, 56.294
764.695, 24.946
765.979, 53.615
767.263, 26.283
768.547, 41.949
769.831, 65.773
771.114, 4.047
772.398, 41.836
773.681, 59.489
774.964, 31.141
776.246, 43.790
777.529, 7.562
778.811, 36.078
780.093, 14.715
781.375, 0.650
782.656, 66.981
783.937, 16.609
785.219, 14.236
786.499, 59.862
787.780, 18.485
789.060, 85.108
790.341, 44.730
791.621, 81.350
792.901, 61.968
794.180, 24.585
795.459, 78.200
796.739, 13.814
798.017, 21.426
799.296, 73.037
800.575, 10.354
801.853, 29.246
803.131, 17.844
804.409, 52.441
805.686, 70.049
806.964, 14.357
808.241, 51.226
809.518, 27.807
810.795, 23.387
812.071, 49.986
813.347, 10.564
814.623, 75.031
815.899, 14.606
817.175, 36.181
818.450, 63.297
819.726, 18.131
821.001, 30.428
822.275, 29.589
823.550, 32.855
824.824, 75.702
826.098, 5.764
827.372, 31.763
828.646, 67.101
829.920, 45.625
831.193, 70.437
832.466, 21.959
833.739, 14.480
835.011, 58.431
836.284, 13.949
837.556, 36.466
838.828, 4.033
840.100, 25.547
841.371, 38.409
842.642, 3.079
843.914, 72.412
845.184, 14.083
846.455, 22.411
847.726, 65.862
848.996, 16.353
850.266, 45.844
851.536, 21.333
852.805, 14.822
854.075, 67.310
855.344, 14.797
856.613, 98.282
857.881, 90.767
859.150, 68.251
860.418, 53.734
861.686, 56.967
862.954, 74.698
864.222, 70.183
865.489, 46.667
866.756, 60.151
868.023, 48.634
869.290, 58.117
870.557, 47.598
871.823, 37.079
873.089, 30.563
874.355, 30.212
875.621, 29.528
876.886, 46.012
878.152, 61.495
879.417, 93.978
880.682, 33.461
881.946, 31.943
883.211, 64.424
884.475, 5.094
885.739, 60.383
887.003, 45.859
888.266, 42.335
889.530, 87.810
890.793, 47.285
892.056, 72.743
893.318, 43.218
894.581, 18.693
895.843, 55.172
897.105, 22.650
898.367, 8.134
899.629, 76.617
900.890, 7.890
902.152, 44.597
903.413, 47.084
904.673, 13.571
905.934, 54.058
907.194, 33.619
908.454, 59.998
909.714, 32.485
910.974, 29.580
912.234, 41.073
913.493, 2.434
914.752, 27.057
916.011, 48.548
917.270, 16.048
918.528, 55.552
919.786, 80.055
921.044, 2.441
922.302, 67.062
923.560, 4.040
924.817, 64.463
926.074, 5.967
927.331, 12.471
928.588, 46.975
929.844, 2.657
931.101, 58.162
932.357, 72.652
933.613, 24.777
934.868, 87.284
936.124, 10.784
937.379, 76.275
938.634, 61.784
939.889, 17.293
941.144, 58.803
942.398, 33.313
943.652, 10.824
944.906, 84.336
946.160, 43.849
947.414, 97.362
948.667, 31.862
949.920, 10.377
951.173, 71.893
952.426, 39.463
953.678, 45.980
954.931, 55.504
956.183, 0.028
957.435, 49.553
958.686, 8.896
959.938, 34.423
961.189, 53.952
962.440, 0.519
963.691, 41.010
964.941, 11.519
966.192, 9.052
967.442, 49.581
968.692, 13.884
969.942, 36.651
971.191, 55.805
972.441, 16.658
973.690, 53.875
974.939, 22.910
976.187, 17.616
977.436, 35.498
978.684, 19.972
979.932, 60.551
981.180, 13.924
982.428, 24.603
983.675, 35.132
984.922, 17.338
986.169, 21.189
987.416, 48.714
988.663, 2.752
989.909, 56.695
991.155, 29.768
992.401, 5.760
993.647, 45.778
994.893, 9.315
996.138, 47.661
997.383, 72.201
998.628, 89.743
999.873, 158.287
1001.117, 100.833
1002.362, 167.382
1003.606, 159.932
1004.850, 122.484
1006.093, 204.038
1007.337, 107.594
1008.580, 145.157
1009.823, 167.721
1011.066, 133.287
1012.308, 214.856
1013.551, 187.426
1014.793, 173.999
1016.035, 251.573
1017.277, 228.150
1018.518, 263.728
1019.760, 247.308
1021.001, 263.890
1022.242, 324.476
1023.483, 264.064
1024.723, 256.654
1025.964, 271.246
1027.204, 197.840
1028.444, 260.436
1029.683, 252.034
1030.923, 252.633
1032.162, 261.236
1033.401, 199.841
1034.640, 231.992
1035.879, 237.604
1037.117, 184.217
1038.355, 287.833
1039.593, 272.456
1040.831, 307.080
1042.069, 360.717
1043.306, 357.380
1044.544, 439.020
1045.781, 405.667
1047.017, 439.695
1048.254, 481.346
1049.490, 467.108
1050.726, 525.205
1051.962, 552.862
1053.198, 500.521
1054.434, 651.181
1055.669, 608.844
1056.904, 617.508
1058.139, 740.175
1059.374, 745.179
1060.608, 909.859
1061.843, 1139.563
1063.077, 1265.115
1064.311, 1258.810
1065.544, 1107.509
1066.778, 1194.891
1068.011, 1289.594
1069.244, 1279.298
1070.477, 1592.844
1071.710, 1815.551
1072.942, 2047.115
1074.174, 2559.828
1075.406, 3085.544
1076.638, 4078.301
1077.870, 5822.019
1079.101, 8878.789
1080.332, 16477.514
1081.563, 33056.242
1082.794, 62274.992
1084.025, 63603.742
1085.255, 56752.484
1086.485, 30991.236
1087.715, 16549.990
1088.945, 9238.745
1090.175, 5802.499
1091.404, 3574.256
1092.633, 2529.035
1093.862, 1951.795
1095.091, 1442.556
1096.319, 1295.368
1097.548, 1006.134
1098.776, 822.983
1100.004, 784.752
1101.231, 617.527
1102.459, 621.348
1103.686, 563.128
1104.913, 452.896
1106.140, 490.777
1107.367, 396.567
1108.593, 352.357
1109.819, 356.150
1111.046, 259.923
1112.271, 270.718
1113.497, 226.515
1114.722, 241.313
1115.948, 228.130
1117.173, 212.346
1118.398, 186.153
1119.622, 269.025
1120.847, 194.133
1122.071, 222.046
1123.295, 189.852
1124.519, 181.681
1125.742, 201.513
1126.966, 153.533
1128.189, 130.368
1129.412, 180.816
1130.635, 101.652
1131.857, 184.490
1133.080, 122.680
1134.302, 138.520
1135.524, 149.342
1136.746, 64.132
1137.967, 148.975
1139.188, 124.824
1140.410, 106.668
1141.631, 151.648
1142.851, 107.496
1144.072, 110.349
1145.292, 143.351
1146.512, 68.205
1147.732, 129.060
1148.952, 104.105
1150.172, 54.961
1151.391, 58.816
1152.610, 76.773
1153.829, 100.629
1155.048, 125.552
1156.266, 90.408
1157.484, 106.265
1158.702, 89.302
1159.920, 84.159
1161.138, 97.113
1162.356, 89.969
1163.573, 34.825
1164.790, 88.767
1166.007, 33.623
1167.224, 58.478
1168.440, 90.823
1169.656, 49.678
1170.872, 87.593
1172.088, 61.562
1173.304, 37.415
1174.519, 58.319
1175.735, 43.171
1176.950, 64.046
1178.165, 70.193
1179.379, 40.043
1180.594, 70.034
1181.808, 49.419
1183.022, 44.268
1184.236, 73.330
1185.449, 17.418
1186.663, 44.264
1187.876, 43.387
1189.089, 5.266
1190.302, 55.142
1191.515, 31.072
1192.727, 10.086
1193.939, 69.780
1195.151, 38.213
1196.363, 86.603
1197.575, 53.549
1198.786, 48.368
1199.997, 78.181
1201.208, 23.227
1202.419, 60.037
1203.630, 107.894
1204.840, 24.178
1206.051, 41.615
1207.261, 13.639
1208.470, 12.448
1209.680, 108.301
1210.889, 46.841
1212.099, 12.373
1213.308, 124.402
1214.516, 42.175
1215.725, 85.945
1216.933, 75.730
1218.142, 4.710
1219.350, 77.475
1220.557, 24.240
1221.765, 15.035
1222.972, 85.795
1224.180, 13.841
1225.387, 47.596
1226.593, 95.598
1227.800, 57.844
1229.006, 135.670
1230.213, 47.490
1231.419, 40.441
1232.624, 107.178
1233.830, 67.016
1235.035, 75.751
1236.241, 85.486
1237.446, 27.443
1238.650, 65.176
1239.855, 42.931
1241.059, 22.235
1242.264, 94.960
1243.468, 14.811
1244.671, 55.534
1245.875, 99.257
1247.078, 13.800
1248.282, 34.916
1249.485, 77.631
1250.687, 13.068
1251.890, 116.780
1253.092, 48.490
1254.295, 74.329
1255.497, 96.037
1256.699, 38.751
1257.900, 72.824
1259.102, 42.520
1260.303, 37.608
1261.504, 104.294
1262.705, 67.981
1263.905, 27.887
1265.106, 115.569
1266.306, 19.248
1267.506, 78.964
1268.706, 88.641
1269.905, 46.316
1271.105, 90.989
1272.304, 53.663
1273.503, 22.332
1274.702, 107.000
1275.900, 69.666
1277.099, 52.402
1278.297, 59.064
1279.495, 9.280
1280.693, 99.368
1281.891, 53.006
1283.088, 0.625
1284.285, 65.240
1285.482, 11.150
1286.679, 71.453
1287.876, 87.051
1289.072, 14.646
1290.268, 68.236
1291.464, 56.809
1292.660, 10.362
1293.856, 110.905
1295.051, 51.444
1296.247, 25.981
1297.442, 122.511
1298.637, 8.960
1299.831, 71.559
1301.026, 61.073
1302.220, 13.552
1303.414, 72.025
1304.608, 28.493
1305.802, 55.956
1306.995, 84.412
1308.188, 31.864
1309.381, 97.305
1310.574, 60.741
1311.767, 1.170
1312.960, 124.592
1314.152, 39.001
1315.344, 26.404
1316.536, 55.800
1317.728, 42.187
1318.919, 60.553
1320.110, 48.911
1321.301, 7.262
1322.492, 90.605
1323.683, 21.941
1324.874, 1.270
1326.064, 128.590
1327.254, 13.901
1328.444, 9.795
1329.634, 65.496
1330.823, 26.220
1332.013, 48.047
1333.202, 49.834
1334.391, 6.913
1335.580, 62.329
1336.768, 50.184
1337.956, 20.412
1339.145, 92.523
1340.333, 24.737
1341.520, 54.944
1342.708, 89.145
1343.895, 12.339
1345.083, 68.526
1346.270, 44.790
1347.456, 24.035
1348.643, 73.799
1349.829, 11.955
1351.016, 22.916
1352.202, 40.213
1353.387, 2.655
1354.573, 55.452
1355.759, 70.885
1356.944, 55.982
1358.129, 91.075
1359.314, 52.283
1360.498, 14.367
1361.683, 88.362
1362.867, 74.933
1364.051, 48.997
1365.235, 111.017
1366.419, 9.075
1367.602, 59.071
1368.785, 12.127
1369.968, 45.892
1371.151, 38.055
1372.334, 39.163
1373.517, 16.053
1374.699, 100.723
1375.881, 33.294
1377.063, 67.862
1378.245, 78.404
1379.426, 15.910
1380.608, 82.374
1381.789, 53.917
1382.970, 1.342
1384.150, 128.756
1385.331, 29.267
1386.511, 63.772
1387.691, 122.271
1388.871, 17.744
1390.051, 121.218
1391.231, 137.622
1392.410, 0.026
1393.589, 87.430
1394.768, 118.880
1395.947, 31.218
1397.126, 143.656
1398.304, 58.909
1399.483, 9.324
1400.661, 120.266
1401.838, 10.738
1403.016, 74.456
1404.194, 130.829
1405.371, 19.953
1406.548, 126.183
1407.725, 121.143
1408.901, 52.477
1410.078, 173.564
1411.254, 81.755
1412.430, 143.953
1413.606, 196.263
1414.782, 67.885
1415.958, 119.930
1417.133, 156.146
1418.308, 46.395
1419.483, 158.242
1420.658, 136.509
1421.832, 88.446
1423.007, 167.810
1424.181, 93.467
1425.355, 100.890
1426.529, 177.989
1427.702, 81.872
1428.876, 147.821
1430.049, 96.597
1431.222, 97.668
1432.395, 152.233
1433.567, 171.477
1434.740, 143.105
1435.912, 195.140
1437.084, 143.181
1438.256, 152.802
1439.428, 266.826
1440.599, 144.782
1441.770, 151.243
1442.942, 200.964
1444.112, 129.535
1445.283, 183.984
1446.454, 152.621
1447.624, 125.974
1448.794, 236.707
1449.964, 109.237
1451.134, 81.682
1452.303, 163.872
1453.473, 87.516
1454.642, 130.449
1455.811, 141.685
1456.980, 96.167
1458.148, 155.740
1459.317, 130.692
1460.485, 54.482
1461.653, 148.802
1462.821, 79.983
1463.989, 52.227
1465.156, 141.429
1466.323, 82.590
1467.490, 96.485
1468.657, 160.564
1469.824, 53.683
1470.991, 133.840
1472.157, 98.948
1473.323, 5.990
1474.489, 182.170
1475.655, 77.377
1476.820, 69.534
1477.986, 141.640
1479.151, 43.823
1480.316, 96.094
1481.481, 147.345
1482.645, 56.585
1483.810, 119.830
1484.974, 118.082
1486.138, 14.355
1487.302, 124.721
1488.465, 40.187
1489.629, 39.669
1490.792, 128.172
1491.955, 27.719
1493.118, 96.305
1494.281, 157.169
1495.443, 29.623
1496.606, 91.104
1497.768, 105.614
1498.930, 8.148
1500.091, 106.714
1501.253, 72.447
1502.414, 4.037
1503.575, 140.115
1504.736, 85.740
1505.897, 61.463
1507.058, 105.174
1508.218, 32.825
1509.379, 73.298
1510.539, 86.223
1511.698, 0.031
1512.858, 78.427
1514.018, 0.000
##END=



