##NAMES=Rhodochrosite
##RRUFFID=R040133
##IDEAL CHEMISTRY=Mn^2+^CO_3_
##LOCALITY=Imuris, Sonora, Mexico
##OWNER=RRUFF
##SOURCE=University of Arizona Mineral Museum
##DESCRIPTION=Pink cleavage fragment
##STATUS=The identification of this mineral has been confirmed by X-ray diffraction and chemical analysis
##URL=rruff.info/R040133
##MEASURED CHEMISTRY=(Mn_0.92_Mg_0.02_Ca_0.01_)C_1.02_O_3_
##PIN_ID=L00279
##ORIENTATION=Laser parallel to a* (1 0 0). Fiducial mark perpendicular to laser is parallel to c [0 0 1]
137.863, 0.000
139.245, 0.507
140.626, 25.428
142.007, 12.506
143.388, 16.060
144.768, 4.387
146.149, 19.660
147.529, 30.045
148.909, 18.055
150.289, 30.706
151.669, 22.353
153.048, 13.055
154.427, 7.843
155.806, 1.650
157.185, 0.254
158.564, 1.636
159.942, 4.251
161.320, 18.911
162.698, 21.648
164.076, 24.309
165.454, 16.888
166.831, 1.397
168.209, 15.847
169.586, 9.833
170.962, 20.163
172.339, 34.826
173.715, 27.135
175.092, 48.841
176.468, 46.472
177.843, 75.952
179.219, 76.453
180.594, 144.177
181.970, 163.217
183.345, 214.357
184.719, 214.092
186.094, 205.766
187.468, 204.205
188.843, 152.106
190.217, 103.952
191.590, 67.803
192.964, 56.659
194.337, 36.531
195.711, 43.397
197.084, 29.267
198.456, 22.143
199.829, 7.022
201.201, 7.904
202.574, 22.790
203.946, 32.678
205.317, 14.568
206.689, 6.463
208.060, 19.364
209.432, 15.266
210.803, 5.829
212.173, 9.078
213.544, 3.987
214.914, 6.897
216.285, 17.809
217.655, 1.723
219.024, 7.638
220.394, 3.557
221.763, 0.516
223.133, 13.418
224.502, 21.357
225.870, 14.300
227.239, 10.246
228.607, 2.805
229.976, 5.859
231.344, 9.086
232.711, 5.966
234.079, 5.984
235.446, 2.934
236.814, 0.115
238.181, 20.838
239.547, 11.792
240.914, 17.749
242.280, 28.706
243.647, 33.672
245.013, 41.638
246.378, 49.603
247.744, 22.571
249.109, 14.538
250.475, 28.520
251.840, 26.519
253.204, 25.504
254.569, 30.489
255.933, 28.549
257.298, 34.389
258.662, 28.502
260.025, 45.477
261.389, 46.453
262.753, 52.423
264.116, 90.394
265.479, 57.387
266.842, 68.349
268.204, 104.305
269.567, 96.281
270.929, 137.235
272.291, 161.190
273.653, 180.160
275.014, 254.354
276.376, 301.362
277.737, 395.330
279.098, 529.305
280.459, 743.303
281.820, 1020.347
283.180, 1313.250
284.540, 1763.224
285.900, 2228.197
287.260, 2753.170
288.620, 2945.143
289.979, 3099.116
291.339, 3001.089
292.698, 2621.061
294.056, 2046.033
295.415, 1615.005
296.774, 1252.978
298.132, 963.956
299.490, 695.935
300.848, 595.913
302.206, 435.120
303.563, 361.311
304.920, 306.488
306.277, 255.647
307.634, 232.787
308.991, 203.903
310.347, 181.016
311.704, 181.093
313.060, 151.165
314.416, 135.227
315.772, 129.285
317.127, 106.331
318.482, 111.352
319.837, 80.155
321.192, 85.042
322.547, 95.992
323.902, 76.974
325.256, 65.044
326.610, 51.076
327.964, 77.145
329.318, 66.172
330.671, 64.092
332.025, 60.115
333.378, 56.130
334.731, 54.158
336.084, 52.161
337.436, 49.185
338.789, 46.186
340.141, 43.184
341.493, 52.294
342.844, 53.287
344.196, 62.278
345.547, 32.268
346.899, 29.889
348.250, 24.866
349.600, 36.846
350.951, 39.814
352.302, 21.782
353.652, 25.782
355.002, 34.855
356.352, 31.824
357.701, 36.793
359.051, 32.784
360.400, 18.011
361.749, 24.981
363.098, 29.280
364.446, 12.198
365.795, 15.169
367.143, 20.196
368.491, 28.160
369.839, 15.241
371.187, 2.213
372.534, 34.178
373.882, 22.616
375.229, 25.549
376.576, 25.451
377.922, 21.373
379.269, 22.344
380.615, 28.218
381.961, 13.155
383.307, 45.062
384.653, 27.880
385.998, 20.855
387.344, 23.835
388.689, 13.825
390.034, 8.781
391.379, 16.481
392.723, 17.970
394.068, 14.909
395.412, 20.398
396.756, 20.324
398.099, 14.226
399.443, 8.140
400.786, 22.123
402.130, 20.075
403.473, 28.080
404.815, 18.076
406.158, 22.411
407.501, 12.506
408.843, 9.866
410.185, 2.507
411.527, 5.456
412.868, 24.423
414.210, 33.395
415.551, 28.544
416.892, 29.015
418.233, 26.980
419.574, 26.956
420.914, 8.921
422.254, 32.893
423.595, 16.856
424.934, 21.819
426.274, 38.804
427.614, 35.766
428.953, 23.731
430.292, 18.692
431.631, 34.652
432.970, 26.643
434.308, 29.638
435.647, 27.608
436.985, 34.606
438.323, 25.596
439.661, 23.554
440.998, 28.511
442.336, 21.468
443.673, 23.424
445.010, 24.380
446.347, 20.739
447.683, 24.992
449.020, 17.245
450.356, 25.199
451.692, 24.178
453.028, 13.144
454.364, 34.552
455.699, 13.700
457.034, 35.939
458.369, 29.927
459.704, 43.878
461.039, 24.828
462.374, 52.777
463.708, 31.768
465.042, 24.715
466.376, 37.661
467.710, 25.605
469.043, 24.548
470.377, 39.490
471.710, 28.433
473.043, 12.377
474.376, 18.321
475.708, 25.264
477.041, 19.207
478.373, 37.149
479.705, 28.090
481.037, 16.057
482.368, 33.034
483.700, 32.974
485.031, 5.914
486.362, 32.853
487.693, 4.848
489.024, 19.785
490.354, 24.724
491.684, 26.659
493.014, 8.595
494.344, 15.529
495.674, 31.462
497.004, 11.395
498.333, 31.326
499.662, 29.273
500.991, 0.797
502.320, 17.131
503.648, 33.058
504.977, 15.985
506.305, 9.089
507.633, 19.831
508.961, 11.750
510.288, 19.668
511.616, 24.586
512.943, 6.502
514.270, 0.557
515.597, 21.357
516.924, 17.272
518.250, 9.185
519.576, 18.898
520.902, 19.004
522.228, 5.094
523.554, 14.804
524.880, 23.729
526.205, 1.630
527.530, 11.534
528.855, 1.551
530.180, 14.348
531.504, 12.192
532.829, 15.118
534.153, 18.363
535.477, 12.915
536.801, 16.813
538.124, 16.710
539.448, 13.610
540.771, 12.506
542.094, 11.990
543.417, 10.867
544.740, 9.212
546.062, 12.107
547.384, 7.001
548.707, 10.894
550.028, 8.766
551.350, 15.660
552.672, 16.697
553.993, 23.448
555.314, 16.342
556.635, 15.236
557.956, 2.130
559.277, 11.005
560.597, 13.896
561.917, 5.786
563.237, 7.676
564.557, 4.437
565.877, 16.553
567.196, 11.316
568.515, 5.173
569.835, 19.873
571.153, 18.711
572.472, 12.583
573.791, 1.547
575.109, 6.680
576.427, 20.185
577.745, 11.048
579.063, 20.910
580.380, 11.751
581.698, 16.611
583.015, 29.470
584.332, 8.328
585.649, 16.194
586.965, 13.052
588.282, 16.918
589.598, 19.785
590.914, 6.645
592.230, 5.566
593.546, 11.428
594.861, 4.284
596.176, 6.150
597.492, 14.007
598.807, 19.872
600.121, 19.096
601.436, 22.665
602.750, 17.442
604.064, 23.290
605.378, 22.094
606.692, 22.982
608.006, 17.827
609.319, 7.670
610.632, 10.512
611.946, 5.646
613.258, 1.523
614.571, 2.970
615.884, 4.896
617.196, 15.749
618.508, 26.575
619.820, 25.400
621.132, 3.224
622.443, 21.055
623.755, 15.973
625.066, 13.793
626.377, 23.620
627.688, 21.789
628.998, 26.828
630.309, 28.212
631.619, 24.018
632.929, 22.069
634.239, 20.575
635.548, 28.714
636.858, 16.536
638.167, 8.358
639.476, 6.189
640.785, 24.015
642.094, 26.845
643.403, 23.612
644.711, 2.412
646.019, 21.318
647.327, 14.115
648.635, 14.919
649.943, 27.728
651.250, 31.501
652.557, 19.300
653.864, 25.095
655.171, 36.879
656.478, 10.681
657.785, 36.474
659.091, 20.174
660.397, 36.021
661.703, 26.810
663.009, 36.598
664.314, 14.766
665.620, 27.552
666.925, 18.325
668.230, 22.107
669.535, 20.888
670.839, 7.636
672.144, 22.337
673.448, 13.114
674.752, 30.889
676.056, 13.141
677.360, 27.672
678.664, 15.444
679.967, 27.894
681.270, 3.664
682.573, 19.487
683.876, 12.197
685.178, 10.363
686.481, 19.957
687.783, 34.719
689.085, 6.525
690.387, 20.284
691.689, 15.086
692.990, 13.838
694.292, 17.593
695.593, 12.360
696.894, 16.111
698.194, 9.855
699.495, 28.962
700.795, 11.697
702.096, 37.525
703.396, 20.263
704.695, 38.977
705.995, 28.709
707.295, 36.691
708.594, 36.431
709.893, 39.169
711.192, 51.906
712.491, 84.642
713.789, 153.376
715.087, 230.056
716.386, 399.775
717.684, 621.504
718.981, 754.198
720.279, 693.898
721.576, 490.259
722.874, 315.873
724.171, 170.584
725.468, 111.817
726.764, 100.538
728.061, 57.302
729.357, 44.018
730.653, 52.551
731.949, 17.247
733.245, 33.961
734.541, 27.710
735.836, 21.431
737.131, 32.143
738.426, 23.852
739.721, 14.560
741.016, 10.844
742.310, 18.549
743.605, 12.403
744.899, 12.106
746.193, 22.806
747.487, 2.476
748.780, 12.139
750.074, 19.833
751.367, 10.488
752.660, 12.149
753.953, 9.841
755.245, 10.531
756.538, 11.227
757.830, 11.914
759.122, 14.435
760.414, 16.792
761.706, 17.974
762.997, 21.656
764.289, 19.336
765.580, 17.799
766.871, 11.654
768.162, 13.876
769.452, 9.355
770.743, 2.741
772.033, 5.404
773.323, 22.074
774.613, 15.743
775.903, 16.411
777.193, 9.035
778.482, 0.700
779.771, 18.363
781.060, 9.025
782.349, 5.686
783.638, 6.655
784.926, 6.923
786.214, 24.646
787.502, 1.708
788.790, 4.934
790.078, 24.576
791.366, 7.216
792.653, 6.855
793.940, 4.466
795.227, 5.067
796.514, 3.702
797.801, 20.335
799.087, 28.968
800.373, 0.458
801.659, 19.171
802.945, 7.797
804.231, 6.424
805.517, 9.350
806.802, 9.438
808.087, 11.387
809.372, 16.385
810.657, 9.007
811.942, 13.611
813.226, 5.229
814.510, 1.847
815.794, 13.464
817.078, 18.079
818.362, 5.693
819.646, 20.309
820.929, 16.903
822.212, 20.537
823.495, 18.149
824.778, 9.760
826.061, 3.346
827.343, 14.956
828.625, 28.562
829.907, 5.830
831.189, 5.769
832.471, 21.376
833.753, 0.982
835.034, 24.587
836.315, 14.845
837.596, 16.750
838.877, 4.661
840.158, 13.915
841.438, 16.504
842.718, 1.093
843.999, 20.650
845.278, 1.236
846.558, 18.821
847.838, 23.405
849.117, 4.988
850.396, 13.565
851.675, 23.147
852.954, 4.288
854.233, 19.289
855.511, 0.144
856.790, 13.430
858.068, 12.003
859.346, 6.575
860.624, 2.853
861.901, 24.715
863.179, 11.283
864.456, 12.850
865.733, 44.416
867.010, 44.982
868.286, 38.546
869.563, 17.111
870.839, 33.674
872.115, 35.237
873.391, 33.800
874.667, 23.362
875.943, 1.924
877.218, 16.491
878.493, 7.942
879.768, 9.619
881.043, 0.179
882.318, 4.738
883.593, 20.297
884.867, 7.144
886.141, 18.412
887.415, 0.032
888.689, 2.522
889.962, 2.076
891.236, 8.630
892.509, 20.183
893.782, 9.265
895.055, 5.280
896.328, 18.169
897.601, 16.367
898.873, 17.902
900.145, 8.442
901.417, 19.918
902.689, 1.453
903.961, 8.991
905.232, 24.519
906.503, 28.053
907.775, 25.578
909.045, 1.106
910.316, 11.636
911.587, 1.169
912.857, 15.706
914.128, 5.242
915.398, 6.649
916.667, 22.314
917.937, 3.849
919.207, 13.385
920.476, 11.917
921.745, 16.454
923.014, 15.982
924.283, 0.516
925.552, 12.997
926.820, 26.537
928.088, 10.076
929.356, 14.615
930.624, 6.146
931.892, 39.588
933.160, 28.131
934.427, 25.665
935.694, 28.185
936.961, 8.175
938.228, 28.150
939.495, 15.693
940.761, 14.807
942.028, 14.517
943.294, 11.060
944.560, 31.590
945.825, 33.119
947.091, 29.638
948.356, 27.161
949.622, 29.346
950.887, 12.223
952.152, 25.767
953.416, 27.166
954.681, 10.712
955.945, 2.249
957.210, 7.218
958.474, 9.905
959.737, 7.731
961.001, 8.604
962.265, 9.929
963.528, 13.456
964.791, 34.991
966.054, 17.503
967.317, 11.982
968.579, 41.519
969.842, 11.056
971.104, 33.574
972.366, 6.112
973.628, 5.655
974.890, 41.199
976.151, 23.742
977.412, 13.286
978.674, 34.805
979.935, 10.350
981.195, 19.897
982.456, 21.945
983.717, 12.477
984.977, 26.025
986.237, 6.502
987.497, 20.050
988.757, 32.544
990.016, 24.093
991.276, 24.232
992.535, 21.784
993.794, 26.371
995.053, 20.837
996.312, 43.391
997.570, 54.902
998.829, 70.458
1000.087, 53.014
1001.345, 60.558
1002.603, 56.116
1003.860, 76.674
1005.118, 97.867
1006.375, 95.427
1007.632, 99.885
1008.889, 123.446
1010.146, 100.007
1011.402, 114.567
1012.659, 113.867
1013.915, 115.431
1015.171, 143.995
1016.427, 121.560
1017.683, 108.126
1018.938, 148.694
1020.194, 149.263
1021.449, 175.832
1022.704, 152.403
1023.959, 176.974
1025.213, 173.547
1026.468, 182.120
1027.722, 198.677
1028.976, 192.252
1030.230, 181.280
1031.484, 196.856
1032.738, 176.389
1033.991, 194.966
1035.245, 185.546
1036.498, 189.642
1037.751, 204.225
1039.003, 209.762
1040.256, 201.337
1041.508, 207.912
1042.760, 219.498
1044.013, 227.089
1045.264, 239.099
1046.516, 242.692
1047.768, 282.132
1049.019, 278.727
1050.270, 301.323
1051.521, 329.921
1052.772, 314.520
1054.023, 370.111
1055.273, 361.715
1056.523, 377.319
1057.774, 427.929
1059.023, 458.540
1060.273, 455.144
1061.523, 503.758
1062.772, 568.367
1064.022, 685.984
1065.271, 783.603
1066.520, 927.222
1067.768, 869.847
1069.017, 824.473
1070.265, 849.100
1071.513, 899.728
1072.761, 963.357
1074.009, 1117.987
1075.257, 1306.703
1076.505, 1511.335
1077.752, 1800.968
1078.999, 2283.712
1080.246, 2968.347
1081.493, 4109.985
1082.740, 6529.355
1083.986, 11521.994
1085.232, 21801.637
1086.478, 40501.293
1087.724, 50740.934
1088.970, 41790.605
1090.216, 25050.309
1091.461, 13319.962
1092.706, 8133.622
1093.952, 4989.278
1095.196, 3132.935
1096.441, 2232.616
1097.686, 1541.275
1098.930, 1206.935
1100.174, 950.596
1101.418, 771.257
1102.662, 644.919
1103.906, 547.583
1105.150, 472.266
1106.393, 424.939
1107.636, 354.304
1108.879, 332.508
1110.122, 314.849
1111.365, 270.141
1112.607, 267.810
1113.849, 226.480
1115.092, 224.181
1116.334, 199.141
1117.575, 161.813
1118.817, 149.488
1120.058, 178.162
1121.300, 134.906
1122.541, 150.615
1123.782, 106.291
1125.023, 109.012
1126.263, 114.690
1127.504, 108.437
1128.744, 124.116
1129.984, 97.908
1131.224, 102.594
1132.464, 84.294
1133.703, 91.988
1134.943, 60.671
1136.182, 64.362
1137.421, 98.047
1138.660, 86.736
1139.898, 76.746
1141.137, 60.438
1142.375, 59.138
1143.613, 59.831
1144.851, 70.524
1146.089, 47.231
1147.327, 41.094
1148.565, 48.789
1149.802, 73.483
1151.039, 42.178
1152.276, 38.873
1153.513, 64.568
1154.749, 22.266
1155.986, 29.963
1157.222, 37.661
1158.458, 57.359
1159.694, 38.057
1160.930, 31.759
1162.166, 35.480
1163.401, 31.228
1164.636, 33.927
1165.872, 30.630
1167.106, 20.706
1168.341, 43.406
1169.576, 17.105
1170.810, 33.871
1172.044, 14.625
1173.279, 32.361
1174.512, 30.065
1175.746, 18.765
1176.980, 31.585
1178.213, 20.286
1179.446, 16.993
1180.679, 24.694
1181.912, 28.695
1183.145, 6.397
1184.378, 11.396
1185.610, 8.649
1186.842, 19.869
1188.074, 16.575
1189.306, 5.334
1190.538, 21.038
1191.769, 12.593
1193.001, 19.696
1194.232, 4.003
1195.463, 26.914
1196.694, 1.631
1197.924, 15.336
1199.155, 29.256
1200.385, 3.963
1201.615, 20.671
1202.845, 9.098
1204.075, 20.807
1205.305, 15.595
1206.534, 13.794
1207.763, 11.015
1208.993, 9.880
1210.222, 9.949
1211.450, 8.660
1212.679, 27.501
1213.907, 18.326
1215.136, 22.093
1216.364, 17.801
1217.592, 13.510
1218.820, 22.274
1220.047, 21.986
1221.275, 8.750
1222.502, 2.540
1223.729, 12.169
1224.956, 11.885
1226.183, 2.337
1227.409, 19.387
1228.636, 4.122
1229.862, 12.132
1231.088, 39.572
1232.314, 25.560
1233.540, 28.259
1234.765, 7.957
1235.991, 0.654
1237.216, 0.220
1238.441, 11.047
1239.666, 5.743
1240.891, 10.437
1242.115, 32.131
1243.339, 1.825
1244.564, 17.518
1245.788, 13.210
1247.012, 33.903
1248.235, 19.595
1249.459, 8.288
1250.682, 35.980
1251.905, 3.672
1253.128, 6.363
1254.351, 17.052
1255.574, 29.742
1256.797, 27.661
1258.019, 37.125
1259.241, 19.818
1260.463, 21.510
1261.685, 2.200
1262.907, 3.113
1264.128, 41.572
1265.350, 9.256
1266.571, 18.933
1267.792, 0.610
1269.013, 14.717
1270.233, 46.950
1271.454, 1.617
1272.674, 18.276
1273.894, 0.925
1275.114, 21.571
1276.334, 0.212
1277.554, 8.850
1278.773, 6.476
1279.993, 8.100
1281.212, 23.721
1282.431, 9.342
1283.650, 10.960
1284.868, 17.576
1286.087, 2.811
1287.305, 21.785
1288.523, 9.379
1289.741, 29.971
1290.959, 26.561
1292.177, 8.149
1293.394, 0.266
1294.612, 16.317
1295.829, 20.896
1297.046, 13.474
1298.263, 12.049
1299.479, 13.998
1300.696, 11.530
1301.912, 17.757
1303.128, 12.320
1304.344, 15.881
1305.560, 15.438
1306.776, 10.809
1307.991, 6.545
1309.207, 3.094
1310.422, 12.641
1311.637, 11.186
1312.852, 3.271
1314.066, 17.268
1315.281, 20.806
1316.495, 2.342
1317.709, 2.877
1318.923, 4.411
1320.137, 10.987
1321.351, 15.518
1322.564, 1.049
1323.777, 11.580
1324.991, 11.111
1326.204, 18.642
1327.416, 1.825
1328.629, 13.708
1329.841, 1.757
1331.054, 2.777
1332.266, 13.314
1333.478, 11.855
1334.690, 3.402
1335.901, 12.956
1337.113, 10.414
1338.324, 11.159
1339.535, 18.660
1340.746, 0.600
1341.957, 9.140
1343.168, 25.878
1344.378, 0.388
1345.589, 31.339
1346.799, 17.061
1348.009, 8.220
1349.219, 20.496
1350.428, 13.794
1351.638, 18.910
1352.847, 17.613
1354.056, 1.190
1355.265, 2.109
1356.474, 23.466
1357.683, 1.322
1358.891, 22.003
1360.100, 15.322
1361.308, 18.271
1362.516, 17.938
1363.724, 4.609
1364.931, 13.252
1366.139, 4.921
1367.346, 25.590
1368.553, 22.234
1369.760, 12.891
1370.967, 4.557
1372.174, 11.221
1373.380, 8.846
1374.587, 7.128
1375.793, 32.784
1376.999, 17.048
1378.205, 13.530
1379.410, 36.072
1380.616, 14.550
1381.821, 24.149
1383.026, 21.767
1384.231, 29.390
1385.436, 32.553
1386.641, 39.011
1387.846, 40.796
1389.050, 55.146
1390.254, 66.770
1391.458, 75.396
1392.662, 66.022
1393.866, 45.649
1395.069, 43.278
1396.273, 58.866
1397.476, 22.417
1398.679, 49.406
1399.882, 47.032
1401.085, 40.448
1402.287, 74.002
1403.490, 73.413
1404.692, 81.027
1405.894, 103.102
1407.096, 107.164
1408.297, 139.656
1409.499, 166.160
1410.700, 212.093
1411.902, 291.674
1413.103, 401.814
1414.304, 585.955
1415.504, 857.526
1416.705, 1219.542
1417.905, 1662.707
1419.106, 2153.843
1420.306, 2119.493
1421.506, 1903.643
1422.705, 1548.305
1423.905, 1129.550
1425.105, 866.771
1426.304, 680.119
1427.503, 508.259
1428.702, 422.466
1429.901, 328.670
1431.099, 302.447
1432.298, 224.675
1433.496, 205.887
1434.694, 185.084
1435.892, 182.264
1437.090, 162.627
1438.288, 152.565
1439.485, 139.675
1440.682, 123.756
1441.879, 120.825
1443.076, 135.867
1444.273, 97.882
1445.470, 114.885
1446.666, 99.862
1447.863, 98.856
1449.059, 91.833
1450.255, 58.803
1451.451, 87.859
1452.646, 89.929
1453.842, 61.094
1455.037, 106.250
1456.233, 53.402
1457.428, 40.628
1458.622, 56.939
1459.817, 15.260
1461.012, 42.597
1462.206, 45.958
1463.400, 2.646
1464.594, 19.795
1465.788, 36.296
1466.982, 21.871
1468.176, 16.527
1469.369, 11.265
1470.562, 24.101
1471.755, 24.039
1472.948, 23.228
1474.141, 37.626
1475.333, 26.921
1476.526, 9.401
1477.718, 25.093
1478.910, 4.136
1480.102, 0.289
1481.294, 21.973
1482.486, 0.000
##END=



