##NAMES=Rhodochrosite
##RRUFFID=R050116
##IDEAL CHEMISTRY=Mn^2+^CO_3_
##LOCALITY=Wudong mine, Liubao, Guangxi Autonomous Region, China
##OWNER=RRUFF
##SOURCE=He Xin Jian
##DESCRIPTION=Pink crystal associated with colorless quartz
##STATUS=The identification of this mineral has been confirmed by X-ray diffraction and chemical analysis
##URL=rruff.info/R050116
##MEASURED CHEMISTRY=(Mn_0.81_Fe_0.17_Mg_0.01_Ca_0.01_)CO_3_
##PIN_ID=L00524
##ORIENTATION=Laser parallel to a* (1 0 0). Fiducial mark perpendicular to laser is parallel to c [0 0 1]
47.490, 0.000
48.899, 28.144
50.308, 51.326
51.717, 111.138
53.126, 164.424
54.534, 196.668
55.942, 233.883
57.350, 250.016
58.758, 278.405
60.165, 291.330
61.572, 262.492
62.979, 257.485
64.386, 224.913
65.792, 205.055
67.198, 164.465
68.604, 161.770
70.010, 140.295
71.415, 117.316
72.820, 92.592
74.225, 64.834
75.630, 58.355
77.034, 59.574
78.438, 43.010
79.842, 28.086
81.246, 19.202
82.649, 6.763
84.053, 0.497
85.455, 8.090
86.858, 11.826
88.260, 11.514
89.663, 21.022
91.065, 12.591
92.466, 8.833
93.868, 6.637
95.269, 13.384
96.670, 33.341
98.070, 53.988
99.471, 58.707
100.871, 37.354
102.271, 45.255
103.670, 53.132
105.070, 59.672
106.469, 78.646
107.868, 95.612
109.267, 117.348
110.665, 144.035
112.063, 161.701
113.461, 161.865
114.859, 136.968
116.256, 145.617
117.653, 127.276
119.050, 103.945
120.447, 100.624
121.843, 96.770
123.240, 120.292
124.636, 112.214
126.031, 105.242
127.427, 126.260
128.822, 101.370
130.217, 113.677
131.612, 88.086
133.006, 108.479
134.400, 106.654
135.794, 92.586
137.188, 98.550
138.581, 97.533
139.975, 71.578
141.368, 88.751
142.760, 73.842
144.153, 74.933
145.545, 71.032
146.937, 98.045
148.329, 79.043
149.720, 74.013
151.112, 107.940
152.503, 84.815
153.893, 77.644
155.284, 65.455
156.674, 73.265
158.064, 66.971
159.454, 69.885
160.843, 62.697
162.233, 73.514
163.622, 62.338
165.011, 72.170
166.399, 57.008
167.787, 80.853
169.175, 63.706
170.563, 72.567
171.951, 89.433
173.338, 65.307
174.725, 67.187
176.112, 80.075
177.499, 76.969
178.885, 80.869
180.271, 122.773
181.657, 125.682
183.043, 135.597
184.428, 152.518
185.813, 138.444
187.198, 140.374
188.583, 117.309
189.967, 92.249
191.351, 80.193
192.735, 66.266
194.119, 58.448
195.502, 54.058
196.885, 50.023
198.268, 53.994
199.651, 47.969
201.033, 47.950
202.415, 47.936
203.797, 33.928
205.179, 57.924
206.561, 22.925
207.942, 32.933
209.323, 34.945
210.703, 19.988
212.084, 22.007
213.464, 18.041
214.844, 10.932
216.224, 19.045
217.603, 17.633
218.983, 36.344
220.362, 32.994
221.741, 54.483
223.119, 50.875
224.497, 55.251
225.875, 51.665
227.253, 55.707
228.631, 53.805
230.008, 48.556
231.385, 69.192
232.762, 47.169
234.139, 40.551
235.515, 58.036
236.891, 47.058
238.267, 45.978
239.643, 63.895
241.018, 76.516
242.393, 41.117
243.768, 75.720
245.143, 61.206
246.517, 97.751
247.891, 63.018
249.265, 75.045
250.639, 56.857
252.012, 104.179
253.386, 52.314
254.759, 105.516
256.131, 87.164
257.504, 79.421
258.876, 98.923
260.248, 120.247
261.620, 115.704
262.991, 169.571
264.363, 174.405
265.734, 192.271
267.104, 204.006
268.475, 266.804
269.845, 292.635
271.215, 326.502
272.585, 441.458
273.955, 489.493
275.324, 571.604
276.693, 717.719
278.062, 870.836
279.431, 1082.681
280.799, 1292.081
282.167, 1613.210
283.535, 1954.343
284.903, 2318.478
286.270, 2577.607
287.638, 2752.808
289.005, 2819.953
290.371, 2564.121
291.738, 2276.270
293.104, 1914.422
294.470, 1587.575
295.836, 1263.731
297.201, 997.859
298.567, 822.018
299.932, 649.227
301.296, 553.524
302.661, 467.688
304.025, 390.855
305.389, 338.943
306.753, 268.108
308.117, 225.214
309.480, 228.329
310.843, 215.432
312.206, 180.606
313.569, 139.752
314.931, 145.892
316.293, 138.113
317.655, 118.295
319.017, 119.462
320.378, 118.578
321.740, 110.732
323.101, 93.866
324.461, 91.387
325.822, 73.145
327.182, 85.324
328.542, 68.461
329.902, 83.644
331.261, 85.792
332.621, 65.999
333.980, 67.163
335.339, 54.370
336.697, 75.583
338.056, 41.774
339.414, 37.973
340.772, 67.192
342.129, 48.414
343.487, 57.638
344.844, 40.863
346.201, 41.114
347.557, 33.344
348.914, 38.575
350.270, 29.808
351.626, 31.042
352.982, 20.319
354.337, 32.558
355.693, 27.806
357.048, 18.098
358.402, 31.324
359.757, 46.537
361.111, 16.736
362.465, 14.956
363.819, 43.525
365.173, 22.746
366.526, 12.999
367.879, 12.150
369.232, 21.442
370.585, 4.555
371.937, 17.713
373.290, 24.883
374.642, 13.994
375.993, 7.128
377.345, 15.443
378.696, 5.516
380.047, 17.617
381.398, 19.705
382.748, 0.123
384.099, 27.041
385.449, 5.306
386.799, 4.745
388.148, 13.030
389.497, 0.831
390.847, 8.588
392.196, 40.822
393.544, 23.000
394.893, 14.787
396.241, 1.381
397.589, 31.384
398.936, 34.816
400.284, 0.553
401.631, 5.287
402.978, 20.184
404.325, 4.305
405.672, 10.459
407.018, 20.857
408.364, 6.699
409.710, 5.506
411.055, 36.891
412.401, 26.106
413.746, 11.484
415.091, 10.714
416.435, 9.952
417.780, 14.199
419.124, 0.457
420.468, 13.604
421.812, 1.051
423.155, 0.832
424.498, 6.887
425.842, 1.395
427.184, 0.563
428.527, 4.834
429.869, 7.275
431.211, 14.389
432.553, 16.723
433.895, 15.572
435.236, 21.996
436.577, 18.172
437.918, 28.513
439.259, 43.841
440.599, 44.136
441.940, 16.431
443.280, 22.931
444.619, 34.479
445.959, 32.776
447.298, 38.257
448.637, 1.389
449.976, 11.907
451.315, 6.204
452.653, 42.552
453.991, 40.371
455.329, 23.675
456.667, 40.285
458.004, 39.454
459.341, 21.780
460.678, 1.135
462.015, 2.526
463.352, 42.779
464.688, 30.142
466.024, 39.447
467.360, 42.759
468.695, 34.063
470.031, 28.368
471.366, 18.700
472.701, 13.005
474.035, 25.310
475.370, 10.615
476.704, 2.919
478.038, 17.224
479.372, 11.574
480.705, 33.838
482.038, 23.145
483.371, 22.454
484.704, 30.762
486.037, 38.071
487.369, 16.379
488.701, 56.688
490.033, 36.996
491.365, 8.304
492.696, 32.611
494.027, 24.918
495.358, 32.225
496.689, 40.532
498.019, 12.838
499.350, 28.171
500.680, 23.476
502.009, 35.811
503.339, 20.115
504.668, 21.418
505.997, 8.720
507.326, 35.022
508.655, 21.324
509.983, 38.626
511.311, 37.929
512.639, 5.230
513.967, 48.709
515.295, 13.009
516.622, 3.328
517.949, 22.625
519.276, 29.923
520.602, 31.221
521.929, 29.550
523.255, 5.154
524.581, 11.138
525.906, 4.498
527.232, 22.788
528.557, 7.078
529.882, 20.386
531.207, 17.647
532.531, 45.934
533.855, 34.268
535.179, 13.554
536.503, 1.173
537.827, 40.114
539.150, 24.381
540.473, 33.682
541.796, 13.981
543.119, 11.222
544.441, 7.512
545.764, 1.223
547.086, 16.041
548.407, 32.932
549.729, 9.163
551.050, 0.793
552.371, 31.484
553.692, 14.762
555.013, 19.572
556.333, 1.816
557.653, 12.800
558.973, 7.928
560.293, 20.304
561.612, 2.575
562.932, 13.313
564.251, 30.917
565.569, 0.831
566.888, 1.583
568.206, 25.464
569.524, 0.309
570.842, 22.931
572.160, 0.171
573.477, 33.411
574.795, 38.650
576.112, 38.887
577.428, 44.122
578.745, 11.679
580.061, 21.546
581.377, 8.267
582.693, 21.917
584.009, 31.910
585.324, 11.093
586.639, 26.274
587.954, 26.473
589.269, 10.319
590.583, 6.892
591.897, 5.899
593.212, 26.304
594.525, 14.505
595.839, 6.704
597.152, 9.900
598.465, 30.096
599.778, 34.291
601.091, 0.484
602.403, 0.322
603.716, 50.868
605.028, 1.057
606.339, 5.248
607.651, 43.349
608.962, 38.529
610.273, 9.203
611.584, 3.621
612.895, 20.686
614.205, 0.147
615.515, 8.986
616.825, 15.192
618.135, 8.341
619.444, 12.899
620.754, 42.907
622.063, 7.048
623.372, 32.187
624.680, 19.356
625.989, 31.490
627.297, 28.621
628.605, 14.750
629.912, 25.877
631.220, 38.001
632.527, 24.153
633.834, 29.272
635.141, 46.346
636.447, 53.249
637.754, 37.357
639.060, 22.466
640.366, 28.958
641.671, 41.062
642.977, 35.220
644.282, 31.319
645.587, 38.525
646.892, 43.619
648.196, 30.710
649.501, 56.777
650.805, 38.863
652.109, 46.947
653.412, 24.168
654.716, 33.270
656.019, 16.341
657.322, 30.430
658.625, 15.500
659.927, 32.568
661.230, 28.634
662.532, 32.697
663.834, 43.733
665.135, 50.156
666.437, 40.427
667.738, 40.587
669.039, 41.677
670.340, 5.713
671.640, 52.757
672.940, 18.803
674.241, 34.792
675.540, 65.316
676.840, 75.348
678.139, 16.406
679.439, 50.439
680.738, 38.092
682.036, 10.180
683.335, 24.150
684.633, 41.174
685.931, 19.178
687.229, 31.186
688.527, 60.191
689.824, 12.209
691.121, 48.208
692.418, 39.643
693.715, 30.022
695.012, 38.011
696.308, 20.998
697.604, 20.982
698.900, 53.071
700.195, 23.026
701.491, 69.962
702.786, 41.851
704.081, 37.816
705.376, 43.784
706.670, 33.718
707.964, 52.480
709.259, 33.736
710.552, 70.692
711.846, 77.647
713.139, 142.507
714.433, 186.450
715.726, 266.825
717.018, 422.774
718.311, 538.441
719.603, 606.457
720.895, 601.398
722.187, 495.138
723.479, 370.836
724.770, 306.769
726.061, 241.523
727.352, 233.450
728.643, 157.157
729.934, 174.078
731.224, 127.997
732.514, 116.912
733.804, 129.824
735.094, 78.866
736.383, 78.772
737.672, 87.572
738.961, 54.473
740.250, 63.372
741.539, 74.117
742.827, 46.168
744.115, 68.469
745.403, 39.668
746.691, 45.508
747.978, 23.951
749.265, 56.830
750.552, 51.692
751.839, 42.519
753.126, 45.838
754.412, 36.804
755.698, 34.632
756.984, 27.520
758.270, 32.331
759.555, 31.186
760.840, 21.854
762.125, 48.647
763.410, 57.494
764.695, 15.662
765.979, 28.122
767.263, 8.433
768.547, 50.254
769.831, 44.767
771.114, 14.718
772.398, 38.510
773.681, 0.270
774.964, 27.041
776.246, 28.842
777.529, 52.582
778.811, 12.378
780.093, 44.165
781.375, 26.955
782.656, 25.744
783.937, 33.503
785.219, 38.286
786.499, 12.066
787.780, 16.844
789.060, 37.620
790.341, 5.607
791.621, 18.156
792.901, 18.971
794.180, 0.729
795.459, 61.541
796.739, 9.290
798.017, 31.037
799.296, 6.781
800.575, 31.521
801.853, 22.260
803.131, 29.995
804.409, 20.729
805.686, 27.460
806.964, 5.189
808.241, 10.914
809.518, 27.636
810.795, 12.329
812.071, 26.047
813.347, 19.063
814.623, 45.776
815.899, 25.487
817.175, 40.196
818.450, 0.343
819.726, 3.044
821.001, 5.741
822.275, 8.434
823.550, 9.125
824.824, 20.635
826.098, 11.322
827.372, 29.987
828.646, 2.331
829.920, 41.346
831.193, 8.020
832.466, 11.660
833.739, 25.329
835.011, 4.999
836.284, 20.597
837.556, 10.262
838.828, 6.925
840.100, 12.567
841.371, 28.226
842.642, 7.883
843.914, 46.490
845.184, 2.856
846.455, 5.208
847.726, 17.433
848.996, 24.073
850.266, 28.698
851.536, 2.320
852.805, 24.954
854.075, 18.581
855.344, 14.788
856.613, 11.833
857.881, 31.452
859.150, 8.070
860.418, 6.686
861.686, 1.698
862.954, 5.708
864.222, 64.525
865.489, 36.134
866.756, 49.742
868.023, 73.349
869.290, 26.958
870.557, 27.565
871.823, 26.172
873.089, 18.783
874.355, 28.392
875.621, 4.001
876.886, 6.610
878.152, 31.219
879.417, 9.827
880.682, 13.566
881.946, 33.033
883.211, 24.630
884.475, 16.227
885.739, 10.823
887.003, 1.419
888.266, 16.017
889.530, 24.386
890.793, 33.200
892.056, 11.786
893.318, 13.630
894.581, 2.053
895.843, 6.480
897.105, 1.910
898.367, 14.661
899.629, 1.768
900.890, 20.803
902.152, 20.375
903.413, 27.945
904.673, 8.484
905.934, 31.081
907.194, 1.353
908.454, 20.789
909.714, 4.234
910.974, 33.319
912.234, 22.872
913.493, 21.419
914.752, 34.973
916.011, 22.527
917.270, 8.563
918.528, 19.117
919.786, 2.534
921.044, 5.091
922.302, 5.649
923.560, 19.184
924.817, 32.746
926.074, 25.848
927.331, 29.411
928.588, 32.551
929.844, 59.538
931.101, 26.068
932.357, 45.633
933.613, 24.198
934.868, 35.762
936.124, 27.328
937.379, 15.894
938.634, 0.430
939.889, 0.268
941.144, 3.554
942.398, 6.333
943.652, 3.101
944.906, 19.468
946.160, 3.347
947.414, 9.222
948.667, 17.737
949.920, 45.307
951.173, 46.771
952.426, 36.343
953.678, 11.916
954.931, 5.491
956.183, 10.066
957.435, 7.642
958.686, 19.078
959.938, 4.632
961.189, 14.211
962.440, 12.774
963.691, 11.644
964.941, 42.935
966.192, 28.516
967.442, 36.097
968.692, 14.320
969.942, 13.896
971.191, 26.263
972.441, 16.739
973.690, 20.283
974.939, 13.841
976.187, 5.428
977.436, 17.003
978.684, 29.594
979.932, 46.696
981.180, 3.289
982.428, 25.855
983.675, 3.443
984.922, 43.041
986.169, 55.554
987.416, 11.155
988.663, 0.747
989.909, 59.321
991.155, 13.927
992.401, 30.535
993.647, 51.130
994.893, 71.748
996.138, 84.916
997.383, 89.542
998.628, 53.568
999.873, 87.194
1001.117, 84.825
1002.362, 75.343
1003.606, 101.986
1004.850, 42.635
1006.093, 122.136
1007.337, 139.789
1008.580, 121.445
1009.823, 95.100
1011.066, 118.754
1012.308, 130.123
1013.551, 145.782
1014.793, 150.456
1016.035, 159.131
1017.277, 182.809
1018.518, 198.494
1019.760, 207.539
1021.001, 216.885
1022.242, 227.595
1023.483, 217.308
1024.723, 229.022
1025.964, 247.733
1027.204, 247.452
1028.444, 273.173
1029.683, 273.896
1030.923, 267.681
1032.162, 302.408
1033.401, 261.138
1034.640, 286.870
1035.879, 290.605
1037.117, 281.331
1038.355, 305.070
1039.593, 245.242
1040.831, 270.986
1042.069, 357.738
1043.306, 280.619
1044.544, 359.218
1045.781, 388.568
1047.017, 390.195
1048.254, 452.959
1049.490, 463.623
1050.726, 465.406
1051.962, 509.193
1053.198, 528.982
1054.434, 620.291
1055.669, 606.089
1056.904, 677.826
1058.139, 740.398
1059.374, 876.003
1060.608, 967.815
1061.843, 1087.632
1063.077, 1208.453
1064.311, 1254.277
1065.544, 1270.103
1066.778, 1364.939
1068.011, 1501.777
1069.244, 1574.621
1070.477, 1843.468
1071.710, 2173.318
1072.942, 2559.170
1074.174, 3357.026
1075.406, 4208.886
1076.638, 5988.749
1077.870, 8758.613
1079.101, 13157.484
1080.332, 21076.355
1081.563, 30905.229
1082.794, 42354.105
1084.025, 49602.988
1085.255, 44461.859
1086.485, 32710.750
1087.715, 20729.637
1088.945, 13268.523
1090.175, 9377.416
1091.404, 5992.313
1092.633, 4242.159
1093.862, 3079.064
1095.091, 2226.913
1096.319, 1752.824
1097.548, 1390.738
1098.776, 1083.655
1100.004, 965.575
1101.231, 781.497
1102.459, 724.423
1103.686, 597.351
1104.913, 467.282
1106.140, 491.216
1107.367, 430.152
1108.593, 409.092
1109.819, 349.056
1111.046, 322.001
1112.271, 297.618
1113.497, 299.568
1114.722, 269.521
1115.948, 276.478
1117.173, 215.996
1118.398, 226.978
1119.622, 249.944
1120.847, 215.914
1122.071, 227.925
1123.295, 164.900
1124.519, 171.878
1125.742, 142.858
1126.966, 165.841
1128.189, 151.829
1129.412, 138.819
1130.635, 99.811
1131.857, 154.806
1133.080, 121.803
1134.302, 124.803
1135.524, 121.805
1136.746, 82.809
1137.967, 110.816
1139.188, 121.826
1140.410, 98.368
1141.631, 111.230
1142.851, 104.287
1144.072, 85.307
1145.292, 90.346
1146.512, 82.735
1147.732, 61.318
1148.952, 68.620
1150.172, 66.299
1151.391, 77.281
1152.610, 85.363
1153.829, 92.460
1155.048, 91.170
1156.266, 72.604
1157.484, 82.814
1158.702, 78.403
1159.920, 70.649
1161.138, 81.449
1162.356, 69.504
1163.573, 60.562
1164.790, 54.952
1166.007, 60.012
1167.224, 45.429
1168.440, 48.020
1169.656, 61.471
1170.872, 44.536
1172.088, 56.602
1173.304, 62.670
1174.519, 72.758
1175.735, 30.827
1176.950, 35.898
1178.165, 65.974
1179.379, 31.050
1180.594, 89.158
1181.808, 23.236
1183.022, 9.404
1184.236, 50.527
1185.449, 57.703
1186.663, 46.792
1187.876, 56.011
1189.089, 51.117
1190.302, 33.239
1191.515, 49.434
1192.727, 40.556
1193.939, 48.657
1195.151, 52.837
1196.363, 68.011
1197.575, 65.232
1198.786, 58.336
1199.997, 87.441
1201.208, 45.301
1202.419, 37.408
1203.630, 64.563
1204.840, 38.466
1206.051, 46.665
1207.261, 42.530
1208.470, 64.682
1209.680, 45.826
1210.889, 28.049
1212.099, 11.166
1213.308, 56.285
1214.516, 1.978
1215.725, 31.097
1216.933, 27.281
1218.142, 23.421
1219.350, 44.540
1220.557, 16.660
1221.765, 21.781
1222.972, 11.917
1224.180, 14.042
1225.387, 60.167
1226.593, 9.293
1227.800, 50.420
1229.006, 37.546
1230.213, 27.701
1231.419, 31.825
1232.624, 21.029
1233.830, 25.077
1235.035, 15.205
1236.241, 25.334
1237.446, 31.464
1238.650, 26.595
1239.855, 20.728
1241.059, 24.862
1242.264, 58.997
1243.468, 35.133
1244.671, 50.270
1245.875, 61.408
1247.078, 13.547
1248.282, 56.686
1249.485, 34.827
1250.687, 49.968
1251.890, 41.110
1253.092, 14.253
1254.295, 1.397
1255.497, 14.542
1256.699, 53.687
1257.900, 69.835
1259.102, 27.976
1260.303, 32.117
1261.504, 32.257
1262.705, 4.389
1263.905, 20.512
1265.106, 15.635
1266.306, 0.759
1267.506, 34.876
1268.706, 26.990
1269.905, 20.104
1271.105, 26.210
1272.304, 16.231
1273.503, 20.371
1274.702, 12.451
1275.900, 15.531
1277.099, 28.610
1278.297, 42.689
1279.495, 40.767
1280.693, 35.844
1281.891, 26.913
1283.088, 20.981
1284.285, 6.952
1285.482, 11.909
1286.679, 5.128
1287.876, 34.164
1289.072, 12.193
1290.268, 3.785
1291.464, 6.772
1292.660, 18.114
1293.856, 8.059
1295.051, 12.770
1296.247, 6.216
1297.442, 4.417
1298.637, 23.182
1299.831, 5.162
1301.026, 0.141
1302.220, 8.883
1303.414, 49.087
1304.608, 8.944
1305.802, 37.019
1306.995, 30.980
1308.188, 18.061
1309.381, 31.890
1310.574, 50.161
1311.767, 11.229
1312.960, 55.696
1314.152, 35.618
1315.344, 32.537
1316.536, 21.454
1317.728, 16.367
1318.919, 44.277
1320.110, 69.185
1321.301, 31.090
1322.492, 61.992
1323.683, 14.891
1324.874, 29.788
1326.064, 4.683
1327.254, 12.574
1328.444, 4.464
1329.634, 24.350
1330.823, 13.765
1332.013, 19.113
1333.202, 17.989
1334.391, 4.864
1335.580, 18.737
1336.768, 51.609
1337.956, 44.520
1339.145, 8.351
1340.333, 4.206
1341.520, 47.060
1342.708, 28.913
1343.895, 7.235
1345.083, 26.613
1346.270, 14.461
1347.456, 7.680
1348.643, 8.190
1349.829, 6.965
1351.016, 17.876
1352.202, 19.718
1353.387, 6.561
1354.573, 51.406
1355.759, 36.252
1356.944, 3.900
1358.129, 45.948
1359.314, 11.799
1360.498, 22.654
1361.683, 55.512
1362.867, 48.374
1364.051, 31.242
1365.235, 25.958
1366.419, 58.845
1367.602, 64.737
1368.785, 51.764
1369.968, 29.558
1371.151, 62.324
1372.334, 23.043
1373.517, 51.564
1374.699, 48.672
1375.881, 59.949
1377.063, 69.871
1378.245, 108.991
1379.426, 76.095
1380.608, 116.198
1381.789, 109.300
1382.970, 88.400
1384.150, 101.500
1385.331, 78.574
1386.511, 90.670
1387.691, 126.764
1388.871, 105.856
1390.051, 94.926
1391.231, 125.972
1392.410, 146.060
1393.589, 135.146
1394.768, 183.232
1395.947, 179.317
1397.126, 229.402
1398.304, 223.486
1399.483, 255.569
1400.661, 340.945
1401.838, 361.958
1403.016, 444.547
1404.194, 536.273
1405.371, 634.249
1406.548, 772.132
1407.725, 922.073
1408.901, 1109.890
1410.078, 1222.881
1411.254, 1421.866
1412.430, 1410.012
1413.606, 1439.006
1414.782, 1346.900
1415.958, 1242.792
1417.133, 1139.654
1418.308, 936.543
1419.483, 847.385
1420.658, 746.139
1421.832, 635.815
1423.007, 571.952
1424.181, 500.982
1425.355, 464.407
1426.529, 408.318
1427.702, 378.792
1428.876, 368.566
1430.049, 307.079
1431.222, 288.414
1432.395, 290.708
1433.567, 293.298
1434.740, 270.805
1435.912, 218.454
1437.084, 187.996
1438.256, 201.610
1439.428, 260.252
1440.599, 194.848
1441.770, 187.455
1442.942, 215.050
1444.112, 172.583
1445.283, 146.160
1446.454, 147.717
1447.624, 131.253
1448.794, 125.802
1449.964, 122.257
1451.134, 106.723
1452.303, 127.164
1453.473, 94.578
1454.642, 79.964
1455.811, 114.320
1456.980, 99.643
1458.148, 77.971
1459.317, 89.305
1460.485, 22.682
1461.653, 103.047
1462.821, 68.422
1463.989, 36.882
1465.156, 95.391
1466.323, 35.881
1467.490, 39.351
1468.657, 108.828
1469.824, 24.311
1470.991, 24.917
1472.157, 102.534
1473.323, 33.226
1474.489, 61.944
1475.655, 28.701
1476.820, 54.465
1477.986, 100.236
1479.151, 17.018
1480.316, 37.812
1481.481, 29.623
1482.645, 40.455
1483.810, 45.315
1484.974, 71.212
1486.138, 46.153
1487.302, 20.144
1488.465, 17.189
1489.629, 41.288
1490.792, 66.444
1491.955, 62.668
1493.118, 62.959
1494.281, 31.316
1495.443, 38.314
1496.606, 34.127
1497.768, 40.717
1498.930, 37.413
1500.091, 55.230
1501.253, 50.752
1502.414, 56.813
1503.575, 109.037
1504.736, 5.550
1505.897, 40.103
1507.058, 99.026
1508.218, 23.367
1509.379, 54.423
1510.539, 21.131
1511.698, 2.223
1512.858, 0.000
##END=



