##NAMES=Rhodonite
##RRUFFID=R040041
##IDEAL CHEMISTRY=CaMn^2+^_3_Mn^2+^Si_5_O_15_
##LOCALITY=Franklin, Sussex County, New Jersey, USA
##OWNER=RRUFF
##SOURCE=University of Arizona Mineral Museum
##DESCRIPTION=Pink prismatic crystals
##STATUS=The identification of this mineral has been confirmed by X-ray diffraction and chemical analysis
##URL=rruff.info/R040041
##MEASURED CHEMISTRY=(Mn_0.63_Ca_0.21_Zn_0.12_Mg_0.02_Fe_0.02_)_Î£=1_Si_1.00_O_3_
##PIN_ID=L00227
##ORIENTATION=Laser parallel to c* (0 0 1). Fiducial mark perpendicular to laser is parallel to a [1 0 0]
99.764, 0.000
101.157, 58.664
102.550, 15.107
103.943, 65.920
105.336, 582.823
106.729, 1696.406
108.121, 3175.906
109.513, 4497.443
110.905, 5136.789
112.297, 5432.402
113.688, 4844.238
115.079, 3921.029
116.470, 2831.742
117.861, 2405.745
119.251, 1952.304
120.642, 1810.896
122.032, 1801.145
123.422, 2102.767
124.811, 2418.170
126.201, 2490.189
127.590, 2642.646
128.979, 2774.776
130.367, 2762.688
131.756, 2759.215
133.144, 2733.459
134.532, 2707.594
135.920, 2681.443
137.307, 2945.078
138.695, 3048.557
140.082, 2951.928
141.469, 2495.229
142.856, 2068.480
144.242, 1531.698
145.628, 1035.902
147.014, 813.114
148.400, 713.419
149.786, 765.688
151.171, 868.184
152.556, 1053.042
153.941, 1191.412
155.325, 1200.073
156.710, 1131.019
158.094, 1096.238
159.478, 1004.725
160.862, 907.471
162.245, 746.473
163.629, 828.443
165.012, 779.066
166.395, 759.700
167.777, 782.388
169.160, 898.320
170.542, 1066.502
171.924, 1028.945
173.306, 1149.625
174.687, 1201.527
176.068, 1283.644
177.449, 1295.972
178.830, 998.504
180.211, 801.237
181.591, 484.168
182.972, 355.257
184.351, 206.361
185.731, 422.531
187.111, 435.808
188.490, 607.213
189.869, 668.760
191.248, 636.459
192.626, 484.313
194.005, 488.327
195.383, 156.503
196.761, 74.161
198.139, 217.349
199.516, 265.735
200.893, 239.970
202.271, 209.058
203.647, 163.000
205.024, 67.800
206.400, 253.538
207.777, 409.012
209.152, 741.602
210.528, 907.306
211.904, 1273.121
213.279, 1199.048
214.654, 1045.083
216.029, 981.221
217.403, 717.460
218.778, 464.799
220.152, 338.237
221.526, 239.772
222.900, 30.593
224.273, 15.863
225.646, 142.037
227.019, 101.117
228.392, 136.103
229.765, 140.995
231.137, 75.812
232.509, 49.729
233.881, 101.224
235.253, 197.135
236.625, 433.129
237.996, 700.297
239.367, 1037.673
240.738, 1185.219
242.108, 1493.411
243.479, 2071.126
244.849, 2168.912
246.219, 2396.701
247.589, 2194.480
248.958, 2242.283
250.328, 2050.160
251.697, 1768.122
253.065, 1606.167
254.434, 1584.293
255.803, 1592.498
257.171, 1620.782
258.539, 1879.144
259.906, 2077.580
261.274, 2106.102
262.641, 1924.733
264.008, 1883.583
265.375, 1638.764
266.742, 1392.487
268.108, 1226.990
269.475, 1012.920
270.840, 969.371
272.206, 876.295
273.572, 1023.593
274.937, 1061.236
276.302, 979.166
277.667, 987.364
279.032, 975.797
280.396, 1054.428
281.760, 903.245
283.125, 902.212
284.488, 621.330
285.852, 580.602
287.215, 390.013
288.578, 299.547
289.941, 259.172
291.304, 108.857
292.666, 88.600
294.029, 67.201
295.391, 51.740
296.753, 88.163
298.114, 118.110
299.476, 148.103
300.837, 278.140
302.198, 308.222
303.558, 368.352
304.919, 478.527
306.279, 528.749
307.639, 629.018
308.999, 779.335
310.359, 979.697
311.718, 1030.107
313.077, 1380.516
314.436, 1420.662
315.795, 1930.586
317.154, 2260.439
318.512, 2980.355
319.870, 3330.333
321.228, 3780.372
322.586, 3910.471
323.943, 4030.627
325.300, 4090.843
326.657, 4201.090
328.014, 4471.285
329.371, 4711.418
330.727, 5111.559
332.083, 5731.759
333.439, 6232.014
334.795, 6862.324
336.150, 7182.688
337.506, 6843.104
338.861, 6493.573
340.215, 6004.092
341.570, 5504.661
342.924, 4915.279
344.279, 4595.943
345.633, 4236.655
346.986, 4027.415
348.340, 3578.219
349.693, 3159.069
351.046, 2799.965
352.399, 2370.904
353.752, 2091.890
355.104, 1942.917
356.457, 1933.987
357.809, 1955.100
359.160, 1896.253
360.512, 2054.455
361.863, 2136.145
363.214, 1895.498
364.565, 1746.233
365.916, 1618.608
367.267, 1343.222
368.617, 1212.043
369.967, 983.488
371.317, 844.969
372.666, 608.975
374.016, 499.187
375.365, 313.681
376.714, 171.872
378.063, 77.489
379.411, 59.165
380.760, 29.129
382.108, 2.603
383.456, 204.363
384.803, 246.153
386.151, 406.976
387.498, 498.286
388.845, 534.851
390.192, 663.174
391.539, 510.078
392.885, 276.823
394.231, 276.278
395.577, 96.736
396.923, 48.760
398.269, 90.808
399.614, 42.881
400.959, 44.979
402.304, 177.101
403.649, 309.244
404.993, 601.406
406.337, 973.589
407.681, 1145.793
409.025, 1528.018
410.369, 1750.264
411.712, 2312.529
413.055, 2914.814
414.398, 3697.119
415.741, 4639.443
417.084, 5521.785
418.426, 6404.539
419.768, 6587.728
421.110, 6461.324
422.452, 6128.386
423.793, 4839.808
425.134, 3983.083
426.475, 3043.824
427.816, 2504.562
429.157, 1819.178
430.497, 1536.207
431.837, 1343.830
433.177, 1359.619
434.517, 1337.886
435.857, 1200.559
437.196, 1328.221
438.535, 1249.644
439.874, 1049.832
441.213, 986.865
442.551, 895.770
443.889, 680.380
445.227, 588.046
446.565, 508.718
447.903, 477.510
449.240, 694.968
450.577, 568.418
451.914, 842.212
453.251, 895.855
454.588, 919.524
455.924, 882.809
457.260, 784.348
458.596, 737.158
459.932, 480.292
461.267, 303.245
462.602, 176.104
463.938, 83.712
465.272, 57.678
466.607, 44.823
467.941, 117.749
469.276, 180.681
470.610, 273.628
471.943, 306.571
473.277, 289.515
474.610, 332.456
475.944, 335.395
477.276, 316.733
478.609, 411.306
479.942, 254.274
481.274, 197.240
482.606, 120.203
483.938, 153.163
485.270, 56.133
486.601, 409.096
487.932, 282.054
489.263, 485.021
490.594, 927.983
491.925, 890.953
493.255, 1173.914
494.585, 1346.871
495.915, 1129.824
497.245, 1102.769
498.575, 915.740
499.904, 878.704
501.233, 641.680
502.562, 764.662
503.891, 837.637
505.219, 1110.630
506.548, 1293.609
507.876, 1596.581
509.203, 2079.537
510.531, 2572.513
511.859, 2725.475
513.186, 2788.424
514.513, 2581.369
515.840, 2294.297
517.166, 1947.212
518.493, 1580.131
519.819, 1233.033
521.145, 895.937
522.470, 878.865
523.796, 511.829
525.121, 414.835
526.446, 317.861
527.771, 180.902
529.096, 43.935
530.421, 56.949
531.745, 20.056
533.069, 117.107
534.393, 24.256
535.716, 81.454
537.040, 38.733
538.363, 83.929
539.686, 86.567
541.009, 188.724
542.331, 351.293
543.654, 163.864
544.976, 276.411
546.298, 338.940
547.620, 281.449
548.941, 533.958
550.263, 446.458
551.584, 658.957
552.905, 771.454
554.225, 953.937
555.546, 1246.400
556.866, 1338.840
558.186, 1111.252
559.506, 1283.636
560.826, 905.991
562.145, 728.320
563.465, 560.620
564.784, 462.893
566.103, 335.136
567.421, 367.350
568.740, 272.414
570.058, 351.688
571.376, 183.813
572.694, 235.908
574.011, 187.971
575.329, 210.004
576.646, 102.006
577.963, 81.011
579.279, 65.897
580.596, 12.222
581.912, 80.415
583.228, 108.720
584.544, 67.152
585.860, 65.690
587.175, 45.664
588.491, 163.035
589.806, 11.894
591.121, 140.830
592.435, 19.918
593.750, 89.091
595.064, 8.295
596.378, 67.309
597.692, 46.799
599.006, 4.297
600.319, 24.713
601.632, 66.181
602.945, 3.580
604.258, 49.526
605.571, 18.971
606.883, 2.934
608.195, 132.675
609.507, 112.827
610.819, 123.078
612.131, 122.883
613.442, 154.688
614.753, 239.309
616.064, 319.133
617.375, 204.340
618.685, 259.853
619.995, 449.736
621.306, 360.861
622.615, 320.408
623.925, 420.507
625.235, 485.002
626.544, 596.038
627.853, 609.893
629.162, 649.490
630.471, 799.423
631.779, 739.231
633.087, 868.940
634.395, 900.600
635.703, 1053.207
637.011, 1124.253
638.318, 1333.600
639.625, 1472.923
640.932, 1472.268
642.239, 1573.996
643.546, 1763.258
644.852, 1975.389
646.158, 2254.110
647.464, 2622.949
648.770, 3054.472
650.076, 3513.010
651.381, 3961.898
652.686, 4850.898
653.991, 5609.696
655.296, 7026.078
656.600, 8504.783
657.905, 10567.474
659.209, 13229.895
660.513, 16518.186
661.817, 20523.201
663.120, 25831.230
664.423, 31009.609
665.726, 35837.465
667.029, 38962.062
668.332, 39500.188
669.635, 37368.250
670.937, 32977.688
672.239, 28115.486
673.541, 23103.094
674.842, 19794.889
676.144, 16132.652
677.445, 14070.384
678.746, 12128.091
680.047, 10875.406
681.348, 9165.344
682.648, 7802.561
683.948, 6549.905
685.248, 5397.054
686.548, 4434.119
687.848, 3601.137
689.147, 3095.610
690.447, 2683.864
691.746, 2277.817
693.044, 2038.053
694.343, 1730.846
695.641, 1627.562
696.940, 1504.230
698.238, 1370.851
699.535, 1217.424
700.833, 1193.949
702.130, 1113.934
703.427, 1050.840
704.724, 1093.229
706.021, 1009.557
707.318, 1075.837
708.614, 1172.068
709.910, 1448.251
711.206, 1444.384
712.502, 1780.470
713.798, 1506.507
715.093, 1652.495
716.388, 1518.436
717.683, 1294.327
718.978, 1240.171
720.272, 945.967
721.567, 851.715
722.861, 717.415
724.155, 683.069
725.448, 668.675
726.742, 564.234
728.035, 649.746
729.328, 665.211
730.621, 600.629
731.914, 716.000
733.206, 430.930
734.499, 765.397
735.791, 669.426
737.083, 509.961
738.374, 646.105
739.666, 650.366
740.957, 717.130
742.248, 693.885
743.539, 576.758
744.830, 527.205
746.120, 517.045
747.410, 358.700
748.701, 437.857
749.990, 252.588
751.280, 182.306
752.570, 328.236
753.859, 75.377
755.148, 155.640
756.437, 94.004
757.725, 226.630
759.014, 13.828
760.302, 92.661
761.590, 40.997
762.878, 50.631
764.166, 124.239
765.453, 87.471
766.740, 180.816
768.027, 4.107
769.314, 42.263
770.601, 141.672
771.887, 54.311
773.174, 60.673
774.460, 93.083
775.745, 153.103
777.031, 150.582
778.316, 34.232
779.602, 52.154
780.887, 1.381
782.172, 45.131
783.456, 78.285
784.741, 21.667
786.025, 25.013
787.309, 28.322
788.593, 18.403
789.876, 35.183
791.160, 12.024
792.443, 51.085
793.726, 44.161
795.009, 27.205
796.291, 29.781
797.574, 113.175
798.856, 36.104
800.138, 40.999
801.420, 81.839
802.702, 35.351
803.983, 127.404
805.264, 30.133
806.545, 2.833
807.826, 25.501
809.107, 121.860
810.387, 20.682
811.667, 66.804
812.947, 64.354
814.227, 78.032
815.507, 109.605
816.786, 112.671
818.065, 14.925
819.344, 147.152
820.623, 110.642
821.902, 31.481
823.180, 33.581
824.459, 34.343
825.737, 67.694
827.014, 99.709
828.292, 78.296
829.569, 33.640
830.847, 25.553
832.124, 17.445
833.401, 129.314
834.677, 58.833
835.954, 192.974
837.230, 44.764
838.506, 76.535
839.782, 108.290
841.057, 140.026
842.333, 131.116
843.608, 73.464
844.883, 95.220
846.158, 156.975
847.433, 128.745
848.707, 170.518
849.981, 172.277
851.255, 84.022
852.529, 285.755
853.803, 177.474
855.076, 179.179
856.350, 240.871
857.623, 202.553
858.895, 374.223
860.168, 475.882
861.441, 507.528
862.713, 579.175
863.985, 760.809
865.257, 963.814
866.528, 1184.150
867.800, 1555.810
869.071, 1947.463
870.342, 2349.108
871.613, 2790.749
872.884, 2732.421
874.154, 3124.088
875.425, 2965.759
876.695, 3007.423
877.965, 2639.080
879.234, 2310.734
880.504, 2362.382
881.773, 2104.027
883.042, 2005.668
884.311, 1987.307
885.580, 2158.945
886.848, 2210.600
888.117, 2312.253
889.385, 2229.633
890.653, 2075.589
891.920, 1927.301
893.188, 1589.074
894.455, 1290.882
895.722, 1072.764
896.989, 1064.656
898.256, 926.609
899.523, 768.598
900.789, 800.648
902.055, 762.724
903.321, 644.754
904.587, 976.533
905.852, 798.736
907.118, 1010.019
908.383, 1081.888
909.648, 1203.525
910.913, 1485.774
912.177, 1614.152
913.442, 1765.960
914.706, 1747.275
915.970, 1598.876
917.233, 1390.943
918.497, 1252.872
919.760, 1375.209
921.024, 1335.507
922.287, 1252.948
923.550, 1225.158
924.812, 1271.954
926.075, 1218.407
927.337, 1460.451
928.599, 1361.218
929.861, 1803.526
931.122, 2125.251
932.384, 2432.541
933.645, 3163.257
934.906, 3621.117
936.167, 4063.214
937.428, 4094.943
938.688, 3586.756
939.948, 3068.640
941.208, 2598.536
942.468, 2017.450
943.728, 1707.888
944.987, 1579.990
946.247, 1412.084
947.506, 1434.117
948.765, 1373.732
950.023, 1496.169
951.282, 1435.634
952.540, 1377.441
953.798, 1489.811
955.056, 1609.461
956.314, 1862.062
957.572, 1984.279
958.829, 2186.352
960.086, 2828.595
961.343, 3083.217
962.600, 3975.482
963.856, 4553.725
965.113, 5972.207
966.369, 7434.781
967.625, 9290.598
968.881, 11853.363
970.136, 13475.785
971.392, 15728.688
972.647, 16504.824
973.902, 15907.398
975.157, 14830.006
976.411, 13801.203
977.666, 12514.008
978.920, 11466.973
980.174, 11145.707
981.428, 10948.455
982.682, 11761.199
983.935, 12143.934
985.188, 14337.031
986.441, 15987.479
987.694, 18630.605
988.947, 22053.580
990.199, 24376.715
991.452, 25619.900
992.704, 24793.104
993.956, 22676.334
995.207, 21413.205
996.459, 20686.486
997.710, 21649.797
998.961, 22633.125
1000.212, 23876.473
1001.463, 25350.039
1002.714, 25113.418
1003.964, 23256.838
1005.214, 20450.299
1006.464, 17093.781
1007.714, 14297.611
1008.964, 12191.152
1010.213, 10394.711
1011.462, 9338.283
1012.711, 8393.793
1013.960, 8027.715
1015.209, 7442.639
1016.457, 7026.820
1017.705, 6720.863
1018.954, 6545.344
1020.201, 6419.805
1021.449, 6343.938
1022.697, 6456.900
1023.944, 6601.121
1025.191, 6767.656
1026.438, 6731.564
1027.685, 6725.684
1028.931, 6810.191
1030.177, 6584.576
1031.423, 6519.020
1032.669, 6313.510
1033.915, 6387.846
1035.161, 6013.348
1036.406, 6110.973
1037.651, 6195.180
1038.896, 6269.814
1040.141, 6744.160
1041.386, 7328.303
1042.630, 7825.965
1043.874, 8950.406
1045.118, 9473.949
1046.362, 9778.816
1047.606, 9613.230
1048.849, 9000.633
1050.092, 7696.121
1051.336, 6850.475
1052.578, 5665.504
1053.821, 4659.760
1055.064, 3869.420
1056.306, 3193.693
1057.548, 2697.975
1058.790, 1934.041
1060.032, 1828.393
1061.273, 1673.248
1062.515, 1268.418
1063.756, 1332.758
1064.997, 1121.441
1066.237, 1115.799
1067.478, 990.158
1068.718, 946.562
1069.959, 1009.721
1071.199, 934.111
1072.438, 859.389
1073.678, 924.455
1074.918, 578.900
1076.157, 793.479
1077.396, 697.953
1078.635, 522.670
1079.873, 767.934
1081.112, 482.475
1082.350, 647.143
1083.588, 661.816
1084.826, 470.268
1086.064, 464.875
1087.301, 449.482
1088.539, 554.941
1089.776, 229.559
1091.013, 284.615
1092.250, 629.264
1093.486, 854.309
1094.723, 299.146
1095.959, 383.861
1097.195, 208.580
1098.431, 313.645
1099.666, 218.459
1100.902, 223.275
1102.137, 329.264
1103.372, 103.941
1104.607, 159.037
1105.842, 404.605
1107.076, 279.531
1108.311, 184.713
1109.545, 399.809
1110.779, 164.520
1112.012, 209.689
1113.246, 334.395
1114.479, 109.430
1115.712, 264.631
1116.945, 109.365
1118.178, 162.871
1119.411, 277.752
1120.643, 182.496
1121.875, 329.186
1123.108, 444.627
1124.339, 259.648
1125.571, 364.646
1126.802, 9.766
1128.034, 285.730
1129.265, 131.316
1130.496, 217.053
1131.727, 112.379
1132.957, 158.289
1134.187, 124.033
1135.418, 229.061
1136.648, 44.328
1137.877, 350.521
1139.107, 126.039
1140.336, 181.729
1141.566, 98.736
1142.795, 103.445
1144.023, 201.969
1145.252, 100.451
1146.480, 295.660
1147.709, 250.570
1148.937, 5.990
1150.165, 101.906
1151.392, 172.174
1152.620, 72.262
1153.847, 157.867
1155.074, 9.074
1156.301, 204.209
1157.528, 149.736
1158.755, 204.305
1159.981, 50.850
1161.207, 21.992
1162.433, 209.455
1163.659, 4.969
1164.885, 47.400
1166.110, 8.564
1167.336, 46.744
1168.561, 5.193
1169.786, 160.883
1171.010, 65.314
1172.235, 49.127
1173.459, 164.551
1174.683, 110.840
1175.907, 24.842
1177.131, 58.412
1178.355, 55.645
1179.578, 49.137
1180.801, 94.295
1182.024, 17.725
1183.247, 54.365
1184.470, 152.539
1185.692, 56.703
1186.915, 129.912
1188.137, 262.012
1189.359, 44.859
1190.580, 140.006
1191.802, 136.092
1193.023, 46.807
1194.244, 161.707
1195.465, 34.766
1196.686, 1.029
1197.907, 195.775
1199.127, 38.561
1200.347, 271.615
1201.567, 64.461
1202.787, 328.143
1204.007, 290.920
1205.226, 3.604
1206.446, 228.904
1207.665, 111.971
1208.884, 44.938
1210.102, 247.369
1211.321, 39.984
1212.539, 293.006
1213.758, 345.324
1214.976, 58.828
1216.193, 311.092
1217.411, 394.906
1218.628, 57.436
1219.846, 109.613
1221.063, 321.762
1222.280, 243.990
1223.496, 376.070
1224.713, 228.604
1225.929, 102.318
1227.145, 424.775
1228.361, 258.092
1229.577, 259.965
1230.793, 17.625
1232.008, 334.453
1233.223, 466.223
1234.438, 88.602
1235.653, 420.500
1236.868, 192.111
1238.082, 324.865
1239.297, 206.387
1240.511, 257.859
1241.725, 289.262
1242.938, 290.598
1244.152, 212.402
1245.365, 273.641
1246.578, 274.766
1247.791, 57.408
1249.004, 358.379
1250.217, 219.305
1251.429, 110.168
1252.642, 260.855
1253.854, 201.488
1255.066, 222.047
1256.277, 322.508
1257.489, 213.352
1258.700, 333.648
1259.911, 253.869
1261.122, 214.730
1262.333, 424.902
1263.544, 75.104
1264.754, 314.553
1265.964, 464.316
1267.174, 55.438
1268.384, 185.068
1269.594, 284.607
1270.803, 299.217
1272.013, 268.637
1273.222, 107.973
1274.431, 157.244
1275.640, 136.453
1276.848, 215.594
1278.057, 114.721
1279.265, 133.709
1280.473, 282.842
1281.681, 221.732
1282.888, 90.506
1284.096, 159.186
1285.303, 137.791
1286.510, 56.520
1287.717, 35.246
1288.924, 159.980
1290.131, 18.250
1291.337, 196.748
1292.543, 264.848
1293.749, 153.008
1294.955, 100.734
1296.161, 11.410
1297.366, 6.963
1298.571, 127.619
1299.777, 24.795
1300.981, 182.854
1302.186, 130.096
1303.391, 307.238
1304.595, 234.305
1305.799, 139.283
1307.003, 85.789
1308.207, 261.223
1309.411, 212.664
1310.614, 353.514
1311.818, 109.184
1313.021, 15.162
1314.224, 260.793
1315.426, 122.246
1316.629, 73.385
1317.831, 436.623
1319.033, 42.305
1320.235, 257.668
1321.437, 352.572
1322.639, 17.518
1323.840, 422.334
1325.042, 77.023
1326.243, 1.797
1327.444, 425.312
1328.644, 16.633
1329.845, 141.303
1331.045, 365.494
1332.245, 70.082
1333.445, 394.510
1334.645, 65.561
1335.845, 139.842
1337.044, 325.070
1338.244, 49.133
1339.443, 155.664
1340.642, 124.113
1341.840, 3.078
1343.039, 307.184
1344.237, 234.906
1345.435, 93.758
1346.633, 432.275
1347.831, 276.957
1349.029, 25.283
1350.226, 404.416
1351.424, 191.812
1352.621, 210.672
1353.818, 399.371
1355.014, 277.367
1356.211, 185.881
1357.407, 370.092
1358.604, 107.641
1359.800, 585.584
1360.995, 83.484
1362.191, 261.482
1363.387, 379.141
1364.582, 406.904
1365.777, 313.336
1366.972, 459.678
1368.167, 226.600
1369.361, 83.840
1370.556, 230.953
1371.750, 107.553
1372.944, 423.533
1374.138, 200.648
1375.331, 264.328
1376.525, 330.705
1377.718, 175.475
1378.911, 279.775
1380.104, 444.000
1381.297, 118.701
1382.490, 412.215
1383.682, 585.875
1384.874, 333.922
1386.066, 632.936
1387.258, 207.332
1388.450, 379.629
1389.641, 417.537
1390.833, 70.379
1392.024, 372.525
1393.215, 526.391
1394.406, 496.689
1395.596, 380.600
1396.787, 343.051
1397.977, 479.953
1399.167, 239.832
1400.357, 129.529
1401.547, 413.096
1402.736, 290.576
1403.925, 83.059
1405.115, 200.207
1406.304, 372.297
1407.492, 121.279
1408.681, 556.918
1409.870, 16.340
1411.058, 276.312
1412.246, 290.900
1413.434, 49.717
1414.622, 522.469
1415.809, 268.469
1416.997, 188.119
1418.184, 269.354
1419.371, 279.443
1420.558, 167.871
1421.744, 274.238
1422.931, 124.809
1424.117, 164.816
1425.303, 569.207
1426.489, 233.930
1427.675, 351.750
1428.861, 109.887
1430.046, 86.025
1431.231, 360.988
1432.416, 308.996
1433.601, 66.914
1434.786, 452.994
1435.970, 95.764
1437.155, 333.387
1438.339, 271.176
1439.523, 40.814
1440.707, 275.756
1441.890, 524.082
1443.074, 19.361
1444.257, 189.426
1445.440, 251.107
1446.623, 98.266
1447.806, 312.973
1448.989, 189.035
1450.171, 104.736
1451.353, 509.932
1452.535, 33.814
1453.717, 208.799
1454.899, 352.459
1456.080, 4.648
1457.262, 337.605
1458.443, 400.520
1459.624, 14.049
1460.805, 460.947
1461.985, 18.039
1463.166, 230.516
1464.346, 343.334
1465.526, 86.492
1466.706, 69.295
1467.886, 241.754
1469.065, 132.592
1470.245, 304.521
1471.424, 330.059
1472.603, 126.838
1473.782, 184.830
1474.960, 245.217
1476.139, 149.729
1477.317, 209.574
1478.495, 149.189
1479.673, 0.000
##END=



