##NAMES=Rhodochrosite
##RRUFFID=R040133
##IDEAL CHEMISTRY=Mn^2+^CO_3_
##LOCALITY=Imuris, Sonora, Mexico
##OWNER=RRUFF
##SOURCE=University of Arizona Mineral Museum
##DESCRIPTION=Pink cleavage fragment
##STATUS=The identification of this mineral has been confirmed by X-ray diffraction and chemical analysis
##URL=rruff.info/R040133
##MEASURED CHEMISTRY=(Mn_0.92_Mg_0.02_Ca_0.01_)C_1.02_O_3_
##PIN_ID=L00122
##ORIENTATION=Laser parallel to c* (0 0 1). Fiducial mark perpendicular to laser is parallel to a [1 0 0]
124.037, 0.000
125.421, 4.834
126.804, 1.151
128.187, 10.657
129.570, 0.483
130.953, 7.259
132.335, 15.615
133.717, 2.452
135.100, 0.043
136.481, 8.106
137.863, 9.909
139.245, 0.653
140.626, 6.678
142.007, 33.848
143.388, 10.328
144.768, 13.754
146.149, 15.163
147.529, 1.361
148.909, 2.128
150.289, 19.653
151.669, 14.346
153.048, 16.177
154.427, 29.057
155.806, 26.881
157.185, 43.597
158.564, 26.170
159.942, 22.597
161.320, 29.881
162.698, 62.034
164.076, 45.069
165.454, 62.186
166.831, 81.456
168.209, 83.005
169.586, 106.603
170.962, 132.883
172.339, 170.323
173.715, 218.605
175.092, 314.103
176.468, 440.230
177.843, 651.721
179.219, 943.553
180.594, 1364.264
181.970, 1716.690
183.345, 1997.218
184.719, 2176.242
186.094, 2050.539
187.468, 1653.817
188.843, 1134.102
190.217, 743.279
191.590, 503.147
192.964, 340.932
194.337, 229.594
195.711, 176.148
197.084, 150.598
198.456, 117.043
199.829, 94.486
201.201, 81.929
202.574, 55.367
203.946, 46.801
205.317, 45.229
206.689, 35.656
208.060, 35.101
209.432, 28.559
210.803, 18.027
212.173, 24.504
213.544, 19.989
214.914, 1.479
216.285, 16.974
217.655, 24.473
219.024, 13.971
220.394, 16.470
221.763, 1.974
223.133, 10.479
224.502, 4.984
225.870, 20.490
227.239, 2.001
228.607, 6.505
229.976, 6.991
231.344, 8.525
232.711, 10.061
234.079, 10.392
235.446, 1.218
236.814, 5.858
238.181, 10.564
239.547, 6.968
240.914, 9.632
242.280, 0.778
243.647, 2.822
245.013, 7.359
246.378, 2.930
247.744, 1.430
249.109, 2.058
250.475, 15.429
251.840, 9.873
253.204, 13.361
254.569, 7.851
255.933, 20.350
257.298, 20.844
258.662, 21.347
260.025, 25.194
261.389, 23.395
262.753, 28.863
264.116, 30.346
265.479, 39.733
266.842, 29.067
268.204, 41.386
269.567, 39.733
270.929, 51.053
272.291, 90.344
273.653, 76.800
275.014, 106.293
276.376, 127.643
277.737, 182.131
279.098, 248.392
280.459, 315.724
281.820, 476.052
283.180, 624.336
284.540, 830.591
285.900, 1044.861
287.260, 1298.129
288.620, 1457.111
289.979, 1549.082
291.339, 1520.013
292.698, 1308.858
294.056, 1086.695
295.415, 840.508
296.774, 635.266
298.132, 471.007
299.490, 339.871
300.848, 277.549
302.206, 216.274
303.563, 160.901
304.920, 142.567
306.277, 127.256
307.634, 114.888
308.991, 91.546
310.347, 98.172
311.704, 91.588
313.060, 81.091
314.416, 61.693
315.772, 75.253
317.127, 55.981
318.482, 48.549
319.837, 56.100
321.192, 55.668
322.547, 49.198
323.902, 59.740
325.256, 41.276
326.610, 39.778
327.964, 39.271
329.318, 35.097
330.671, 38.184
332.025, 37.736
333.378, 40.213
334.731, 40.676
336.084, 35.105
337.436, 33.546
338.789, 33.011
340.141, 31.762
341.493, 31.743
342.844, 30.099
344.196, 28.442
345.547, 21.759
346.899, 35.065
348.250, 10.363
349.600, 33.650
350.951, 17.929
352.302, 22.201
353.652, 24.469
355.002, 20.734
356.352, 22.994
357.701, 21.109
359.051, 22.508
360.400, 18.762
361.749, 21.022
363.098, 21.292
364.446, 27.557
365.795, 24.835
367.143, 16.090
368.491, 30.328
369.839, 21.526
371.187, 24.725
372.534, 22.904
373.882, 25.003
375.229, 25.149
376.576, 28.264
377.922, 27.058
379.269, 26.174
380.615, 18.326
381.961, 14.390
383.307, 27.471
384.653, 25.303
385.998, 11.321
387.344, 21.245
388.689, 13.366
390.034, 15.221
391.379, 14.183
392.723, 2.478
394.068, 4.486
395.412, 18.504
396.756, 15.589
398.099, 9.394
399.443, 11.354
400.786, 5.516
402.130, 4.820
403.473, 10.847
404.815, 14.541
406.158, 14.833
407.501, 18.481
408.843, 16.274
410.185, 17.118
411.527, 16.739
412.868, 6.802
414.210, 18.798
415.551, 8.826
416.892, 15.796
418.233, 15.875
419.574, 8.952
420.914, 1.970
422.254, 6.121
423.595, 2.773
424.934, 2.331
426.274, 11.481
427.614, 7.650
428.953, 3.241
430.292, 11.916
431.631, 22.060
432.970, 7.215
434.308, 6.372
435.647, 6.509
436.985, 6.690
438.323, 9.223
439.661, 12.975
440.998, 14.308
442.336, 14.639
443.673, 13.815
445.010, 10.940
446.347, 9.857
447.683, 14.217
449.020, 6.341
450.356, 0.459
451.692, 0.343
453.028, 15.715
454.364, 4.822
455.699, 9.924
457.034, 18.081
458.369, 10.183
459.704, 3.723
461.039, 19.380
462.374, 3.466
463.708, 7.549
465.042, 7.631
466.376, 7.710
467.710, 12.787
469.043, 6.860
470.377, 12.677
471.710, 7.997
473.043, 19.063
474.376, 13.149
475.708, 14.210
477.041, 3.731
478.373, 13.338
479.705, 21.392
481.037, 7.442
482.368, 20.496
483.700, 4.541
485.031, 7.586
486.362, 17.647
487.693, 16.687
489.024, 12.725
490.354, 8.759
491.684, 8.797
493.014, 6.529
494.344, 15.868
495.674, 7.902
497.004, 6.949
498.333, 12.970
499.662, 8.032
500.991, 11.494
502.320, 16.055
503.648, 14.061
504.977, 18.061
506.305, 19.033
507.633, 17.455
508.961, 13.001
510.288, 15.022
511.616, 13.976
512.943, 13.948
514.270, 12.929
515.597, 12.616
516.924, 13.324
518.250, 11.234
519.576, 10.832
520.902, 8.792
522.228, 5.761
523.554, 6.311
524.880, 2.728
526.205, 7.713
527.530, 10.660
528.855, 14.667
530.180, 8.638
531.504, 6.622
532.829, 9.599
534.153, 13.584
535.477, 16.570
536.801, 11.569
538.124, 2.565
539.448, 6.558
540.771, 8.519
542.094, 16.463
543.417, 7.462
544.740, 13.454
546.062, 15.388
547.384, 6.367
548.707, 3.313
550.028, 7.269
551.350, 11.223
552.672, 4.116
553.993, 6.028
555.314, 12.007
556.635, 11.982
557.956, 3.934
559.277, 2.105
560.597, 8.838
561.917, 0.784
563.237, 9.756
564.557, 10.747
565.877, 3.740
567.196, 6.749
568.515, 2.809
569.835, 16.756
571.153, 3.765
572.472, 9.732
573.791, 23.749
575.109, 7.725
576.427, 6.731
577.745, 17.737
579.063, 13.714
580.380, 14.592
581.698, 1.557
583.015, 17.403
584.332, 0.648
585.649, 1.338
586.965, 5.308
588.282, 3.135
589.598, 6.123
590.914, 3.139
592.230, 2.105
593.546, 9.068
594.861, 0.967
596.176, 2.998
597.492, 4.974
598.807, 5.034
600.121, 5.006
601.436, 1.012
602.750, 6.978
604.064, 0.045
605.378, 7.927
606.692, 5.918
608.006, 12.874
609.319, 5.823
610.632, 0.246
611.946, 7.750
613.258, 6.699
614.571, 1.331
615.884, 4.667
617.196, 5.638
618.508, 2.442
619.820, 11.533
621.132, 10.490
622.443, 22.734
623.755, 13.700
625.066, 5.659
626.377, 13.639
627.688, 10.594
628.998, 17.573
630.309, 11.532
631.619, 0.529
632.929, 7.509
634.239, 7.524
635.548, 2.333
636.858, 5.315
638.167, 14.313
639.476, 4.267
640.785, 13.250
642.094, 12.592
643.403, 1.546
644.711, 13.526
646.019, 8.505
647.327, 11.976
648.635, 5.939
649.943, 12.897
651.250, 4.854
652.557, 6.548
653.864, 2.511
655.171, 11.491
656.478, 0.466
657.785, 7.617
659.091, 9.893
660.397, 8.267
661.703, 16.644
663.009, 12.029
664.314, 2.008
665.620, 21.974
666.925, 15.939
668.230, 12.904
669.535, 21.021
670.839, 10.984
672.144, 18.947
673.448, 18.939
674.752, 20.282
676.056, 3.822
677.360, 16.997
678.664, 22.948
679.967, 10.185
681.270, 24.153
682.573, 17.209
683.876, 24.159
685.178, 11.113
686.481, 27.357
687.783, 12.304
689.085, 13.308
690.387, 23.259
691.689, 19.209
692.990, 23.161
694.292, 14.160
695.593, 13.091
696.894, 32.094
698.194, 31.037
699.495, 40.981
700.795, 34.918
702.096, 43.860
703.396, 52.301
704.695, 67.231
705.995, 61.149
707.295, 82.490
708.594, 101.428
709.893, 137.348
711.192, 164.275
712.491, 273.210
713.789, 468.145
715.087, 863.061
716.386, 1597.910
717.684, 2337.842
718.981, 2784.743
720.279, 2503.673
721.576, 1514.602
722.874, 852.513
724.171, 521.436
725.468, 317.341
726.764, 216.266
728.061, 141.173
729.357, 119.096
730.653, 92.017
731.949, 59.937
733.245, 63.854
734.541, 52.772
735.836, 39.689
737.131, 44.605
738.426, 34.497
739.721, 30.412
741.016, 23.285
742.310, 21.174
743.605, 26.079
744.899, 21.059
746.193, 14.967
747.487, 26.862
748.780, 22.751
750.074, 11.214
751.367, 25.073
752.660, 17.114
753.953, 24.012
755.245, 2.711
756.538, 17.779
757.830, 24.631
759.122, 11.544
760.414, 15.414
761.706, 13.311
762.997, 16.206
764.289, 5.101
765.580, 13.103
766.871, 9.965
768.162, 24.857
769.452, 15.748
770.743, 13.787
772.033, 11.737
773.323, 11.623
774.613, 1.496
775.903, 5.381
777.193, 1.735
778.482, 7.146
779.771, 14.025
781.060, 18.902
782.349, 13.779
783.638, 10.655
784.926, 9.531
786.214, 6.405
787.502, 12.255
788.790, 3.127
790.078, 7.997
791.366, 7.853
792.653, 4.721
793.940, 20.589
795.227, 11.450
796.514, 3.685
797.801, 20.176
799.087, 16.018
800.373, 10.877
801.659, 5.265
802.945, 6.588
804.231, 12.438
805.517, 5.289
806.802, 8.867
808.087, 4.974
809.372, 2.798
810.657, 1.638
811.942, 0.432
813.226, 2.453
814.510, 4.005
815.794, 4.071
817.078, 4.248
818.362, 3.571
819.646, 13.363
820.929, 7.180
822.212, 7.995
823.495, 0.190
824.778, 8.622
826.061, 14.442
827.343, 2.253
828.625, 3.938
829.907, 7.133
831.189, 1.355
832.471, 6.441
833.753, 2.764
835.034, 2.028
836.315, 0.181
837.596, 3.607
838.877, 5.395
840.158, 2.818
841.438, 12.965
842.718, 0.748
843.999, 7.529
845.278, 4.310
846.558, 3.090
847.838, 0.868
849.117, 1.946
850.396, 0.422
851.675, 6.198
852.954, 3.972
854.233, 7.746
855.511, 9.519
856.790, 6.709
858.068, 8.059
859.346, 7.825
860.624, 5.409
861.901, 9.353
863.179, 5.114
864.456, 11.874
865.733, 5.634
867.010, 7.000
868.286, 12.152
869.563, 6.910
870.839, 6.668
872.115, 8.426
873.391, 5.182
874.667, 5.939
875.943, 14.694
877.218, 15.450
878.493, 10.204
879.768, 8.959
881.043, 5.713
882.318, 11.466
883.593, 3.219
884.867, 10.971
886.141, 10.723
887.415, 7.475
888.689, 9.226
889.962, 5.977
891.236, 1.727
892.509, 9.477
893.782, 5.227
895.055, 10.976
896.328, 11.194
897.601, 1.526
898.873, 9.222
900.145, 9.970
901.417, 2.717
902.689, 9.536
903.961, 7.206
905.232, 3.051
906.503, 9.689
907.775, 4.429
909.045, 6.863
910.316, 11.875
911.587, 0.386
912.857, 10.352
914.128, 13.090
915.398, 10.828
916.667, 13.566
917.937, 2.712
919.207, 7.025
920.476, 18.762
921.745, 0.499
923.014, 4.764
924.283, 2.029
925.552, 0.706
926.820, 8.441
928.088, 6.540
929.356, 9.800
930.624, 4.251
931.892, 5.978
933.160, 3.187
934.427, 9.449
935.694, 5.185
936.961, 9.921
938.228, 13.657
939.495, 9.384
940.761, 16.121
942.028, 8.826
943.294, 10.883
944.560, 20.299
945.825, 9.022
947.091, 13.761
948.356, 9.500
949.622, 19.840
950.887, 25.579
952.152, 6.320
953.416, 10.060
954.681, 14.305
955.945, 9.043
957.210, 5.786
958.474, 9.520
959.737, 18.546
961.001, 13.280
962.265, 21.994
963.528, 15.670
964.791, 10.286
966.054, 15.725
967.317, 10.068
968.579, 19.410
969.842, 7.742
971.104, 10.480
972.366, 25.232
973.628, 13.984
974.890, 16.737
976.151, 13.337
977.412, 0.909
978.674, 16.847
979.935, 10.572
981.195, 0.947
982.456, 13.125
983.717, 15.669
984.977, 31.428
986.237, 2.890
987.497, 15.624
988.757, 7.254
990.016, 10.013
991.276, 2.778
992.535, 9.254
993.794, 24.022
995.053, 23.725
996.312, 33.496
997.570, 23.267
998.829, 33.037
1000.087, 22.759
1001.345, 33.521
1002.603, 58.229
1003.860, 60.006
1005.118, 70.784
1006.375, 70.564
1007.632, 88.345
1008.889, 92.628
1010.146, 96.412
1011.402, 107.198
1012.659, 114.576
1013.915, 118.364
1015.171, 115.154
1016.427, 125.944
1017.683, 131.737
1018.938, 125.530
1020.194, 136.325
1021.449, 157.121
1022.704, 148.919
1023.959, 159.718
1025.213, 183.518
1026.468, 182.320
1027.722, 171.123
1028.976, 185.929
1030.230, 177.737
1031.484, 211.546
1032.738, 183.356
1033.991, 172.168
1035.245, 174.981
1036.498, 204.796
1037.751, 198.614
1039.003, 201.433
1040.256, 195.255
1041.508, 220.077
1042.760, 242.903
1044.013, 237.729
1045.264, 263.558
1046.516, 256.391
1047.768, 279.227
1049.019, 300.982
1050.270, 320.824
1051.521, 330.668
1052.772, 335.515
1054.023, 397.808
1055.273, 393.659
1056.523, 419.362
1057.774, 457.220
1059.023, 456.080
1060.273, 505.572
1061.523, 527.436
1062.772, 634.287
1064.022, 702.155
1065.271, 802.026
1066.520, 846.791
1067.768, 991.773
1069.017, 902.541
1070.265, 914.421
1071.513, 885.303
1072.761, 1001.188
1074.009, 1185.868
1075.257, 1362.690
1076.505, 1554.580
1077.752, 1845.472
1078.999, 2280.368
1080.246, 3024.265
1081.493, 4132.164
1082.740, 6429.067
1083.986, 11214.973
1085.232, 21404.875
1086.478, 41864.785
1087.724, 56204.695
1088.970, 47454.613
1090.216, 28424.520
1091.461, 14724.436
1092.706, 8871.474
1093.952, 5465.394
1095.196, 3408.314
1096.441, 2370.307
1097.686, 1676.232
1098.930, 1281.159
1100.174, 1014.097
1101.418, 815.029
1102.662, 695.963
1103.906, 602.899
1105.150, 510.015
1106.393, 439.956
1107.636, 403.900
1108.879, 363.845
1110.122, 310.795
1111.365, 275.855
1112.607, 263.812
1113.849, 219.791
1115.092, 214.791
1116.334, 196.754
1117.575, 178.720
1118.817, 168.689
1120.058, 151.712
1121.300, 157.637
1122.541, 130.614
1123.782, 131.592
1125.023, 136.573
1126.263, 120.556
1127.504, 103.532
1128.744, 94.518
1129.984, 114.506
1131.224, 93.497
1132.464, 97.493
1133.703, 81.492
1134.943, 64.491
1136.182, 73.494
1137.421, 75.499
1138.660, 71.506
1139.898, 66.515
1141.137, 69.525
1142.375, 61.785
1143.613, 57.799
1144.851, 51.815
1146.089, 54.833
1147.327, 52.853
1148.565, 49.874
1149.802, 40.897
1151.039, 43.673
1152.276, 40.947
1153.513, 44.975
1154.749, 42.004
1155.986, 41.035
1157.222, 33.067
1158.458, 38.264
1159.694, 40.301
1160.930, 37.339
1162.166, 50.381
1163.401, 37.424
1164.636, 32.468
1165.872, 35.513
1167.106, 18.560
1168.341, 25.609
1169.576, 33.658
1170.810, 27.709
1172.044, 14.761
1173.279, 17.817
1174.512, 22.872
1175.746, 15.928
1176.980, 17.321
1178.213, 23.380
1179.446, 13.439
1180.679, 16.500
1181.912, 16.562
1183.145, 11.046
1184.378, 19.690
1185.610, 8.087
1186.842, 8.235
1188.074, 14.303
1189.306, 18.372
1190.538, 13.710
1191.769, 16.782
1193.001, 12.854
1194.232, 25.635
1195.463, 20.103
1196.694, 7.510
1197.924, 12.672
1199.155, 2.149
1200.385, 6.497
1201.615, 18.578
1202.845, 8.662
1204.075, 19.939
1205.305, 5.903
1206.534, 6.031
1207.763, 16.122
1208.993, 11.254
1210.222, 10.366
1211.450, 22.464
1212.679, 9.033
1213.907, 6.137
1215.136, 9.304
1216.364, 11.675
1217.592, 20.879
1218.820, 20.986
1220.047, 1.413
1221.275, 31.522
1222.502, 5.727
1223.729, 24.850
1224.956, 18.963
1226.183, 3.257
1227.409, 9.371
1228.636, 16.494
1229.862, 0.623
1231.088, 5.740
1232.314, 14.882
1233.540, 3.006
1234.765, 14.126
1235.991, 4.273
1237.216, 4.396
1238.441, 10.535
1239.666, 4.339
1240.891, 6.788
1242.115, 8.915
1243.339, 2.930
1244.564, 3.197
1245.788, 4.326
1247.012, 0.545
1248.235, 11.586
1249.459, 18.717
1250.682, 2.849
1251.905, 5.017
1253.128, 13.116
1254.351, 5.249
1255.574, 12.384
1256.797, 4.520
1258.019, 3.343
1259.241, 0.172
1260.463, 1.034
1261.685, 1.631
1262.907, 0.240
1264.128, 2.378
1265.350, 7.517
1266.571, 13.653
1267.792, 11.791
1269.013, 7.927
1270.233, 18.058
1271.454, 19.184
1272.674, 18.306
1273.894, 11.426
1275.114, 15.545
1276.334, 10.656
1277.554, 11.767
1278.773, 18.878
1279.993, 0.985
1281.212, 23.088
1282.431, 1.190
1283.650, 21.289
1284.868, 14.386
1286.087, 15.481
1287.305, 2.576
1288.523, 4.331
1289.741, 9.761
1290.959, 8.852
1292.177, 4.943
1293.394, 19.032
1294.612, 5.120
1295.829, 3.208
1297.046, 13.294
1298.263, 10.379
1299.479, 0.463
1300.696, 10.546
1301.912, 4.627
1303.128, 10.707
1304.344, 2.216
1305.560, 13.860
1306.776, 5.933
1307.991, 5.004
1309.207, 11.074
1310.422, 10.142
1311.637, 3.209
1312.852, 10.275
1314.066, 7.339
1315.281, 12.402
1316.495, 13.464
1317.709, 9.525
1318.923, 1.585
1320.137, 5.644
1321.351, 6.701
1322.564, 4.242
1323.777, 11.811
1324.991, 3.864
1326.204, 7.915
1327.416, 11.989
1328.629, 5.070
1329.841, 13.121
1331.054, 3.830
1332.266, 0.216
1333.478, 12.266
1334.690, 9.310
1335.901, 2.645
1337.113, 5.393
1338.324, 7.463
1339.535, 9.501
1340.746, 4.446
1341.957, 3.424
1343.168, 0.582
1344.378, 4.425
1345.589, 2.247
1346.799, 10.931
1348.009, 12.105
1349.219, 0.724
1350.428, 11.553
1351.638, 2.617
1352.847, 12.785
1354.056, 2.951
1355.265, 4.115
1356.474, 13.277
1357.683, 4.560
1358.891, 6.601
1360.100, 2.762
1361.308, 1.077
1362.516, 2.085
1363.724, 8.246
1364.931, 1.734
1366.139, 8.426
1367.346, 2.502
1368.553, 6.652
1369.760, 9.488
1370.967, 0.754
1372.174, 12.911
1373.380, 8.067
1374.587, 7.083
1375.793, 19.156
1376.999, 6.309
1378.205, 9.462
1379.410, 19.614
1380.616, 6.766
1381.821, 12.918
1383.026, 8.070
1384.231, 14.223
1385.436, 11.375
1386.641, 22.529
1387.846, 7.682
1389.050, 32.479
1390.254, 24.630
1391.458, 19.782
1392.662, 24.935
1393.866, 23.088
1395.069, 21.663
1396.273, 21.398
1397.476, 18.300
1398.679, 15.454
1399.882, 13.611
1401.085, 14.769
1402.287, 19.928
1403.490, 9.090
1404.692, 27.249
1405.894, 23.828
1407.096, 31.988
1408.297, 22.149
1409.499, 51.313
1410.700, 47.715
1411.902, 56.872
1413.103, 58.518
1414.304, 85.296
1415.504, 113.997
1416.705, 157.136
1417.905, 198.680
1419.106, 283.365
1420.306, 298.501
1421.506, 268.450
1422.705, 226.435
1423.905, 168.389
1425.105, 130.618
1426.304, 103.349
1427.503, 96.541
1428.702, 82.217
1429.901, 70.866
1431.099, 67.759
1432.298, 59.423
1433.496, 62.226
1434.694, 65.020
1435.892, 64.821
1437.090, 52.644
1438.288, 61.374
1439.485, 57.172
1440.682, 51.950
1441.879, 71.706
1443.076, 66.444
1444.273, 56.158
1445.470, 75.847
1446.666, 61.390
1447.863, 71.032
1449.059, 68.640
1450.255, 47.236
1451.451, 56.834
1452.646, 51.484
1453.842, 39.148
1455.037, 68.861
1456.233, 34.572
1457.428, 43.318
1458.622, 42.087
1459.817, 31.868
1461.012, 31.641
1462.206, 24.927
1463.400, 5.174
1464.594, 17.935
1465.788, 4.694
1466.982, 9.456
1468.176, 8.235
1469.369, 11.033
1470.562, 0.145
1471.755, 0.305
1472.948, 2.552
1474.141, 5.419
1475.333, 12.299
1476.526, 2.197
1477.718, 18.119
1478.910, 9.070
1480.102, 11.056
1481.294, 0.176
1482.486, 11.473
1483.677, 0.086
1484.868, 12.283
1486.059, 10.074
1487.250, 0.000
##END=



