##NAMES=Riebeckite
##RRUFFID=R050082
##IDEAL CHEMISTRY=[box]Na_2_(Fe^2+^_3_Fe^3+^_2_)Si_8_O_22_(OH)_2_
##LOCALITY=Mt. Malosa, Zomba, Chilwa, Alkaline Area, Malawi
##OWNER=RRUFF
##SOURCE=Rock Currier
##DESCRIPTION=Black elongated prisms
##STATUS=The identification of this mineral has been confirmed by X-ray diffraction and chemical analysis
##URL=rruff.info/R050082
##MEASURED CHEMISTRY=([box]_0.63_Na_0.19_K_0.18_)(Na_1.58_Ca_0.42_)_Σ=2_Fe^2+^_3.00_(Fe^3+^_1.30_Fe^2+^_0.45_Mn_0.15_Mg_0.05_Ti_0.05_)_Σ=2_(Si_0.98_Al_0.02_)_8_O_22_(OH)_2_
##PIN_ID=L00547
##ORIENTATION=Laser parallel to -a* (-1 0 0). Fiducial mark perpendicular to laser is parallel to -b [0 -1 0]
173.2350, 0.0000000E+00
174.4650, 138.8320
175.6950, 154.9258
176.9250, 351.4531
178.1550, 846.0586
179.3840, 1323.055
180.6130, 2019.113
181.8420, 2734.781
183.0710, 3563.672
184.3000, 4507.398
185.5280, 5559.766
186.7570, 6413.930
187.9850, 7578.977
189.2130, 8529.145
190.4400, 9816.457
191.6680, 10360.28
192.8960, 10597.19
194.1230, 10892.14
195.3500, 10495.55
196.5770, 9983.582
197.8030, 9472.641
199.0300, 9714.004
200.2560, 10483.73
201.4830, 10387.04
202.7090, 8492.746
203.9340, 5212.945
205.1600, 2742.059
206.3860, 1364.129
207.6110, 1132.078
208.8360, 1190.453
210.0610, 953.5117
211.2860, 1476.914
212.5100, 1406.930
213.7350, 1578.297
214.9590, 796.2656
216.1830, 523.1367
217.4070, 433.6797
218.6310, 23.07422
219.8540, 20.83984
221.0780, 192.7773
222.3010, 183.7852
223.5240, 231.7617
224.7470, 347.5156
225.9690, 75.30859
227.1920, 47.91016
228.4140, 171.1992
229.6360, 140.5352
230.8580, 21.49219
232.0800, 463.7695
233.3020, 624.2344
234.5230, 991.1445
235.7440, 878.8281
236.9650, 1076.512
238.1860, 1372.980
239.4070, 1548.977
240.6280, 1785.879
241.8480, 1681.773
243.0680, 1926.617
244.2880, 1986.418
245.5080, 1420.184
246.7280, 1242.059
247.9470, 979.5117
249.1660, 859.5820
250.3860, 783.2305
251.6040, 469.5469
252.8230, 77.08984
254.0420, 316.7383
255.2600, 455.5508
256.4790, 498.9531
257.6970, 160.0977
258.9150, 315.4062
260.1320, 272.8906
261.3500, 222.3633
262.5670, 447.4453
263.7840, 164.7500
265.0010, 450.4609
266.2180, 471.1055
267.4350, 376.7578
268.6510, 515.3750
269.8680, 250.7930
271.0840, 94.87109
272.3000, 127.1016
273.5160, 247.3984
274.7310, 271.4453
275.9470, 87.31250
277.1620, 47.82812
278.3770, 15.01562
279.5920, 85.99219
280.8070, 118.5859
282.0210, 184.6680
283.2360, 15.50000
284.4500, 14.67969
285.6640, 105.7812
286.8780, 2.425781
288.0920, 49.17578
289.3050, 103.2109
290.5180, 154.2695
291.7320, 39.54297
292.9450, 137.8359
294.1570, 162.4883
295.3700, 110.2852
296.5830, 90.96094
297.7950, 104.9180
299.0070, 71.51953
300.2190, 27.58984
301.4310, 215.1719
302.6420, 73.79297
303.8540, 64.34766
305.0650, 95.45312
306.2760, 276.2148
307.4870, 656.4805
308.6980, 1892.199
309.9080, 1640.562
311.1190, 986.7422
312.3290, 1280.859
313.5390, 2636.000
314.7490, 2296.199
315.9580, 2790.449
317.1680, 3477.762
318.3770, 4024.121
319.5860, 4852.000
320.7950, 5531.746
322.0040, 5787.262
323.2130, 6829.039
324.4210, 7585.812
325.6290, 7930.410
326.8380, 8577.898
328.0460, 8768.547
329.2530, 9126.973
330.4610, 8694.953
331.6680, 8423.395
332.8760, 7988.172
334.0830, 7445.234
335.2890, 7022.648
336.4960, 6269.617
337.7030, 5470.781
338.9090, 4687.613
340.1150, 4085.980
341.3210, 3222.820
342.5270, 2746.770
343.7330, 2545.730
344.9380, 2648.051
346.1440, 2444.449
347.3490, 2615.688
348.5540, 2638.469
349.7590, 3115.051
350.9630, 3556.453
352.1680, 3450.164
353.3720, 3302.801
354.5760, 3639.762
355.7800, 3633.598
356.9840, 4316.301
358.1870, 4122.832
359.3910, 4182.090
360.5940, 3984.762
361.7970, 4440.062
363.0000, 4064.789
364.2030, 3494.371
365.4050, 3725.289
366.6080, 3147.559
367.8100, 2723.246
369.0120, 2204.875
370.2140, 1973.434
371.4150, 2457.660
372.6170, 2256.895
373.8180, 2441.070
375.0190, 2590.141
376.2200, 2432.402
377.4210, 2381.625
378.6220, 2518.234
379.8220, 2670.859
381.0230, 2563.914
382.2230, 3152.457
383.4230, 2486.055
384.6220, 2611.547
385.8220, 2719.039
387.0220, 2279.555
388.2210, 2030.090
389.4200, 2009.645
390.6190, 1836.227
391.8180, 1350.828
393.0160, 1187.102
394.2150, 1036.930
395.4130, 898.5000
396.6110, 630.7344
397.8090, 261.4258
399.0060, 343.5469
400.2040, 356.8945
401.4010, 178.5078
402.5980, 348.9805
403.7950, 221.3633
404.9920, 113.5430
406.1890, 107.9336
407.3860, 164.3828
408.5820, 214.3711
409.7780, 20.20703
410.9740, 47.09375
412.1700, 3.144531
413.3650, 232.9062
414.5610, 159.6211
415.7560, 117.7266
416.9510, 43.25000
418.1460, 310.1992
419.3410, 18.98438
420.5360, 348.7422
421.7300, 280.6992
422.9240, 334.4609
424.1180, 448.8984
425.3120, 444.7695
426.5060, 534.7578
427.7000, 510.3711
428.8930, 516.1445
430.0860, 502.4492
431.2790, 600.1445
432.4720, 562.3281
433.6650, 738.6172
434.8580, 615.7344
436.0500, 484.8672
437.2420, 608.9180
438.4340, 312.7500
439.6260, 323.8125
440.8180, 429.3320
442.0090, 376.1445
443.2010, 451.6797
444.3920, 338.1367
445.5830, 330.7266
446.7740, 319.6797
447.9640, 178.1836
449.1550, 326.5938
450.3450, 266.2617
451.5350, 368.9766
452.7250, 323.3906
453.9150, 438.0039
455.1050, 282.6562
456.2940, 456.3438
457.4830, 534.8984
458.6720, 512.8398
459.8610, 861.6523
461.0500, 888.1758
462.2390, 1142.379
463.4270, 905.2383
464.6150, 1283.047
465.8040, 1126.809
466.9910, 1391.523
468.1790, 1355.191
469.3670, 1369.492
470.5540, 1152.391
471.7410, 1373.918
472.9280, 1091.828
474.1150, 1029.281
475.3020, 645.6875
476.4890, 825.3477
477.6750, 1034.688
478.8610, 676.0000
480.0470, 611.2852
481.2330, 922.5469
482.4190, 773.7812
483.6040, 1218.996
484.7900, 1131.195
485.9750, 1415.379
487.1600, 1082.551
488.3450, 1270.723
489.5290, 1219.898
490.7140, 1101.078
491.8980, 1092.273
493.0820, 1250.477
494.2660, 1325.691
495.4500, 1450.922
496.6340, 1598.160
497.8170, 1542.418
499.0010, 1706.684
500.1840, 1742.969
501.3670, 1707.266
502.5500, 1733.578
503.7320, 1875.910
504.9150, 1902.266
506.0970, 1661.645
507.2790, 2195.086
508.4610, 2149.594
509.6430, 2326.141
510.8250, 2035.816
512.0060, 2735.625
513.1870, 2731.656
514.3680, 2560.781
515.5490, 2806.059
516.7300, 2950.457
517.9110, 3266.973
519.0910, 3379.566
520.2710, 3454.199
521.4510, 4023.910
522.6310, 4243.719
523.8110, 4460.574
524.9910, 4909.484
526.1700, 5408.488
527.3490, 6053.633
528.5280, 7045.621
529.7070, 7621.750
530.8860, 8508.988
532.0650, 9381.273
533.2430, 10133.29
534.4210, 10781.95
535.5990, 11571.39
536.7770, 12201.89
537.9550, 12415.46
539.1320, 12857.12
540.3100, 12999.85
541.4870, 12285.68
542.6640, 12099.57
543.8410, 11345.50
545.0170, 10586.48
546.1940, 9921.516
547.3700, 8954.816
548.5470, 8612.430
549.7230, 7983.859
550.8980, 7521.125
552.0740, 7239.055
553.2500, 6952.418
554.4250, 6435.469
555.6000, 6397.996
556.7750, 6220.312
557.9500, 6246.949
559.1250, 6394.625
560.2990, 6323.852
561.4730, 6951.977
562.6480, 6749.629
563.8220, 7182.883
564.9950, 7354.016
566.1690, 7833.145
567.3430, 8375.000
568.5160, 8819.496
569.6890, 9755.352
570.8620, 9699.840
572.0350, 10212.39
573.2070, 10536.00
574.3800, 10433.15
575.5520, 10680.88
576.7240, 10741.02
577.8960, 10022.84
579.0680, 9575.703
580.2400, 8504.664
581.4110, 7753.168
582.5830, 6310.266
583.7540, 5280.406
584.9250, 4526.633
586.0950, 3945.906
587.2660, 2840.289
588.4370, 2404.719
589.6070, 2186.215
590.7770, 2162.750
591.9470, 1526.312
593.1170, 1272.910
594.2860, 926.5234
595.4560, 829.1680
596.6250, 694.6328
597.7940, 560.9297
598.9630, 594.2344
600.1320, 473.9727
601.3000, 401.8789
602.4690, 467.5117
603.6370, 249.3164
604.8050, 373.1445
605.9730, 126.9961
607.1410, 359.8711
608.3090, 31.76953
609.4760, 191.6875
610.6430, 184.8984
611.8100, 450.8672
612.9770, 39.14453
614.1440, 91.86719
615.3110, 203.8945
616.4770, 28.04688
617.6430, 373.0312
618.8090, 274.1328
619.9750, 234.2539
621.1410, 308.4062
622.3070, 232.5781
623.4720, 440.7773
624.6370, 554.9961
625.8020, 670.2422
626.9670, 664.6016
628.1320, 400.9297
629.2970, 663.8125
630.4610, 825.5000
631.6250, 892.8672
632.7890, 576.3555
633.9530, 753.7969
635.1170, 733.3125
636.2810, 704.7422
637.4440, 952.2305
638.6070, 691.4336
639.7700, 934.1055
640.9330, 975.8359
642.0960, 1109.559
643.2590, 1208.641
644.4210, 1769.258
645.5830, 1503.902
646.7450, 2039.562
647.9070, 2590.246
649.0690, 2884.953
650.2310, 3311.109
651.3920, 3934.469
652.5530, 4668.711
653.7140, 4919.234
654.8750, 5811.500
656.0360, 6023.316
657.1970, 6668.145
658.3570, 7020.992
659.5170, 7447.945
660.6770, 7559.906
661.8370, 7938.469
662.9970, 7689.320
664.1570, 8068.598
665.3160, 7387.309
666.4750, 8137.129
667.6340, 6355.262
668.7930, 5315.348
669.9520, 5049.305
671.1110, 4207.363
672.2690, 3549.344
673.4270, 3187.336
674.5850, 2390.141
675.7430, 2337.082
676.9010, 1947.738
678.0590, 1806.598
679.2160, 1562.621
680.3730, 1148.340
681.5300, 644.5977
682.6870, 845.2695
683.8440, 604.2969
685.0010, 795.5469
686.1570, 575.7305
687.3130, 312.7852
688.4690, 392.8594
689.6250, 208.9609
690.7810, 289.0977
691.9370, 1.921875
693.0920, 35.34766
694.2470, 59.50781
695.4020, 168.6328
696.5570, 279.8047
697.7120, 302.9648
698.8670, 221.9414
700.0210, 282.8945
701.1750, 105.0039
702.3290, 79.17188
703.4830, 23.51172
704.6370, 170.5938
705.7910, 93.95312
706.9440, 149.0781
708.0970, 25.80078
709.2510, 183.5000
710.4030, 373.0977
711.5560, 314.9648
712.7090, 28.96094
713.8610, 198.4648
715.0140, 34.88281
716.1660, 64.28516
717.3180, 310.6758
718.4690, 166.0625
719.6210, 6.558594
720.7730, 141.7852
721.9240, 14.88281
723.0750, 403.4062
724.2260, 390.6953
725.3770, 345.9609
726.5270, 367.2227
727.6780, 534.4727
728.8280, 364.7188
729.9780, 344.9453
731.1280, 602.1602
732.2780, 313.3711
733.4280, 190.5664
734.5770, 622.7461
735.7260, 281.9180
736.8760, 416.0781
738.0250, 438.2266
739.1730, 170.3594
740.3220, 323.4883
741.4700, 358.5977
742.6190, 235.6992
743.7670, 301.8906
744.9150, 224.8672
746.0630, 204.9336
747.2100, 196.9883
748.3580, 61.02344
749.5050, 256.0469
750.6520, 374.0586
751.7990, 243.6406
752.9460, 102.6250
754.0930, 232.6016
755.2390, 283.2812
756.3860, 178.2305
757.5320, 255.1719
758.6780, 235.1016
759.8240, 368.0156
760.9690, 396.6523
762.1150, 263.8125
763.2600, 505.6914
764.4060, 362.5586
765.5510, 380.4141
766.6950, 305.2539
767.8400, 210.0859
768.9850, 29.90234
770.1290, 505.6914
771.2730, 301.4688
772.4170, 767.2344
773.5610, 299.9844
774.7050, 58.73047
775.8480, 247.4531
776.9920, 415.1641
778.1350, 234.8633
779.2780, 212.5508
780.4210, 384.2227
781.5640, 157.8867
782.7060, 432.5391
783.8490, 93.17578
784.9910, 220.8047
786.1330, 452.4219
787.2750, 9.976563
788.4170, 53.57812
789.5580, 198.8867
790.7000, 48.51172
791.8410, 182.1055
792.9820, 211.1445
794.1230, 390.3867
795.2640, 253.6133
796.4040, 76.83203
797.5450, 91.96484
798.6850, 221.8398
799.8250, 13.13672
800.9650, 20.92188
802.1050, 200.0273
803.2450, 37.73438
804.3840, 6.480469
805.5230, 29.18750
806.6630, 248.1953
807.8020, 11.72656
808.9400, 123.5000
810.0790, 162.9922
811.2170, 180.0586
812.3560, 29.26953
813.4940, 76.50781
814.6320, 131.9102
815.7700, 88.16406
816.9070, 199.6133
818.0450, 15.96484
819.1820, 30.53516
820.3190, 137.0625
821.4560, 44.41797
822.5930, 13.27734
823.7300, 181.3438
824.8670, 239.0977
826.0030, 123.4609
827.1390, 235.7656
828.2750, 59.19531
829.4110, 219.0977
830.5470, 207.6367
831.6820, 150.7109
832.8180, 247.4336
833.9530, 68.14844
835.0880, 87.13281
836.2230, 317.0273
837.3580, 90.28516
838.4920, 40.19531
839.6270, 38.44141
840.7610, 98.89062
841.8950, 65.36328
843.0290, 148.3438
844.1630, 18.78516
845.2960, 11.62109
846.4300, 80.41797
847.5630, 154.0469
848.6960, 107.5195
849.8290, 140.5312
850.9620, 97.00781
852.0940, 458.1211
853.2270, 211.6094
854.3590, 702.1055
855.4910, 332.6133
856.6230, 419.3594
857.7550, 451.4805
858.8870, 492.7617
860.0180, 535.0977
861.1500, 685.8398
862.2810, 595.3945
863.4120, 647.9570
864.5430, 684.5312
865.6730, 963.1133
866.8040, 1051.711
867.9340, 1459.312
869.0640, 1405.930
870.1940, 1636.559
871.3240, 1483.199
872.4540, 1485.852
873.5830, 1743.516
874.7130, 1770.191
875.8420, 1944.047
876.9710, 2019.594
878.1000, 2296.312
879.2290, 2228.047
880.3570, 2441.797
881.4860, 2148.562
882.6140, 2334.340
883.7420, 2491.133
884.8700, 2626.676
885.9980, 2482.504
887.1250, 2319.352
888.2530, 2304.219
889.3800, 2238.098
890.5070, 1942.000
891.6340, 2023.922
892.7610, 1733.859
893.8880, 1867.820
895.0140, 1719.801
896.1400, 1533.797
897.2670, 1487.453
898.3930, 1298.727
899.5180, 1207.914
900.6440, 1024.996
901.7700, 889.0977
902.8950, 809.7773
904.0200, 945.3672
905.1450, 715.1484
906.2700, 1006.336
907.3950, 901.5547
908.5190, 733.7930
909.6440, 678.0586
910.7680, 718.8594
911.8920, 637.7891
913.0160, 704.3906
914.1400, 654.8984
915.2630, 787.3086
916.3870, 891.7422
917.5100, 871.2031
918.6330, 808.6875
919.7560, 870.2070
920.8790, 865.4297
922.0010, 810.3281
923.1240, 951.5117
924.2460, 841.5430
925.3680, 903.7734
926.4900, 867.9219
927.6120, 911.1562
928.7340, 841.9961
929.8550, 835.8906
930.9760, 983.8164
932.0980, 946.6875
933.2190, 797.6172
934.3390, 603.0000
935.4600, 1047.141
936.5810, 928.4180
937.7010, 942.2773
938.8210, 1167.617
939.9410, 968.7070
941.0610, 1132.719
942.1810, 1280.266
943.3010, 1133.578
944.4200, 1352.020
945.5390, 1133.516
946.6580, 1505.238
947.7770, 1238.898
948.8960, 1459.887
950.0150, 1609.754
951.1330, 1860.508
952.2510, 1838.648
953.3690, 2609.305
954.4870, 3094.602
955.6050, 2271.582
956.7230, 2244.426
957.8400, 2929.402
958.9580, 2681.586
960.0750, 3092.816
961.1920, 3820.109
962.3090, 4190.457
963.4250, 4563.062
964.5420, 4793.438
965.6580, 5126.984
966.7740, 5015.602
967.8900, 5453.309
969.0060, 5270.070
970.1220, 4922.969
971.2380, 4958.922
972.3530, 4440.008
973.4680, 4391.223
974.5830, 3762.598
975.6980, 3361.812
976.8130, 2721.285
977.9280, 2834.543
979.0420, 2442.805
980.1560, 2260.285
981.2710, 1873.914
982.3850, 2066.719
983.4980, 1864.582
984.6120, 1679.523
985.7260, 2015.527
986.8390, 2057.586
987.9520, 1619.707
989.0650, 1897.883
990.1780, 1505.113
991.2910, 1170.188
992.4030, 1406.090
993.5160, 1540.895
994.6280, 1580.012
995.7400, 1236.660
996.8520, 1387.312
997.9640, 1340.078
999.0750, 1284.758
1000.187, 1505.109
1001.298, 1217.676
1002.409, 1433.766
1003.520, 1448.934
1004.631, 1556.152
1005.741, 1464.254
1006.852, 1433.938
1007.962, 1602.922
1009.072, 1372.930
1010.182, 1328.297
1011.292, 1606.715
1012.402, 1469.195
1013.511, 1471.750
1014.621, 1723.367
1015.730, 1762.051
1016.839, 1398.789
1017.948, 1842.598
1019.056, 1825.469
1020.165, 2078.402
1021.273, 2229.395
1022.382, 1919.453
1023.490, 2597.570
1024.598, 2567.750
1025.706, 3036.988
1026.813, 3019.289
1027.921, 3268.648
1029.028, 3366.070
1030.135, 3568.555
1031.242, 3688.234
1032.349, 3752.723
1033.456, 3824.395
1034.562, 3905.133
1035.668, 3787.934
1036.775, 3925.797
1037.881, 3426.719
1038.987, 4002.715
1040.092, 4476.770
1041.198, 3902.887
1042.303, 3498.066
1043.408, 3335.699
1044.514, 3402.289
1045.618, 3089.656
1046.723, 2837.086
1047.828, 2498.191
1048.932, 2854.746
1050.037, 2624.363
1051.141, 2877.156
1052.245, 2740.895
1053.349, 2466.691
1054.452, 2651.859
1055.556, 2521.551
1056.659, 2683.551
1057.762, 2709.242
1058.865, 2432.402
1059.968, 2423.664
1061.071, 2315.047
1062.174, 2671.875
1063.276, 2675.395
1064.378, 2789.418
1065.480, 2757.602
1066.582, 2876.348
1067.684, 3029.547
1068.786, 2800.492
1069.887, 2845.520
1070.988, 3269.945
1072.090, 3605.836
1073.191, 3839.727
1074.291, 3976.285
1075.392, 3730.586
1076.493, 3979.371
1077.593, 4030.938
1078.693, 4073.438
1079.793, 4394.410
1080.893, 4303.418
1081.993, 4420.316
1083.092, 4469.375
1084.192, 4341.379
1085.291, 4322.852
1086.390, 3956.137
1087.489, 3605.496
1088.588, 3439.059
1089.686, 3188.703
1090.785, 2940.602
1091.883, 2861.172
1092.981, 3020.672
1094.079, 2906.914
1095.177, 2685.062
1096.275, 2862.871
1097.373, 2729.875
1098.470, 2224.766
1099.567, 2567.609
1100.664, 2711.684
1101.761, 2310.879
1102.858, 2397.355
1103.954, 2075.602
1105.051, 2306.332
1106.147, 2196.672
1107.243, 2383.070
1108.339, 1949.539
1109.435, 2579.066
1110.531, 1979.672
1111.626, 2163.328
1112.722, 2324.039
1113.817, 2232.809
1114.912, 2292.621
1116.007, 2311.781
1117.101, 2039.320
1118.196, 2352.258
1119.290, 2079.910
1120.385, 2151.258
1121.479, 1930.320
1122.573, 1964.680
1123.666, 1950.824
1124.760, 1905.008
1125.853, 1906.863
1126.947, 1771.125
1128.040, 1612.426
1129.133, 1565.941
1130.226, 1514.332
1131.318, 1630.754
1132.411, 1152.215
1133.503, 1538.715
1134.596, 1221.254
1135.688, 1487.828
1136.780, 1304.902
1137.871, 1170.555
1138.963, 963.2422
1140.054, 1021.969
1141.146, 791.7344
1142.237, 1074.527
1143.328, 529.3555
1144.419, 893.9336
1145.509, 912.2188
1146.600, 317.2148
1147.690, 747.1758
1148.780, 589.0078
1149.870, 473.3125
1150.960, 565.3672
1152.050, 668.4492
1153.139, 394.5703
1154.229, 588.7227
1155.318, 605.9023
1156.407, 338.1172
1157.496, 410.3633
1158.585, 614.6328
1159.674, 425.9336
1160.762, 154.2578
1161.850, 214.5234
1162.939, 325.9102
1164.027, 14.31641
1165.114, 200.7578
1166.202, 423.7500
1167.290, 94.29688
1168.377, 22.81250
1169.464, 71.35547
1170.551, 180.9648
1171.638, 202.6367
1172.725, 72.33203
1173.812, 61.94531
1174.898, 19.21484
1175.984, 103.5352
1177.071, 14.30078
1178.157, 64.90625
1179.242, 267.6328
1180.328, 214.4570
1181.414, 6.703125
1182.499, 135.1602
1183.584, 257.0430
1184.669, 76.05859
1185.754, 33.48047
1186.839, 184.7461
1187.924, 179.3242
1189.008, 202.4492
1190.092, 34.26562
1191.177, 201.6211
1192.260, 111.5977
1193.344, 42.72656
1194.428, 16.97656
1195.512, 110.3984
1196.595, 160.2148
1197.678, 10.96094
1198.761, 81.86719
1199.844, 133.7031
1200.927, 114.4414
1202.009, 58.63281
1203.092, 39.82812
1204.174, 8.968750
1205.256, 5.765625
1206.338, 10.80078
1207.420, 29.59766
1208.502, 2.789063
1209.583, 63.98047
1210.665, 100.8125
1211.746, 114.2109
1212.827, 221.5391
1213.908, 166.7109
1214.988, 35.96875
1216.069, 15.64453
1217.149, 193.5469
1218.230, 126.7656
1219.310, 54.14062
1220.390, 38.53906
1221.470, 40.03906
1222.549, 45.08203
1223.629, 1.476563
1224.708, 191.2500
1225.787, 45.51953
1226.866, 180.5430
1227.945, 219.2422
1229.024, 124.5859
1230.103, 26.33594
1231.181, 21.44531
1232.259, 77.43750
1233.337, 142.2773
1234.415, 146.0117
1235.493, 69.06250
1236.571, 83.95312
1237.648, 190.0312
1238.726, 96.95703
1239.803, 65.38672
1240.880, 233.0703
1241.957, 293.1953
1243.034, 177.1875
1244.110, 289.1250
1245.187, 6.222656
1246.263, 55.79297
1247.339, 271.9961
1248.415, 165.9453
1249.491, 281.4648
1250.566, 312.5742
1251.642, 39.51172
1252.717, 274.9961
1253.793, 301.1328
1254.868, 31.02734
1255.943, 322.7812
1257.017, 93.46875
1258.092, 50.47266
1259.166, 148.2891
1260.241, 99.43750
1261.315, 280.0664
1262.389, 239.1719
1263.462, 178.4258
1264.536, 204.0508
1265.610, 12.90234
1266.683, 222.0234
1267.756, 146.8555
1268.829, 226.5000
1269.902, 340.3125
1270.975, 186.4922
1272.048, 315.9766
1273.120, 6.085938
1274.192, 63.79297
1275.264, 81.89453
1276.336, 334.9922
1277.408, 27.22266
1278.480, 74.62109
1279.551, 273.2852
1280.623, 260.2578
1281.694, 335.7070
1282.765, 151.1328
1283.836, 210.6758
1284.907, 202.6445
1285.977, 428.7422
1287.048, 130.4297
1288.118, 289.0430
1289.188, 291.6367
1290.258, 37.84375
1291.328, 244.5273
1292.398, 390.1289
1293.467, 216.5508
1294.537, 86.07031
1295.606, 117.5195
1296.675, 555.4492
1297.744, 203.8672
1298.813, 205.4336
1299.882, 494.6328
1300.950, 154.9805
1302.018, 248.6562
1303.086, 310.5625
1304.155, 392.5508
1305.222, 270.8828
1306.290, 254.1523
1307.358, 101.7344
1308.425, 160.5820
1309.492, 380.2109
1310.559, 276.1055
1311.626, 376.4961
1312.693, 458.5391
1313.760, 301.7852
1314.826, 218.0195
1315.893, 247.9961
1316.959, 259.9492
1318.025, 58.88672
1319.091, 110.7500
1320.157, 59.99219
1321.222, 42.69922
1322.288, 115.0820
1323.353, 64.69141
1324.418, 96.16406
1325.483, 353.8867
1326.548, 272.2383
1327.612, 635.8906
1328.677, 484.5312
1329.741, 89.02344
1330.806, 249.4414
1331.870, 177.5234
1332.934, 187.8359
1333.997, 303.3438
1335.061, 405.3594
1336.124, 329.5664
