##NAMES=Riebeckite
##RRUFFID=R050082
##IDEAL CHEMISTRY=[box]Na_2_(Fe^2+^_3_Fe^3+^_2_)Si_8_O_22_(OH)_2_
##LOCALITY=Mt. Malosa, Zomba, Chilwa, Alkaline Area, Malawi
##OWNER=RRUFF
##SOURCE=Rock Currier
##DESCRIPTION=Black elongated prisms
##STATUS=The identification of this mineral has been confirmed by X-ray diffraction and chemical analysis
##URL=rruff.info/R050082
##MEASURED CHEMISTRY=([box]_0.63_Na_0.19_K_0.18_)(Na_1.58_Ca_0.42_)_Σ=2_Fe^2+^_3.00_(Fe^3+^_1.30_Fe^2+^_0.45_Mn_0.15_Mg_0.05_Ti_0.05_)_Σ=2_(Si_0.98_Al_0.02_)_8_O_22_(OH)_2_
##PIN_ID=L00462
##ORIENTATION=Laser parallel to c* (0 0 1). Fiducial mark perpendicular to laser is parallel to a [1 0 0]
151.0630, 0.0000000E+00
152.2960, 50.67188
153.5300, 146.1055
154.7620, 427.1562
155.9950, 41.85547
157.2280, 136.5234
158.4600, 453.5859
159.6920, 495.2930
160.9250, 735.1523
162.1560, 1567.078
163.3880, 2106.133
164.6200, 2197.664
165.8510, 2010.047
167.0820, 2186.668
168.3130, 1803.168
169.5440, 1856.418
170.7750, 1754.293
172.0050, 1257.441
173.2350, 1007.527
174.4650, 893.2773
175.6950, 1000.461
176.9250, 816.5625
178.1550, 917.2852
179.3840, 969.7852
180.6130, 1338.973
181.8420, 1678.520
183.0710, 1891.371
184.3000, 2684.078
185.5280, 3280.098
186.7570, 3903.969
187.9850, 4260.680
189.2130, 5239.426
190.4400, 5277.582
191.6680, 5939.898
192.8960, 6477.348
194.1230, 6518.895
195.3500, 7391.508
196.5770, 6875.180
197.8030, 6851.883
199.0300, 7294.602
200.2560, 8018.320
201.4830, 7851.027
202.7090, 7657.344
203.9340, 6417.379
205.1600, 5166.398
206.3860, 5124.383
207.6110, 5078.332
208.8360, 5409.227
210.0610, 5710.086
211.2860, 6178.055
212.5100, 6240.648
213.7350, 6379.320
214.9590, 6361.250
216.1830, 5967.125
217.4070, 6053.023
218.6310, 5814.711
219.8540, 5569.691
221.0780, 5626.141
222.3010, 5621.188
223.5240, 5829.223
224.7470, 5634.188
225.9690, 5700.617
227.1920, 5804.465
228.4140, 5997.980
229.6360, 5895.617
230.8580, 5680.062
232.0800, 5613.316
233.3020, 5427.398
234.5230, 4991.301
235.7440, 4819.027
236.9650, 4346.293
238.1860, 4046.957
239.4070, 3472.180
240.6280, 2848.242
241.8480, 2509.160
243.0680, 1914.762
244.2880, 1615.531
245.5080, 1071.992
246.7280, 901.3008
247.9470, 851.4570
249.1660, 267.4688
250.3860, 315.3359
251.6040, 304.0469
252.8230, 203.6094
254.0420, 316.3711
255.2600, 124.1641
256.4790, 412.9102
257.6970, 557.9297
258.9150, 129.3672
260.1320, 441.0781
261.3500, 455.9180
262.5670, 458.3828
263.7840, 776.8906
265.0010, 807.9062
266.2180, 1493.762
267.4350, 1239.449
268.6510, 1225.793
269.8680, 1034.330
271.0840, 866.5508
272.3000, 1080.080
273.5160, 1278.697
274.7310, 1352.615
275.9470, 1316.074
277.1620, 1191.258
278.3770, 1249.451
279.5920, 1150.945
280.8070, 1150.596
282.0210, 964.0234
283.2360, 891.1582
284.4500, 697.9551
285.6640, 369.3926
286.8780, 390.0996
288.0920, 237.3809
289.3050, 270.5195
290.5180, 168.5117
291.7320, 103.6523
292.9450, 66.00391
294.1570, 39.47461
295.3700, 45.29883
296.5830, 174.3438
297.7950, 118.2793
299.0070, 107.9023
300.2190, 182.8965
301.4310, 220.6855
302.6420, 517.0781
303.8540, 436.5156
305.0650, 789.3926
306.2760, 838.7695
307.4870, 926.8555
308.6980, 824.5840
309.9080, 880.4043
311.1190, 1101.471
312.3290, 1194.385
313.5390, 1127.262
314.7490, 1280.967
315.9580, 1197.838
317.1680, 1386.172
318.3770, 1423.057
319.5860, 1463.729
320.7950, 1547.619
322.0040, 1595.135
323.2130, 1607.066
324.4210, 1710.004
325.6290, 1906.682
326.8380, 1984.098
328.0460, 2347.752
329.2530, 2307.100
330.4610, 2342.102
331.6680, 2313.494
332.8760, 2798.627
334.0830, 3191.678
335.2890, 3245.209
336.4960, 3471.508
337.7030, 3585.281
338.9090, 3583.959
340.1150, 3887.541
341.3210, 4262.025
342.5270, 4248.412
343.7330, 4469.699
344.9380, 4285.887
346.1440, 4762.973
347.3490, 4750.953
348.5540, 4771.646
349.7590, 5243.375
350.9630, 4828.934
352.1680, 4614.395
353.3720, 4737.750
354.5760, 4663.006
355.7800, 4802.158
356.9840, 5167.205
358.1870, 4347.145
359.3910, 4499.971
360.5940, 4313.668
361.7970, 4769.215
363.0000, 3928.613
364.2030, 3715.852
365.4050, 3773.789
366.6080, 3622.783
367.8100, 3659.381
369.0120, 3252.773
370.2140, 3038.984
371.4150, 2763.012
372.6170, 2797.881
373.8180, 3278.607
375.0190, 2924.207
376.2200, 2603.682
377.4210, 2258.023
378.6220, 1814.242
379.8220, 1430.332
381.0230, 1334.293
382.2230, 1247.129
383.4230, 1309.838
384.6220, 889.4199
385.8220, 844.8691
387.0220, 835.1836
388.2210, 559.8281
389.4200, 472.6504
390.6190, 247.3164
391.8180, 194.0684
393.0160, 90.66406
394.2150, 25.39648
395.4130, 100.9512
396.6110, 185.6504
397.8090, 284.8672
399.0060, 353.8164
400.2040, 436.5723
401.4010, 443.0000
402.5980, 383.9922
403.7950, 434.6367
404.9920, 409.5879
406.1890, 406.8262
407.3860, 383.4688
408.5820, 244.1777
409.7780, 238.2441
410.9740, 83.44531
412.1700, 318.9688
413.3650, 455.3438
414.5610, 479.5664
415.7560, 604.7324
416.9510, 828.4824
418.1460, 797.0859
419.3410, 1066.328
420.5360, 1382.113
421.7300, 1393.379
422.9240, 1665.148
424.1180, 1960.428
425.3120, 2003.283
426.5060, 2043.854
427.7000, 2054.291
428.8930, 2020.559
430.0860, 2048.330
431.2790, 2032.078
432.4720, 1801.090
433.6650, 1819.141
434.8580, 1634.367
436.0500, 1268.182
437.2420, 1292.246
438.4340, 1209.867
439.6260, 1241.451
440.8180, 1163.301
442.0090, 1061.326
443.2010, 975.5215
444.3920, 942.5000
445.5830, 758.8828
446.7740, 953.5410
447.9640, 926.6348
449.1550, 872.0059
450.3450, 761.4160
451.5350, 887.3125
452.7250, 908.0176
453.9150, 887.2734
455.1050, 1191.830
456.2940, 994.4023
457.4830, 1062.709
458.6720, 1285.812
459.8610, 1187.836
461.0500, 1297.047
462.2390, 1322.584
463.4270, 1377.027
464.6150, 1530.812
465.8040, 1310.867
466.9910, 1302.066
468.1790, 1359.678
469.3670, 1463.828
470.5540, 1345.084
471.7410, 1407.510
472.9280, 1236.600
474.1150, 1366.336
475.3020, 1725.098
476.4890, 1411.973
477.6750, 1410.477
478.8610, 1828.852
480.0470, 1680.098
481.2330, 1989.213
482.4190, 1979.203
483.6040, 2172.062
484.7900, 2296.793
485.9750, 2485.396
487.1600, 2612.271
488.3450, 2676.215
489.5290, 2898.434
490.7140, 3022.521
491.8980, 3229.484
493.0820, 3279.318
494.2660, 3571.025
495.4500, 3602.605
496.6340, 3811.062
497.8170, 4009.391
499.0010, 4063.594
500.1840, 4043.674
501.3670, 4374.627
502.5500, 4419.455
503.7320, 4464.660
504.9150, 4829.740
506.0970, 4432.195
507.2790, 4703.531
508.4610, 4552.738
509.6430, 4893.824
510.8250, 4743.793
512.0060, 4965.635
513.1870, 4995.361
514.3680, 5382.965
515.5490, 5333.445
516.7300, 5394.820
517.9110, 5715.068
519.0910, 5712.201
520.2710, 5886.217
521.4510, 6386.150
522.6310, 6516.961
523.8110, 6603.654
524.9910, 7020.230
526.1700, 7342.725
527.3490, 7459.637
528.5280, 7729.227
529.7070, 7996.680
530.8860, 8009.811
532.0650, 8127.141
533.2430, 8210.023
534.4210, 8160.879
535.5990, 8374.035
536.7770, 8415.008
537.9550, 8377.096
539.1320, 7928.744
540.3100, 7903.027
541.4870, 7502.258
542.6640, 7486.115
543.8410, 7150.471
545.0170, 6714.436
546.1940, 6850.100
547.3700, 6823.264
548.5470, 6711.531
549.7230, 6661.207
550.8980, 6173.588
552.0740, 6383.236
553.2500, 6062.992
554.4250, 6283.605
555.6000, 6227.504
556.7750, 6115.547
557.9500, 6476.545
559.1250, 6466.471
560.2990, 6183.223
561.4730, 6232.039
562.6480, 6167.053
563.8220, 6306.984
564.9950, 6224.873
566.1690, 6028.697
567.3430, 6035.438
568.5160, 5515.127
569.6890, 5299.730
570.8620, 5026.264
572.0350, 4349.721
573.2070, 4046.104
574.3800, 3616.416
575.5520, 3393.654
576.7240, 2957.828
577.8960, 2603.607
579.0680, 2172.426
580.2400, 1882.842
581.4110, 1471.330
582.5830, 1011.424
583.7540, 714.0293
584.9250, 404.2070
586.0950, 136.1680
587.2660, 17.53711
588.4370, 114.9316
589.6070, 83.44141
590.7770, 102.3613
591.9470, 12.93945
593.1170, 80.11914
594.2860, 91.38672
595.4560, 50.92578
596.6250, 117.3457
597.7940, 99.79492
598.9630, 99.14648
600.1320, 36.75000
601.3000, 9.5702998E-02
602.4690, 145.7168
603.6370, 27.35938
604.8050, 43.44336
605.9730, 179.7754
607.1410, 121.4668
608.3090, 10.97070
609.4760, 89.71484
610.6430, 230.5371
611.8100, 154.9844
612.9770, 439.6035
614.1440, 487.4336
615.3110, 750.7305
616.4770, 623.1387
617.6430, 868.4727
618.8090, 1111.734
619.9750, 1010.926
621.1410, 1307.051
622.3070, 1336.104
623.4720, 1608.088
624.6370, 1627.002
625.8020, 1925.848
626.9670, 2042.625
628.1320, 2160.334
629.2970, 2493.975
630.4610, 2704.551
631.6250, 2810.059
632.7890, 3362.498
633.9530, 3367.871
635.1170, 3712.178
636.2810, 4206.879
637.4440, 4292.059
638.6070, 4656.730
639.7700, 5088.146
640.9330, 5516.129
642.0960, 5964.348
643.2590, 6811.645
644.4210, 7366.619
645.5830, 7884.201
646.7450, 8826.867
647.9070, 9919.039
649.0690, 11015.67
650.2310, 12160.84
651.3920, 13480.27
652.5530, 15184.42
653.7140, 16761.73
654.8750, 18736.96
656.0360, 20098.68
657.1970, 21584.66
658.3570, 22822.49
659.5170, 24267.12
660.6770, 25308.41
661.8370, 25822.30
662.9970, 26135.13
664.1570, 25775.37
665.3160, 25181.58
666.4750, 24004.68
667.6340, 22689.22
668.7930, 21023.45
669.9520, 19201.96
671.1110, 17195.92
672.2690, 14924.17
673.4270, 13171.54
674.5850, 11413.99
675.7430, 10032.15
676.9010, 8651.859
678.0590, 7678.688
679.2160, 6677.625
680.3730, 5904.609
681.5300, 5238.703
682.6870, 4693.213
683.8440, 4309.430
685.0010, 3827.955
686.1570, 3383.338
687.3130, 3310.484
688.4690, 3044.361
689.6250, 2910.039
690.7810, 2875.852
691.9370, 2636.869
693.0920, 2623.416
694.2470, 2393.529
695.4020, 2298.826
696.5570, 2356.725
697.7120, 2044.873
698.8670, 2361.109
700.0210, 2206.438
701.1750, 2103.035
702.3290, 1979.764
703.4830, 1961.418
704.6370, 1941.236
705.7910, 1990.732
706.9440, 1987.545
708.0970, 2021.271
709.2510, 2026.170
710.4030, 1939.760
711.5560, 1938.281
712.7090, 2044.736
713.8610, 1733.123
715.0140, 1851.441
716.1660, 1794.691
717.3180, 1647.879
718.4690, 1708.000
719.6210, 1724.055
720.7730, 1906.051
721.9240, 1494.980
723.0750, 1539.572
724.2260, 1887.822
725.3770, 1298.779
726.5270, 1696.656
727.6780, 1531.430
728.8280, 1446.584
729.9780, 1479.027
731.1280, 1421.979
732.2780, 1521.939
733.4280, 1552.170
734.5770, 1507.914
735.7260, 1314.463
736.8760, 1364.094
738.0250, 1259.748
739.1730, 1174.301
740.3220, 1208.484
741.4700, 1119.170
742.6190, 969.7676
743.7670, 992.8457
744.9150, 965.4805
746.0630, 878.7949
747.2100, 1078.516
748.3580, 673.5195
749.5050, 1086.248
750.6520, 846.6270
751.7990, 675.1680
752.9460, 707.8848
754.0930, 623.4004
755.2390, 641.6309
756.3860, 470.0586
757.5320, 626.4434
758.6780, 522.7832
759.8240, 493.0820
760.9690, 526.3379
762.1150, 811.5527
763.2600, 486.7246
764.4060, 641.8574
765.5510, 611.9492
766.6950, 427.0000
767.8400, 539.0137
768.9850, 461.9844
770.1290, 599.9199
771.2730, 468.8164
772.4170, 562.6777
773.5610, 258.5020
774.7050, 449.2832
775.8480, 223.0312
776.9920, 264.7383
778.1350, 432.4082
779.2780, 270.0430
780.4210, 231.6445
781.5640, 288.2070
782.7060, 121.7363
783.8490, 480.2305
784.9910, 180.6914
786.1330, 289.1172
787.2750, 139.5137
788.4170, 313.8730
789.5580, 105.2051
790.7000, 393.5020
791.8410, 469.7734
792.9820, 56.01758
794.1230, 292.2168
795.2640, 84.39062
796.4040, 113.5332
797.5450, 55.36523
798.6850, 269.5820
799.8250, 442.8184
800.9650, 472.4902
802.1050, 71.28320
803.2450, 125.3105
804.3840, 25.15234
805.5230, 87.22070
806.6630, 213.4199
807.8020, 247.2246
808.9400, 46.68945
810.0790, 39.27930
811.2170, 169.7500
812.3560, 290.8379
813.4940, 237.6348
814.6320, 304.6074
815.7700, 227.7832
816.9070, 277.1250
818.0450, 38.65234
819.1820, 318.2441
820.3190, 298.0410
821.4560, 192.0391
822.5930, 365.6445
823.7300, 330.7500
824.8670, 383.1152
826.0030, 396.9277
827.1390, 153.9824
828.2750, 94.15234
829.4110, 266.4023
830.5470, 9.181641
831.6820, 174.2637
832.8180, 52.82422
833.9530, 79.43750
835.0880, 201.1133
836.2230, 141.9141
837.3580, 310.8047
838.4920, 6.871094
839.6270, 142.9590
840.7610, 72.13477
841.8950, 152.6445
843.0290, 105.5820
844.1630, 308.1309
845.2960, 1.162109
846.4300, 51.53516
847.5630, 194.2285
848.6960, 351.9160
849.8290, 622.6035
850.9620, 547.2383
852.0940, 447.9766
853.2270, 422.6602
854.3590, 675.3477
855.4910, 621.0332
856.6230, 836.7246
857.7550, 876.4160
858.8870, 633.1094
860.0180, 984.8105
861.1500, 1262.523
862.2810, 933.2559
863.4120, 976.2598
864.5430, 1414.959
865.6730, 1701.930
866.8040, 1845.523
867.9340, 1415.617
869.0640, 1726.230
870.1940, 1740.146
871.3240, 1741.947
872.4540, 2156.938
873.5830, 1810.605
874.7130, 2219.158
875.8420, 2326.383
876.9710, 2571.535
878.1000, 2531.133
879.2290, 2479.785
880.3570, 2607.271
881.4860, 2957.785
882.6140, 2795.322
883.7420, 2732.900
884.8700, 2720.512
885.9980, 3092.148
887.1250, 3318.814
888.2530, 3410.508
889.3800, 3613.223
890.5070, 3406.977
891.6340, 3556.752
892.7610, 3849.555
893.8880, 3660.396
895.0140, 4098.273
896.1400, 4071.180
897.2670, 4227.115
898.3930, 4202.098
899.5180, 4507.111
900.6440, 4389.150
901.7700, 4710.217
902.8950, 4707.316
904.0200, 4711.445
905.1450, 4930.619
906.2700, 4809.820
907.3950, 5067.102
908.5190, 5118.445
909.6440, 5224.381
910.7680, 5282.863
911.8920, 5322.246
913.0160, 5507.062
914.1400, 5411.707
915.2630, 5528.115
916.3870, 5634.465
917.5100, 5467.172
918.6330, 5676.238
919.7560, 5844.230
920.8790, 5750.748
922.0010, 5924.775
923.1240, 6018.266
924.2460, 6005.486
925.3680, 5726.957
926.4900, 6053.262
927.6120, 6029.605
928.7340, 6067.709
929.8550, 6302.316
930.9760, 6459.277
932.0980, 6430.480
933.2190, 6727.070
934.3390, 7003.047
935.4600, 7196.064
936.5810, 7509.176
937.7010, 7807.375
938.8210, 8173.180
939.9410, 8686.535
941.0610, 9057.211
942.1810, 9377.625
943.3010, 9936.627
944.4200, 10333.40
945.5390, 10882.11
946.6580, 11663.79
947.7770, 11923.85
948.8960, 12801.43
950.0150, 13330.99
951.1330, 14083.57
952.2510, 14611.25
953.3690, 15170.02
954.4870, 16090.56
955.6050, 16410.60
956.7230, 17130.51
957.8400, 17676.79
958.9580, 18008.50
960.0750, 18356.18
961.1920, 18633.22
962.3090, 18939.76
963.4250, 19042.26
964.5420, 18846.21
965.6580, 19062.66
966.7740, 18678.99
967.8900, 18454.74
969.0060, 18196.26
970.1220, 18101.73
971.2380, 17801.11
972.3530, 17309.24
973.4680, 16724.26
974.5830, 16669.35
975.6980, 15920.92
976.8130, 15072.58
977.9280, 14647.57
979.0420, 14279.66
980.1560, 13533.59
981.2710, 13196.84
982.3850, 12576.18
983.4980, 11993.61
984.6120, 11406.12
985.7260, 10995.73
986.8390, 10464.41
987.9520, 10222.18
989.0650, 9890.035
990.1780, 9433.971
991.2910, 9012.988
992.4030, 8914.094
993.5160, 8609.277
994.6280, 8140.549
995.7400, 8468.902
996.8520, 8290.340
997.9640, 7939.861
999.0750, 7773.467
1000.187, 8082.189
1001.298, 7804.992
1002.409, 8005.879
1003.520, 7739.859
1004.631, 7856.918
1005.741, 7660.064
1006.852, 7864.293
1007.962, 7788.598
1009.072, 7911.992
1010.182, 7861.461
1011.292, 7889.221
1012.402, 8013.660
1013.511, 7959.383
1014.621, 8122.184
1015.730, 8244.070
1016.839, 8095.035
1017.948, 8415.086
1019.056, 8538.215
1020.165, 8556.426
1021.273, 8648.750
1022.382, 8988.125
1023.490, 9314.764
1024.598, 9352.301
1025.706, 9650.301
1026.813, 10021.32
1027.921, 10245.94
1029.028, 10336.79
1030.135, 10658.77
1031.242, 10951.30
1032.349, 11004.71
1033.456, 11302.57
1034.562, 11144.99
1035.668, 11246.41
1036.775, 11257.83
1037.881, 11247.00
1038.987, 11483.56
1040.092, 11430.05
1041.198, 11542.44
1042.303, 11370.91
1043.408, 11435.18
1044.514, 11145.41
1045.618, 11412.43
1046.723, 10993.96
1047.828, 10900.06
1048.932, 10673.75
1050.037, 10505.96
1051.141, 10239.34
1052.245, 10196.07
1053.349, 10153.84
1054.452, 9940.449
1055.556, 9893.852
1056.659, 9817.635
1057.762, 9767.699
1058.865, 9698.578
1059.968, 9331.523
1061.071, 9240.730
1062.174, 9070.004
1063.276, 8882.551
1064.378, 8879.367
1065.480, 8879.293
1066.582, 8336.670
1067.684, 8436.105
1068.786, 8189.547
1069.887, 7861.102
1070.988, 7738.598
1072.090, 7783.311
1073.191, 7388.090
1074.291, 7492.090
1075.392, 7128.455
1076.493, 6797.082
1077.593, 6720.197
1078.693, 6739.395
1079.793, 6186.611
1080.893, 6300.123
1081.993, 6009.766
1083.092, 5937.350
1084.192, 5725.602
1085.291, 5322.340
1086.390, 5471.342
1087.489, 5070.773
1088.588, 4851.197
1089.686, 4728.035
1090.785, 4781.674
1091.883, 4444.361
1092.981, 4352.205
1094.079, 4359.203
1095.177, 4234.348
1096.275, 4172.512
1097.373, 4174.795
1098.470, 4118.531
1099.567, 3755.953
1100.664, 3973.793
1101.761, 3623.338
1102.858, 3507.980
1103.954, 3812.699
1105.051, 3616.633
1106.147, 3580.516
1107.243, 3697.691
1108.339, 3286.965
1109.435, 3354.764
1110.531, 3330.320
1111.626, 3317.758
1112.722, 3279.932
1113.817, 3060.865
1114.912, 2904.102
1116.007, 2794.268
1117.101, 2731.477
1118.196, 2798.830
1119.290, 2751.182
1120.385, 2668.561
1121.479, 2775.967
1122.573, 2554.396
1123.666, 2506.854
1124.760, 2434.338
1125.853, 2011.844
1126.947, 2184.604
1128.040, 1766.154
1129.133, 1681.730
1130.226, 1570.328
1131.318, 1462.211
1132.411, 1444.068
1133.503, 1634.727
1134.596, 1185.029
1135.688, 1284.725
1136.780, 1176.438
1137.871, 949.1680
1138.963, 817.9141
1140.054, 761.6738
1141.146, 597.5566
1142.237, 758.6309
1143.328, 399.6016
1144.419, 432.6543
1145.509, 242.5820
1146.600, 388.4238
1147.690, 258.2754
1148.780, 349.4375
1149.870, 142.3105
1150.960, 191.3320
1152.050, 8.218750
1153.139, 184.1113
1154.229, 92.98828
1155.318, 73.02930
1156.407, 23.08203
1157.496, 115.9102
1158.585, 76.50586
1159.674, 42.78125
1160.762, 48.37891
1161.850, 131.5508
1162.939, 65.76367
1164.027, 48.54883
1165.114, 5.664063
1166.202, 2.117188
1167.290, 9.941406
1168.377, 79.11914
1169.464, 56.63477
1170.551, 197.6133
1171.638, 143.7852
1172.725, 69.19727
1173.812, 240.6445
1174.898, 130.8867
1175.984, 104.3516
1177.071, 107.2969
1178.157, 112.0059
1179.242, 180.7812
1180.328, 216.6445
1181.414, 72.35547
1182.499, 123.8672
1183.584, 161.9355
1184.669, 53.89062
1185.754, 87.27734
1186.839, 73.48828
1187.924, 10.24219
1189.008, 106.9805
1190.092, 112.7070
1191.177, 366.5488
1192.260, 252.0332
1193.344, 252.6836
1194.428, 173.5020
1195.512, 203.4512
1196.595, 193.4531
1197.678, 132.3379
1198.761, 120.7969
1199.844, 238.9629
1200.927, 98.30078
1202.009, 101.3340
1203.092, 261.9512
1204.174, 63.45508
1205.256, 65.94727
1206.338, 113.3594
1207.420, 70.06055
1208.502, 52.15234
1209.583, 81.18555
1210.665, 32.82422
1211.746, 16.78906
1212.827, 42.69336
1213.908, 56.55078
1214.988, 99.63477
1216.069, 283.0527
1217.149, 71.28320
1218.230, 134.2637
1219.310, 85.55078
1220.390, 46.15820
1221.470, 206.1270
1222.549, 208.3809
1223.629, 256.6016
1224.708, 183.7871
1225.787, 247.9355
1226.866, 281.0527
1227.945, 21.86719
1229.024, 398.1074
1230.103, 106.0469
1231.181, 242.9316
1232.259, 300.7773
1233.337, 438.5840
1234.415, 128.3535
1235.493, 310.0703
1236.571, 192.3047
1237.648, 187.3750
1238.726, 115.9609
1239.803, 129.4863
1240.880, 193.9570
1241.957, 283.3809
1243.034, 171.7598
1244.110, 334.0918
1245.187, 127.3770
1246.263, 169.6016
1247.339, 446.7695
1248.415, 363.8945
1249.491, 342.9746
1250.566, 300.0117
1251.642, 496.0020
1252.717, 649.9434
1253.793, 473.8398
1254.868, 565.3047
1255.943, 262.4883
1257.017, 494.2383
1258.092, 348.9434
1259.166, 378.5996
1260.241, 29.35547
1261.315, 282.8516
1262.389, 436.2988
1263.462, 180.7090
1264.536, 404.0430
1265.610, 351.3262
1266.683, 533.5605
1267.756, 387.7461
1268.829, 388.8789
1269.902, 335.0410
1270.975, 295.4434
1272.048, 326.5820
1273.120, 312.3340
1274.192, 349.2051
1275.264, 467.0234
1276.336, 411.7930
1277.408, 308.5098
1278.480, 613.1719
1279.551, 351.7793
1280.623, 595.3379
1281.694, 591.8027
1282.765, 549.2539
1283.836, 361.4648
1284.907, 537.8086
1285.977, 329.7109
1287.048, 555.6230
1288.118, 639.9609
1289.188, 568.0918
1290.258, 415.1211
1291.328, 292.6270
1292.398, 703.9375
1293.467, 443.8633
1294.537, 675.5625
1295.606, 396.2988
1296.675, 374.4902
1297.744, 449.1660
1298.813, 562.8320
1299.882, 364.5977
1300.950, 480.4746
1302.018, 537.3184
1303.086, 338.5996
1304.155, 473.5117
1305.222, 653.8750
1306.290, 593.7559
1307.358, 526.0840
1308.425, 702.8438
1309.492, 609.6875
1310.559, 234.8613
1311.626, 405.4434
1312.693, 413.3887
1313.760, 639.3574
1314.826, 433.7559
1315.893, 374.1445
1316.959, 415.6797
