##NAMES=Riebeckite
##RRUFFID=R050082
##IDEAL CHEMISTRY=[box]Na_2_(Fe^2+^_3_Fe^3+^_2_)Si_8_O_22_(OH)_2_
##LOCALITY=Mt. Malosa, Zomba, Chilwa, Alkaline Area, Malawi
##OWNER=RRUFF
##SOURCE=Rock Currier
##DESCRIPTION=Black elongated prisms
##STATUS=The identification of this mineral has been confirmed by X-ray diffraction and chemical analysis
##URL=rruff.info/R050082
##MEASURED CHEMISTRY=([box]_0.63_Na_0.19_K_0.18_)(Na_1.58_Ca_0.42_)_Σ=2_Fe^2+^_3.00_(Fe^3+^_1.30_Fe^2+^_0.45_Mn_0.15_Mg_0.05_Ti_0.05_)_Σ=2_(Si_0.98_Al_0.02_)_8_O_22_(OH)_2_
##PIN_ID=L00416
##ORIENTATION=Laser parallel to (-1 0 -1). Fiducial mark perpendicular to laser is parallel to b [0 1 0]
154.7620, 0.0000000E+00
155.9950, 530.4531
157.2280, 21.47656
158.4600, 3.910156
159.6920, 838.1484
160.9250, 1832.801
162.1560, 2076.113
163.3880, 3074.852
164.6200, 3630.332
165.8510, 3936.410
167.0820, 4570.109
168.3130, 3927.719
169.5440, 3740.895
170.7750, 4418.270
172.0050, 3734.895
173.2350, 2994.176
174.4650, 2736.340
175.6950, 2772.969
176.9250, 2888.879
178.1550, 3039.008
179.3840, 3286.191
180.6130, 3319.117
181.8420, 4057.250
183.0710, 4222.027
184.3000, 5196.785
185.5280, 6705.969
186.7570, 7325.262
187.9850, 8554.266
189.2130, 9429.117
190.4400, 10370.46
191.6680, 11421.56
192.8960, 12126.03
194.1230, 12529.02
195.3500, 12578.21
196.5770, 12917.72
197.8030, 11680.84
199.0300, 10853.69
200.2560, 10838.66
201.4830, 11008.45
202.7090, 10895.85
203.9340, 8729.645
205.1600, 6524.008
206.3860, 4483.121
207.6110, 3744.719
208.8360, 3508.363
210.0610, 3973.012
211.2860, 4026.664
212.5100, 4424.539
213.7350, 4576.973
214.9590, 4503.297
216.1830, 3743.605
217.4070, 3611.406
218.6310, 3708.371
219.8540, 3478.715
221.0780, 3325.082
222.3010, 3186.281
223.5240, 3314.789
224.7470, 3077.332
225.9690, 3346.762
227.1920, 3607.641
228.4140, 3818.031
229.6360, 3778.566
230.8580, 3940.977
232.0800, 3662.156
233.3020, 3647.758
234.5230, 3333.352
235.7440, 3285.871
236.9650, 2977.891
238.1860, 2510.453
239.4070, 2319.730
240.6280, 1959.250
241.8480, 1822.605
243.0680, 1522.703
244.2880, 1205.535
245.5080, 929.5820
246.7280, 720.2695
247.9470, 533.1445
249.1660, 417.5977
250.3860, 147.1367
251.6040, 137.2617
252.8230, 196.3945
254.0420, 124.4336
255.2600, 101.5703
256.4790, 246.4648
257.6970, 314.5547
258.9150, 75.99609
260.1320, 233.2812
261.3500, 231.8477
262.5670, 223.7695
263.7840, 436.4844
265.0010, 241.9570
266.2180, 450.8438
267.4350, 498.4648
268.6510, 483.4102
269.8680, 398.8125
271.0840, 298.0586
272.3000, 265.4883
273.5160, 230.7070
274.7310, 156.9414
275.9470, 246.8438
277.1620, 255.2539
278.3770, 330.3047
279.5920, 174.0117
280.8070, 7.941406
282.0210, 224.6523
283.2360, 289.4180
284.4500, 341.2148
285.6640, 442.9062
286.8780, 264.5781
288.0920, 316.0078
289.3050, 180.6523
290.5180, 107.4883
291.7320, 401.6797
292.9450, 321.4961
294.1570, 420.0195
295.3700, 157.1133
296.5830, 421.6875
297.7950, 90.91016
299.0070, 34.67188
300.2190, 192.6836
301.4310, 316.0781
302.6420, 45.04688
303.8540, 283.8984
305.0650, 91.51562
306.2760, 96.63281
307.4870, 141.9805
308.6980, 214.0312
309.9080, 273.4297
311.1190, 283.3359
312.3290, 542.5039
313.5390, 637.1328
314.7490, 987.0625
315.9580, 641.5195
317.1680, 913.9844
318.3770, 697.7773
319.5860, 947.8984
320.7950, 1047.250
322.0040, 752.3711
323.2130, 781.8164
324.4210, 1139.281
325.6290, 962.8008
326.8380, 1229.695
328.0460, 1246.758
329.2530, 1163.699
330.4610, 1338.090
331.6680, 1674.121
332.8760, 1442.664
334.0830, 1614.734
335.2890, 1758.379
336.4960, 2340.031
337.7030, 2108.574
338.9090, 2601.746
340.1150, 2916.562
341.3210, 2941.035
342.5270, 3477.184
343.7330, 3695.727
344.9380, 4344.551
346.1440, 4444.773
347.3490, 4482.645
348.5540, 4998.094
349.7590, 5058.109
350.9630, 5670.516
352.1680, 5535.570
353.3720, 5560.238
354.5760, 5841.562
355.7800, 5485.785
356.9840, 5650.246
358.1870, 5733.371
359.3910, 5739.453
360.5940, 5438.648
361.7970, 5533.500
363.0000, 5469.438
364.2030, 5561.109
365.4050, 4919.297
366.6080, 5092.734
367.8100, 5213.570
369.0120, 4983.816
370.2140, 4980.375
371.4150, 4776.355
372.6170, 4656.805
373.8180, 4693.188
375.0190, 4407.996
376.2200, 4155.648
377.4210, 4058.164
378.6220, 3963.551
379.8220, 3920.844
381.0230, 3566.055
382.2230, 3211.172
383.4230, 2972.219
384.6220, 2733.406
385.8220, 2673.055
387.0220, 2462.867
388.2210, 2377.613
389.4200, 2446.891
390.6190, 2189.965
391.8180, 1793.102
393.0160, 1746.199
394.2150, 1785.285
395.4130, 1080.848
396.6110, 1247.203
397.8090, 1013.664
399.0060, 761.5508
400.2040, 605.9883
401.4010, 660.0625
402.5980, 559.9492
403.7950, 323.5898
404.9920, 605.3633
406.1890, 329.0781
407.3860, 599.6406
408.5820, 728.9648
409.7780, 979.9492
410.9740, 1026.578
412.1700, 638.5586
413.3650, 537.3672
414.5610, 646.4141
415.7560, 1145.574
416.9510, 765.3711
418.1460, 1226.703
419.3410, 1696.016
420.5360, 1963.492
421.7300, 1784.051
422.9240, 2329.234
424.1180, 2334.691
425.3120, 2442.617
426.5060, 2642.633
427.7000, 2590.785
428.8930, 2431.719
430.0860, 2453.301
431.2790, 2662.117
432.4720, 2605.754
433.6650, 2142.934
434.8580, 1828.754
436.0500, 1541.164
437.2420, 1874.680
438.4340, 1257.094
439.6260, 1012.105
440.8180, 936.6172
442.0090, 513.0156
443.2010, 605.0664
444.3920, 579.8516
445.5830, 441.3164
446.7740, 485.4141
447.9640, 370.8906
449.1550, 299.1172
450.3450, 288.8203
451.5350, 407.4297
452.7250, 264.1172
453.9150, 350.8555
455.1050, 230.1680
456.2940, 255.6094
457.4830, 196.0312
458.6720, 13.61328
459.8610, 386.2383
461.0500, 578.6719
462.2390, 197.7695
463.4270, 578.6992
464.6150, 334.8906
465.8040, 190.6133
466.9910, 367.0625
468.1790, 285.7383
469.3670, 602.2578
470.5540, 486.6328
471.7410, 679.4492
472.9280, 500.0938
474.1150, 510.5273
475.3020, 315.2031
476.4890, 585.7930
477.6750, 185.2773
478.8610, 781.6406
480.0470, 943.9062
481.2330, 844.0781
482.4190, 1077.152
483.6040, 1328.129
484.7900, 1385.016
485.9750, 1565.805
487.1600, 1615.504
488.3450, 1949.117
489.5290, 2020.633
490.7140, 2352.066
491.8980, 2221.410
493.0820, 2540.672
494.2660, 2916.852
495.4500, 2846.949
496.6340, 3112.965
497.8170, 3481.906
499.0010, 3529.773
500.1840, 3650.559
501.3670, 3722.277
502.5500, 3785.906
503.7320, 3960.488
504.9150, 3823.988
506.0970, 3966.410
507.2790, 3805.766
508.4610, 3912.055
509.6430, 3966.285
510.8250, 3956.449
512.0060, 4121.562
513.1870, 4302.613
514.3680, 4309.621
515.5490, 4645.574
516.7300, 4611.473
517.9110, 4694.328
519.0910, 4752.141
520.2710, 5038.898
521.4510, 5160.676
522.6310, 5547.402
523.8110, 5923.113
524.9910, 5959.797
526.1700, 6179.594
527.3490, 6716.359
528.5280, 6559.129
529.7070, 7378.883
530.8860, 7261.594
532.0650, 7440.273
533.2430, 7721.961
534.4210, 7867.703
535.5990, 8005.496
536.7770, 8086.453
537.9550, 8048.742
539.1320, 8068.633
540.3100, 7934.637
541.4870, 7769.078
542.6640, 7693.754
543.8410, 7495.699
545.0170, 7476.223
546.1940, 7276.938
547.3700, 7048.539
548.5470, 7007.184
549.7230, 6781.324
550.8980, 6807.059
552.0740, 6896.941
553.2500, 6762.094
554.4250, 6771.375
555.6000, 6524.902
556.7750, 6605.566
557.9500, 6499.707
559.1250, 6329.281
560.2990, 6331.945
561.4730, 6223.523
562.6480, 6164.117
563.8220, 6272.699
564.9950, 6350.262
566.1690, 6237.812
567.3430, 6001.371
568.5160, 5704.000
569.6890, 5497.711
570.8620, 5140.520
572.0350, 4562.461
573.2070, 3862.469
574.3800, 3685.574
575.5520, 3587.734
576.7240, 3233.926
577.8960, 2532.227
579.0680, 1930.621
580.2400, 1941.133
581.4110, 1329.688
582.5830, 1400.355
583.7540, 918.2695
584.9250, 280.6172
586.0950, 529.9883
587.2660, 206.9805
588.4370, 65.84375
589.6070, 100.0273
590.7770, 224.3984
591.9470, 192.2148
593.1170, 133.4961
594.2860, 334.4961
595.4560, 359.4180
596.6250, 319.7539
597.7940, 362.2773
598.9630, 263.5117
600.1320, 225.2617
601.3000, 285.3867
602.4690, 88.96875
603.6370, 119.2578
604.8050, 127.9219
605.9730, 546.0508
607.1410, 32.44531
608.3090, 12.73828
609.4760, 60.54297
610.6430, 326.6406
611.8100, 191.2344
612.9770, 134.6055
614.1440, 226.1992
615.3110, 140.8164
616.4770, 469.5859
617.6430, 387.4688
618.8090, 523.6602
619.9750, 520.9023
621.1410, 828.1133
622.3070, 871.2930
623.4720, 878.4375
624.6370, 921.5508
625.8020, 1149.629
626.9670, 1246.711
628.1320, 1450.699
629.2970, 1540.684
630.4610, 1985.633
631.6250, 1994.559
632.7890, 2634.449
633.9530, 2513.309
635.1170, 2947.141
636.2810, 3234.941
637.4440, 3213.711
638.6070, 3523.453
639.7700, 3749.164
640.9330, 4139.848
642.0960, 4300.500
643.2590, 4939.121
644.4210, 5026.715
645.5830, 6158.285
646.7450, 6388.820
647.9070, 7064.328
649.0690, 7964.809
650.2310, 8707.262
651.3920, 9808.684
652.5530, 10888.08
653.7140, 12356.45
654.8750, 13903.79
656.0360, 15711.10
657.1970, 17126.39
658.3570, 18851.74
659.5170, 20432.19
660.6770, 22477.77
661.8370, 23491.95
662.9970, 24907.45
664.1570, 26156.08
665.3160, 26056.59
666.4750, 25669.94
667.6340, 24993.73
668.7930, 23492.96
669.9520, 21617.93
671.1110, 19390.44
672.2690, 17178.91
673.4270, 15106.46
674.5850, 13246.27
675.7430, 11187.31
676.9010, 10304.89
678.0590, 9472.168
679.2160, 8362.570
680.3730, 6918.719
681.5300, 6084.598
682.6870, 5764.457
683.8440, 4919.043
685.0010, 4753.324
686.1570, 4818.691
687.3130, 4564.164
688.4690, 4111.164
689.6250, 3934.426
690.7810, 3880.789
691.9370, 3485.902
693.0920, 3578.344
694.2470, 3483.898
695.4020, 3568.496
696.5570, 3456.699
697.7120, 3582.730
698.8670, 3471.840
700.0210, 3262.906
701.1750, 3581.035
702.3290, 3313.000
703.4830, 3657.227
704.6370, 3109.273
705.7910, 3392.094
706.9440, 3409.863
708.0970, 3425.586
709.2510, 3216.262
710.4030, 3535.883
711.5560, 3406.453
712.7090, 3575.973
713.8610, 3198.441
715.0140, 3546.859
716.1660, 3426.227
717.3180, 3473.539
718.4690, 3395.805
719.6210, 3321.016
720.7730, 3483.172
721.9240, 3506.277
723.0750, 3351.336
724.2260, 3352.820
725.3770, 3483.770
726.5270, 3474.848
727.6780, 3223.688
728.8280, 3358.258
729.9780, 3159.273
731.1280, 3304.812
732.2780, 3117.914
733.4280, 2932.289
734.5770, 2893.988
735.7260, 3092.078
736.8760, 2595.410
738.0250, 3122.859
739.1730, 3203.633
740.3220, 2735.562
741.4700, 2549.750
742.6190, 2586.969
743.7670, 2485.172
744.9150, 2389.434
746.0630, 2113.918
747.2100, 2236.496
748.3580, 2102.324
749.5050, 1864.246
750.6520, 1846.570
751.7990, 1909.637
752.9460, 1399.059
754.0930, 1338.102
755.2390, 1223.082
756.3860, 1270.031
757.5320, 1303.953
758.6780, 1126.848
759.8240, 950.7070
760.9690, 1105.531
762.1150, 1016.328
763.2600, 967.0898
764.4060, 949.8164
765.5510, 910.5156
766.6950, 883.4180
767.8400, 900.8164
768.9850, 832.4258
770.1290, 728.0039
771.2730, 697.1953
772.4170, 847.0703
773.5610, 650.5586
774.7050, 640.0234
775.8480, 667.4531
776.9920, 413.8594
778.1350, 759.2383
779.2780, 554.5938
780.4210, 698.9219
781.5640, 237.2227
782.7060, 486.5000
783.8490, 450.7539
784.9910, 676.9844
786.1330, 465.1836
787.2750, 273.3672
788.4170, 417.5234
789.5580, 200.6641
790.7000, 277.7773
791.8410, 112.8672
792.9820, 382.9453
794.1230, 240.9922
795.2640, 92.02344
796.4040, 135.0312
797.5450, 142.9805
798.6850, 118.8750
799.8250, 15.29297
800.9650, 19.51953
802.1050, 513.8125
803.2450, 2.429688
804.3840, 109.1016
805.5230, 54.88281
806.6630, 132.2578
807.8020, 2.386719
808.9400, 98.53125
810.0790, 293.5469
811.2170, 236.7539
812.3560, 307.1289
813.4940, 95.70703
814.6320, 10.63281
815.7700, 13.06641
816.9070, 129.8047
818.0450, 45.33203
819.1820, 115.5352
820.3190, 67.48047
821.4560, 383.5078
822.5930, 212.7227
823.7300, 393.0703
824.8670, 436.6523
826.0030, 221.4727
827.1390, 354.3086
828.2750, 306.5820
829.4110, 299.9062
830.5470, 162.3984
831.6820, 5.023438
832.8180, 72.42969
833.9530, 278.1562
835.0880, 283.1094
836.2230, 111.3750
837.3580, 142.3555
838.4920, 65.84766
839.6270, 32.79688
840.7610, 1.441406
841.8950, 240.4414
843.0290, 94.64062
844.1630, 521.8477
845.2960, 574.0625
846.4300, 449.2852
847.5630, 530.5156
848.6960, 431.7578
849.8290, 723.0078
850.9620, 595.2734
852.0940, 807.5430
853.2270, 875.8320
854.3590, 1014.133
855.4910, 1078.449
856.6230, 1236.387
857.7550, 1445.125
858.8870, 1546.484
860.0180, 1762.867
861.1500, 1917.270
862.2810, 2095.750
863.4120, 2318.664
864.5430, 2462.621
865.6730, 2716.168
866.8040, 2880.738
867.9340, 2984.391
869.0640, 3259.105
870.1940, 3127.945
871.3240, 3334.918
872.4540, 3456.004
873.5830, 3442.227
874.7130, 3667.555
875.8420, 3612.977
876.9710, 3936.512
878.1000, 4048.113
879.2290, 3916.785
880.3570, 3796.492
881.4860, 3991.227
882.6140, 3879.020
883.7420, 3911.848
884.8700, 4090.707
885.9980, 4365.609
887.1250, 4107.543
888.2530, 3932.516
889.3800, 3618.523
890.5070, 3823.574
891.6340, 3785.652
892.7610, 3546.773
893.8880, 3612.930
895.0140, 4011.121
896.1400, 4272.367
897.2670, 3819.648
898.3930, 3515.973
899.5180, 3384.332
900.6440, 3436.738
901.7700, 3347.180
902.8950, 3445.668
904.0200, 3284.203
905.1450, 3281.191
906.2700, 3567.398
907.3950, 3216.062
908.5190, 3301.789
909.6440, 3352.598
910.7680, 3579.488
911.8920, 3353.422
913.0160, 3228.402
914.1400, 3393.441
915.2630, 3538.523
916.3870, 3547.688
917.5100, 3311.922
918.6330, 3519.266
919.7560, 3454.672
920.8790, 3574.117
922.0010, 3431.621
923.1240, 3697.172
924.2460, 3360.113
925.3680, 3588.477
926.4900, 3735.816
927.6120, 3806.488
928.7340, 3570.613
929.8550, 3730.688
930.9760, 3732.125
932.0980, 3727.254
933.2190, 3930.773
934.3390, 3739.805
935.4600, 3948.168
936.5810, 3995.363
937.7010, 4085.402
938.8210, 4047.988
939.9410, 4053.477
941.0610, 4212.707
942.1810, 4139.477
943.3010, 4431.895
944.4200, 4498.391
945.5390, 4723.855
946.6580, 4700.086
947.7770, 4995.125
948.8960, 5408.652
950.0150, 5460.566
951.1330, 5880.406
952.2510, 6154.582
953.3690, 6492.102
954.4870, 6664.680
955.6050, 6778.617
956.7230, 7044.953
957.8400, 7546.285
958.9580, 7626.605
960.0750, 7956.457
961.1920, 8296.164
962.3090, 8224.852
963.4250, 8462.852
964.5420, 8387.613
965.6580, 8530.312
966.7740, 8612.070
967.8900, 8814.281
969.0060, 8516.703
970.1220, 8286.090
971.2380, 8387.598
972.3530, 8084.082
973.4680, 7994.781
974.5830, 8066.270
975.6980, 7724.973
976.8130, 7522.977
977.9280, 7218.066
979.0420, 7179.254
980.1560, 7039.535
981.2710, 6827.902
982.3850, 6914.363
983.4980, 6275.930
984.6120, 6151.594
985.7260, 6141.359
986.8390, 6260.227
987.9520, 6013.898
989.0650, 5885.250
990.1780, 5708.445
991.2910, 5695.770
992.4030, 5719.188
993.5160, 5838.742
994.6280, 5529.395
995.7400, 5771.141
996.8520, 5713.977
997.9640, 5581.906
999.0750, 5800.934
1000.187, 6380.059
1001.298, 6561.273
1002.409, 5764.586
1003.520, 6075.988
1004.631, 6851.488
1005.741, 6149.078
1006.852, 6430.766
1007.962, 6284.539
1009.072, 6331.406
1010.182, 6418.367
1011.292, 6356.418
1012.402, 6299.555
1013.511, 6437.785
1014.621, 6441.109
1015.730, 6477.520
1016.839, 6773.023
1017.948, 6530.613
1019.056, 6808.297
1020.165, 6576.070
1021.273, 7146.930
1022.382, 7070.875
1023.490, 7889.910
1024.598, 7854.035
1025.706, 7237.250
1026.813, 7706.555
1027.921, 7851.941
1029.028, 8054.254
1030.135, 8499.824
1031.242, 8173.551
1032.349, 8778.441
1033.456, 9118.473
1034.562, 9217.449
1035.668, 9132.461
1036.775, 9218.570
1037.881, 9406.852
1038.987, 9413.938
1040.092, 9403.773
1041.198, 9595.688
1042.303, 9594.703
1043.408, 9670.852
1044.514, 9601.547
1045.618, 9313.547
1046.723, 9206.812
1047.828, 9069.750
1048.932, 9013.617
1050.037, 8952.363
1051.141, 8834.406
1052.245, 8754.531
1053.349, 8645.355
1054.452, 8520.477
1055.556, 8431.051
1056.659, 8287.977
1057.762, 8183.641
1058.865, 8336.121
1059.968, 8295.711
1061.071, 8097.672
1062.174, 8258.395
1063.276, 7722.113
1064.378, 7848.070
1065.480, 7730.453
1066.582, 7518.234
1067.684, 7576.016
1068.786, 7560.551
1069.887, 7461.953
1070.988, 7055.766
1072.090, 7050.578
1073.191, 6888.492
1074.291, 6715.648
1075.392, 6768.426
1076.493, 6410.473
1077.593, 6531.746
1078.693, 6376.270
1079.793, 6389.168
1080.893, 6345.652
1081.993, 6331.293
1083.092, 6174.320
1084.192, 6135.246
1085.291, 5695.520
1086.390, 5629.789
1087.489, 5444.012
1088.588, 5233.262
1089.686, 5039.211
1090.785, 4947.062
1091.883, 4878.844
1092.981, 4821.992
1094.079, 4776.566
1095.177, 4792.297
1096.275, 4690.938
1097.373, 4306.438
1098.470, 4117.156
1099.567, 4153.672
1100.664, 4109.469
1101.761, 4193.387
1102.858, 4106.598
1103.954, 3859.934
1105.051, 3700.145
1106.147, 3606.781
1107.243, 3452.527
1108.339, 3597.535
1109.435, 3313.809
1110.531, 3156.098
1111.626, 3251.570
1112.722, 3265.875
1113.817, 3203.562
1114.912, 2837.332
1116.007, 2864.422
1117.101, 2736.383
1118.196, 2598.348
1119.290, 2681.352
1120.385, 2362.102
1121.479, 2448.719
1122.573, 2374.676
1123.666, 2367.340
1124.760, 2210.801
1125.853, 2092.910
1126.947, 2134.637
1128.040, 2088.051
1129.133, 1902.594
1130.226, 1899.824
1131.318, 1570.918
1132.411, 1528.203
1133.503, 1609.953
1134.596, 1432.668
1135.688, 1433.031
1136.780, 1366.551
1137.871, 991.9844
1138.963, 1151.973
1140.054, 1080.871
1141.146, 772.6758
1142.237, 914.4961
1143.328, 638.7812
1144.419, 512.3125
1145.509, 497.9180
1146.600, 367.8008
1147.690, 292.7227
1148.780, 441.0312
1149.870, 202.3594
1150.960, 150.6953
1152.050, 85.05078
1153.139, 220.4141
1154.229, 223.7969
1155.318, 84.18750
1156.407, 202.5938
1157.496, 176.4922
1158.585, 27.01172
1159.674, 119.5547
1160.762, 167.8633
1161.850, 1.511719
1162.939, 9.281250
1164.027, 13.37500
1165.114, 1.066406
1166.202, 13.50781
1167.290, 53.04688
1168.377, 3.566406
1169.464, 29.82422
1170.551, 17.73828
1171.638, 89.29688
1172.725, 238.8828
1173.812, 166.2031
1174.898, 153.6914
1175.984, 11.05078
1177.071, 52.79688
1178.157, 117.4414
1179.242, 131.3203
1180.328, 154.1406
1181.414, 255.0312
1182.499, 33.04297
1183.584, 99.93750
1184.669, 3.902344
1185.754, 3.859375
1186.839, 210.1836
1187.924, 15.65625
1189.008, 112.5117
1190.092, 143.7383
1191.177, 78.05078
1192.260, 51.41016
1193.344, 196.8086
1194.428, 66.32422
1195.512, 198.8867
1196.595, 61.42578
1197.678, 233.7266
1198.761, 119.9805
1199.844, 5.777344
1200.927, 32.39844
1202.009, 68.44141
1203.092, 90.34766
1204.174, 14.33203
1205.256, 89.35938
1206.338, 27.34766
1207.420, 75.08984
1208.502, 78.19141
1209.583, 144.9883
1210.665, 267.7617
1211.746, 84.48047
1212.827, 56.81641
1213.908, 83.23047
1214.988, 52.74609
1216.069, 123.6602
1217.149, 75.96094
1218.230, 152.6758
1219.310, 0.4687500
1220.390, 135.4453
1221.470, 106.5039
1222.549, 211.5781
1223.629, 49.83203
1224.708, 26.21484
1225.787, 95.00000
1226.866, 69.82031
1227.945, 120.4492
1229.024, 80.41016
1230.103, 200.1055
1231.181, 243.0078
1232.259, 20.76172
1233.337, 111.3320
1234.415, 84.71094
1235.493, 51.53125
1236.571, 239.1953
1237.648, 19.75000
1238.726, 203.7930
1239.803, 259.3320
1240.880, 298.0430
1241.957, 252.7148
1243.034, 321.3516
1244.110, 66.94531
1245.187, 346.4766
1246.263, 53.96875
1247.339, 208.3867
1248.415, 231.7695
1249.491, 31.10938
1250.566, 4.636719
1251.642, 9.488281
1252.717, 173.6484
1253.793, 60.35156
1254.868, 206.5156
1255.943, 406.3320
1257.017, 412.1133
1258.092, 207.8477
1259.166, 334.5391
1260.241, 201.1875
1261.315, 306.7930
1262.389, 172.3477
1263.462, 223.8633
1264.536, 294.3242
1265.610, 177.7773
1266.683, 362.6680
1267.756, 466.4180
1268.829, 493.3594
1269.902, 213.7969
1270.975, 329.9727
1272.048, 287.4180
1273.120, 238.3242
1274.192, 410.0859
1275.264, 174.7383
1276.336, 342.9023
1277.408, 349.9180
1278.480, 430.6250
1279.551, 351.6367
1280.623, 321.9062
1281.694, 451.8359
1282.765, 493.3008
1283.836, 395.7422
1284.907, 480.8516
1285.977, 239.4648
1287.048, 284.5000
1288.118, 453.0938
1289.188, 360.5039
1290.258, 448.3047
1291.328, 468.3438
1292.398, 188.3398
1293.467, 592.3438
1294.537, 388.4414
1295.606, 447.5547
1296.675, 538.6055
1297.744, 419.5273
1298.813, 367.8711
1299.882, 554.3281
1300.950, 657.4492
1302.018, 675.7617
1303.086, 391.3633
1304.155, 509.3984
1305.222, 468.4727
1306.290, 419.8398
1307.358, 593.4727
1308.425, 354.5898
1309.492, 517.8320
1310.559, 513.6094
1311.626, 595.2227
1312.693, 518.1289
1313.760, 490.2227
1314.826, 621.9609
1315.893, 653.9453
1316.959, 558.2578
1318.025, 639.5117
1319.091, 392.2148
1320.157, 435.0508
