##NAMES=Riebeckite
##RRUFFID=R050082
##IDEAL CHEMISTRY=[box]Na_2_(Fe^2+^_3_Fe^3+^_2_)Si_8_O_22_(OH)_2_
##LOCALITY=Mt. Malosa, Zomba, Chilwa, Alkaline Area, Malawi
##OWNER=RRUFF
##SOURCE=Rock Currier
##DESCRIPTION=Black elongated prisms
##STATUS=The identification of this mineral has been confirmed by X-ray diffraction and chemical analysis
##URL=rruff.info/R050082
##MEASURED CHEMISTRY=([box]_0.63_Na_0.19_K_0.18_)(Na_1.58_Ca_0.42_)_Σ=2_Fe^2+^_3.00_(Fe^3+^_1.30_Fe^2+^_0.45_Mn_0.15_Mg_0.05_Ti_0.05_)_Σ=2_(Si_0.98_Al_0.02_)_8_O_22_(OH)_2_
##PIN_ID=L00434
##ORIENTATION=Laser parallel to b* (0 1 0). Fiducial mark perpendicular to laser is parallel to c [0 0 1]
146.1280, 0.0000000E+00
147.3620, 257.8633
148.5960, 13.33594
149.8300, 46.84766
151.0630, 431.8594
152.2960, 919.6602
153.5300, 696.8672
154.7620, 861.2070
155.9950, 892.5703
157.2280, 1013.297
158.4600, 835.8867
159.6920, 1439.301
160.9250, 1490.250
162.1560, 2303.230
163.3880, 3812.656
164.6200, 3862.051
165.8510, 4283.391
167.0820, 4538.094
168.3130, 4656.656
169.5440, 4950.000
170.7750, 5337.996
172.0050, 4966.582
173.2350, 5133.820
174.4650, 5511.070
175.6950, 6112.477
176.9250, 6673.875
178.1550, 7776.574
179.3840, 8017.742
180.6130, 8885.844
181.8420, 9217.273
183.0710, 10058.30
184.3000, 11329.50
185.5280, 12021.84
186.7570, 12805.93
187.9850, 13725.30
189.2130, 13881.18
190.4400, 14186.83
191.6680, 14242.34
192.8960, 14106.47
194.1230, 14302.22
195.3500, 13427.50
196.5770, 12741.27
197.8030, 11891.45
199.0300, 11754.60
200.2560, 11740.49
201.4830, 11349.56
202.7090, 10030.95
203.9340, 7265.418
205.1600, 4603.602
206.3860, 2988.559
207.6110, 2272.348
208.8360, 1899.434
210.0610, 1708.301
211.2860, 1677.410
212.5100, 1608.953
213.7350, 1602.723
214.9590, 1186.059
216.1830, 926.4102
217.4070, 1020.547
218.6310, 1073.344
219.8540, 884.5195
221.0780, 1208.910
222.3010, 1134.488
223.5240, 996.0273
224.7470, 1388.488
225.9690, 1273.555
227.1920, 1432.543
228.4140, 1531.727
229.6360, 1577.863
230.8580, 1435.895
232.0800, 1531.992
233.3020, 1529.000
234.5230, 1520.992
235.7440, 1643.879
236.9650, 1466.770
238.1860, 1305.285
239.4070, 1284.727
240.6280, 1113.117
241.8480, 1096.914
243.0680, 838.0469
244.2880, 693.2344
245.5080, 516.4414
246.7280, 493.9922
247.9470, 280.8516
249.1660, 630.0273
250.3860, 448.1719
251.6040, 708.2773
252.8230, 578.3320
254.0420, 709.3203
255.2600, 753.9141
256.4790, 934.9219
257.6970, 1067.047
258.9150, 1152.922
260.1320, 1054.516
261.3500, 1193.617
262.5670, 1237.238
263.7840, 1276.777
265.0010, 993.2227
266.2180, 1310.512
267.4350, 973.6055
268.6510, 1208.477
269.8680, 958.0859
271.0840, 846.3164
272.3000, 838.7852
273.5160, 613.3125
274.7310, 687.9453
275.9470, 710.3906
277.1620, 694.6641
278.3770, 646.8906
279.5920, 210.6719
280.8070, 87.85547
282.0210, 72.26562
283.2360, 361.4219
284.4500, 290.3164
285.6640, 450.3984
286.8780, 472.8164
288.0920, 342.7422
289.3050, 346.4531
290.5180, 379.0195
291.7320, 142.3320
292.9450, 393.7891
294.1570, 231.3398
295.3700, 135.2188
296.5830, 467.9688
297.7950, 244.2188
299.0070, 429.8906
300.2190, 87.17578
301.4310, 314.8516
302.6420, 97.76562
303.8540, 70.33594
305.0650, 192.9609
306.2760, 130.9727
307.4870, 307.7500
308.6980, 388.5820
309.9080, 465.0508
311.1190, 675.8906
312.3290, 641.2344
313.5390, 849.0977
314.7490, 958.7773
315.9580, 876.3281
317.1680, 929.2383
318.3770, 1103.922
319.5860, 1291.004
320.7950, 1160.812
322.0040, 1530.781
323.2130, 1456.723
324.4210, 1702.129
325.6290, 1650.848
326.8380, 2073.301
328.0460, 2047.094
329.2530, 2121.984
330.4610, 1962.484
331.6680, 2220.684
332.8760, 2729.672
334.0830, 2707.555
335.2890, 3043.574
336.4960, 3040.523
337.7030, 3498.781
338.9090, 3710.859
340.1150, 4051.012
341.3210, 4579.277
342.5270, 4686.168
343.7330, 5458.676
344.9380, 5600.844
346.1440, 6171.699
347.3490, 6191.277
348.5540, 6582.621
349.7590, 7090.727
350.9630, 7715.617
352.1680, 7541.293
353.3720, 8294.742
354.5760, 7481.965
355.7800, 7316.949
356.9840, 7176.695
358.1870, 6959.211
359.3910, 7019.270
360.5940, 6945.516
361.7970, 6976.301
363.0000, 6966.035
364.2030, 6853.992
365.4050, 6806.918
366.6080, 6759.672
367.8100, 6786.562
369.0120, 6684.898
370.2140, 6669.812
371.4150, 6599.152
372.6170, 6301.617
373.8180, 6155.922
375.0190, 5766.098
376.2200, 5868.160
377.4210, 5980.113
378.6220, 5450.961
379.8220, 5337.723
381.0230, 5291.391
382.2230, 4880.973
383.4230, 4960.293
384.6220, 4655.445
385.8220, 4464.789
387.0220, 4386.973
388.2210, 4150.992
389.4200, 4074.070
390.6190, 3823.590
391.8180, 3666.383
393.0160, 3487.930
394.2150, 3196.156
395.4130, 3158.578
396.6110, 2695.285
397.8090, 2822.824
399.0060, 2277.375
400.2040, 2124.121
401.4010, 1841.535
402.5980, 1741.406
403.7950, 1609.555
404.9920, 1597.199
406.1890, 1463.336
407.3860, 1112.574
408.5820, 1314.883
409.7780, 1078.922
410.9740, 1167.191
412.1700, 1080.973
413.3650, 1171.645
414.5610, 1298.141
415.7560, 1413.262
416.9510, 1669.051
418.1460, 1577.531
419.3410, 1848.562
420.5360, 1475.680
421.7300, 1662.641
422.9240, 1529.125
424.1180, 1673.410
425.3120, 1544.742
426.5060, 1643.250
427.7000, 1614.398
428.8930, 1502.012
430.0860, 1641.574
431.2790, 1451.730
432.4720, 1262.059
433.6650, 1436.184
434.8580, 1291.312
436.0500, 1048.355
437.2420, 1117.496
438.4340, 847.7266
439.6260, 955.8711
440.8180, 634.0586
442.0090, 741.1250
443.2010, 613.0703
444.3920, 167.9492
445.5830, 417.2773
446.7740, 463.7930
447.9640, 280.1992
449.1550, 418.9375
450.3450, 166.3125
451.5350, 270.4883
452.7250, 341.0938
453.9150, 69.14844
455.1050, 175.4336
456.2940, 126.5391
457.4830, 355.1406
458.6720, 26.50391
459.8610, 224.4297
461.0500, 221.5820
462.2390, 262.5039
463.4270, 263.7500
464.6150, 205.6016
465.8040, 360.4180
466.9910, 219.6016
468.1790, 309.5391
469.3670, 172.8672
470.5540, 92.58594
471.7410, 300.0820
472.9280, 319.3281
474.1150, 155.5820
475.3020, 133.9766
476.4890, 441.2266
477.6750, 224.2305
478.8610, 386.6289
480.0470, 348.5430
481.2330, 551.9922
482.4190, 695.3281
483.6040, 907.5508
484.7900, 1113.668
485.9750, 842.6797
487.1600, 846.5898
488.3450, 954.3945
489.5290, 1220.102
490.7140, 1353.711
491.8980, 1494.215
493.0820, 1259.629
494.2660, 1586.941
495.4500, 1826.160
496.6340, 1655.281
497.8170, 2019.312
499.0010, 1982.246
500.1840, 2082.086
501.3670, 2254.832
502.5500, 2508.492
503.7320, 2420.062
504.9150, 2659.547
506.0970, 2745.953
507.2790, 3041.281
508.4610, 3860.531
509.6430, 3618.195
510.8250, 4057.832
512.0060, 3588.887
513.1870, 3787.875
514.3680, 3931.797
515.5490, 3925.652
516.7300, 4226.602
517.9110, 4506.188
519.0910, 4716.863
520.2710, 4907.477
521.4510, 5140.059
522.6310, 5345.574
523.8110, 5590.039
524.9910, 5934.441
526.1700, 6147.805
527.3490, 6904.129
528.5280, 7126.473
529.7070, 7441.809
530.8860, 7772.133
532.0650, 7933.465
533.2430, 8116.816
534.4210, 8449.191
535.5990, 8717.602
536.7770, 8882.031
537.9550, 9049.484
539.1320, 8901.930
540.3100, 8530.375
541.4870, 8446.816
542.6640, 8581.262
543.8410, 8248.691
545.0170, 8496.098
546.1940, 8239.469
547.3700, 7958.832
548.5470, 7731.211
549.7230, 7617.203
550.8980, 7683.031
552.0740, 7711.891
553.2500, 7586.094
554.4250, 7480.969
555.6000, 7354.805
556.7750, 7271.008
557.9500, 6961.273
559.1250, 6818.594
560.2990, 6506.879
561.4730, 6259.117
562.6480, 5996.922
563.8220, 5634.480
564.9950, 5406.598
566.1690, 5204.703
567.3430, 4888.840
568.5160, 4646.984
569.6890, 4153.242
570.8620, 3856.590
572.0350, 3435.070
573.2070, 3083.695
574.3800, 2777.418
575.5520, 2311.258
576.7240, 1740.207
577.8960, 1616.012
579.0680, 1632.137
580.2400, 927.5586
581.4110, 788.5703
582.5830, 1128.543
583.7540, 1002.160
584.9250, 878.7383
586.0950, 125.8203
587.2660, 440.7109
588.4370, 65.92188
589.6070, 265.6055
590.7770, 98.75000
591.9470, 122.1914
593.1170, 147.1172
594.2860, 222.8750
595.4560, 8.386719
596.6250, 157.4805
597.7940, 228.9336
598.9630, 156.2148
600.1320, 413.2070
601.3000, 32.69531
602.4690, 241.7422
603.6370, 69.48047
604.8050, 12.19531
605.9730, 130.5508
607.1410, 117.3906
608.3090, 152.4141
609.4760, 128.8711
610.6430, 356.5977
611.8100, 131.3008
612.9770, 102.2891
614.1440, 117.0000
615.3110, 45.16797
616.4770, 60.85938
617.6430, 67.80078
618.8090, 176.4336
619.9750, 258.8242
621.1410, 476.0352
622.3070, 397.0898
623.4720, 588.7305
624.6370, 570.8711
625.8020, 495.9844
626.9670, 657.0703
628.1320, 735.5820
629.2970, 936.1445
630.4610, 1045.133
631.6250, 1132.098
632.7890, 1231.027
633.9530, 1433.086
635.1170, 1648.801
636.2810, 1843.648
637.4440, 1888.465
638.6070, 2043.254
639.7700, 2394.016
640.9330, 2697.750
642.0960, 2786.457
643.2590, 3033.137
644.4210, 3597.797
645.5830, 3799.426
646.7450, 4358.027
647.9070, 4657.609
649.0690, 5498.156
650.2310, 6019.688
651.3920, 6735.191
652.5530, 7562.668
653.7140, 8455.129
654.8750, 9486.914
656.0360, 10928.96
657.1970, 12149.35
658.3570, 13107.71
659.5170, 15334.05
660.6770, 16327.83
661.8370, 16995.13
662.9970, 17699.40
664.1570, 18508.64
665.3160, 18477.94
666.4750, 18144.49
667.6340, 17634.61
668.7930, 16096.56
669.9520, 15260.41
671.1110, 13735.69
672.2690, 12536.13
673.4270, 11074.33
674.5850, 10134.58
675.7430, 9122.840
676.9010, 8090.273
678.0590, 7350.902
679.2160, 7054.000
680.3730, 6987.109
681.5300, 6329.336
682.6870, 6223.160
683.8440, 6032.352
685.0010, 7223.465
686.1570, 6475.016
687.3130, 6472.762
688.4690, 6014.637
689.6250, 5731.191
690.7810, 5932.965
691.9370, 5808.883
693.0920, 5662.992
694.2470, 6220.555
695.4020, 6137.047
696.5570, 5956.945
697.7120, 6381.641
698.8670, 6528.066
700.0210, 6364.465
701.1750, 6942.852
702.3290, 6533.176
703.4830, 6753.477
704.6370, 6623.734
705.7910, 7110.961
706.9440, 6990.156
708.0970, 6965.320
709.2510, 7188.449
710.4030, 7337.543
711.5560, 7209.605
712.7090, 7130.633
713.8610, 7412.629
715.0140, 7183.590
716.1660, 7371.512
717.3180, 7269.402
718.4690, 7257.254
719.6210, 7039.074
720.7730, 6944.855
721.9240, 6896.605
723.0750, 6833.324
724.2260, 6669.008
725.3770, 6612.426
726.5270, 6458.152
727.6780, 6307.547
728.8280, 6136.086
729.9780, 5932.234
731.1280, 5745.898
732.2780, 5499.281
733.4280, 5137.598
734.5770, 5009.234
735.7260, 4703.547
736.8760, 4941.332
738.0250, 4498.633
739.1730, 4315.805
740.3220, 4039.785
741.4700, 3729.535
742.6190, 3702.570
743.7670, 3414.266
744.9150, 3402.016
746.0630, 3343.238
747.2100, 3172.559
748.3580, 3148.328
749.5050, 3062.555
750.6520, 2782.852
751.7990, 2294.242
752.9460, 2464.480
754.0930, 2247.430
755.2390, 2295.371
756.3860, 2102.426
757.5320, 2099.941
758.6780, 2000.801
759.8240, 1868.992
760.9690, 1575.168
762.1150, 2107.328
763.2600, 1740.449
764.4060, 1908.598
765.5510, 1650.707
766.6950, 1242.809
767.8400, 1514.887
768.9850, 1617.949
770.1290, 1405.000
771.2730, 1482.035
772.4170, 1423.055
773.5610, 1049.070
774.7050, 1262.062
775.8480, 1068.043
776.9920, 1043.434
778.1350, 1005.969
779.2780, 956.9141
780.4210, 843.8438
781.5640, 647.7656
782.7060, 813.6797
783.8490, 908.5859
784.9910, 434.4844
786.1330, 872.3672
787.2750, 588.2422
788.4170, 598.1133
789.5580, 429.9688
790.7000, 374.8672
791.8410, 408.6719
792.9820, 323.5117
794.1230, 267.3516
795.2640, 263.1797
796.4040, 161.0078
797.5450, 69.17578
798.6850, 218.5820
799.8250, 238.3320
800.9650, 447.0820
802.1050, 29.17188
803.2450, 35.47656
804.3840, 232.8164
805.5230, 152.3047
806.6630, 100.8984
807.8020, 177.5625
808.9400, 198.3359
810.0790, 196.7539
811.2170, 215.7891
812.3560, 169.3906
813.4940, 223.6367
814.6320, 110.0039
815.7700, 156.4492
816.9070, 104.9805
818.0450, 180.5820
819.1820, 104.2344
820.3190, 95.03516
821.4560, 19.85156
822.5930, 165.6875
823.7300, 239.6094
824.8670, 234.6484
826.0030, 95.80859
827.1390, 194.0117
828.2750, 50.31641
829.4110, 222.6406
830.5470, 216.0742
831.6820, 21.60156
832.8180, 180.1406
833.9530, 244.7578
835.0880, 24.51562
836.2230, 118.8008
837.3580, 12.10547
838.4920, 163.4180
839.6270, 196.1328
840.7610, 82.08594
841.8950, 372.4453
843.0290, 219.8203
844.1630, 328.2109
845.2960, 459.6211
846.4300, 647.0508
847.5630, 725.5938
848.6960, 863.2305
849.8290, 926.4570
850.9620, 1007.969
852.0940, 1107.504
853.2270, 1019.059
854.3590, 1293.637
855.4910, 1664.234
856.6230, 1629.859
857.7550, 1921.508
858.8870, 1910.180
860.0180, 2095.672
861.1500, 2384.305
862.2810, 2544.367
863.4120, 2996.148
864.5430, 3482.969
865.6730, 3836.895
866.8040, 3953.883
867.9340, 4246.340
869.0640, 4277.082
870.1940, 4621.316
871.3240, 4845.590
872.4540, 5187.949
873.5830, 5307.410
874.7130, 5396.949
875.8420, 5528.223
876.9710, 5567.395
878.1000, 5551.184
879.2290, 5636.012
880.3570, 5496.875
881.4860, 5522.828
882.6140, 5538.820
883.7420, 5777.895
884.8700, 5181.059
885.9980, 5316.262
887.1250, 4876.512
888.2530, 4865.832
889.3800, 5165.195
890.5070, 4451.613
891.6340, 4333.094
892.7610, 4322.621
893.8880, 4055.188
895.0140, 3876.812
896.1400, 3746.480
897.2670, 3581.188
898.3930, 3278.941
899.5180, 3340.371
900.6440, 3416.570
901.7700, 3336.453
902.8950, 2990.379
904.0200, 2829.352
905.1450, 2780.371
906.2700, 2894.449
907.3950, 2454.574
908.5190, 2704.746
909.6440, 2632.961
910.7680, 2381.230
911.8920, 2306.559
913.0160, 2397.969
914.1400, 2354.285
915.2630, 2473.043
916.3870, 2432.527
917.5100, 2676.188
918.6330, 2550.902
919.7560, 2519.738
920.8790, 2449.621
922.0010, 1926.566
923.1240, 2408.562
924.2460, 2146.613
925.3680, 2159.754
926.4900, 2419.969
927.6120, 2008.266
928.7340, 2223.637
929.8550, 2126.102
930.9760, 2192.625
932.0980, 1908.219
933.2190, 2128.441
934.3390, 2057.781
935.4600, 2218.312
936.5810, 2330.277
937.7010, 2392.133
938.8210, 2269.727
939.9410, 2373.441
941.0610, 2387.121
942.1810, 2400.035
943.3010, 2541.188
944.4200, 2436.848
945.5390, 2575.000
946.6580, 2964.914
947.7770, 3126.316
948.8960, 3194.578
950.0150, 2905.703
951.1330, 2979.426
952.2510, 3341.191
953.3690, 3712.879
954.4870, 3466.086
955.6050, 3782.016
956.7230, 3775.078
957.8400, 3882.586
958.9580, 3824.980
960.0750, 4082.875
961.1920, 4111.742
962.3090, 4027.441
963.4250, 4317.043
964.5420, 4197.008
965.6580, 4281.578
966.7740, 4125.117
967.8900, 4131.613
969.0060, 4019.781
970.1220, 4170.273
971.2380, 3913.863
972.3530, 3890.523
973.4680, 3841.297
974.5830, 3661.145
975.6980, 3591.086
976.8130, 3780.105
977.9280, 3581.211
979.0420, 3540.086
980.1560, 3647.270
981.2710, 3705.848
982.3850, 3718.449
983.4980, 3547.082
984.6120, 3613.465
985.7260, 3584.672
986.8390, 3552.078
987.9520, 3652.152
989.0650, 3507.980
990.1780, 3606.148
991.2910, 3607.688
992.4030, 3653.574
993.5160, 3603.730
994.6280, 3583.570
995.7400, 3659.359
996.8520, 3682.160
997.9640, 3621.629
999.0750, 3670.867
1000.187, 3555.297
1001.298, 3843.219
1002.409, 3746.219
1003.520, 3770.305
1004.631, 3712.480
1005.741, 3792.789
1006.852, 3776.828
1007.962, 3879.008
1009.072, 3932.648
1010.182, 3940.289
1011.292, 3763.984
1012.402, 3825.414
1013.511, 3791.684
1014.621, 3754.125
1015.730, 3849.258
1016.839, 3700.133
1017.948, 3794.590
1019.056, 3791.168
1020.165, 3832.086
1021.273, 3777.258
1022.382, 3598.387
1023.490, 3633.148
1024.598, 3945.992
1025.706, 3663.070
1026.813, 3760.094
1027.921, 4055.215
1029.028, 4018.398
1030.135, 4169.336
1031.242, 3995.012
1032.349, 4307.449
1033.456, 4313.344
1034.562, 4345.559
1035.668, 4608.234
1036.775, 4515.984
1037.881, 4646.812
1038.987, 4602.258
1040.092, 4461.246
1041.198, 4375.309
1042.303, 4654.445
1043.408, 4810.664
1044.514, 4645.027
1045.618, 4827.707
1046.723, 4304.152
1047.828, 4841.570
1048.932, 4719.168
1050.037, 4641.684
1051.141, 4880.430
1052.245, 4674.031
1053.349, 4274.922
1054.452, 4563.695
1055.556, 4614.730
1056.659, 4499.848
1057.762, 4650.766
1058.865, 4557.113
1059.968, 4453.781
1061.071, 4566.027
1062.174, 4781.262
1063.276, 4672.797
1064.378, 4737.625
1065.480, 4654.770
1066.582, 4704.539
1067.684, 4446.703
1068.786, 4500.922
1069.887, 4295.504
1070.988, 4323.012
1072.090, 4376.688
1073.191, 4481.957
1074.291, 4445.586
1075.392, 4717.688
1076.493, 4410.324
1077.593, 4518.055
1078.693, 4546.887
1079.793, 4221.945
1080.893, 4208.031
1081.993, 4252.215
1083.092, 4340.984
1084.192, 4123.613
1085.291, 3957.125
1086.390, 3845.949
1087.489, 3698.699
1088.588, 3666.863
1089.686, 3571.367
1090.785, 3555.332
1091.883, 3716.418
1092.981, 3494.281
1094.079, 3383.562
1095.177, 2995.941
1096.275, 2903.395
1097.373, 3220.953
1098.470, 3281.613
1099.567, 2994.895
1100.664, 2923.012
1101.761, 2809.934
1102.858, 2689.645
1103.954, 2719.039
1105.051, 2747.664
1106.147, 2712.766
1107.243, 2644.938
1108.339, 2722.152
1109.435, 2460.410
1110.531, 2497.715
1111.626, 2343.055
1112.722, 2260.441
1113.817, 2423.867
1114.912, 2265.336
1116.007, 2194.840
1117.101, 2068.387
1118.196, 1956.539
1119.290, 1676.594
1120.385, 1852.254
1121.479, 1731.895
1122.573, 1919.633
1123.666, 1893.707
1124.760, 1562.516
1125.853, 1513.102
1126.947, 1223.578
1128.040, 1118.488
1129.133, 1005.441
1130.226, 1024.418
1131.318, 818.4375
1132.411, 763.5039
1133.503, 829.5625
1134.596, 628.8086
1135.688, 596.9414
1136.780, 703.5273
1137.871, 538.9297
1138.963, 374.1484
1140.054, 517.8672
1141.146, 294.2188
1142.237, 539.5117
1143.328, 323.8359
1144.419, 232.1797
1145.509, 392.5469
1146.600, 217.9375
1147.690, 202.3477
1148.780, 76.02344
1149.870, 143.2930
1150.960, 264.5898
1152.050, 293.7773
1153.139, 33.87500
1154.229, 102.5586
1155.318, 48.53906
1156.407, 9.687500
1157.496, 194.4883
1158.585, 90.77734
1159.674, 108.4375
1160.762, 114.2695
1161.850, 212.1641
1162.939, 114.8516
1164.027, 76.76562
1165.114, 230.4102
1166.202, 277.9062
1167.290, 158.5938
1168.377, 258.6406
1169.464, 89.69922
1170.551, 17.94141
1171.638, 290.5977
1172.725, 30.50391
1173.812, 117.0664
1174.898, 92.40625
1175.984, 151.7617
1177.071, 229.8359
1178.157, 102.5664
1179.242, 13.99609
1180.328, 169.4180
1181.414, 99.07812
1182.499, 313.3672
1183.584, 136.9844
1184.669, 24.65625
1185.754, 55.68750
1186.839, 45.72266
1187.924, 149.9336
1189.008, 102.3477
1190.092, 121.4297
1191.177, 75.26562
1192.260, 158.1445
1193.344, 97.90234
1194.428, 58.05469
1195.512, 180.0508
1196.595, 174.8555
1197.678, 105.2383
1198.761, 234.3984
1199.844, 71.69141
1200.927, 204.9648
1202.009, 50.11328
1203.092, 76.02344
1204.174, 14.89453
1205.256, 112.4883
1206.338, 26.05469
1207.420, 98.16016
1208.502, 27.32031
1209.583, 32.54297
1210.665, 262.6133
1211.746, 3.941406
1212.827, 78.73828
1213.908, 21.40234
1214.988, 264.8867
1216.069, 211.8438
1217.149, 138.7148
1218.230, 8.093750
1219.310, 177.4492
1220.390, 174.7969
1221.470, 241.6094
1222.549, 44.40234
1223.629, 128.6953
1224.708, 336.3164
1225.787, 90.04297
1226.866, 119.7461
1227.945, 485.4258
1229.024, 18.91797
1230.103, 172.3281
1231.181, 132.1133
1232.259, 48.46875
1233.337, 82.86328
1234.415, 77.16797
1235.493, 139.4375
1236.571, 170.4023
1237.648, 164.5664
1238.726, 189.7578
1239.803, 260.9219
1240.880, 275.0586
1241.957, 310.2148
1243.034, 260.8672
1244.110, 369.9219
1245.187, 299.3438
1246.263, 345.6758
1247.339, 317.9141
1248.415, 201.8477
1249.491, 300.2891
1250.566, 70.16797
1251.642, 297.1680
1252.717, 92.96875
1253.793, 191.7227
1254.868, 59.00781
1255.943, 129.6758
1257.017, 456.3086
1258.092, 351.9062
1259.166, 411.4727
1260.241, 419.0781
1261.315, 261.3789
1262.389, 338.8516
1263.462, 182.2852
1264.536, 228.6914
1265.610, 107.1133
1266.683, 38.89062
1267.756, 368.2148
1268.829, 56.71484
1269.902, 204.2305
1270.975, 304.1445
1272.048, 229.0195
1273.120, 461.8672
1274.192, 443.2109
1275.264, 499.4414
1276.336, 486.1836
1277.408, 271.8789
1278.480, 173.2773
1279.551, 325.8984
1280.623, 340.4883
1281.694, 57.95703
1282.765, 407.0039
1283.836, 321.3906
1284.907, 80.73047
1285.977, 179.8711
1287.048, 356.1055
1288.118, 245.2852
1289.188, 389.4492
1290.258, 85.57031
1291.328, 329.6328
1292.398, 273.6523
1293.467, 526.6367
1294.537, 440.7031
1295.606, 319.4922
1296.675, 427.3672
1297.744, 342.2109
1298.813, 626.4766
1299.882, 514.1094
1300.950, 570.9844
1302.018, 489.6758
1303.086, 366.3359
1304.155, 473.8867
1305.222, 318.1680
1306.290, 608.7227
1307.358, 670.3438
1308.425, 260.8242
1309.492, 482.4258
1310.559, 247.8359
1311.626, 372.4297
1312.693, 295.7656
