##NAMES=Riebeckite
##RRUFFID=R050082
##IDEAL CHEMISTRY=[box]Na_2_(Fe^2+^_3_Fe^3+^_2_)Si_8_O_22_(OH)_2_
##LOCALITY=Mt. Malosa, Zomba, Chilwa, Alkaline Area, Malawi
##OWNER=RRUFF
##SOURCE=Rock Currier
##DESCRIPTION=Black elongated prisms
##STATUS=The identification of this mineral has been confirmed by X-ray diffraction and chemical analysis
##URL=rruff.info/R050082
##MEASURED CHEMISTRY=([box]_0.63_Na_0.19_K_0.18_)(Na_1.58_Ca_0.42_)_Σ=2_Fe^2+^_3.00_(Fe^3+^_1.30_Fe^2+^_0.45_Mn_0.15_Mg_0.05_Ti_0.05_)_Σ=2_(Si_0.98_Al_0.02_)_8_O_22_(OH)_2_
##PIN_ID=L00434
##ORIENTATION=Laser parallel to b* (0 1 0). Fiducial mark perpendicular to laser is parallel to c [0 0 1]
123.8850, 0.0000000E+00
125.1230, 37.50586
126.3600, 107.7480
127.5960, 440.2930
128.8330, 1219.816
130.0700, 2110.846
131.3060, 3529.916
132.5420, 5376.072
133.7780, 8682.250
135.0140, 12537.89
136.2500, 16665.05
137.4850, 20480.89
138.7200, 22883.33
139.9550, 22392.91
141.1900, 19853.61
142.4250, 16886.82
143.6600, 13780.26
144.8940, 10188.82
146.1280, 8048.465
147.3620, 5965.312
148.5960, 4185.566
149.8300, 3125.551
151.0630, 2406.656
152.2960, 1752.369
153.5300, 1041.232
154.7620, 1015.822
155.9950, 659.7656
157.2280, 761.7285
158.4600, 980.4473
159.6920, 1558.684
160.9250, 2189.227
162.1560, 3019.230
163.3880, 3643.494
164.6200, 3908.695
165.8510, 4088.555
167.0820, 3872.857
168.3130, 4106.402
169.5440, 3470.029
170.7750, 3199.590
172.0050, 2585.961
173.2350, 1951.025
174.4650, 1696.682
175.6950, 1379.840
176.9250, 1532.416
178.1550, 1171.328
179.3840, 1228.617
180.6130, 1129.148
181.8420, 1211.842
183.0710, 1558.598
184.3000, 2117.357
185.5280, 2579.074
186.7570, 3050.701
187.9850, 4049.191
189.2130, 4447.500
190.4400, 5277.592
191.6680, 5757.676
192.8960, 6363.752
194.1230, 6474.506
195.3500, 6658.094
196.5770, 6850.244
197.8030, 7235.723
199.0300, 7421.699
200.2560, 8184.041
201.4830, 8827.895
202.7090, 9129.391
203.9340, 9100.645
205.1600, 9249.729
206.3860, 10289.72
207.6110, 11589.67
208.8360, 12980.60
210.0610, 14035.57
211.2860, 15043.60
212.5100, 15747.71
213.7350, 16098.91
214.9590, 15630.22
216.1830, 15641.67
217.4070, 14714.28
218.6310, 14201.04
219.8540, 13491.96
221.0780, 13122.05
222.3010, 12900.31
223.5240, 12688.74
224.7470, 13021.34
225.9690, 13134.11
227.1920, 13109.04
228.4140, 13706.14
229.6360, 13771.38
230.8580, 13800.77
232.0800, 13837.30
233.3020, 13399.81
234.5230, 12750.76
235.7440, 11686.65
236.9650, 10909.19
238.1860, 9835.285
239.4070, 8632.496
240.6280, 7536.803
241.8480, 6477.215
243.0680, 5281.719
244.2880, 4418.312
245.5080, 3495.990
246.7280, 3082.744
247.9470, 2477.576
249.1660, 1958.479
250.3860, 1484.445
251.6040, 1379.475
252.8230, 1169.561
254.0420, 1199.695
255.2600, 1148.879
256.4790, 1047.105
257.6970, 2055.369
258.9150, 1730.254
260.1320, 1823.736
261.3500, 1803.281
262.5670, 1696.375
263.7840, 1644.490
265.0010, 1909.611
266.2180, 2010.451
267.4350, 2527.244
268.6510, 2571.307
269.8680, 2308.961
271.0840, 2284.703
272.3000, 3106.180
273.5160, 1907.414
274.7310, 1618.822
275.9470, 1657.645
277.1620, 2700.500
278.3770, 1809.566
279.5920, 1326.242
280.8070, 897.7285
282.0210, 645.4219
283.2360, 523.2012
284.4500, 376.9590
285.6640, 425.6094
286.8780, 366.3613
288.0920, 253.2832
289.3050, 431.1816
290.5180, 558.7109
291.7320, 671.8242
292.9450, 986.4805
294.1570, 1053.635
295.3700, 1302.258
296.5830, 1764.312
297.7950, 2791.770
299.0070, 3789.605
300.2190, 2840.793
301.4310, 2618.311
302.6420, 2906.137
303.8540, 3460.262
305.0650, 3839.668
306.2760, 3939.584
307.4870, 4628.543
308.6980, 4558.844
309.9080, 4826.400
311.1190, 4981.117
312.3290, 5275.045
313.5390, 5285.184
314.7490, 5290.459
315.9580, 5170.953
317.1680, 5130.779
318.3770, 4720.664
319.5860, 4640.486
320.7950, 4392.924
322.0040, 4312.326
323.2130, 3644.508
324.4210, 3408.910
325.6290, 2926.266
326.8380, 2553.863
328.0460, 2121.354
329.2530, 1901.496
330.4610, 1515.094
331.6680, 1295.738
332.8760, 1095.613
334.0830, 700.3340
335.2890, 626.0879
336.4960, 346.8691
337.7030, 332.6719
338.9090, 324.4883
340.1150, 76.69531
341.3210, 48.90430
342.5270, 9.841797
343.7330, 11.53906
344.9380, 35.18555
346.1440, 235.7871
347.3490, 89.65625
348.5540, 132.8477
349.7590, 162.1133
350.9630, 617.7324
352.1680, 283.1133
353.3720, 465.4492
354.5760, 356.7402
355.7800, 575.9941
356.9840, 464.1973
358.1870, 677.3594
359.3910, 772.4707
360.5940, 757.5371
361.7970, 754.5508
363.0000, 772.5176
364.2030, 1061.428
365.4050, 956.2871
366.6080, 886.0918
367.8100, 1065.840
369.0120, 871.5293
370.2140, 894.1602
371.4150, 878.7324
372.6170, 762.2402
373.8180, 767.6836
375.0190, 585.0625
376.2200, 567.3750
377.4210, 404.6230
378.6220, 297.7812
379.8220, 261.0059
381.0230, 210.3184
382.2230, 203.8027
383.4230, 193.6562
384.6220, 253.4355
385.8220, 210.1406
387.0220, 183.7676
388.2210, 329.3184
389.4200, 232.7891
390.6190, 67.81836
391.8180, 134.5488
393.0160, 9.423828
394.2150, 251.4180
395.4130, 165.5879
396.6110, 368.9180
397.8090, 555.4648
399.0060, 301.2754
400.2040, 8.287109
401.4010, 241.4316
402.5980, 276.7656
403.7950, 1011.420
404.9920, 1119.613
406.1890, 798.4512
407.3860, 837.9473
408.5820, 823.9512
409.7780, 674.8184
410.9740, 542.4668
412.1700, 514.0059
413.3650, 399.2383
414.5610, 280.0527
415.7560, 37.92188
416.9510, 162.8672
418.1460, 391.7949
419.3410, 814.7441
420.5360, 1005.703
421.7300, 1376.664
422.9240, 1910.611
424.1180, 2156.547
425.3120, 2718.457
426.5060, 2888.338
427.7000, 2966.184
428.8930, 2913.990
430.0860, 3043.754
431.2790, 2602.467
432.4720, 2202.131
433.6650, 2151.738
434.8580, 1806.287
436.0500, 1520.773
437.2420, 1384.195
438.4340, 1184.549
439.6260, 1119.834
440.8180, 1147.045
442.0090, 893.1836
443.2010, 710.2461
444.3920, 740.6387
445.5830, 749.1289
446.7740, 699.5098
447.9640, 695.5801
449.1550, 507.6855
450.3450, 624.9785
451.5350, 559.0254
452.7250, 506.0977
453.9150, 706.5781
455.1050, 600.8457
456.2940, 530.4688
457.4830, 807.0996
458.6720, 624.4219
459.8610, 611.7441
461.0500, 625.0293
462.2390, 714.8594
463.4270, 621.0762
464.6150, 638.9199
465.8040, 687.2441
466.9910, 593.7285
468.1790, 742.6934
469.3670, 684.5469
470.5540, 847.6523
471.7410, 656.2812
472.9280, 1067.789
474.1150, 1005.186
475.3020, 715.4707
476.4890, 1170.635
477.6750, 1124.688
478.8610, 1396.625
480.0470, 1222.447
481.2330, 1519.156
482.4190, 1434.750
483.6040, 1529.912
484.7900, 1784.453
485.9750, 1917.623
487.1600, 1868.688
488.3450, 2372.699
489.5290, 2271.594
490.7140, 2154.418
491.8980, 2483.078
493.0820, 2641.623
494.2660, 2810.053
495.4500, 2983.363
496.6340, 3170.559
497.8170, 3220.637
499.0010, 3378.596
500.1840, 3616.439
501.3670, 3636.166
502.5500, 3855.775
503.7320, 3908.268
504.9150, 4054.641
506.0970, 4135.777
507.2790, 4075.037
508.4610, 4234.059
509.6430, 4302.967
510.8250, 4289.717
512.0060, 4488.426
513.1870, 4518.486
514.3680, 4518.445
515.5490, 4727.785
516.7300, 4816.006
517.9110, 4998.109
519.0910, 5383.098
520.2710, 5578.967
521.4510, 5847.723
522.6310, 6084.361
523.8110, 6729.881
524.9910, 7113.283
526.1700, 7674.572
527.3490, 8400.742
528.5280, 9078.797
529.7070, 9540.273
530.8860, 10090.56
532.0650, 10466.27
533.2430, 10847.87
534.4210, 11282.23
535.5990, 11285.10
536.7770, 11423.48
537.9550, 11145.43
539.1320, 10679.60
540.3100, 10386.49
541.4870, 9699.781
542.6640, 9069.043
543.8410, 8694.012
545.0170, 8195.229
546.1940, 7537.811
547.3700, 7111.082
548.5470, 6548.049
549.7230, 6252.090
550.8980, 6034.570
552.0740, 5687.018
553.2500, 5535.371
554.4250, 5416.145
555.6000, 5328.777
556.7750, 5324.822
557.9500, 5377.795
559.1250, 5534.314
560.2990, 5817.207
561.4730, 6179.910
562.6480, 6683.486
563.8220, 7028.027
564.9950, 7631.545
566.1690, 7930.029
567.3430, 8103.463
568.5160, 7854.695
569.6890, 7263.203
570.8620, 6702.488
572.0350, 5737.723
573.2070, 4647.889
574.3800, 4014.021
575.5520, 3363.082
576.7240, 2615.072
577.8960, 2074.016
579.0680, 1770.891
580.2400, 1377.697
581.4110, 933.4297
582.5830, 865.0977
583.7540, 562.6934
584.9250, 423.2207
586.0950, 330.6797
587.2660, 122.0703
588.4370, 158.3652
589.6070, 144.5742
590.7770, 87.55469
591.9470, 101.6172
593.1170, 151.9336
594.2860, 60.55078
595.4560, 137.9707
596.6250, 7.275391
597.7940, 4.429688
598.9630, 24.50195
600.1320, 161.3965
601.3000, 156.0176
602.4690, 175.6973
603.6370, 49.66211
604.8050, 159.4277
605.9730, 83.57812
607.1410, 72.95703
608.3090, 343.1191
609.4760, 607.3379
610.6430, 246.3203
611.8100, 473.4082
612.9770, 478.8340
614.1440, 454.7988
615.3110, 594.6973
616.4770, 780.3496
617.6430, 788.1270
618.8090, 1079.846
619.9750, 876.5039
621.1410, 1118.102
622.3070, 1190.641
623.4720, 1333.121
624.6370, 1779.547
625.8020, 1790.926
626.9670, 1932.246
628.1320, 2360.508
629.2970, 2460.717
630.4610, 2658.867
631.6250, 3067.971
632.7890, 3235.020
633.9530, 3481.016
635.1170, 3956.951
636.2810, 4369.836
637.4440, 5031.664
638.6070, 5422.480
639.7700, 6421.160
640.9330, 6467.828
642.0960, 7113.445
643.2590, 7924.010
644.4210, 9074.520
645.5830, 10054.98
646.7450, 11357.62
647.9070, 12871.97
649.0690, 14769.28
650.2310, 16769.64
651.3920, 18944.98
652.5530, 21536.46
653.7140, 24073.57
654.8750, 26941.70
656.0360, 30347.71
657.1970, 33933.05
658.3570, 37482.98
659.5170, 40950.84
660.6770, 43942.67
661.8370, 46438.45
662.9970, 47607.18
664.1570, 48294.86
665.3160, 47837.52
666.4750, 46219.12
667.6340, 43140.67
668.7930, 39318.19
669.9520, 34418.43
671.1110, 30218.90
672.2690, 25582.57
673.4270, 21647.49
674.5850, 18122.99
675.7430, 14998.13
676.9010, 12917.08
678.0590, 10912.20
679.2160, 9451.582
680.3730, 8077.758
681.5300, 7129.691
682.6870, 6278.404
683.8440, 5733.064
685.0010, 5010.506
686.1570, 4540.865
687.3130, 4369.086
688.4690, 4104.561
689.6250, 3657.213
690.7810, 3304.684
691.9370, 3239.232
693.0920, 3179.129
694.2470, 2805.930
695.4020, 2924.434
696.5570, 2847.393
697.7120, 2699.432
698.8670, 2655.373
700.0210, 2360.520
701.1750, 2429.906
702.3290, 2303.768
703.4830, 2366.070
704.6370, 2340.363
705.7910, 2281.875
706.9440, 2182.590
708.0970, 2110.678
709.2510, 2017.072
710.4030, 2096.100
711.5560, 1994.918
712.7090, 2055.295
713.8610, 1893.506
715.0140, 1990.623
716.1660, 1970.777
717.3180, 1957.791
718.4690, 1724.756
719.6210, 1858.668
720.7730, 1664.533
721.9240, 1591.346
723.0750, 1533.109
724.2260, 1511.824
725.3770, 1453.492
726.5270, 1367.547
727.6780, 1423.359
728.8280, 1350.842
729.9780, 1381.621
731.1280, 1257.432
732.2780, 1425.117
733.4280, 1326.248
734.5770, 1330.434
735.7260, 1245.279
736.8760, 1112.713
738.0250, 951.4355
739.1730, 853.0117
740.3220, 676.4785
741.4700, 630.2539
742.6190, 572.5020
743.7670, 761.9746
744.9150, 615.8184
746.0630, 784.3555
747.2100, 495.2598
748.3580, 551.1270
749.5050, 397.5977
750.6520, 481.8047
751.7990, 511.7617
752.9460, 641.8965
754.0930, 625.5938
755.2390, 499.2578
756.3860, 477.8906
757.5320, 477.4883
758.6780, 614.0547
759.8240, 535.5859
760.9690, 431.0859
762.1150, 614.5547
763.2600, 580.7402
764.4060, 636.8438
765.5510, 718.7695
766.6950, 691.1113
767.8400, 734.4219
768.9850, 638.7070
770.1290, 532.9590
771.2730, 529.1836
772.4170, 447.8594
773.5610, 474.5469
774.7050, 375.6875
775.8480, 390.7988
776.9920, 392.8828
778.1350, 389.9414
779.2780, 360.2617
780.4210, 317.9766
781.5640, 271.9570
782.7060, 271.9102
783.8490, 212.8379
784.9910, 326.7383
786.1330, 292.6152
787.2750, 237.4688
788.4170, 225.2949
789.5580, 28.09961
790.7000, 294.8535
791.8410, 81.58398
792.9820, 400.2832
794.1230, 155.9609
795.2640, 467.6133
796.4040, 475.2461
797.5450, 512.8574
798.6850, 520.4492
799.8250, 492.0215
800.9650, 421.5742
802.1050, 426.1094
803.2450, 379.6270
804.3840, 308.1250
805.5230, 368.6094
806.6630, 76.07422
807.8020, 208.5156
808.9400, 53.06055
810.0790, 23.28711
811.2170, 41.59961
812.3560, 63.11328
813.4940, 107.9082
814.6320, 174.8066
815.7700, 130.8398
816.9070, 190.1211
818.0450, 170.2832
819.1820, 231.7109
820.3190, 167.3047
821.4560, 164.0293
822.5930, 127.8809
823.7300, 249.8457
824.8670, 220.0547
826.0030, 188.9316
827.1390, 263.7207
828.2750, 104.3418
829.4110, 125.0605
830.5470, 138.8887
831.6820, 197.8301
832.8180, 125.9180
833.9530, 97.11133
835.0880, 209.3984
836.2230, 103.8301
837.3580, 142.3555
838.4920, 88.99023
839.6270, 146.7031
840.7610, 133.5254
841.8950, 28.44922
843.0290, 98.41602
844.1630, 75.46289
845.2960, 13.57422
846.4300, 48.71680
847.5630, 1.906250
848.6960, 124.1211
849.8290, 55.58008
850.9620, 144.2676
852.0940, 82.06055
853.2270, 66.55469
854.3590, 128.1582
855.4910, 320.7520
856.6230, 276.3301
857.7550, 408.8984
858.8870, 349.4570
860.0180, 500.0039
861.1500, 475.5430
862.2810, 406.0723
863.4120, 647.6055
864.5430, 756.1406
865.6730, 666.6758
866.8040, 909.2637
867.9340, 815.9043
869.0640, 803.6152
870.1940, 660.3398
871.3240, 769.0684
872.4540, 962.8281
873.5830, 1032.613
874.7130, 999.4219
875.8420, 998.2363
876.9710, 960.0527
878.1000, 1141.875
879.2290, 1183.742
880.3570, 1240.615
881.4860, 1137.500
882.6140, 1112.402
883.7420, 1176.014
884.8700, 1147.203
885.9980, 1314.105
887.1250, 1282.014
888.2530, 1380.918
889.3800, 1546.830
890.5070, 1438.744
891.6340, 1706.660
892.7610, 1589.578
893.8880, 1703.502
895.0140, 1669.430
896.1400, 1729.359
897.2670, 1643.297
898.3930, 1898.260
899.5180, 1912.248
900.6440, 2091.268
901.7700, 2116.297
902.8950, 2232.398
904.0200, 2227.510
905.1450, 2386.645
906.2700, 2547.793
907.3950, 2777.955
908.5190, 2839.123
909.6440, 3004.740
910.7680, 3089.871
911.8920, 3180.730
913.0160, 3232.971
914.1400, 3379.355
915.2630, 3488.703
916.3870, 3628.768
917.5100, 3740.068
918.6330, 3792.383
919.7560, 3855.488
920.8790, 3935.838
922.0010, 3955.203
923.1240, 3979.516
924.2460, 4020.803
925.3680, 4053.934
926.4900, 4081.426
927.6120, 4127.904
928.7340, 4136.039
929.8550, 4181.670
930.9760, 4161.326
932.0980, 4093.969
933.2190, 4110.582
934.3390, 4029.469
935.4600, 4190.326
936.5810, 4354.223
937.7010, 4452.137
938.8210, 4404.070
939.9410, 4457.020
941.0610, 4678.012
942.1810, 4693.273
943.3010, 4875.303
944.4200, 5056.156
945.5390, 5004.832
946.6580, 5144.980
947.7770, 5235.877
948.8960, 5400.357
950.0150, 5529.086
951.1330, 5679.668
952.2510, 6042.639
953.3690, 6072.953
954.4870, 6174.523
955.6050, 6433.248
956.7230, 6437.314
957.8400, 6530.316
958.9580, 6454.732
960.0750, 6673.674
961.1920, 6646.699
962.3090, 6926.174
963.4250, 6917.793
964.5420, 6677.254
965.6580, 6811.992
966.7740, 6697.186
967.8900, 6782.045
969.0060, 6390.871
970.1220, 6373.836
971.2380, 6260.592
972.3530, 6273.113
973.4680, 6098.207
974.5830, 6142.852
975.6980, 5800.506
976.8130, 5657.934
977.9280, 5430.154
979.0420, 5276.002
980.1560, 5243.543
981.2710, 5178.465
982.3850, 5052.150
983.4980, 4854.197
984.6120, 4855.955
985.7260, 4768.809
986.8390, 4737.619
987.9520, 4661.576
989.0650, 4806.586
990.1780, 4570.648
991.2910, 4470.762
992.4030, 4513.930
993.5160, 4693.150
994.6280, 4637.422
995.7400, 4359.756
996.8520, 4753.145
997.9640, 4490.592
999.0750, 4502.090
1000.187, 4583.645
1001.298, 4745.252
1002.409, 4813.912
1003.520, 4827.625
1004.631, 4822.389
1005.741, 4938.205
1006.852, 4958.074
1007.962, 5038.994
1009.072, 5295.977
1010.182, 5305.012
1011.292, 5302.098
1012.402, 5375.236
1013.511, 5672.430
1014.621, 5610.670
1015.730, 5966.965
1016.839, 6139.312
1017.948, 6365.713
1019.056, 6381.164
1020.165, 6930.668
1021.273, 7363.227
1022.382, 7428.953
1023.490, 7790.855
1024.598, 8166.566
1025.706, 8377.336
1026.813, 8680.152
1027.921, 9200.027
1029.028, 9718.949
1030.135, 10044.58
1031.242, 10401.33
1032.349, 10771.28
1033.456, 10962.19
1034.562, 11246.38
1035.668, 11488.45
1036.775, 11686.56
1037.881, 11833.68
1038.987, 11820.36
1040.092, 11815.42
1041.198, 11893.91
1042.303, 11750.59
1043.408, 11709.28
1044.514, 11606.76
1045.618, 11291.65
1046.723, 11234.95
1047.828, 11029.74
1048.932, 10610.59
1050.037, 10611.71
1051.141, 10328.65
1052.245, 10340.15
1053.349, 10287.19
1054.452, 10162.90
1055.556, 10058.92
1056.659, 9973.547
1057.762, 9923.936
1058.865, 10070.53
1059.968, 9862.688
1061.071, 9902.148
1062.174, 9846.582
1063.276, 9687.062
1064.378, 9562.543
1065.480, 9520.232
1066.582, 9417.836
1067.684, 9422.969
1068.786, 9258.812
1069.887, 9240.555
1070.988, 9174.338
1072.090, 8908.164
1073.191, 8829.111
1074.291, 8597.707
1075.392, 8443.682
1076.493, 8419.074
1077.593, 8044.527
1078.693, 8020.912
1079.793, 7651.506
1080.893, 7461.357
1081.993, 7075.682
1083.092, 6776.441
1084.192, 6433.539
1085.291, 6224.150
1086.390, 5701.193
1087.489, 5497.148
1088.588, 5238.814
1089.686, 5075.555
1090.785, 4870.645
1091.883, 4700.850
1092.981, 4460.697
1094.079, 4322.996
1095.177, 4126.885
1096.275, 3996.477
1097.373, 3819.145
1098.470, 3895.893
1099.567, 3668.734
1100.664, 3817.650
1101.761, 3556.775
1102.858, 3576.852
1103.954, 3573.580
1105.051, 3563.113
1106.147, 3589.000
1107.243, 3509.422
1108.339, 3592.842
1109.435, 3201.301
1110.531, 3494.129
1111.626, 3292.408
1112.722, 3322.205
1113.817, 3371.340
1114.912, 3417.053
1116.007, 3217.283
1117.101, 3265.047
1118.196, 3201.834
1119.290, 3173.666
1120.385, 3239.875
1121.479, 3047.266
1122.573, 3085.166
1123.666, 3018.088
1124.760, 2862.033
1125.853, 2769.996
1126.947, 2584.020
1128.040, 2474.025
1129.133, 2382.799
1130.226, 2390.844
1131.318, 2099.162
1132.411, 1814.242
1133.503, 2029.342
1134.596, 1742.457
1135.688, 1746.592
1136.780, 1561.771
1137.871, 1626.936
1138.963, 1529.119
1140.054, 1277.201
1141.146, 1229.412
1142.237, 1039.641
1143.328, 1039.881
1144.419, 860.1621
1145.509, 669.4023
1146.600, 574.6836
1147.690, 449.9805
1148.780, 364.2852
1149.870, 382.6621
1150.960, 259.1074
1152.050, 418.5781
1153.139, 7.074219
1154.229, 16.63672
1155.318, 78.72656
1156.407, 62.09570
1157.496, 166.4766
1158.585, 36.86523
1159.674, 71.27148
1160.762, 104.6855
1161.850, 126.8965
1162.939, 114.8496
1164.027, 149.4863
1165.114, 34.82617
1166.202, 302.8555
1167.290, 0.6660160
1168.377, 83.47461
1169.464, 47.20703
1170.551, 25.97070
1171.638, 32.17969
1172.725, 39.53516
1173.812, 37.39453
1174.898, 26.49805
1175.984, 62.07617
1177.071, 18.98047
1178.157, 24.10938
1179.242, 29.20117
1180.328, 54.71094
1181.414, 44.35352
1182.499, 36.58203
1183.584, 13.46289
1184.669, 13.49805
1185.754, 107.4668
1186.839, 6.494141
1187.924, 53.53516
1189.008, 81.60742
1190.092, 129.7285
1191.177, 83.92383
1192.260, 11.82617
1193.344, 115.5684
1194.428, 27.60156
1195.512, 219.8906
1196.595, 120.2324
1197.678, 221.7344
1198.761, 55.22070
1199.844, 253.0977
1200.927, 65.82812
1202.009, 134.3320
1203.092, 46.89258
1204.174, 86.64453
1205.256, 5.533203
1206.338, 142.3125
1207.420, 172.2266
1208.502, 26.71875
1209.583, 26.34961
1210.665, 90.44531
1211.746, 121.8418
1212.827, 34.63477
1213.908, 21.59375
1214.988, 135.7773
1216.069, 18.61719
1217.149, 24.80664
1218.230, 49.53320
1219.310, 15.93555
1220.390, 13.60352
1221.470, 102.2305
1222.549, 49.71289
1223.629, 42.16992
1224.708, 59.59570
1225.787, 123.0449
1226.866, 104.9844
1227.945, 98.34570
1229.024, 169.6875
1230.103, 124.0078
1231.181, 22.69531
1232.259, 271.6523
1233.337, 4.859375
1234.415, 110.8379
1235.493, 301.1914
1236.571, 104.1953
1237.648, 235.1758
1238.726, 243.1270
1239.803, 95.05273
1240.880, 81.55469
1241.957, 22.70508
1243.034, 18.66016
1244.110, 134.2559
1245.187, 65.08203
1246.263, 235.7578
1247.339, 262.6250
1248.415, 279.2422
1249.491, 112.8340
1250.566, 107.3887
1251.642, 204.9121
1252.717, 233.4043
1253.793, 187.8672
1254.868, 228.3008
1255.943, 66.70312
1257.017, 230.0586
1258.092, 77.38281
1259.166, 247.6621
1260.241, 138.9062
1261.315, 317.1191
1262.389, 250.3789
1263.462, 236.5273
1264.536, 269.6445
1265.610, 185.7324
1266.683, 299.7852
1267.756, 264.8398
1268.829, 87.83008
1269.902, 347.7695
1270.975, 245.6758
1272.048, 316.6875
1273.120, 353.6523
1274.192, 303.6016
1275.264, 281.5820
1276.336, 269.3242
1277.408, 219.0391
1278.480, 202.7871
1279.551, 191.4336
1280.623, 189.1270
1281.694, 276.7051
1282.765, 205.2012
1283.836, 299.4727
1284.907, 257.9492
1285.977, 282.6016
1287.048, 338.0078
1288.118, 367.8164
1289.188, 434.1543
1290.258, 268.4551
1291.328, 157.3457
1292.398, 337.9297
1293.467, 264.3574
