##NAMES=Riebeckite
##RRUFFID=R050082
##IDEAL CHEMISTRY=[box]Na_2_(Fe^2+^_3_Fe^3+^_2_)Si_8_O_22_(OH)_2_
##LOCALITY=Mt. Malosa, Zomba, Chilwa, Alkaline Area, Malawi
##OWNER=RRUFF
##SOURCE=Rock Currier
##DESCRIPTION=Black elongated prisms
##STATUS=The identification of this mineral has been confirmed by X-ray diffraction and chemical analysis
##URL=rruff.info/R050082
##MEASURED CHEMISTRY=([box]_0.63_Na_0.19_K_0.18_)(Na_1.58_Ca_0.42_)_Σ=2_Fe^2+^_3.00_(Fe^3+^_1.30_Fe^2+^_0.45_Mn_0.15_Mg_0.05_Ti_0.05_)_Σ=2_(Si_0.98_Al_0.02_)_8_O_22_(OH)_2_
##PIN_ID=L00416
##ORIENTATION=Laser parallel to (-1 0 -1). Fiducial mark perpendicular to laser is parallel to b [0 1 0]
127.5960, 0.0000000E+00
128.8330, 853.7656
130.0700, 1492.188
131.3060, 1904.297
132.5420, 1741.023
133.7780, 2301.422
135.0140, 3371.504
136.2500, 4600.320
137.4850, 6471.047
138.7200, 7517.941
139.9550, 7636.121
141.1900, 5343.465
142.4250, 3390.656
143.6600, 2440.453
144.8940, 1491.230
146.1280, 1087.566
147.3620, 709.8789
148.5960, 79.00000
149.8300, 216.2617
151.0630, 517.0703
152.2960, 547.2383
153.5300, 403.6836
154.7620, 814.0039
155.9950, 448.8828
157.2280, 160.2734
158.4600, 1282.301
159.6920, 1466.633
160.9250, 2068.223
162.1560, 2618.508
163.3880, 2993.633
164.6200, 3466.547
165.8510, 3964.574
167.0820, 4064.633
168.3130, 3916.078
169.5440, 4212.516
170.7750, 4221.688
172.0050, 4401.594
173.2350, 3452.457
174.4650, 3392.461
175.6950, 3632.773
176.9250, 3769.535
178.1550, 3967.770
179.3840, 4336.922
180.6130, 4587.770
181.8420, 5042.504
183.0710, 5605.211
184.3000, 6527.945
185.5280, 7786.777
186.7570, 8796.426
187.9850, 10249.02
189.2130, 11108.91
190.4400, 12765.48
191.6680, 13922.44
192.8960, 14228.36
194.1230, 14694.74
195.3500, 14604.25
196.5770, 14134.55
197.8030, 13732.12
199.0300, 12904.30
200.2560, 12758.06
201.4830, 12796.68
202.7090, 12051.23
203.9340, 9880.520
205.1600, 6566.414
206.3860, 4444.340
207.6110, 3235.766
208.8360, 2693.066
210.0610, 2273.168
211.2860, 3239.438
212.5100, 2552.570
213.7350, 2293.012
214.9590, 2395.762
216.1830, 1959.805
217.4070, 1507.129
218.6310, 1721.707
219.8540, 1766.520
221.0780, 1875.555
222.3010, 1768.793
223.5240, 1941.223
224.7470, 1854.828
225.9690, 1980.605
227.1920, 2028.543
228.4140, 1882.637
229.6360, 1725.879
230.8580, 1862.254
232.0800, 1771.742
233.3020, 1781.316
234.5230, 1540.930
235.7440, 1427.570
236.9650, 1509.234
238.1860, 1009.906
239.4070, 780.5859
240.6280, 721.2695
241.8480, 506.9414
243.0680, 345.6016
244.2880, 57.25000
245.5080, 165.1133
246.7280, 241.4883
247.9470, 459.8711
249.1660, 275.2617
250.3860, 445.6641
251.6040, 282.0742
252.8230, 315.4922
254.0420, 594.9180
255.2600, 315.3516
256.4790, 452.8242
257.6970, 226.6719
258.9150, 81.64062
260.1320, 13.52344
261.3500, 252.4688
262.5670, 96.06250
263.7840, 98.84766
265.0010, 108.7617
266.2180, 21.86328
267.4350, 59.39844
268.6510, 8.675781
269.8680, 74.76172
271.0840, 198.2227
272.3000, 64.23828
273.5160, 62.41406
274.7310, 11.71875
275.9470, 25.56250
277.1620, 243.7188
278.3770, 3.398438
279.5920, 64.08594
280.8070, 64.58203
282.0210, 192.5312
283.2360, 76.98828
284.4500, 214.1758
285.6640, 28.30078
286.8780, 295.2109
288.0920, 55.96094
289.3050, 56.26953
290.5180, 72.66797
291.7320, 319.1133
292.9450, 81.59375
294.1570, 62.06641
295.3700, 650.5000
296.5830, 406.4141
297.7950, 527.7617
299.0070, 1400.047
300.2190, 2078.273
301.4310, 804.4258
302.6420, 1008.512
303.8540, 853.5156
305.0650, 1008.395
306.2760, 1753.117
307.4870, 2096.648
308.6980, 1913.980
309.9080, 1669.133
311.1190, 1988.156
312.3290, 2112.027
313.5390, 2397.828
314.7490, 2449.488
315.9580, 2629.027
317.1680, 2744.434
318.3770, 2768.715
319.5860, 2927.977
320.7950, 2964.160
322.0040, 3064.324
323.2130, 2813.477
324.4210, 2620.586
325.6290, 2710.699
326.8380, 2662.766
328.0460, 2507.781
329.2530, 2490.785
330.4610, 2521.727
331.6680, 2457.605
332.8760, 2107.152
334.0830, 2468.027
335.2890, 1881.293
336.4960, 1814.008
337.7030, 2039.996
338.9090, 1944.414
340.1150, 1837.629
341.3210, 1805.871
342.5270, 2081.105
343.7330, 1811.629
344.9380, 1942.074
346.1440, 1978.977
347.3490, 1716.332
348.5540, 2100.363
349.7590, 2030.320
350.9630, 2161.199
352.1680, 2492.836
353.3720, 2161.211
354.5760, 2317.523
355.7800, 2375.828
356.9840, 2975.070
358.1870, 3714.324
359.3910, 2938.590
360.5940, 3379.863
361.7970, 3296.145
363.0000, 2732.430
364.2030, 2918.723
365.4050, 3203.016
366.6080, 3614.316
367.8100, 3593.809
369.0120, 3731.914
370.2140, 3763.211
371.4150, 3619.512
372.6170, 3964.809
373.8180, 3685.102
375.0190, 3735.391
376.2200, 3827.676
377.4210, 3970.953
378.6220, 3995.234
379.8220, 4010.500
381.0230, 4070.766
382.2230, 4026.262
383.4230, 4053.273
384.6220, 3809.520
385.8220, 3809.758
387.0220, 3404.988
388.2210, 3378.215
389.4200, 3346.762
390.6190, 3382.680
391.8180, 2940.836
393.0160, 2951.328
394.2150, 2917.434
395.4130, 2202.883
396.6110, 1937.637
397.8090, 1931.332
399.0060, 1557.668
400.2040, 1488.699
401.4010, 1330.504
402.5980, 1144.934
403.7950, 1109.508
404.9920, 745.4062
406.1890, 635.3711
407.3860, 873.2266
408.5820, 1144.008
409.7780, 826.2812
410.9740, 750.8594
412.1700, 861.5664
413.3650, 1201.629
414.5610, 1076.312
415.7560, 1475.699
416.9510, 1463.652
418.1460, 1691.879
419.3410, 2125.359
420.5360, 2110.109
421.7300, 2459.500
422.9240, 2853.707
424.1180, 3000.070
425.3120, 3247.711
426.5060, 3570.035
427.7000, 3448.539
428.8930, 3476.246
430.0860, 3402.422
431.2790, 3064.664
432.4720, 3174.391
433.6650, 2884.941
434.8580, 2575.043
436.0500, 2433.164
437.2420, 2259.254
438.4340, 2052.285
439.6260, 1874.320
440.8180, 1943.336
442.0090, 1963.328
443.2010, 1845.297
444.3920, 1377.238
445.5830, 1542.148
446.7740, 1092.035
447.9640, 987.9375
449.1550, 1384.141
450.3450, 1389.551
451.5350, 1392.805
452.7250, 1445.938
453.9150, 1424.426
455.1050, 1469.766
456.2940, 1414.051
457.4830, 1401.922
458.6720, 1397.512
459.8610, 1517.570
461.0500, 1603.738
462.2390, 1529.172
463.4270, 1487.234
464.6150, 1352.902
465.8040, 1403.477
466.9910, 1364.641
468.1790, 1407.078
469.3670, 1340.754
470.5540, 1212.652
471.7410, 1589.758
472.9280, 1507.062
474.1150, 1467.801
475.3020, 1634.355
476.4890, 1455.980
477.6750, 1551.977
478.8610, 1533.027
480.0470, 1777.988
481.2330, 1837.605
482.4190, 2059.535
483.6040, 2270.195
484.7900, 2550.234
485.9750, 2860.469
487.1600, 2889.477
488.3450, 3124.574
489.5290, 3045.445
490.7140, 3404.406
491.8980, 3428.016
493.0820, 3594.289
494.2660, 3727.211
495.4500, 4280.117
496.6340, 4445.008
497.8170, 4446.895
499.0010, 4768.766
500.1840, 4753.625
501.3670, 4979.473
502.5500, 4792.305
503.7320, 5068.129
504.9150, 5084.938
506.0970, 5004.738
507.2790, 5104.523
508.4610, 5430.297
509.6430, 5555.051
510.8250, 5656.762
512.0060, 5814.523
513.1870, 5873.242
514.3680, 5688.941
515.5490, 5920.629
516.7300, 5782.305
517.9110, 6171.961
519.0910, 6321.605
520.2710, 6367.234
521.4510, 6583.922
522.6310, 6783.715
523.8110, 6902.047
524.9910, 7284.621
526.1700, 7691.184
527.3490, 7965.730
528.5280, 8145.270
529.7070, 8196.797
530.8860, 8764.305
532.0650, 8771.820
533.2430, 8977.398
534.4210, 9315.059
535.5990, 9555.945
536.7770, 11238.95
537.9550, 9744.102
539.1320, 9292.453
540.3100, 10428.99
541.4870, 9483.703
542.6640, 9264.547
543.8410, 9114.570
545.0170, 8547.715
546.1940, 8698.945
547.3700, 8632.277
548.5470, 8471.727
549.7230, 8576.262
550.8980, 8229.922
552.0740, 8324.680
553.2500, 8397.492
554.4250, 8254.355
555.6000, 8104.254
556.7750, 8309.324
557.9500, 8306.180
559.1250, 8665.277
560.2990, 8641.488
561.4730, 8816.773
562.6480, 9093.055
563.8220, 9154.363
564.9950, 9243.711
566.1690, 9234.055
567.3430, 9019.426
568.5160, 9048.781
569.6890, 8644.156
570.8620, 7977.594
572.0350, 8896.051
573.2070, 6590.652
574.3800, 6186.250
575.5520, 4728.844
576.7240, 5864.422
577.8960, 4324.977
579.0680, 3266.520
580.2400, 3011.055
581.4110, 2311.570
582.5830, 1850.051
583.7540, 1467.508
584.9250, 1173.934
586.0950, 674.3320
587.2660, 689.7070
588.4370, 350.0469
589.6070, 124.3594
590.7770, 223.6289
591.9470, 121.8633
593.1170, 60.05469
594.2860, 173.8047
595.4560, 63.83203
596.6250, 353.9727
597.7940, 123.3711
598.9630, 101.9180
600.1320, 60.59766
601.3000, 61.38672
602.4690, 383.2891
603.6370, 169.4766
604.8050, 321.8359
605.9730, 383.4453
607.1410, 169.3438
608.3090, 364.4102
609.4760, 144.7578
610.6430, 116.2656
611.8100, 230.9219
612.9770, 42.78516
614.1440, 1.757813
615.3110, 171.1797
616.4770, 44.07812
617.6430, 133.0977
618.8090, 6.429688
619.9750, 131.1484
621.1410, 281.6758
622.3070, 229.1641
623.4720, 263.6094
624.6370, 608.0234
625.8020, 355.3984
626.9670, 572.7383
628.1320, 909.0469
629.2970, 996.3203
630.4610, 1187.047
631.6250, 1304.770
632.7890, 1334.938
633.9530, 1450.078
635.1170, 1327.184
636.2810, 2101.250
637.4440, 1804.285
638.6070, 2200.539
639.7700, 2597.258
640.9330, 2777.188
642.0960, 3018.090
643.2590, 3464.953
644.4210, 3405.781
645.5830, 4387.578
646.7450, 4557.336
647.9070, 5147.059
649.0690, 6252.742
650.2310, 6935.398
651.3920, 7694.016
652.5530, 8632.598
653.7140, 9830.145
654.8750, 11460.66
656.0360, 12546.12
657.1970, 14556.56
658.3570, 16158.90
659.5170, 17742.34
660.6770, 19533.67
661.8370, 21085.96
662.9970, 22147.71
664.1570, 22867.93
665.3160, 23309.12
666.4750, 23228.27
667.6340, 22405.41
668.7930, 20932.58
669.9520, 19481.37
671.1110, 17796.60
672.2690, 15496.58
673.4270, 13973.50
674.5850, 12154.77
675.7430, 10289.61
676.9010, 9261.863
678.0590, 8431.469
679.2160, 7041.016
680.3730, 6438.574
681.5300, 5930.770
682.6870, 5340.637
683.8440, 4812.906
685.0010, 4614.926
686.1570, 4351.012
687.3130, 3892.164
688.4690, 3839.504
689.6250, 3744.180
690.7810, 3712.199
691.9370, 3402.762
693.0920, 3355.348
694.2470, 3375.707
695.4020, 3361.691
696.5570, 3419.121
697.7120, 3125.824
698.8670, 3497.035
700.0210, 3078.723
701.1750, 3445.402
702.3290, 3219.242
703.4830, 2967.941
704.6370, 3249.812
705.7910, 3504.863
706.9440, 3233.258
708.0970, 3350.551
709.2510, 3548.773
710.4030, 3270.941
711.5560, 3629.016
712.7090, 3308.043
713.8610, 3591.004
715.0140, 3558.902
716.1660, 3529.727
717.3180, 3769.488
718.4690, 3543.184
719.6210, 3568.410
720.7730, 3366.371
721.9240, 3425.863
723.0750, 3436.297
724.2260, 3430.656
725.3770, 3489.957
726.5270, 3094.188
727.6780, 2833.301
728.8280, 2986.031
729.9780, 2723.465
731.1280, 2814.961
732.2780, 2736.840
733.4280, 2527.234
734.5770, 2558.719
735.7260, 2348.840
736.8760, 2172.277
738.0250, 2145.914
739.1730, 2057.004
740.3220, 2139.898
741.4700, 1738.453
742.6190, 1912.293
743.7670, 1857.961
744.9150, 1771.422
746.0630, 1999.109
747.2100, 1627.258
748.3580, 1780.094
749.5050, 1438.621
750.6520, 1461.867
751.7990, 1255.840
752.9460, 1167.301
754.0930, 1151.875
755.2390, 1151.301
756.3860, 1091.281
757.5320, 1141.086
758.6780, 1169.020
759.8240, 1142.211
760.9690, 1585.008
762.1150, 1413.023
763.2600, 1366.605
764.4060, 1227.930
765.5510, 1008.434
766.6950, 1144.902
767.8400, 994.3320
768.9850, 930.7266
770.1290, 1009.090
771.2730, 917.4102
772.4170, 873.6992
773.5610, 953.9492
774.7050, 1104.168
775.8480, 852.3555
776.9920, 666.5078
778.1350, 899.6250
779.2780, 560.7109
780.4210, 735.7617
781.5640, 627.7812
782.7060, 547.7734
783.8490, 755.7266
784.9910, 544.6523
786.1330, 301.5469
787.2750, 643.4180
788.4170, 535.2500
789.5580, 571.0547
790.7000, 575.8281
791.8410, 300.5820
792.9820, 548.3047
794.1230, 124.0000
795.2640, 194.6641
796.4040, 449.3086
797.5450, 230.9219
798.6850, 214.5117
799.8250, 35.07422
800.9650, 228.5938
802.1050, 182.0898
803.2450, 185.5586
804.3840, 36.01172
805.5230, 63.03516
806.6630, 126.7969
807.8020, 66.16016
808.9400, 133.4961
810.0790, 190.8086
811.2170, 285.8945
812.3560, 26.79688
813.4940, 51.76172
814.6320, 346.8008
815.7700, 253.0703
816.9070, 19.48828
818.0450, 77.98828
819.1820, 139.5508
820.3190, 117.2227
821.4560, 179.9883
822.5930, 279.8867
823.7300, 108.9727
824.8670, 147.1367
826.0030, 299.4141
827.1390, 212.8789
828.2750, 129.4805
829.4110, 229.1680
830.5470, 84.00000
831.6820, 27.10156
832.8180, 301.8047
833.9530, 150.8867
835.0880, 354.0625
836.2230, 238.4336
837.3580, 104.0664
838.4920, 201.4375
839.6270, 120.0508
840.7610, 28.73438
841.8950, 36.43359
843.0290, 11.83984
844.1630, 75.11328
845.2960, 33.37891
846.4300, 24.64844
847.5630, 272.0820
848.6960, 289.0586
849.8290, 433.1992
850.9620, 351.3516
852.0940, 829.5039
853.2270, 508.6562
854.3590, 216.8164
855.4910, 301.9844
856.6230, 419.1523
857.7550, 316.3359
858.8870, 686.5195
860.0180, 436.7148
861.1500, 470.9219
862.2810, 785.1367
863.4120, 1339.363
864.5430, 960.5977
865.6730, 885.8633
866.8040, 1255.137
867.9340, 1186.434
869.0640, 1339.758
870.1940, 1005.164
871.3240, 1187.629
872.4540, 1288.227
873.5830, 1460.898
874.7130, 1493.641
875.8420, 1388.441
876.9710, 1470.305
878.1000, 1560.312
879.2290, 1374.410
880.3570, 1643.641
881.4860, 1457.023
882.6140, 1548.500
883.7420, 1880.121
884.8700, 1786.832
885.9980, 1650.629
887.1250, 2251.539
888.2530, 1622.512
889.3800, 1495.543
890.5070, 1649.605
891.6340, 1528.215
892.7610, 1894.910
893.8880, 1776.172
895.0140, 1725.473
896.1400, 1717.805
897.2670, 1658.176
898.3930, 1644.055
899.5180, 1756.035
900.6440, 1579.523
901.7700, 1539.039
902.8950, 1451.594
904.0200, 1616.184
905.1450, 1810.805
906.2700, 1670.469
907.3950, 1554.164
908.5190, 1790.902
909.6440, 1536.672
910.7680, 1754.508
911.8920, 2093.387
913.0160, 1868.301
914.1400, 1853.262
915.2630, 2027.699
916.3870, 2031.180
917.5100, 2102.562
918.6330, 2346.758
919.7560, 2064.008
920.8790, 2236.305
922.0010, 1938.645
923.1240, 2155.031
924.2460, 2399.457
925.3680, 2180.750
926.4900, 2222.633
927.6120, 2184.320
928.7340, 2151.094
929.8550, 2229.875
930.9760, 2237.766
932.0980, 2204.703
933.2190, 2367.754
934.3390, 1995.770
935.4600, 2342.395
936.5810, 2405.562
937.7010, 2161.820
938.8210, 2266.188
939.9410, 2206.660
941.0610, 2439.156
942.1810, 2480.562
943.3010, 2738.520
944.4200, 2607.301
945.5390, 2790.145
946.6580, 2650.691
947.7770, 2610.668
948.8960, 2977.258
950.0150, 2980.512
951.1330, 3196.852
952.2510, 3061.184
953.3690, 3434.910
954.4870, 3604.969
955.6050, 3452.641
956.7230, 3421.621
957.8400, 3670.543
958.9580, 3657.418
960.0750, 3811.125
961.1920, 4061.504
962.3090, 4089.566
963.4250, 4148.129
964.5420, 4131.652
965.6580, 4124.477
966.7740, 4314.746
967.8900, 4335.633
969.0060, 4397.309
970.1220, 4324.539
971.2380, 4109.297
972.3530, 4453.090
973.4680, 4090.738
974.5830, 4315.539
975.6980, 4019.195
976.8130, 4023.688
977.9280, 4095.855
979.0420, 4138.141
980.1560, 4322.512
981.2710, 4542.969
982.3850, 4581.520
983.4980, 4446.141
984.6120, 4265.852
985.7260, 4548.645
986.8390, 4230.523
987.9520, 4481.484
989.0650, 4439.535
990.1780, 4515.676
991.2910, 4484.895
992.4030, 4574.219
993.5160, 4686.652
994.6280, 4658.203
995.7400, 4783.836
996.8520, 4444.840
997.9640, 4767.496
999.0750, 5009.016
1000.187, 5173.984
1001.298, 5032.285
1002.409, 5286.629
1003.520, 5382.375
1004.631, 5471.699
1005.741, 5781.898
1006.852, 5685.238
1007.962, 5626.797
1009.072, 5718.508
1010.182, 5726.297
1011.292, 5726.180
1012.402, 5598.176
1013.511, 6011.277
1014.621, 5802.465
1015.730, 6446.738
1016.839, 6448.098
1017.948, 6739.555
1019.056, 6562.105
1020.165, 6719.746
1021.273, 6547.484
1022.382, 6959.305
1023.490, 7083.203
1024.598, 7274.184
1025.706, 7638.250
1026.813, 7723.406
1027.921, 8190.652
1029.028, 8151.230
1030.135, 8889.664
1031.242, 8885.676
1032.349, 9280.461
1033.456, 9442.145
1034.562, 9688.914
1035.668, 9828.844
1036.775, 10344.70
1037.881, 10163.71
1038.987, 9899.805
1040.092, 10362.97
1041.198, 9886.227
1042.303, 10021.56
1043.408, 10460.39
1044.514, 10008.89
1045.618, 10448.46
1046.723, 10283.50
1047.828, 9785.352
1048.932, 9695.164
1050.037, 9581.055
1051.141, 9714.820
1052.245, 9400.637
1053.349, 9310.758
1054.452, 9139.988
1055.556, 9254.270
1056.659, 9287.629
1057.762, 9172.312
1058.865, 9422.328
1059.968, 9149.547
1061.071, 9152.883
1062.174, 8637.754
1063.276, 8826.504
1064.378, 8766.848
1065.480, 8649.668
1066.582, 8877.148
1067.684, 8552.297
1068.786, 8429.535
1069.887, 8199.336
1070.988, 8263.875
1072.090, 8017.156
1073.191, 8304.516
1074.291, 7856.297
1075.392, 8072.973
1076.493, 7811.793
1077.593, 7836.250
1078.693, 7663.602
1079.793, 7547.512
1080.893, 7117.629
1081.993, 7215.836
1083.092, 6745.238
1084.192, 6369.770
1085.291, 6614.094
1086.390, 6174.812
1087.489, 5964.652
1088.588, 5895.797
1089.686, 5479.859
1090.785, 5305.066
1091.883, 5410.398
1092.981, 5257.836
1094.079, 5217.977
1095.177, 5066.285
1096.275, 5079.434
1097.373, 4951.320
1098.470, 4859.172
1099.567, 4806.250
1100.664, 4590.441
1101.761, 4416.438
1102.858, 4546.910
1103.954, 4327.496
1105.051, 4322.270
1106.147, 4479.242
1107.243, 4174.062
1108.339, 4261.938
1109.435, 4094.879
1110.531, 3936.871
1111.626, 3969.902
1112.722, 4045.992
1113.817, 3910.117
1114.912, 3807.355
1116.007, 3604.645
1117.101, 3431.977
1118.196, 3277.352
1119.290, 3087.773
1120.385, 3247.238
1121.479, 3203.742
1122.573, 3055.293
1123.666, 2669.793
1124.760, 2702.930
1125.853, 2696.418
1126.947, 2534.129
1128.040, 2646.102
1129.133, 2368.855
1130.226, 2268.711
1131.318, 1899.570
1132.411, 1661.465
1133.503, 1453.398
1134.596, 1735.367
1135.688, 1510.367
1136.780, 1487.398
1137.871, 1199.141
1138.963, 1263.801
1140.054, 1007.930
1141.146, 711.0938
1142.237, 875.8203
1143.328, 1096.031
1144.419, 540.8594
1145.509, 710.1367
1146.600, 701.9648
1147.690, 234.2969
1148.780, 576.7383
1149.870, 238.2383
1150.960, 535.7969
1152.050, 252.9297
1153.139, 251.3828
1154.229, 134.8633
1155.318, 354.3633
1156.407, 440.0898
1157.496, 379.0977
1158.585, 125.3164
1159.674, 16.91406
1160.762, 22.68359
1161.850, 78.52344
1162.939, 65.90625
1164.027, 148.7109
1165.114, 85.79297
1166.202, 127.6797
1167.290, 245.3438
1168.377, 71.02734
1169.464, 150.7188
1170.551, 33.48828
1171.638, 32.16016
1172.725, 44.89062
1173.812, 182.3047
1174.898, 323.4219
1175.984, 340.1289
1177.071, 21.28906
1178.157, 294.5742
1179.242, 26.03516
1180.328, 124.6523
1181.414, 90.72266
1182.499, 88.12109
1183.584, 147.5156
1184.669, 6.078125
1185.754, 32.66406
1186.839, 142.2539
1187.924, 336.9609
1189.008, 133.5508
1190.092, 94.33203
1191.177, 110.1719
1192.260, 3.144531
1193.344, 182.5391
1194.428, 52.69141
1195.512, 96.01953
1196.595, 153.7500
1197.678, 29.41797
1198.761, 22.87891
1199.844, 126.9688
1200.927, 266.8633
1202.009, 306.6250
1203.092, 159.8242
1204.174, 39.10156
1205.256, 83.77344
1206.338, 52.54297
1207.420, 42.89844
1208.502, 72.29297
1209.583, 70.26562
1210.665, 21.81250
1211.746, 225.4258
1212.827, 2.523438
1213.908, 321.1211
1214.988, 7.164063
1216.069, 124.6406
1217.149, 159.7812
1218.230, 115.1211
1219.310, 311.2266
1220.390, 106.5625
1221.470, 183.7422
1222.549, 212.3242
1223.629, 17.39453
1224.708, 40.83203
1225.787, 2.886719
1226.866, 78.50391
1227.945, 189.0156
1229.024, 95.14844
1230.103, 165.3242
1231.181, 62.80469
1232.259, 201.7969
1233.337, 216.3711
1234.415, 30.91797
1235.493, 398.4258
1236.571, 155.9102
1237.648, 133.3633
1238.726, 300.7930
1239.803, 230.1914
1240.880, 308.5547
1241.957, 290.8945
1243.034, 209.2070
1244.110, 312.4844
1245.187, 284.7305
1246.263, 282.9297
1247.339, 313.1367
1248.415, 346.2852
1249.491, 161.4102
1250.566, 321.7852
1251.642, 212.8828
1252.717, 36.90625
1253.793, 27.25781
1254.868, 41.84766
1255.943, 144.9414
1257.017, 38.69531
1258.092, 402.3867
1259.166, 239.0391
1260.241, 583.6562
1261.315, 507.3828
1262.389, 307.7930
1263.462, 440.3008
1264.536, 326.7773
1265.610, 371.2148
1266.683, 132.6211
1267.756, 140.9766
1268.829, 243.2930
1269.902, 359.5625
1270.975, 150.7969
1272.048, 10.98438
1273.120, 38.08203
1274.192, 321.0977
1275.264, 163.0742
1276.336, 316.0273
1277.408, 54.94141
1278.480, 106.7812
1279.551, 200.5586
1280.623, 68.29297
1281.694, 414.9492
1282.765, 349.5664
1283.836, 257.1406
1284.907, 210.6758
1285.977, 144.1641
1287.048, 138.5977
1288.118, 26.96875
1289.188, 502.0273
1290.258, 164.2656
1291.328, 536.9531
1292.398, 594.9102
1293.467, 210.1484
1294.537, 229.1992
1295.606, 386.2031
1296.675, 288.3594
