##NAMES=Riebeckite
##RRUFFID=R050082
##IDEAL CHEMISTRY=[box]Na_2_(Fe^2+^_3_Fe^3+^_2_)Si_8_O_22_(OH)_2_
##LOCALITY=Mt. Malosa, Zomba, Chilwa, Alkaline Area, Malawi
##OWNER=RRUFF
##SOURCE=Rock Currier
##DESCRIPTION=Black elongated prisms
##STATUS=The identification of this mineral has been confirmed by X-ray diffraction and chemical analysis
##URL=rruff.info/R050082
##MEASURED CHEMISTRY=([box]_0.63_Na_0.19_K_0.18_)(Na_1.58_Ca_0.42_)_Σ=2_Fe^2+^_3.00_(Fe^3+^_1.30_Fe^2+^_0.45_Mn_0.15_Mg_0.05_Ti_0.05_)_Σ=2_(Si_0.98_Al_0.02_)_8_O_22_(OH)_2_
##PIN_ID=L00462
##ORIENTATION=Laser parallel to c* (0 0 1). Fiducial mark perpendicular to laser is parallel to a [1 0 0]
105.3050, 0.0000000E+00
106.5450, 9.630859
107.7850, 540.2266
109.0250, 84.18750
110.2640, 687.3652
111.5030, 1034.783
112.7420, 1166.730
113.9810, 1191.619
115.2200, 321.9102
116.4580, 500.6172
117.6970, 1384.734
118.9350, 3629.326
120.1730, 2403.992
121.4100, 1766.947
122.6480, 1937.699
123.8850, 1633.992
125.1230, 1759.795
126.3600, 2589.252
127.5960, 4827.607
128.8330, 6586.180
130.0700, 8357.352
131.3060, 10421.57
132.5420, 12173.34
133.7780, 13293.24
135.0140, 15009.88
136.2500, 17313.89
137.4850, 18288.98
138.7200, 19957.87
139.9550, 20948.30
141.1900, 21039.05
142.4250, 18860.99
143.6600, 17066.06
144.8940, 16156.14
146.1280, 15104.12
147.3620, 12850.85
148.5960, 11541.11
149.8300, 11255.70
151.0630, 11621.46
152.2960, 10711.23
153.5300, 9626.891
154.7620, 9807.322
155.9950, 9298.422
157.2280, 9940.105
158.4600, 9123.285
159.6920, 9790.889
160.9250, 10405.85
162.1560, 9909.098
163.3880, 11147.58
164.6200, 11443.24
165.8510, 11252.02
167.0820, 11965.88
168.3130, 11731.76
169.5440, 10555.64
170.7750, 10075.46
172.0050, 9721.191
173.2350, 10413.79
174.4650, 10763.23
175.6950, 10545.54
176.9250, 10321.84
178.1550, 9873.488
179.3840, 9571.412
180.6130, 10165.63
181.8420, 10119.31
183.0710, 10186.44
184.3000, 10895.07
185.5280, 11838.68
186.7570, 13463.40
187.9850, 13565.54
189.2130, 13844.70
190.4400, 13650.88
191.6680, 13660.12
192.8960, 14961.46
194.1230, 15642.90
195.3500, 16640.49
196.5770, 16807.23
197.8030, 17517.13
199.0300, 17669.22
200.2560, 17993.50
201.4830, 19073.98
202.7090, 18816.31
203.9340, 19519.55
205.1600, 19066.65
206.3860, 19601.96
207.6110, 20282.53
208.8360, 21301.33
210.0610, 22094.36
211.2860, 21966.64
212.5100, 22717.14
213.7350, 22671.88
214.9590, 22006.84
216.1830, 22415.02
217.4070, 21924.43
218.6310, 21345.06
219.8540, 21252.90
221.0780, 21370.96
222.3010, 20699.21
223.5240, 20551.13
224.7470, 20112.31
225.9690, 19703.14
227.1920, 18850.16
228.4140, 18302.36
229.6360, 17455.73
230.8580, 17068.28
232.0800, 16884.98
233.3020, 16672.85
234.5230, 15661.88
235.7440, 14338.05
236.9650, 13045.38
238.1860, 13102.84
239.4070, 12435.45
240.6280, 12169.18
241.8480, 10996.05
243.0680, 9436.035
244.2880, 8479.148
245.5080, 7864.520
246.7280, 7159.314
247.9470, 6373.777
249.1660, 5979.094
250.3860, 5464.730
251.6040, 4986.615
252.8230, 4876.980
254.0420, 4349.730
255.2600, 4309.758
256.4790, 4629.781
257.6970, 5563.176
258.9150, 6487.930
260.1320, 5704.217
261.3500, 4690.045
262.5670, 4277.357
263.7840, 4634.189
265.0010, 4655.195
266.2180, 4825.883
267.4350, 4464.258
268.6510, 4618.822
269.8680, 4325.490
271.0840, 4236.385
272.3000, 3690.434
273.5160, 3927.105
274.7310, 3989.365
275.9470, 3708.176
277.1620, 2839.506
278.3770, 2915.328
279.5920, 2781.611
280.8070, 2650.334
282.0210, 2692.473
283.2360, 2436.008
284.4500, 2021.914
285.6640, 2054.182
286.8780, 1913.785
288.0920, 2102.713
289.3050, 1951.949
290.5180, 2159.475
291.7320, 2148.277
292.9450, 1754.346
294.1570, 1698.662
295.3700, 1724.215
296.5830, 2233.994
297.7950, 2160.988
299.0070, 2238.191
300.2190, 2450.588
301.4310, 2381.176
302.6420, 2419.943
303.8540, 2427.066
305.0650, 2375.199
306.2760, 2488.527
307.4870, 2519.037
308.6980, 3005.520
309.9080, 3136.414
311.1190, 2894.533
312.3290, 2717.844
313.5390, 2730.594
314.7490, 3258.312
315.9580, 2536.184
317.1680, 2931.279
318.3770, 2688.570
319.5860, 2709.988
320.7950, 2596.559
322.0040, 2447.082
323.2130, 1568.111
324.4210, 1991.041
325.6290, 2049.076
326.8380, 1430.174
328.0460, 1954.324
329.2530, 1531.514
330.4610, 791.7422
331.6680, 1226.004
332.8760, 942.2871
334.0830, 1163.594
335.2890, 1094.922
336.4960, 967.2695
337.7030, 987.6387
338.9090, 940.0273
340.1150, 839.4355
341.3210, 995.8555
342.5270, 887.2949
343.7330, 1044.746
344.9380, 1400.211
346.1440, 1550.686
347.3490, 1381.170
348.5540, 1429.664
349.7590, 2156.162
350.9630, 2853.668
352.1680, 2739.176
353.3720, 2921.477
354.5760, 2129.195
355.7800, 2446.703
356.9840, 2440.205
358.1870, 2028.701
359.3910, 2209.193
360.5940, 2306.678
361.7970, 2217.150
363.0000, 1825.609
364.2030, 1824.057
365.4050, 1958.488
366.6080, 1690.904
367.8100, 1712.301
369.0120, 1950.680
370.2140, 1508.035
371.4150, 1208.371
372.6170, 1169.680
373.8180, 1427.965
375.0190, 1080.223
376.2200, 1101.453
377.4210, 787.6543
378.6220, 405.8242
379.8220, 606.9609
381.0230, 752.0664
382.2230, 115.1348
383.4230, 92.82812
384.6220, 75.50391
385.8220, 170.0391
387.0220, 37.10156
388.2210, 156.7012
389.4200, 282.4590
390.6190, 208.8555
391.8180, 277.3086
393.0160, 249.9082
394.2150, 314.6914
395.4130, 635.7812
396.6110, 657.3730
397.8090, 821.2969
399.0060, 745.5820
400.2040, 787.2402
401.4010, 758.2930
402.5980, 727.7461
403.7950, 801.5820
404.9920, 750.8516
406.1890, 701.5371
407.3860, 517.6230
408.5820, 651.9492
409.7780, 435.6641
410.9740, 507.6621
412.1700, 62.98633
413.3650, 360.5898
414.5610, 100.1641
415.7560, 497.7070
416.9510, 496.2441
418.1460, 806.7715
419.3410, 1089.283
420.5360, 1716.779
421.7300, 1699.254
422.9240, 2044.707
424.1180, 2018.137
425.3120, 2070.508
426.5060, 2082.010
427.7000, 2128.254
428.8930, 2005.564
430.0860, 2153.838
431.2790, 2307.074
432.4720, 1778.270
433.6650, 1821.426
434.8580, 1617.539
436.0500, 1374.607
437.2420, 995.6289
438.4340, 874.6035
439.6260, 846.5254
440.8180, 801.4004
442.0090, 708.4805
443.2010, 642.9883
444.3920, 553.1836
445.5830, 402.5527
446.7740, 312.7480
447.9640, 818.1133
449.1550, 895.8145
450.3450, 539.0762
451.5350, 245.4199
452.7250, 425.7363
453.9150, 594.0156
455.1050, 779.2656
456.2940, 458.4531
457.4830, 378.3711
458.6720, 594.0273
459.8610, 885.7617
461.0500, 1086.562
462.2390, 1236.441
463.4270, 904.5703
464.6150, 1036.945
465.8040, 1072.121
466.9910, 1057.369
468.1790, 1071.490
469.3670, 1140.256
470.5540, 1156.662
471.7410, 1229.688
472.9280, 1261.508
474.1150, 1255.863
475.3020, 1317.506
476.4890, 1306.061
477.6750, 1020.518
478.8610, 1304.879
480.0470, 1320.145
481.2330, 1544.314
482.4190, 1724.383
483.6040, 2057.355
484.7900, 2432.229
485.9750, 2333.004
487.1600, 2334.680
488.3450, 2606.252
489.5290, 2719.729
490.7140, 2912.102
491.8980, 2870.375
493.0820, 3026.545
494.2660, 3247.613
495.4500, 3313.578
496.6340, 3484.447
497.8170, 3780.213
499.0010, 4074.879
500.1840, 4134.441
501.3670, 4415.906
502.5500, 4605.268
503.7320, 4270.527
504.9150, 4481.684
506.0970, 4510.736
507.2790, 4392.688
508.4610, 4460.535
509.6430, 4443.281
510.8250, 4808.920
512.0060, 5260.453
513.1870, 5228.873
514.3680, 5588.400
515.5490, 5794.676
516.7300, 5954.500
517.9110, 6173.494
519.0910, 6295.383
520.2710, 6345.160
521.4510, 6678.832
522.6310, 6923.393
523.8110, 7688.844
524.9910, 7902.184
526.1700, 8275.488
527.3490, 9061.254
528.5280, 9197.271
529.7070, 9469.152
530.8860, 9326.955
532.0650, 9470.656
533.2430, 9644.613
534.4210, 9582.219
535.5990, 9930.973
536.7770, 10210.21
537.9550, 10181.78
539.1320, 10063.49
540.3100, 9937.449
541.4870, 9206.707
542.6640, 9029.904
543.8410, 8933.463
545.0170, 8893.555
546.1940, 8937.641
547.3700, 8449.523
548.5470, 8381.164
549.7230, 7806.016
550.8980, 7212.121
552.0740, 7208.490
553.2500, 7224.059
554.4250, 7465.242
555.6000, 7512.068
556.7750, 7782.350
557.9500, 7658.139
559.1250, 7703.887
560.2990, 8277.605
561.4730, 8609.289
562.6480, 8281.941
563.8220, 8210.551
564.9950, 8003.121
566.1690, 8130.668
567.3430, 8135.158
568.5160, 7730.604
569.6890, 7917.980
570.8620, 7589.279
572.0350, 6728.500
573.2070, 5629.674
574.3800, 4995.793
575.5520, 4352.834
576.7240, 3722.795
577.8960, 3407.674
579.0680, 2610.471
580.2400, 2135.188
581.4110, 1912.824
582.5830, 1347.377
583.7540, 838.8496
584.9250, 399.2402
586.0950, 347.5430
587.2660, 377.7559
588.4370, 79.70508
589.6070, 1.705078
590.7770, 24.53906
591.9470, 41.77734
593.1170, 43.06055
594.2860, 202.7383
595.4560, 91.69531
596.6250, 75.86328
597.7940, 200.2363
598.9630, 102.1562
600.1320, 296.0156
601.3000, 218.9473
602.4690, 38.43848
603.6370, 100.1592
604.8050, 89.97070
605.9730, 49.00781
607.1410, 43.52051
608.3090, 12.09570
609.4760, 248.4609
610.6430, 421.9619
611.8100, 587.8223
612.9770, 396.8467
614.1440, 587.8164
615.3110, 645.5420
616.4770, 1010.172
617.6430, 1281.125
618.8090, 1241.122
619.9750, 1513.905
621.1410, 1735.690
622.3070, 1474.314
623.4720, 1791.858
624.6370, 2038.322
625.8020, 2208.744
626.9670, 2426.049
628.1320, 2789.440
629.2970, 3026.588
630.4610, 3352.690
631.6250, 3780.682
632.7890, 4171.594
633.9530, 4536.475
635.1170, 4871.652
636.2810, 5422.030
637.4440, 5969.559
638.6070, 6574.457
639.7700, 7395.105
640.9330, 8125.056
642.0960, 9141.715
643.2590, 9914.738
644.4210, 11264.76
645.5830, 12603.46
646.7450, 13848.29
647.9070, 15767.10
649.0690, 17670.13
650.2310, 20120.91
651.3920, 22043.67
652.5530, 24916.29
653.7140, 27525.00
654.8750, 30258.47
656.0360, 33367.61
657.1970, 35913.68
658.3570, 38886.22
659.5170, 41056.85
660.6770, 42700.00
661.8370, 43691.04
662.9970, 43981.19
664.1570, 43643.56
665.3160, 42678.97
666.4750, 40906.15
667.6340, 38464.48
668.7930, 35319.08
669.9520, 31756.53
671.1110, 28344.57
672.2690, 24439.98
673.4270, 21187.11
674.5850, 18063.09
675.7430, 15134.40
676.9010, 12996.47
678.0590, 11207.08
679.2160, 9579.878
680.3730, 8060.789
681.5300, 7245.910
682.6870, 6372.738
683.8440, 5455.723
685.0010, 4998.130
686.1570, 4497.143
687.3130, 3959.551
688.4690, 3709.523
689.6250, 3685.884
690.7810, 3489.236
691.9370, 3266.817
693.0920, 2950.008
694.2470, 2871.828
695.4020, 2550.142
696.5570, 2539.995
697.7120, 2431.715
698.8670, 2339.770
700.0210, 2187.041
701.1750, 2141.590
702.3290, 2048.977
703.4830, 2297.323
704.6370, 2312.373
705.7910, 2128.372
706.9440, 2001.991
708.0970, 2016.931
709.2510, 1788.683
710.4030, 1811.058
711.5560, 1854.657
712.7090, 1826.813
713.8610, 1776.804
715.0140, 1802.252
716.1660, 1589.110
717.3180, 1565.889
718.4690, 1428.586
719.6210, 1525.205
720.7730, 1259.745
721.9240, 1321.206
723.0750, 1241.589
724.2260, 1272.409
725.3770, 1192.924
726.5270, 1209.475
727.6780, 1176.715
728.8280, 1172.482
729.9780, 1127.264
731.1280, 1030.403
732.2780, 1011.124
733.4280, 869.7383
734.5770, 784.2451
735.7260, 745.6719
736.8760, 696.2256
738.0250, 797.8877
739.1730, 517.3271
740.3220, 652.5576
741.4700, 529.5645
742.6190, 500.1748
743.7670, 558.3926
744.9150, 392.6660
746.0630, 547.7178
747.2100, 456.7490
748.3580, 443.9873
749.5050, 335.3271
750.6520, 274.1162
751.7990, 264.2314
752.9460, 300.8984
754.0930, 301.5059
755.2390, 441.0537
756.3860, 409.5469
757.5320, 462.9863
758.6780, 416.3730
759.8240, 490.7061
760.9690, 466.5283
762.1150, 453.0889
763.2600, 416.3975
764.4060, 465.5264
765.5510, 380.6035
766.6950, 496.6289
767.8400, 406.6074
768.9850, 471.5352
770.1290, 554.4160
771.2730, 395.2471
772.4170, 302.0312
773.5610, 232.7666
774.7050, 216.4473
775.8480, 264.0742
776.9920, 343.6523
778.1350, 97.18262
779.2780, 298.6553
780.4210, 190.0801
781.5640, 170.4531
782.7060, 223.7764
783.8490, 173.0518
784.9910, 157.2773
786.1330, 114.4531
787.2750, 415.5771
788.4170, 344.6592
789.5580, 401.7021
790.7000, 316.7041
791.8410, 430.6650
792.9820, 170.5889
794.1230, 168.4668
795.2640, 273.2998
796.4040, 233.0938
797.5450, 324.8467
798.6850, 433.5635
799.8250, 286.2461
800.9650, 310.8896
802.1050, 388.5000
803.2450, 230.0781
804.3840, 170.6182
805.5230, 97.12012
806.6630, 111.5820
807.8020, 34.69434
808.9400, 61.62207
810.0790, 42.34668
811.2170, 72.91797
812.3560, 63.07227
813.4940, 108.0820
814.6320, 36.21094
815.7700, 102.4219
816.9070, 134.7480
818.0450, 105.2070
819.1820, 3.782227
820.3190, 212.4219
821.4560, 218.2344
822.5930, 115.2207
823.7300, 200.3281
824.8670, 224.6016
826.0030, 215.0527
827.1390, 198.6748
828.2750, 279.4609
829.4110, 168.4502
830.5470, 193.5840
831.6820, 140.8770
832.8180, 216.2969
833.9530, 121.8828
835.0880, 130.5830
836.2230, 153.4014
837.3580, 145.3477
838.4920, 114.4141
839.6270, 117.3760
840.7610, 195.8594
841.8950, 71.27734
843.0290, 100.7705
844.1630, 44.35254
845.2960, 51.00684
846.4300, 115.3359
847.5630, 115.3643
848.6960, 96.15234
849.8290, 12.98145
850.9620, 118.0820
852.0940, 178.1602
853.2270, 188.2129
854.3590, 258.5137
855.4910, 387.2520
856.6230, 306.2383
857.7550, 332.2041
858.8870, 294.1484
860.0180, 554.0742
861.1500, 511.9824
862.2810, 724.8750
863.4120, 590.7520
864.5430, 724.6367
865.6730, 664.5410
866.8040, 760.4658
867.9340, 841.4258
869.0640, 737.4229
870.1940, 832.5000
871.3240, 712.6270
872.4540, 914.8018
873.5830, 1043.057
874.7130, 1166.367
875.8420, 1197.909
876.9710, 1001.203
878.1000, 1133.728
879.2290, 1208.308
880.3570, 1075.942
881.4860, 1245.244
882.6140, 1467.917
883.7420, 1525.605
884.8700, 1312.253
885.9980, 1702.451
887.1250, 1688.397
888.2530, 1748.310
889.3800, 2083.379
890.5070, 1765.459
891.6340, 2071.129
892.7610, 2101.674
893.8880, 2311.349
895.0140, 2100.947
896.1400, 2399.629
897.2670, 2346.309
898.3930, 2618.009
899.5180, 2685.681
900.6440, 2619.393
901.7700, 2818.972
902.8950, 2845.719
904.0200, 2931.447
905.1450, 3164.234
906.2700, 3186.034
907.3950, 3331.798
908.5190, 3479.188
909.6440, 3594.316
910.7680, 3679.885
911.8920, 3726.728
913.0160, 3772.435
914.1400, 3852.782
915.2630, 3811.355
916.3870, 3881.494
917.5100, 4013.571
918.6330, 3874.892
919.7560, 4058.038
920.8790, 3994.154
922.0010, 3986.006
923.1240, 3947.055
924.2460, 3948.074
925.3680, 3944.188
926.4900, 3996.178
927.6120, 3709.359
928.7340, 4113.834
929.8550, 3689.361
930.9760, 3669.354
932.0980, 3743.233
933.2190, 3616.556
934.3390, 3686.977
935.4600, 3626.307
936.5810, 3577.824
937.7010, 3644.423
938.8210, 3919.693
939.9410, 3833.743
941.0610, 3910.509
942.1810, 4098.371
943.3010, 4066.596
944.4200, 4145.396
945.5390, 4144.499
946.6580, 4199.787
947.7770, 4216.127
948.8960, 4301.169
950.0150, 4292.133
951.1330, 4486.062
952.2510, 4644.066
953.3690, 4603.045
954.4870, 4751.500
955.6050, 5029.975
956.7230, 4980.484
957.8400, 5202.122
958.9580, 5094.799
960.0750, 5340.097
961.1920, 5463.131
962.3090, 5368.339
963.4250, 5500.647
964.5420, 5581.080
965.6580, 5512.100
966.7740, 5558.584
967.8900, 5526.905
969.0060, 5452.583
970.1220, 5497.264
971.2380, 5488.706
972.3530, 5534.833
973.4680, 5437.088
974.5830, 5390.346
975.6980, 5328.865
976.8130, 5323.398
977.9280, 5404.276
979.0420, 5300.803
980.1560, 5046.483
981.2710, 5118.506
982.3850, 5215.271
983.4980, 5007.447
984.6120, 5230.248
985.7260, 5073.576
986.8390, 4970.953
987.9520, 4799.381
989.0650, 5002.855
990.1780, 4777.381
991.2910, 4983.956
992.4030, 4784.580
993.5160, 4827.257
994.6280, 5061.983
995.7400, 5030.760
996.8520, 5122.586
997.9640, 5289.462
999.0750, 5306.391
1000.187, 5394.366
1001.298, 5233.395
1002.409, 5489.479
1003.520, 5370.615
1004.631, 5794.805
1005.741, 5737.049
1006.852, 5881.346
1007.962, 6268.689
1009.072, 6210.091
1010.182, 6661.541
1011.292, 6593.039
1012.402, 6663.586
1013.511, 7006.179
1014.621, 7157.822
1015.730, 7459.514
1016.839, 7706.252
1017.948, 7869.035
1019.056, 8179.871
1020.165, 8386.753
1021.273, 8707.686
1022.382, 9258.671
1023.490, 9352.708
1024.598, 9693.790
1025.706, 10184.92
1026.813, 10390.10
1027.921, 11159.90
1029.028, 11445.46
1030.135, 11949.78
1031.242, 11973.04
1032.349, 12438.52
1033.456, 12908.87
1034.562, 12830.34
1035.668, 13229.68
1036.775, 13369.16
1037.881, 13282.50
1038.987, 13440.32
1040.092, 13480.48
1041.198, 13535.26
1042.303, 13337.59
1043.408, 13041.48
1044.514, 13065.39
1045.618, 12981.32
1046.723, 12371.90
1047.828, 12535.31
1048.932, 12114.43
1050.037, 12043.70
1051.141, 11618.91
1052.245, 11486.45
1053.349, 11410.72
1054.452, 11043.70
1055.556, 10944.10
1056.659, 10642.33
1057.762, 10566.28
1058.865, 10583.75
1059.968, 10415.27
1061.071, 10298.15
1062.174, 10044.31
1063.276, 9935.090
1064.378, 9712.413
1065.480, 9493.966
1066.582, 9381.438
1067.684, 9104.961
1068.786, 9135.722
1069.887, 8897.262
1070.988, 8803.944
1072.090, 8507.924
1073.191, 8110.936
1074.291, 8027.988
1075.392, 7746.078
1076.493, 7631.395
1077.593, 7445.191
1078.693, 7099.305
1079.793, 6993.354
1080.893, 6719.439
1081.993, 6631.432
1083.092, 6116.340
1084.192, 5925.958
1085.291, 5509.354
1086.390, 5171.096
1087.489, 5244.365
1088.588, 5100.717
1089.686, 4851.879
1090.785, 4814.537
1091.883, 4443.836
1092.981, 4225.080
1094.079, 4092.771
1095.177, 4046.609
1096.275, 3910.316
1097.373, 3960.025
1098.470, 3753.729
1099.567, 3793.310
1100.664, 3727.174
1101.761, 3789.867
1102.858, 3488.091
1103.954, 3390.154
1105.051, 3466.160
1106.147, 3419.349
1107.243, 3441.605
1108.339, 3460.109
1109.435, 3497.638
1110.531, 3426.797
1111.626, 3269.261
1112.722, 3264.734
1113.817, 3153.226
1114.912, 3050.771
1116.007, 3146.360
1117.101, 3159.979
1118.196, 3094.605
1119.290, 3151.496
1120.385, 3134.165
1121.479, 2886.857
1122.573, 2802.558
1123.666, 2694.526
1124.760, 2657.717
1125.853, 2494.467
1126.947, 2314.229
1128.040, 2238.170
1129.133, 2080.779
1130.226, 1992.626
1131.318, 1868.670
1132.411, 1833.512
1133.503, 1802.891
1134.596, 1752.229
1135.688, 1364.826
1136.780, 1502.875
1137.871, 1440.442
1138.963, 1056.326
1140.054, 1094.948
1141.146, 963.8457
1142.237, 890.8760
1143.328, 781.9531
1144.419, 679.0117
1145.509, 582.4590
1146.600, 465.0117
1147.690, 383.9492
1148.780, 250.8896
1149.870, 174.0742
1150.960, 111.0234
1152.050, 31.97656
1153.139, 22.43164
1154.229, 248.1865
1155.318, 19.14355
1156.407, 48.36426
1157.496, 58.93066
1158.585, 62.96777
1159.674, 16.02344
1160.762, 146.9170
1161.850, 127.8750
1162.939, 43.98438
1164.027, 37.10645
1165.114, 139.2422
1166.202, 32.43555
1167.290, 59.64258
1168.377, 127.8730
1169.464, 62.16113
1170.551, 16.47656
1171.638, 102.1982
1172.725, 64.06445
1173.812, 31.10938
1174.898, 166.2578
1175.984, 99.71484
1177.071, 57.22461
1178.157, 7.769531
1179.242, 13.90234
1180.328, 1.726563
1181.414, 42.52734
1182.499, 59.79883
1183.584, 52.42871
1184.669, 93.09961
1185.754, 19.22363
1186.839, 91.51855
1187.924, 52.32812
1189.008, 73.85059
1190.092, 71.96387
1191.177, 69.81738
1192.260, 113.8467
1193.344, 20.04102
1194.428, 90.08789
1195.512, 91.29102
1196.595, 147.5693
1197.678, 232.9541
1198.761, 182.8896
1199.844, 1.862305
1200.927, 65.56152
1202.009, 73.67090
1203.092, 246.0127
1204.174, 144.6738
1205.256, 181.3789
1206.338, 44.65918
1207.420, 30.81055
1208.502, 8.065430
1209.583, 99.98730
1210.665, 82.00586
1211.746, 1.888672
1212.827, 26.26172
1213.908, 107.5264
1214.988, 3.293945
1216.069, 163.0137
1217.149, 55.71191
1218.230, 147.4912
1219.310, 88.04883
1220.390, 35.33594
1221.470, 5.105469
1222.549, 192.4922
1223.629, 43.85352
1224.708, 26.81445
1225.787, 46.43457
1226.866, 63.64160
1227.945, 201.9160
1229.024, 59.84863
1230.103, 200.5176
1231.181, 46.54492
1232.259, 17.70508
1233.337, 216.7617
1234.415, 77.65430
1235.493, 254.9951
1236.571, 174.8193
1237.648, 136.6113
1238.726, 144.9883
1239.803, 106.7139
1240.880, 117.4033
1241.957, 209.0967
1243.034, 196.6777
1244.110, 224.8525
1245.187, 278.4072
1246.263, 197.9277
1247.339, 270.4160
1248.415, 145.8691
1249.491, 371.9014
1250.566, 210.2979
1251.642, 371.6602
1252.717, 135.1719
1253.793, 149.5557
1254.868, 246.1943
1255.943, 348.4092
1257.017, 187.7959
1258.092, 307.9385
1259.166, 208.0459
1260.241, 238.1172
1261.315, 231.1523
1262.389, 102.1504
1263.462, 144.0977
1264.536, 144.0029
1265.610, 119.8652
1266.683, 143.6816
1267.756, 272.4541
1268.829, 104.1895
1269.902, 292.8730
1270.975, 223.0938
1272.048, 215.7012
1273.120, 327.2715
1274.192, 191.2920
1275.264, 338.7852
1276.336, 421.2402
1277.408, 353.6572
