##NAMES=Riebeckite
##RRUFFID=R050082
##IDEAL CHEMISTRY=[box]Na_2_(Fe^2+^_3_Fe^3+^_2_)Si_8_O_22_(OH)_2_
##LOCALITY=Mt. Malosa, Zomba, Chilwa, Alkaline Area, Malawi
##OWNER=RRUFF
##SOURCE=Rock Currier
##DESCRIPTION=Black elongated prisms
##STATUS=The identification of this mineral has been confirmed by X-ray diffraction and chemical analysis
##URL=rruff.info/R050082
##MEASURED CHEMISTRY=([box]_0.63_Na_0.19_K_0.18_)(Na_1.58_Ca_0.42_)_Σ=2_Fe^2+^_3.00_(Fe^3+^_1.30_Fe^2+^_0.45_Mn_0.15_Mg_0.05_Ti_0.05_)_Σ=2_(Si_0.98_Al_0.02_)_8_O_22_(OH)_2_
##PIN_ID=L00547
##ORIENTATION=Laser parallel to -a* (-1 0 0). Fiducial mark perpendicular to laser is parallel to -b [0 -1 0]
133.7780, 0.0000000E+00
135.0140, 6.289063
136.2500, 437.7578
137.4850, 1064.477
138.7200, 863.3828
139.9550, 1041.980
141.1900, 393.9648
142.4250, 20.06250
143.6600, 50.94531
144.8940, 20.77344
146.1280, 462.9023
147.3620, 581.0859
148.5960, 225.8164
149.8300, 929.6328
151.0630, 1766.133
152.2960, 1102.004
153.5300, 1214.059
154.7620, 1785.727
155.9950, 1186.590
157.2280, 1234.355
158.4600, 1474.777
159.6920, 1889.137
160.9250, 2542.117
162.1560, 3297.523
163.3880, 4226.199
164.6200, 4359.598
165.8510, 4726.891
167.0820, 4751.746
168.3130, 4762.531
169.5440, 5132.219
170.7750, 5084.867
172.0050, 5154.727
173.2350, 5461.520
174.4650, 6248.898
175.6950, 7236.609
176.9250, 8307.863
178.1550, 9959.148
179.3840, 12261.46
180.6130, 14089.59
181.8420, 15994.59
183.0710, 17953.49
184.3000, 18994.20
185.5280, 20964.02
186.7570, 22841.03
187.9850, 25047.27
189.2130, 26981.77
190.4400, 30310.62
191.6680, 30746.85
192.8960, 30719.49
194.1230, 29445.56
195.3500, 26969.12
196.5770, 23186.16
197.8030, 19983.73
199.0300, 17401.86
200.2560, 15874.55
201.4830, 14199.83
202.7090, 11833.80
203.9340, 9007.531
205.1600, 6014.141
206.3860, 4895.508
207.6110, 3889.297
208.8360, 3502.684
210.0610, 3719.961
211.2860, 3661.777
212.5100, 3567.895
213.7350, 3721.625
214.9590, 3255.656
216.1830, 2327.449
217.4070, 2208.371
218.6310, 1695.910
219.8540, 1068.518
221.0780, 1118.814
222.3010, 719.3574
223.5240, 1369.215
224.7470, 1001.996
225.9690, 842.9512
227.1920, 610.9746
228.4140, 596.0664
229.6360, 529.2129
230.8580, 661.9746
232.0800, 817.6465
233.3020, 1150.918
234.5230, 1214.225
235.7440, 1617.555
236.9650, 1462.906
238.1860, 1742.277
239.4070, 1946.668
240.6280, 1759.070
241.8480, 2014.482
243.0680, 2157.904
244.2880, 1914.330
245.5080, 1930.758
246.7280, 1404.180
247.9470, 1569.590
249.1660, 1308.957
250.3860, 1380.281
251.6040, 1159.547
252.8230, 1060.750
254.0420, 923.8984
255.2600, 1205.973
256.4790, 2108.988
257.6970, 3207.949
258.9150, 2750.309
260.1320, 2793.145
261.3500, 2194.535
262.5670, 1812.297
263.7840, 1842.020
265.0010, 1880.688
266.2180, 2476.312
267.4350, 2377.895
268.6510, 2244.395
269.8680, 2288.520
271.0840, 1997.633
272.3000, 1940.578
273.5160, 1906.766
274.7310, 1751.098
275.9470, 1433.969
277.1620, 1385.434
278.3770, 894.5859
279.5920, 274.3516
280.8070, 509.8945
282.0210, 674.4062
283.2360, 216.1992
284.4500, 253.5000
285.6640, 252.7383
286.8780, 156.0312
288.0920, 115.4570
289.3050, 17.42578
290.5180, 80.57031
291.7320, 237.8633
292.9450, 263.4512
294.1570, 403.7930
295.3700, 327.3984
296.5830, 217.1055
297.7950, 201.7656
299.0070, 273.0586
300.2190, 230.1836
301.4310, 325.6680
302.6420, 214.4375
303.8540, 372.1367
305.0650, 21.82422
306.2760, 79.56641
307.4870, 131.8867
308.6980, 88.26172
309.9080, 187.6953
311.1190, 252.3789
312.3290, 359.6602
313.5390, 503.6719
314.7490, 735.6250
315.9580, 983.5234
317.1680, 1125.371
318.3770, 1620.160
319.5860, 1582.891
320.7950, 2087.539
322.0040, 2169.094
323.2130, 2513.531
324.4210, 2515.848
325.6290, 3123.051
326.8380, 3074.152
328.0460, 3552.133
329.2530, 3008.012
330.4610, 3074.809
331.6680, 2814.516
332.8760, 2726.195
334.0830, 2542.793
335.2890, 2342.320
336.4960, 2229.777
337.7030, 2332.156
338.9090, 2356.461
340.1150, 2121.699
341.3210, 2489.914
342.5270, 2632.062
343.7330, 3178.145
344.9380, 3670.168
346.1440, 4265.902
347.3490, 5406.039
348.5540, 5941.891
349.7590, 6660.688
350.9630, 8018.422
352.1680, 9054.105
353.3720, 9732.715
354.5760, 10827.25
355.7800, 12187.70
356.9840, 13251.04
358.1870, 13940.18
359.3910, 14709.89
360.5940, 15068.10
361.7970, 14685.95
363.0000, 13854.42
364.2030, 12494.50
365.4050, 11024.27
366.6080, 10403.97
367.8100, 9020.328
369.0120, 7383.934
370.2140, 6652.516
371.4150, 6087.082
372.6170, 5171.973
373.8180, 4764.594
375.0190, 4389.344
376.2200, 3881.441
377.4210, 3549.930
378.6220, 3203.402
379.8220, 2757.863
381.0230, 2620.305
382.2230, 2187.730
383.4230, 2145.141
384.6220, 2124.535
385.8220, 2027.918
387.0220, 1903.281
388.2210, 1771.633
389.4200, 1576.969
390.6190, 1428.707
391.8180, 1185.590
393.0160, 1106.883
394.2150, 961.1602
395.4130, 867.4258
396.6110, 752.0273
397.8090, 616.7852
399.0060, 553.1289
400.2040, 385.3359
401.4010, 346.5273
402.5980, 304.7070
403.7950, 112.8750
404.9920, 358.0156
406.1890, 181.1484
407.3860, 117.2578
408.5820, 23.35156
409.7780, 51.42188
410.9740, 34.46875
412.1700, 62.50391
413.3650, 116.4727
414.5610, 199.4258
415.7560, 73.35938
416.9510, 38.24609
418.1460, 64.14062
419.3410, 106.9688
420.5360, 86.77344
421.7300, 57.59375
422.9240, 477.3828
424.1180, 323.1836
425.3120, 579.5469
426.5060, 358.2617
427.7000, 667.6992
428.8930, 807.4180
430.0860, 713.1211
431.2790, 782.7891
432.4720, 847.8242
433.6650, 651.7031
434.8580, 889.5703
436.0500, 464.5469
437.2420, 535.9219
438.4340, 470.4609
439.6260, 467.7812
440.8180, 203.0000
442.0090, 74.16406
443.2010, 1.171875
444.3920, 23.15234
445.5830, 9.707031
446.7740, 32.73047
447.9640, 29.91406
449.1550, 111.3945
450.3450, 41.49609
451.5350, 43.55859
452.7250, 163.8203
453.9150, 192.5469
455.1050, 295.8242
456.2940, 100.8242
457.4830, 335.4141
458.6720, 409.5352
459.8610, 178.6367
461.0500, 606.7227
462.2390, 720.7891
463.4270, 792.8359
464.6150, 781.8672
465.8040, 886.8750
466.9910, 785.8711
468.1790, 1066.852
469.3670, 1149.977
470.5540, 1042.602
471.7410, 1007.230
472.9280, 849.8281
474.1150, 698.7266
475.3020, 637.0664
476.4890, 623.9414
477.6750, 632.3281
478.8610, 378.1719
480.0470, 545.0000
481.2330, 199.8125
482.4190, 455.6133
483.6040, 720.7891
484.7900, 617.5625
485.9750, 507.3203
487.1600, 485.0664
488.3450, 743.9180
489.5290, 807.6406
490.7140, 793.3477
491.8980, 846.0430
493.0820, 796.7266
494.2660, 791.3984
495.4500, 838.0547
496.6340, 763.7070
497.8170, 1100.340
499.0010, 1029.969
500.1840, 1209.582
501.3670, 1054.184
502.5500, 1296.789
503.7320, 1343.391
504.9150, 1329.988
506.0970, 1371.582
507.2790, 1478.172
508.4610, 1790.773
509.6430, 2142.391
510.8250, 2204.012
512.0060, 2189.680
513.1870, 2107.363
514.3680, 2399.109
515.5490, 2118.859
516.7300, 2377.629
517.9110, 2660.402
519.0910, 3005.184
520.2710, 3312.703
521.4510, 3560.930
522.6310, 4002.941
523.8110, 4489.957
524.9910, 4862.043
526.1700, 5769.137
527.3490, 6297.293
528.5280, 7237.535
529.7070, 8025.781
530.8860, 8800.055
532.0650, 9754.410
533.2430, 10625.77
534.4210, 11473.20
535.5990, 12334.65
536.7770, 12853.10
537.9550, 13675.56
539.1320, 13763.02
540.3100, 13860.48
541.4870, 14199.96
542.6640, 13312.31
543.8410, 12569.05
545.0170, 11349.86
546.1940, 10606.58
547.3700, 9376.645
548.5470, 8714.004
549.7230, 7937.848
550.8980, 7495.727
552.0740, 6969.051
553.2500, 6688.414
554.4250, 6357.188
555.6000, 6345.473
556.7750, 5865.105
557.9500, 5715.848
559.1250, 5446.629
560.2990, 5299.855
561.4730, 5212.953
562.6480, 5112.605
563.8220, 5210.492
564.9950, 5063.109
566.1690, 5270.914
567.3430, 5288.625
568.5160, 5224.445
569.6890, 5372.094
570.8620, 5470.973
572.0350, 5210.637
573.2070, 5194.691
574.3800, 5274.391
575.5520, 5182.539
576.7240, 4841.320
577.8960, 4819.066
579.0680, 4490.047
580.2400, 3837.652
581.4110, 3391.898
582.5830, 3045.117
583.7540, 2747.965
584.9250, 1841.637
586.0950, 1819.668
587.2660, 1205.668
588.4370, 1352.152
589.6070, 892.2891
590.7770, 839.3086
591.9470, 665.3477
593.1170, 702.2891
594.2860, 723.3516
595.4560, 550.4297
596.6250, 359.5195
597.7940, 358.6328
598.9630, 628.7070
600.1320, 179.8008
601.3000, 585.8984
602.4690, 367.9922
603.6370, 10.08594
604.8050, 116.1797
605.9730, 34.27734
607.1410, 86.37109
608.3090, 27.46875
609.4760, 112.4375
610.6430, 126.6289
611.8100, 47.69531
612.9770, 83.24609
614.1440, 78.80078
615.3110, 280.1523
616.4770, 16.76953
617.6430, 93.30078
618.8090, 10.60156
619.9750, 97.50000
621.1410, 179.4023
622.3070, 58.30469
623.4720, 210.7969
624.6370, 66.01953
625.8020, 283.8359
626.9670, 216.6523
628.1320, 50.53125
629.2970, 200.2656
630.4610, 129.0703
631.6250, 312.8750
632.7890, 386.6719
633.9530, 331.4727
635.1170, 421.2773
636.2810, 321.0742
637.4440, 369.8711
638.6070, 544.6719
639.7700, 587.1836
640.9330, 731.2695
642.0960, 850.2891
643.2590, 967.0859
644.4210, 1065.883
645.5830, 1320.680
646.7450, 1673.477
647.9070, 1790.273
649.0690, 1944.645
650.2310, 2485.457
651.3920, 2645.109
652.5530, 3179.102
653.7140, 3635.012
654.8750, 4017.797
656.0360, 4495.398
657.1970, 4633.180
658.3570, 5020.953
659.5170, 4854.082
660.6770, 5181.906
661.8370, 5026.641
662.9970, 4752.098
664.1570, 4756.500
665.3160, 4289.559
666.4750, 3895.566
667.6340, 3450.148
668.7930, 3110.785
669.9520, 2771.133
671.1110, 2471.988
672.2690, 2156.453
673.4270, 1903.461
674.5850, 1590.988
675.7430, 1472.297
676.9010, 1243.930
678.0590, 1182.551
679.2160, 917.1602
680.3730, 762.6641
681.5300, 730.2422
682.6870, 445.8164
683.8440, 692.3789
685.0010, 912.4336
686.1570, 570.9766
687.3130, 385.7578
688.4690, 451.2812
689.6250, 246.9844
690.7810, 483.7148
691.9370, 522.2266
693.0920, 647.4453
694.2470, 445.9727
695.4020, 332.4961
696.5570, 357.0000
697.7120, 75.49219
698.8670, 398.9219
700.0210, 114.3281
701.1750, 85.26953
702.3290, 116.0938
703.4830, 80.38672
704.6370, 65.65625
705.7910, 51.89453
706.9440, 73.90234
708.0970, 477.2070
709.2510, 27.29688
710.4030, 274.3438
711.5560, 70.37500
712.7090, 424.3789
713.8610, 44.36719
715.0140, 138.3164
716.1660, 18.75000
717.3180, 213.1211
718.4690, 99.97266
719.6210, 213.7969
720.7730, 253.6133
721.9240, 254.4102
723.0750, 415.1953
724.2260, 559.9648
725.3770, 551.6562
726.5270, 507.4609
727.6780, 525.1836
728.8280, 548.8906
729.9780, 403.5820
731.1280, 596.2617
732.2780, 612.2773
733.4280, 566.5586
734.5770, 771.1797
735.7260, 856.7852
736.8760, 824.3750
738.0250, 522.9414
739.1730, 808.4883
740.3220, 538.0195
741.4700, 409.5312
742.6190, 524.0234
743.7670, 536.5039
744.9150, 330.9648
746.0630, 392.1719
747.2100, 284.3984
748.3580, 362.0781
749.5050, 255.4648
750.6520, 381.8398
751.7990, 352.7656
752.9460, 425.1602
754.0930, 391.3477
755.2390, 457.6602
756.3860, 568.4180
757.5320, 321.6992
758.6780, 419.9688
759.8240, 733.2266
760.9690, 430.4609
762.1150, 568.2930
763.2600, 685.5000
764.4060, 352.6992
765.5510, 482.8867
766.6950, 459.0977
767.8400, 759.0977
768.9850, 428.2500
770.1290, 846.3828
771.2730, 634.5078
772.4170, 639.6172
773.5610, 478.7227
774.7050, 523.8125
775.8480, 297.8906
776.9920, 377.9570
778.1350, 192.0117
779.2780, 25.05859
780.4210, 391.0820
781.5640, 192.0938
782.7060, 190.0938
783.8490, 233.0898
784.9910, 26.07422
786.1330, 23.96484
787.2750, 60.95312
788.4170, 150.1367
789.5580, 1.335938
790.7000, 207.5625
791.8410, 465.0742
792.9820, 15.29297
794.1230, 76.29688
795.2640, 89.88672
796.4040, 199.5352
797.5450, 246.0742
798.6850, 341.7695
799.8250, 0.6523440
800.9650, 243.5703
802.1050, 27.37500
803.2450, 222.6914
804.3840, 315.8906
805.5230, 184.7344
806.6630, 78.64453
807.8020, 294.0781
808.9400, 26.32422
810.0790, 271.2773
811.2170, 26.02734
812.3560, 14.80859
813.4940, 302.3945
814.6320, 29.59766
815.7700, 40.79297
816.9070, 81.01172
818.0450, 169.1406
819.1820, 47.29297
820.3190, 193.4414
821.4560, 23.40625
822.5930, 53.05469
823.7300, 60.54688
824.8670, 118.9727
826.0030, 153.9141
827.1390, 101.8750
828.2750, 149.1250
829.4110, 77.88281
830.5470, 172.0820
831.6820, 27.05078
832.8180, 82.02734
833.9530, 118.0078
835.0880, 64.58984
836.2230, 234.5898
837.3580, 224.4375
838.4920, 0.4062500
839.6270, 120.2852
840.7610, 47.60547
841.8950, 106.3438
843.0290, 150.8086
844.1630, 171.5156
845.2960, 208.6094
846.4300, 263.4453
847.5630, 281.5469
848.6960, 234.2852
849.8290, 321.4180
850.9620, 419.1328
852.0940, 320.7188
853.2270, 1202.602
854.3590, 497.7930
855.4910, 751.5273
856.6230, 1573.754
857.7550, 924.0000
858.8870, 1134.527
860.0180, 703.5508
861.1500, 758.8555
862.2810, 925.1797
863.4120, 917.5195
864.5430, 1163.883
865.6730, 1405.266
866.8040, 1338.672
867.9340, 1504.102
869.0640, 1858.555
870.1940, 1910.031
871.3240, 2113.527
872.4540, 2467.051
873.5830, 2527.598
874.7130, 2575.168
875.8420, 2966.766
876.9710, 3135.391
878.1000, 3462.039
879.2290, 3885.711
880.3570, 4380.414
881.4860, 4512.145
882.6140, 4827.898
883.7420, 5096.688
884.8700, 5308.520
885.9980, 5480.379
887.1250, 5598.266
888.2530, 5610.195
889.3800, 5442.855
890.5070, 5024.203
891.6340, 4929.289
892.7610, 4392.410
893.8880, 4128.570
895.0140, 4194.762
896.1400, 3645.984
897.2670, 3141.242
898.3930, 2945.570
899.5180, 2868.941
900.6440, 2500.980
901.7700, 2366.105
902.8950, 2169.254
904.0200, 1907.770
905.1450, 2069.320
906.2700, 1790.910
907.3950, 1741.855
908.5190, 1529.195
909.6440, 1416.898
910.7680, 1362.402
911.8920, 1258.410
913.0160, 1341.230
914.1400, 1252.090
915.2630, 1413.797
916.3870, 1539.777
917.5100, 1202.797
918.6330, 1776.863
919.7560, 1334.961
920.8790, 1290.105
922.0010, 1476.723
923.1240, 1147.930
924.2460, 1212.340
925.3680, 1482.461
926.4900, 1207.699
927.6120, 1270.113
928.7340, 1326.199
929.8550, 1159.910
930.9760, 1402.836
932.0980, 1098.086
933.2190, 1079.691
934.3390, 1317.430
935.4600, 1046.488
936.5810, 1216.672
937.7010, 1396.242
938.8210, 1178.930
939.9410, 1242.082
941.0610, 1361.160
942.1810, 1334.730
943.3010, 1159.801
944.4200, 1460.016
945.5390, 1296.801
946.6580, 1484.855
947.7770, 1656.664
948.8960, 1692.898
950.0150, 1853.797
951.1330, 1955.469
952.2510, 2208.367
953.3690, 2387.234
954.4870, 2842.219
955.6050, 3060.270
956.7230, 3888.891
957.8400, 4179.070
958.9580, 5275.094
960.0750, 5620.469
961.1920, 6700.734
962.3090, 7623.039
963.4250, 8544.625
964.5420, 9132.660
965.6580, 9627.160
966.7740, 9897.195
967.8900, 10035.20
969.0060, 9911.309
970.1220, 9596.523
971.2380, 9017.859
972.3530, 8291.266
973.4680, 7834.715
974.5830, 7170.305
975.6980, 6096.965
976.8130, 5460.707
977.9280, 5103.523
979.0420, 4730.508
980.1560, 4104.559
981.2710, 4109.727
982.3850, 3940.965
983.4980, 3692.277
984.6120, 3311.672
985.7260, 3493.180
986.8390, 3140.758
987.9520, 3007.434
989.0650, 2803.180
990.1780, 2634.008
991.2910, 2406.906
992.4030, 2314.480
993.5160, 2205.945
994.6280, 2165.082
995.7400, 1966.293
996.8520, 1958.570
997.9640, 1740.930
999.0750, 1719.363
1000.187, 1710.867
1001.298, 1464.465
1002.409, 1782.137
1003.520, 1501.883
1004.631, 1455.699
1005.741, 1557.586
1006.852, 1410.512
1007.962, 1457.590
1009.072, 1357.711
1010.182, 1414.910
1011.292, 1398.180
1012.402, 1483.535
1013.511, 1201.957
1014.621, 1331.457
1015.730, 1120.023
1016.839, 1014.668
1017.948, 1192.383
1019.056, 1371.168
1020.165, 941.0312
1021.273, 858.9688
1022.382, 1037.973
1023.490, 1274.051
1024.598, 1497.199
1025.706, 1223.418
1026.813, 955.7109
1027.921, 1087.074
1029.028, 1069.516
1030.135, 1525.035
1031.242, 1437.629
1032.349, 1463.297
1033.456, 1372.035
1034.562, 1500.840
1035.668, 1339.723
1036.775, 1359.879
1037.881, 1264.906
1038.987, 1261.469
1040.092, 1324.164
1041.198, 1357.402
1042.303, 1321.711
1043.408, 1522.090
1044.514, 1837.547
1045.618, 2333.070
1046.723, 1832.445
1047.828, 1654.391
1048.932, 1392.516
1050.037, 1656.328
1051.141, 1546.211
1052.245, 1625.156
1053.349, 1576.172
1054.452, 1765.266
1055.556, 1812.445
1056.659, 1622.691
1057.762, 1917.055
1058.865, 1895.570
1059.968, 2060.613
1061.071, 1875.578
1062.174, 2413.473
1063.276, 1962.352
1064.378, 1970.207
1065.480, 2314.191
1066.582, 2316.988
1067.684, 2476.363
1068.786, 2557.461
1069.887, 2556.945
1070.988, 2787.109
1072.090, 2848.043
1073.191, 2646.797
1074.291, 3097.727
1075.392, 3161.078
1076.493, 3258.211
1077.593, 3777.414
1078.693, 3740.750
1079.793, 3817.156
1080.893, 4210.648
1081.993, 4285.086
1083.092, 4640.254
1084.192, 4589.141
1085.291, 4457.887
1086.390, 4378.406
1087.489, 3875.887
1088.588, 3711.809
1089.686, 3410.797
1090.785, 3263.996
1091.883, 3014.969
1092.981, 2912.793
1094.079, 3177.172
1095.177, 2739.520
1096.275, 2875.926
1097.373, 2807.648
1098.470, 2707.203
1099.567, 2723.176
1100.664, 2680.047
1101.761, 2590.734
1102.858, 2413.273
1103.954, 2249.059
1105.051, 2234.895
1106.147, 2590.777
1107.243, 2574.707
1108.339, 3034.680
1109.435, 2389.707
1110.531, 2981.637
1111.626, 2327.176
1112.722, 2292.383
1113.817, 2204.590
1114.912, 2109.859
1116.007, 2248.641
1117.101, 2308.227
1118.196, 2362.629
1119.290, 2338.441
1120.385, 2216.547
1121.479, 2218.461
1122.573, 1933.023
1123.666, 1859.602
1124.760, 1764.238
1125.853, 1918.945
1126.947, 1915.664
1128.040, 1685.414
1129.133, 1786.402
1130.226, 1384.234
1131.318, 1536.109
1132.411, 1439.934
1133.503, 1298.414
1134.596, 1392.391
1135.688, 1313.402
1136.780, 1165.441
1137.871, 1189.652
1138.963, 1160.762
1140.054, 782.8125
1141.146, 912.9844
1142.237, 955.1914
1143.328, 664.0820
1144.419, 691.3555
1145.509, 616.6484
1146.600, 441.9766
1147.690, 442.3320
1148.780, 476.7188
1149.870, 408.6523
1150.960, 548.0898
1152.050, 610.5547
1153.139, 643.0508
1154.229, 511.5703
1155.318, 329.1133
1156.407, 350.6836
1157.496, 350.2852
1158.585, 256.9297
1159.674, 603.0664
1160.762, 206.3203
1161.850, 246.2148
1162.939, 319.8320
1164.027, 23.09766
1165.114, 235.8867
1166.202, 14.69922
1167.290, 17.47266
1168.377, 235.5703
1169.464, 128.4414
1170.551, 260.3281
1171.638, 331.9297
1172.725, 278.7227
1173.812, 374.3203
1174.898, 221.2734
1175.984, 43.24219
1177.071, 42.76953
1178.157, 171.7695
1179.242, 87.81250
1180.328, 76.13281
1181.414, 43.09375
1182.499, 66.64844
1183.584, 168.0547
1184.669, 53.04688
1185.754, 70.05469
1186.839, 212.0703
1187.924, 246.1055
1189.008, 1.855469
1190.092, 21.80859
1191.177, 46.75781
1192.260, 7.714844
1193.344, 2.296875
1194.428, 10.42188
1195.512, 60.50000
1196.595, 23.41797
1197.678, 1.335938
1198.761, 87.16797
1199.844, 50.95703
1200.927, 17.08203
1202.009, 3.039063
1203.092, 24.00391
1204.174, 44.98047
1205.256, 122.9766
1206.338, 73.97656
1207.420, 111.9219
1208.502, 69.87109
1209.583, 39.82031
1210.665, 9.761719
1211.746, 49.29297
1212.827, 2.386719
1213.908, 287.4883
1214.988, 254.2539
1216.069, 177.0039
1217.149, 35.36328
1218.230, 145.2422
1219.310, 80.84375
1220.390, 74.56250
1221.470, 153.0156
1222.549, 195.4375
1223.629, 10.12109
1224.708, 86.29688
1225.787, 116.7031
1226.866, 116.8984
1227.945, 177.5781
1229.024, 213.2656
1230.103, 94.57031
1231.181, 197.5586
1232.259, 166.4609
1233.337, 280.4062
1234.415, 133.2617
1235.493, 120.1055
1236.571, 158.9414
1237.648, 73.77344
1238.726, 233.5898
1239.803, 139.6016
1240.880, 21.09375
1241.957, 58.20703
1243.034, 240.3906
1244.110, 100.9336
1245.187, 28.49609
1246.263, 70.77734
1247.339, 147.4844
1248.415, 93.35938
1249.491, 672.3438
1250.566, 38.74609
1251.642, 385.1172
1252.717, 8.308594
1253.793, 526.7773
1254.868, 30.06250
1255.943, 267.3164
1257.017, 273.5469
1258.092, 30.76172
1259.166, 120.8633
1260.241, 139.2266
1261.315, 13.64062
1262.389, 87.45312
1263.462, 272.5195
1264.536, 242.5625
1265.610, 256.5898
1266.683, 72.58984
1267.756, 301.6016
1268.829, 30.29297
1269.902, 217.1875
1270.975, 311.0625
1272.048, 40.28906
1273.120, 197.2930
1274.192, 337.0703
1275.264, 355.0508
1276.336, 204.9375
1277.408, 451.7852
1278.480, 117.4688
1279.551, 352.3359
1280.623, 537.9609
1281.694, 169.7812
1282.765, 186.7734
1283.836, 368.7305
1284.907, 180.2578
1285.977, 248.8867
1287.048, 199.3594
1288.118, 92.80078
1289.188, 131.3555
1290.258, 101.7578
1291.328, 199.4961
1292.398, 168.1562
1293.467, 436.9453
1294.537, 572.1875
1295.606, 264.5859
1296.675, 175.0234
1297.744, 373.5508
1298.813, 318.6680
1299.882, 355.7617
1300.950, 378.8203
1302.018, 127.8516
