##NAMES=Riebeckite
##RRUFFID=R050082
##IDEAL CHEMISTRY=[box]Na_2_(Fe^2+^_3_Fe^3+^_2_)Si_8_O_22_(OH)_2_
##LOCALITY=Mt. Malosa, Zomba, Chilwa, Alkaline Area, Malawi
##OWNER=RRUFF
##SOURCE=Rock Currier
##DESCRIPTION=Black elongated prisms
##STATUS=The identification of this mineral has been confirmed by X-ray diffraction and chemical analysis
##URL=rruff.info/R050082
##MEASURED CHEMISTRY=([box]_0.63_Na_0.19_K_0.18_)(Na_1.58_Ca_0.42_)_Σ=2_Fe^2+^_3.00_(Fe^3+^_1.30_Fe^2+^_0.45_Mn_0.15_Mg_0.05_Ti_0.05_)_Σ=2_(Si_0.98_Al_0.02_)_8_O_22_(OH)_2_
##PIN_ID=L00547
##ORIENTATION=Laser parallel to -a* (-1 0 0). Fiducial mark perpendicular to laser is parallel to -b [0 -1 0]
137.4850, 0.0000000E+00
138.7200, 2.996094
139.9550, 447.0664
141.1900, 159.1875
142.4250, 365.0664
143.6600, 767.2031
144.8940, 1007.734
146.1280, 593.0586
147.3620, 156.8828
148.5960, 87.94141
149.8300, 581.6875
151.0630, 1165.258
152.2960, 1006.586
153.5300, 1449.750
154.7620, 1485.992
155.9950, 1388.816
157.2280, 1650.176
158.4600, 2244.801
159.6920, 3177.020
160.9250, 4516.926
162.1560, 6276.742
163.3880, 7001.902
164.6200, 7412.969
165.8510, 7087.617
167.0820, 6828.609
168.3130, 6983.750
169.5440, 7143.898
170.7750, 7104.941
172.0050, 6801.824
173.2350, 6682.645
174.4650, 6726.156
175.6950, 5886.859
176.9250, 5932.047
178.1550, 6672.555
179.3840, 7383.867
180.6130, 8890.715
181.8420, 9798.781
183.0710, 11155.75
184.3000, 12125.70
185.5280, 13244.80
186.7570, 14303.19
187.9850, 15502.98
189.2130, 16928.32
190.4400, 18329.30
191.6680, 18905.02
192.8960, 18925.55
194.1230, 17822.98
195.3500, 16246.36
196.5770, 14343.76
197.8030, 12336.23
199.0300, 11373.80
200.2560, 11326.55
201.4830, 10519.48
202.7090, 8611.672
203.9340, 6020.266
205.1600, 3729.500
206.3860, 2620.559
207.6110, 2439.379
208.8360, 2447.645
210.0610, 2853.465
211.2860, 3549.008
212.5100, 4525.523
213.7350, 4833.223
214.9590, 4738.488
216.1830, 5025.297
217.4070, 4610.527
218.6310, 4925.465
219.8540, 4948.551
221.0780, 5518.188
222.3010, 5995.730
223.5240, 6311.508
224.7470, 6380.691
225.9690, 6097.891
227.1920, 5574.910
228.4140, 4826.594
229.6360, 4390.395
230.8580, 4365.301
232.0800, 4772.312
233.3020, 5048.391
234.5230, 5842.547
235.7440, 6365.758
236.9650, 7593.016
238.1860, 8400.312
239.4070, 8951.633
240.6280, 9467.977
241.8480, 9817.340
243.0680, 10498.71
244.2880, 11098.09
245.5080, 10929.46
246.7280, 11031.83
247.9470, 10997.18
249.1660, 9768.496
250.3860, 8153.734
251.6040, 6794.871
252.8230, 5399.906
254.0420, 3766.832
255.2600, 3150.648
256.4790, 2475.430
257.6970, 2630.082
258.9150, 2671.996
260.1320, 2607.332
261.3500, 2116.730
262.5670, 2175.887
263.7840, 2014.613
265.0010, 1844.215
266.2180, 1980.500
267.4350, 1783.398
268.6510, 2050.863
269.8680, 2019.684
271.0840, 1925.840
272.3000, 1925.574
273.5160, 1960.465
274.7310, 1839.488
275.9470, 1581.910
277.1620, 1177.402
278.3770, 951.8828
279.5920, 554.7695
280.8070, 261.6797
282.0210, 222.3086
283.2360, 129.4766
284.4500, 438.1758
285.6640, 563.5781
286.8780, 392.2109
288.0920, 578.9766
289.3050, 210.5820
290.5180, 524.7812
291.7320, 583.9102
292.9450, 339.0312
294.1570, 366.7930
295.3700, 122.9141
296.5830, 253.0273
297.7950, 30.18750
299.0070, 30.77734
300.2190, 169.9766
301.4310, 541.0781
302.6420, 727.4961
303.8540, 403.1445
305.0650, 21.04688
306.2760, 149.0781
307.4870, 233.6914
308.6980, 619.9805
309.9080, 467.7109
311.1190, 410.7383
312.3290, 591.2031
313.5390, 509.2617
314.7490, 1012.254
315.9580, 1266.824
317.1680, 1326.293
318.3770, 1704.652
319.5860, 2201.914
320.7950, 2396.055
322.0040, 2513.043
323.2130, 3179.832
324.4210, 3295.414
325.6290, 3640.785
326.8380, 3887.949
328.0460, 4544.914
329.2530, 3793.680
330.4610, 3845.266
331.6680, 3817.672
332.8760, 4199.914
334.0830, 3744.988
335.2890, 2967.906
336.4960, 2985.672
337.7030, 2731.289
338.9090, 2745.770
340.1150, 2385.109
341.3210, 2652.316
342.5270, 2809.391
343.7330, 2976.340
344.9380, 3317.789
346.1440, 3738.879
347.3490, 4112.473
348.5540, 4623.949
349.7590, 5317.320
350.9630, 5866.574
352.1680, 6236.730
353.3720, 6549.770
354.5760, 7019.680
355.7800, 7232.387
356.9840, 7538.469
358.1870, 8303.738
359.3910, 8449.309
360.5940, 8182.043
361.7970, 8184.168
363.0000, 7552.859
364.2030, 6479.277
365.4050, 5659.461
366.6080, 4871.570
367.8100, 4246.391
369.0120, 3806.125
370.2140, 3079.781
371.4150, 2727.367
372.6170, 2840.914
373.8180, 2451.426
375.0190, 2757.902
376.2200, 3039.340
377.4210, 2695.742
378.6220, 2353.098
379.8220, 1949.422
381.0230, 2050.703
382.2230, 1987.949
383.4230, 1957.156
384.6220, 2040.320
385.8220, 1792.441
387.0220, 1561.523
388.2210, 1575.570
389.4200, 1167.570
390.6190, 1421.531
391.8180, 921.4570
393.0160, 968.3320
394.2150, 691.1719
395.4130, 894.9688
396.6110, 481.7188
397.8090, 532.4258
399.0060, 465.0820
400.2040, 361.6953
401.4010, 209.2578
402.5980, 91.76562
403.7950, 75.51562
404.9920, 19.08203
406.1890, 108.9258
407.3860, 52.81641
408.5820, 32.36328
409.7780, 136.4805
410.9740, 106.4531
412.1700, 449.5195
413.3650, 72.47656
414.5610, 239.3594
415.7560, 39.17969
416.9510, 246.8984
418.1460, 94.58984
419.3410, 303.2227
420.5360, 276.8047
421.7300, 729.3555
422.9240, 477.4023
424.1180, 727.6289
425.3120, 553.0195
426.5060, 683.8594
427.7000, 901.3438
428.8930, 555.4180
430.0860, 744.8555
431.2790, 769.4609
432.4720, 705.6953
433.6650, 903.0703
434.8580, 694.7383
436.0500, 622.7344
437.2420, 355.9961
438.4340, 554.8867
439.6260, 656.4727
440.8180, 643.3086
442.0090, 218.3711
443.2010, 343.1641
444.3920, 238.9180
445.5830, 146.1094
446.7740, 360.8594
447.9640, 8.304688
449.1550, 208.7305
450.3450, 174.7734
451.5350, 259.2344
452.7250, 125.3750
453.9150, 24.64844
455.1050, 127.9336
456.2940, 194.5586
457.4830, 179.5469
458.6720, 286.8359
459.8610, 686.3633
461.0500, 466.8359
462.2390, 892.2578
463.4270, 989.6250
464.6150, 915.9453
465.8040, 971.2109
466.9910, 1090.422
468.1790, 1371.586
469.3670, 1142.699
470.5540, 1248.766
471.7410, 1119.781
472.9280, 785.7539
474.1150, 784.7656
475.3020, 995.6445
476.4890, 772.4766
477.6750, 579.2656
478.8610, 729.0117
480.0470, 397.7109
481.2330, 634.3711
482.4190, 584.9883
483.6040, 475.5625
484.7900, 723.0938
485.9750, 608.5898
487.1600, 804.0430
488.3450, 1324.453
489.5290, 1098.824
490.7140, 1303.156
491.8980, 812.4492
493.0820, 1220.703
494.2660, 1211.918
495.4500, 1402.090
496.6340, 1423.234
497.8170, 1698.344
499.0010, 1769.422
500.1840, 1739.469
501.3670, 1981.484
502.5500, 2079.469
503.7320, 2306.434
504.9150, 2258.375
506.0970, 2160.340
507.2790, 2316.289
508.4610, 2263.219
509.6430, 2402.148
510.8250, 2320.066
512.0060, 2171.969
513.1870, 2750.852
514.3680, 2757.719
515.5490, 2737.586
516.7300, 2945.469
517.9110, 2927.359
519.0910, 3194.238
520.2710, 3558.098
521.4510, 4009.941
522.6310, 4301.785
523.8110, 4458.617
524.9910, 5376.430
526.1700, 5909.230
527.3490, 6059.023
528.5280, 6832.820
529.7070, 7435.598
530.8860, 8262.363
532.0650, 9017.117
533.2430, 9602.852
534.4210, 10000.53
535.5990, 10668.23
536.7770, 11141.96
537.9550, 11620.55
539.1320, 11752.42
540.3100, 11456.51
541.4870, 11344.33
542.6640, 10878.61
543.8410, 9718.645
545.0170, 9492.383
546.1940, 8675.945
547.3700, 8125.188
548.5470, 7732.246
549.7230, 7266.559
550.8980, 6780.625
552.0740, 6569.320
553.2500, 6274.555
554.4250, 6108.941
555.6000, 6113.434
556.7750, 5830.566
557.9500, 5905.691
559.1250, 5666.668
560.2990, 5888.328
561.4730, 5674.469
562.6480, 5781.402
563.8220, 5797.008
564.9950, 6052.109
566.1690, 6313.676
567.3430, 6206.543
568.5160, 6402.676
569.6890, 6537.625
570.8620, 7031.105
572.0350, 6827.914
573.2070, 6959.141
574.3800, 7039.688
575.5520, 6975.305
576.7240, 6962.949
577.8960, 6565.219
579.0680, 5863.430
580.2400, 5519.945
581.4110, 4715.262
582.5830, 4004.660
583.7540, 3288.965
584.9250, 2899.469
586.0950, 2312.680
587.2660, 1901.234
588.4370, 1818.547
589.6070, 1511.852
590.7770, 1140.793
591.9470, 1031.754
593.1170, 812.0977
594.2860, 726.1094
595.4560, 847.4961
596.6250, 687.3281
597.7940, 531.4453
598.9630, 206.7070
600.1320, 635.0742
601.3000, 254.4219
602.4690, 256.7539
603.6370, 491.0664
604.8050, 287.3594
605.9730, 164.6367
607.1410, 147.9023
608.3090, 44.14453
609.4760, 185.3750
610.6430, 59.58594
611.8100, 215.7773
612.9770, 147.9570
614.1440, 8.117188
615.3110, 347.2617
616.4770, 358.3867
617.6430, 296.5000
618.8090, 138.5977
619.9750, 131.6758
621.1410, 459.7422
622.3070, 86.79297
623.4720, 418.8242
624.6370, 277.9336
625.8020, 370.8438
626.9670, 288.8359
628.1320, 328.1094
629.2970, 390.7695
630.4610, 421.7109
631.6250, 519.6406
632.7890, 575.5586
633.9530, 775.4609
635.1170, 783.3477
636.2810, 720.2227
637.4440, 641.6562
638.6070, 1041.500
639.7700, 1045.336
640.9330, 2412.156
642.0960, 1631.961
643.2590, 2647.750
644.4210, 1851.531
645.5830, 1905.078
646.7450, 2287.379
647.9070, 2712.203
649.0690, 2892.582
650.2310, 3108.293
651.3920, 3322.992
652.5530, 3800.676
653.7140, 4149.348
654.8750, 4456.625
656.0360, 4797.812
657.1970, 4863.621
658.3570, 5070.703
659.5170, 5237.836
660.6770, 5125.422
661.8370, 5305.406
662.9970, 5029.969
664.1570, 4999.508
665.3160, 4602.820
666.4750, 4213.336
667.6340, 3800.230
668.7930, 3398.719
669.9520, 3257.191
671.1110, 2681.648
672.2690, 2080.094
673.4270, 2037.523
674.5850, 1352.941
675.7430, 1251.844
676.9010, 1045.242
678.0590, 1208.625
679.2160, 961.9727
680.3730, 708.7969
681.5300, 774.2773
682.6870, 216.0391
683.8440, 586.4922
685.0010, 766.8633
686.1570, 445.2422
687.3130, 485.6445
688.4690, 767.0547
689.6250, 135.4961
690.7810, 62.94531
691.9370, 149.3984
693.0920, 125.1094
694.2470, 172.2930
695.4020, 49.30078
696.5570, 1.058594
697.7120, 301.6094
698.8670, 79.46094
700.0210, 152.3711
701.1750, 136.3906
702.3290, 288.5078
703.4830, 153.8125
704.6370, 240.2305
705.7910, 144.8086
706.9440, 39.49609
708.0970, 23.24609
709.2510, 34.04297
710.4030, 53.89062
711.5560, 92.80859
712.7090, 145.8164
713.8610, 8.933594
715.0140, 110.0938
716.1660, 292.3633
717.3180, 39.81250
718.4690, 67.32812
719.6210, 62.08203
720.7730, 10.52734
721.9240, 89.18359
723.0750, 150.9297
724.2260, 6.210938
725.3770, 33.31641
726.5270, 280.3945
727.6780, 33.54297
728.8280, 244.4688
729.9780, 634.4648
731.1280, 167.4492
732.2780, 22.42188
733.4280, 309.3594
734.5770, 338.2891
735.7260, 187.2070
736.8760, 73.88672
738.0250, 168.9531
739.1730, 68.77734
740.3220, 111.5859
741.4700, 296.3789
742.6190, 521.1641
743.7670, 259.9297
744.9150, 321.6875
746.0630, 548.4375
747.2100, 677.1719
748.3580, 766.8945
749.5050, 557.6094
750.6520, 545.3125
751.7990, 861.0000
752.9460, 1035.602
754.0930, 1226.273
755.2390, 1119.934
756.3860, 1397.594
757.5320, 1433.238
758.6780, 1285.879
759.8240, 1555.508
760.9690, 1443.133
762.1150, 1394.746
763.2600, 1046.355
764.4060, 939.9609
765.5510, 881.5586
766.6950, 807.1523
767.8400, 473.7383
768.9850, 650.3242
770.1290, 380.8984
771.2730, 572.4727
772.4170, 537.0469
773.5610, 195.6133
774.7050, 36.82812
775.8480, 285.7109
776.9920, 337.2461
778.1350, 252.7773
779.2780, 29.30859
780.4210, 317.8398
781.5640, 86.37109
782.7060, 164.0977
783.8490, 0.3515630
784.9910, 12.79688
786.1330, 69.76172
787.2750, 65.64844
788.4170, 80.05469
789.5580, 334.4727
790.7000, 37.88672
791.8410, 57.69141
792.9820, 131.3008
794.1230, 108.9727
795.2640, 148.3750
796.4040, 293.0859
797.5450, 331.2578
798.6850, 56.33984
799.8250, 105.8320
800.9650, 47.67578
802.1050, 19.50781
803.2450, 220.0391
804.3840, 105.6406
805.5230, 129.0078
806.6630, 139.9961
807.8020, 253.3555
808.9400, 145.0195
810.0790, 105.1914
811.2170, 287.1172
812.3560, 17.51562
813.4940, 298.4141
814.6320, 127.7891
815.7700, 62.82812
816.9070, 18.44922
818.0450, 99.89844
819.1820, 69.69141
820.3190, 2.328125
821.4560, 44.05078
822.5930, 63.38672
823.7300, 290.8555
824.8670, 154.2852
826.0030, 243.7305
827.1390, 413.1953
828.2750, 136.5039
829.4110, 368.0039
830.5470, 184.3516
831.6820, 231.8906
832.8180, 251.8750
833.9530, 328.8008
835.0880, 339.1016
836.2230, 463.3164
837.3580, 338.0234
838.4920, 445.7617
839.6270, 700.9844
840.7610, 433.6953
841.8950, 349.0352
843.0290, 321.4062
844.1630, 728.1367
845.2960, 406.8555
846.4300, 535.9961
847.5630, 701.0117
848.6960, 629.8047
849.8290, 875.5039
850.9620, 753.2695
852.0940, 793.2227
853.2270, 898.9609
854.3590, 1056.172
855.4910, 1014.840
856.6230, 1205.816
857.7550, 1290.859
858.8870, 1407.430
860.0180, 1542.590
861.1500, 1399.887
862.2810, 1835.062
863.4120, 2158.648
864.5430, 2371.398
865.6730, 2162.590
866.8040, 2503.773
867.9340, 2624.508
869.0640, 2735.031
870.1940, 3153.559
871.3240, 3332.195
872.4540, 3395.105
873.5830, 3558.867
874.7130, 3251.887
875.8420, 3774.953
876.9710, 3425.074
878.1000, 3575.254
879.2290, 3679.480
880.3570, 3534.770
881.4860, 3412.129
882.6140, 3259.469
883.7420, 2895.969
884.8700, 2835.480
885.9980, 2597.051
887.1250, 2454.680
888.2530, 2334.363
889.3800, 2098.109
890.5070, 1977.914
891.6340, 1720.777
892.7610, 1546.703
893.8880, 1359.691
895.0140, 1216.742
896.1400, 1034.852
897.2670, 1009.023
898.3930, 736.2539
899.5180, 632.5547
900.6440, 576.9141
901.7700, 620.3359
902.8950, 841.8516
904.0200, 1308.430
905.1450, 479.0703
906.2700, 155.7773
907.3950, 462.5469
908.5190, 252.3867
909.6440, 154.2930
910.7680, 94.69141
911.8920, 69.73047
913.0160, 130.3867
914.1400, 45.01172
915.2630, 306.2539
916.3870, 193.5664
917.5100, 206.9609
918.6330, 415.6719
919.7560, 377.7227
920.8790, 485.3125
922.0010, 332.4375
923.1240, 479.3047
924.2460, 312.2695
925.3680, 512.3047
926.4900, 318.4141
927.6120, 392.7930
928.7340, 149.6875
929.8550, 468.8438
930.9760, 528.2539
932.0980, 325.7773
933.2190, 179.3672
934.3390, 316.6289
935.4600, 304.3789
936.5810, 426.2070
937.7010, 460.8789
938.8210, 557.4219
939.9410, 582.1758
941.0610, 615.4180
942.1810, 773.2578
943.3010, 482.1406
944.4200, 822.6680
945.5390, 779.2969
946.6580, 644.0039
947.7770, 785.3008
948.8960, 672.1797
950.0150, 1095.137
951.1330, 1122.199
952.2510, 1301.867
953.3690, 1159.695
954.4870, 1345.926
955.6050, 1703.262
956.7230, 2106.789
957.8400, 2554.461
958.9580, 2813.219
960.0750, 3178.082
961.1920, 3800.066
962.3090, 4194.137
963.4250, 4477.305
964.5420, 4796.555
965.6580, 5302.961
966.7740, 5488.477
967.8900, 5606.133
969.0060, 5484.887
970.1220, 5440.812
971.2380, 5005.863
972.3530, 4487.059
973.4680, 4163.391
974.5830, 3580.895
975.6980, 3267.543
976.8130, 3044.348
977.9280, 2592.312
979.0420, 2206.387
980.1560, 2223.566
981.2710, 2120.852
982.3850, 1901.250
983.4980, 2214.770
984.6120, 1878.426
985.7260, 1372.184
986.8390, 1609.059
987.9520, 1675.109
989.0650, 1691.277
990.1780, 1294.555
991.2910, 1428.918
992.4030, 1309.395
993.5160, 1254.992
994.6280, 1280.316
995.7400, 1285.516
996.8520, 1287.473
997.9640, 1269.477
999.0750, 1360.586
1000.187, 1330.816
1001.298, 1284.496
1002.409, 1339.434
1003.520, 1110.930
1004.631, 1103.539
1005.741, 959.2266
1006.852, 1134.027
1007.962, 1089.941
1009.072, 1099.668
1010.182, 1237.016
1011.292, 1034.184
1012.402, 1334.473
1013.511, 1124.859
1014.621, 1261.328
1015.730, 1544.879
1016.839, 1228.512
1017.948, 1372.227
1019.056, 1434.020
1020.165, 1210.902
1021.273, 1278.859
1022.382, 1109.910
1023.490, 1298.035
1024.598, 1579.242
1025.706, 1776.547
1026.813, 1761.930
1027.921, 1915.160
1029.028, 2096.930
1030.135, 2003.555
1031.242, 2093.258
1032.349, 2154.039
1033.456, 2378.902
1034.562, 2243.840
1035.668, 2728.496
1036.775, 2523.586
1037.881, 2238.762
1038.987, 2646.016
1040.092, 2665.344
1041.198, 2564.750
1042.303, 2386.238
1043.408, 2405.168
1044.514, 2364.449
1045.618, 2237.180
1046.723, 2236.984
1047.828, 1944.867
1048.932, 1796.824
1050.037, 1786.496
1051.141, 1958.277
1052.245, 1921.570
1053.349, 1955.738
1054.452, 2024.207
1055.556, 1937.785
1056.659, 1839.484
1057.762, 1756.086
1058.865, 1873.754
1059.968, 1981.496
1061.071, 2068.492
1062.174, 2094.684
1063.276, 2138.410
1064.378, 2143.215
1065.480, 2190.363
1066.582, 2282.574
1067.684, 2367.871
1068.786, 2389.633
1069.887, 2528.258
1070.988, 2488.754
1072.090, 2583.219
1073.191, 2708.734
1074.291, 2786.441
1075.392, 2953.211
1076.493, 3175.199
1077.593, 3293.754
1078.693, 3532.711
1079.793, 3736.875
1080.893, 3755.949
1081.993, 4386.266
1083.092, 4206.457
1084.192, 3900.719
1085.291, 4305.812
1086.390, 3662.871
1087.489, 3343.941
1088.588, 3383.742
1089.686, 2927.617
1090.785, 3038.496
1091.883, 2873.512
1092.981, 2775.656
1094.079, 2726.434
1095.177, 2788.828
1096.275, 2752.727
1097.373, 2491.805
1098.470, 2573.938
1099.567, 2444.383
1100.664, 2170.484
1101.761, 2156.629
1102.858, 2307.820
1103.954, 2524.840
1105.051, 2396.125
1106.147, 2363.469
1107.243, 1995.824
1108.339, 2442.250
1109.435, 2446.711
1110.531, 2071.219
1111.626, 2211.766
1112.722, 2143.348
1113.817, 2258.969
1114.912, 2189.625
1116.007, 2041.316
1117.101, 2168.051
1118.196, 1989.816
1119.290, 2191.613
1120.385, 1993.938
1121.479, 2265.801
1122.573, 1939.699
1123.666, 1918.102
1124.760, 1767.070
1125.853, 1796.164
1126.947, 1409.199
1128.040, 1776.254
1129.133, 1697.344
1130.226, 1213.465
1131.318, 1301.062
1132.411, 1363.992
1133.503, 1257.188
1134.596, 1586.477
1135.688, 1462.746
1136.780, 892.0078
1137.871, 1140.387
1138.963, 1046.098
1140.054, 928.5273
1141.146, 1004.906
1142.237, 787.0586
1143.328, 454.9844
1144.419, 620.1836
1145.509, 479.7148
1146.600, 767.1836
1147.690, 481.6680
1148.780, 379.1758
1149.870, 269.6914
1150.960, 313.2227
1152.050, 470.7734
1153.139, 436.0703
1154.229, 417.6484
1155.318, 384.2578
1156.407, 239.2500
1157.496, 160.2500
1158.585, 242.8945
1159.674, 109.5586
1160.762, 369.2266
1161.850, 435.9062
1162.939, 143.5898
1164.027, 20.35156
1165.114, 172.1172
1166.202, 157.1094
1167.290, 560.6250
1168.377, 58.36328
1169.464, 277.1133
1170.551, 123.8633
1171.638, 204.6250
1172.725, 248.5117
1173.812, 246.2891
1174.898, 196.0586
1175.984, 254.8398
1177.071, 18.63281
1178.157, 221.4258
1179.242, 266.2812
1180.328, 92.91797
1181.414, 111.1562
1182.499, 188.4375
1183.584, 111.1992
1184.669, 199.1641
1185.754, 53.62109
1186.839, 110.1016
1187.924, 318.9023
1189.008, 147.3633
1190.092, 286.8242
1191.177, 25.72266
1192.260, 80.71484
1193.344, 284.1406
1194.428, 140.4375
1195.512, 77.90625
1196.595, 14.24609
1197.678, 79.57422
1198.761, 13.89453
1199.844, 230.5781
1200.927, 137.6016
1202.009, 129.2188
1203.092, 40.12891
1204.174, 309.9297
1205.256, 106.9648
1206.338, 194.0039
1207.420, 47.09375
1208.502, 44.77344
1209.583, 17.10547
1210.665, 157.8867
1211.746, 27.23438
1212.827, 231.0195
1213.908, 187.7852
1214.988, 104.4648
1216.069, 83.79688
1217.149, 25.78906
1218.230, 22.64453
1219.310, 204.1289
1220.390, 45.25000
1221.470, 42.40234
1222.549, 130.1094
1223.629, 73.07422
1224.708, 0.7617190
1225.787, 106.2344
1226.866, 57.66797
1227.945, 56.37500
1229.024, 59.46875
1230.103, 202.9219
1231.181, 350.6328
1232.259, 391.7539
1233.337, 8.085938
1234.415, 173.1562
1235.493, 123.0586
1236.571, 58.72656
1237.648, 301.0859
1238.726, 21.78906
1239.803, 215.6172
1240.880, 229.3086
1241.957, 345.3594
1243.034, 239.6953
1244.110, 202.4805
1245.187, 386.9883
1246.263, 449.3633
1247.339, 318.0820
1248.415, 440.4883
1249.491, 109.5664
1250.566, 176.3828
1251.642, 414.7891
1252.717, 44.99609
1253.793, 403.2031
1254.868, 154.3828
1255.943, 468.2500
1257.017, 420.6367
1258.092, 440.4492
1259.166, 380.1094
1260.241, 137.1367
1261.315, 80.17969
1262.389, 366.1250
1263.462, 37.96875
1264.536, 4.164063
1265.610, 352.5586
1266.683, 0.6992190
1267.756, 164.9023
1268.829, 198.4688
1269.902, 286.0039
1270.975, 144.5000
1272.048, 34.04297
1273.120, 50.30859
1274.192, 210.5898
1275.264, 407.8359
1276.336, 362.0508
1277.408, 417.2305
1278.480, 395.3789
1279.551, 262.4961
1280.623, 341.5742
1281.694, 121.6211
1282.765, 274.1797
1283.836, 336.8594
1284.907, 107.8047
1285.977, 204.6953
1287.048, 260.5508
1288.118, 354.0820
1289.188, 302.1484
1290.258, 540.8906
1291.328, 590.7305
1292.398, 287.8789
1293.467, 455.5234
1294.537, 368.1328
1295.606, 422.5586
1296.675, 631.2266
1297.744, 376.7266
1298.813, 409.1914
1299.882, 363.2930
1300.950, 189.6758
1302.018, 429.9727
1303.086, 360.2734
1304.155, 632.0117
1305.222, 497.2969
