##NAMES=Riebeckite
##RRUFFID=R050082
##IDEAL CHEMISTRY=[box]Na_2_(Fe^2+^_3_Fe^3+^_2_)Si_8_O_22_(OH)_2_
##LOCALITY=Mt. Malosa, Zomba, Chilwa, Alkaline Area, Malawi
##OWNER=RRUFF
##SOURCE=Rock Currier
##DESCRIPTION=Black elongated prisms
##STATUS=The identification of this mineral has been confirmed by X-ray diffraction and chemical analysis
##URL=rruff.info/R050082
##MEASURED CHEMISTRY=([box]_0.63_Na_0.19_K_0.18_)(Na_1.58_Ca_0.42_)_Σ=2_Fe^2+^_3.00_(Fe^3+^_1.30_Fe^2+^_0.45_Mn_0.15_Mg_0.05_Ti_0.05_)_Σ=2_(Si_0.98_Al_0.02_)_8_O_22_(OH)_2_
##PIN_ID=L00416
##ORIENTATION=Laser parallel to (-1 0 -1). Fiducial mark perpendicular to laser is parallel to b [0 1 0]
154.7620, 0.0000000E+00
155.9950, 187.3672
157.2280, 54.90625
158.4600, 70.51172
159.6920, 271.5469
160.9250, 880.6562
162.1560, 1095.570
163.3880, 2100.488
164.6200, 2724.566
165.8510, 2881.797
167.0820, 2915.031
168.3130, 3002.371
169.5440, 2984.270
170.7750, 2870.371
172.0050, 2900.848
173.2350, 2615.531
174.4650, 2645.059
175.6950, 2679.961
176.9250, 3107.117
178.1550, 3463.699
179.3840, 4060.098
180.6130, 4332.879
181.8420, 4811.660
183.0710, 5398.176
184.3000, 6492.211
185.5280, 7717.594
186.7570, 8962.582
187.9850, 10529.45
189.2130, 11609.77
190.4400, 12920.03
191.6680, 13867.88
192.8960, 14550.34
194.1230, 14814.55
195.3500, 14931.48
196.5770, 14714.36
197.8030, 14186.43
199.0300, 13718.84
200.2560, 13680.74
201.4830, 13497.27
202.7090, 13133.54
203.9340, 11187.64
205.1600, 9354.156
206.3860, 7800.168
207.6110, 7469.250
208.8360, 7315.457
210.0610, 7872.844
211.2860, 7978.453
212.5100, 8345.320
213.7350, 8261.445
214.9590, 8308.977
216.1830, 7722.836
217.4070, 7409.070
218.6310, 6676.750
219.8540, 6267.332
221.0780, 6104.941
222.3010, 5685.191
223.5240, 5493.922
224.7470, 5751.355
225.9690, 5455.508
227.1920, 5481.617
228.4140, 5276.102
229.6360, 5619.828
230.8580, 5506.312
232.0800, 5598.570
233.3020, 5305.836
234.5230, 4936.051
235.7440, 4792.703
236.9650, 4442.910
238.1860, 3974.438
239.4070, 3619.188
240.6280, 3390.113
241.8480, 2675.211
243.0680, 2438.445
244.2880, 1917.809
245.5080, 1713.273
246.7280, 1558.840
247.9470, 1288.477
249.1660, 1181.148
250.3860, 1347.852
251.6040, 1388.570
252.8230, 1227.301
254.0420, 602.2812
255.2600, 986.3984
256.4790, 1212.492
257.6970, 1289.027
258.9150, 768.1602
260.1320, 1018.645
261.3500, 959.9453
262.5670, 888.4961
263.7840, 1247.324
265.0010, 812.9570
266.2180, 1475.336
267.4350, 1083.344
268.6510, 1190.211
269.8680, 990.9492
271.0840, 1144.555
272.3000, 908.0312
273.5160, 997.3750
274.7310, 747.5898
275.9470, 781.6719
277.1620, 757.3086
278.3770, 642.7422
279.5920, 321.9688
280.8070, 229.4336
282.0210, 216.9414
283.2360, 7.921875
284.4500, 61.55469
285.6640, 162.6758
286.8780, 248.1367
288.0920, 439.2070
289.3050, 425.1680
290.5180, 504.3457
291.7320, 383.6914
292.9450, 545.9297
294.1570, 420.6133
295.3700, 415.9844
296.5830, 305.0977
297.7950, 291.7461
299.0070, 260.1445
300.2190, 254.4805
301.4310, 128.7266
302.6420, 0.3398440
303.8540, 126.1016
305.0650, 239.0312
306.2760, 271.1133
307.4870, 441.5469
308.6980, 518.0312
309.9080, 748.5605
311.1190, 855.4355
312.3290, 1104.730
313.5390, 1196.406
314.7490, 1286.701
315.9580, 1376.182
317.1680, 1389.881
318.3770, 1371.125
319.5860, 1524.625
320.7950, 1680.598
322.0040, 1526.664
323.2130, 1686.461
324.4210, 1983.832
325.6290, 1847.912
326.8380, 2324.164
328.0460, 2188.807
329.2530, 2400.957
330.4610, 2503.406
331.6680, 2605.754
332.8760, 2754.543
334.0830, 2696.324
335.2890, 3183.045
336.4960, 3474.148
337.7030, 3508.363
338.9090, 3717.883
340.1150, 4189.762
341.3210, 4673.367
342.5270, 5167.445
343.7330, 5722.391
344.9380, 6257.035
346.1440, 6734.887
347.3490, 7081.568
348.5540, 7288.084
349.7590, 7534.438
350.9630, 8158.625
352.1680, 8098.662
353.3720, 8080.545
354.5760, 8372.285
355.7800, 8158.873
356.9840, 8119.322
358.1870, 8141.629
359.3910, 7721.801
360.5940, 7779.840
361.7970, 7679.744
363.0000, 7736.502
364.2030, 7481.082
365.4050, 7447.324
366.6080, 7411.043
367.8100, 7319.998
369.0120, 7172.201
370.2140, 7062.627
371.4150, 6880.027
372.6170, 6621.740
373.8180, 6393.637
375.0190, 6327.367
376.2200, 5874.004
377.4210, 5645.555
378.6220, 5156.039
379.8220, 4889.461
381.0230, 4362.816
382.2230, 4161.102
383.4230, 3727.316
384.6220, 3348.457
385.8220, 3131.529
387.0220, 2868.525
388.2210, 2592.445
389.4200, 2418.291
390.6190, 2274.061
391.8180, 1876.754
393.0160, 1820.369
394.2150, 1632.914
395.4130, 1270.377
396.6110, 1393.768
397.8090, 936.0801
399.0060, 823.1406
400.2040, 990.2949
401.4010, 616.3691
402.5980, 589.3574
403.7950, 406.2656
404.9920, 346.5625
406.1890, 348.5156
407.3860, 314.4375
408.5820, 388.9707
409.7780, 336.4160
410.9740, 355.7695
412.1700, 500.0332
413.3650, 819.2148
414.5610, 1034.324
415.7560, 839.3594
416.9510, 1133.320
418.1460, 1090.213
419.3410, 940.0371
420.5360, 1424.789
421.7300, 1437.471
422.9240, 1684.910
424.1180, 1597.916
425.3120, 1930.047
426.5060, 1736.939
427.7000, 1678.975
428.8930, 1877.529
430.0860, 1622.652
431.2790, 1539.330
432.4720, 1449.939
433.6650, 1342.357
434.8580, 1104.734
436.0500, 941.6172
437.2420, 844.2480
438.4340, 502.6895
439.6260, 240.3789
440.8180, 335.0000
442.0090, 171.4512
443.2010, 211.8770
444.3920, 143.6582
445.5830, 240.7461
446.7740, 307.7676
447.9640, 54.00586
449.1550, 330.0137
450.3450, 213.2363
451.5350, 9.470703
452.7250, 126.7734
453.9150, 176.3105
455.1050, 36.80664
456.2940, 61.54297
457.4830, 123.2109
458.6720, 19.94336
459.8610, 258.8633
461.0500, 76.81836
462.2390, 55.74023
463.4270, 134.5586
464.6150, 39.98438
465.8040, 155.0137
466.9910, 197.7402
468.1790, 108.4746
469.3670, 198.1484
470.5540, 311.9531
471.7410, 182.5625
472.9280, 307.0703
474.1150, 303.4785
475.3020, 408.7891
476.4890, 377.1465
477.6750, 349.1270
478.8610, 445.1562
480.0470, 150.0996
481.2330, 468.9395
482.4190, 565.6934
483.6040, 1239.363
484.7900, 571.9492
485.9750, 1278.455
487.1600, 1218.883
488.3450, 822.2344
489.5290, 909.5039
490.7140, 981.6973
491.8980, 1155.811
493.0820, 1234.635
494.2660, 1375.527
495.4500, 1476.705
496.6340, 1619.520
497.8170, 1780.258
499.0010, 1846.926
500.1840, 1963.838
501.3670, 2035.037
502.5500, 2048.484
503.7320, 2334.859
504.9150, 2222.164
506.0970, 2328.400
507.2790, 2478.566
508.4610, 2395.662
509.6430, 2573.695
510.8250, 2741.664
512.0060, 2714.570
513.1870, 2965.424
514.3680, 3294.219
515.5490, 3368.969
516.7300, 3245.664
517.9110, 3787.312
519.0910, 3692.914
520.2710, 4110.463
521.4510, 4349.967
522.6310, 4533.428
523.8110, 4651.840
524.9910, 5113.234
526.1700, 5184.582
527.3490, 5579.906
528.5280, 5986.240
529.7070, 5995.523
530.8860, 6105.857
532.0650, 6671.201
533.2430, 6775.627
534.4210, 6773.102
535.5990, 6869.629
536.7770, 6982.184
537.9550, 7070.734
539.1320, 7206.271
540.3100, 6928.299
541.4870, 7024.879
542.6640, 6890.211
543.8410, 6609.020
545.0170, 6655.795
546.1940, 6350.117
547.3700, 6432.723
548.5470, 6306.232
549.7230, 6475.518
550.8980, 6154.748
552.0740, 6083.371
553.2500, 6012.287
554.4250, 5869.707
555.6000, 5946.775
556.7750, 5481.777
557.9500, 5801.945
559.1250, 5622.973
560.2990, 5352.998
561.4730, 5355.527
562.6480, 5248.475
563.8220, 5041.436
564.9950, 5467.361
566.1690, 5017.359
567.3430, 4629.115
568.5160, 4563.947
569.6890, 3974.787
570.8620, 3949.641
572.0350, 3734.537
573.2070, 3131.504
574.3800, 2749.580
575.5520, 2448.773
576.7240, 2060.100
577.8960, 2248.527
579.0680, 1517.098
580.2400, 1481.594
581.4110, 1175.975
582.5830, 788.1914
583.7540, 568.5273
584.9250, 746.4375
586.0950, 1349.020
587.2660, 921.5176
588.4370, 620.9277
589.6070, 1021.297
590.7770, 166.3594
591.9470, 111.7773
593.1170, 143.1992
594.2860, 508.0938
595.4560, 220.9062
596.6250, 252.1016
597.7940, 178.9648
598.9630, 40.72266
600.1320, 134.5312
601.3000, 116.9727
602.4690, 254.9570
603.6370, 241.7891
604.8050, 15.89844
605.9730, 241.1016
607.1410, 57.95312
608.3090, 135.4766
609.4760, 90.80859
610.6430, 21.77734
611.8100, 141.4297
612.9770, 276.6836
614.1440, 384.7148
615.3110, 464.8750
616.4770, 579.6328
617.6430, 618.7656
618.8090, 764.3164
619.9750, 743.2070
621.1410, 1042.270
622.3070, 1113.789
623.4720, 1275.715
624.6370, 1516.699
625.8020, 1495.652
626.9670, 1918.266
628.1320, 1890.547
629.2970, 2483.465
630.4610, 2757.375
631.6250, 2635.797
632.7890, 3013.863
633.9530, 3011.012
635.1170, 3361.867
636.2810, 3644.707
637.4440, 3982.535
638.6070, 4371.348
639.7700, 4781.148
640.9330, 5105.934
642.0960, 5561.715
643.2590, 6130.477
644.4210, 6715.227
645.5830, 7443.969
646.7450, 7954.699
647.9070, 9163.418
649.0690, 10048.12
650.2310, 10979.82
651.3920, 12408.51
652.5530, 14135.19
653.7140, 15319.85
654.8750, 17159.51
656.0360, 19055.16
657.1970, 20805.79
658.3570, 23013.41
659.5170, 25131.04
660.6770, 27106.65
661.8370, 29600.73
662.9970, 30063.33
664.1570, 30942.70
665.3160, 32066.27
666.4750, 30674.61
667.6340, 29443.41
668.7930, 27833.95
669.9520, 25321.92
671.1110, 22617.34
672.2690, 20271.66
673.4270, 18006.95
674.5850, 15073.70
675.7430, 12806.14
676.9010, 11397.95
678.0590, 10440.04
679.2160, 9000.844
680.3730, 7914.281
681.5300, 7285.223
682.6870, 6631.770
683.8440, 6298.348
685.0010, 5777.652
686.1570, 5507.816
687.3130, 5020.711
688.4690, 5068.836
689.6250, 4924.059
690.7810, 4941.840
691.9370, 4842.453
693.0920, 4633.578
694.2470, 4380.066
695.4020, 4432.594
696.5570, 4659.066
697.7120, 4799.270
698.8670, 4637.996
700.0210, 4736.141
701.1750, 4563.262
702.3290, 4699.910
703.4830, 4579.965
704.6370, 4884.992
705.7910, 4694.988
706.9440, 4964.953
708.0970, 4851.895
709.2510, 4975.801
710.4030, 4882.922
711.5560, 4624.531
712.7090, 4668.348
713.8610, 4686.133
715.0140, 4689.895
716.1660, 4651.621
717.3180, 4596.312
718.4690, 4495.980
719.6210, 4377.609
720.7730, 4695.227
721.9240, 4513.809
723.0750, 4248.375
724.2260, 4393.914
725.3770, 3765.426
726.5270, 4260.000
727.6780, 3972.648
728.8280, 3789.301
729.9780, 3774.039
731.1280, 3639.691
732.2780, 3540.465
733.4280, 3295.266
734.5770, 3148.105
735.7260, 3175.949
736.8760, 2982.773
738.0250, 2699.402
739.1730, 2699.082
740.3220, 2469.043
741.4700, 2583.918
742.6190, 2162.879
743.7670, 2272.590
744.9150, 2143.566
746.0630, 1773.727
747.2100, 1873.746
748.3580, 1928.703
749.5050, 1837.414
750.6520, 1624.195
751.7990, 1676.961
752.9460, 1463.707
754.0930, 1240.434
755.2390, 1325.137
756.3860, 1310.820
757.5320, 1329.484
758.6780, 1461.125
759.8240, 1365.895
760.9690, 1364.125
762.1150, 1213.938
763.2600, 1174.496
764.4060, 1018.035
765.5510, 787.5469
766.6950, 1162.039
767.8400, 937.5078
768.9850, 866.9531
770.1290, 1016.383
771.2730, 954.7852
772.4170, 842.1680
773.5610, 614.5312
774.7050, 500.8750
775.8480, 623.1992
776.9920, 685.5039
778.1350, 806.7852
779.2780, 672.0547
780.4210, 452.3008
781.5640, 541.5273
782.7060, 501.7422
783.8490, 389.9375
784.9910, 386.1094
786.1330, 409.2695
787.2750, 415.4102
788.4170, 313.5391
789.5580, 367.6523
790.7000, 313.7422
791.8410, 200.8281
792.9820, 189.8945
794.1230, 190.9492
795.2640, 219.9922
796.4040, 175.5508
797.5450, 257.0312
798.6850, 63.25391
799.8250, 99.08203
800.9650, 38.01953
802.1050, 105.8789
803.2450, 24.23828
804.3840, 112.4180
805.5230, 119.3008
806.6630, 292.9922
807.8020, 158.4883
808.9400, 397.1094
810.0790, 302.9883
811.2170, 312.0664
812.3560, 213.3516
813.4940, 77.78906
814.6320, 68.30859
815.7700, 320.8984
816.9070, 189.6953
818.0450, 295.6328
819.1820, 259.7539
820.3190, 390.0469
821.4560, 324.5742
822.5930, 197.3047
823.7300, 14.16406
824.8670, 377.0625
826.0030, 142.1797
827.1390, 281.3945
828.2750, 233.7812
829.4110, 372.3086
830.5470, 190.0508
831.6820, 241.9062
832.8180, 44.89844
833.9530, 134.0703
835.0880, 127.9609
836.2230, 106.9375
837.3580, 47.83594
838.4920, 201.2578
839.6270, 230.5469
840.7610, 238.3516
841.8950, 347.1641
843.0290, 319.9844
844.1630, 598.8086
845.2960, 644.8438
846.4300, 619.4883
847.5630, 831.3398
848.6960, 788.1992
849.8290, 739.0781
850.9620, 1211.961
852.0940, 1223.855
853.2270, 1502.762
854.3590, 1481.684
855.4910, 1998.617
856.6230, 2059.562
857.7550, 2436.523
858.8870, 2767.500
860.0180, 2946.492
861.1500, 3176.500
862.2810, 3390.527
863.4120, 3931.566
864.5430, 4101.094
865.6730, 4282.699
866.8040, 4686.789
867.9340, 4865.906
869.0640, 5207.031
870.1940, 5749.180
871.3240, 6310.340
872.4540, 6721.527
873.5830, 6536.730
874.7130, 6882.957
875.8420, 6930.156
876.9710, 7391.539
878.1000, 7185.930
879.2290, 7103.387
880.3570, 7446.871
881.4860, 7208.426
882.6140, 7330.016
883.7420, 7278.652
884.8700, 7317.328
885.9980, 7154.027
887.1250, 7018.750
888.2530, 6778.500
889.3800, 6770.277
890.5070, 6497.082
891.6340, 6389.906
892.7610, 5974.766
893.8880, 5833.656
895.0140, 5925.578
896.1400, 5538.559
897.2670, 5903.570
898.3930, 5286.613
899.5180, 5532.691
900.6440, 5238.801
901.7700, 4838.988
902.8950, 5169.207
904.0200, 4813.473
905.1450, 4819.781
906.2700, 4796.168
907.3950, 4952.582
908.5190, 4622.031
909.6440, 4515.520
910.7680, 4432.039
911.8920, 4481.594
913.0160, 4081.238
914.1400, 4269.930
915.2630, 4125.703
916.3870, 4420.508
917.5100, 4113.367
918.6330, 3989.273
919.7560, 3938.246
920.8790, 4003.254
922.0010, 3963.336
923.1240, 3861.559
924.2460, 4061.836
925.3680, 3593.184
926.4900, 3790.574
927.6120, 3627.055
928.7340, 3512.586
929.8550, 3774.223
930.9760, 3481.902
932.0980, 3702.676
933.2190, 3616.508
934.3390, 3633.957
935.4600, 3450.949
936.5810, 3583.215
937.7010, 3776.340
938.8210, 4181.762
939.9410, 4200.828
941.0610, 4073.223
942.1810, 4424.270
943.3010, 4474.902
944.4200, 4590.668
945.5390, 4794.504
946.6580, 4669.918
947.7770, 4657.688
948.8960, 4794.156
950.0150, 5143.391
951.1330, 5103.941
952.2510, 5345.914
953.3690, 5686.426
954.4870, 5850.379
955.6050, 5766.367
956.7230, 5938.684
957.8400, 5924.199
958.9580, 6199.078
960.0750, 6352.785
961.1920, 6445.469
962.3090, 6290.656
963.4250, 6299.078
964.5420, 6103.078
965.6580, 6378.840
966.7740, 6190.691
967.8900, 6188.734
969.0060, 6254.164
970.1220, 6011.164
971.2380, 6031.812
972.3530, 6013.539
973.4680, 5750.785
974.5830, 5821.676
975.6980, 5561.664
976.8130, 5339.758
977.9280, 5631.941
979.0420, 5523.211
980.1560, 5181.566
981.2710, 5747.004
982.3850, 5384.523
983.4980, 4869.156
984.6120, 4988.879
985.7260, 5140.684
986.8390, 5135.570
987.9520, 5273.543
989.0650, 5249.598
990.1780, 5472.742
991.2910, 5821.969
992.4030, 5514.285
993.5160, 5430.684
994.6280, 5726.168
995.7400, 6027.738
996.8520, 5909.391
997.9640, 6180.141
999.0750, 5960.973
1000.187, 6333.898
1001.298, 6556.902
1002.409, 6533.992
1003.520, 6541.172
1004.631, 6964.438
1005.741, 6979.781
1006.852, 7111.219
1007.962, 7218.766
1009.072, 7295.398
1010.182, 7355.109
1011.292, 7449.910
1012.402, 7200.785
1013.511, 7434.758
1014.621, 7601.812
1015.730, 7219.949
1016.839, 7799.168
1017.948, 7412.473
1019.056, 7477.852
1020.165, 7844.320
1021.273, 7681.871
1022.382, 7745.500
1023.490, 7797.422
1024.598, 7876.219
1025.706, 7987.039
1026.813, 8065.395
1027.921, 8205.469
1029.028, 8193.941
1030.135, 8225.168
1031.242, 8527.480
1032.349, 8784.898
1033.456, 8957.367
1034.562, 8860.156
1035.668, 8775.781
1036.775, 9197.738
1037.881, 9553.035
1038.987, 9507.203
1040.092, 9455.148
1041.198, 9293.172
1042.303, 9291.277
1043.408, 9197.434
1044.514, 9075.031
1045.618, 9094.395
1046.723, 8885.250
1047.828, 8848.312
1048.932, 8825.879
1050.037, 8624.449
1051.141, 8407.094
1052.245, 8126.535
1053.349, 8221.395
1054.452, 7972.617
1055.556, 7886.176
1056.659, 7902.168
1057.762, 7518.566
1058.865, 7752.781
1059.968, 7793.336
1061.071, 7486.066
1062.174, 7232.441
1063.276, 7282.930
1064.378, 7191.586
1065.480, 6979.816
1066.582, 6922.188
1067.684, 6834.129
1068.786, 6682.137
1069.887, 6527.773
1070.988, 6446.262
1072.090, 6314.000
1073.191, 6091.926
1074.291, 6156.254
1075.392, 6135.695
1076.493, 6040.484
1077.593, 5646.883
1078.693, 5639.145
1079.793, 5476.988
1080.893, 5313.035
1081.993, 5359.938
1083.092, 5010.516
1084.192, 5054.266
1085.291, 4941.324
1086.390, 4900.352
1087.489, 4707.109
1088.588, 4558.941
1089.686, 4566.633
1090.785, 4212.539
1091.883, 4170.934
1092.981, 4192.617
1094.079, 3913.270
1095.177, 3735.062
1096.275, 3761.902
1097.373, 3823.387
1098.470, 3726.898
1099.567, 3654.418
1100.664, 3581.734
1101.761, 3614.219
1102.858, 3393.820
1103.954, 3322.332
1105.051, 3353.883
1106.147, 3205.418
1107.243, 3383.871
1108.339, 2948.559
1109.435, 3172.508
1110.531, 2799.082
1111.626, 2867.918
1112.722, 2703.785
1113.817, 2657.688
1114.912, 2535.312
1116.007, 2585.285
1117.101, 2400.285
1118.196, 2394.680
1119.290, 2511.387
1120.385, 2315.605
1121.479, 2311.043
1122.573, 2274.266
1123.666, 2139.852
1124.760, 1996.062
1125.853, 1711.301
1126.947, 1720.766
1128.040, 1393.070
1129.133, 1358.496
1130.226, 1164.668
1131.318, 1279.117
1132.411, 1161.078
1133.503, 1173.086
1134.596, 1076.430
1135.688, 993.8828
1136.780, 965.7578
1137.871, 939.2305
1138.963, 821.7695
1140.054, 786.2617
1141.146, 531.8555
1142.237, 600.4219
1143.328, 506.0039
1144.419, 319.6523
1145.509, 343.2656
1146.600, 204.8945
1147.690, 425.5391
1148.780, 194.1953
1149.870, 192.8633
1150.960, 184.5469
1152.050, 48.23828
1153.139, 90.94141
1154.229, 13.46094
1155.318, 155.3672
1156.407, 22.42188
1157.496, 47.31641
1158.585, 55.30859
1159.674, 186.3555
1160.762, 160.1094
1161.850, 172.7930
1162.939, 51.45312
1164.027, 42.22266
1165.114, 242.0977
1166.202, 159.4961
1167.290, 81.91797
1168.377, 86.34766
1169.464, 196.6797
1170.551, 78.78516
1171.638, 73.24609
1172.725, 75.70703
1173.812, 155.2578
1174.898, 109.7109
1175.984, 226.8359
1177.071, 45.42188
1178.157, 192.0977
1179.242, 95.64844
1180.328, 51.12500
1181.414, 48.92969
1182.499, 98.76172
1183.584, 49.35156
1184.669, 120.5430
1185.754, 392.5039
1186.839, 56.67969
1187.924, 110.9023
1189.008, 24.07031
1190.092, 152.8320
1191.177, 37.23047
1192.260, 237.6562
1193.344, 104.7578
1194.428, 138.8398
1195.512, 48.21875
1196.595, 221.9648
1197.678, 1.855469
1198.761, 0.2265630
1199.844, 87.21094
1200.927, 65.32812
1202.009, 192.8594
1203.092, 122.0977
1204.174, 64.44531
1205.256, 146.1367
1206.338, 159.5742
1207.420, 318.2383
1208.502, 186.7539
1209.583, 166.2500
1210.665, 26.27344
1211.746, 136.1328
1212.827, 361.6680
1213.908, 190.5703
1214.988, 229.6836
1216.069, 184.0156
1217.149, 8.296875
1218.230, 285.5156
1219.310, 211.7031
1220.390, 4.859375
1221.470, 136.9492
1222.549, 63.00781
1223.629, 176.0195
1224.708, 127.0000
1225.787, 18.94922
1226.866, 136.0898
1227.945, 226.3867
1229.024, 210.8398
1230.103, 154.9062
1231.181, 75.44922
1232.259, 63.55859
1233.337, 206.7969
1234.415, 260.7109
1235.493, 134.5898
1236.571, 46.41797
1237.648, 17.17969
1238.726, 157.0312
1239.803, 90.66016
1240.880, 276.2930
1241.957, 403.8242
1243.034, 232.3203
1244.110, 17.23438
1245.187, 409.1055
1246.263, 357.4023
1247.339, 226.7305
1248.415, 597.9453
1249.491, 200.1484
1250.566, 185.3047
1251.642, 220.4141
1252.717, 133.4805
1253.793, 251.4883
1254.868, 273.4531
1255.943, 212.3750
1257.017, 252.2461
1258.092, 158.2969
1259.166, 132.3320
1260.241, 247.0430
1261.315, 255.7070
1262.389, 247.3281
1263.462, 180.8984
1264.536, 367.4180
1265.610, 220.8867
1266.683, 184.3086
1267.756, 62.67188
1268.829, 322.9492
1269.902, 328.1719
1270.975, 497.3555
1272.048, 640.4883
1273.120, 194.5742
1274.192, 535.6016
1275.264, 587.5820
1276.336, 323.5117
1277.408, 455.3945
1278.480, 403.2305
1279.551, 379.0117
1280.623, 393.7500
1281.694, 462.4375
1282.765, 223.0781
1283.836, 308.4570
1284.907, 256.9883
1285.977, 336.1445
1287.048, 248.5742
1288.118, 165.9297
1289.188, 232.9102
1290.258, 369.1680
1291.328, 326.3789
1292.398, 570.5039
1293.467, 368.6094
1294.537, 530.4297
1295.606, 497.4297
1296.675, 575.1289
1297.744, 309.3516
1298.813, 476.9062
1299.882, 573.7109
1300.950, 595.6875
1302.018, 318.9297
1303.086, 427.8125
1304.155, 382.0703
1305.222, 318.6094
1306.290, 480.1719
1307.358, 237.0039
1308.425, 396.5078
1309.492, 397.0781
1310.559, 469.4336
1311.626, 383.4922
1312.693, 350.1992
1313.760, 466.1289
1314.826, 478.6211
1315.893, 376.3320
1316.959, 233.6172
1318.025, 141.5586
1319.091, 415.1836
1320.157, 284.6562
