##NAMES=Riebeckite
##RRUFFID=R050082
##IDEAL CHEMISTRY=[box]Na_2_(Fe^2+^_3_Fe^3+^_2_)Si_8_O_22_(OH)_2_
##LOCALITY=Mt. Malosa, Zomba, Chilwa, Alkaline Area, Malawi
##OWNER=RRUFF
##SOURCE=Rock Currier
##DESCRIPTION=Black elongated prisms
##STATUS=The identification of this mineral has been confirmed by X-ray diffraction and chemical analysis
##URL=rruff.info/R050082
##MEASURED CHEMISTRY=([box]_0.63_Na_0.19_K_0.18_)(Na_1.58_Ca_0.42_)_Σ=2_Fe^2+^_3.00_(Fe^3+^_1.30_Fe^2+^_0.45_Mn_0.15_Mg_0.05_Ti_0.05_)_Σ=2_(Si_0.98_Al_0.02_)_8_O_22_(OH)_2_
##PIN_ID=L00434
##ORIENTATION=Laser parallel to b* (0 1 0). Fiducial mark perpendicular to laser is parallel to c [0 0 1]
123.8850, 0.0000000E+00
125.1230, 82.55859
126.3600, 34.32031
127.5960, 1378.449
128.8330, 2206.383
130.0700, 1468.457
131.3060, 2263.266
132.5420, 2318.332
133.7780, 3409.906
135.0140, 5090.699
136.2500, 6691.586
137.4850, 9290.609
138.7200, 8958.598
139.9550, 9822.445
141.1900, 8177.605
142.4250, 6530.531
143.6600, 5362.461
144.8940, 4240.621
146.1280, 3603.477
147.3620, 2875.172
148.5960, 2366.121
149.8300, 1470.742
151.0630, 1638.398
152.2960, 1391.355
153.5300, 1048.270
154.7620, 1420.848
155.9950, 817.8633
157.2280, 731.1094
158.4600, 999.4180
159.6920, 1914.668
160.9250, 1724.824
162.1560, 2888.801
163.3880, 3711.289
164.6200, 3874.879
165.8510, 4028.625
167.0820, 4275.098
168.3130, 4554.242
169.5440, 4264.141
170.7750, 4310.461
172.0050, 3884.746
173.2350, 3874.152
174.4650, 3568.102
175.6950, 3791.293
176.9250, 4156.910
178.1550, 4319.000
179.3840, 4694.594
180.6130, 5189.707
181.8420, 5607.469
183.0710, 6354.805
184.3000, 7072.777
185.5280, 7815.398
186.7570, 9222.688
187.9850, 9721.664
189.2130, 11081.34
190.4400, 11544.69
191.6680, 11863.64
192.8960, 12175.73
194.1230, 12083.37
195.3500, 11670.20
196.5770, 11594.82
197.8030, 11336.84
199.0300, 11374.44
200.2560, 11643.72
201.4830, 12010.76
202.7090, 10733.49
203.9340, 9009.320
205.1600, 7532.539
206.3860, 6863.891
207.6110, 7138.438
208.8360, 7138.223
210.0610, 7876.594
211.2860, 8031.145
212.5100, 8576.996
213.7350, 8608.129
214.9590, 8276.621
216.1830, 7490.367
217.4070, 7331.391
218.6310, 6479.609
219.8540, 6252.992
221.0780, 5590.516
222.3010, 5666.160
223.5240, 5151.922
224.7470, 4958.801
225.9690, 4905.082
227.1920, 4788.863
228.4140, 4890.039
229.6360, 4538.305
230.8580, 4788.648
232.0800, 5042.070
233.3020, 4741.559
234.5230, 4420.113
235.7440, 4030.719
236.9650, 3704.383
238.1860, 3376.070
239.4070, 2926.770
240.6280, 2193.438
241.8480, 2241.082
243.0680, 1410.691
244.2880, 1363.277
245.5080, 757.8281
246.7280, 617.3516
247.9470, 536.8398
249.1660, 761.2969
250.3860, 197.7148
251.6040, 358.1016
252.8230, 210.4531
254.0420, 499.7695
255.2600, 560.0469
256.4790, 780.2852
257.6970, 2213.488
258.9150, 1884.008
260.1320, 2084.938
261.3500, 1610.840
262.5670, 1965.297
263.7840, 824.1406
265.0010, 1302.641
266.2180, 898.3008
267.4350, 748.0469
268.6510, 638.2969
269.8680, 408.6523
271.0840, 365.9180
272.3000, 454.4336
273.5160, 255.3789
274.7310, 345.5391
275.9470, 350.5898
277.1620, 186.0508
278.3770, 221.9062
279.5920, 140.4180
280.8070, 285.2344
282.0210, 580.6562
283.2360, 414.8203
284.4500, 702.7461
285.6640, 615.5547
286.8780, 459.2578
288.0920, 679.8555
289.3050, 791.4258
290.5180, 516.0273
291.7320, 436.6172
292.9450, 388.1992
294.1570, 214.3008
295.3700, 118.5000
296.5830, 8.777344
297.7950, 141.7305
299.0070, 228.3516
300.2190, 319.1562
301.4310, 505.1289
302.6420, 569.2773
303.8540, 902.7227
305.0650, 1160.172
306.2760, 1315.383
307.4870, 1683.070
308.6980, 1636.699
309.9080, 1983.934
311.1190, 2182.699
312.3290, 2243.047
313.5390, 2415.973
314.7490, 2644.078
315.9580, 2864.672
317.1680, 2903.215
318.3770, 3111.562
319.5860, 3086.875
320.7950, 3143.809
322.0040, 3030.125
323.2130, 3176.535
324.4210, 3171.938
325.6290, 3222.262
326.8380, 3084.512
328.0460, 3169.691
329.2530, 3073.797
330.4610, 3085.824
331.6680, 2943.777
332.8760, 2788.664
334.0830, 2814.578
335.2890, 3032.316
336.4960, 2981.984
337.7030, 2925.582
338.9090, 3380.113
340.1150, 3356.570
341.3210, 3949.953
342.5270, 3894.262
343.7330, 4132.500
344.9380, 4399.660
346.1440, 4611.742
347.3490, 5069.758
348.5540, 5315.316
349.7590, 5458.637
350.9630, 5766.094
352.1680, 5916.938
353.3720, 5714.105
354.5760, 5724.828
355.7800, 5839.324
356.9840, 5392.762
358.1870, 5551.172
359.3910, 5449.551
360.5940, 5186.891
361.7970, 5132.199
363.0000, 5277.465
364.2030, 5203.688
365.4050, 5180.879
366.6080, 5094.023
367.8100, 5015.125
369.0120, 4807.188
370.2140, 4928.207
371.4150, 4651.176
372.6170, 4608.102
373.8180, 4471.984
375.0190, 4294.816
376.2200, 4143.605
377.4210, 3736.344
378.6220, 3553.035
379.8220, 3561.676
381.0230, 3159.262
382.2230, 3180.805
383.4230, 2777.293
384.6220, 2374.727
385.8220, 2350.113
387.0220, 2326.445
388.2210, 2016.734
389.4200, 1753.965
390.6190, 1479.145
391.8180, 1276.098
393.0160, 1321.359
394.2150, 1020.383
395.4130, 932.3672
396.6110, 1054.293
397.8090, 810.1680
399.0060, 540.0000
400.2040, 593.1719
401.4010, 493.4922
402.5980, 485.1641
403.7950, 206.7812
404.9920, 76.32812
406.1890, 167.2188
407.3860, 43.07422
408.5820, 11.26562
409.7780, 91.68359
410.9740, 105.0742
412.1700, 15.36719
413.3650, 98.94531
414.5610, 197.0625
415.7560, 474.1094
416.9510, 455.1406
418.1460, 483.1289
419.3410, 391.0742
420.5360, 881.9648
421.7300, 1172.805
422.9240, 1135.598
424.1180, 1380.586
425.3120, 1372.250
426.5060, 1306.121
427.7000, 1419.812
428.8930, 1395.836
430.0860, 1379.730
431.2790, 1144.164
432.4720, 933.4883
433.6650, 1089.539
434.8580, 616.6094
436.0500, 512.4023
437.2420, 182.9609
438.4340, 353.1680
439.6260, 99.16406
440.8180, 404.6445
442.0090, 66.52344
443.2010, 111.2031
444.3920, 274.5586
445.5830, 120.2734
446.7740, 7.636719
447.9640, 72.21484
449.1550, 99.13281
450.3450, 82.75391
451.5350, 47.06641
452.7250, 350.0742
453.9150, 103.2500
455.1050, 59.17969
456.2940, 376.5859
457.4830, 310.0977
458.6720, 461.8242
459.8610, 679.4023
461.0500, 645.3672
462.2390, 928.4297
463.4270, 1073.387
464.6150, 994.2617
465.8040, 870.2617
466.9910, 1161.258
468.1790, 1104.566
469.3670, 754.8516
470.5540, 861.4414
471.7410, 905.8242
472.9280, 846.5469
474.1150, 734.4219
475.3020, 798.3164
476.4890, 501.3789
477.6750, 811.7461
478.8610, 624.0391
480.0470, 532.2656
481.2330, 760.4180
482.4190, 915.5039
483.6040, 651.5117
484.7900, 863.4531
485.9750, 653.3203
487.1600, 812.1172
488.3450, 981.8438
489.5290, 1170.496
490.7140, 1065.086
491.8980, 1316.602
493.0820, 1433.051
494.2660, 1521.438
495.4500, 1743.762
496.6340, 1911.027
497.8170, 1971.234
499.0010, 2051.383
500.1840, 2119.477
501.3670, 2354.512
502.5500, 2221.492
503.7320, 2298.414
504.9150, 2399.281
506.0970, 2774.094
507.2790, 2486.848
508.4610, 3063.547
509.6430, 2913.188
510.8250, 3265.773
512.0060, 3075.301
513.1870, 3682.770
514.3680, 3561.188
515.5490, 3556.543
516.7300, 3529.844
517.9110, 3987.094
519.0910, 4008.277
520.2710, 4355.410
521.4510, 4819.484
522.6310, 4939.805
523.8110, 5076.469
524.9910, 5440.375
526.1700, 5597.258
527.3490, 5869.078
528.5280, 6346.871
529.7070, 6893.715
530.8860, 7179.562
532.0650, 7336.387
533.2430, 7848.238
534.4210, 7803.055
535.5990, 7912.824
536.7770, 7896.602
537.9550, 7955.387
539.1320, 7624.195
540.3100, 7769.949
541.4870, 7436.340
542.6640, 7258.926
543.8410, 7107.074
545.0170, 7145.227
546.1940, 6768.375
547.3700, 6320.469
548.5470, 6271.707
549.7230, 6281.984
550.8980, 6036.395
552.0740, 5980.316
553.2500, 5701.676
554.4250, 5797.383
555.6000, 5786.465
556.7750, 5532.266
557.9500, 5712.535
559.1250, 5447.586
560.2990, 5498.801
561.4730, 5642.160
562.6480, 5615.129
563.8220, 5260.051
564.9950, 5225.930
566.1690, 5207.797
567.3430, 5039.688
568.5160, 4913.688
569.6890, 4399.758
570.8620, 4119.965
572.0350, 3868.289
573.2070, 3091.699
574.3800, 2721.238
575.5520, 2378.953
576.7240, 1838.758
577.8960, 2041.641
579.0680, 1641.766
580.2400, 1885.742
581.4110, 1220.406
582.5830, 783.3359
583.7540, 382.1445
584.9250, 214.7617
586.0950, 29.18750
587.2660, 28.39844
588.4370, 101.7266
589.6070, 3.058594
590.7770, 256.9805
591.9470, 43.62500
593.1170, 285.2969
594.2860, 286.2656
595.4560, 127.9375
596.6250, 71.98438
597.7940, 157.9297
598.9630, 170.9141
600.1320, 121.4570
601.3000, 176.1445
602.4690, 51.00391
603.6370, 320.9727
604.8050, 193.1992
605.9730, 84.60547
607.1410, 181.1406
608.3090, 105.1484
609.4760, 99.84766
610.6430, 174.6016
611.8100, 206.6719
612.9770, 344.7422
614.1440, 290.7656
615.3110, 439.7461
616.4770, 647.6836
617.6430, 465.4648
618.8090, 733.2070
619.9750, 579.1172
621.1410, 1038.883
622.3070, 946.6016
623.4720, 1088.281
624.6370, 1488.918
625.8020, 1415.508
626.9670, 1613.062
628.1320, 1723.570
629.2970, 1881.039
630.4610, 1956.469
631.6250, 2192.852
632.7890, 2152.195
633.9530, 2522.500
635.1170, 2955.762
636.2810, 4060.984
637.4440, 4506.168
638.6070, 5252.309
639.7700, 4347.410
640.9330, 4323.473
642.0960, 5026.492
643.2590, 5221.473
644.4210, 5706.414
645.5830, 6147.312
646.7450, 6741.180
647.9070, 7773.000
649.0690, 8493.785
650.2310, 9679.531
651.3920, 10607.24
652.5530, 11760.91
653.7140, 13281.54
654.8750, 14854.13
656.0360, 16568.69
657.1970, 18657.20
658.3570, 20207.68
659.5170, 21837.12
660.6770, 23338.52
661.8370, 24501.89
662.9970, 25546.21
664.1570, 26316.51
665.3160, 25717.12
666.4750, 24964.35
667.6340, 23593.27
668.7930, 21431.05
669.9520, 19632.62
671.1110, 17578.34
672.2690, 15332.70
673.4270, 13265.74
674.5850, 11560.85
675.7430, 9948.965
676.9010, 8446.383
678.0590, 7530.977
679.2160, 6598.766
680.3730, 6073.574
681.5300, 5756.410
682.6870, 5078.875
683.8440, 4468.609
685.0010, 4493.445
686.1570, 4237.234
687.3130, 4052.559
688.4690, 4157.887
689.6250, 4045.090
690.7810, 3918.668
691.9370, 3774.824
693.0920, 4107.387
694.2470, 4029.461
695.4020, 3944.984
696.5570, 3833.008
697.7120, 3861.070
698.8670, 4077.598
700.0210, 3761.074
701.1750, 4208.504
702.3290, 4108.164
703.4830, 3879.191
704.6370, 4155.457
705.7910, 4098.688
706.9440, 4078.848
708.0970, 4056.953
709.2510, 4331.000
710.4030, 4284.000
711.5560, 4307.430
712.7090, 4246.043
713.8610, 4250.656
715.0140, 3972.430
716.1660, 3923.145
717.3180, 3825.801
718.4690, 3913.402
719.6210, 3814.000
720.7730, 3910.445
721.9240, 3759.879
723.0750, 3630.273
724.2260, 3681.914
725.3770, 3665.625
726.5270, 3360.430
727.6780, 3301.859
728.8280, 2850.938
729.9780, 2841.801
731.1280, 2558.617
732.2780, 2799.496
733.4280, 2790.250
734.5770, 2946.086
735.7260, 2774.328
736.8760, 2527.348
738.0250, 2353.047
739.1730, 2386.773
740.3220, 2337.996
741.4700, 2192.312
742.6190, 2010.020
743.7670, 1938.992
744.9150, 1644.730
746.0630, 1578.367
747.2100, 1729.574
748.3580, 1266.695
749.5050, 1264.398
750.6520, 1500.207
751.7990, 1296.559
752.9460, 1347.656
754.0930, 1159.004
755.2390, 1060.312
756.3860, 1138.590
757.5320, 867.8320
758.6780, 948.0352
759.8240, 1070.211
760.9690, 1010.355
762.1150, 881.4570
763.2600, 1010.531
764.4060, 863.5742
765.5510, 915.5781
766.6950, 951.5547
767.8400, 871.3516
768.9850, 864.4180
770.1290, 851.3008
771.2730, 771.1562
772.4170, 870.9766
773.5610, 760.7734
774.7050, 627.5391
775.8480, 441.2812
776.9920, 504.9922
778.1350, 451.6758
779.2780, 266.3398
780.4210, 248.7891
781.5640, 455.4375
782.7060, 564.6875
783.8490, 581.7852
784.9910, 230.7812
786.1330, 355.0508
787.2750, 288.8203
788.4170, 214.7539
789.5580, 405.8672
790.7000, 108.2773
791.8410, 295.1367
792.9820, 288.5938
794.1230, 370.5312
795.2640, 260.8008
796.4040, 210.2461
797.5450, 351.3789
798.6850, 386.3633
799.8250, 254.5000
800.9650, 112.4648
802.1050, 34.30469
803.2450, 237.8594
804.3840, 43.99219
805.5230, 330.9180
806.6630, 171.0703
807.8020, 48.35547
808.9400, 252.7188
810.0790, 27.25391
811.2170, 18.15625
812.3560, 193.4688
813.4940, 185.2305
814.6320, 238.9102
815.7700, 131.8125
816.9070, 312.2578
818.0450, 140.5195
819.1820, 153.8906
820.3190, 384.3672
821.4560, 246.0703
822.5930, 391.9336
823.7300, 260.0195
824.8670, 230.2617
826.0030, 358.6445
827.1390, 256.2266
828.2750, 331.6992
829.4110, 293.8906
830.5470, 368.9766
831.6820, 268.2656
832.8180, 200.7031
833.9530, 3.246094
835.0880, 20.55078
836.2230, 93.77734
837.3580, 121.0859
838.4920, 118.5312
839.6270, 141.9844
840.7610, 49.43750
841.8950, 16.90234
843.0290, 131.3594
844.1630, 255.8320
845.2960, 407.3086
846.4300, 480.6016
847.5630, 565.8047
848.6960, 606.7852
849.8290, 764.2969
850.9620, 760.8203
852.0940, 1036.352
853.2270, 969.8984
854.3590, 1339.457
855.4910, 1663.035
856.6230, 1745.625
857.7550, 1870.223
858.8870, 2341.844
860.0180, 2275.477
861.1500, 2693.137
862.2810, 3064.816
863.4120, 3123.465
864.5430, 3465.316
865.6730, 3409.133
866.8040, 3807.055
867.9340, 3907.031
869.0640, 4417.117
870.1940, 4604.230
871.3240, 4625.375
872.4540, 4975.547
873.5830, 5063.750
874.7130, 5088.039
875.8420, 5506.402
876.9710, 5370.859
878.1000, 5834.375
879.2290, 5562.023
880.3570, 5587.770
881.4860, 5849.582
882.6140, 5752.500
883.7420, 5596.445
884.8700, 5647.430
885.9980, 5346.453
887.1250, 5316.496
888.2530, 5426.594
889.3800, 5125.715
890.5070, 5104.875
891.6340, 5042.066
892.7610, 4762.297
893.8880, 4557.562
895.0140, 4650.883
896.1400, 4580.242
897.2670, 4065.641
898.3930, 4040.082
899.5180, 4163.586
900.6440, 3827.137
901.7700, 4034.727
902.8950, 4032.359
904.0200, 3453.035
905.1450, 4357.766
906.2700, 4491.586
907.3950, 3577.469
908.5190, 3483.395
909.6440, 3924.363
910.7680, 3740.379
911.8920, 3784.438
913.0160, 3710.566
914.1400, 3646.750
915.2630, 4110.984
916.3870, 3917.305
917.5100, 3898.672
918.6330, 3639.125
919.7560, 3860.645
920.8790, 3531.215
922.0010, 3549.836
923.1240, 3966.504
924.2460, 3643.223
925.3680, 3579.012
926.4900, 3826.871
927.6120, 3817.809
928.7340, 3952.801
929.8550, 3791.852
930.9760, 3962.023
932.0980, 3896.258
933.2190, 4091.586
934.3390, 4126.984
935.4600, 4279.469
936.5810, 4635.016
937.7010, 4300.312
938.8210, 5035.039
939.9410, 5152.152
941.0610, 4972.430
942.1810, 5137.000
943.3010, 5310.543
944.4200, 5470.457
945.5390, 5723.730
946.6580, 5958.961
947.7770, 5950.207
948.8960, 6858.176
950.0150, 6474.996
951.1330, 7052.652
952.2510, 6905.312
953.3690, 7213.973
954.4870, 7608.062
955.6050, 7441.934
956.7230, 7800.762
957.8400, 7772.691
958.9580, 7679.215
960.0750, 8055.922
961.1920, 8038.840
962.3090, 8164.484
963.4250, 8268.676
964.5420, 7953.578
965.6580, 7978.121
966.7740, 7829.285
967.8900, 7670.043
969.0060, 7677.793
970.1220, 7485.125
971.2380, 7249.602
972.3530, 7022.164
973.4680, 6756.844
974.5830, 6713.605
975.6980, 6480.434
976.8130, 6470.406
977.9280, 6196.465
979.0420, 6132.613
980.1560, 6073.852
981.2710, 6158.219
982.3850, 5909.375
983.4980, 5830.227
984.6120, 5484.871
985.7260, 5580.605
986.8390, 5420.438
987.9520, 5400.359
989.0650, 5546.379
990.1780, 5576.484
991.2910, 5647.688
992.4030, 5670.016
993.5160, 5654.438
994.6280, 6057.965
995.7400, 5784.594
996.8520, 5896.312
997.9640, 6089.125
999.0750, 5981.031
1000.187, 6438.035
1001.298, 5876.125
1002.409, 6316.312
1003.520, 6434.609
1004.631, 6390.000
1005.741, 6371.484
1006.852, 6256.055
1007.962, 6119.742
1009.072, 6488.516
1010.182, 6470.391
1011.292, 6409.359
1012.402, 6462.422
1013.511, 6186.570
1014.621, 6238.809
1015.730, 6251.469
1016.839, 6448.570
1017.948, 6483.082
1019.056, 6283.695
1020.165, 6612.402
1021.273, 6479.195
1022.382, 6398.074
1023.490, 6789.055
1024.598, 6532.125
1025.706, 6947.844
1026.813, 7072.094
1027.921, 7081.477
1029.028, 7067.910
1030.135, 7443.863
1031.242, 7605.480
1032.349, 7780.156
1033.456, 8073.000
1034.562, 7902.875
1035.668, 8160.781
1036.775, 8349.828
1037.881, 8413.926
1038.987, 8193.246
1040.092, 8439.438
1041.198, 8444.828
1042.303, 8160.305
1043.408, 8306.859
1044.514, 8433.504
1045.618, 8092.082
1046.723, 7920.031
1047.828, 7915.270
1048.932, 7765.004
1050.037, 7658.465
1051.141, 7533.941
1052.245, 7261.387
1053.349, 7203.465
1054.452, 7047.855
1055.556, 6860.324
1056.659, 7029.875
1057.762, 6991.570
1058.865, 7030.148
1059.968, 6788.535
1061.071, 6879.395
1062.174, 6792.336
1063.276, 7000.531
1064.378, 6746.855
1065.480, 6728.762
1066.582, 6506.031
1067.684, 6485.980
1068.786, 6586.230
1069.887, 6613.273
1070.988, 6690.055
1072.090, 6564.574
1073.191, 6344.297
1074.291, 6318.852
1075.392, 6126.699
1076.493, 6036.875
1077.593, 5881.227
1078.693, 5707.586
1079.793, 5865.023
1080.893, 5679.586
1081.993, 5511.273
1083.092, 5516.574
1084.192, 5110.473
1085.291, 4789.520
1086.390, 4815.203
1087.489, 4628.680
1088.588, 4625.758
1089.686, 4261.336
1090.785, 4262.598
1091.883, 3853.555
1092.981, 4065.562
1094.079, 3816.656
1095.177, 3716.488
1096.275, 3605.828
1097.373, 3572.188
1098.470, 3479.914
1099.567, 3397.879
1100.664, 3404.012
1101.761, 3317.023
1102.858, 3334.355
1103.954, 3265.703
1105.051, 3332.523
1106.147, 3241.730
1107.243, 3210.984
1108.339, 3176.055
1109.435, 3153.055
1110.531, 3091.992
1111.626, 2998.426
1112.722, 3031.746
1113.817, 2639.262
1114.912, 2675.812
1116.007, 2755.406
1117.101, 2569.598
1118.196, 2771.273
1119.290, 2588.988
1120.385, 2443.734
1121.479, 2516.527
1122.573, 2605.703
1123.666, 2361.336
1124.760, 2380.258
1125.853, 2070.883
1126.947, 2002.516
1128.040, 1972.520
1129.133, 1756.543
1130.226, 1742.602
1131.318, 1354.695
1132.411, 1394.363
1133.503, 1094.512
1134.596, 1134.676
1135.688, 1348.688
1136.780, 1222.922
1137.871, 1051.180
1138.963, 939.9023
1140.054, 976.2148
1141.146, 713.1602
1142.237, 692.3711
1143.328, 506.7539
1144.419, 390.1641
1145.509, 429.5898
1146.600, 343.8633
1147.690, 479.3359
1148.780, 423.8242
1149.870, 516.6875
1150.960, 386.5977
1152.050, 274.7617
1153.139, 55.32031
1154.229, 262.5820
1155.318, 56.17188
1156.407, 38.80469
1157.496, 43.81250
1158.585, 149.0547
1159.674, 171.2188
1160.762, 28.65234
1161.850, 118.9648
1162.939, 182.4062
1164.027, 55.34766
1165.114, 280.7500
1166.202, 48.66406
1167.290, 182.9141
1168.377, 104.4961
1169.464, 224.9336
1170.551, 142.4453
1171.638, 50.00000
1172.725, 112.4531
1173.812, 47.90625
1174.898, 81.56250
1175.984, 129.1719
1177.071, 68.81250
1178.157, 36.41797
1179.242, 170.0352
1180.328, 103.1797
1181.414, 187.5039
1182.499, 70.27344
1183.584, 23.06641
1184.669, 39.12109
1185.754, 16.60547
1186.839, 25.78906
1187.924, 67.02734
1189.008, 97.88281
1190.092, 107.7852
1191.177, 64.25000
1192.260, 15.71875
1193.344, 253.7109
1194.428, 16.84375
1195.512, 129.0000
1196.595, 64.23828
1197.678, 105.5273
1198.761, 0.8867190
1199.844, 210.2695
1200.927, 3.785156
1202.009, 225.3281
1203.092, 70.98438
1204.174, 263.7109
1205.256, 279.5820
1206.338, 36.37109
1207.420, 5.691406
1208.502, 101.2070
1209.583, 71.08984
1210.665, 66.36719
1211.746, 175.8047
1212.827, 39.63281
1213.908, 106.4336
1214.988, 128.2148
1216.069, 58.02734
1217.149, 13.64844
1218.230, 70.71875
1219.310, 95.81641
1220.390, 143.6719
1221.470, 118.2930
1222.549, 137.9609
1223.629, 35.18750
1224.708, 73.35938
1225.787, 90.50000
1226.866, 118.4648
1227.945, 224.4297
1229.024, 10.70703
1230.103, 200.0781
1231.181, 130.8281
1232.259, 119.4531
1233.337, 221.1211
1234.415, 9.664063
1235.493, 220.2461
1236.571, 228.5547
1237.648, 66.95703
1238.726, 129.7891
1239.803, 121.6055
1240.880, 170.8750
1241.957, 27.90234
1243.034, 328.2188
1244.110, 445.3008
1245.187, 248.3438
1246.263, 142.3516
1247.339, 336.3164
1248.415, 201.2383
1249.491, 240.1250
1250.566, 208.9727
1251.642, 169.9648
1252.717, 6.546875
1253.793, 144.2227
1254.868, 122.8477
1255.943, 126.4531
1257.017, 337.0000
1258.092, 394.5039
1259.166, 343.9688
1260.241, 408.3945
1261.315, 188.7773
1262.389, 331.1055
1263.462, 79.40234
1264.536, 183.9023
1265.610, 409.7734
1266.683, 441.8945
1267.756, 100.9688
1268.829, 427.9727
1269.902, 161.9297
1270.975, 197.8320
1272.048, 517.6758
1273.120, 324.4805
1274.192, 307.2344
1275.264, 209.9492
1276.336, 369.6094
1277.408, 446.2266
1278.480, 152.7930
1279.551, 511.3008
1280.623, 619.7539
1281.694, 367.1641
1282.765, 149.5273
1283.836, 321.8203
1284.907, 260.0703
1285.977, 378.7109
1287.048, 200.8633
1288.118, 243.9141
1289.188, 256.9492
1290.258, 595.5039
1291.328, 385.4414
1292.398, 337.3555
1293.467, 680.1406
