##NAMES=Rutile
##RRUFFID=R050031
##IDEAL CHEMISTRY=Ti^4+^O_2_
##LOCALITY=Chester City, Pennsylvannia, USA
##OWNER=RRUFF
##SOURCE=University of Arizona Mineral Museum
##DESCRIPTION=Reddish brown single crystal fragment
##STATUS=The identification of this mineral has been confirmed by X-ray diffraction and chemical analysis
##URL=rruff.info/R050031
##MEASURED CHEMISTRY=TiO_2_
##PIN_ID=M00132
##ORIENTATION=Laser parallel to -a* (-1 0 0). Fiducial mark perpendicular to laser is parallel to -c [0 0 -1]
99.652, 0.000
101.049, 73.279
102.446, 250.528
103.843, 18.550
105.240, 4.877
106.637, 70.867
108.033, 149.082
109.429, 252.518
110.825, 816.769
112.220, 1011.200
113.616, 876.576
115.011, 641.082
116.406, 592.447
117.800, 680.775
119.195, 664.445
120.589, 792.883
121.983, 751.402
123.377, 780.234
124.770, 836.550
126.163, 780.045
127.556, 873.878
128.949, 1006.787
130.342, 926.286
131.734, 1090.439
133.126, 1310.620
134.518, 1393.410
135.909, 1866.640
137.301, 2363.217
138.692, 2688.168
140.083, 2403.501
141.473, 2271.189
142.864, 1877.207
144.254, 1297.527
145.644, 955.128
147.034, 736.990
148.423, 459.098
149.812, 418.436
151.201, 191.990
152.590, 28.749
153.979, 145.703
155.367, 33.150
156.755, 26.193
158.143, 23.256
159.530, 16.489
160.918, 81.496
162.305, 3.715
163.692, 11.866
165.078, 132.250
166.465, 13.442
167.851, 4.548
169.237, 102.715
170.623, 170.052
172.008, 248.557
173.393, 419.271
174.778, 422.370
176.163, 624.980
177.548, 653.006
178.932, 783.170
180.316, 898.428
181.700, 1086.782
183.083, 1156.224
184.467, 1366.716
185.850, 1419.220
187.233, 1620.752
188.616, 1731.327
189.998, 1704.948
191.380, 1738.617
192.762, 1972.334
194.144, 1995.099
195.525, 2205.915
196.907, 2235.782
198.288, 2475.697
199.669, 2555.658
201.049, 2595.663
202.429, 2735.714
203.810, 2855.815
205.189, 2975.969
206.569, 2996.179
207.949, 3186.494
209.328, 3288.464
210.707, 3637.438
212.085, 3588.192
213.464, 3819.188
214.842, 4010.476
216.220, 4111.954
217.598, 4243.706
218.976, 4275.711
220.353, 4477.914
221.730, 4420.239
223.107, 4782.610
224.483, 4745.025
225.860, 5187.483
227.236, 5069.989
228.612, 5322.538
229.988, 5235.137
231.363, 5287.785
232.738, 5560.485
234.113, 5383.236
235.488, 5586.042
236.863, 5538.901
238.237, 5651.818
239.611, 5414.791
240.985, 5507.821
242.359, 5490.911
243.732, 5194.094
245.105, 5098.478
246.478, 4862.437
247.851, 4720.894
249.223, 4525.510
250.595, 4357.735
251.967, 4158.483
253.339, 3931.116
254.711, 3677.606
256.082, 3570.946
257.453, 3374.320
258.824, 3297.762
260.195, 2961.273
261.565, 2874.854
262.935, 2808.504
264.305, 2842.227
265.675, 2645.266
267.044, 2507.771
268.414, 2379.725
269.783, 2481.078
271.151, 2181.962
272.520, 2094.166
273.888, 2136.514
275.256, 1908.934
276.624, 1931.425
277.992, 1773.984
279.359, 1733.609
280.726, 1517.285
282.093, 1411.001
283.460, 1353.755
284.827, 1239.556
286.193, 1050.411
287.559, 1031.322
288.925, 1027.296
290.290, 827.333
291.656, 755.430
293.021, 725.521
294.386, 704.628
295.750, 605.653
297.115, 534.722
298.479, 547.685
299.843, 518.733
301.207, 437.873
302.570, 535.103
303.933, 509.420
305.296, 590.824
306.659, 584.256
308.022, 634.891
309.384, 582.549
310.746, 598.292
312.108, 619.116
313.470, 680.340
314.831, 661.217
316.193, 795.809
317.554, 746.700
318.914, 848.307
320.275, 724.440
321.635, 742.746
322.995, 729.389
324.355, 732.596
325.715, 725.966
327.074, 627.400
328.434, 626.339
329.792, 603.846
331.151, 637.311
332.510, 602.369
333.868, 590.481
335.226, 599.818
336.584, 535.130
337.941, 517.854
339.299, 483.509
340.656, 597.372
342.013, 526.381
343.370, 598.893
344.726, 448.469
346.082, 675.106
347.438, 519.809
348.794, 670.572
350.150, 558.400
351.505, 646.293
352.860, 636.250
354.215, 707.271
355.570, 725.357
356.924, 671.509
358.278, 747.726
359.632, 653.008
360.986, 702.355
362.339, 575.771
363.693, 641.251
365.046, 560.799
366.399, 580.413
367.751, 517.096
369.104, 512.845
370.456, 521.662
371.808, 477.547
373.159, 424.500
374.511, 347.521
375.862, 308.228
377.213, 282.763
378.564, 212.983
379.914, 180.269
381.265, 141.618
382.615, 98.968
383.965, 64.790
385.315, 61.049
386.664, 18.651
388.013, 62.312
389.362, 106.035
390.711, 28.824
392.060, 62.325
393.408, 74.568
394.756, 111.473
396.104, 34.479
397.451, 65.434
398.799, 41.344
400.146, 7.798
401.493, 89.000
402.840, 28.757
404.186, 94.459
405.533, 45.881
406.879, 33.711
408.225, 44.743
409.570, 81.263
410.916, 202.829
412.261, 242.411
413.606, 299.700
414.951, 341.684
416.295, 393.367
417.639, 409.108
418.983, 451.924
420.327, 566.816
421.671, 603.785
423.014, 693.831
424.357, 858.954
425.700, 773.154
427.043, 1004.434
428.386, 999.794
429.728, 1137.239
431.070, 1250.772
432.412, 1335.396
433.753, 1468.113
435.095, 1497.920
436.436, 1657.813
437.777, 1827.797
439.118, 1757.869
440.458, 1888.030
441.798, 1878.281
443.138, 1868.622
444.478, 1939.053
445.818, 1869.575
447.157, 1855.118
448.496, 1800.893
449.835, 1701.689
451.174, 1662.578
452.513, 1473.560
453.851, 1464.632
455.189, 1361.799
456.527, 1204.059
457.864, 1150.413
459.202, 986.862
460.539, 739.408
461.876, 769.050
463.212, 627.787
464.549, 653.620
465.885, 422.551
467.221, 455.577
468.557, 294.700
469.893, 261.920
471.228, 243.235
472.563, 138.648
473.898, 30.841
475.233, 70.250
476.567, 37.592
477.902, 45.146
479.236, 35.019
480.570, 135.101
481.903, 189.127
483.237, 194.128
484.570, 238.098
485.903, 230.042
487.235, 276.982
488.568, 220.917
489.900, 223.832
491.232, 250.701
492.564, 223.562
493.896, 195.408
495.227, 228.229
496.558, 159.034
497.889, 167.798
499.220, 121.484
500.551, 102.193
501.881, 21.798
503.211, 42.689
504.541, 99.277
505.870, 163.965
507.200, 105.753
508.529, 292.643
509.858, 483.632
511.187, 354.723
512.515, 393.915
513.844, 685.209
515.172, 665.604
516.500, 726.102
517.827, 837.700
519.155, 949.401
520.482, 1021.203
521.809, 1165.109
523.136, 1112.117
524.462, 1201.227
525.789, 1478.438
527.115, 1398.754
528.441, 1579.172
529.766, 1660.693
531.092, 1966.317
532.417, 1942.044
533.742, 2107.874
535.067, 2213.808
536.391, 2489.845
537.716, 2575.984
539.040, 2852.229
540.364, 2928.576
541.688, 3285.027
543.011, 3421.582
544.334, 3768.236
545.657, 4034.975
546.980, 4220.818
548.303, 4817.816
549.625, 4754.944
550.947, 5301.559
552.269, 5594.304
553.591, 5821.820
554.913, 6402.484
556.234, 6776.979
557.555, 7290.223
558.876, 8074.734
560.197, 8181.686
561.517, 8974.340
562.837, 9399.960
564.157, 10182.712
565.477, 10571.435
566.797, 11427.367
568.116, 12216.409
569.435, 13195.645
570.754, 14001.668
572.073, 14604.549
573.391, 15784.231
574.709, 16454.082
576.027, 17484.076
577.345, 18394.234
578.663, 19274.529
579.980, 20624.977
581.297, 21695.574
582.614, 23056.324
583.931, 24107.225
585.248, 25448.287
586.564, 26989.477
587.880, 28660.807
589.196, 29782.275
590.511, 31203.875
591.827, 32745.611
593.142, 34737.477
594.457, 36989.469
595.772, 38911.621
597.086, 40053.895
598.401, 42396.301
599.715, 44228.836
601.029, 46611.488
602.343, 47254.266
603.656, 48337.164
604.969, 50970.188
606.282, 51163.320
607.595, 52056.578
608.908, 52509.941
610.220, 52873.418
611.532, 51887.016
612.844, 52350.727
614.156, 50624.547
615.468, 49028.473
616.779, 47482.531
618.090, 45346.680
619.401, 44880.945
620.712, 41485.320
622.022, 40669.793
623.332, 38154.375
624.642, 36189.066
625.952, 34143.859
627.262, 32298.748
628.571, 30525.201
629.880, 28778.846
631.189, 27254.051
632.498, 25706.424
633.807, 24224.369
635.115, 22954.529
636.423, 21510.135
637.731, 20374.463
639.039, 19254.646
640.346, 18722.486
641.653, 17130.238
642.960, 16806.049
644.267, 15492.425
645.574, 14836.595
646.880, 14233.689
648.186, 13730.799
649.492, 13116.764
650.798, 12584.182
652.103, 12213.046
653.409, 11580.559
654.714, 11271.415
656.019, 10672.020
657.323, 10394.860
658.628, 10228.652
659.932, 9905.457
661.236, 9567.220
662.540, 9360.477
663.843, 8868.127
665.147, 8655.872
666.450, 8463.712
667.753, 8381.645
669.056, 7959.668
670.358, 7787.782
671.660, 7615.988
672.963, 7354.281
674.264, 7302.667
675.566, 7081.140
676.868, 6949.701
678.169, 6958.350
679.470, 6767.085
680.771, 6665.906
682.071, 6464.811
683.372, 6350.593
684.672, 6142.875
685.972, 6082.034
687.271, 5991.275
688.571, 5810.599
689.870, 5790.004
691.169, 5579.487
692.468, 5399.054
693.767, 5288.696
695.065, 5248.419
696.364, 5058.220
697.662, 4998.096
698.960, 4718.050
700.257, 4738.079
701.555, 4388.203
702.852, 4569.324
704.149, 4344.436
705.446, 4078.477
706.742, 3899.452
708.038, 3745.696
709.335, 3685.848
710.631, 3481.808
711.926, 3613.145
713.222, 3225.510
714.517, 3152.035
715.812, 3239.124
717.107, 2838.121
718.402, 2880.052
719.696, 2614.839
720.990, 2716.885
722.284, 2395.747
723.578, 2453.675
724.872, 2295.235
726.165, 2162.046
727.458, 2188.678
728.751, 2121.464
730.044, 1975.842
731.336, 2019.984
732.629, 1816.355
733.921, 1903.383
735.213, 1687.338
736.504, 1566.288
737.796, 1620.033
739.087, 1475.156
740.378, 1426.784
741.669, 1404.533
742.960, 1316.809
744.250, 1317.027
745.540, 1306.658
746.830, 1254.007
748.120, 1153.720
749.410, 1130.596
750.699, 1188.729
751.988, 1089.969
753.277, 1167.262
754.566, 1066.131
755.854, 1110.036
757.143, 1031.558
758.431, 1071.427
759.719, 1010.617
761.006, 942.400
762.294, 990.823
763.581, 1059.527
764.868, 981.808
766.155, 1028.861
767.442, 1026.233
768.728, 881.180
770.014, 1053.226
771.300, 1021.485
772.586, 1007.524
773.872, 1126.866
775.157, 1002.590
776.442, 1133.762
777.727, 1074.197
779.012, 1060.329
780.297, 1145.507
781.581, 1091.772
782.865, 1199.771
784.149, 1244.092
785.433, 1268.147
786.716, 1201.434
787.999, 1372.462
789.282, 1332.083
790.565, 1273.177
791.848, 1389.116
793.130, 1366.908
794.413, 1350.112
795.695, 1367.298
796.977, 1352.083
798.258, 1344.698
799.540, 1338.222
800.821, 1328.960
802.102, 1294.470
803.382, 1298.603
804.663, 1304.585
805.943, 1304.397
807.224, 1254.064
808.504, 1211.020
809.783, 1294.930
811.063, 1264.620
812.342, 1170.524
813.621, 1218.045
814.900, 1156.131
816.179, 1203.706
817.457, 1074.539
818.736, 1078.145
820.014, 937.683
821.292, 967.275
822.569, 923.725
823.847, 831.054
825.124, 844.350
826.401, 834.828
827.678, 755.081
828.954, 754.491
830.231, 632.590
831.507, 563.618
832.783, 649.741
834.059, 490.740
835.334, 476.787
836.610, 381.559
837.885, 423.365
839.160, 324.653
840.435, 303.583
841.709, 260.322
842.983, 195.139
844.258, 230.660
845.532, 211.307
846.805, 109.807
848.079, 81.395
849.352, 133.859
850.625, 33.259
851.898, 71.597
853.171, 23.877
854.443, 18.089
855.715, 14.738
856.988, 76.671
858.259, 55.666
859.531, 0.258
860.803, 82.962
862.074, 141.080
863.345, 70.546
864.616, 12.013
865.886, 132.602
867.157, 67.470
868.427, 120.446
869.697, 99.426
870.967, 126.363
872.236, 104.544
873.506, 104.931
874.775, 146.521
876.044, 112.297
877.313, 135.201
878.581, 104.274
879.849, 82.527
881.118, 129.871
882.386, 168.363
883.653, 98.070
884.921, 114.994
886.188, 75.038
887.455, 87.235
888.722, 116.540
889.989, 94.890
891.255, 98.569
892.522, 104.295
893.788, 40.268
895.054, 46.483
896.319, 27.525
897.585, 31.996
898.850, 9.565
900.115, 29.300
901.380, 29.955
902.645, 79.959
903.909, 16.128
905.174, 17.697
906.438, 22.610
907.701, 30.769
908.965, 19.497
910.229, 36.811
911.492, 10.905
912.755, 83.172
914.018, 59.112
915.280, 94.050
916.543, 37.837
917.805, 46.522
919.067, 73.245
920.329, 95.761
921.590, 94.129
922.852, 49.594
924.113, 160.811
925.374, 88.873
926.635, 123.892
927.895, 161.592
929.156, 147.183
930.416, 171.745
931.676, 171.253
932.936, 167.637
934.195, 192.029
935.454, 169.203
936.714, 193.487
937.973, 177.733
939.231, 201.709
940.490, 160.609
941.748, 203.340
943.006, 217.987
944.264, 232.583
945.522, 204.046
946.780, 210.420
948.037, 230.791
949.294, 234.738
950.551, 248.102
951.808, 278.153
953.064, 312.012
954.320, 339.890
955.577, 292.662
956.832, 295.281
958.088, 317.773
959.344, 289.192
960.599, 298.619
961.854, 329.016
963.109, 306.145
964.364, 354.190
965.618, 286.994
966.872, 347.750
968.127, 316.403
969.380, 342.833
970.634, 350.414
971.888, 343.000
973.141, 359.031
974.394, 375.305
975.647, 379.464
976.900, 351.382
978.152, 380.322
979.404, 355.933
980.656, 406.617
981.908, 418.031
983.160, 389.565
984.411, 413.025
985.663, 395.284
986.914, 454.428
988.165, 439.366
989.415, 350.186
990.666, 394.994
991.916, 432.633
993.166, 406.221
994.416, 468.767
995.665, 430.117
996.915, 456.386
998.164, 426.601
999.413, 446.765
1000.662, 452.791
1001.911, 457.676
1003.159, 461.469
1004.407, 467.669
1005.655, 465.513
1006.903, 476.123
1008.151, 463.536
1009.398, 459.163
1010.646, 478.772
1011.893, 424.147
1013.139, 465.661
1014.386, 430.259
1015.633, 456.411
1016.879, 474.603
1018.125, 469.464
1019.371, 428.769
1020.616, 380.344
1021.862, 394.801
1023.107, 403.409
1024.352, 410.718
1025.597, 405.633
1026.842, 392.618
1028.086, 384.456
1029.330, 383.912
1030.574, 365.407
1031.818, 351.900
1033.062, 346.425
1034.305, 353.853
1035.548, 334.665
1036.791, 329.710
1038.034, 311.571
1039.277, 272.396
1040.519, 304.492
1041.762, 268.262
1043.004, 278.293
1044.246, 298.422
1045.487, 271.731
1046.729, 230.093
1047.970, 270.021
1049.211, 276.109
1050.452, 218.855
1051.692, 264.326
1052.933, 255.622
1054.173, 220.633
1055.413, 221.543
1056.653, 257.881
1057.893, 145.080
1059.132, 212.611
1060.371, 235.745
1061.610, 160.506
1062.849, 212.623
1064.088, 185.046
1065.326, 195.135
1066.565, 188.594
1067.803, 149.233
1069.041, 170.498
1070.278, 179.132
1071.516, 128.615
1072.753, 156.848
1073.990, 169.256
1075.227, 151.273
1076.464, 200.850
1077.700, 201.920
1078.936, 182.667
1080.173, 170.658
1081.408, 174.541
1082.644, 147.278
1083.880, 174.222
1085.115, 121.784
1086.350, 105.552
1087.585, 144.023
1088.820, 136.699
1090.054, 149.732
1091.288, 144.235
1092.522, 130.829
1093.756, 137.512
1094.990, 132.317
1096.224, 106.963
1097.457, 135.346
1098.690, 103.719
1099.923, 106.125
1101.156, 126.700
1102.388, 97.477
1103.621, 98.406
1104.853, 109.859
1106.085, 114.254
1107.316, 106.759
1108.548, 78.946
1109.779, 67.135
1111.010, 98.500
1112.241, 92.668
1113.472, 125.093
1114.703, 109.884
1115.933, 109.110
1117.163, 136.040
1118.393, 74.083
1119.623, 55.119
1120.853, 107.022
1122.082, 117.028
1123.311, 72.042
1124.540, 104.012
1125.769, 72.721
1126.997, 125.576
1128.226, 82.194
1129.454, 121.043
1130.682, 66.884
1131.910, 58.593
1133.138, 81.299
1134.365, 82.875
1135.592, 106.685
1136.819, 109.369
1138.046, 85.457
1139.273, 99.953
1140.499, 86.534
1141.725, 71.215
1142.951, 92.814
1144.177, 86.305
1145.403, 73.786
1146.628, 60.202
1147.854, 67.742
1149.079, 76.027
1150.304, 72.385
1151.528, 100.541
1152.753, 81.983
1153.977, 64.090
1155.201, 96.516
1156.425, 54.745
1157.649, 65.868
1158.872, 51.126
1160.096, 36.161
1161.319, 53.373
1162.542, 68.440
1163.764, 47.864
1164.987, 85.133
1166.209, 78.898
1167.431, 29.051
1168.653, 70.208
1169.875, 64.406
1171.097, 70.561
1172.318, 40.032
1173.539, 86.456
1174.760, 37.852
1175.981, 60.810
1177.202, 86.230
1178.422, 39.480
1179.642, 24.722
1180.862, 43.076
1182.082, 32.149
1183.302, 47.537
1184.521, 118.940
1185.740, 105.658
1186.959, 77.332
1188.178, 53.703
1189.397, 108.896
1190.615, 36.501
1191.834, 95.007
1193.052, 84.516
1194.269, 77.847
1195.487, 107.403
1196.705, 78.122
1197.922, 95.566
1199.139, 61.123
1200.356, 93.722
1201.573, 109.188
1202.789, 76.650
1204.006, 98.309
1205.222, 96.474
1206.438, 99.994
1207.653, 115.598
1208.869, 97.076
1210.084, 93.546
1211.299, 84.942
1212.514, 115.375
1213.729, 86.589
1214.944, 136.916
1216.158, 99.146
1217.372, 99.290
1218.586, 76.437
1219.800, 74.711
1221.014, 109.086
1222.227, 104.412
1223.440, 98.756
1224.654, 114.246
1225.866, 119.506
1227.079, 119.808
1228.292, 137.366
1229.504, 83.118
1230.716, 117.340
1231.928, 131.789
1233.139, 83.880
1234.351, 119.311
1235.562, 95.371
1236.773, 98.650
1237.984, 129.873
1239.195, 97.108
1240.406, 127.165
1241.616, 95.202
1242.826, 95.297
1244.036, 64.352
1245.246, 103.276
1246.456, 95.339
1247.665, 79.496
1248.874, 101.518
1250.083, 110.437
1251.292, 101.485
1252.501, 108.515
1253.709, 100.459
1254.917, 74.370
1256.125, 99.171
1257.333, 49.205
1258.541, 121.235
1259.748, 128.293
1260.956, 103.287
1262.163, 55.245
1263.370, 107.339
1264.576, 65.169
1265.783, 86.931
1266.989, 54.693
1268.195, 69.739
1269.401, 96.683
1270.607, 61.623
1271.813, 68.616
1273.018, 66.653
1274.223, 63.657
1275.428, 78.919
1276.633, 49.690
1277.838, 60.422
1279.042, 70.245
1280.246, 49.116
1281.450, 51.125
1282.654, 59.108
1283.858, 26.041
1285.061, 30.972
1286.265, 8.197
1287.468, 37.562
1288.671, 12.488
1289.873, 29.314
1291.076, 3.326
1292.278, 3.505
1293.480, 17.268
1294.682, 14.182
1295.884, 69.316
1297.086, 4.677
1298.287, 50.129
1299.488, 5.939
1300.689, 10.926
1301.890, 29.904
1303.091, 8.743
1304.291, 9.476
1305.491, 18.900
1306.691, 19.595
1307.891, 9.660
1309.091, 17.041
1310.290, 17.112
1311.490, 10.678
1312.689, 6.741
1313.888, 31.941
1315.086, 10.781
1316.285, 34.469
1317.483, 5.858
1318.681, 4.992
1319.879, 21.359
1321.077, 30.638
1322.275, 16.168
1323.472, 18.745
1324.669, 5.257
1325.866, 20.159
1327.063, 9.369
1328.260, 47.042
1329.456, 11.242
1330.653, 35.422
1331.849, 30.322
1333.045, 23.108
1334.240, 4.288
1335.436, 25.233
1336.631, 5.938
1337.826, 13.057
1339.021, 5.676
1340.216, 3.646
1341.411, 1.059
1342.605, 17.583
1343.799, 12.099
1344.993, 14.719
1346.187, 18.851
1347.381, 15.113
1348.574, 21.456
1349.767, 7.029
1350.961, 11.616
1352.153, 3.821
1353.346, 23.717
1354.539, 14.251
1355.731, 14.760
1356.923, 37.744
1358.115, 0.716
1359.307, 43.165
1360.498, 17.346
1361.690, 21.075
1362.881, 21.487
1364.072, 7.875
1365.263, 2.254
1366.453, 63.619
1367.644, 11.972
1368.834, 53.309
1370.024, 23.631
1371.214, 3.059
1372.404, 10.762
1373.593, 18.239
1374.783, 6.028
1375.972, 4.067
1377.161, 2.847
1378.349, 43.233
1379.538, 5.307
1380.726, 13.378
1381.915, 2.415
1383.103, 51.480
1384.290, 58.541
1385.478, 8.600
1386.665, 57.657
1387.853, 53.714
1389.040, 16.692
1390.227, 14.743
1391.413, 17.750
1392.600, 42.797
1393.786, 23.796
1394.972, 32.831
1396.158, 45.865
1397.344, 26.893
1398.530, 34.869
1399.715, 17.847
1400.900, 13.834
1402.085, 39.556
1403.270, 40.011
1404.455, 48.262
1405.639, 43.098
1406.824, 44.667
1408.008, 34.262
1409.192, 5.212
1410.375, 37.385
1411.559, 16.851
1412.742, 70.411
1413.925, 11.575
1415.108, 48.362
1416.291, 11.994
1417.474, 6.640
1418.656, 49.581
1419.839, 44.358
1421.021, 62.766
1422.202, 35.064
1423.384, 20.343
1424.566, 24.920
1425.747, 11.958
1426.928, 26.997
1428.109, 38.136
1429.290, 45.010
1430.470, 22.049
1431.651, 81.189
1432.831, 4.367
1434.011, 0.507
1435.191, 38.271
1436.370, 11.434
1437.550, 0.338
1438.729, 9.458
1439.908, 47.138
1441.087, 3.265
1442.266, 44.363
1443.444, 1.528
1444.623, 12.117
1445.801, 18.254
1446.979, 9.659
1448.157, 28.918
1449.334, 41.551
1450.512, 22.350
1451.689, 25.195
1452.866, 39.340
1454.043, 38.856
1455.220, 21.581
1456.396, 44.204
1457.573, 54.919
1458.749, 32.365
1459.925, 16.744
1461.100, 23.427
1462.276, 24.052
1463.451, 22.447
1464.627, 56.532
1465.802, 65.571
1466.977, 67.865
1468.151, 67.395
1469.326, 63.921
1470.500, 35.066
1471.674, 20.135
1472.848, 10.856
1474.022, 30.871
1475.195, 10.604
1476.369, 14.457
1477.542, 58.133
1478.715, 3.911
1479.888, 25.723
1481.061, 57.568
1482.233, 24.373
1483.405, 49.537
1484.577, 17.399
1485.749, 34.499
1486.921, 20.336
1488.093, 33.318
1489.264, 40.748
1490.435, 44.301
1491.606, 13.186
1492.777, 16.054
1493.948, 32.875
1495.118, 15.970
1496.288, 55.163
1497.459, 22.522
1498.628, 46.641
1499.798, 33.256
1500.968, 2.779
1502.137, 48.349
1503.306, 2.876
1504.475, 31.064
1505.644, 17.256
1506.813, 58.424
1507.981, 33.950
1509.149, 43.337
1510.318, 29.270
1511.485, 36.755
1512.653, 41.301
1513.821, 27.240
1514.988, 0.155
1516.155, 0.000
##END=



