##NAMES=Rutile
##RRUFFID=R050031
##IDEAL CHEMISTRY=Ti^4+^O_2_
##LOCALITY=Chester City, Pennsylvannia, USA
##OWNER=RRUFF
##SOURCE=University of Arizona Mineral Museum
##DESCRIPTION=Reddish brown single crystal fragment
##STATUS=The identification of this mineral has been confirmed by X-ray diffraction and chemical analysis
##URL=rruff.info/R050031
##MEASURED CHEMISTRY=TiO_2_
##PIN_ID=M00200
##ORIENTATION=Laser parallel to c* (0 0 1). Fiducial mark perpendicular to laser is parallel to a [1 0 0]
101.049, 0.000
102.446, 33.507
103.843, 3.091
105.240, 21.713
106.637, 104.530
108.033, 190.065
109.429, 611.944
110.825, 708.176
112.220, 825.585
113.616, 1162.713
115.011, 885.169
116.406, 1144.280
117.800, 1071.285
119.195, 961.851
120.589, 980.588
121.983, 1168.187
123.377, 1096.716
124.770, 1157.794
126.163, 1186.832
127.556, 1195.866
128.949, 1271.146
130.342, 1215.203
131.734, 1499.069
133.126, 1647.052
134.518, 1974.889
135.909, 2387.279
137.301, 2859.105
138.692, 3153.414
140.083, 3227.813
141.473, 3181.779
142.864, 2775.984
144.254, 2040.434
145.644, 1485.136
147.034, 1090.094
148.423, 895.305
149.812, 660.757
151.201, 546.440
152.590, 312.335
153.979, 298.424
155.367, 105.692
156.755, 50.133
158.143, 5.271
159.530, 138.539
160.918, 127.672
162.305, 78.668
163.692, 73.528
165.078, 51.378
166.465, 17.871
167.851, 7.633
169.237, 23.247
170.623, 113.965
172.008, 149.783
173.393, 288.699
174.778, 316.724
176.163, 515.020
177.548, 613.532
178.932, 732.121
180.316, 790.773
181.700, 909.489
183.083, 1028.267
184.467, 1177.167
185.850, 1376.370
187.233, 1445.853
188.616, 1595.588
189.998, 1755.546
191.380, 1655.701
192.762, 2016.025
194.144, 1936.487
195.525, 2097.065
196.907, 2137.741
198.288, 2338.497
199.669, 2259.293
201.049, 2500.094
202.429, 2530.880
203.810, 2721.653
205.189, 2782.416
206.569, 2813.172
207.949, 2993.935
209.328, 3184.760
210.707, 3205.592
212.085, 3236.404
213.464, 3377.146
214.842, 3567.710
216.220, 3618.231
217.598, 3738.796
218.976, 3849.478
220.353, 3970.266
221.730, 4001.116
223.107, 4202.107
224.483, 4123.139
225.860, 4464.189
227.236, 4415.256
228.612, 4616.339
229.988, 4637.438
231.363, 4698.554
232.738, 4899.688
234.113, 4740.840
235.488, 4972.014
236.863, 4753.207
238.237, 4954.422
239.611, 4905.657
240.985, 4796.916
242.359, 4928.197
243.732, 4659.502
245.105, 4690.830
246.478, 4452.184
247.851, 4204.745
249.223, 4151.563
250.595, 3967.752
251.967, 3732.285
253.339, 3524.188
254.711, 3375.564
256.082, 3146.970
257.453, 3058.406
258.824, 2879.871
260.195, 2691.367
261.565, 2482.893
262.935, 2444.449
264.305, 2326.038
265.675, 2317.659
267.044, 2197.054
268.414, 2066.351
269.783, 2025.465
271.151, 1864.435
272.520, 1803.172
273.888, 1791.663
275.256, 1609.881
276.624, 1587.801
277.992, 1555.432
279.359, 1312.792
280.726, 1379.870
282.093, 1286.596
283.460, 1082.932
284.827, 1088.908
286.193, 934.571
287.559, 889.972
288.925, 845.147
290.290, 700.131
291.656, 754.887
293.021, 529.332
294.386, 533.311
295.750, 456.531
297.115, 488.991
298.479, 410.887
299.843, 360.426
301.207, 327.767
302.570, 361.040
303.933, 313.545
305.296, 344.649
306.659, 306.031
308.022, 410.464
309.384, 481.947
310.746, 493.479
312.108, 475.062
313.470, 478.099
314.831, 501.977
316.193, 565.502
317.554, 615.488
318.914, 617.621
320.275, 588.669
321.635, 596.441
322.995, 537.630
324.355, 540.961
325.715, 583.766
327.074, 480.334
328.434, 442.021
329.792, 499.143
331.151, 454.957
332.510, 386.983
333.868, 412.813
335.226, 423.116
336.584, 435.760
337.941, 412.225
339.299, 440.276
340.656, 441.239
342.013, 458.418
343.370, 424.775
344.726, 352.320
346.082, 620.181
347.438, 403.793
348.794, 645.439
350.150, 548.118
351.505, 610.827
352.860, 533.568
354.215, 586.340
355.570, 669.139
356.924, 651.968
358.278, 624.825
359.632, 657.712
360.986, 780.627
362.339, 553.570
363.693, 686.543
365.046, 589.544
366.399, 512.573
367.751, 555.633
369.104, 568.723
370.456, 445.840
371.808, 386.989
373.159, 445.169
374.511, 468.379
375.862, 414.619
377.213, 375.891
378.564, 328.195
379.914, 265.531
381.265, 250.902
382.615, 155.921
383.965, 217.249
385.315, 240.675
386.664, 228.258
388.013, 72.462
389.362, 101.883
390.711, 57.122
392.060, 9.351
393.408, 64.948
394.756, 69.811
396.104, 25.941
397.451, 7.223
398.799, 12.479
400.146, 8.286
401.493, 18.855
402.840, 169.907
404.186, 65.769
405.533, 78.665
406.879, 141.599
408.225, 65.567
409.570, 76.573
410.916, 61.608
412.261, 143.656
413.606, 201.719
414.951, 244.801
416.295, 339.917
417.639, 342.074
418.983, 408.271
420.327, 524.510
421.671, 562.789
423.014, 657.109
424.357, 721.472
425.700, 735.875
427.043, 813.902
428.386, 854.812
429.728, 969.312
431.070, 1063.824
432.412, 1258.349
433.753, 1212.889
435.095, 1207.441
436.436, 1422.012
437.777, 1476.601
439.118, 1551.209
440.458, 1605.840
441.798, 1580.492
443.138, 1495.170
444.478, 1549.874
445.818, 1644.607
447.157, 1449.370
448.496, 1544.164
449.835, 1388.994
451.174, 1383.857
452.513, 1288.757
453.851, 1123.692
455.189, 1218.669
456.527, 983.687
457.864, 948.748
459.202, 823.859
460.539, 659.021
461.876, 668.237
463.212, 462.507
464.549, 556.832
465.885, 411.212
467.221, 409.648
468.557, 304.141
469.893, 326.688
471.228, 233.291
472.563, 28.951
473.898, 30.334
475.233, 70.579
476.567, 71.795
477.902, 32.981
479.236, 84.115
480.570, 127.213
481.903, 86.279
483.237, 207.292
484.570, 213.290
485.903, 185.238
487.235, 195.132
488.568, 286.986
489.900, 164.844
491.232, 292.657
492.564, 182.490
493.896, 241.301
495.227, 280.120
496.558, 107.974
497.889, 151.793
499.220, 1.396
500.551, 159.350
501.881, 126.094
503.211, 104.825
504.541, 33.465
505.870, 8.185
507.200, 60.219
508.529, 146.684
509.858, 303.208
511.187, 277.792
512.515, 270.438
513.844, 428.145
515.172, 505.912
516.500, 473.740
517.827, 470.630
519.155, 690.581
520.482, 716.594
521.809, 807.670
523.136, 789.807
524.462, 867.005
525.789, 950.599
527.115, 1012.592
528.441, 1146.978
529.766, 1204.128
531.092, 1305.851
532.417, 1369.517
533.742, 1527.156
535.067, 1644.858
536.391, 1832.625
537.716, 1870.455
539.040, 2108.350
540.364, 2216.309
541.688, 2364.332
543.011, 2542.419
544.334, 2610.569
545.657, 3008.785
546.980, 3107.066
548.303, 3595.412
549.625, 3643.823
550.947, 3962.299
552.269, 4189.786
553.591, 4378.396
554.913, 4782.192
556.234, 5048.295
557.555, 5505.397
558.876, 5922.387
560.197, 6220.434
561.517, 6867.138
562.837, 7211.042
564.157, 8077.426
565.477, 8116.789
566.797, 8616.257
568.116, 9135.842
569.435, 10015.524
570.754, 10285.338
572.073, 11205.262
573.391, 12055.306
574.709, 12695.446
576.027, 13305.682
577.345, 14146.020
578.663, 14896.460
579.980, 15937.007
581.297, 16847.666
582.614, 17828.412
583.931, 18844.135
585.248, 19570.207
586.564, 20861.248
587.880, 22062.391
589.196, 23073.633
590.511, 24454.975
591.827, 25426.416
593.142, 26877.957
594.457, 28159.885
595.772, 29941.328
597.086, 30983.150
598.401, 32805.062
599.715, 34467.066
601.029, 36409.148
602.343, 37041.320
603.656, 38223.566
604.969, 40055.898
606.282, 40518.305
607.595, 41140.801
608.908, 41813.359
610.220, 41986.016
611.532, 41748.742
612.844, 41541.547
614.156, 40964.422
615.468, 40037.375
616.779, 38630.434
618.090, 37163.539
619.401, 36586.754
620.712, 34190.027
622.022, 33563.387
623.332, 31306.801
624.642, 29720.295
625.952, 28153.859
627.262, 26847.502
628.571, 25261.219
629.880, 24015.006
631.189, 22708.869
632.498, 21241.379
633.807, 19982.297
635.115, 18839.324
636.423, 18065.938
637.731, 16846.537
639.039, 16055.248
640.346, 15425.944
641.653, 14280.921
642.960, 13905.709
644.267, 13032.015
645.574, 12457.938
646.880, 11829.364
648.186, 11447.036
649.492, 11068.409
650.798, 10545.433
652.103, 10079.626
653.409, 9571.995
654.714, 9302.872
656.019, 8991.850
657.323, 8716.958
658.628, 8435.819
659.932, 8296.335
661.236, 7677.929
662.540, 7883.437
663.843, 7388.731
665.147, 7274.373
666.450, 7150.081
667.753, 7025.855
669.056, 6871.693
670.358, 6437.597
671.660, 6453.565
672.963, 6239.598
674.264, 6235.695
675.566, 5951.854
676.868, 5888.076
678.169, 5734.361
679.470, 5620.709
680.771, 5637.119
682.071, 5443.590
683.372, 5400.121
684.672, 5216.715
685.972, 5183.370
687.271, 5090.082
688.571, 4966.854
689.870, 4953.687
691.169, 4750.576
692.468, 4637.521
693.767, 4494.524
695.065, 4621.585
696.364, 4418.703
697.662, 4365.877
698.960, 4193.106
700.257, 4076.801
701.555, 3947.732
702.852, 3825.125
704.149, 3752.572
705.446, 3600.071
706.742, 3407.623
708.038, 3235.234
709.335, 3203.185
710.631, 3101.315
711.926, 3160.069
713.222, 2810.479
714.517, 2653.591
715.812, 2778.341
717.107, 2519.687
718.402, 2453.070
719.696, 2326.047
720.990, 2330.943
722.284, 2048.007
723.578, 2136.476
724.872, 2027.027
726.165, 1841.147
727.458, 1814.460
728.751, 1809.289
730.044, 1751.292
731.336, 1713.178
732.629, 1556.196
733.921, 1598.157
735.213, 1466.822
736.504, 1340.196
737.796, 1395.007
739.087, 1225.173
740.378, 1252.008
741.669, 1152.742
742.960, 1150.419
744.250, 1090.122
745.540, 1076.448
746.830, 1088.641
748.120, 1049.652
749.410, 1028.230
750.699, 983.038
751.988, 953.079
753.277, 887.460
754.566, 837.611
755.854, 830.237
757.143, 801.948
758.431, 810.926
759.719, 799.227
761.006, 820.148
762.294, 820.866
763.581, 868.977
764.868, 832.052
766.155, 784.993
767.442, 773.389
768.728, 698.033
770.014, 765.970
771.300, 805.033
772.586, 791.187
773.872, 898.984
775.157, 808.075
776.442, 895.239
777.727, 887.627
779.012, 958.540
780.297, 943.531
781.581, 886.557
782.865, 899.661
784.149, 1008.280
785.433, 1097.165
786.716, 966.647
787.999, 1140.068
789.282, 1005.278
790.565, 1059.186
791.848, 1153.867
793.130, 1121.192
794.413, 1259.585
795.695, 1185.138
796.977, 1138.218
798.258, 1153.469
799.540, 1165.202
800.821, 1191.176
802.102, 1195.418
803.382, 1192.676
804.663, 1197.120
805.943, 1174.625
807.224, 1144.078
808.504, 1134.588
809.783, 1137.042
811.063, 1105.077
812.342, 1100.477
813.621, 1094.909
814.900, 1039.605
816.179, 1109.024
817.457, 1123.214
818.736, 1175.465
820.014, 1138.420
821.292, 1066.906
822.569, 1043.881
823.847, 1023.084
825.124, 981.097
826.401, 997.454
827.678, 970.349
828.954, 974.392
830.231, 931.337
831.507, 882.407
832.783, 849.367
834.059, 820.127
835.334, 760.231
836.610, 735.136
837.885, 770.021
839.160, 627.925
840.435, 636.655
841.709, 518.348
842.983, 523.043
844.258, 415.452
845.532, 411.943
846.805, 352.527
848.079, 258.192
849.352, 213.745
850.625, 147.293
851.898, 248.682
853.171, 113.025
854.443, 118.367
855.715, 128.560
856.988, 42.730
858.259, 65.798
859.531, 48.913
860.803, 31.895
862.074, 2.111
863.345, 6.129
864.616, 17.052
865.886, 40.334
867.157, 128.127
868.427, 39.613
869.697, 5.919
870.967, 10.806
872.236, 146.083
873.506, 94.235
874.775, 126.051
876.044, 161.700
877.313, 80.773
878.581, 214.723
879.849, 135.656
881.118, 157.388
882.386, 78.169
883.653, 74.018
884.921, 89.795
886.188, 86.676
887.455, 111.660
888.722, 120.863
889.989, 30.172
891.255, 65.709
892.522, 106.265
893.788, 39.022
895.054, 99.973
896.319, 34.845
897.585, 74.869
898.850, 71.007
900.115, 82.388
901.380, 33.140
902.645, 57.804
903.909, 9.531
905.174, 50.155
906.438, 2.764
907.701, 19.278
908.965, 53.472
910.229, 11.822
911.492, 5.958
912.755, 90.564
914.018, 1.935
915.280, 37.379
916.543, 15.670
917.805, 19.898
919.067, 76.065
920.329, 30.138
921.590, 55.166
922.852, 11.092
924.113, 50.968
925.374, 11.660
926.635, 115.083
927.895, 56.770
929.156, 98.219
930.416, 71.688
931.676, 69.992
932.936, 70.352
934.195, 68.655
935.454, 95.787
936.714, 82.970
937.973, 108.034
939.231, 115.099
940.490, 73.882
941.748, 90.757
943.006, 59.521
944.264, 128.109
945.522, 140.649
946.780, 124.150
948.037, 173.631
949.294, 160.010
950.551, 124.180
951.808, 208.349
953.064, 176.473
954.320, 188.483
955.577, 171.764
956.832, 168.615
958.088, 181.480
959.344, 182.213
960.599, 191.714
961.854, 275.006
963.109, 202.595
964.364, 224.205
965.618, 160.359
966.872, 209.138
968.127, 248.007
969.380, 231.744
970.634, 228.703
971.888, 242.517
973.141, 290.384
974.394, 233.095
975.647, 275.621
976.900, 212.162
978.152, 296.741
979.404, 257.885
980.656, 277.095
981.908, 243.173
983.160, 265.279
984.411, 308.447
985.663, 232.417
986.914, 264.209
988.165, 264.236
989.415, 254.712
990.666, 290.275
991.916, 293.942
993.166, 287.323
994.416, 349.847
995.665, 324.074
996.915, 295.359
998.164, 269.481
999.413, 289.440
1000.662, 283.492
1001.911, 314.255
1003.159, 318.288
1004.407, 311.029
1005.655, 338.654
1006.903, 336.038
1008.151, 352.600
1009.398, 332.866
1010.646, 356.066
1011.893, 344.285
1013.139, 337.050
1014.386, 339.770
1015.633, 339.700
1016.879, 357.903
1018.125, 326.493
1019.371, 352.520
1020.616, 376.814
1021.862, 368.053
1023.107, 364.625
1024.352, 324.191
1025.597, 382.508
1026.842, 333.433
1028.086, 330.227
1029.330, 255.385
1030.574, 264.295
1031.818, 311.758
1033.062, 296.099
1034.305, 247.231
1035.548, 237.392
1036.791, 227.406
1038.034, 239.595
1039.277, 223.258
1040.519, 252.082
1041.762, 223.795
1043.004, 231.700
1044.246, 249.669
1045.487, 190.669
1046.729, 198.715
1047.970, 189.983
1049.211, 212.504
1050.452, 262.980
1051.692, 212.389
1052.933, 193.169
1054.173, 142.877
1055.413, 218.895
1056.653, 185.131
1057.893, 206.833
1059.132, 198.736
1060.371, 153.676
1061.610, 170.477
1062.849, 209.590
1064.088, 165.861
1065.326, 181.692
1066.565, 172.511
1067.803, 163.416
1069.041, 166.825
1070.278, 154.928
1071.516, 202.690
1072.753, 96.275
1073.990, 162.717
1075.227, 200.480
1076.464, 118.882
1077.700, 154.159
1078.936, 130.159
1080.173, 148.582
1081.408, 113.977
1082.644, 144.177
1083.880, 87.247
1085.115, 92.745
1086.350, 99.923
1087.585, 79.703
1088.820, 126.984
1090.054, 82.701
1091.288, 87.679
1092.522, 105.834
1093.756, 97.217
1094.990, 86.676
1096.224, 70.847
1097.457, 75.700
1098.690, 105.975
1099.923, 84.910
1101.156, 76.585
1102.388, 83.986
1103.621, 20.435
1104.853, 81.614
1106.085, 57.698
1107.316, 68.827
1108.548, 103.902
1109.779, 132.995
1111.010, 42.522
1112.241, 26.574
1113.472, 105.701
1114.703, 173.625
1115.933, 131.343
1117.163, 142.695
1118.393, 69.225
1119.623, 83.090
1120.853, 49.985
1122.082, 67.000
1123.311, 90.934
1124.540, 66.779
1125.769, 36.357
1126.997, 120.269
1128.226, 83.927
1129.454, 94.594
1130.682, 67.067
1131.910, 31.647
1133.138, 58.338
1134.365, 79.677
1135.592, 11.004
1136.819, 113.380
1138.046, 71.705
1139.273, 26.108
1140.499, 73.610
1141.725, 19.021
1142.951, 69.589
1144.177, 35.048
1145.403, 53.264
1146.628, 71.192
1147.854, 37.253
1149.079, 66.359
1150.304, 0.336
1151.528, 39.521
1152.753, 46.770
1153.977, 86.452
1155.201, 23.657
1156.425, 73.831
1157.649, 68.767
1158.872, 23.790
1160.096, 80.760
1161.319, 21.717
1162.542, 58.675
1163.764, 70.591
1164.987, 42.501
1166.209, 18.414
1167.431, 46.944
1168.653, 42.936
1169.875, 52.643
1171.097, 64.454
1172.318, 74.269
1173.539, 62.226
1174.760, 64.118
1175.981, 71.143
1177.202, 75.271
1178.422, 49.121
1179.642, 27.247
1180.862, 97.618
1182.082, 49.274
1183.302, 92.592
1184.521, 119.411
1185.740, 108.191
1186.959, 100.057
1188.178, 78.113
1189.397, 105.026
1190.615, 104.437
1191.834, 101.002
1193.052, 74.575
1194.269, 100.326
1195.487, 61.155
1196.705, 104.052
1197.922, 109.393
1199.139, 93.120
1200.356, 83.051
1201.573, 82.469
1202.789, 75.747
1204.006, 78.641
1205.222, 82.902
1206.438, 70.502
1207.653, 99.434
1208.869, 117.355
1210.084, 129.562
1211.299, 110.725
1212.514, 111.687
1213.729, 117.658
1214.944, 99.547
1216.158, 112.396
1217.372, 102.165
1218.586, 110.165
1219.800, 100.556
1221.014, 95.388
1222.227, 126.266
1223.440, 121.845
1224.654, 118.446
1225.866, 128.162
1227.079, 71.719
1228.292, 118.299
1229.504, 119.956
1230.716, 123.409
1231.928, 172.900
1233.139, 112.396
1234.351, 144.050
1235.562, 126.516
1236.773, 149.007
1237.984, 145.237
1239.195, 120.792
1240.406, 163.105
1241.616, 154.389
1242.826, 78.828
1244.036, 184.985
1245.246, 105.370
1246.456, 95.554
1247.665, 82.697
1248.874, 77.973
1250.083, 91.898
1251.292, 93.192
1252.501, 88.828
1253.709, 86.686
1254.917, 85.080
1256.125, 73.568
1257.333, 84.692
1258.541, 88.646
1259.748, 72.854
1260.956, 103.327
1262.163, 70.617
1263.370, 126.123
1264.576, 97.292
1265.783, 82.263
1266.989, 106.351
1268.195, 36.481
1269.401, 122.700
1270.607, 51.678
1271.813, 65.589
1273.018, 74.757
1274.223, 78.893
1275.428, 78.989
1276.633, 63.069
1277.838, 66.908
1279.042, 51.829
1280.246, 94.849
1281.450, 60.438
1282.654, 51.552
1283.858, 56.467
1285.061, 24.105
1286.265, 27.568
1287.468, 40.525
1288.671, 29.315
1289.873, 47.005
1291.076, 78.733
1292.278, 55.583
1293.480, 28.868
1294.682, 79.597
1295.884, 23.937
1297.086, 2.303
1298.287, 35.550
1299.488, 5.224
1300.689, 18.844
1301.890, 45.554
1303.091, 38.087
1304.291, 28.946
1305.491, 15.713
1306.691, 9.179
1307.891, 11.921
1309.091, 27.562
1310.290, 2.082
1311.490, 35.506
1312.689, 21.010
1313.888, 15.500
1315.086, 3.019
1316.285, 17.009
1317.483, 50.169
1318.681, 29.700
1319.879, 0.233
1321.077, 11.187
1322.275, 6.394
1323.472, 1.821
1324.669, 29.854
1325.866, 58.833
1327.063, 47.744
1328.260, 13.871
1329.456, 37.526
1330.653, 20.038
1331.849, 4.558
1333.045, 39.024
1334.240, 10.465
1335.436, 11.977
1336.631, 16.527
1337.826, 54.780
1339.021, 35.197
1340.216, 48.423
1341.411, 1.884
1342.605, 14.688
1343.799, 39.623
1344.993, 28.960
1346.187, 16.797
1347.381, 46.398
1348.574, 23.636
1349.767, 15.166
1350.961, 5.960
1352.153, 25.193
1353.346, 0.573
1354.539, 4.355
1355.731, 20.846
1356.923, 9.030
1358.115, 19.198
1359.307, 28.539
1360.498, 34.739
1361.690, 24.653
1362.881, 67.758
1364.072, 26.856
1365.263, 54.917
1366.453, 40.979
1367.644, 69.105
1368.834, 15.782
1370.024, 69.804
1371.214, 27.793
1372.404, 37.794
1373.593, 27.682
1374.783, 21.512
1375.972, 25.385
1377.161, 2.065
1378.349, 30.129
1379.538, 4.786
1380.726, 78.691
1381.915, 12.523
1383.103, 60.408
1384.290, 55.244
1385.478, 4.052
1386.665, 95.905
1387.853, 45.717
1389.040, 75.460
1390.227, 71.215
1391.413, 44.951
1392.600, 42.754
1393.786, 35.329
1394.972, 26.869
1396.158, 35.544
1397.344, 19.208
1398.530, 34.809
1399.715, 29.290
1400.900, 42.898
1402.085, 69.313
1403.270, 77.436
1404.455, 76.642
1405.639, 31.134
1406.824, 36.397
1408.008, 4.257
1409.192, 29.654
1410.375, 34.520
1411.559, 35.698
1412.742, 67.648
1413.925, 51.452
1415.108, 77.287
1416.291, 37.965
1417.474, 54.911
1418.656, 29.888
1419.839, 50.622
1421.021, 54.840
1422.202, 47.361
1423.384, 70.588
1424.566, 43.356
1425.747, 47.851
1426.928, 69.631
1428.109, 61.213
1429.290, 54.995
1430.470, 64.809
1431.651, 43.967
1432.831, 49.116
1434.011, 36.661
1435.191, 6.338
1436.370, 58.768
1437.550, 10.426
1438.729, 16.698
1439.908, 24.057
1441.087, 62.615
1442.266, 27.075
1443.444, 60.740
1444.623, 61.179
1445.801, 6.437
1446.979, 43.540
1448.157, 64.121
1449.334, 16.143
1450.512, 71.323
1451.689, 127.721
1452.866, 52.673
1454.043, 48.960
1455.220, 63.173
1456.396, 63.957
1457.573, 67.701
1458.749, 64.234
1459.925, 69.357
1461.100, 53.456
1462.276, 41.095
1463.451, 38.392
1464.627, 52.469
1465.802, 60.887
1466.977, 23.462
1468.151, 35.719
1469.326, 24.757
1470.500, 44.042
1471.674, 73.620
1472.848, 105.288
1474.022, 55.167
1475.195, 29.879
1476.369, 106.408
1477.542, 40.989
1478.715, 56.912
1479.888, 35.110
1481.061, 64.266
1482.233, 20.930
1483.405, 28.194
1484.577, 89.134
1485.749, 17.597
1486.921, 79.984
1488.093, 57.344
1489.264, 25.690
1490.435, 74.842
1491.606, 93.046
1492.777, 46.906
1493.948, 51.554
1495.118, 40.851
1496.288, 42.094
1497.459, 61.905
1498.628, 39.243
1499.798, 74.600
1500.968, 79.220
1502.137, 22.992
1503.306, 100.423
1504.475, 34.402
1505.644, 49.841
1506.813, 113.380
1507.981, 19.985
1509.149, 3.337
1510.318, 60.575
1511.485, 22.321
1512.653, 106.392
1513.821, 30.212
1514.988, 23.295
1516.155, 0.555
1517.322, 0.000
##END=



