##NAMES=Rutile
##RRUFFID=R050031
##IDEAL CHEMISTRY=Ti^4+^O_2_
##LOCALITY=Chester City, Pennsylvannia, USA
##OWNER=RRUFF
##SOURCE=University of Arizona Mineral Museum
##DESCRIPTION=Reddish brown single crystal fragment
##STATUS=The identification of this mineral has been confirmed by X-ray diffraction and chemical analysis
##URL=rruff.info/R050031
##MEASURED CHEMISTRY=TiO_2_
##PIN_ID=M00200
##ORIENTATION=Laser parallel to c* (0 0 1). Fiducial mark perpendicular to laser is parallel to a [1 0 0]
96.856, 0.000
98.254, 0.464
99.652, 45.558
101.049, 4.680
102.446, 132.021
103.843, 326.195
105.240, 489.304
106.637, 631.473
108.033, 642.911
109.429, 956.158
110.825, 1501.641
112.220, 1436.030
113.616, 1507.154
115.011, 1196.906
116.406, 1334.545
117.800, 1177.876
119.195, 1185.576
120.589, 1184.161
121.983, 1292.026
123.377, 1213.481
124.770, 1186.770
126.163, 1168.862
127.556, 1088.852
128.949, 1194.047
130.342, 1188.697
131.734, 1308.661
133.126, 1220.212
134.518, 1192.438
135.909, 1297.980
137.301, 1291.832
138.692, 1389.971
140.083, 1311.380
141.473, 1333.044
142.864, 1121.951
144.254, 902.088
145.644, 730.441
147.034, 621.999
148.423, 349.748
149.812, 336.679
151.201, 314.779
152.590, 135.040
153.979, 104.457
155.367, 75.022
156.755, 7.263
158.143, 66.381
159.530, 24.321
160.918, 105.087
162.305, 53.686
163.692, 96.127
165.078, 83.418
166.465, 23.563
167.851, 58.452
169.237, 50.626
170.623, 141.065
172.008, 199.758
173.393, 230.856
174.778, 359.087
176.163, 507.399
177.548, 552.792
178.932, 701.264
180.316, 759.818
181.700, 945.447
183.083, 1038.155
184.467, 1181.945
185.850, 1281.815
187.233, 1369.761
188.616, 1379.777
189.998, 1591.859
191.380, 1598.000
192.762, 1814.201
194.144, 1970.456
195.525, 1936.762
196.907, 2073.104
198.288, 2139.474
199.669, 2285.869
201.049, 2391.433
202.429, 2378.750
203.810, 2585.240
205.189, 2641.767
206.569, 2648.330
207.949, 2694.933
209.328, 2792.952
210.707, 2902.004
212.085, 3025.062
213.464, 3191.878
214.842, 3348.815
216.220, 3476.041
217.598, 3463.602
218.976, 3511.415
220.353, 3699.418
221.730, 3697.537
223.107, 3925.700
224.483, 3943.890
225.860, 4252.105
227.236, 4260.354
228.612, 4468.629
229.988, 4446.936
231.363, 4485.272
232.738, 4743.644
234.113, 4732.047
235.488, 4830.484
236.863, 4749.711
238.237, 4988.213
239.611, 4816.821
240.985, 4866.844
242.359, 4907.309
243.732, 4752.856
245.105, 4741.547
246.478, 4525.660
247.851, 4376.606
249.223, 4225.422
250.595, 4135.836
251.967, 3932.234
253.339, 3760.617
254.711, 3551.823
256.082, 3400.573
257.453, 3189.365
258.824, 3108.201
260.195, 2857.080
261.565, 2746.005
262.935, 2575.516
264.305, 2504.244
265.675, 2413.473
267.044, 2342.630
268.414, 2151.990
269.783, 2191.384
271.151, 1950.798
272.520, 1880.213
273.888, 1869.622
275.256, 1749.027
276.624, 1738.429
277.992, 1527.820
279.359, 1497.161
280.726, 1506.440
282.093, 1313.677
283.460, 1237.885
284.827, 1123.075
286.193, 1037.259
287.559, 974.443
288.925, 919.634
290.290, 763.837
291.656, 667.037
293.021, 613.020
294.386, 532.962
295.750, 525.233
297.115, 485.563
298.479, 419.951
299.843, 475.405
301.207, 328.926
302.570, 280.511
303.933, 325.159
305.296, 396.871
306.659, 343.644
308.022, 388.478
309.384, 502.371
310.746, 515.325
312.108, 545.337
313.470, 440.408
314.831, 622.536
316.193, 520.722
317.554, 565.965
318.914, 605.699
320.275, 561.346
321.635, 630.477
322.995, 568.645
324.355, 522.153
325.715, 546.958
327.074, 558.798
328.434, 457.217
329.792, 501.624
331.151, 512.995
332.510, 478.855
333.868, 451.690
335.226, 398.176
336.584, 311.887
337.941, 423.428
339.299, 378.242
340.656, 412.980
342.013, 338.870
343.370, 372.250
344.726, 298.065
346.082, 470.411
347.438, 317.745
348.794, 404.111
350.150, 322.521
351.505, 357.973
352.860, 309.468
354.215, 384.006
355.570, 438.586
356.924, 386.209
358.278, 398.875
359.632, 379.585
360.986, 451.337
362.339, 318.133
363.693, 327.972
365.046, 349.855
366.399, 252.782
367.751, 327.754
369.104, 277.770
370.456, 175.830
371.808, 200.935
373.159, 25.084
374.511, 123.274
375.862, 147.510
377.213, 73.790
378.564, 47.114
379.914, 65.482
381.265, 100.893
382.615, 6.345
383.965, 45.830
385.315, 1.644
386.664, 91.085
388.013, 36.487
389.362, 41.100
390.711, 45.752
392.060, 72.555
393.408, 150.159
394.756, 99.085
396.104, 75.314
397.451, 76.475
398.799, 28.308
400.146, 137.178
401.493, 8.909
402.840, 78.038
404.186, 150.021
405.533, 295.038
406.879, 159.068
408.225, 215.142
409.570, 338.236
410.916, 339.320
412.261, 393.450
413.606, 457.619
414.951, 600.835
416.295, 769.101
417.639, 749.415
418.983, 838.779
420.327, 1064.193
421.671, 1079.658
423.014, 1190.173
424.357, 1368.739
425.700, 1423.354
427.043, 1643.021
428.386, 1735.741
429.728, 1918.513
431.070, 2091.336
432.412, 2144.211
433.753, 2237.137
435.095, 2400.117
436.436, 2503.150
437.777, 2746.237
439.118, 2669.378
440.458, 2902.574
441.798, 2905.824
443.138, 2919.130
444.478, 2952.494
445.818, 2835.913
447.157, 2799.391
448.496, 2932.927
449.835, 2696.521
451.174, 2690.174
452.513, 2523.885
453.851, 2307.657
455.189, 2211.490
456.527, 1995.385
457.864, 1829.344
459.202, 1733.368
460.539, 1443.456
461.876, 1363.611
463.212, 1217.830
464.549, 1064.115
465.885, 796.466
467.221, 771.881
468.557, 651.363
469.893, 573.910
471.228, 558.523
472.563, 294.202
473.898, 280.947
475.233, 152.758
476.567, 161.635
477.902, 140.578
479.236, 61.412
480.570, 66.361
481.903, 96.729
483.237, 105.100
484.570, 137.875
485.903, 76.622
487.235, 234.295
488.568, 195.972
489.900, 176.627
491.232, 277.255
492.564, 245.915
493.896, 186.605
495.227, 333.302
496.558, 220.069
497.889, 216.856
499.220, 162.661
500.551, 181.461
501.881, 99.263
503.211, 110.033
504.541, 48.776
505.870, 4.531
507.200, 10.905
508.529, 48.347
509.858, 80.943
511.187, 160.436
512.515, 165.086
513.844, 286.804
515.172, 380.593
516.500, 325.451
517.827, 423.380
519.155, 431.379
520.482, 565.448
521.809, 671.587
523.136, 653.798
524.462, 663.078
525.789, 856.430
527.115, 836.852
528.441, 957.346
529.766, 905.910
531.092, 1246.546
532.417, 1178.253
533.742, 1336.389
535.067, 1415.239
536.391, 1581.162
537.716, 1667.155
539.040, 1855.158
540.364, 1869.295
541.688, 2075.505
543.011, 2241.519
544.334, 2518.826
545.657, 2644.651
546.980, 2846.144
548.303, 3193.549
549.625, 3281.121
550.947, 3568.833
552.269, 3741.650
553.591, 4149.534
554.913, 4401.240
556.234, 4754.250
557.555, 5032.379
558.876, 5446.760
560.197, 5798.663
561.517, 6325.373
562.837, 6703.884
564.157, 7202.506
565.477, 7701.231
566.797, 8219.776
568.116, 8808.993
569.435, 9377.901
570.754, 10014.266
572.073, 10676.437
573.391, 11395.811
574.709, 12045.298
576.027, 12814.897
577.345, 13504.603
578.663, 14394.430
579.980, 15214.361
581.297, 16094.397
582.614, 17044.539
583.931, 17944.793
585.248, 19039.166
586.564, 20245.602
587.880, 21296.176
589.196, 22476.861
590.511, 23657.646
591.827, 24498.557
593.142, 26049.574
594.457, 27700.688
595.772, 29081.908
597.086, 30103.225
598.401, 31614.619
599.715, 33336.109
601.029, 35187.688
602.343, 35839.344
603.656, 36951.109
604.969, 38502.949
606.282, 39134.891
607.595, 39856.906
608.908, 40359.027
610.220, 40511.227
611.532, 40153.531
612.844, 40365.926
614.156, 39318.402
615.468, 38600.949
616.779, 36993.582
618.090, 35636.285
619.401, 35149.082
620.712, 32491.941
622.022, 31914.889
623.332, 30047.924
624.642, 28401.025
625.952, 26724.211
627.262, 25437.469
628.571, 24030.805
629.880, 22714.215
631.189, 21637.703
632.498, 20181.264
633.807, 18784.902
635.115, 18208.615
636.423, 17102.402
637.731, 16223.648
639.039, 15154.785
640.346, 14718.791
641.653, 13538.344
642.960, 13176.488
644.267, 12307.544
645.574, 11771.079
646.880, 11336.646
648.186, 10893.295
649.492, 10415.003
650.798, 9928.400
652.103, 9654.886
653.409, 9044.042
654.714, 8989.092
656.019, 8474.426
657.323, 8272.601
658.628, 7999.969
659.932, 7871.301
661.236, 7573.415
662.540, 7295.891
663.843, 7061.106
665.147, 6946.450
666.450, 6761.873
667.753, 6627.366
669.056, 6372.929
670.358, 6248.562
671.660, 6124.263
672.963, 5800.031
674.264, 5915.868
675.566, 5521.771
676.868, 5477.740
678.169, 5473.776
679.470, 5329.877
680.771, 5346.043
682.071, 5192.276
683.372, 5028.571
684.672, 4934.931
685.972, 4841.353
687.271, 4817.838
688.571, 4644.385
689.870, 4680.996
691.169, 4517.670
692.468, 4384.408
693.767, 4241.205
695.065, 4328.059
696.364, 4064.975
697.662, 4041.951
698.960, 3848.985
700.257, 3796.084
701.555, 3553.241
702.852, 3630.463
704.149, 3567.985
705.446, 3357.350
706.742, 3284.804
708.038, 3140.278
709.335, 3015.654
710.631, 2884.846
711.926, 2779.227
713.222, 2701.234
714.517, 2542.222
715.812, 2497.057
717.107, 2304.677
718.402, 2289.342
719.696, 2134.616
720.990, 2176.418
722.284, 1948.521
723.578, 1974.730
724.872, 1882.741
726.165, 1666.326
727.458, 1682.774
728.751, 1658.554
730.044, 1477.342
731.336, 1452.852
732.629, 1295.862
733.921, 1458.085
735.213, 1268.017
736.504, 1249.473
737.796, 1188.398
739.087, 1067.496
740.378, 1138.438
741.669, 1054.324
742.960, 1048.571
744.250, 933.869
745.540, 924.426
746.830, 956.419
748.120, 898.606
749.410, 848.115
750.699, 857.593
751.988, 793.158
753.277, 831.174
754.566, 728.101
755.854, 784.228
757.143, 741.822
758.431, 649.374
759.719, 792.022
761.006, 719.641
762.294, 721.388
763.581, 743.890
764.868, 678.451
766.155, 638.643
767.442, 707.701
768.728, 618.159
770.014, 643.855
771.300, 726.267
772.586, 638.611
773.872, 722.639
775.157, 722.640
776.442, 758.865
777.727, 727.635
779.012, 804.259
780.297, 789.272
781.581, 749.598
782.865, 820.743
784.149, 875.263
785.433, 924.886
786.716, 882.546
787.999, 975.784
789.282, 960.738
790.565, 953.183
791.848, 1015.989
793.130, 1014.373
794.413, 983.790
795.695, 964.099
796.977, 1063.234
798.258, 1047.083
799.540, 1018.588
800.821, 1077.033
802.102, 1028.336
803.382, 1117.349
804.663, 1048.539
805.943, 1046.656
807.224, 1061.845
808.504, 921.922
809.783, 1057.270
811.063, 985.745
812.342, 875.053
813.621, 1034.136
814.900, 944.331
816.179, 1020.672
817.457, 963.987
818.736, 940.188
820.014, 872.555
821.292, 868.918
822.569, 940.261
823.847, 874.218
825.124, 867.328
826.401, 909.394
827.678, 873.320
828.954, 891.448
830.231, 793.318
831.507, 760.117
832.783, 752.229
834.059, 736.955
835.334, 690.808
836.610, 603.569
837.885, 630.414
839.160, 531.053
840.435, 513.665
841.709, 511.158
842.983, 469.049
844.258, 435.525
845.532, 385.673
846.805, 254.551
848.079, 249.822
849.352, 179.300
850.625, 81.740
851.898, 191.023
853.171, 129.210
854.443, 95.538
855.715, 76.602
856.988, 9.160
858.259, 49.942
859.531, 2.978
860.803, 30.839
862.074, 48.342
863.345, 10.467
864.616, 32.774
865.886, 10.033
867.157, 29.444
868.427, 71.832
869.697, 65.590
870.967, 79.226
872.236, 118.032
873.506, 75.893
874.775, 78.000
876.044, 92.997
877.313, 55.374
878.581, 141.627
879.849, 89.169
881.118, 107.930
882.386, 105.693
883.653, 98.917
884.921, 88.695
886.188, 105.788
887.455, 83.038
888.722, 73.333
889.989, 62.805
891.255, 79.452
892.522, 27.200
893.788, 119.949
895.054, 76.031
896.319, 59.068
897.585, 93.279
898.850, 82.549
900.115, 83.969
901.380, 39.683
902.645, 69.455
903.909, 10.689
905.174, 4.678
906.438, 7.632
907.701, 26.436
908.965, 17.326
910.229, 29.959
911.492, 14.204
912.755, 55.434
914.018, 2.812
915.280, 8.120
916.543, 7.622
917.805, 16.456
919.067, 2.801
920.329, 81.686
921.590, 43.571
922.852, 71.323
924.113, 97.142
925.374, 62.833
926.635, 66.378
927.895, 27.807
929.156, 82.126
930.416, 93.303
931.676, 74.491
932.936, 62.483
934.195, 134.482
935.454, 108.563
936.714, 104.473
937.973, 104.282
939.231, 75.065
940.490, 90.615
941.748, 124.413
943.006, 102.937
944.264, 134.169
945.522, 134.524
946.780, 144.822
948.037, 162.070
949.294, 199.091
950.551, 139.086
951.808, 149.090
953.064, 164.835
954.320, 201.690
955.577, 188.351
956.832, 204.152
958.088, 200.825
959.344, 223.371
960.599, 196.859
961.854, 187.342
963.109, 211.529
964.364, 242.857
965.618, 232.002
966.872, 217.144
968.127, 221.074
969.380, 234.822
970.634, 214.744
971.888, 216.380
973.141, 214.884
974.394, 265.546
975.647, 243.048
976.900, 247.301
978.152, 263.602
979.404, 237.696
980.656, 269.624
981.908, 282.442
983.160, 235.143
984.411, 291.011
985.663, 262.602
986.914, 273.107
988.165, 259.658
989.415, 291.943
990.666, 293.320
991.916, 315.578
993.166, 244.740
994.416, 307.929
995.665, 265.824
996.915, 323.930
998.164, 337.817
999.413, 281.377
1000.662, 282.966
1001.911, 313.520
1003.159, 328.933
1004.407, 287.218
1005.655, 342.618
1006.903, 292.774
1008.151, 315.646
1009.398, 322.711
1010.646, 355.613
1011.893, 356.577
1013.139, 324.650
1014.386, 355.867
1015.633, 327.280
1016.879, 349.862
1018.125, 327.095
1019.371, 389.455
1020.616, 334.948
1021.862, 347.464
1023.107, 324.188
1024.352, 354.699
1025.597, 298.613
1026.842, 356.615
1028.086, 300.645
1029.330, 326.993
1030.574, 345.490
1031.818, 308.647
1033.062, 315.713
1034.305, 302.906
1035.548, 277.617
1036.791, 276.177
1038.034, 251.883
1039.277, 260.125
1040.519, 269.790
1041.762, 258.157
1043.004, 231.680
1044.246, 267.305
1045.487, 220.397
1046.729, 228.517
1047.970, 202.296
1049.211, 199.583
1050.452, 230.575
1051.692, 213.260
1052.933, 195.961
1054.173, 210.522
1055.413, 194.532
1056.653, 206.656
1057.893, 164.491
1059.132, 183.781
1060.371, 142.068
1061.610, 141.262
1062.849, 183.390
1064.088, 173.456
1065.326, 159.609
1066.565, 152.714
1067.803, 150.391
1069.041, 110.592
1070.278, 141.599
1071.516, 150.683
1072.753, 114.308
1073.990, 125.286
1075.227, 138.617
1076.464, 144.842
1077.700, 146.038
1078.936, 158.845
1080.173, 135.660
1081.408, 160.666
1082.644, 136.307
1083.880, 97.073
1085.115, 117.411
1086.350, 120.593
1087.585, 105.682
1088.820, 87.138
1090.054, 108.823
1091.288, 101.960
1092.522, 149.696
1093.756, 99.794
1094.990, 92.818
1096.224, 83.901
1097.457, 118.112
1098.690, 104.580
1099.923, 81.350
1101.156, 122.185
1102.388, 75.127
1103.621, 101.498
1104.853, 51.526
1106.085, 53.109
1107.316, 73.638
1108.548, 61.751
1109.779, 46.638
1111.010, 91.355
1112.241, 43.174
1113.472, 60.188
1114.703, 44.132
1115.933, 69.888
1117.163, 92.636
1118.393, 37.327
1119.623, 76.787
1120.853, 87.198
1122.082, 34.692
1123.311, 45.443
1124.540, 83.930
1125.769, 51.388
1126.997, 80.005
1128.226, 98.317
1129.454, 103.960
1130.682, 111.209
1131.910, 49.517
1133.138, 94.974
1134.365, 94.231
1135.592, 62.612
1136.819, 104.654
1138.046, 61.963
1139.273, 69.153
1140.499, 71.501
1141.725, 43.342
1142.951, 92.590
1144.177, 21.493
1145.403, 52.639
1146.628, 109.864
1147.854, 81.833
1149.079, 68.751
1150.304, 81.766
1151.528, 91.610
1152.753, 42.432
1153.977, 80.306
1155.201, 75.043
1156.425, 60.119
1157.649, 69.936
1158.872, 42.817
1160.096, 37.785
1161.319, 39.428
1162.542, 84.128
1163.764, 94.942
1164.987, 75.448
1166.209, 74.444
1167.431, 85.562
1168.653, 63.278
1169.875, 98.012
1171.097, 15.592
1172.318, 79.241
1173.539, 24.590
1174.760, 56.489
1175.981, 73.277
1177.202, 61.103
1178.422, 54.051
1179.642, 73.071
1180.862, 95.301
1182.082, 85.983
1183.302, 62.575
1184.521, 87.366
1185.740, 62.953
1186.959, 78.782
1188.178, 98.526
1189.397, 88.304
1190.615, 67.030
1191.834, 119.945
1193.052, 68.741
1194.269, 77.568
1195.487, 80.312
1196.705, 108.789
1197.922, 80.660
1199.139, 75.846
1200.356, 77.482
1201.573, 90.556
1202.789, 73.441
1204.006, 83.314
1205.222, 95.040
1206.438, 108.883
1207.653, 77.528
1208.869, 121.228
1210.084, 61.116
1211.299, 98.962
1212.514, 72.754
1213.729, 111.547
1214.944, 72.636
1216.158, 120.630
1217.372, 78.444
1218.586, 83.231
1219.800, 82.850
1221.014, 63.362
1222.227, 121.456
1223.440, 68.012
1224.654, 107.771
1225.866, 105.484
1227.079, 129.976
1228.292, 134.566
1229.504, 85.158
1230.716, 135.473
1231.928, 93.284
1233.139, 86.722
1234.351, 100.069
1235.562, 83.631
1236.773, 88.131
1237.984, 74.306
1239.195, 82.973
1240.406, 84.454
1241.616, 74.852
1242.826, 112.209
1244.036, 104.714
1245.246, 111.415
1246.456, 71.783
1247.665, 84.329
1248.874, 35.700
1250.083, 85.021
1251.292, 67.553
1252.501, 89.638
1253.709, 87.798
1254.917, 60.361
1256.125, 65.399
1257.333, 81.621
1258.541, 98.726
1259.748, 51.975
1260.956, 50.981
1262.163, 45.258
1263.370, 119.465
1264.576, 70.406
1265.783, 96.592
1266.989, 32.769
1268.195, 50.794
1269.401, 60.845
1270.607, 61.997
1271.813, 41.067
1273.018, 49.369
1274.223, 15.624
1275.428, 49.897
1276.633, 65.158
1277.838, 44.259
1279.042, 45.387
1280.246, 20.591
1281.450, 64.557
1282.654, 32.769
1283.858, 50.729
1285.061, 26.002
1286.265, 35.093
1287.468, 18.973
1288.671, 38.136
1289.873, 36.899
1291.076, 20.836
1292.278, 14.966
1293.480, 18.052
1294.682, 15.107
1295.884, 61.206
1297.086, 14.311
1298.287, 47.140
1299.488, 20.119
1300.689, 8.937
1301.890, 11.940
1303.091, 19.912
1304.291, 2.215
1305.491, 32.579
1306.691, 42.362
1307.891, 29.527
1309.091, 21.522
1310.290, 11.558
1311.490, 6.400
1312.689, 7.639
1313.888, 18.487
1315.086, 23.411
1316.285, 21.793
1317.483, 19.918
1318.681, 8.718
1319.879, 3.519
1321.077, 10.311
1322.275, 6.086
1323.472, 46.107
1324.669, 48.233
1325.866, 6.703
1327.063, 16.481
1328.260, 18.241
1329.456, 50.047
1330.653, 6.746
1331.849, 42.487
1333.045, 30.304
1334.240, 18.072
1335.436, 21.745
1336.631, 11.537
1337.826, 18.215
1339.021, 22.910
1340.216, 16.392
1341.411, 40.355
1342.605, 27.903
1343.799, 41.736
1344.993, 18.348
1346.187, 14.005
1347.381, 28.581
1348.574, 20.190
1349.767, 10.822
1350.961, 21.439
1352.153, 11.004
1353.346, 5.636
1354.539, 7.404
1355.731, 7.720
1356.923, 4.220
1358.115, 7.233
1359.307, 8.755
1360.498, 0.235
1361.690, 7.252
1362.881, 8.747
1364.072, 18.764
1365.263, 28.371
1366.453, 49.093
1367.644, 2.483
1368.834, 24.937
1370.024, 56.388
1371.214, 38.838
1372.404, 42.292
1373.593, 53.316
1374.783, 4.345
1375.972, 43.730
1377.161, 49.931
1378.349, 0.875
1379.538, 54.296
1380.726, 54.466
1381.915, 17.640
1383.103, 11.788
1384.290, 23.772
1385.478, 23.891
1386.665, 21.990
1387.853, 1.935
1389.040, 16.191
1390.227, 14.120
1391.413, 8.114
1392.600, 45.226
1393.786, 2.933
1394.972, 50.097
1396.158, 64.971
1397.344, 20.282
1398.530, 48.678
1399.715, 59.420
1400.900, 26.318
1402.085, 14.100
1403.270, 51.751
1404.455, 15.509
1405.639, 66.058
1406.824, 63.585
1408.008, 42.333
1409.192, 58.034
1410.375, 30.166
1411.559, 40.539
1412.742, 79.269
1413.925, 36.148
1415.108, 7.772
1416.291, 36.134
1417.474, 32.081
1418.656, 39.319
1419.839, 15.400
1421.021, 47.386
1422.202, 21.070
1423.384, 49.346
1424.566, 26.688
1425.747, 53.124
1426.928, 18.661
1428.109, 20.476
1429.290, 40.576
1430.470, 17.797
1431.651, 53.062
1432.831, 31.197
1434.011, 81.240
1435.191, 23.278
1436.370, 17.161
1437.550, 19.019
1438.729, 24.691
1439.908, 50.400
1441.087, 42.637
1442.266, 44.121
1443.444, 55.926
1444.623, 24.231
1445.801, 20.556
1446.979, 33.047
1448.157, 37.775
1449.334, 3.092
1450.512, 62.704
1451.689, 24.423
1452.866, 19.517
1454.043, 12.912
1455.220, 38.494
1456.396, 7.404
1457.573, 62.924
1458.749, 33.739
1459.925, 32.865
1461.100, 55.197
1462.276, 49.906
1463.451, 32.435
1464.627, 14.627
1465.802, 12.033
1466.977, 12.633
1468.151, 38.175
1469.326, 26.382
1470.500, 34.824
1471.674, 33.309
1472.848, 36.563
1474.022, 41.778
1475.195, 69.180
1476.369, 98.423
1477.542, 54.190
1478.715, 22.403
1479.888, 41.918
1481.061, 32.231
1482.233, 27.361
1483.405, 10.205
1484.577, 40.362
1485.749, 46.638
1486.921, 94.213
1488.093, 33.407
1489.264, 29.582
1490.435, 51.714
1491.606, 45.007
1492.777, 17.634
1493.948, 10.549
1495.118, 8.611
1496.288, 55.760
1497.459, 45.897
1498.628, 20.909
1499.798, 78.985
1500.968, 50.491
1502.137, 20.000
1503.306, 89.577
1504.475, 63.256
1505.644, 93.515
1506.813, 76.826
1507.981, 63.911
1509.149, 66.310
1510.318, 80.948
1511.485, 47.102
1512.653, 100.056
1513.821, 104.992
1514.988, 0.419
1516.155, 0.000
##END=



