##NAMES=Rutile
##RRUFFID=R050031
##IDEAL CHEMISTRY=Ti^4+^O_2_
##LOCALITY=Chester City, Pennsylvannia, USA
##OWNER=RRUFF
##SOURCE=University of Arizona Mineral Museum
##DESCRIPTION=Reddish brown single crystal fragment
##STATUS=The identification of this mineral has been confirmed by X-ray diffraction and chemical analysis
##URL=rruff.info/R050031
##MEASURED CHEMISTRY=TiO_2_
##PIN_ID=M00200
##ORIENTATION=Laser parallel to c* (0 0 1). Fiducial mark perpendicular to laser is parallel to a [1 0 0]
91.262, 0.000
92.661, 126.286
94.059, 4.740
95.458, 34.045
96.856, 110.107
98.254, 141.251
99.652, 294.807
101.049, 323.054
102.446, 415.349
103.843, 587.926
105.240, 819.022
106.637, 838.375
108.033, 1161.417
109.429, 1633.706
110.825, 1894.884
112.220, 1961.522
113.616, 2061.408
115.011, 1885.676
116.406, 1915.296
117.800, 1851.039
119.195, 1933.516
120.589, 1913.221
121.983, 1870.068
123.377, 1913.162
124.770, 1840.176
126.163, 1974.381
127.556, 1935.449
128.949, 2084.904
130.342, 1985.961
131.734, 2045.517
133.126, 2040.121
134.518, 2252.180
135.909, 2604.509
137.301, 2867.105
138.692, 2979.965
140.083, 3003.078
141.473, 2716.435
142.864, 2300.023
144.254, 1613.828
145.644, 1277.836
147.034, 972.033
148.423, 616.413
149.812, 500.971
151.201, 455.700
152.590, 214.595
153.979, 198.660
155.367, 90.904
156.755, 126.325
158.143, 125.083
159.530, 32.671
160.918, 114.420
162.305, 56.364
163.692, 60.165
165.078, 167.828
166.465, 200.358
167.851, 2.761
169.237, 49.960
170.623, 17.180
172.008, 215.797
173.393, 181.889
174.778, 300.117
176.163, 527.553
177.548, 535.186
178.932, 603.008
180.316, 701.010
181.700, 859.172
183.083, 927.486
184.467, 1115.936
185.850, 1324.504
187.233, 1363.178
188.616, 1621.948
189.998, 1550.809
191.380, 1569.745
192.762, 1848.736
194.144, 1907.756
195.525, 2086.794
196.907, 1915.854
198.288, 2164.938
199.669, 2194.050
201.049, 2393.188
202.429, 2322.359
203.810, 2591.562
205.189, 2660.812
206.569, 2540.203
207.949, 2749.664
209.328, 2829.160
210.707, 3038.691
212.085, 3158.197
213.464, 3157.855
214.842, 3357.721
216.220, 3467.803
217.598, 3498.103
218.976, 3618.553
220.353, 3710.078
221.730, 3779.592
223.107, 3930.154
224.483, 4070.746
225.860, 4201.367
227.236, 4272.018
228.612, 4332.703
229.988, 4453.420
231.363, 4574.168
232.738, 4554.951
234.113, 4545.770
235.488, 4676.622
236.863, 4547.510
238.237, 4738.433
239.611, 4519.393
240.985, 4610.389
242.359, 4561.426
243.732, 4322.494
245.105, 4333.604
246.478, 4334.754
247.851, 4047.738
249.223, 4017.670
250.595, 3598.932
251.967, 3290.234
253.339, 3151.576
254.711, 3002.962
256.082, 2764.386
257.453, 2739.403
258.824, 2564.162
260.195, 2348.658
261.565, 2183.480
262.935, 2077.417
264.305, 2073.021
265.675, 1897.697
267.044, 1882.285
268.414, 1786.766
269.783, 1671.137
271.151, 1555.402
272.520, 1499.572
273.888, 1543.628
275.256, 1297.529
276.624, 1321.238
277.992, 1124.773
279.359, 1188.163
280.726, 1011.435
282.093, 944.604
283.460, 807.689
284.827, 810.707
286.193, 613.667
287.559, 616.539
288.925, 629.251
290.290, 441.574
291.656, 353.520
293.021, 315.097
294.386, 259.063
295.750, 356.919
297.115, 232.714
298.479, 318.560
299.843, 112.471
301.207, 38.443
302.570, 188.479
303.933, 126.574
305.296, 122.729
306.659, 151.944
308.022, 146.219
309.384, 181.482
310.746, 291.937
312.108, 254.382
313.470, 277.881
314.831, 323.436
316.193, 485.278
317.554, 346.988
318.914, 392.945
320.275, 306.712
321.635, 405.542
322.995, 358.740
324.355, 295.866
325.715, 383.305
327.074, 293.859
328.434, 317.839
329.792, 185.630
331.151, 291.926
332.510, 384.434
333.868, 237.736
335.226, 311.354
336.584, 199.365
337.941, 290.812
339.299, 296.374
340.656, 363.992
342.013, 290.700
343.370, 368.186
344.726, 245.116
346.082, 457.665
347.438, 378.344
348.794, 433.062
350.150, 419.819
351.505, 428.613
352.860, 491.447
354.215, 464.318
355.570, 567.228
356.924, 500.174
358.278, 453.159
359.632, 486.182
360.986, 459.743
362.339, 417.343
363.693, 445.480
365.046, 508.658
366.399, 421.875
367.751, 505.130
369.104, 444.425
370.456, 521.759
371.808, 466.130
373.159, 347.541
374.511, 407.990
375.862, 371.479
377.213, 249.007
378.564, 257.571
379.914, 303.175
381.265, 222.813
382.615, 146.490
383.965, 258.202
385.315, 166.950
386.664, 139.735
388.013, 173.557
389.362, 261.415
390.711, 134.311
392.060, 53.243
393.408, 181.213
394.756, 162.220
396.104, 212.266
397.451, 70.349
398.799, 202.470
400.146, 76.630
401.493, 14.829
402.840, 165.062
404.186, 91.333
405.533, 285.646
406.879, 297.996
408.225, 312.387
409.570, 298.819
410.916, 347.287
412.261, 502.795
413.606, 507.345
414.951, 542.936
416.295, 727.568
417.639, 782.242
418.983, 806.959
420.327, 1081.705
421.671, 1156.479
423.014, 1101.286
424.357, 1226.123
425.700, 1350.991
427.043, 1525.890
428.386, 1540.821
429.728, 1715.786
431.070, 1850.785
432.412, 2075.816
433.753, 2020.885
435.095, 2085.989
436.436, 2251.131
437.777, 2326.311
439.118, 2451.529
440.458, 2526.789
441.798, 2442.091
443.138, 2467.435
444.478, 2472.822
445.818, 2398.252
447.157, 2343.728
448.496, 2379.248
449.835, 2154.815
451.174, 2150.430
452.513, 2016.093
453.851, 1841.807
455.189, 1677.574
456.527, 1533.396
457.864, 1489.273
459.202, 1155.210
460.539, 1151.204
461.876, 977.254
463.212, 793.392
464.549, 849.527
465.885, 492.751
467.221, 551.030
468.557, 458.369
469.893, 261.764
471.228, 382.218
472.563, 105.729
473.898, 94.297
475.233, 46.923
476.567, 5.607
477.902, 33.657
479.236, 127.877
480.570, 201.088
481.903, 123.313
483.237, 127.523
484.570, 231.671
485.903, 169.839
487.235, 174.965
488.568, 318.065
489.900, 231.204
491.232, 218.315
492.564, 306.383
493.896, 219.499
495.227, 263.635
496.558, 177.798
497.889, 150.975
499.220, 219.152
500.551, 140.363
501.881, 182.573
503.211, 115.800
504.541, 33.016
505.870, 22.188
507.200, 20.688
508.529, 126.621
509.858, 261.614
511.187, 204.668
512.515, 269.781
513.844, 314.955
515.172, 292.189
516.500, 523.484
517.827, 356.839
519.155, 581.255
520.482, 612.731
521.809, 759.270
523.136, 720.868
524.462, 743.527
525.789, 1030.248
527.115, 1012.029
528.441, 1042.874
529.766, 1105.778
531.092, 1179.405
532.417, 1286.773
533.742, 1424.863
535.067, 1523.015
536.391, 1711.229
537.716, 1749.504
539.040, 1957.842
540.364, 2056.242
541.688, 2204.703
543.011, 2423.228
544.334, 2561.813
545.657, 2810.462
546.980, 3002.583
548.303, 3219.249
549.625, 3456.791
550.947, 3685.695
552.269, 3974.667
553.591, 4233.703
554.913, 4592.813
556.234, 4971.994
557.555, 5381.252
558.876, 5830.590
560.197, 5990.025
561.517, 6599.061
562.837, 6958.663
564.157, 7458.365
565.477, 7968.148
566.797, 8508.020
568.116, 9147.982
569.435, 9878.048
570.754, 10438.120
572.073, 11238.478
573.391, 11718.844
574.709, 12439.290
576.027, 13189.833
577.345, 14010.484
578.663, 14791.246
579.980, 15662.102
581.297, 16723.066
582.614, 17374.129
583.931, 18555.309
585.248, 19466.578
586.564, 20537.961
587.880, 21789.428
589.196, 22770.969
590.511, 24142.605
591.827, 25074.316
593.142, 26636.143
594.457, 28548.055
595.772, 29780.078
597.086, 30922.176
598.401, 32534.357
599.715, 33886.629
601.029, 35748.973
602.343, 36291.410
603.656, 37603.926
604.969, 39076.516
606.282, 39439.172
607.595, 40251.918
608.908, 40414.738
610.220, 40637.621
611.532, 40431.789
612.844, 39933.590
614.156, 39206.688
615.468, 38109.836
616.779, 36733.070
618.090, 35256.371
619.401, 34429.738
620.712, 31943.182
622.022, 31106.695
623.332, 29230.266
624.642, 27803.912
625.952, 26177.615
627.262, 25031.385
628.571, 23325.223
629.880, 22299.117
631.189, 21193.086
632.498, 19687.113
633.807, 18401.209
635.115, 17725.072
636.423, 16687.498
637.731, 15705.709
639.039, 15060.329
640.346, 14268.941
641.653, 13287.428
642.960, 12960.773
644.267, 12177.315
645.574, 11753.689
646.880, 10922.702
648.186, 10646.440
649.492, 10350.920
650.798, 9770.885
652.103, 9515.503
653.409, 8928.012
654.714, 8834.934
656.019, 8433.307
657.323, 8168.372
658.628, 7927.479
659.932, 7694.602
661.236, 7245.051
662.540, 7269.153
663.843, 6933.741
665.147, 6859.297
666.450, 6464.914
667.753, 6510.590
669.056, 6366.325
670.358, 6062.123
671.660, 6107.979
672.963, 5863.894
674.264, 5919.871
675.566, 5565.903
676.868, 5461.994
678.169, 5498.140
679.470, 5314.343
680.771, 5400.602
682.071, 5226.917
683.372, 4993.286
684.672, 4979.710
685.972, 4966.188
687.271, 4732.720
688.571, 4759.305
689.870, 4745.944
691.169, 4522.634
692.468, 4349.378
693.767, 4206.172
695.065, 4273.020
696.364, 4149.916
697.662, 4056.864
698.960, 3823.858
700.257, 3780.904
701.555, 3617.997
702.852, 3645.140
704.149, 3522.596
705.446, 3260.121
706.742, 3217.426
708.038, 3055.176
709.335, 3022.761
710.631, 2892.418
711.926, 2881.169
713.222, 2750.246
714.517, 2565.270
715.812, 2514.118
717.107, 2408.065
718.402, 2282.938
719.696, 2093.625
720.990, 2176.600
722.284, 1956.139
723.578, 2034.508
724.872, 1837.153
726.165, 1735.559
727.458, 1736.871
728.751, 1593.446
730.044, 1550.962
731.336, 1471.089
732.629, 1376.882
733.921, 1312.297
735.213, 1313.645
736.504, 1173.755
737.796, 1140.851
739.087, 1146.883
740.378, 1076.392
741.669, 1103.731
742.960, 1074.808
744.250, 960.887
745.540, 944.406
746.830, 884.233
748.120, 868.191
749.410, 854.494
750.699, 834.484
751.988, 927.007
753.277, 794.339
754.566, 827.111
755.854, 865.434
757.143, 745.198
758.431, 835.531
759.719, 728.941
761.006, 710.106
762.294, 708.547
763.581, 798.979
764.868, 738.900
766.155, 724.327
767.442, 760.357
768.728, 709.321
770.014, 724.636
771.300, 733.257
772.586, 739.000
773.872, 770.811
775.157, 819.975
776.442, 873.917
777.727, 890.820
779.012, 861.108
780.297, 920.142
781.581, 911.613
782.865, 897.588
784.149, 991.105
785.433, 1024.402
786.716, 983.091
787.999, 997.260
789.282, 1017.009
790.565, 978.150
791.848, 1013.417
793.130, 1156.862
794.413, 1090.618
795.695, 1086.901
796.977, 1217.037
798.258, 1145.729
799.540, 1023.329
800.821, 1147.116
802.102, 1119.542
803.382, 1137.896
804.663, 1096.606
805.943, 1064.123
807.224, 1186.490
808.504, 1035.973
809.783, 1040.431
811.063, 1056.182
812.342, 955.724
813.621, 1071.515
814.900, 938.192
816.179, 1032.778
817.457, 1092.629
818.736, 977.249
820.014, 993.688
821.292, 896.205
822.569, 1005.694
823.847, 957.358
825.124, 921.128
826.401, 902.693
827.678, 929.138
828.954, 839.591
830.231, 858.928
831.507, 745.179
832.783, 681.383
834.059, 622.492
835.334, 624.566
836.610, 587.621
837.885, 559.753
839.160, 487.794
840.435, 509.827
841.709, 357.836
842.983, 352.778
844.258, 375.713
845.532, 282.603
846.805, 275.566
848.079, 252.343
849.352, 193.116
850.625, 121.747
851.898, 233.226
853.171, 82.877
854.443, 86.379
855.715, 77.970
856.988, 3.406
858.259, 2.958
859.531, 39.461
860.803, 5.056
862.074, 8.275
863.345, 32.444
864.616, 15.260
865.886, 27.417
867.157, 52.383
868.427, 104.395
869.697, 55.579
870.967, 51.726
872.236, 109.965
873.506, 48.312
874.775, 54.868
876.044, 81.618
877.313, 115.503
878.581, 93.451
879.849, 121.579
881.118, 91.669
882.386, 24.840
883.653, 96.157
884.921, 120.636
886.188, 133.233
887.455, 72.959
888.722, 119.780
889.989, 101.740
891.255, 146.746
892.522, 56.972
893.788, 132.241
895.054, 30.822
896.319, 22.355
897.585, 66.603
898.850, 10.408
900.115, 150.698
901.380, 26.854
902.645, 100.124
903.909, 27.614
905.174, 8.705
906.438, 44.947
907.701, 4.673
908.965, 5.428
910.229, 2.462
911.492, 2.533
912.755, 52.442
914.018, 16.740
915.280, 45.968
916.543, 31.690
917.805, 50.331
919.067, 70.914
920.329, 77.388
921.590, 77.858
922.852, 33.748
924.113, 54.893
925.374, 46.924
926.635, 14.219
927.895, 92.173
929.156, 85.845
930.416, 85.860
931.676, 92.405
932.936, 136.010
934.195, 51.594
935.454, 136.177
936.714, 83.638
937.973, 126.052
939.231, 94.359
940.490, 124.630
941.748, 188.726
943.006, 90.772
944.264, 165.584
945.522, 136.383
946.780, 190.206
948.037, 113.698
949.294, 153.229
950.551, 168.996
951.808, 153.680
953.064, 203.946
954.320, 222.589
955.577, 182.697
956.832, 213.861
958.088, 254.872
959.344, 238.818
960.599, 252.381
961.854, 206.726
963.109, 247.585
964.364, 210.367
965.618, 227.914
966.872, 251.407
968.127, 209.894
969.380, 241.157
970.634, 281.498
971.888, 259.844
973.141, 262.835
974.394, 227.878
975.647, 213.871
976.900, 236.939
978.152, 257.748
979.404, 251.391
980.656, 273.938
981.908, 289.967
983.160, 296.130
984.411, 313.265
985.663, 316.561
986.914, 315.508
988.165, 290.968
989.415, 307.016
990.666, 302.920
991.916, 301.977
993.166, 311.786
994.416, 306.581
995.665, 310.546
996.915, 285.891
998.164, 323.426
999.413, 316.634
1000.662, 343.150
1001.911, 371.281
1003.159, 322.475
1004.407, 349.748
1005.655, 320.729
1006.903, 303.713
1008.151, 336.323
1009.398, 332.803
1010.646, 308.378
1011.893, 311.659
1013.139, 356.741
1014.386, 340.862
1015.633, 408.089
1016.879, 345.303
1018.125, 333.845
1019.371, 342.684
1020.616, 310.103
1021.862, 308.405
1023.107, 299.195
1024.352, 325.203
1025.597, 346.085
1026.842, 347.101
1028.086, 323.800
1029.330, 332.833
1030.574, 283.649
1031.818, 268.367
1033.062, 279.984
1034.305, 282.111
1035.548, 269.336
1036.791, 255.882
1038.034, 244.748
1039.277, 235.636
1040.519, 207.225
1041.762, 211.280
1043.004, 189.661
1044.246, 218.189
1045.487, 247.861
1046.729, 261.539
1047.970, 233.801
1049.211, 240.625
1050.452, 201.247
1051.692, 199.429
1052.933, 209.842
1054.173, 225.726
1055.413, 195.664
1056.653, 180.251
1057.893, 195.103
1059.132, 168.566
1060.371, 185.320
1061.610, 147.949
1062.849, 165.821
1064.088, 162.444
1065.326, 138.704
1066.565, 135.888
1067.803, 129.245
1069.041, 135.946
1070.278, 191.670
1071.516, 162.300
1072.753, 152.763
1073.990, 158.735
1075.227, 73.397
1076.464, 128.649
1077.700, 176.069
1078.936, 74.376
1080.173, 166.512
1081.408, 131.672
1082.644, 118.377
1083.880, 95.486
1085.115, 105.999
1086.350, 95.705
1087.585, 101.929
1088.820, 89.614
1090.054, 111.659
1091.288, 105.256
1092.522, 139.630
1093.756, 123.890
1094.990, 97.774
1096.224, 158.099
1097.457, 127.537
1098.690, 51.410
1099.923, 51.349
1101.156, 131.076
1102.388, 35.170
1103.621, 130.321
1104.853, 97.101
1106.085, 114.076
1107.316, 110.185
1108.548, 88.167
1109.779, 70.149
1111.010, 71.804
1112.241, 70.556
1113.472, 106.311
1114.703, 98.954
1115.933, 80.804
1117.163, 113.173
1118.393, 74.712
1119.623, 53.364
1120.853, 117.870
1122.082, 85.337
1123.311, 76.680
1124.540, 37.873
1125.769, 79.206
1126.997, 98.469
1128.226, 100.717
1129.454, 85.093
1130.682, 91.340
1131.910, 79.613
1133.138, 79.945
1134.365, 57.101
1135.592, 86.537
1136.819, 78.589
1138.046, 95.072
1139.273, 38.352
1140.499, 77.286
1141.725, 60.256
1142.951, 111.269
1144.177, 17.263
1145.403, 61.047
1146.628, 118.956
1147.854, 24.904
1149.079, 96.970
1150.304, 62.054
1151.528, 22.909
1152.753, 72.678
1153.977, 51.356
1155.201, 56.853
1156.425, 62.169
1157.649, 83.431
1158.872, 37.925
1160.096, 117.359
1161.319, 82.982
1162.542, 29.100
1163.764, 40.740
1164.987, 19.278
1166.209, 76.640
1167.431, 37.165
1168.653, 51.591
1169.875, 100.037
1171.097, 6.549
1172.318, 92.840
1173.539, 91.415
1174.760, 91.093
1175.981, 59.469
1177.202, 132.016
1178.422, 73.654
1179.642, 101.118
1180.862, 61.585
1182.082, 66.009
1183.302, 87.659
1184.521, 113.098
1185.740, 82.491
1186.959, 66.485
1188.178, 80.782
1189.397, 116.540
1190.615, 69.896
1191.834, 88.261
1193.052, 74.938
1194.269, 57.762
1195.487, 84.456
1196.705, 75.796
1197.922, 93.617
1199.139, 101.220
1200.356, 88.883
1201.573, 122.565
1202.789, 76.293
1204.006, 127.814
1205.222, 87.796
1206.438, 130.350
1207.653, 113.436
1208.869, 96.778
1210.084, 77.106
1211.299, 132.198
1212.514, 90.486
1213.729, 154.958
1214.944, 122.264
1216.158, 103.598
1217.372, 128.004
1218.586, 103.221
1219.800, 137.611
1221.014, 144.090
1222.227, 105.157
1223.440, 140.308
1224.654, 84.835
1225.866, 145.706
1227.079, 121.216
1228.292, 93.567
1229.504, 123.842
1230.716, 104.930
1231.928, 95.837
1233.139, 104.900
1234.351, 131.996
1235.562, 127.856
1236.773, 141.398
1237.984, 141.878
1239.195, 149.930
1240.406, 142.103
1241.616, 136.025
1242.826, 112.164
1244.036, 162.368
1245.246, 126.141
1246.456, 184.786
1247.665, 98.815
1248.874, 195.344
1250.083, 131.388
1251.292, 158.249
1252.501, 153.121
1253.709, 142.064
1254.917, 98.916
1256.125, 144.579
1257.333, 83.301
1258.541, 82.709
1259.748, 104.874
1260.956, 56.910
1262.163, 111.572
1263.370, 118.363
1264.576, 101.057
1265.783, 105.718
1266.989, 124.705
1268.195, 64.492
1269.401, 58.100
1270.607, 56.550
1271.813, 85.285
1273.018, 69.911
1274.223, 49.669
1275.428, 84.328
1276.633, 71.894
1277.838, 80.449
1279.042, 79.594
1280.246, 17.159
1281.450, 72.762
1282.654, 29.700
1283.858, 6.852
1285.061, 77.290
1286.265, 66.694
1287.468, 40.109
1288.671, 37.779
1289.873, 51.913
1291.076, 48.309
1292.278, 21.837
1293.480, 9.012
1294.682, 22.472
1295.884, 18.023
1297.086, 55.295
1298.287, 37.800
1299.488, 54.061
1300.689, 21.359
1301.890, 17.576
1303.091, 1.125
1304.291, 22.033
1305.491, 22.629
1306.691, 32.397
1307.891, 19.372
1309.091, 34.246
1310.290, 26.225
1311.490, 22.299
1312.689, 16.998
1313.888, 10.034
1315.086, 15.257
1316.285, 45.924
1317.483, 23.126
1318.681, 4.290
1319.879, 18.559
1321.077, 36.446
1322.275, 3.294
1323.472, 8.831
1324.669, 19.007
1325.866, 36.022
1327.063, 2.059
1328.260, 32.984
1329.456, 39.115
1330.653, 10.839
1331.849, 46.069
1333.045, 4.972
1334.240, 35.412
1335.436, 15.700
1336.631, 33.245
1337.826, 8.138
1339.021, 17.924
1340.216, 54.808
1341.411, 22.645
1342.605, 23.549
1343.799, 31.579
1344.993, 46.493
1346.187, 4.417
1347.381, 44.192
1348.574, 38.914
1349.767, 25.865
1350.961, 7.282
1352.153, 58.552
1353.346, 81.325
1354.539, 8.998
1355.731, 59.792
1356.923, 11.530
1358.115, 42.282
1359.307, 39.021
1360.498, 77.511
1361.690, 27.784
1362.881, 36.885
1364.072, 19.554
1365.263, 31.209
1366.453, 67.855
1367.644, 22.482
1368.834, 79.014
1370.024, 11.556
1371.214, 12.075
1372.404, 15.473
1373.593, 10.885
1374.783, 38.533
1375.972, 34.899
1377.161, 30.143
1378.349, 75.646
1379.538, 56.138
1380.726, 50.618
1381.915, 91.086
1383.103, 26.541
1384.290, 58.987
1385.478, 65.425
1386.665, 18.852
1387.853, 44.267
1389.040, 103.618
1390.227, 59.957
1391.413, 68.166
1392.600, 51.541
1393.786, 60.905
1394.972, 81.956
1396.158, 50.093
1397.344, 48.113
1398.530, 91.303
1399.715, 59.504
1400.900, 60.342
1402.085, 52.404
1403.270, 9.479
1404.455, 83.207
1405.639, 93.042
1406.824, 55.500
1408.008, 39.992
1409.192, 24.751
1410.375, 38.404
1411.559, 70.691
1412.742, 63.617
1413.925, 28.839
1415.108, 85.275
1416.291, 31.192
1417.474, 37.349
1418.656, 111.752
1419.839, 50.688
1421.021, 2.303
1422.202, 21.776
1423.384, 33.831
1424.566, 40.107
1425.747, 47.551
1426.928, 15.255
1428.109, 61.138
1429.290, 37.004
1430.470, 25.189
1431.651, 55.206
1432.831, 37.170
1434.011, 63.373
1435.191, 41.470
1436.370, 11.906
1437.550, 16.012
1438.729, 9.560
1439.908, 6.035
1441.087, 31.665
1442.266, 26.300
1443.444, 63.217
1444.623, 114.083
1445.801, 57.494
1446.979, 84.577
1448.157, 48.145
1449.334, 43.204
1450.512, 24.161
1451.689, 22.722
1452.866, 20.940
1454.043, 68.905
1455.220, 41.643
1456.396, 63.166
1457.573, 107.725
1458.749, 37.198
1459.925, 72.580
1461.100, 119.294
1462.276, 58.852
1463.451, 69.824
1464.627, 20.357
1465.802, 32.651
1466.977, 62.699
1468.151, 42.533
1469.326, 75.875
1470.500, 108.921
1471.674, 23.780
1472.848, 124.468
1474.022, 86.583
1475.195, 1.561
1476.369, 68.492
1477.542, 66.076
1478.715, 30.206
1479.888, 105.443
1481.061, 62.351
1482.233, 53.613
1483.405, 32.941
1484.577, 7.812
1485.749, 18.752
1486.921, 79.328
1488.093, 34.448
1489.264, 77.417
1490.435, 77.488
1491.606, 55.111
1492.777, 96.985
1493.948, 58.016
1495.118, 86.804
1496.288, 83.933
1497.459, 22.068
1498.628, 82.000
1499.798, 53.139
1500.968, 6.771
1502.137, 52.841
1503.306, 54.873
1504.475, 50.887
1505.644, 77.921
1506.813, 32.952
1507.981, 34.495
1509.149, 104.674
1510.318, 36.713
1511.485, 33.564
1512.653, 106.261
1513.821, 94.206
1514.988, 0.024
1516.155, 16.936
1517.322, 0.000
##END=



