##NAMES=Rutile
##RRUFFID=R050031
##IDEAL CHEMISTRY=Ti^4+^O_2_
##LOCALITY=Chester City, Pennsylvannia, USA
##OWNER=RRUFF
##SOURCE=University of Arizona Mineral Museum
##DESCRIPTION=Reddish brown single crystal fragment
##STATUS=The identification of this mineral has been confirmed by X-ray diffraction and chemical analysis
##URL=rruff.info/R050031
##MEASURED CHEMISTRY=TiO_2_
##PIN_ID=M00132
##ORIENTATION=Laser parallel to -a* (-1 0 0). Fiducial mark perpendicular to laser is parallel to -c [0 0 -1]
96.856, 0.000
98.254, 6.949
99.652, 93.746
101.049, 173.629
102.446, 293.158
103.843, 535.553
105.240, 756.984
106.637, 1018.924
108.033, 1237.086
109.429, 1697.758
110.825, 2639.252
112.220, 2743.857
113.616, 2467.486
115.011, 2124.889
116.406, 2241.334
117.800, 1952.262
119.195, 1828.871
120.589, 1922.072
121.983, 2102.566
123.377, 2020.947
124.770, 2077.723
126.163, 1870.781
127.556, 2002.371
128.949, 2169.656
130.342, 2213.395
131.734, 2616.309
133.126, 2459.590
134.518, 2478.840
135.909, 2646.316
137.301, 2804.602
138.692, 2803.664
140.083, 2623.467
141.473, 2223.971
142.864, 2005.143
144.254, 1636.957
145.644, 1339.383
147.034, 1182.398
148.423, 956.291
149.812, 901.490
151.201, 827.424
152.590, 443.893
153.979, 500.748
155.367, 47.980
156.755, 145.562
158.143, 3.480
159.530, 18.246
160.918, 19.604
162.305, 40.592
163.692, 171.203
165.078, 321.439
166.465, 91.303
167.851, 180.791
169.237, 0.094
170.623, 68.650
172.008, 72.982
173.393, 124.984
174.778, 227.359
176.163, 400.111
177.548, 543.234
178.932, 686.732
180.316, 899.703
181.700, 1014.574
183.083, 1318.805
184.467, 1473.270
185.850, 1667.975
187.233, 1942.920
188.616, 2148.105
189.998, 2323.527
191.380, 2593.918
192.762, 2865.055
194.144, 3011.154
195.525, 3267.477
196.907, 3324.012
198.288, 3680.730
199.669, 3917.170
201.049, 4314.789
202.429, 4527.332
203.810, 4874.205
205.189, 5236.891
206.569, 5285.375
207.949, 5662.807
209.328, 6030.445
210.707, 6228.246
212.085, 6316.139
213.464, 6724.070
214.842, 6791.861
216.220, 7029.678
217.598, 7187.750
218.976, 7226.223
220.353, 7455.141
221.730, 7424.484
223.107, 7854.184
224.483, 7624.188
225.860, 8174.527
227.236, 8045.150
228.612, 8426.031
229.988, 8327.168
231.363, 8048.562
232.738, 8380.215
234.113, 7952.121
235.488, 8214.281
236.863, 7996.691
238.237, 8379.359
239.611, 7932.281
240.985, 7935.463
242.359, 7918.902
243.732, 7502.602
245.105, 7616.562
246.478, 7250.783
247.851, 7125.270
249.223, 7060.016
250.595, 6935.027
251.967, 6590.307
253.339, 6535.852
254.711, 6191.660
256.082, 5947.738
257.453, 5864.084
258.824, 5710.701
260.195, 5483.799
261.565, 5264.746
262.935, 5087.625
264.305, 4879.102
265.675, 4772.262
267.044, 4695.879
268.414, 4489.855
269.783, 4374.133
271.151, 3918.670
272.520, 3783.414
273.888, 3688.342
275.256, 3443.438
276.624, 3368.695
277.992, 3034.105
279.359, 2779.629
280.726, 2775.199
282.093, 2380.824
283.460, 1916.531
284.827, 1892.338
286.193, 1548.262
287.559, 1394.312
288.925, 1120.504
290.290, 1056.844
291.656, 833.254
293.021, 619.697
294.386, 556.059
295.750, 382.188
297.115, 197.922
298.479, 53.559
299.843, 60.713
301.207, 294.752
302.570, 138.602
303.933, 12.238
305.296, 165.646
306.659, 118.848
308.022, 38.160
309.384, 125.398
310.746, 42.859
312.108, 109.451
313.470, 21.559
314.831, 166.547
316.193, 304.865
317.554, 413.398
318.914, 422.145
320.275, 437.943
321.635, 486.463
322.995, 451.238
324.355, 415.281
325.715, 409.701
327.074, 543.426
328.434, 600.494
329.792, 549.832
331.151, 612.131
332.510, 540.000
333.868, 606.666
335.226, 647.559
336.584, 714.053
337.941, 811.127
339.299, 859.467
340.656, 919.732
342.013, 969.910
343.370, 1089.324
344.726, 919.273
346.082, 1343.818
347.438, 1202.229
348.794, 1426.713
350.150, 1330.209
351.505, 1448.055
352.860, 1387.594
354.215, 1721.691
355.570, 1655.990
356.924, 1800.582
358.278, 1725.281
359.632, 1580.258
360.986, 1945.359
362.339, 1730.660
363.693, 1766.102
365.046, 1911.895
366.399, 1927.590
367.751, 1843.492
369.104, 1979.570
370.456, 2145.844
371.808, 2222.324
373.159, 2129.010
374.511, 2125.898
375.862, 2482.994
377.213, 2160.297
378.564, 2417.809
379.914, 2565.529
381.265, 2513.459
382.615, 2721.598
383.965, 2939.945
385.315, 3158.502
386.664, 3387.264
388.013, 3356.232
389.362, 3825.410
390.711, 3654.793
392.060, 3834.385
393.408, 4444.182
394.756, 4394.188
396.104, 5044.402
397.451, 5184.822
398.799, 5565.451
400.146, 5956.287
401.493, 6067.334
402.840, 6998.588
404.186, 7370.051
405.533, 7991.723
406.879, 8293.602
408.225, 8895.691
409.570, 9527.988
410.916, 10430.496
412.261, 11083.215
413.606, 11826.137
414.951, 12689.273
416.295, 13352.617
417.639, 14096.172
418.983, 15019.934
420.327, 16033.906
421.671, 17038.096
423.014, 18122.480
424.357, 19427.078
425.700, 20021.910
427.043, 21576.979
428.386, 22342.275
429.728, 23487.811
431.070, 24653.566
432.412, 25759.553
433.753, 26625.771
435.095, 27772.217
436.436, 29368.891
437.777, 29855.797
439.118, 30622.926
440.458, 31310.293
441.798, 31307.879
443.138, 31195.703
444.478, 31303.758
445.818, 30912.049
447.157, 29850.562
448.496, 30069.316
449.835, 28528.303
451.174, 27607.521
452.513, 25716.971
453.851, 24536.660
455.189, 22666.576
456.527, 20696.734
457.864, 19677.131
459.202, 17597.766
460.539, 15858.645
461.876, 14567.545
463.212, 12877.717
464.549, 11934.363
465.885, 10365.572
467.221, 9451.746
468.557, 8049.957
469.893, 7302.527
471.228, 6515.342
472.563, 5398.396
473.898, 4668.010
475.233, 4000.711
476.567, 3604.488
477.902, 3268.508
479.236, 2612.766
480.570, 2017.262
481.903, 1832.016
483.237, 1407.010
484.570, 1012.268
485.903, 1007.787
487.235, 533.570
488.568, 289.621
489.900, 465.967
491.232, 152.643
492.564, 59.592
493.896, 3.166
495.227, 195.672
496.558, 217.961
497.889, 210.061
499.220, 241.975
500.551, 293.711
501.881, 285.287
503.211, 256.697
504.541, 267.117
505.870, 79.010
507.200, 209.863
508.529, 60.533
509.858, 39.016
511.187, 171.201
512.515, 221.225
513.844, 78.932
515.172, 89.320
516.500, 0.061
517.827, 160.787
519.155, 1.865
520.482, 303.172
521.809, 424.709
523.136, 6.475
524.462, 11.531
525.789, 250.688
527.115, 13.135
528.441, 175.811
529.766, 18.715
531.092, 371.846
532.417, 165.205
533.742, 318.797
535.067, 382.621
536.391, 356.686
537.716, 411.002
539.040, 465.557
540.364, 270.387
541.688, 545.508
543.011, 710.898
544.334, 656.594
545.657, 932.549
546.980, 668.791
548.303, 1205.340
549.625, 1092.168
550.947, 1379.289
552.269, 1416.701
553.591, 1684.418
554.913, 1762.438
556.234, 2140.742
557.555, 2209.342
558.876, 2628.234
560.197, 2557.436
561.517, 3056.928
562.837, 3116.695
564.157, 3466.758
565.477, 3857.117
566.797, 4287.746
568.116, 4718.639
569.435, 5269.809
570.754, 5747.715
572.073, 6219.682
573.391, 6755.025
574.709, 7107.320
576.027, 7489.891
577.345, 7792.727
578.663, 8455.852
579.980, 9069.225
581.297, 9642.863
582.614, 10276.752
583.931, 10760.885
585.248, 11485.254
586.564, 12399.871
587.880, 13554.727
589.196, 13789.824
590.511, 14675.141
591.827, 15140.695
593.142, 16456.480
594.457, 17852.488
595.772, 18598.725
597.086, 19255.178
598.401, 20541.854
599.715, 21518.725
601.029, 22515.811
602.343, 23263.381
603.656, 23940.592
604.969, 24328.297
606.282, 24624.135
607.595, 24775.922
608.908, 24672.596
610.220, 24561.098
611.532, 24168.969
612.844, 23605.938
614.156, 22857.744
615.468, 21747.010
616.779, 20576.457
618.090, 19166.084
619.401, 18865.898
620.712, 16865.902
622.022, 16436.125
623.332, 15016.549
624.642, 13697.148
625.952, 12537.949
627.262, 11558.938
628.571, 10620.094
629.880, 9611.428
631.189, 8922.920
632.498, 8054.598
633.807, 7349.852
635.115, 6798.445
636.423, 6110.605
637.731, 5452.926
639.039, 5035.399
640.346, 4718.024
641.653, 3940.800
642.960, 3763.724
644.267, 3226.797
645.574, 3140.016
646.880, 2733.379
648.186, 2676.883
649.492, 2520.527
650.798, 2114.310
652.103, 2038.079
653.409, 1657.168
654.714, 1785.684
656.019, 1384.604
657.323, 1452.596
658.628, 1398.992
659.932, 1455.811
661.236, 1063.729
662.540, 1341.435
663.843, 1174.872
665.147, 1144.771
666.450, 1228.918
667.753, 1294.377
669.056, 1065.806
670.358, 1075.863
671.660, 1261.677
672.963, 1217.605
674.264, 1443.558
675.566, 1289.713
676.868, 1415.904
678.169, 1532.279
679.470, 1498.761
680.771, 1615.313
682.071, 1641.779
683.372, 1538.573
684.672, 1725.466
685.972, 1722.462
687.271, 1899.557
688.571, 1896.746
689.870, 1934.674
691.169, 1873.302
692.468, 2033.049
693.767, 1836.104
695.065, 1956.421
696.364, 1795.078
697.662, 1987.783
698.960, 1905.689
700.257, 1962.568
701.555, 1998.027
702.852, 2021.465
704.149, 1858.905
705.446, 1890.382
706.742, 1785.130
708.038, 1719.752
709.335, 1767.756
710.631, 1825.980
711.926, 1840.033
713.222, 1566.204
714.517, 1502.364
715.812, 1702.729
717.107, 1428.839
718.402, 1531.457
719.696, 1239.197
720.990, 1407.562
722.284, 1099.530
723.578, 1370.386
724.872, 1064.030
726.165, 1051.232
727.458, 1116.843
728.751, 1144.260
730.044, 1038.045
731.336, 1032.232
732.629, 825.533
733.921, 774.693
735.213, 693.688
736.504, 587.529
737.796, 676.951
739.087, 646.701
740.378, 654.277
741.669, 683.845
742.960, 623.535
744.250, 611.457
745.540, 557.726
746.830, 685.576
748.120, 454.174
749.410, 510.045
750.699, 577.707
751.988, 333.407
753.277, 628.162
754.566, 542.223
755.854, 585.518
757.143, 519.066
758.431, 413.202
759.719, 577.217
761.006, 519.770
762.294, 473.810
763.581, 586.415
764.868, 590.184
766.155, 573.074
767.442, 715.491
768.728, 646.540
770.014, 839.331
771.300, 810.936
772.586, 682.173
773.872, 873.142
775.157, 893.739
776.442, 974.749
777.727, 984.565
779.012, 1134.771
780.297, 1215.836
781.581, 1274.998
782.865, 1370.270
784.149, 1406.505
785.433, 1496.367
786.716, 1550.062
787.999, 1595.465
789.282, 1614.745
790.565, 1483.869
791.848, 1553.187
793.130, 1661.596
794.413, 1650.253
795.695, 1798.361
796.977, 1836.640
798.258, 1825.219
799.540, 1733.418
800.821, 1751.219
802.102, 1708.957
803.382, 1766.631
804.663, 1634.291
805.943, 1701.785
807.224, 1558.997
808.504, 1586.256
809.783, 1553.752
811.063, 1570.688
812.342, 1427.373
813.621, 1444.392
814.900, 1261.734
816.179, 1308.441
817.457, 1284.992
818.736, 1161.441
820.014, 1002.939
821.292, 1111.285
822.569, 1000.455
823.847, 911.551
825.124, 1023.558
826.401, 831.411
827.678, 766.125
828.954, 784.685
830.231, 676.097
831.507, 498.259
832.783, 498.514
834.059, 546.467
835.334, 570.473
836.610, 285.938
837.885, 377.717
839.160, 231.514
840.435, 248.861
841.709, 211.884
842.983, 131.745
844.258, 110.396
845.532, 83.046
846.805, 9.500
848.079, 85.828
849.352, 68.928
850.625, 128.104
851.898, 46.485
853.171, 184.352
854.443, 2.562
855.715, 119.688
856.988, 178.730
858.259, 79.091
859.531, 126.721
860.803, 120.280
862.074, 169.852
863.345, 169.190
864.616, 98.688
865.886, 128.503
867.157, 124.510
868.427, 187.783
869.697, 116.429
870.967, 57.313
872.236, 135.599
873.506, 142.291
874.775, 37.325
876.044, 16.538
877.313, 58.080
878.581, 111.936
879.849, 83.853
881.118, 110.048
882.386, 49.668
883.653, 53.725
884.921, 37.312
886.188, 122.125
887.455, 33.705
888.722, 39.710
889.989, 38.703
891.255, 33.821
892.522, 94.662
893.788, 43.164
895.054, 42.613
896.319, 93.539
897.585, 151.487
898.850, 101.162
900.115, 81.399
901.380, 177.486
902.645, 115.277
903.909, 190.236
905.174, 234.563
906.438, 270.786
907.701, 315.828
908.965, 303.948
910.229, 275.522
911.492, 283.716
912.755, 371.870
914.018, 286.888
915.280, 373.453
916.543, 306.057
917.805, 360.208
919.067, 390.302
920.329, 499.064
921.590, 370.773
922.852, 457.119
924.113, 487.227
925.374, 509.167
926.635, 539.852
927.895, 506.426
929.156, 630.741
930.416, 582.942
931.676, 501.099
932.936, 608.906
934.195, 618.807
935.454, 514.058
936.714, 611.224
937.973, 630.458
939.231, 657.048
940.490, 669.971
941.748, 684.660
943.006, 656.849
944.264, 764.890
945.522, 726.000
946.780, 809.661
948.037, 760.169
949.294, 718.444
950.551, 757.458
951.808, 823.414
953.064, 821.979
954.320, 820.465
955.577, 806.866
956.832, 828.742
958.088, 878.568
959.344, 854.181
960.599, 787.690
961.854, 905.168
963.109, 952.017
964.364, 861.114
965.618, 785.154
966.872, 909.628
968.127, 932.903
969.380, 936.800
970.634, 908.460
971.888, 922.986
973.141, 941.297
974.394, 939.504
975.647, 942.593
976.900, 954.452
978.152, 962.292
979.404, 973.529
980.656, 982.941
981.908, 1015.928
983.160, 966.681
984.411, 1011.302
985.663, 970.392
986.914, 1071.520
988.165, 967.292
989.415, 934.121
990.666, 1011.808
991.916, 1059.187
993.166, 1067.466
994.416, 1083.974
995.665, 1047.307
996.915, 1054.684
998.164, 1034.565
999.413, 1013.122
1000.662, 1047.286
1001.911, 1017.220
1003.159, 1068.811
1004.407, 1030.336
1005.655, 1012.001
1006.903, 1317.716
1008.151, 1112.501
1009.398, 1336.973
1010.646, 989.845
1011.893, 907.979
1013.139, 996.510
1014.386, 938.718
1015.633, 930.993
1016.879, 887.145
1018.125, 860.620
1019.371, 847.484
1020.616, 814.476
1021.862, 830.514
1023.107, 832.244
1024.352, 817.207
1025.597, 781.481
1026.842, 785.025
1028.086, 776.478
1029.330, 697.233
1030.574, 674.519
1031.818, 680.745
1033.062, 700.509
1034.305, 741.549
1035.548, 712.382
1036.791, 697.761
1038.034, 684.236
1039.277, 639.800
1040.519, 637.703
1041.762, 630.233
1043.004, 644.048
1044.246, 583.630
1045.487, 634.880
1046.729, 560.924
1047.970, 562.496
1049.211, 598.272
1050.452, 563.081
1051.692, 570.589
1052.933, 525.764
1054.173, 457.833
1055.413, 539.604
1056.653, 497.086
1057.893, 421.174
1059.132, 493.720
1060.371, 524.610
1061.610, 474.396
1062.849, 450.581
1064.088, 499.205
1065.326, 432.897
1066.565, 481.267
1067.803, 437.507
1069.041, 460.007
1070.278, 419.819
1071.516, 448.802
1072.753, 450.519
1073.990, 436.862
1075.227, 443.855
1076.464, 417.192
1077.700, 424.832
1078.936, 400.489
1080.173, 358.683
1081.408, 386.760
1082.644, 311.876
1083.880, 414.954
1085.115, 379.707
1086.350, 310.282
1087.585, 412.014
1088.820, 279.672
1090.054, 283.290
1091.288, 350.882
1092.522, 333.324
1093.756, 266.318
1094.990, 321.938
1096.224, 307.979
1097.457, 312.547
1098.690, 322.565
1099.923, 284.991
1101.156, 327.410
1102.388, 295.925
1103.621, 265.091
1104.853, 339.147
1106.085, 300.110
1107.316, 300.165
1108.548, 274.001
1109.779, 229.524
1111.010, 329.343
1112.241, 219.272
1113.472, 181.770
1114.703, 264.694
1115.933, 261.087
1117.163, 300.573
1118.393, 305.998
1119.623, 286.943
1120.853, 287.011
1122.082, 261.235
1123.311, 238.209
1124.540, 242.141
1125.769, 195.904
1126.997, 288.719
1128.226, 196.370
1129.454, 247.066
1130.682, 252.837
1131.910, 233.215
1133.138, 309.928
1134.365, 250.108
1135.592, 284.988
1136.819, 221.176
1138.046, 204.119
1139.273, 227.239
1140.499, 201.366
1141.725, 176.444
1142.951, 272.520
1144.177, 200.674
1145.403, 216.993
1146.628, 204.206
1147.854, 187.353
1149.079, 202.544
1150.304, 206.715
1151.528, 199.885
1152.753, 236.989
1153.977, 200.044
1155.201, 212.554
1156.425, 129.251
1157.649, 236.820
1158.872, 174.037
1160.096, 194.986
1161.319, 188.519
1162.542, 182.095
1163.764, 155.435
1164.987, 177.775
1166.209, 172.271
1167.431, 164.256
1168.653, 186.469
1169.875, 202.610
1171.097, 204.225
1172.318, 195.074
1173.539, 124.561
1174.760, 163.613
1175.981, 163.255
1177.202, 143.553
1178.422, 170.932
1179.642, 159.897
1180.862, 201.545
1182.082, 191.268
1183.302, 196.133
1184.521, 217.890
1185.740, 183.534
1186.959, 242.118
1188.178, 216.816
1189.397, 202.644
1190.615, 126.422
1191.834, 188.021
1193.052, 146.652
1194.269, 139.200
1195.487, 157.005
1196.705, 172.286
1197.922, 140.217
1199.139, 252.169
1200.356, 211.497
1201.573, 248.595
1202.789, 190.345
1204.006, 190.292
1205.222, 219.357
1206.438, 199.359
1207.653, 216.617
1208.869, 194.191
1210.084, 173.829
1211.299, 229.530
1212.514, 250.495
1213.729, 184.742
1214.944, 196.646
1216.158, 169.650
1217.372, 150.146
1218.586, 244.763
1219.800, 119.950
1221.014, 212.038
1222.227, 185.281
1223.440, 310.002
1224.654, 222.860
1225.866, 185.583
1227.079, 203.269
1228.292, 177.474
1229.504, 166.976
1230.716, 200.870
1231.928, 238.173
1233.139, 169.998
1234.351, 213.660
1235.562, 205.591
1236.773, 215.991
1237.984, 145.499
1239.195, 184.760
1240.406, 168.766
1241.616, 152.993
1242.826, 179.350
1244.036, 214.500
1245.246, 140.275
1246.456, 224.306
1247.665, 135.732
1248.874, 206.337
1250.083, 170.392
1251.292, 193.830
1252.501, 205.092
1253.709, 237.098
1254.917, 159.111
1256.125, 229.877
1257.333, 173.267
1258.541, 157.371
1259.748, 193.960
1260.956, 199.953
1262.163, 150.061
1263.370, 203.300
1264.576, 178.499
1265.783, 162.769
1266.989, 118.748
1268.195, 151.238
1269.401, 139.605
1270.607, 225.204
1271.813, 137.846
1273.018, 189.989
1274.223, 139.622
1275.428, 131.417
1276.633, 153.223
1277.838, 95.225
1279.042, 162.264
1280.246, 72.276
1281.450, 112.204
1282.654, 116.043
1283.858, 130.863
1285.061, 175.735
1286.265, 156.321
1287.468, 153.835
1288.671, 81.791
1289.873, 35.505
1291.076, 32.761
1292.278, 13.775
1293.480, 40.525
1294.682, 26.069
1295.884, 79.595
1297.086, 76.168
1298.287, 66.951
1299.488, 79.046
1300.689, 37.925
1301.890, 66.073
1303.091, 63.668
1304.291, 60.993
1305.491, 33.091
1306.691, 3.582
1307.891, 58.296
1309.091, 25.179
1310.290, 20.543
1311.490, 11.332
1312.689, 46.834
1313.888, 73.877
1315.086, 3.405
1316.285, 64.316
1317.483, 17.909
1318.681, 20.188
1319.879, 0.865
1321.077, 23.901
1322.275, 35.161
1323.472, 20.127
1324.669, 0.917
1325.866, 29.954
1327.063, 1.889
1328.260, 28.646
1329.456, 49.786
1330.653, 36.384
1331.849, 14.966
1333.045, 2.956
1334.240, 16.043
1335.436, 6.703
1336.631, 25.294
1337.826, 10.406
1339.021, 56.910
1340.216, 11.780
1341.411, 44.767
1342.605, 35.659
1343.799, 52.277
1344.993, 42.100
1346.187, 32.013
1347.381, 16.320
1348.574, 13.350
1349.767, 40.874
1350.961, 43.211
1352.153, 32.509
1353.346, 35.940
1354.539, 32.483
1355.731, 21.849
1356.923, 23.426
1358.115, 19.335
1359.307, 19.352
1360.498, 11.052
1361.690, 10.853
1362.881, 6.604
1364.072, 13.638
1365.263, 25.960
1366.453, 16.697
1367.644, 49.834
1368.834, 54.165
1370.024, 18.377
1371.214, 7.121
1372.404, 12.029
1373.593, 40.901
1374.783, 65.774
1375.972, 5.708
1377.161, 65.158
1378.349, 10.919
1379.538, 4.754
1380.726, 39.467
1381.915, 81.098
1383.103, 73.736
1384.290, 76.349
1385.478, 30.105
1386.665, 83.918
1387.853, 0.620
1389.040, 85.386
1390.227, 33.073
1391.413, 3.730
1392.600, 59.487
1393.786, 41.946
1394.972, 45.456
1396.158, 111.041
1397.344, 79.631
1398.530, 95.133
1399.715, 46.492
1400.900, 15.494
1402.085, 90.806
1403.270, 79.445
1404.455, 48.706
1405.639, 57.090
1406.824, 72.381
1408.008, 36.930
1409.192, 116.667
1410.375, 106.253
1411.559, 129.901
1412.742, 152.334
1413.925, 94.731
1415.108, 67.143
1416.291, 96.953
1417.474, 131.094
1418.656, 100.813
1419.839, 32.824
1421.021, 120.130
1422.202, 44.007
1423.384, 109.239
1424.566, 55.200
1425.747, 43.966
1426.928, 55.384
1428.109, 104.627
1429.290, 82.552
1430.470, 74.184
1431.651, 56.737
1432.831, 49.531
1434.011, 101.680
1435.191, 45.166
1436.370, 75.587
1437.550, 99.834
1438.729, 52.745
1439.908, 35.358
1441.087, 90.242
1442.266, 86.863
1443.444, 114.406
1444.623, 92.347
1445.801, 108.119
1446.979, 4.310
1448.157, 99.643
1449.334, 95.402
1450.512, 5.195
1451.689, 46.141
1452.866, 89.654
1454.043, 78.271
1455.220, 41.363
1456.396, 87.315
1457.573, 58.610
1458.749, 46.982
1459.925, 48.971
1461.100, 90.994
1462.276, 97.188
1463.451, 52.265
1464.627, 62.310
1465.802, 27.241
1466.977, 83.557
1468.151, 97.274
1469.326, 0.689
1470.500, 98.417
1471.674, 124.576
1472.848, 74.896
1474.022, 74.240
1475.195, 59.930
1476.369, 105.737
1477.542, 8.598
1478.715, 75.887
1479.888, 23.967
1481.061, 33.623
1482.233, 1.220
1483.405, 40.170
1484.577, 55.661
1485.749, 57.213
1486.921, 97.697
1488.093, 115.338
1489.264, 92.144
1490.435, 60.451
1491.606, 62.027
1492.777, 54.162
1493.948, 87.934
1495.118, 20.322
1496.288, 70.755
1497.459, 23.229
1498.628, 13.976
1499.798, 35.176
1500.968, 72.603
1502.137, 63.345
1503.306, 88.545
1504.475, 70.937
1505.644, 87.275
1506.813, 93.831
1507.981, 0.600
1509.149, 60.683
1510.318, 82.620
1511.485, 0.345
