##NAMES=Sanbornite
##RRUFFID=R050001
##IDEAL CHEMISTRY=BaSi_2_O_5_
##LOCALITY=Empire #1 mine, Fresno County, California, USA
##OWNER=RRUFF
##SOURCE=University of Arizona Mineral Museum
##DESCRIPTION=An aggregate of white to colorless pearly anhedral plates
##STATUS=The identification of this mineral has been confirmed by X-ray diffraction and chemical analysis
##URL=rruff.info/R050001
##MEASURED CHEMISTRY=Ba_1.00_Si_2.00_O_5_
##PIN_ID=M00207
##ORIENTATION=Laser parallel to -c* (0 0 -1). Fiducial mark perpendicular to laser is parallel to -a [-1 0 0]
92.661, 0.000
94.059, 43.703
95.458, 1.084
96.856, 96.591
98.254, 79.288
99.652, 73.746
101.049, 255.371
102.446, 747.244
103.843, 622.302
105.240, 1245.268
106.637, 568.255
108.033, 231.946
109.429, 5.159
110.825, 11.754
112.220, 228.358
113.616, 556.735
115.011, 917.108
116.406, 1245.049
117.800, 1931.033
119.195, 2638.615
120.589, 3426.706
121.983, 3435.838
123.377, 3027.163
124.770, 2567.386
126.163, 1738.778
127.556, 1189.152
128.949, 731.199
130.342, 516.709
131.734, 436.299
133.126, 383.381
134.518, 336.343
135.909, 335.967
137.301, 458.479
138.692, 458.477
140.083, 581.184
141.473, 741.144
142.864, 1007.854
144.254, 1525.791
145.644, 2080.248
147.034, 3073.707
148.423, 3633.341
149.812, 4026.733
151.201, 3615.979
152.590, 2474.422
153.979, 1924.493
155.367, 1129.706
156.755, 894.668
158.143, 521.691
159.530, 435.014
160.918, 365.327
162.305, 225.543
163.692, 181.447
165.078, 210.799
166.465, 206.237
167.851, 128.527
169.237, 86.292
170.623, 102.682
172.008, 56.583
173.393, 23.893
174.778, 35.559
176.163, 6.297
177.548, 11.330
178.932, 8.623
180.316, 3.146
181.700, 18.869
183.083, 36.771
184.467, 40.819
185.850, 37.975
187.233, 51.232
188.616, 145.569
189.998, 201.961
191.380, 205.388
192.762, 343.837
194.144, 359.292
195.525, 537.738
196.907, 643.152
198.288, 767.513
199.669, 752.816
201.049, 717.056
202.429, 520.231
203.810, 344.337
205.189, 214.371
206.569, 138.326
207.949, 28.193
209.328, 9.955
210.707, 33.412
212.085, 47.933
213.464, 59.089
214.842, 30.479
216.220, 63.536
217.598, 24.802
218.976, 12.281
220.353, 14.032
221.730, 4.166
223.107, 0.351
224.483, 13.012
225.860, 17.316
227.236, 19.974
228.612, 16.500
229.988, 37.888
231.363, 5.048
232.738, 17.384
234.113, 11.113
235.488, 32.871
236.863, 15.747
238.237, 51.827
239.611, 46.408
240.985, 48.948
242.359, 81.199
243.732, 53.456
245.105, 119.303
246.478, 132.031
247.851, 194.635
249.223, 209.208
250.595, 187.281
251.967, 312.464
253.339, 340.018
254.711, 426.737
256.082, 503.531
257.453, 668.350
258.824, 793.740
260.195, 1053.681
261.565, 1347.335
262.935, 1873.737
264.305, 2807.728
265.675, 3527.440
267.044, 4940.078
268.414, 5381.065
269.783, 5265.091
271.151, 4569.875
272.520, 3234.305
273.888, 2623.382
275.256, 2001.316
276.624, 1806.071
277.992, 1595.192
279.359, 1501.960
280.726, 1650.489
282.093, 1703.540
283.460, 2016.396
284.827, 2211.932
286.193, 2730.938
287.559, 3201.728
288.925, 3675.299
290.290, 4448.653
291.656, 4780.763
293.021, 5296.602
294.386, 4878.144
295.750, 4579.394
297.115, 4062.334
298.479, 3272.802
299.843, 2858.630
301.207, 2162.020
302.570, 1880.519
303.933, 1542.700
305.296, 1278.892
306.659, 1141.912
308.022, 931.786
309.384, 871.542
310.746, 787.208
312.108, 779.787
313.470, 794.258
314.831, 711.592
316.193, 768.747
317.554, 770.654
318.914, 792.318
320.275, 845.752
321.635, 893.025
322.995, 1033.562
324.355, 1231.582
325.715, 1695.126
327.074, 2221.660
328.434, 3444.620
329.792, 5524.598
331.151, 9079.349
332.510, 13998.245
333.868, 14956.502
335.226, 13074.970
336.584, 8202.618
337.941, 4670.339
339.299, 3010.464
340.656, 1966.423
342.013, 1545.673
343.370, 1216.812
344.726, 907.674
346.082, 775.321
347.438, 667.548
348.794, 596.881
350.150, 465.143
351.505, 443.688
352.860, 375.447
354.215, 403.658
355.570, 323.886
356.924, 295.873
358.278, 261.887
359.632, 244.622
360.986, 275.760
362.339, 244.976
363.693, 227.148
365.046, 235.275
366.399, 177.749
367.751, 185.447
369.104, 194.462
370.456, 201.811
371.808, 197.652
373.159, 207.098
374.511, 187.880
375.862, 149.755
377.213, 148.933
378.564, 129.912
379.914, 158.823
381.265, 155.174
382.615, 114.328
383.965, 97.841
385.315, 165.029
386.664, 81.011
388.013, 132.493
389.362, 85.066
390.711, 73.792
392.060, 86.329
393.408, 97.948
394.756, 92.195
396.104, 81.113
397.451, 79.430
398.799, 83.390
400.146, 43.440
401.493, 41.433
402.840, 39.584
404.186, 106.515
405.533, 39.803
406.879, 53.774
408.225, 29.351
409.570, 15.021
410.916, 38.137
412.261, 9.301
413.606, 23.009
414.951, 47.906
416.295, 28.559
417.639, 27.552
418.983, 15.859
420.327, 7.446
421.671, 35.952
423.014, 21.380
424.357, 43.731
425.700, 77.005
427.043, 80.205
428.386, 21.332
429.728, 106.386
431.070, 37.370
432.412, 34.283
433.753, 58.126
435.095, 82.901
436.436, 105.609
437.777, 118.256
439.118, 130.843
440.458, 146.369
441.798, 132.834
443.138, 180.241
444.478, 164.591
445.818, 181.886
447.157, 287.140
448.496, 327.329
449.835, 480.469
451.174, 687.560
452.513, 1191.817
453.851, 1411.812
455.189, 1667.874
456.527, 1615.878
457.864, 1599.739
459.202, 1745.764
460.539, 1543.749
461.876, 1458.565
463.212, 1113.270
464.549, 823.938
465.885, 671.889
467.221, 588.549
468.557, 570.266
469.893, 598.929
471.228, 661.425
472.563, 911.050
473.898, 1435.534
475.233, 2741.078
476.567, 4028.665
477.902, 4842.111
479.236, 3485.614
480.570, 1757.958
481.903, 1023.437
483.237, 618.750
484.570, 482.145
485.903, 437.527
487.235, 419.746
488.568, 503.055
489.900, 538.476
491.232, 652.869
492.564, 846.241
493.896, 907.637
495.227, 870.903
496.558, 620.276
497.889, 558.550
499.220, 382.816
500.551, 398.211
501.881, 305.907
503.211, 385.306
504.541, 453.270
505.870, 378.886
507.200, 430.121
508.529, 490.124
509.858, 480.724
511.187, 574.235
512.515, 619.492
513.844, 643.090
515.172, 785.378
516.500, 826.441
517.827, 974.088
519.155, 1036.069
520.482, 1341.411
521.809, 1483.033
523.136, 1729.269
524.462, 2170.510
525.789, 2648.725
527.115, 3455.661
528.441, 4260.657
529.766, 5806.717
531.092, 7820.950
532.417, 9967.110
533.742, 13533.462
535.067, 14839.595
536.391, 16635.660
537.716, 15251.703
539.040, 12157.940
540.364, 10054.179
541.688, 6992.264
543.011, 5570.688
544.334, 4220.714
545.657, 3203.906
546.980, 2690.822
548.303, 1996.995
549.625, 1799.982
550.947, 1407.683
552.269, 1230.701
553.591, 1114.821
554.913, 896.153
556.234, 915.095
557.555, 723.458
558.876, 735.898
560.197, 649.917
561.517, 526.873
562.837, 571.842
564.157, 405.164
565.477, 489.046
566.797, 404.743
568.116, 476.026
569.435, 394.998
570.754, 360.005
572.073, 349.068
573.391, 265.056
574.709, 319.129
576.027, 341.930
577.345, 233.754
578.663, 312.615
579.980, 296.463
581.297, 213.503
582.614, 226.300
583.931, 215.128
585.248, 204.196
586.564, 191.174
587.880, 177.006
589.196, 173.318
590.511, 151.872
591.827, 160.641
593.142, 165.505
594.457, 149.468
595.772, 166.392
597.086, 150.624
598.401, 177.775
599.715, 166.988
601.029, 155.141
602.343, 153.489
603.656, 121.768
604.969, 102.116
606.282, 105.757
607.595, 110.387
608.908, 140.007
610.220, 51.615
611.532, 125.212
612.844, 74.802
614.156, 77.383
615.468, 116.953
616.779, 50.514
618.090, 50.063
619.401, 80.600
620.712, 146.128
622.022, 111.551
623.332, 21.155
624.642, 81.659
625.952, 59.146
627.262, 63.623
628.571, 119.175
629.880, 55.632
631.189, 81.079
632.498, 58.517
633.807, 39.946
635.115, 65.363
636.423, 44.827
637.731, 75.280
639.039, 35.669
640.346, 68.051
641.653, 42.424
642.960, 39.787
644.267, 73.244
645.574, 47.588
646.880, 16.971
648.186, 20.757
649.492, 22.072
650.798, 13.833
652.103, 42.707
653.409, 14.999
654.714, 37.302
656.019, 38.566
657.323, 6.914
658.628, 8.822
659.932, 6.457
661.236, 15.206
662.540, 6.079
663.843, 20.889
665.147, 15.718
666.450, 5.563
667.753, 4.422
669.056, 5.813
670.358, 35.904
671.660, 64.701
672.963, 7.646
674.264, 1.463
675.566, 51.201
676.868, 18.956
678.169, 1.393
679.470, 39.640
680.771, 21.422
682.071, 32.460
683.372, 39.422
684.672, 31.540
685.972, 24.655
687.271, 0.655
688.571, 7.484
689.870, 0.865
691.169, 17.962
692.468, 6.886
693.767, 22.803
695.065, 1.284
696.364, 5.747
697.662, 33.988
698.960, 4.117
700.257, 17.216
701.555, 48.167
702.852, 34.037
704.149, 26.969
705.446, 26.804
706.742, 9.367
708.038, 14.170
709.335, 25.751
710.631, 18.456
711.926, 60.319
713.222, 1.089
714.517, 19.151
715.812, 21.631
717.107, 36.365
718.402, 40.115
719.696, 13.163
720.990, 63.708
722.284, 2.921
723.578, 3.765
724.872, 26.471
726.165, 27.587
727.458, 9.244
728.751, 31.938
730.044, 9.319
731.336, 112.352
732.629, 42.039
733.921, 49.539
735.213, 42.111
736.504, 22.701
737.796, 66.415
739.087, 88.968
740.378, 57.812
741.669, 99.352
742.960, 56.964
744.250, 123.492
745.540, 112.108
746.830, 129.728
748.120, 149.318
749.410, 186.844
750.699, 272.342
751.988, 438.928
753.277, 432.464
754.566, 676.967
755.854, 709.436
757.143, 765.898
758.431, 770.352
759.719, 686.797
761.006, 604.222
762.294, 476.650
763.581, 401.069
764.868, 316.520
766.155, 251.808
767.442, 210.042
768.728, 175.874
770.014, 188.170
771.300, 166.607
772.586, 148.447
773.872, 181.958
775.157, 103.245
776.442, 132.638
777.727, 97.978
779.012, 73.969
780.297, 153.207
781.581, 85.343
782.865, 54.491
784.149, 144.764
785.433, 95.864
786.716, 97.102
787.999, 104.200
789.282, 85.214
790.565, 60.328
791.848, 60.348
793.130, 84.488
794.413, 98.136
795.695, 86.233
796.977, 100.226
798.258, 48.190
799.540, 86.286
800.821, 61.331
802.102, 14.201
803.382, 83.051
804.663, 62.900
805.943, 82.707
807.224, 69.723
808.504, 64.126
809.783, 88.421
811.063, 48.303
812.342, 66.339
813.621, 58.775
814.900, 60.641
816.179, 101.746
817.457, 78.242
818.736, 90.112
820.014, 96.201
821.292, 89.682
822.569, 41.191
823.847, 26.867
825.124, 38.909
826.401, 77.369
827.678, 45.712
828.954, 14.341
830.231, 22.478
831.507, 3.164
832.783, 47.680
834.059, 17.566
835.334, 43.084
836.610, 45.774
837.885, 34.486
839.160, 20.160
840.435, 45.798
841.709, 4.287
842.983, 55.834
844.258, 1.760
845.532, 76.810
846.805, 95.327
848.079, 54.906
849.352, 24.236
850.625, 9.731
851.898, 53.389
853.171, 30.445
854.443, 29.048
855.715, 46.665
856.988, 30.217
858.259, 98.734
859.531, 64.247
860.803, 7.021
862.074, 20.541
863.345, 70.042
864.616, 66.315
865.886, 58.953
867.157, 59.177
868.427, 36.368
869.697, 58.830
870.967, 40.348
872.236, 113.878
873.506, 11.337
874.775, 54.043
876.044, 73.805
877.313, 35.963
878.581, 13.631
879.849, 7.826
881.118, 27.097
882.386, 13.510
883.653, 25.933
884.921, 50.538
886.188, 48.108
887.455, 75.581
888.722, 30.019
889.989, 14.627
891.255, 72.891
892.522, 34.539
893.788, 35.919
895.054, 13.530
896.319, 34.905
897.585, 11.438
898.850, 8.970
900.115, 14.497
901.380, 28.019
902.645, 33.545
903.909, 10.067
905.174, 20.586
906.438, 26.100
907.701, 84.611
908.965, 61.119
910.229, 101.622
911.492, 97.089
912.755, 98.618
914.018, 72.111
915.280, 62.600
916.543, 21.085
917.805, 6.567
919.067, 10.955
920.329, 5.862
921.590, 24.971
922.852, 12.427
924.113, 31.879
925.374, 14.328
926.635, 22.773
927.895, 13.216
929.156, 23.655
930.416, 49.090
931.676, 32.518
932.936, 76.950
934.195, 88.379
935.454, 27.721
936.714, 67.145
937.973, 18.566
939.231, 50.984
940.490, 70.399
941.748, 73.813
943.006, 55.168
944.264, 33.523
945.522, 10.071
946.780, 50.328
948.037, 23.723
949.294, 52.117
950.551, 35.404
951.808, 10.793
953.064, 20.133
954.320, 39.056
955.577, 110.439
956.832, 37.783
958.088, 2.164
959.344, 100.533
960.599, 20.880
961.854, 47.253
963.109, 4.468
964.364, 39.882
965.618, 2.203
966.872, 34.531
968.127, 60.899
969.380, 42.269
970.634, 35.641
971.888, 51.016
973.141, 72.393
974.394, 84.405
975.647, 150.871
976.900, 109.146
978.152, 146.541
979.404, 122.872
980.656, 89.975
981.908, 170.239
983.160, 184.001
984.411, 296.377
985.663, 201.996
986.914, 268.353
988.165, 297.722
989.415, 349.045
990.666, 291.314
991.916, 415.692
993.166, 474.525
994.416, 648.948
995.665, 957.477
996.915, 1293.904
998.164, 2045.331
999.413, 2281.756
1000.662, 2242.055
1001.911, 1806.114
1003.159, 1161.693
1004.407, 805.661
1005.655, 595.090
1006.903, 352.513
1008.151, 320.978
1009.398, 284.591
1010.646, 253.299
1011.893, 197.973
1013.139, 162.629
1014.386, 228.083
1015.633, 157.805
1016.879, 162.303
1018.125, 219.782
1019.371, 214.227
1020.616, 196.713
1021.862, 248.340
1023.107, 137.847
1024.352, 210.284
1025.597, 193.109
1026.842, 223.606
1028.086, 137.303
1029.330, 140.616
1030.574, 166.947
1031.818, 192.723
1033.062, 157.126
1034.305, 129.771
1035.548, 182.478
1036.791, 163.148
1038.034, 207.767
1039.277, 167.303
1040.519, 237.680
1041.762, 156.411
1043.004, 244.863
1044.246, 330.396
1045.487, 305.149
1046.729, 333.690
1047.970, 338.878
1049.211, 369.498
1050.452, 408.997
1051.692, 456.444
1052.933, 493.155
1054.173, 563.818
1055.413, 587.530
1056.653, 751.236
1057.893, 699.858
1059.132, 848.415
1060.371, 1007.976
1061.610, 1037.828
1062.849, 1428.416
1064.088, 1560.040
1065.326, 1869.644
1066.565, 2387.152
1067.803, 2817.773
1069.041, 3920.557
1070.278, 5382.538
1071.516, 7287.206
1072.753, 12071.674
1073.990, 17796.217
1075.227, 29290.771
1076.464, 42415.285
1077.700, 42049.836
1078.936, 36824.578
1080.173, 24759.117
1081.408, 14374.042
1082.644, 10048.592
1083.880, 6453.160
1085.115, 4777.702
1086.350, 3807.247
1087.585, 2829.749
1088.820, 2426.292
1090.054, 2032.832
1091.288, 1624.370
1092.522, 1595.007
1093.756, 1325.538
1094.990, 1277.385
1096.224, 1369.909
1097.457, 1418.417
1098.690, 1584.932
1099.923, 1549.444
1101.156, 1308.889
1102.388, 1059.426
1103.621, 752.930
1104.853, 667.428
1106.085, 568.925
1107.316, 429.321
1108.548, 456.852
1109.779, 349.325
1111.010, 350.837
1112.241, 421.226
1113.472, 322.698
1114.703, 286.075
1115.933, 236.539
1117.163, 251.081
1118.393, 246.649
1119.623, 246.313
1120.853, 329.103
1122.082, 420.666
1123.311, 300.102
1124.540, 298.703
1125.769, 214.166
1126.997, 235.675
1128.226, 205.179
1129.454, 185.755
1130.682, 216.164
1131.910, 188.898
1133.138, 154.380
1134.365, 140.096
1135.592, 113.827
1136.819, 112.545
1138.046, 123.513
1139.273, 94.312
1140.499, 89.776
1141.725, 56.361
1142.951, 64.726
1144.177, 54.816
1145.403, 148.307
1146.628, 81.655
1147.854, 76.396
1149.079, 103.911
1150.304, 20.565
1151.528, 57.159
1152.753, 37.010
1153.977, 65.528
1155.201, 31.145
1156.425, 17.551
1157.649, 0.954
1158.872, 26.397
1160.096, 21.788
1161.319, 78.044
1162.542, 1.132
1163.764, 58.892
1164.987, 104.575
1166.209, 81.136
1167.431, 82.021
1168.653, 27.627
1169.875, 62.418
1171.097, 42.701
1172.318, 67.964
1173.539, 138.308
1174.760, 18.673
1175.981, 52.853
1177.202, 78.417
1178.422, 49.385
1179.642, 102.930
1180.862, 30.581
1182.082, 28.690
1183.302, 40.925
1184.521, 55.351
1185.740, 69.380
1186.959, 82.618
1188.178, 30.412
1189.397, 30.431
1190.615, 114.724
1191.834, 11.887
1193.052, 120.023
1194.269, 2.856
1195.487, 49.519
1196.705, 141.615
1197.922, 21.333
1199.139, 52.542
1200.356, 42.498
1201.573, 41.486
1202.789, 48.575
1204.006, 76.513
1205.222, 96.364
1206.438, 90.864
1207.653, 21.318
1208.869, 84.242
1210.084, 74.997
1211.299, 82.265
1212.514, 125.186
1213.729, 54.855
1214.944, 77.635
1216.158, 100.327
1217.372, 62.348
1218.586, 97.547
1219.800, 140.532
1221.014, 78.734
1222.227, 171.017
1223.440, 78.958
1224.654, 51.649
1225.866, 114.580
1227.079, 18.763
1228.292, 150.693
1229.504, 101.521
1230.716, 131.433
1231.928, 136.091
1233.139, 106.767
1234.351, 131.925
1235.562, 155.529
1236.773, 150.192
1237.984, 84.864
1239.195, 146.354
1240.406, 120.786
1241.616, 121.211
1242.826, 196.628
1244.036, 126.036
1245.246, 113.434
1246.456, 122.823
1247.665, 98.458
1248.874, 174.827
1250.083, 139.752
1251.292, 145.956
1252.501, 127.292
1253.709, 103.709
1254.917, 113.024
1256.125, 106.723
1257.333, 65.805
1258.541, 120.071
1259.748, 127.324
1260.956, 134.624
1262.163, 95.843
1263.370, 89.050
1264.576, 65.241
1265.783, 34.530
1266.989, 87.691
1268.195, 134.868
1269.401, 77.051
1270.607, 109.206
1271.813, 97.329
1273.018, 14.600
1274.223, 79.598
1275.428, 152.613
1276.633, 2.348
1277.838, 100.016
1279.042, 44.960
1280.246, 40.029
1281.450, 41.942
1282.654, 6.127
1283.858, 51.738
1285.061, 67.588
1286.265, 69.418
1287.468, 146.317
1288.671, 10.064
1289.873, 88.958
1291.076, 175.662
1292.278, 31.343
1293.480, 78.254
1294.682, 43.896
1295.884, 56.377
1297.086, 5.025
1298.287, 73.461
1299.488, 48.013
1300.689, 96.455
1301.890, 72.794
1303.091, 56.015
1304.291, 64.851
1305.491, 8.928
1306.691, 11.625
1307.891, 22.527
1309.091, 22.761
1310.290, 35.048
1311.490, 9.318
1312.689, 27.568
1313.888, 12.638
1315.086, 0.171
1316.285, 92.911
1317.483, 75.074
1318.681, 17.782
1319.879, 109.114
1321.077, 26.133
1322.275, 101.208
1323.472, 60.947
1324.669, 11.981
1325.866, 104.815
1327.063, 71.628
1328.260, 6.541
1329.456, 152.320
1330.653, 62.213
1331.849, 3.112
1333.045, 76.792
1334.240, 70.431
1335.436, 36.734
1336.631, 69.778
1337.826, 68.444
1339.021, 9.292
1340.216, 68.260
1341.411, 75.954
1342.605, 131.702
1343.799, 4.793
1344.993, 75.644
1346.187, 48.058
1347.381, 5.518
1348.574, 97.999
1349.767, 67.605
1350.961, 58.146
1352.153, 70.378
1353.346, 127.857
1354.539, 12.720
1355.731, 60.707
1356.923, 3.829
1358.115, 87.447
1359.307, 149.803
1360.498, 26.223
1361.690, 6.484
1362.881, 26.879
1364.072, 4.264
1365.263, 0.245
1366.453, 26.916
1367.644, 38.816
1368.834, 24.308
1370.024, 31.360
1371.214, 20.589
1372.404, 34.909
1373.593, 19.272
1374.783, 68.602
1375.972, 60.962
1377.161, 16.696
1378.349, 71.675
1379.538, 55.871
1380.726, 49.536
1381.915, 90.802
1383.103, 133.152
1384.290, 174.484
1385.478, 138.796
1386.665, 128.028
1387.853, 191.297
1389.040, 159.500
1390.227, 41.687
1391.413, 188.670
1392.600, 100.853
1393.786, 16.798
1394.972, 199.318
1396.158, 81.294
1397.344, 137.153
1398.530, 159.737
1399.715, 52.572
1400.900, 122.930
1402.085, 102.132
1403.270, 82.798
1404.455, 134.080
1405.639, 127.684
1406.824, 129.469
1408.008, 71.786
1409.192, 123.939
1410.375, 88.426
1411.559, 83.495
1412.742, 86.790
1413.925, 90.813
1415.108, 153.113
1416.291, 52.732
1417.474, 143.889
1418.656, 81.016
1419.839, 8.833
1421.021, 152.961
1422.202, 53.722
1423.384, 138.714
1424.566, 78.243
1425.747, 115.346
1426.928, 102.384
1428.109, 156.318
1429.290, 55.532
1430.470, 157.553
1431.651, 30.173
1432.831, 122.068
1434.011, 82.218
1435.191, 8.081
1436.370, 95.781
1437.550, 138.207
1438.729, 92.631
1439.908, 127.622
1441.087, 160.407
1442.266, 58.769
1443.444, 230.034
1444.623, 68.073
1445.801, 110.493
1446.979, 139.548
1448.157, 35.833
1449.334, 136.733
1450.512, 118.661
1451.689, 104.198
1452.866, 95.405
1454.043, 119.637
1455.220, 49.796
1456.396, 133.328
1457.573, 48.307
1458.749, 76.309
1459.925, 235.936
1461.100, 94.257
1462.276, 80.999
1463.451, 128.547
1464.627, 43.189
1465.802, 157.485
1466.977, 132.787
1468.151, 34.073
1469.326, 141.122
1470.500, 120.486
1471.674, 97.863
1472.848, 118.877
1474.022, 101.138
1475.195, 69.457
1476.369, 160.609
1477.542, 28.616
1478.715, 127.335
1479.888, 2.173
1481.061, 27.346
1482.233, 119.762
1483.405, 71.269
1484.577, 79.021
1485.749, 167.594
1486.921, 115.534
1488.093, 39.465
1489.264, 130.389
1490.435, 13.334
1491.606, 80.322
1492.777, 103.339
1493.948, 30.398
1495.118, 103.472
1496.288, 30.680
1497.459, 46.025
1498.628, 142.481
1499.798, 95.068
1500.968, 94.909
1502.137, 65.772
1503.306, 75.797
1504.475, 66.991
1505.644, 63.356
1506.813, 68.523
1507.981, 138.309
1509.149, 116.384
1510.318, 127.788
1511.485, 160.621
1512.653, 48.974
1513.821, 33.898
1514.988, 113.621
1516.155, 75.319
1517.322, 109.323
1518.489, 184.402
1519.656, 0.853
1520.822, 0.000
##END=



