##NAMES=Sanbornite
##RRUFFID=R050001
##IDEAL CHEMISTRY=BaSi_2_O_5_
##LOCALITY=Empire #1 mine, Fresno County, California, USA
##OWNER=RRUFF
##SOURCE=University of Arizona Mineral Museum
##DESCRIPTION=An aggregate of white to colorless pearly anhedral plates
##STATUS=The identification of this mineral has been confirmed by X-ray diffraction and chemical analysis
##URL=rruff.info/R050001
##MEASURED CHEMISTRY=Ba_1.00_Si_2.00_O_5_
##PIN_ID=M00487
##ORIENTATION=Laser parallel to -b* (0 -1 0). Fiducial mark perpendicular to laser is parallel to c [0 0 1]
49.184, 0.000
50.590, 28.321
51.996, 24.449
53.401, 25.102
54.807, 31.585
56.212, 37.489
57.617, 32.591
59.021, 34.799
60.426, 30.388
61.830, 37.064
63.234, 33.766
64.637, 34.025
66.041, 52.666
67.444, 59.043
68.847, 59.991
70.250, 54.027
71.652, 32.212
73.054, 66.522
74.456, 51.952
75.858, 54.495
77.260, 21.145
78.661, 13.895
80.062, 6.739
81.463, 6.328
82.863, 3.311
84.264, 15.215
85.664, 10.044
87.064, 18.801
88.463, 0.508
89.863, 10.883
91.262, 43.320
92.661, 66.819
94.059, 147.379
95.458, 209.998
96.856, 322.675
98.254, 565.407
99.652, 1183.192
101.049, 2266.025
102.446, 3497.901
103.843, 4709.819
105.240, 4215.775
106.637, 3167.768
108.033, 2212.796
109.429, 1564.858
110.825, 1164.953
112.220, 936.079
113.616, 923.235
115.011, 964.421
116.406, 1043.635
117.800, 1132.876
119.195, 1200.144
120.589, 1238.438
121.983, 1175.758
123.377, 1099.102
124.770, 964.471
126.163, 877.862
127.556, 814.277
128.949, 706.714
130.342, 575.175
131.734, 537.674
133.126, 474.207
134.518, 474.780
135.909, 483.383
137.301, 452.018
138.692, 428.682
140.083, 410.370
141.473, 448.090
142.864, 470.840
144.254, 527.617
145.644, 549.412
147.034, 575.222
148.423, 519.037
149.812, 522.853
151.201, 465.655
152.590, 445.432
153.979, 409.213
155.367, 342.001
156.755, 315.797
158.143, 307.600
159.530, 346.411
160.918, 336.231
162.305, 388.058
163.692, 434.895
165.078, 475.740
166.465, 516.593
167.851, 503.456
169.237, 542.328
170.623, 492.209
172.008, 446.099
173.393, 384.999
174.778, 354.908
176.163, 353.826
177.548, 273.753
178.932, 266.690
180.316, 241.636
181.700, 280.591
183.083, 237.555
184.467, 271.528
185.850, 292.511
187.233, 272.502
188.616, 314.503
189.998, 289.513
191.380, 293.531
192.762, 343.559
194.144, 306.595
195.525, 314.641
196.907, 288.695
198.288, 258.758
199.669, 235.829
201.049, 228.910
202.429, 197.999
203.810, 207.096
205.189, 211.203
206.569, 189.318
207.949, 225.443
209.328, 219.576
210.707, 248.860
212.085, 294.532
213.464, 316.132
214.842, 313.522
216.220, 325.183
217.598, 345.709
218.976, 362.410
220.353, 387.331
221.730, 407.850
223.107, 431.152
224.483, 444.831
225.860, 454.681
227.236, 446.378
228.612, 467.961
229.988, 487.399
231.363, 500.957
232.738, 473.506
234.113, 529.072
235.488, 545.235
236.863, 600.277
238.237, 637.913
239.611, 712.359
240.985, 826.445
242.359, 1016.047
243.732, 1129.080
245.105, 1323.214
246.478, 1400.938
247.851, 1467.815
249.223, 1468.920
250.595, 1397.921
251.967, 1311.068
253.339, 1187.603
254.711, 1098.397
256.082, 1117.409
257.453, 1144.504
258.824, 1213.610
260.195, 1266.727
261.565, 1361.854
262.935, 1505.991
264.305, 1636.139
265.675, 1763.296
267.044, 1875.463
268.414, 1994.639
269.783, 2141.256
271.151, 2301.018
272.520, 2473.220
273.888, 2665.432
275.256, 2909.652
276.624, 3293.880
277.992, 3697.116
279.359, 4294.359
280.726, 4991.612
282.093, 5953.873
283.460, 7148.140
284.827, 8501.414
286.193, 10102.696
287.559, 11831.986
288.925, 13511.283
290.290, 14660.587
291.656, 15419.896
293.021, 15139.215
294.386, 14468.540
295.750, 13197.871
297.115, 11307.209
298.479, 9526.553
299.843, 7847.904
301.207, 6411.260
302.570, 5311.622
303.933, 4362.991
305.296, 3615.364
306.659, 3038.742
308.022, 2712.127
309.384, 2515.517
310.746, 2418.912
312.108, 2432.313
313.470, 2477.718
314.831, 2552.128
316.193, 2421.544
317.554, 2175.965
318.914, 1829.392
320.275, 1599.823
321.635, 1320.260
322.995, 1109.702
324.355, 980.149
325.715, 928.602
327.074, 951.059
328.434, 1092.522
329.792, 1251.989
331.151, 1361.462
332.510, 1365.940
333.868, 1317.422
335.226, 1199.909
336.584, 1042.402
337.941, 998.899
339.299, 998.401
340.656, 1012.907
342.013, 964.419
343.370, 867.935
344.726, 719.455
346.082, 534.981
347.438, 414.510
348.794, 330.045
350.150, 247.584
351.505, 221.130
352.860, 176.684
354.215, 118.242
355.570, 119.807
356.924, 96.379
358.278, 75.960
359.632, 67.869
360.986, 56.145
362.339, 37.747
363.693, 35.358
365.046, 13.975
366.399, 5.602
367.751, 29.238
369.104, 4.122
370.456, 18.523
371.808, 12.825
373.159, 11.165
374.511, 24.498
375.862, 11.166
377.213, 6.164
378.564, 6.492
379.914, 13.449
381.265, 6.149
382.615, 4.476
383.965, 4.797
385.315, 21.886
386.664, 29.423
388.013, 16.261
389.362, 4.050
390.711, 10.358
392.060, 7.665
393.408, 10.971
394.756, 31.277
396.104, 14.590
397.451, 7.905
398.799, 25.217
400.146, 19.529
401.493, 11.844
402.840, 4.156
404.186, 14.465
405.533, 5.774
406.879, 9.079
408.225, 1.383
409.570, 17.682
410.916, 16.979
412.261, 8.276
413.606, 2.566
414.951, 3.151
416.295, 7.879
417.639, 0.388
418.983, 8.350
420.327, 28.092
421.671, 22.838
423.014, 8.588
424.357, 41.342
425.700, 22.100
427.043, 29.861
428.386, 70.627
429.728, 73.396
431.070, 94.170
432.412, 83.946
433.753, 87.727
435.095, 89.511
436.436, 77.299
437.777, 87.090
439.118, 104.885
440.458, 95.683
441.798, 103.485
443.138, 150.289
444.478, 162.098
445.818, 201.909
447.157, 233.724
448.496, 311.541
449.835, 375.362
451.174, 537.186
452.513, 662.013
453.851, 919.843
455.189, 1168.676
456.527, 1460.512
457.864, 1745.351
459.202, 1819.191
460.539, 1768.036
461.876, 1596.883
463.212, 1373.732
464.549, 1259.584
465.885, 1200.439
467.221, 1293.297
468.557, 1585.157
469.893, 2234.018
471.228, 3623.884
472.563, 6008.751
473.898, 9490.622
475.233, 12700.493
476.567, 13590.366
477.902, 12170.242
479.236, 8675.123
480.570, 5640.003
481.903, 3607.885
483.237, 2334.771
484.570, 1490.658
485.903, 1069.547
487.235, 792.439
488.568, 611.332
489.900, 599.227
491.232, 569.124
492.564, 541.022
493.896, 512.923
495.227, 508.699
496.558, 494.729
497.889, 518.635
499.220, 522.542
500.551, 551.451
501.881, 555.361
503.211, 585.273
504.541, 633.187
505.870, 674.103
507.200, 743.020
508.529, 854.949
509.858, 906.883
511.187, 985.542
512.515, 1109.965
513.844, 1278.927
515.172, 1385.267
516.500, 1619.916
517.827, 1935.931
519.155, 2189.573
520.482, 2632.268
521.809, 3147.462
523.136, 3901.508
524.462, 4808.070
525.789, 6243.155
527.115, 7968.137
528.441, 10476.194
529.766, 13846.436
531.092, 17887.023
532.417, 21747.869
533.742, 25078.000
535.067, 26018.641
536.391, 25468.666
537.716, 22408.516
539.040, 18858.260
540.364, 14977.865
541.688, 11638.078
543.011, 8995.603
544.334, 7137.357
545.657, 5531.008
546.980, 4324.084
548.303, 3591.320
549.625, 3012.477
550.947, 2526.044
552.269, 2121.824
553.591, 1880.343
554.913, 1654.113
556.234, 1427.441
557.555, 1255.178
558.876, 1170.000
560.197, 1027.164
561.517, 946.250
562.837, 896.028
564.157, 787.551
565.477, 753.445
566.797, 707.001
568.116, 661.882
569.435, 653.021
570.754, 566.236
572.073, 544.824
573.391, 529.655
574.709, 511.613
576.027, 466.571
577.345, 453.545
578.663, 415.509
579.980, 411.472
581.297, 390.436
582.614, 367.400
583.931, 343.363
585.248, 310.325
586.564, 287.287
587.880, 255.248
589.196, 271.209
590.511, 245.169
591.827, 245.131
593.142, 219.095
594.457, 225.057
595.772, 242.017
597.086, 203.975
598.401, 198.931
599.715, 196.886
601.029, 162.838
602.343, 144.789
603.656, 137.738
604.969, 162.684
606.282, 163.629
607.595, 141.572
608.908, 148.516
610.220, 111.457
611.532, 123.397
612.844, 117.334
614.156, 113.269
615.468, 133.201
616.779, 139.131
618.090, 122.058
619.401, 143.983
620.712, 113.906
622.022, 106.826
623.332, 94.743
624.642, 109.658
625.952, 100.570
627.262, 126.480
628.571, 113.386
629.880, 94.290
631.189, 93.191
632.498, 80.089
633.807, 69.985
635.115, 76.877
636.423, 87.767
637.731, 110.653
639.039, 78.537
640.346, 73.417
641.653, 69.295
642.960, 93.169
644.267, 64.040
645.574, 83.908
646.880, 71.773
648.186, 92.635
649.492, 54.493
650.798, 44.349
652.103, 57.200
653.409, 56.049
654.714, 55.894
656.019, 38.735
657.323, 54.587
658.628, 64.422
659.932, 39.253
661.236, 22.202
662.540, 27.054
663.843, 30.981
665.147, 13.971
666.450, 16.245
667.753, 5.918
669.056, 2.081
670.358, 14.617
671.660, 0.015
672.963, 4.646
674.264, 10.052
675.566, 3.945
676.868, 4.418
678.169, 5.334
679.470, 9.895
680.771, 2.167
682.071, 10.465
683.372, 8.777
684.672, 11.923
685.972, 1.200
687.271, 2.139
688.571, 14.488
689.870, 1.851
691.169, 2.769
692.468, 15.850
693.767, 11.749
695.065, 21.145
696.364, 7.677
697.662, 0.278
698.960, 3.620
700.257, 7.468
701.555, 2.897
702.852, 0.336
704.149, 5.221
705.446, 2.771
706.742, 17.313
708.038, 11.448
709.335, 20.165
710.631, 3.516
711.926, 22.048
713.222, 12.578
714.517, 8.896
715.812, 12.621
717.107, 2.150
718.402, 29.805
719.696, 7.309
720.990, 8.808
722.284, 42.783
723.578, 42.275
724.872, 24.762
726.165, 17.249
727.458, 26.734
728.751, 32.528
730.044, 38.522
731.336, 32.403
732.629, 19.181
733.921, 41.003
735.213, 50.640
736.504, 35.550
737.796, 80.178
739.087, 89.785
740.378, 67.367
741.669, 111.879
742.960, 123.531
744.250, 191.357
745.540, 228.775
746.830, 305.135
748.120, 436.144
749.410, 590.546
750.699, 822.943
751.988, 1033.334
753.277, 1182.721
754.566, 1255.102
755.854, 1098.478
757.143, 924.849
758.431, 755.269
759.719, 584.629
761.006, 476.022
762.294, 378.372
763.581, 308.419
764.868, 257.759
766.155, 233.094
767.442, 174.424
768.728, 156.749
770.014, 138.069
771.300, 124.383
772.586, 130.693
773.872, 145.998
775.157, 106.297
776.442, 119.592
777.727, 95.881
779.012, 94.166
780.297, 107.445
781.581, 87.720
782.865, 87.990
784.149, 114.254
785.433, 55.514
786.716, 62.769
787.999, 82.019
789.282, 60.264
790.565, 72.505
791.848, 75.740
793.130, 74.971
794.413, 76.197
795.695, 75.418
796.977, 71.635
798.258, 56.846
799.540, 51.053
800.821, 50.256
802.102, 64.454
803.382, 51.647
804.663, 41.835
805.943, 65.019
807.224, 43.199
808.504, 29.374
809.783, 40.544
811.063, 21.710
812.342, 28.872
813.621, 27.029
814.900, 11.181
816.179, 17.328
817.457, 11.471
818.736, 8.608
820.014, 14.271
821.292, 7.485
822.569, 14.212
823.847, 6.180
825.124, 1.118
826.401, 1.440
827.678, 5.556
828.954, 1.517
830.231, 5.724
831.507, 11.575
832.783, 8.373
834.059, 10.316
835.334, 27.738
836.610, 17.635
837.885, 5.633
839.160, 5.449
840.435, 28.144
841.709, 13.526
842.983, 17.128
844.258, 4.480
845.532, 27.835
846.805, 29.765
848.079, 34.632
849.352, 38.625
850.625, 17.369
851.898, 31.861
853.171, 0.107
854.443, 2.105
855.715, 24.387
856.988, 6.829
858.259, 4.521
859.531, 2.127
860.803, 9.958
862.074, 12.862
863.345, 21.785
864.616, 23.391
865.886, 35.020
867.157, 24.848
868.427, 38.017
869.697, 8.848
870.967, 3.864
872.236, 1.074
873.506, 2.783
874.775, 10.470
876.044, 14.459
877.313, 13.386
878.581, 3.301
879.849, 12.172
881.118, 7.907
882.386, 11.987
883.653, 10.074
884.921, 25.165
886.188, 9.328
887.455, 5.436
888.722, 11.547
889.989, 5.663
891.255, 5.328
892.522, 4.904
893.788, 3.027
895.054, 7.152
896.319, 11.280
897.585, 12.588
898.850, 21.545
900.115, 15.687
901.380, 15.166
902.645, 4.018
903.909, 3.870
905.174, 15.722
906.438, 5.781
907.701, 11.425
908.965, 4.277
910.229, 2.871
911.492, 5.980
912.755, 2.169
914.018, 10.682
915.280, 19.467
916.543, 8.379
917.805, 1.224
919.067, 31.070
920.329, 28.916
921.590, 28.763
922.852, 37.610
924.113, 42.458
925.374, 30.307
926.635, 45.156
927.895, 42.006
929.156, 39.857
930.416, 62.708
931.676, 29.561
932.936, 39.414
934.195, 55.269
935.454, 54.124
936.714, 57.980
937.973, 39.838
939.231, 66.697
940.490, 67.557
941.748, 42.419
943.006, 57.281
944.264, 57.145
945.522, 40.011
946.780, 51.878
948.037, 28.746
949.294, 26.616
950.551, 42.488
951.808, 47.361
953.064, 54.236
954.320, 39.114
955.577, 39.993
956.832, 45.874
958.088, 25.756
959.344, 46.641
960.599, 72.528
961.854, 67.417
963.109, 64.294
964.364, 31.188
965.618, 32.083
966.872, 41.860
968.127, 71.733
969.380, 53.532
970.634, 65.267
971.888, 77.718
973.141, 52.603
974.394, 40.486
975.647, 65.505
976.900, 30.852
978.152, 81.197
979.404, 63.313
980.656, 44.911
981.908, 78.085
983.160, 78.030
984.411, 103.954
985.663, 136.914
986.914, 108.896
988.165, 141.891
989.415, 111.871
990.666, 113.272
991.916, 138.287
993.166, 126.309
994.416, 194.340
995.665, 227.925
996.915, 242.969
998.164, 321.018
999.413, 293.071
1000.662, 329.136
1001.911, 294.206
1003.159, 220.286
1004.407, 212.298
1005.655, 196.403
1006.903, 166.516
1008.151, 194.638
1009.398, 191.766
1010.646, 169.906
1011.893, 200.457
1013.139, 208.607
1014.386, 194.766
1015.633, 213.932
1016.879, 220.106
1018.125, 248.285
1019.371, 233.473
1020.616, 247.667
1021.862, 248.707
1023.107, 280.914
1024.352, 320.133
1025.597, 280.878
1026.842, 269.107
1028.086, 309.340
1029.330, 279.578
1030.574, 275.820
1031.818, 334.758
1033.062, 420.496
1034.305, 525.352
1035.548, 625.319
1036.791, 655.245
1038.034, 643.356
1039.277, 584.194
1040.519, 561.313
1041.762, 558.453
1043.004, 496.618
1044.246, 527.855
1045.487, 488.956
1046.729, 572.887
1047.970, 601.230
1049.211, 633.632
1050.452, 713.385
1051.692, 760.745
1052.933, 855.110
1054.173, 977.480
1055.413, 1058.855
1056.653, 1161.235
1057.893, 1289.622
1059.132, 1486.015
1060.371, 1716.360
1061.610, 1940.763
1062.849, 2285.136
1064.088, 2837.550
1065.326, 3463.268
1066.565, 4380.692
1067.803, 5603.121
1069.041, 7676.555
1070.278, 10892.996
1071.516, 15892.441
1072.753, 25241.889
1073.990, 39571.352
1075.227, 56710.816
1076.464, 64320.285
1077.700, 59709.754
1078.936, 45489.230
1080.173, 31038.713
1081.408, 20708.199
1082.644, 14287.697
1083.880, 10017.195
1085.115, 7277.700
1086.350, 5464.211
1087.585, 4338.727
1088.820, 3474.246
1090.054, 2903.772
1091.288, 2399.304
1092.522, 2140.840
1093.756, 1841.383
1094.990, 1604.930
1096.224, 1449.483
1097.457, 1243.040
1098.690, 1173.602
1099.923, 1045.170
1101.156, 938.743
1102.388, 847.402
1103.621, 760.986
1104.853, 698.576
1106.085, 646.171
1107.316, 563.771
1108.548, 522.376
1109.779, 497.986
1111.010, 443.645
1112.241, 451.265
1113.472, 397.891
1114.703, 399.522
1115.933, 366.167
1117.163, 330.427
1118.393, 359.233
1119.623, 305.887
1120.853, 304.552
1122.082, 259.320
1123.311, 251.256
1124.540, 271.945
1125.769, 236.650
1126.997, 233.919
1128.226, 260.630
1129.454, 225.353
1130.682, 233.079
1131.910, 210.809
1133.138, 225.544
1134.365, 235.283
1135.592, 207.932
1136.819, 186.105
1138.046, 217.856
1139.273, 202.712
1140.499, 196.474
1141.725, 173.240
1142.951, 163.011
1144.177, 171.787
1145.403, 153.567
1146.628, 170.394
1147.854, 162.768
1149.079, 131.871
1150.304, 160.664
1151.528, 142.608
1152.753, 154.402
1153.977, 184.267
1155.201, 148.804
1156.425, 156.651
1157.649, 167.003
1158.872, 187.067
1160.096, 223.914
1161.319, 279.735
1162.542, 317.722
1163.764, 346.481
1164.987, 419.374
1166.209, 545.250
1167.431, 611.161
1168.653, 750.002
1169.875, 911.414
1171.097, 1033.675
1172.318, 1042.545
1173.539, 988.456
1174.760, 842.318
1175.981, 700.180
1177.202, 567.059
1178.422, 423.457
1179.642, 370.384
1180.862, 327.483
1182.082, 245.310
1183.302, 237.798
1184.521, 217.726
1185.740, 184.637
1186.959, 157.532
1188.178, 135.488
1189.397, 118.488
1190.615, 103.850
1191.834, 94.010
1193.052, 91.317
1194.269, 76.336
1195.487, 81.545
1196.705, 66.855
1197.922, 102.371
1199.139, 63.287
1200.356, 85.203
1201.573, 72.125
1202.789, 87.075
1204.006, 63.365
1205.222, 25.382
1206.438, 44.456
1207.653, 36.389
1208.869, 62.364
1210.084, 29.286
1211.299, 64.209
1212.514, 42.136
1213.729, 57.083
1214.944, 26.021
1216.158, 56.948
1217.372, 26.890
1218.586, 37.817
1219.800, 71.797
1221.014, 34.036
1222.227, 25.997
1223.440, 63.980
1224.654, 34.026
1225.866, 11.959
1227.079, 39.888
1228.292, 6.817
1229.504, 15.745
1230.716, 31.673
1231.928, 32.612
1233.139, 16.539
1234.351, 30.546
1235.562, 13.535
1236.773, 46.615
1237.984, 29.553
1239.195, 35.500
1240.406, 13.431
1241.616, 39.363
1242.826, 13.297
1244.036, 11.232
1245.246, 39.196
1246.456, 14.133
1247.665, 3.809
1248.874, 46.245
1250.083, 4.318
1251.292, 51.255
1252.501, 18.190
1253.709, 17.127
1254.917, 23.073
1256.125, 1.992
1257.333, 1.966
1258.541, 17.898
1259.748, 18.928
1260.956, 0.061
1262.163, 12.130
1263.370, 4.052
1264.576, 10.864
1265.783, 2.775
1266.989, 2.151
1268.195, 5.257
1269.401, 16.657
1270.607, 2.538
1271.813, 9.588
1273.018, 30.277
1274.223, 5.140
1275.428, 9.999
1276.633, 13.849
1277.838, 13.697
1279.042, 16.544
1280.246, 13.614
1281.450, 5.797
1282.654, 19.030
1283.858, 0.164
1285.061, 17.640
1286.265, 18.835
1287.468, 11.208
1288.671, 15.982
1289.873, 21.753
1291.076, 2.522
1292.278, 27.714
1293.480, 15.037
1294.682, 12.989
1295.884, 0.754
1297.086, 28.495
1298.287, 3.231
1299.488, 8.046
1300.689, 7.667
1301.890, 20.623
1303.091, 0.076
1304.291, 11.770
1305.491, 11.539
1306.691, 2.145
1307.891, 10.178
1309.091, 6.491
1310.290, 10.322
1311.490, 5.983
1312.689, 21.639
1313.888, 3.711
1315.086, 17.069
1316.285, 16.561
1317.483, 9.187
1318.681, 20.808
1319.879, 21.469
1321.077, 18.352
1322.275, 2.298
1323.472, 10.314
1324.669, 13.099
1325.866, 24.523
1327.063, 2.960
1328.260, 14.596
1329.456, 19.146
1330.653, 24.363
1331.849, 12.315
1333.045, 8.850
1334.240, 11.381
1335.436, 18.093
1336.631, 0.422
1337.826, 10.072
1339.021, 3.423
1340.216, 36.913
1341.411, 47.398
1342.605, 46.456
1343.799, 51.416
1344.993, 27.900
1346.187, 21.384
1347.381, 2.842
1348.574, 12.294
1349.767, 9.252
1350.961, 27.179
1352.153, 17.614
1353.346, 34.044
1354.539, 34.469
1355.731, 35.888
1356.923, 26.311
1358.115, 28.720
1359.307, 45.144
1360.498, 28.545
1361.690, 32.940
1362.881, 20.766
1364.072, 6.151
1365.263, 25.529
1366.453, 20.564
1367.644, 14.275
1368.834, 32.643
1370.024, 46.018
1371.214, 43.341
1372.404, 42.656
1373.593, 36.060
1374.783, 31.961
1375.972, 41.616
1377.161, 18.840
1378.349, 21.018
1379.538, 13.844
1380.726, 33.666
1381.915, 32.635
1383.103, 42.298
1384.290, 42.108
1385.478, 50.829
1386.665, 48.627
1387.853, 32.421
1389.040, 48.165
1390.227, 19.949
1391.413, 20.718
1392.600, 18.629
1393.786, 51.389
1394.972, 56.748
1396.158, 80.482
1397.344, 38.570
1398.530, 52.295
1399.715, 37.020
1400.900, 56.666
1402.085, 22.861
1403.270, 25.441
1404.455, 47.132
1405.639, 19.820
1406.824, 66.072
1408.008, 72.464
1409.192, 14.366
1410.375, 44.949
1411.559, 29.480
1412.742, 54.681
1413.925, 59.689
1415.108, 61.883
1416.291, 56.236
1417.474, 68.951
1418.656, 34.431
1419.839, 39.796
1421.021, 42.210
1422.202, 34.786
1423.384, 45.544
1424.566, 24.940
1425.747, 32.075
1426.928, 34.316
1428.109, 38.048
1429.290, 38.886
1430.470, 59.648
1431.651, 69.874
1432.831, 36.085
1434.011, 47.628
1435.191, 25.397
1436.370, 1.461
1437.550, 24.623
1438.729, 21.739
1439.908, 30.861
1441.087, 54.967
1442.266, 27.424
1443.444, 52.359
1444.623, 45.211
1445.801, 45.274
1446.979, 54.326
1448.157, 33.344
1449.334, 52.084
1450.512, 57.750
1451.689, 2.679
1452.866, 43.609
1454.043, 39.445
1455.220, 62.044
1456.396, 47.308
1457.573, 46.099
1458.749, 53.835
1459.925, 45.510
1461.100, 10.979
1462.276, 41.449
1463.451, 15.718
1464.627, 15.948
1465.802, 71.572
1466.977, 65.283
1468.151, 44.007
1469.326, 59.737
1470.500, 47.456
1471.674, 4.219
1472.848, 29.979
1474.022, 20.805
1475.195, 35.713
1476.369, 23.608
1477.542, 45.509
1478.715, 33.608
1479.888, 32.406
1481.061, 39.244
1482.233, 35.083
1483.405, 22.907
1484.577, 5.719
1485.749, 13.743
1486.921, 12.610
1488.093, 20.401
1489.264, 32.199
1490.435, 20.782
1491.606, 44.493
1492.777, 45.251
1493.948, 37.123
1495.118, 43.004
1496.288, 25.385
1497.459, 15.248
1498.628, 62.101
1499.798, 12.996
1500.968, 20.893
1502.137, 24.282
1503.306, 4.124
1504.475, 25.783
1505.644, 24.720
1506.813, 21.677
1507.981, 56.662
1509.149, 18.571
1510.318, 16.305
1511.485, 21.362
1512.653, 16.065
1513.821, 0.165
1514.988, 18.619
1516.155, 12.458
1517.322, 22.019
1518.489, 0.000
##END=



