##NAMES=Sanbornite
##RRUFFID=R050001
##IDEAL CHEMISTRY=BaSi_2_O_5_
##LOCALITY=Empire #1 mine, Fresno County, California, USA
##OWNER=RRUFF
##SOURCE=University of Arizona Mineral Museum
##DESCRIPTION=An aggregate of white to colorless pearly anhedral plates
##STATUS=The identification of this mineral has been confirmed by X-ray diffraction and chemical analysis
##URL=rruff.info/R050001
##MEASURED CHEMISTRY=Ba_1.00_Si_2.00_O_5_
##PIN_ID=M00320
##ORIENTATION=Laser parallel to -a* (-1 0 0). Fiducial mark perpendicular to laser is parallel to -b [0 -1 0]
110.825, 0.000
112.220, 468.474
113.616, 1577.582
115.011, 2609.314
116.406, 3677.926
117.800, 4345.976
119.195, 4190.015
120.589, 3468.264
121.983, 2612.278
123.377, 1818.667
124.770, 1226.335
126.163, 708.157
127.556, 457.562
128.949, 256.289
130.342, 6.110
131.734, 63.825
133.126, 6.749
134.518, 66.427
135.909, 51.246
137.301, 20.315
138.692, 80.889
140.083, 164.235
141.473, 238.608
142.864, 379.915
144.254, 550.168
145.644, 669.370
147.034, 760.416
148.423, 710.240
149.812, 577.801
151.201, 453.052
152.590, 291.932
153.979, 180.365
155.367, 38.288
156.755, 42.353
158.143, 62.602
159.530, 43.501
160.918, 43.084
162.305, 9.328
163.692, 87.253
165.078, 128.795
166.465, 262.221
167.851, 314.850
169.237, 341.664
170.623, 325.651
172.008, 194.799
173.393, 213.098
174.778, 101.844
176.163, 257.736
177.548, 185.583
178.932, 341.815
180.316, 502.053
181.700, 915.242
183.083, 1350.410
184.467, 1874.862
185.850, 2519.653
187.233, 3348.719
188.616, 4347.891
189.998, 4957.274
191.380, 5396.791
192.762, 5566.258
194.144, 5165.615
195.525, 4484.826
196.907, 3593.931
198.288, 3062.946
199.669, 2451.883
201.049, 1859.747
202.429, 1513.546
203.810, 1336.291
205.189, 1139.987
206.569, 1061.587
207.949, 1157.118
209.328, 1234.617
210.707, 1568.087
212.085, 1779.531
213.464, 2177.954
214.842, 2916.354
216.220, 3624.738
217.598, 4503.073
218.976, 5251.354
220.353, 6309.612
221.730, 6727.855
223.107, 7166.086
224.483, 6944.301
225.860, 6672.504
227.236, 5920.691
228.612, 5018.865
229.988, 4107.021
231.363, 3345.162
232.738, 2713.285
234.113, 2281.390
235.488, 1821.636
236.863, 1589.457
238.237, 1498.917
239.611, 1281.235
240.985, 1386.002
242.359, 1628.959
243.732, 1814.823
245.105, 2031.616
246.478, 2123.208
247.851, 2149.841
249.223, 1986.466
250.595, 1781.081
251.967, 1257.683
253.339, 1039.273
254.711, 775.203
256.082, 679.961
257.453, 684.516
258.824, 600.605
260.195, 666.761
261.565, 881.570
262.935, 1135.458
264.305, 1354.834
265.675, 1579.404
267.044, 1658.965
268.414, 1876.750
269.783, 1569.747
271.151, 1347.866
272.520, 1169.578
273.888, 1073.334
275.256, 796.912
276.624, 852.445
277.992, 789.689
279.359, 785.200
280.726, 1050.814
282.093, 1060.901
283.460, 1258.859
284.827, 1503.926
286.193, 1716.158
287.559, 1954.525
288.925, 2272.760
290.290, 2329.076
291.656, 2535.511
293.021, 2482.054
294.386, 2358.693
295.750, 2125.420
297.115, 1852.225
298.479, 1624.957
299.843, 1333.448
301.207, 1164.258
302.570, 981.297
303.933, 1001.243
305.296, 948.235
306.659, 1185.269
308.022, 1390.341
309.384, 1755.446
310.746, 2336.580
312.108, 2973.738
313.470, 3370.916
314.831, 3481.891
316.193, 3655.320
317.554, 3232.541
318.914, 2679.768
320.275, 2087.000
321.635, 1771.146
322.995, 1471.636
324.355, 1512.781
325.715, 1950.955
327.074, 2438.184
328.434, 3355.408
329.792, 4172.624
331.151, 5009.832
332.510, 5137.033
333.868, 5164.222
335.226, 4831.401
336.584, 4308.568
337.941, 4445.722
339.299, 4362.862
340.656, 4729.980
342.013, 4667.075
343.370, 4314.141
344.726, 3421.183
346.082, 2818.200
347.438, 1895.191
348.794, 1393.157
350.150, 929.094
351.505, 635.998
352.860, 379.869
354.215, 409.706
355.570, 155.508
356.924, 101.277
358.278, 87.011
359.632, 2.712
360.986, 52.368
362.339, 66.010
363.693, 76.446
365.046, 127.947
366.399, 76.528
367.751, 111.175
369.104, 164.891
370.456, 9.696
371.808, 171.550
373.159, 22.492
374.511, 44.488
375.862, 51.458
377.213, 60.637
378.564, 9.793
379.914, 140.000
381.265, 230.775
382.615, 401.518
383.965, 583.242
385.315, 615.933
386.664, 725.592
388.013, 719.228
389.362, 644.829
390.711, 411.408
392.060, 259.953
393.408, 257.467
394.756, 88.946
396.104, 72.388
397.451, 88.786
398.799, 37.854
400.146, 26.564
401.493, 45.417
402.840, 21.576
404.186, 41.604
405.533, 35.079
406.879, 26.662
408.225, 5.830
409.570, 45.396
410.916, 31.991
412.261, 34.336
413.606, 25.638
414.951, 96.895
416.295, 15.137
417.639, 34.321
418.983, 20.557
420.327, 17.552
421.671, 70.351
423.014, 59.192
424.357, 34.062
425.700, 48.602
427.043, 30.204
428.386, 92.733
429.728, 113.175
431.070, 226.564
432.412, 131.882
433.753, 161.146
435.095, 126.373
436.436, 206.560
437.777, 136.711
439.118, 115.841
440.458, 155.068
441.798, 224.000
443.138, 196.032
444.478, 280.032
445.818, 302.998
447.157, 334.934
448.496, 555.834
449.835, 615.702
451.174, 885.536
452.513, 924.337
453.851, 1149.104
455.189, 1251.834
456.527, 1353.531
457.864, 1449.191
459.202, 1375.848
460.539, 1283.514
461.876, 1139.076
463.212, 815.825
464.549, 917.328
465.885, 615.793
467.221, 676.407
468.557, 711.154
469.893, 837.700
471.228, 1131.633
472.563, 1198.111
473.898, 1750.432
475.233, 2143.011
476.567, 2365.869
477.902, 2218.268
479.236, 1730.464
480.570, 1272.751
481.903, 959.089
483.237, 739.396
484.570, 624.888
485.903, 620.013
487.235, 500.111
488.568, 540.550
489.900, 708.494
491.232, 675.412
492.564, 765.589
493.896, 792.688
495.227, 753.811
496.558, 669.674
497.889, 717.627
499.220, 732.630
500.551, 655.347
501.881, 742.279
503.211, 795.802
504.541, 879.341
505.870, 982.254
507.200, 1060.451
508.529, 1084.797
509.858, 1258.361
511.187, 1299.975
512.515, 1481.302
513.844, 1692.580
515.172, 1874.217
516.500, 2285.653
517.827, 2426.866
519.155, 2938.575
520.482, 3407.562
521.809, 4248.420
523.136, 4894.166
524.462, 5827.816
525.789, 7628.312
527.115, 9391.821
528.441, 12004.493
529.766, 14912.155
531.092, 18259.561
532.417, 21017.537
533.742, 23093.764
535.067, 23338.656
536.391, 22528.176
537.716, 19862.129
539.040, 17129.043
540.364, 13812.903
541.688, 11153.945
543.011, 8707.616
544.334, 7068.033
545.657, 5628.844
546.980, 4371.784
548.303, 3881.821
549.625, 3184.496
550.947, 2644.980
552.269, 2235.630
553.591, 1985.893
554.913, 1755.294
556.234, 1693.783
557.555, 1343.134
558.876, 1399.536
560.197, 1103.820
561.517, 1049.438
562.837, 986.155
564.157, 934.231
565.477, 851.582
566.797, 791.389
568.116, 866.672
569.435, 892.057
570.754, 639.141
572.073, 746.004
573.391, 652.171
574.709, 775.557
576.027, 721.451
577.345, 662.334
578.663, 665.724
579.980, 559.864
581.297, 584.123
582.614, 645.461
583.931, 618.233
585.248, 705.029
586.564, 781.110
587.880, 928.802
589.196, 1046.662
590.511, 1295.227
591.827, 1623.210
593.142, 2031.370
594.457, 2429.112
595.772, 2907.461
597.086, 2805.269
598.401, 2602.729
599.715, 2060.664
601.029, 1838.944
602.343, 1217.067
603.656, 965.503
604.969, 743.984
606.282, 732.434
607.595, 570.848
608.908, 419.230
610.220, 407.796
611.532, 436.114
612.844, 364.438
614.156, 383.249
615.468, 331.471
616.779, 229.709
618.090, 218.266
619.401, 346.406
620.712, 185.113
622.022, 313.303
623.332, 261.519
624.642, 189.973
625.952, 148.244
627.262, 186.375
628.571, 84.281
629.880, 182.150
631.189, 210.320
632.498, 138.349
633.807, 66.204
635.115, 167.805
636.423, 205.510
637.731, 173.194
639.039, 150.833
640.346, 148.825
641.653, 96.888
642.960, 174.856
644.267, 172.896
645.574, 80.839
646.880, 188.599
648.186, 188.818
649.492, 116.191
650.798, 123.748
652.103, 107.650
653.409, 158.584
654.714, 126.312
656.019, 103.781
657.323, 161.029
658.628, 98.688
659.932, 185.802
661.236, 13.404
662.540, 70.456
663.843, 27.485
665.147, 14.464
666.450, 122.971
667.753, 100.213
669.056, 157.083
670.358, 158.471
671.660, 61.276
672.963, 98.048
674.264, 135.030
675.566, 21.735
676.868, 88.404
678.169, 65.052
679.470, 8.332
680.771, 98.342
682.071, 54.942
683.372, 81.558
684.672, 11.828
685.972, 104.783
687.271, 81.421
688.571, 1.957
689.870, 124.682
691.169, 91.311
692.468, 127.935
693.767, 34.534
695.065, 61.142
696.364, 42.276
697.662, 15.140
698.960, 38.372
700.257, 118.056
701.555, 24.455
702.852, 29.014
704.149, 177.367
705.446, 26.349
706.742, 49.885
708.038, 16.086
709.335, 82.467
710.631, 78.604
711.926, 204.718
713.222, 50.810
714.517, 32.979
715.812, 103.061
717.107, 30.903
718.402, 145.111
719.696, 68.889
720.990, 77.070
722.284, 36.597
723.578, 69.304
724.872, 34.526
726.165, 52.359
727.458, 108.212
728.751, 244.325
730.044, 69.848
731.336, 115.913
732.629, 58.315
733.921, 190.180
735.213, 37.971
736.504, 6.233
737.796, 149.687
739.087, 75.337
740.378, 90.987
741.669, 106.623
742.960, 113.468
744.250, 149.083
745.540, 234.745
746.830, 160.757
748.120, 226.297
749.410, 341.817
750.699, 254.791
751.988, 470.271
753.277, 495.731
754.566, 525.474
755.854, 550.896
757.143, 446.606
758.431, 432.196
759.719, 317.580
761.006, 322.913
762.294, 318.225
763.581, 243.512
764.868, 128.825
766.155, 194.268
767.442, 169.485
768.728, 44.682
770.014, 239.852
771.300, 165.705
772.586, 80.799
773.872, 199.030
775.157, 34.109
776.442, 148.991
777.727, 134.021
779.012, 69.026
780.297, 103.991
781.581, 128.590
782.865, 173.329
784.149, 217.833
785.433, 92.518
786.716, 117.298
787.999, 153.790
789.282, 42.088
790.565, 192.430
791.848, 167.199
793.130, 171.688
794.413, 76.066
795.695, 50.415
796.977, 65.438
798.258, 40.152
799.540, 54.674
800.821, 88.860
802.102, 26.728
803.382, 217.637
804.663, 111.849
805.943, 226.020
807.224, 100.784
808.504, 44.955
809.783, 99.934
811.063, 143.839
812.342, 39.500
813.621, 263.385
814.900, 39.761
816.179, 203.015
817.457, 156.696
818.736, 230.059
820.014, 6.803
821.292, 77.037
822.569, 200.766
823.847, 24.720
825.124, 208.660
826.401, 192.182
827.678, 95.843
828.954, 179.645
830.231, 242.814
831.507, 156.396
832.783, 229.866
834.059, 132.135
835.334, 175.722
836.610, 239.116
837.885, 162.609
839.160, 244.649
840.435, 348.215
841.709, 221.672
842.983, 204.284
844.258, 227.896
845.532, 341.356
846.805, 154.958
848.079, 138.139
849.352, 221.436
850.625, 1.503
851.898, 264.465
853.171, 234.742
854.443, 188.219
855.715, 91.247
856.988, 112.091
858.259, 325.780
859.531, 186.781
860.803, 279.916
862.074, 72.834
863.345, 236.084
864.616, 269.308
865.886, 152.999
867.157, 86.087
868.427, 216.641
869.697, 179.927
870.967, 150.604
872.236, 124.048
873.506, 112.334
874.775, 15.475
876.044, 165.779
877.313, 38.867
878.581, 10.702
879.849, 122.285
881.118, 35.496
882.386, 179.017
883.653, 137.188
884.921, 90.407
886.188, 50.696
887.455, 37.243
888.722, 65.569
889.989, 27.540
891.255, 170.805
892.522, 173.752
893.788, 146.759
895.054, 20.177
896.319, 82.897
897.585, 66.113
898.850, 0.548
900.115, 112.716
901.380, 206.047
902.645, 130.628
903.909, 172.625
905.174, 125.872
906.438, 80.889
907.701, 172.307
908.965, 5.494
910.229, 28.672
911.492, 71.838
912.755, 235.002
914.018, 138.156
915.280, 211.304
916.543, 64.447
917.805, 27.367
919.067, 130.494
920.329, 173.577
921.590, 126.132
922.852, 10.750
924.113, 192.308
925.374, 64.995
926.635, 228.070
927.895, 60.528
929.156, 213.464
930.416, 116.343
931.676, 28.945
932.936, 101.690
934.195, 214.536
935.454, 17.565
936.714, 100.596
937.973, 133.289
939.231, 43.917
940.490, 79.004
941.748, 58.141
943.006, 31.137
944.264, 164.116
945.522, 97.105
946.780, 99.704
948.037, 27.804
949.294, 204.737
950.551, 27.174
951.808, 9.669
953.064, 232.309
954.320, 102.454
955.577, 15.412
956.832, 28.152
958.088, 18.891
959.344, 83.798
960.599, 23.741
961.854, 158.941
963.109, 38.194
964.364, 44.217
965.618, 52.862
966.872, 19.524
968.127, 52.424
969.380, 45.311
970.634, 48.214
971.888, 139.551
973.141, 172.118
974.394, 155.023
975.647, 257.517
976.900, 250.418
978.152, 453.321
979.404, 665.979
980.656, 548.939
981.908, 931.845
983.160, 884.750
984.411, 1298.150
985.663, 1370.996
986.914, 1403.914
988.165, 1457.166
989.415, 1280.085
990.666, 1103.102
991.916, 1026.444
993.166, 946.384
994.416, 852.378
995.665, 935.354
996.915, 908.852
998.164, 1011.828
999.413, 1035.122
1000.662, 848.333
1001.911, 780.489
1003.159, 473.493
1004.407, 426.513
1005.655, 279.764
1006.903, 232.617
1008.151, 305.608
1009.398, 88.666
1010.646, 81.734
1011.893, 174.958
1013.139, 207.828
1014.386, 180.913
1015.633, 183.997
1016.879, 47.118
1018.125, 310.094
1019.371, 73.227
1020.616, 126.392
1021.862, 199.570
1023.107, 152.749
1024.352, 165.959
1025.597, 218.775
1026.842, 222.020
1028.086, 255.003
1029.330, 280.060
1030.574, 290.553
1031.818, 343.571
1033.062, 362.152
1034.305, 500.191
1035.548, 433.563
1036.791, 514.113
1038.034, 575.377
1039.277, 408.629
1040.519, 641.735
1041.762, 435.503
1043.004, 329.096
1044.246, 502.458
1045.487, 394.900
1046.729, 568.339
1047.970, 512.122
1049.211, 478.449
1050.452, 631.800
1051.692, 636.021
1052.933, 551.899
1054.173, 656.104
1055.413, 789.842
1056.653, 999.314
1057.893, 922.956
1059.132, 1146.447
1060.371, 1389.563
1061.610, 1463.742
1062.849, 1777.146
1064.088, 2000.961
1065.326, 2475.083
1066.565, 3108.359
1067.803, 4011.724
1069.041, 5495.617
1070.278, 8078.930
1071.516, 11685.450
1072.753, 17868.049
1073.990, 26431.348
1075.227, 33832.234
1076.464, 36455.539
1077.700, 31439.203
1078.936, 23574.697
1080.173, 16748.055
1081.408, 11511.244
1082.644, 8394.685
1083.880, 5988.034
1085.115, 4532.442
1086.350, 3675.792
1087.585, 2939.345
1088.820, 2410.979
1090.054, 2015.137
1091.288, 1628.831
1092.522, 1388.592
1093.756, 1256.441
1094.990, 1130.217
1096.224, 1103.692
1097.457, 1176.329
1098.690, 1050.215
1099.923, 883.404
1101.156, 927.200
1102.388, 641.238
1103.621, 524.822
1104.853, 439.012
1106.085, 732.763
1107.316, 405.744
1108.548, 510.812
1109.779, 383.112
1111.010, 296.409
1112.241, 358.750
1113.472, 181.948
1114.703, 283.174
1115.933, 256.254
1117.163, 190.869
1118.393, 284.313
1119.623, 137.974
1120.853, 101.436
1122.082, 175.229
1123.311, 58.385
1124.540, 202.124
1125.769, 95.855
1126.997, 98.972
1128.226, 83.061
1129.454, 176.729
1130.682, 154.601
1131.910, 4.712
1133.138, 138.723
1134.365, 121.938
1135.592, 25.398
1136.819, 158.931
1138.046, 99.648
1139.273, 23.083
1140.499, 156.882
1141.725, 172.863
1142.951, 186.477
1144.177, 0.314
1145.403, 213.990
1146.628, 47.701
1147.854, 71.609
1149.079, 115.254
1150.304, 169.021
1151.528, 262.705
1152.753, 75.742
1153.977, 248.895
1155.201, 158.738
1156.425, 161.955
1157.649, 335.326
1158.872, 111.207
1160.096, 314.514
1161.319, 287.979
1162.542, 261.057
1163.764, 423.229
1164.987, 626.365
1166.209, 469.365
1167.431, 710.184
1168.653, 763.494
1169.875, 986.969
1171.097, 911.816
1172.318, 914.713
1173.539, 923.344
1174.760, 650.291
1175.981, 622.771
1177.202, 660.768
1178.422, 363.812
1179.642, 336.510
1180.862, 463.271
1182.082, 185.523
1183.302, 249.367
1184.521, 284.023
1185.740, 256.588
1186.959, 330.240
1188.178, 113.209
1189.397, 155.477
1190.615, 238.824
1191.834, 141.562
1193.052, 193.662
1194.269, 96.660
1195.487, 50.674
1196.705, 261.607
1197.922, 16.020
1199.139, 237.885
1200.356, 20.420
1201.573, 132.662
1202.789, 124.250
1204.006, 157.191
1205.222, 118.896
1206.438, 280.709
1207.653, 23.219
1208.869, 214.703
1210.084, 116.215
1211.299, 53.945
1212.514, 305.238
1213.729, 187.699
1214.944, 109.514
1216.158, 410.691
1217.372, 36.893
1218.586, 284.596
1219.800, 385.781
1221.014, 73.164
1222.227, 354.131
1223.440, 165.777
1224.654, 10.094
1225.866, 541.686
1227.079, 274.395
1228.292, 257.223
1229.504, 288.227
1230.716, 22.293
1231.928, 283.949
1233.139, 235.021
1234.351, 225.270
1235.562, 106.484
1236.773, 218.953
1237.984, 139.586
1239.195, 219.980
1240.406, 200.797
1241.616, 271.129
1242.826, 181.430
1244.036, 171.701
1245.246, 381.939
1246.456, 142.141
1247.665, 133.414
1248.874, 243.555
1250.083, 73.932
1251.292, 174.461
1252.501, 194.498
1253.709, 15.172
1254.917, 485.152
1256.125, 305.088
1257.333, 165.254
1258.541, 435.373
1259.748, 275.645
1260.956, 426.010
1262.163, 45.727
1263.370, 256.199
1264.576, 205.828
1265.783, 255.662
1266.989, 176.652
1268.195, 346.156
1269.401, 185.568
1270.607, 184.939
1271.813, 344.264
1273.018, 103.498
1274.223, 192.791
1275.428, 241.889
1276.633, 21.498
1277.838, 240.566
1279.042, 289.449
1280.246, 229.271
1281.450, 207.672
1282.654, 73.643
1283.858, 225.371
1285.061, 133.521
1286.265, 2.004
1287.468, 170.424
1288.671, 118.789
1289.873, 146.568
1291.076, 134.814
1292.278, 104.811
1293.480, 141.107
1294.682, 119.145
1295.884, 127.188
1297.086, 275.137
1298.287, 242.406
1299.488, 59.361
1300.689, 218.520
1301.890, 176.188
1303.091, 3.699
1304.291, 180.984
1305.491, 138.346
1306.691, 225.621
1307.891, 97.238
1309.091, 199.787
1310.290, 226.760
1311.490, 76.324
1312.689, 140.506
1313.888, 117.281
1315.086, 23.988
1316.285, 220.623
1317.483, 42.807
1318.681, 16.316
1319.879, 300.092
1321.077, 33.572
1322.275, 152.676
1323.472, 228.859
1324.669, 15.035
1325.866, 320.988
1327.063, 56.885
1328.260, 22.777
1329.456, 228.588
1330.653, 64.322
1331.849, 129.992
1333.045, 275.184
1334.240, 80.488
1335.436, 145.957
1336.631, 291.057
1337.826, 106.297
1339.021, 141.057
1340.216, 212.836
1341.411, 17.969
1342.605, 292.162
1343.799, 137.164
1344.993, 191.244
1346.187, 425.730
1347.381, 80.119
1348.574, 294.576
1349.767, 258.807
1350.961, 113.451
1352.153, 317.152
1353.346, 301.594
1354.539, 44.441
1355.731, 479.160
1356.923, 93.494
1358.115, 187.531
1359.307, 361.357
1360.498, 85.529
1361.690, 226.441
1362.881, 290.510
1364.072, 45.469
1365.263, 347.707
1366.453, 151.670
1367.644, 154.867
1368.834, 116.764
1370.024, 40.498
1371.214, 34.156
1372.404, 248.020
1373.593, 1.605
1374.783, 103.881
1375.972, 197.805
1377.161, 98.986
1378.349, 143.924
1379.538, 36.088
1380.726, 262.381
1381.915, 418.844
1383.103, 205.355
1384.290, 531.883
1385.478, 317.441
1386.665, 433.002
1387.853, 348.756
1389.040, 333.643
1390.227, 99.643
1391.413, 506.105
1392.600, 251.143
1393.786, 206.801
1394.972, 372.213
1396.158, 157.893
1397.344, 313.492
1398.530, 407.906
1399.715, 251.219
1400.900, 256.586
1402.085, 211.395
1403.270, 167.443
1404.455, 488.445
1405.639, 132.059
1406.824, 315.557
1408.008, 248.637
1409.192, 71.650
1410.375, 366.061
1411.559, 271.412
1412.742, 321.350
1413.925, 354.270
1415.108, 295.646
1416.291, 248.836
1417.474, 580.889
1418.656, 140.475
1419.839, 125.268
1421.021, 332.590
1422.202, 67.244
1423.384, 433.738
1424.566, 314.750
1425.747, 133.840
1426.928, 253.486
1428.109, 254.309
1429.290, 256.014
1430.470, 676.127
1431.651, 344.219
1432.831, 325.613
1434.011, 447.652
1435.191, 118.080
1436.370, 328.691
1437.550, 371.172
1438.729, 312.967
1439.908, 632.412
1441.087, 322.645
1442.266, 194.090
1443.444, 634.838
1444.623, 351.148
1445.801, 427.492
1446.979, 534.553
1448.157, 187.396
1449.334, 608.490
1450.512, 383.863
1451.689, 284.029
1452.866, 513.465
1454.043, 393.633
1455.220, 223.602
1456.396, 660.936
1457.573, 238.785
1458.749, 556.480
1459.925, 685.383
1461.100, 302.863
1462.276, 618.891
1463.451, 565.314
1464.627, 252.834
1465.802, 557.014
1466.977, 334.469
1468.151, 172.174
1469.326, 709.439
1470.500, 343.904
1471.674, 288.756
1472.848, 676.482
1474.022, 172.648
1475.195, 290.062
1476.369, 597.332
1477.542, 154.404
1478.715, 489.572
1479.888, 276.225
1481.061, 232.807
1482.233, 448.836
1483.405, 236.018
1484.577, 233.283
1485.749, 451.215
1486.921, 149.076
1488.093, 276.777
1489.264, 384.436
1490.435, 262.055
1491.606, 209.672
1492.777, 187.367
1493.948, 215.217
1495.118, 403.082
1496.288, 101.188
1497.459, 209.430
1498.628, 257.775
1499.798, 3.701
1500.968, 125.068
1502.137, 354.115
1503.306, 93.352
1504.475, 332.756
1505.644, 142.393
1506.813, 12.324
1507.981, 392.592
1509.149, 163.240
1510.318, 21.848
1511.485, 483.090
1512.653, 5.217
1513.821, 75.746
1514.988, 278.203
1516.155, 1.045
1517.322, 399.615
1518.489, 11.537
1519.656, 0.000
##END=



