##NAMES=Sanbornite
##RRUFFID=R050001
##IDEAL CHEMISTRY=BaSi_2_O_5_
##LOCALITY=Empire #1 mine, Fresno County, California, USA
##OWNER=RRUFF
##SOURCE=University of Arizona Mineral Museum
##DESCRIPTION=An aggregate of white to colorless pearly anhedral plates
##STATUS=The identification of this mineral has been confirmed by X-ray diffraction and chemical analysis
##URL=rruff.info/R050001
##MEASURED CHEMISTRY=Ba_1.00_Si_2.00_O_5_
##PIN_ID=M00487
##ORIENTATION=Laser parallel to -b* (0 -1 0). Fiducial mark perpendicular to laser is parallel to c [0 0 1]
49.184, 0.000
50.590, 0.168
51.996, 14.267
53.401, 8.527
54.807, 13.652
56.212, 8.900
57.617, 3.999
59.021, 22.260
60.426, 39.704
61.830, 57.397
63.234, 77.418
64.637, 15.721
66.041, 22.205
67.444, 16.198
68.847, 38.465
70.250, 98.164
71.652, 75.908
73.054, 162.788
74.456, 198.867
75.858, 178.615
77.260, 135.570
78.661, 115.403
80.062, 95.119
81.463, 133.728
82.863, 167.237
84.264, 246.654
85.664, 178.984
87.064, 115.234
88.463, 143.409
89.863, 486.513
91.262, 1340.551
92.661, 2704.952
94.059, 3542.050
95.458, 2912.570
96.856, 1718.539
98.254, 1093.949
99.652, 947.199
101.049, 1136.719
102.446, 1638.367
103.843, 2194.202
105.240, 1941.485
106.637, 1238.063
108.033, 725.733
109.429, 519.379
110.825, 468.990
112.220, 541.565
113.616, 788.109
115.011, 1012.622
116.406, 1328.105
117.800, 1578.560
119.195, 1669.986
120.589, 1570.385
121.983, 1369.756
123.377, 1105.104
124.770, 863.428
126.163, 599.729
127.556, 420.010
128.949, 293.270
130.342, 234.510
131.734, 130.733
133.126, 95.947
134.518, 96.175
135.909, 33.409
137.301, 47.645
138.692, 60.876
140.083, 25.105
141.473, 49.335
142.864, 4.452
144.254, 45.778
145.644, 49.039
147.034, 19.307
148.423, 29.600
149.812, 7.082
151.201, 25.245
152.590, 24.422
153.979, 18.076
155.367, 18.166
156.755, 10.655
158.143, 11.357
159.530, 16.981
160.918, 43.683
162.305, 137.627
163.692, 180.683
165.078, 202.635
166.465, 255.502
167.851, 285.600
169.237, 328.547
170.623, 307.492
172.008, 285.435
173.393, 251.375
174.778, 182.314
176.163, 181.250
177.548, 153.183
178.932, 133.113
180.316, 192.030
181.700, 261.943
183.083, 324.848
184.467, 462.733
185.850, 634.580
187.233, 861.413
188.616, 1110.241
189.998, 1328.066
191.380, 1330.889
192.762, 1365.709
194.144, 1239.527
195.525, 1048.341
196.907, 831.154
198.288, 675.964
199.669, 561.772
201.049, 479.579
202.429, 394.383
203.810, 328.507
205.189, 236.986
206.569, 240.785
207.949, 235.582
209.328, 240.378
210.707, 306.173
212.085, 381.967
213.464, 482.989
214.842, 563.551
216.220, 748.444
217.598, 976.199
218.976, 1128.865
220.353, 1462.403
221.730, 1569.850
223.107, 1697.222
224.483, 1737.481
225.860, 1619.615
227.236, 1440.875
228.612, 1234.183
229.988, 1007.491
231.363, 768.627
232.738, 582.256
234.113, 467.184
235.488, 405.515
236.863, 336.877
238.237, 330.347
239.611, 333.148
240.985, 336.119
242.359, 445.578
243.732, 594.940
245.105, 729.851
246.478, 866.168
247.851, 971.208
249.223, 813.782
250.595, 720.075
251.967, 505.558
253.339, 368.857
254.711, 243.205
256.082, 109.513
257.453, 72.831
258.824, 36.068
260.195, 14.796
261.565, 3.881
262.935, 9.101
264.305, 8.542
265.675, 1.761
267.044, 8.138
268.414, 6.910
269.783, 21.051
271.151, 48.028
272.520, 25.023
273.888, 6.032
275.256, 20.049
276.624, 14.078
277.992, 8.116
279.359, 14.837
280.726, 0.787
282.093, 45.731
283.460, 34.672
284.827, 112.611
286.193, 137.547
287.559, 207.481
288.925, 285.413
290.290, 355.342
291.656, 415.271
293.021, 448.197
294.386, 447.121
295.750, 430.044
297.115, 384.965
298.479, 377.885
299.843, 329.803
301.207, 291.608
302.570, 298.473
303.933, 334.386
305.296, 368.152
306.659, 396.022
308.022, 487.068
309.384, 672.922
310.746, 931.790
312.108, 1235.511
313.470, 1542.296
314.831, 1855.205
316.193, 1976.969
317.554, 1886.797
318.914, 1632.028
320.275, 1256.253
321.635, 1066.847
322.995, 850.439
324.355, 853.068
325.715, 894.779
327.074, 943.569
328.434, 1126.338
329.792, 1281.097
331.151, 1615.851
332.510, 2069.605
333.868, 2712.359
335.226, 3741.112
336.584, 5195.866
337.941, 7666.618
339.299, 10819.371
340.656, 14428.127
342.013, 16786.881
343.370, 16405.633
344.726, 13304.385
346.082, 9503.139
347.438, 6279.894
348.794, 4186.648
350.150, 2843.404
351.505, 2018.160
352.860, 1421.916
354.215, 1105.674
355.570, 856.432
356.924, 666.192
358.278, 531.953
359.632, 373.714
360.986, 407.476
362.339, 299.240
363.693, 217.004
365.046, 247.770
366.399, 167.536
367.751, 137.305
369.104, 94.077
370.456, 125.850
371.808, 78.629
373.159, 92.414
374.511, 49.200
375.862, 99.988
377.213, 67.777
378.564, 85.569
379.914, 71.358
381.265, 105.145
382.615, 157.932
383.965, 174.719
385.315, 199.506
386.664, 203.294
388.013, 193.088
389.362, 172.891
390.711, 108.695
392.060, 69.505
393.408, 31.317
394.756, 8.871
396.104, 2.060
397.451, 16.759
398.799, 14.584
400.146, 37.584
401.493, 10.774
402.840, 13.969
404.186, 2.168
405.533, 7.642
406.879, 29.550
408.225, 14.248
409.570, 31.957
410.916, 7.178
412.261, 14.597
413.606, 23.629
414.951, 10.132
416.295, 0.107
417.639, 21.350
418.983, 1.404
420.327, 19.155
421.671, 12.211
423.014, 0.714
424.357, 2.064
425.700, 46.518
427.043, 3.933
428.386, 47.073
429.728, 98.599
431.070, 72.983
432.412, 124.711
433.753, 149.752
435.095, 105.243
436.436, 104.934
437.777, 104.753
439.118, 123.954
440.458, 117.536
441.798, 129.056
443.138, 197.213
444.478, 233.889
445.818, 243.520
447.157, 251.256
448.496, 408.992
449.835, 489.729
451.174, 609.464
452.513, 759.200
453.851, 944.936
455.189, 1265.672
456.527, 1586.408
457.864, 1951.144
459.202, 2064.879
460.539, 1941.616
461.876, 1662.352
463.212, 1228.088
464.549, 1013.828
465.885, 753.567
467.221, 602.308
468.557, 557.048
469.893, 544.793
471.228, 575.537
472.563, 642.286
473.898, 690.035
475.233, 936.791
476.567, 1034.551
477.902, 1016.312
479.236, 757.080
480.570, 597.856
481.903, 534.640
483.237, 504.425
484.570, 492.211
485.903, 527.998
487.235, 550.787
488.568, 572.575
489.900, 641.365
491.232, 648.155
492.564, 701.946
493.896, 760.736
495.227, 811.530
496.558, 877.323
497.889, 961.123
499.220, 1029.792
500.551, 1049.748
501.881, 1201.558
503.211, 1267.368
504.541, 1374.178
505.870, 1512.099
507.200, 1676.965
508.529, 1842.807
509.858, 2089.663
511.187, 2296.513
512.515, 2651.436
513.844, 2972.250
515.172, 3317.199
516.500, 3854.194
517.827, 4433.006
519.155, 5113.856
520.482, 6066.865
521.809, 7198.765
523.136, 8782.671
524.462, 10631.598
525.789, 13570.509
527.115, 17079.570
528.441, 22039.031
529.766, 29027.902
531.092, 37647.949
532.417, 46828.027
533.742, 55846.820
535.067, 60015.945
536.391, 60914.832
537.716, 53904.074
539.040, 45073.109
540.364, 35372.309
541.688, 27031.619
543.011, 20770.920
544.334, 15719.998
545.657, 12389.627
546.980, 9639.990
548.303, 7960.902
549.625, 6540.417
550.947, 5381.733
552.269, 4595.513
553.591, 3945.425
554.913, 3451.886
556.234, 3008.269
557.555, 2643.209
558.876, 2446.687
560.197, 2156.373
561.517, 1966.754
562.837, 1843.887
564.157, 1613.397
565.477, 1579.338
566.797, 1445.589
568.116, 1394.363
569.435, 1299.387
570.754, 1184.128
572.073, 1171.105
573.391, 1077.603
574.709, 1035.523
576.027, 1013.140
577.345, 878.583
578.663, 902.251
579.980, 786.052
581.297, 843.323
582.614, 785.930
583.931, 746.736
585.248, 740.490
586.564, 677.147
587.880, 700.891
589.196, 648.641
590.511, 685.393
591.827, 763.154
593.142, 888.932
594.457, 970.718
595.772, 1064.507
597.086, 1041.302
598.401, 998.101
599.715, 923.905
601.029, 804.707
602.343, 687.510
603.656, 551.309
604.969, 454.104
606.282, 420.897
607.595, 365.687
608.908, 362.472
610.220, 285.254
611.532, 367.033
612.844, 298.811
614.156, 305.653
615.468, 269.440
616.779, 238.207
618.090, 245.057
619.401, 203.815
620.712, 211.571
622.022, 220.024
623.332, 178.849
624.642, 193.653
625.952, 170.432
627.262, 183.166
628.571, 171.896
629.880, 161.637
631.189, 176.361
632.498, 156.496
633.807, 168.208
635.115, 179.935
636.423, 107.638
637.731, 161.346
639.039, 130.087
640.346, 164.003
641.653, 133.718
642.960, 110.397
644.267, 149.251
645.574, 133.921
646.880, 132.891
648.186, 141.622
649.492, 120.276
650.798, 80.926
652.103, 130.232
653.409, 78.871
654.714, 137.833
656.019, 91.308
657.323, 35.490
658.628, 81.934
659.932, 70.606
661.236, 92.251
662.540, 14.014
663.843, 27.623
665.147, 33.400
666.450, 31.708
667.753, 33.283
669.056, 15.852
670.358, 67.460
671.660, 10.016
672.963, 5.564
674.264, 67.104
675.566, 33.639
676.868, 5.213
678.169, 21.759
679.470, 20.272
680.771, 14.778
682.071, 19.277
683.372, 3.769
684.672, 3.748
685.972, 28.723
687.271, 12.813
688.571, 13.367
689.870, 64.062
691.169, 2.484
692.468, 23.896
693.767, 0.302
695.065, 5.697
696.364, 1.083
697.662, 0.542
698.960, 0.299
700.257, 4.175
701.555, 5.482
702.852, 17.154
704.149, 25.845
705.446, 3.561
706.742, 16.291
708.038, 7.727
709.335, 13.486
710.631, 9.287
711.926, 4.075
713.222, 26.875
714.517, 19.586
715.812, 23.813
717.107, 15.967
718.402, 7.884
719.696, 37.748
720.990, 6.357
722.284, 8.775
723.578, 27.312
724.872, 31.391
726.165, 5.472
727.458, 6.544
728.751, 55.608
730.044, 7.671
731.336, 45.724
732.629, 19.228
733.921, 36.852
735.213, 23.260
736.504, 30.276
737.796, 5.712
739.087, 12.285
740.378, 41.422
741.669, 49.436
742.960, 70.158
744.250, 99.161
745.540, 103.689
746.830, 158.435
748.120, 195.306
749.410, 229.571
750.699, 314.742
751.988, 427.701
753.277, 443.911
754.566, 459.793
755.854, 443.525
757.143, 377.422
758.431, 318.343
759.719, 198.225
761.006, 153.142
762.294, 132.009
763.581, 107.869
764.868, 58.770
766.155, 78.615
767.442, 67.054
768.728, 29.885
770.014, 41.707
771.300, 49.523
772.586, 24.330
773.872, 77.131
775.157, 47.923
776.442, 2.709
777.727, 25.481
779.012, 29.245
780.297, 34.001
781.581, 50.750
782.865, 68.492
784.149, 2.773
785.433, 41.945
786.716, 9.343
787.999, 59.348
789.282, 37.033
790.565, 66.711
791.848, 38.382
793.130, 29.046
794.413, 11.702
795.695, 32.350
796.977, 83.990
798.258, 12.624
799.540, 44.249
800.821, 8.867
802.102, 20.475
803.382, 47.077
804.663, 60.671
805.943, 1.259
807.224, 37.835
808.504, 9.596
809.783, 2.045
811.063, 2.491
812.342, 1.985
813.621, 19.512
814.900, 24.016
816.179, 10.513
817.457, 28.892
818.736, 9.321
820.014, 1.235
821.292, 39.186
822.569, 32.606
823.847, 18.948
825.124, 39.392
826.401, 57.695
827.678, 34.946
828.954, 55.373
830.231, 16.756
831.507, 20.974
832.783, 76.295
834.059, 38.604
835.334, 52.884
836.610, 73.177
837.885, 89.315
839.160, 90.730
840.435, 67.360
841.709, 86.497
842.983, 76.587
844.258, 66.951
845.532, 67.992
846.805, 66.261
848.079, 55.168
849.352, 76.278
850.625, 35.214
851.898, 71.038
853.171, 55.868
854.443, 79.906
855.715, 53.393
856.988, 55.138
858.259, 28.330
859.531, 45.912
860.803, 17.689
862.074, 3.003
863.345, 63.165
864.616, 63.350
865.886, 54.856
867.157, 1.074
868.427, 4.557
869.697, 45.636
870.967, 53.793
872.236, 9.021
873.506, 32.370
874.775, 16.627
876.044, 17.500
877.313, 22.686
878.581, 10.888
879.849, 42.827
881.118, 6.800
882.386, 27.053
883.653, 15.056
884.921, 30.306
886.188, 24.241
887.455, 11.037
888.722, 22.104
889.989, 10.274
891.255, 34.501
892.522, 5.434
893.788, 1.220
895.054, 19.996
896.319, 25.493
897.585, 16.572
898.850, 21.370
900.115, 24.177
901.380, 10.993
902.645, 8.812
903.909, 1.635
905.174, 10.458
906.438, 17.284
907.701, 9.176
908.965, 10.049
910.229, 1.786
911.492, 2.379
912.755, 2.457
914.018, 16.708
915.280, 29.872
916.543, 2.963
917.805, 55.202
919.067, 19.634
920.329, 12.526
921.590, 38.618
922.852, 18.761
924.113, 53.922
925.374, 33.997
926.635, 86.159
927.895, 18.323
929.156, 44.784
930.416, 44.871
931.676, 51.976
932.936, 30.103
934.195, 47.328
935.454, 33.442
936.714, 67.597
937.973, 32.768
939.231, 40.524
940.490, 93.699
941.748, 13.859
943.006, 37.038
944.264, 21.210
945.522, 46.346
946.780, 47.489
948.037, 51.461
949.294, 54.650
950.551, 44.662
951.808, 37.856
953.064, 74.747
954.320, 65.874
955.577, 70.076
956.832, 80.288
958.088, 65.839
959.344, 133.056
960.599, 69.948
961.854, 112.324
963.109, 50.990
964.364, 69.393
965.618, 106.565
966.872, 179.765
968.127, 135.844
969.380, 141.081
970.634, 223.147
971.888, 179.679
973.141, 207.943
974.394, 238.210
975.647, 349.434
976.900, 444.718
978.152, 586.012
979.404, 723.311
980.656, 979.618
981.908, 1351.884
983.160, 1755.176
984.411, 2406.502
985.663, 2683.833
986.914, 2641.170
988.165, 2354.513
989.415, 1739.861
990.666, 1299.217
991.916, 1043.578
993.166, 723.949
994.416, 607.331
995.665, 473.717
996.915, 468.108
998.164, 392.505
999.413, 310.908
1000.662, 344.317
1001.911, 298.733
1003.159, 241.156
1004.407, 214.587
1005.655, 200.024
1006.903, 202.469
1008.151, 209.936
1009.398, 207.417
1010.646, 218.908
1011.893, 213.417
1013.139, 235.645
1014.386, 202.173
1015.633, 185.712
1016.879, 242.279
1018.125, 217.745
1019.371, 199.093
1020.616, 228.699
1021.862, 209.312
1023.107, 258.940
1024.352, 269.589
1025.597, 251.474
1026.842, 241.152
1028.086, 185.835
1029.330, 188.525
1030.574, 304.223
1031.818, 261.928
1033.062, 333.639
1034.305, 454.369
1035.548, 505.104
1036.791, 572.809
1038.034, 639.188
1039.277, 513.956
1040.519, 497.730
1041.762, 427.515
1043.004, 414.159
1044.246, 413.932
1045.487, 343.996
1046.729, 463.789
1047.970, 498.035
1049.211, 423.075
1050.452, 560.991
1051.692, 582.512
1052.933, 611.125
1054.173, 702.950
1055.413, 758.523
1056.653, 869.832
1057.893, 946.473
1059.132, 1072.357
1060.371, 1299.214
1061.610, 1482.111
1062.849, 1714.971
1064.088, 2113.887
1065.326, 2535.801
1066.565, 3174.670
1067.803, 3986.599
1069.041, 5588.932
1070.278, 7816.873
1071.516, 11324.818
1072.753, 17892.771
1073.990, 27650.730
1075.227, 41138.680
1076.464, 50136.664
1077.700, 45734.633
1078.936, 36002.621
1080.173, 23650.615
1081.408, 15368.615
1082.644, 10446.622
1083.880, 7124.632
1085.115, 5343.651
1086.350, 4016.680
1087.585, 3129.715
1088.820, 2570.772
1090.054, 2098.835
1091.288, 1748.904
1092.522, 1589.043
1093.756, 1299.123
1094.990, 1120.208
1096.224, 1014.300
1097.457, 911.397
1098.690, 850.500
1099.923, 674.608
1101.156, 625.722
1102.388, 546.025
1103.621, 477.151
1104.853, 462.018
1106.085, 423.154
1107.316, 404.298
1108.548, 390.560
1109.779, 335.719
1111.010, 298.929
1112.241, 317.200
1113.472, 254.384
1114.703, 263.393
1115.933, 261.589
1117.163, 226.056
1118.393, 261.324
1119.623, 174.535
1120.853, 176.754
1122.082, 175.988
1123.311, 137.217
1124.540, 149.008
1125.769, 104.123
1126.997, 135.364
1128.226, 160.444
1129.454, 142.164
1130.682, 157.417
1131.910, 70.547
1133.138, 119.807
1134.365, 166.599
1135.592, 97.967
1136.819, 129.341
1138.046, 110.762
1139.273, 132.135
1140.499, 115.509
1141.725, 144.831
1142.951, 121.116
1144.177, 132.439
1145.403, 164.696
1146.628, 144.990
1147.854, 109.402
1149.079, 118.819
1150.304, 92.175
1151.528, 87.578
1152.753, 118.884
1153.977, 102.192
1155.201, 116.686
1156.425, 129.999
1157.649, 130.040
1158.872, 153.669
1160.096, 168.465
1161.319, 228.290
1162.542, 284.755
1163.764, 328.651
1164.987, 380.103
1166.209, 525.478
1167.431, 558.403
1168.653, 729.824
1169.875, 937.315
1171.097, 933.529
1172.318, 967.886
1173.539, 898.936
1174.760, 725.500
1175.981, 643.834
1177.202, 573.713
1178.422, 399.046
1179.642, 335.547
1180.862, 262.833
1182.082, 223.308
1183.302, 169.173
1184.521, 144.847
1185.740, 142.283
1186.959, 122.731
1188.178, 132.340
1189.397, 112.855
1190.615, 80.014
1191.834, 93.397
1193.052, 78.930
1194.269, 85.385
1195.487, 97.375
1196.705, 145.398
1197.922, 21.884
1199.139, 80.264
1200.356, 46.793
1201.573, 78.133
1202.789, 54.036
1204.006, 39.464
1205.222, 65.089
1206.438, 61.425
1207.653, 38.922
1208.869, 40.266
1210.084, 0.406
1211.299, 41.038
1212.514, 17.093
1213.729, 68.604
1214.944, 2.921
1216.158, 29.349
1217.372, 15.664
1218.586, 65.975
1219.800, 41.286
1221.014, 46.604
1222.227, 66.908
1223.440, 15.313
1224.654, 26.078
1225.866, 50.634
1227.079, 62.432
1228.292, 79.771
1229.504, 64.240
1230.716, 50.724
1231.928, 79.077
1233.139, 77.453
1234.351, 26.305
1235.562, 70.565
1236.773, 81.037
1237.984, 4.287
1239.195, 49.535
1240.406, 42.872
1241.616, 38.119
1242.826, 68.365
1244.036, 79.610
1245.246, 32.845
1246.456, 31.079
1247.665, 2.689
1248.874, 40.541
1250.083, 28.234
1251.292, 48.036
1252.501, 35.243
1253.709, 2.455
1254.917, 73.641
1256.125, 20.821
1257.333, 9.064
1258.541, 59.262
1259.748, 11.395
1260.956, 71.885
1262.163, 17.965
1263.370, 20.177
1264.576, 36.317
1265.783, 36.549
1266.989, 34.803
1268.195, 47.932
1269.401, 31.955
1270.607, 14.858
1271.813, 61.219
1273.018, 8.690
1274.223, 2.655
1275.428, 79.365
1276.633, 8.580
1277.838, 45.416
1279.042, 2.612
1280.246, 20.428
1281.450, 20.383
1282.654, 11.192
1283.858, 23.226
1285.061, 24.131
1286.265, 38.168
1287.468, 65.292
1288.671, 59.622
1289.873, 59.937
1291.076, 62.784
1292.278, 22.624
1293.480, 22.453
1294.682, 38.272
1295.884, 28.194
1297.086, 84.998
1298.287, 70.270
1299.488, 25.373
1300.689, 70.461
1301.890, 1.781
1303.091, 10.925
1304.291, 2.802
1305.491, 2.515
1306.691, 22.215
1307.891, 62.096
1309.091, 26.545
1310.290, 46.174
1311.490, 14.206
1312.689, 36.398
1313.888, 6.952
1315.086, 2.372
1316.285, 53.194
1317.483, 31.250
1318.681, 16.284
1319.879, 60.807
1321.077, 4.318
1322.275, 66.815
1323.472, 24.341
1324.669, 34.187
1325.866, 28.261
1327.063, 11.302
1328.260, 12.117
1329.456, 39.523
1330.653, 36.919
1331.849, 16.302
1333.045, 22.711
1334.240, 14.929
1335.436, 52.413
1336.631, 23.812
1337.826, 37.131
1339.021, 4.438
1340.216, 3.923
1341.411, 32.202
1342.605, 57.615
1343.799, 26.869
1344.993, 69.113
1346.187, 7.435
1347.381, 46.726
1348.574, 18.936
1349.767, 107.135
1350.961, 31.324
1352.153, 65.502
1353.346, 76.670
1354.539, 40.820
1355.731, 74.981
1356.923, 1.120
1358.115, 112.244
1359.307, 43.373
1360.498, 75.477
1361.690, 72.566
1362.881, 74.347
1364.072, 68.471
1365.263, 80.466
1366.453, 46.509
1367.644, 13.541
1368.834, 24.579
1370.024, 12.451
1371.214, 59.727
1372.404, 32.667
1373.593, 30.591
1374.783, 53.497
1375.972, 47.411
1377.161, 23.749
1378.349, 110.130
1379.538, 30.017
1380.726, 123.544
1381.915, 117.309
1383.103, 53.130
1384.290, 87.942
1385.478, 109.744
1386.665, 110.346
1387.853, 92.298
1389.040, 119.933
1390.227, 96.632
1391.413, 143.263
1392.600, 90.088
1393.786, 61.325
1394.972, 102.002
1396.158, 75.655
1397.344, 91.416
1398.530, 77.067
1399.715, 58.109
1400.900, 66.660
1402.085, 35.469
1403.270, 44.701
1404.455, 83.990
1405.639, 100.449
1406.824, 83.944
1408.008, 53.285
1409.192, 47.543
1410.375, 89.878
1411.559, 100.538
1412.742, 114.008
1413.925, 76.058
1415.108, 68.557
1416.291, 88.615
1417.474, 118.648
1418.656, 55.152
1419.839, 65.079
1421.021, 63.122
1422.202, 43.451
1423.384, 91.290
1424.566, 86.868
1425.747, 78.120
1426.928, 61.754
1428.109, 24.969
1429.290, 72.049
1430.470, 112.417
1431.651, 19.167
1432.831, 62.674
1434.011, 85.146
1435.191, 57.839
1436.370, 102.091
1437.550, 26.498
1438.729, 72.979
1439.908, 44.056
1441.087, 45.485
1442.266, 35.087
1443.444, 145.642
1444.623, 25.008
1445.801, 98.192
1446.979, 94.631
1448.157, 58.339
1449.334, 79.408
1450.512, 76.703
1451.689, 62.571
1452.866, 159.642
1454.043, 94.832
1455.220, 29.981
1456.396, 96.089
1457.573, 72.144
1458.749, 69.034
1459.925, 103.017
1461.100, 80.856
1462.276, 138.316
1463.451, 89.917
1464.627, 29.746
1465.802, 93.954
1466.977, 100.660
1468.151, 62.368
1469.326, 70.060
1470.500, 51.753
1471.674, 99.599
1472.848, 69.232
1474.022, 26.177
1475.195, 56.691
1476.369, 122.660
1477.542, 17.123
1478.715, 138.076
1479.888, 62.644
1481.061, 0.448
1482.233, 109.008
1483.405, 3.446
1484.577, 108.291
1485.749, 120.139
1486.921, 10.136
1488.093, 14.125
1489.264, 74.857
1490.435, 39.811
1491.606, 71.764
1492.777, 46.742
1493.948, 101.542
1495.118, 58.568
1496.288, 26.619
1497.459, 80.693
1498.628, 83.566
1499.798, 26.233
1500.968, 71.360
1502.137, 84.136
1503.306, 7.852
1504.475, 105.520
1505.644, 28.952
1506.813, 53.963
1507.981, 62.973
1509.149, 26.817
1510.318, 6.768
1511.485, 59.506
1512.653, 37.355
1513.821, 71.851
1514.988, 87.882
1516.155, 8.793
1517.322, 55.659
1518.489, 2.322
