##NAMES=Sanbornite
##RRUFFID=R050001
##IDEAL CHEMISTRY=BaSi_2_O_5_
##LOCALITY=Empire #1 mine, Fresno County, California, USA
##OWNER=RRUFF
##SOURCE=University of Arizona Mineral Museum
##DESCRIPTION=An aggregate of white to colorless pearly anhedral plates
##STATUS=The identification of this mineral has been confirmed by X-ray diffraction and chemical analysis
##URL=rruff.info/R050001
##MEASURED CHEMISTRY=Ba_1.00_Si_2.00_O_5_
##PIN_ID=M00487
##ORIENTATION=Laser parallel to -b* (0 -1 0). Fiducial mark perpendicular to laser is parallel to c [0 0 1]
49.184, 0.000
50.590, 16.068
51.996, 53.511
53.401, 2.911
54.807, 86.314
56.212, 72.304
57.617, 57.685
59.021, 93.619
60.426, 63.241
61.830, 64.329
63.234, 62.384
64.637, 20.742
66.041, 39.861
67.444, 48.260
68.847, 11.696
70.250, 2.994
71.652, 7.516
73.054, 26.249
74.456, 43.182
75.858, 58.306
77.260, 11.387
78.661, 9.095
80.062, 2.742
81.463, 14.456
82.863, 9.495
84.264, 45.415
85.664, 2.807
87.064, 13.154
88.463, 70.619
89.863, 166.197
91.262, 425.881
92.661, 722.667
94.059, 1074.550
95.458, 1111.524
96.856, 1034.587
98.254, 1196.743
99.652, 1606.994
101.049, 2194.337
102.446, 2881.769
103.843, 3688.286
105.240, 4241.880
106.637, 2886.550
108.033, 1994.287
109.429, 1567.090
110.825, 1413.953
112.220, 1194.876
113.616, 1455.854
115.011, 1646.884
116.406, 1709.965
117.800, 1690.094
119.195, 1726.269
120.589, 1665.488
121.983, 1552.750
123.377, 1363.052
124.770, 1246.394
126.163, 1131.774
127.556, 913.190
128.949, 837.642
130.342, 765.128
131.734, 679.647
133.126, 648.825
134.518, 611.736
135.909, 595.443
137.301, 615.107
138.692, 603.790
140.083, 677.483
141.473, 598.226
142.864, 618.013
144.254, 561.893
145.644, 602.875
147.034, 637.948
148.423, 578.082
149.812, 612.263
151.201, 536.464
152.590, 519.715
153.979, 519.001
155.367, 507.299
156.755, 573.599
158.143, 673.902
159.530, 811.207
160.918, 1011.516
162.305, 1311.830
163.692, 1648.148
165.078, 1940.472
166.465, 2265.801
167.851, 2431.136
169.237, 2456.478
170.623, 2276.825
172.008, 2021.180
173.393, 1692.541
174.778, 1363.909
176.163, 1108.284
177.548, 855.667
178.932, 702.057
180.316, 586.455
181.700, 593.859
183.083, 526.272
184.467, 523.692
185.850, 550.119
187.233, 580.553
188.616, 643.995
189.998, 658.444
191.380, 639.900
192.762, 631.774
194.144, 626.834
195.525, 533.311
196.907, 484.795
198.288, 393.225
199.669, 360.784
201.049, 274.289
202.429, 217.800
203.810, 229.318
205.189, 152.844
206.569, 168.375
207.949, 204.914
209.328, 207.460
210.707, 213.012
212.085, 227.572
213.464, 247.139
214.842, 355.713
216.220, 424.057
217.598, 507.271
218.976, 591.343
220.353, 676.216
221.730, 765.042
223.107, 834.752
224.483, 806.342
225.860, 841.794
227.236, 778.053
228.612, 716.348
229.988, 717.517
231.363, 703.197
232.738, 701.060
234.113, 738.208
235.488, 814.086
236.863, 956.220
238.237, 1211.861
239.611, 1531.979
240.985, 2091.602
242.359, 2830.468
243.732, 3707.718
245.105, 4763.066
246.478, 5419.113
247.851, 5726.555
249.223, 5477.631
250.595, 4764.429
251.967, 3776.396
253.339, 2850.540
254.711, 2224.130
256.082, 1687.888
257.453, 1407.758
258.824, 1218.511
260.195, 1143.964
261.565, 1127.432
262.935, 1227.913
264.305, 1227.407
265.675, 1258.914
267.044, 1334.434
268.414, 1445.965
269.783, 1476.508
271.151, 1477.062
272.520, 1566.627
273.888, 1571.202
275.256, 1664.788
276.624, 1840.383
277.992, 2059.988
279.359, 2311.602
280.726, 2675.226
282.093, 3219.857
283.460, 3806.497
284.827, 4616.145
286.193, 5376.803
287.559, 6301.467
288.925, 7193.139
290.290, 7955.818
291.656, 8504.504
293.021, 8414.200
294.386, 8124.899
295.750, 7466.606
297.115, 6652.320
298.479, 5752.039
299.843, 4790.766
301.207, 4064.498
302.570, 3579.236
303.933, 3233.979
305.296, 3103.729
306.659, 3250.483
308.022, 3695.243
309.384, 4651.007
310.746, 5899.777
312.108, 7579.549
313.470, 9180.326
314.831, 10400.105
316.193, 10629.889
317.554, 9769.673
318.914, 8131.462
320.275, 5944.253
321.635, 4377.046
322.995, 3182.843
324.355, 2418.642
325.715, 1996.443
327.074, 1830.247
328.434, 1848.054
329.792, 2052.863
331.151, 2206.674
332.510, 2317.487
333.868, 2513.303
335.226, 2614.121
336.584, 2751.942
337.941, 3185.765
339.299, 3660.591
340.656, 4076.419
342.013, 4283.249
343.370, 4116.080
344.726, 3410.913
346.082, 2635.750
347.438, 1870.589
348.794, 1322.430
350.150, 891.274
351.505, 648.122
352.860, 468.971
354.215, 356.824
355.570, 312.685
356.924, 193.550
358.278, 190.417
359.632, 113.289
360.986, 147.168
362.339, 77.049
363.693, 91.935
365.046, 29.829
366.399, 62.730
367.751, 27.638
369.104, 89.553
370.456, 46.469
371.808, 76.394
373.159, 55.321
374.511, 93.248
375.862, 99.177
377.213, 108.112
378.564, 119.048
379.914, 80.982
381.265, 86.916
382.615, 41.852
383.965, 66.788
385.315, 71.727
386.664, 69.672
388.013, 72.626
389.362, 57.949
390.711, 8.549
392.060, 12.517
393.408, 13.508
394.756, 62.537
396.104, 4.593
397.451, 24.646
398.799, 79.701
400.146, 49.786
401.493, 50.893
402.840, 72.020
404.186, 42.184
405.533, 50.358
406.879, 36.553
408.225, 31.762
409.570, 33.752
410.916, 29.334
412.261, 34.483
413.606, 26.747
414.951, 28.025
416.295, 16.319
417.639, 18.621
418.983, 3.935
420.327, 1.254
421.671, 46.423
423.014, 81.100
424.357, 128.740
425.700, 179.227
427.043, 252.238
428.386, 358.813
429.728, 441.491
431.070, 490.169
432.412, 495.846
433.753, 454.522
435.095, 390.198
436.436, 273.874
437.777, 229.548
439.118, 158.222
440.458, 133.896
441.798, 133.568
443.138, 122.239
444.478, 141.909
445.818, 151.578
447.157, 210.246
448.496, 228.913
449.835, 337.578
451.174, 438.242
452.513, 584.904
453.851, 784.565
455.189, 986.224
456.527, 1162.882
457.864, 1369.537
459.202, 1393.191
460.539, 1390.843
461.876, 1245.494
463.212, 1068.142
464.549, 883.788
465.885, 816.432
467.221, 796.073
468.557, 956.713
469.893, 1295.351
471.228, 2055.985
472.563, 3176.618
473.898, 4846.247
475.233, 6462.874
476.567, 7272.500
477.902, 7089.121
479.236, 5425.741
480.570, 3574.357
481.903, 2257.971
483.237, 1407.583
484.570, 897.191
485.903, 669.825
487.235, 534.428
488.568, 483.027
489.900, 446.623
491.232, 457.216
492.564, 476.806
493.896, 449.392
495.227, 463.025
496.558, 480.643
497.889, 478.338
499.220, 541.996
500.551, 531.566
501.881, 592.169
503.211, 611.739
504.541, 669.352
505.870, 764.078
507.200, 860.921
508.529, 938.115
509.858, 1052.309
511.187, 1123.258
512.515, 1256.884
513.844, 1372.010
515.172, 1627.838
516.500, 1875.927
517.827, 2188.590
519.155, 2567.957
520.482, 3043.715
521.809, 3588.459
523.136, 4385.874
524.462, 5392.932
525.789, 6928.506
527.115, 8849.664
528.441, 11480.402
529.766, 14920.131
531.092, 19281.289
532.417, 23500.934
533.742, 27110.566
535.067, 28580.256
536.391, 28340.871
537.716, 25280.412
539.040, 21650.164
540.364, 17219.727
541.688, 13519.880
543.011, 10439.624
544.334, 8023.499
545.657, 6311.481
546.980, 4954.493
548.303, 4089.717
549.625, 3364.907
550.947, 2799.756
552.269, 2371.081
553.591, 2065.927
554.913, 1806.394
556.234, 1524.253
557.555, 1385.548
558.876, 1264.573
560.197, 1119.986
561.517, 1034.446
562.837, 953.319
564.157, 897.875
565.477, 841.207
566.797, 752.221
568.116, 690.508
569.435, 663.597
570.754, 627.995
572.073, 589.102
573.391, 533.675
574.709, 521.144
576.027, 469.084
577.345, 451.093
578.663, 451.910
579.980, 427.879
581.297, 434.164
582.614, 368.541
583.931, 375.784
585.248, 363.190
586.564, 299.425
587.880, 337.655
589.196, 309.887
590.511, 317.120
591.827, 326.349
593.142, 358.576
594.457, 417.803
595.772, 466.029
597.086, 425.249
598.401, 428.466
599.715, 356.679
601.029, 341.885
602.343, 269.084
603.656, 229.277
604.969, 214.463
606.282, 200.642
607.595, 182.815
608.908, 188.980
610.220, 153.140
611.532, 149.295
612.844, 119.442
614.156, 143.583
615.468, 120.716
616.779, 159.842
618.090, 118.961
619.401, 133.073
620.712, 119.178
622.022, 88.275
623.332, 65.416
624.642, 87.499
625.952, 55.575
627.262, 91.643
628.571, 103.704
629.880, 112.757
631.189, 104.804
632.498, 118.042
633.807, 116.577
635.115, 124.898
636.423, 114.914
637.731, 103.923
639.039, 91.974
640.346, 78.023
641.653, 63.990
642.960, 49.970
644.267, 64.941
645.574, 57.904
646.880, 83.860
648.186, 79.828
649.492, 95.774
650.798, 67.770
652.103, 45.695
653.409, 48.626
654.714, 29.680
656.019, 37.579
657.323, 66.470
658.628, 49.390
659.932, 56.265
661.236, 45.132
662.540, 19.454
663.843, 10.303
665.147, 37.141
666.450, 15.971
667.753, 5.810
669.056, 37.624
670.358, 1.423
671.660, 9.778
672.963, 1.986
674.264, 24.737
675.566, 2.522
676.868, 8.797
678.169, 13.908
679.470, 3.397
680.771, 13.719
682.071, 6.063
683.372, 15.425
684.672, 8.810
685.972, 12.785
687.271, 15.631
688.571, 17.930
689.870, 18.482
691.169, 14.023
692.468, 7.446
693.767, 34.066
695.065, 9.569
696.364, 25.061
697.662, 0.456
698.960, 9.011
700.257, 4.467
701.555, 14.089
702.852, 14.668
704.149, 2.269
705.446, 1.886
706.742, 2.481
708.038, 5.165
709.335, 9.172
710.631, 5.606
711.926, 3.283
713.222, 13.195
714.517, 16.066
715.812, 12.234
717.107, 10.073
718.402, 22.298
719.696, 35.393
720.990, 11.895
722.284, 5.814
723.578, 31.471
724.872, 46.588
726.165, 36.726
727.458, 25.013
728.751, 26.302
730.044, 27.961
731.336, 1.122
732.629, 33.156
733.921, 65.432
735.213, 47.702
736.504, 47.908
737.796, 24.163
739.087, 83.410
740.378, 19.332
741.669, 101.806
742.960, 78.204
744.250, 97.507
745.540, 140.030
746.830, 193.960
748.120, 312.157
749.410, 388.654
750.699, 552.986
751.988, 730.450
753.277, 829.146
754.566, 867.899
755.854, 800.038
757.143, 653.167
758.431, 572.289
759.719, 432.425
761.006, 334.530
762.294, 231.626
763.581, 253.715
764.868, 172.001
766.155, 147.411
767.442, 112.475
768.728, 129.531
770.014, 119.579
771.300, 83.618
772.586, 114.650
773.872, 113.674
775.157, 89.690
776.442, 119.697
777.727, 43.697
779.012, 97.689
780.297, 56.673
781.581, 63.649
782.865, 80.617
784.149, 86.578
785.433, 107.590
786.716, 100.457
787.999, 103.473
789.282, 94.404
790.565, 67.326
791.848, 79.242
793.130, 39.150
794.413, 43.050
795.695, 48.942
796.977, 59.032
798.258, 79.880
799.540, 68.751
800.821, 64.615
802.102, 43.471
803.382, 46.320
804.663, 32.162
805.943, 74.997
807.224, 42.775
808.504, 19.591
809.783, 71.286
811.063, 55.134
812.342, 35.933
813.621, 45.712
814.900, 61.490
816.179, 9.215
817.457, 79.814
818.736, 45.287
820.014, 60.952
821.292, 36.499
822.569, 38.833
823.847, 76.482
825.124, 35.619
826.401, 79.045
827.678, 85.198
828.954, 86.768
830.231, 117.623
831.507, 71.077
832.783, 103.535
834.059, 87.313
835.334, 164.437
836.610, 155.034
837.885, 144.038
839.160, 145.452
840.435, 161.861
841.709, 108.837
842.983, 154.311
844.258, 115.787
845.532, 116.202
846.805, 101.676
848.079, 94.217
849.352, 68.535
850.625, 35.032
851.898, 124.933
853.171, 54.229
854.443, 94.385
855.715, 59.424
856.988, 46.425
858.259, 34.203
859.531, 23.005
860.803, 39.073
862.074, 51.668
863.345, 22.961
864.616, 30.531
865.886, 7.754
867.157, 11.302
868.427, 21.166
869.697, 21.514
870.967, 1.660
872.236, 17.074
873.506, 8.656
874.775, 13.930
876.044, 43.369
877.313, 15.182
878.581, 15.682
879.849, 37.765
881.118, 4.163
882.386, 7.565
883.653, 7.974
884.921, 36.632
886.188, 14.061
887.455, 11.580
888.722, 18.931
889.989, 8.547
891.255, 31.925
892.522, 14.570
893.788, 5.240
895.054, 3.746
896.319, 39.255
897.585, 26.783
898.850, 16.324
900.115, 21.872
901.380, 27.430
902.645, 25.000
903.909, 7.581
905.174, 13.166
906.438, 14.756
907.701, 10.649
908.965, 9.053
910.229, 17.457
911.492, 0.139
912.755, 28.265
914.018, 32.669
915.280, 30.074
916.543, 6.522
917.805, 10.119
919.067, 9.281
920.329, 43.682
921.590, 10.083
922.852, 38.486
924.113, 51.888
925.374, 15.292
926.635, 26.696
927.895, 15.102
929.156, 10.769
930.416, 19.866
931.676, 19.275
932.936, 41.686
934.195, 61.097
935.454, 35.511
936.714, 3.074
937.973, 2.342
939.231, 3.759
940.490, 70.178
941.748, 8.599
943.006, 28.023
944.264, 47.448
945.522, 29.825
946.780, 42.222
948.037, 9.352
949.294, 35.080
950.551, 18.514
951.808, 33.950
953.064, 46.389
954.320, 31.812
955.577, 61.250
956.832, 37.635
958.088, 8.086
959.344, 2.476
960.599, 10.835
961.854, 7.490
963.109, 64.756
964.364, 1.816
965.618, 39.652
966.872, 76.123
968.127, 66.133
969.380, 82.586
970.634, 62.094
971.888, 86.581
973.141, 88.052
974.394, 119.542
975.647, 122.043
976.900, 130.535
978.152, 196.052
979.404, 246.576
980.656, 352.104
981.908, 478.640
983.160, 579.186
984.411, 821.740
985.663, 871.303
986.914, 845.879
988.165, 795.468
989.415, 557.070
990.666, 486.682
991.916, 426.301
993.166, 341.931
994.416, 311.574
995.665, 346.222
996.915, 400.878
998.164, 448.544
999.413, 414.216
1000.662, 345.903
1001.911, 326.597
1003.159, 236.301
1004.407, 218.011
1005.655, 186.735
1006.903, 205.471
1008.151, 182.220
1009.398, 150.978
1010.646, 178.745
1011.893, 181.525
1013.139, 165.314
1014.386, 185.111
1015.633, 172.917
1016.879, 173.075
1018.125, 184.076
1019.371, 214.918
1020.616, 232.384
1021.862, 252.187
1023.107, 219.067
1024.352, 263.972
1025.597, 236.884
1026.842, 262.830
1028.086, 284.956
1029.330, 259.077
1030.574, 376.055
1031.818, 480.040
1033.062, 663.031
1034.305, 938.034
1035.548, 1153.049
1036.791, 1254.071
1038.034, 1155.103
1039.277, 870.199
1040.519, 754.245
1041.762, 649.298
1043.004, 589.672
1044.246, 540.493
1045.487, 489.387
1046.729, 479.375
1047.970, 498.886
1049.211, 556.520
1050.452, 600.626
1051.692, 635.435
1052.933, 713.406
1054.173, 791.909
1055.413, 876.848
1056.653, 994.394
1057.893, 1082.555
1059.132, 1203.723
1060.371, 1400.897
1061.610, 1614.055
1062.849, 1936.243
1064.088, 2331.436
1065.326, 2819.637
1066.565, 3504.640
1067.803, 4635.519
1069.041, 6282.742
1070.278, 8955.976
1071.516, 13154.212
1072.753, 20752.461
1073.990, 32330.709
1075.227, 45778.961
1076.464, 54167.234
1077.700, 49595.523
1078.936, 38533.820
1080.173, 26672.127
1081.408, 17890.436
1082.644, 12168.755
1083.880, 8387.079
1085.115, 6099.409
1086.350, 4599.688
1087.585, 3657.032
1088.820, 2904.391
1090.054, 2396.756
1091.288, 2031.129
1092.522, 1820.507
1093.756, 1461.891
1094.990, 1356.281
1096.224, 1217.679
1097.457, 1085.877
1098.690, 1011.286
1099.923, 859.701
1101.156, 798.122
1102.388, 716.841
1103.621, 637.274
1104.853, 575.719
1106.085, 510.504
1107.316, 473.617
1108.548, 421.043
1109.779, 383.508
1111.010, 388.851
1112.241, 404.328
1113.472, 366.426
1114.703, 294.304
1115.933, 326.799
1117.163, 263.303
1118.393, 263.813
1119.623, 201.328
1120.853, 225.850
1122.082, 241.376
1123.311, 249.950
1124.540, 217.496
1125.769, 200.056
1126.997, 215.605
1128.226, 193.159
1129.454, 219.718
1130.682, 209.282
1131.910, 201.515
1133.138, 201.216
1134.365, 190.979
1135.592, 177.655
1136.819, 178.529
1138.046, 145.237
1139.273, 138.974
1140.499, 189.574
1141.725, 184.797
1142.951, 137.461
1144.177, 170.604
1145.403, 142.220
1146.628, 185.840
1147.854, 153.852
1149.079, 182.902
1150.304, 168.695
1151.528, 203.528
1152.753, 208.511
1153.977, 213.355
1155.201, 289.241
1156.425, 273.965
1157.649, 322.714
1158.872, 334.507
1160.096, 481.263
1161.319, 542.031
1162.542, 659.690
1163.764, 785.390
1164.987, 997.126
1166.209, 1143.075
1167.431, 1525.335
1168.653, 1853.047
1169.875, 2205.742
1171.097, 2325.902
1172.318, 2335.588
1173.539, 2141.653
1174.760, 1844.023
1175.981, 1500.658
1177.202, 1247.431
1178.422, 897.168
1179.642, 738.144
1180.862, 565.883
1182.082, 475.459
1183.302, 426.254
1184.521, 357.719
1185.740, 280.807
1186.959, 243.256
1188.178, 197.773
1189.397, 180.477
1190.615, 142.248
1191.834, 162.127
1193.052, 133.993
1194.269, 136.609
1195.487, 88.711
1196.705, 154.613
1197.922, 132.295
1199.139, 166.173
1200.356, 103.960
1201.573, 88.697
1202.789, 111.665
1204.006, 86.000
1205.222, 115.871
1206.438, 70.608
1207.653, 97.344
1208.869, 90.215
1210.084, 60.948
1211.299, 75.903
1212.514, 102.653
1213.729, 25.276
1214.944, 91.004
1216.158, 92.198
1217.372, 59.083
1218.586, 39.805
1219.800, 84.593
1221.014, 49.567
1222.227, 86.287
1223.440, 52.037
1224.654, 32.624
1225.866, 98.337
1227.079, 73.091
1228.292, 43.895
1229.504, 68.600
1230.716, 46.301
1231.928, 100.066
1233.139, 38.761
1234.351, 53.807
1235.562, 87.558
1236.773, 53.347
1237.984, 71.037
1239.195, 73.726
1240.406, 40.416
1241.616, 41.106
1242.826, 77.795
1244.036, 86.485
1245.246, 41.176
1246.456, 36.866
1247.665, 8.418
1248.874, 41.395
1250.083, 15.091
1251.292, 54.842
1252.501, 59.529
1253.709, 37.216
1254.917, 90.902
1256.125, 50.588
1257.333, 51.270
1258.541, 54.978
1259.748, 15.706
1260.956, 61.494
1262.163, 49.262
1263.370, 50.029
1264.576, 74.669
1265.783, 51.304
1266.989, 65.929
1268.195, 17.549
1269.401, 26.166
1270.607, 24.774
1271.813, 32.379
1273.018, 39.981
1274.223, 51.570
1275.428, 60.145
1276.633, 8.293
1277.838, 4.221
1279.042, 4.760
1280.246, 9.733
1281.450, 1.263
1282.654, 8.196
1283.858, 5.646
1285.061, 45.089
1286.265, 21.473
1287.468, 24.940
1288.671, 3.670
1289.873, 44.705
1291.076, 47.074
1292.278, 32.567
1293.480, 1.018
1294.682, 8.316
1295.884, 5.642
1297.086, 15.046
1298.287, 6.252
1299.488, 4.542
1300.689, 25.822
1301.890, 21.072
1303.091, 10.700
1304.291, 21.514
1305.491, 19.722
1306.691, 56.922
1307.891, 38.011
1309.091, 31.257
1310.290, 6.412
1311.490, 16.443
1312.689, 23.313
1313.888, 46.800
1315.086, 14.099
1316.285, 61.986
1317.483, 75.938
1318.681, 16.896
1319.879, 20.872
1321.077, 34.131
1322.275, 43.122
1323.472, 10.102
1324.669, 5.931
1325.866, 3.159
1327.063, 30.958
1328.260, 1.116
1329.456, 6.795
1330.653, 14.694
1331.849, 9.582
1333.045, 56.458
1334.240, 40.324
1335.436, 21.181
1336.631, 23.023
1337.826, 18.145
1339.021, 9.769
1340.216, 6.429
1341.411, 2.751
1342.605, 26.019
1343.799, 45.778
1344.993, 76.528
1346.187, 18.270
1347.381, 4.001
1348.574, 28.721
1349.767, 75.432
1350.961, 73.135
1352.153, 28.850
1353.346, 74.537
1354.539, 20.216
1355.731, 54.921
1356.923, 0.415
1358.115, 74.239
1359.307, 8.934
1360.498, 27.575
1361.690, 66.210
1362.881, 44.841
1364.072, 19.468
1365.263, 94.203
1366.453, 33.177
1367.644, 14.573
1368.834, 89.024
1370.024, 52.618
1371.214, 40.214
1372.404, 100.710
1373.593, 79.189
1374.783, 47.642
1375.972, 74.066
1377.161, 21.526
1378.349, 48.879
1379.538, 40.262
1380.726, 99.637
1381.915, 78.005
1383.103, 73.366
1384.290, 88.719
1385.478, 87.756
1386.665, 89.014
1387.853, 105.407
1389.040, 81.723
1390.227, 64.029
1391.413, 42.296
1392.600, 69.581
1393.786, 56.857
1394.972, 123.077
1396.158, 79.305
1397.344, 147.554
1398.530, 130.794
1399.715, 95.095
1400.900, 65.791
1402.085, 60.499
1403.270, 47.224
1404.455, 47.816
1405.639, 47.111
1406.824, 73.250
1408.008, 83.598
1409.192, 123.696
1410.375, 97.163
1411.559, 104.960
1412.742, 99.339
1413.925, 130.186
1415.108, 133.026
1416.291, 97.459
1417.474, 111.583
1418.656, 91.429
1419.839, 72.323
1421.021, 70.400
1422.202, 43.437
1423.384, 70.320
1424.566, 74.693
1425.747, 104.387
1426.928, 132.493
1428.109, 70.718
1429.290, 71.080
1430.470, 97.554
1431.651, 80.251
1432.831, 79.596
1434.011, 61.651
1435.191, 14.813
1436.370, 120.950
1437.550, 95.917
1438.729, 59.657
1439.908, 116.128
1441.087, 116.114
1442.266, 93.779
1443.444, 57.376
1444.623, 101.966
1445.801, 56.733
1446.979, 94.746
1448.157, 61.608
1449.334, 111.731
1450.512, 114.749
1451.689, 49.159
1452.866, 140.890
1454.043, 109.562
1455.220, 103.114
1456.396, 90.358
1457.573, 78.709
1458.749, 92.064
1459.925, 78.384
1461.100, 71.451
1462.276, 96.123
1463.451, 86.048
1464.627, 85.241
1465.802, 120.387
1466.977, 117.488
1468.151, 66.534
1469.326, 164.612
1470.500, 81.908
1471.674, 25.045
1472.848, 112.362
1474.022, 74.640
1475.195, 58.994
1476.369, 114.395
1477.542, 40.083
1478.715, 68.403
1479.888, 61.727
1481.061, 52.020
1482.233, 131.501
1483.405, 96.175
1484.577, 59.569
1485.749, 109.197
1486.921, 43.814
1488.093, 101.437
1489.264, 71.081
1490.435, 70.752
1491.606, 109.492
1492.777, 9.284
1493.948, 79.137
1495.118, 60.057
1496.288, 6.044
1497.459, 125.097
1498.628, 104.241
1499.798, 5.496
1500.968, 112.857
1502.137, 60.324
1503.306, 46.905
1504.475, 46.624
1505.644, 13.496
1506.813, 45.341
1507.981, 96.164
1509.149, 70.609
1510.318, 60.580
1511.485, 115.501
