##NAMES=Sanbornite
##RRUFFID=R050001
##IDEAL CHEMISTRY=BaSi_2_O_5_
##LOCALITY=Empire #1 mine, Fresno County, California, USA
##OWNER=RRUFF
##SOURCE=University of Arizona Mineral Museum
##DESCRIPTION=An aggregate of white to colorless pearly anhedral plates
##STATUS=The identification of this mineral has been confirmed by X-ray diffraction and chemical analysis
##URL=rruff.info/R050001
##MEASURED CHEMISTRY=Ba_1.00_Si_2.00_O_5_
##PIN_ID=M00320
##ORIENTATION=Laser parallel to -a* (-1 0 0). Fiducial mark perpendicular to laser is parallel to -b [0 -1 0]
109.429, 0.000
110.825, 231.921
112.220, 675.307
113.616, 1434.687
115.011, 2101.330
116.406, 2645.953
117.800, 2874.194
119.195, 2940.588
120.589, 2604.137
121.983, 2136.842
123.377, 1701.221
124.770, 1184.764
126.163, 901.896
127.556, 678.820
128.949, 513.297
130.342, 283.590
131.734, 267.873
133.126, 235.252
134.518, 81.429
135.909, 189.481
137.301, 325.916
138.692, 347.826
140.083, 504.638
141.473, 655.561
142.864, 959.640
144.254, 1085.272
145.644, 1222.936
147.034, 1212.272
148.423, 1183.253
149.812, 1012.833
151.201, 836.956
152.590, 617.559
153.979, 451.591
155.367, 175.011
156.755, 73.782
158.143, 8.875
159.530, 6.741
160.918, 88.088
162.305, 25.194
163.692, 34.077
165.078, 60.758
166.465, 22.261
167.851, 35.605
169.237, 46.385
170.623, 92.877
172.008, 76.795
173.393, 84.257
174.778, 101.040
176.163, 55.331
177.548, 8.835
178.932, 74.099
180.316, 177.614
181.700, 323.960
183.083, 505.527
184.467, 708.412
185.850, 1100.581
187.233, 1467.917
188.616, 1818.319
189.998, 2090.813
191.380, 2171.278
192.762, 2379.667
194.144, 2135.937
195.525, 2089.146
196.907, 1736.312
198.288, 1479.444
199.669, 1220.556
201.049, 1053.647
202.429, 714.722
203.810, 590.782
205.189, 500.827
206.569, 432.854
207.949, 399.859
209.328, 430.837
210.707, 645.787
212.085, 691.708
213.464, 835.605
214.842, 1182.479
216.220, 1388.330
217.598, 1828.154
218.976, 2084.900
220.353, 2408.584
221.730, 2570.213
223.107, 2620.769
224.483, 2479.229
225.860, 2324.594
227.236, 2041.927
228.612, 1709.247
229.988, 1433.555
231.363, 1130.849
232.738, 819.242
234.113, 686.458
235.488, 590.009
236.863, 470.053
238.237, 474.658
239.611, 388.385
240.985, 457.858
242.359, 551.312
243.732, 630.278
245.105, 832.188
246.478, 815.799
247.851, 860.933
249.223, 774.056
250.595, 766.263
251.967, 595.951
253.339, 448.270
254.711, 527.936
256.082, 506.117
257.453, 510.773
258.824, 679.521
260.195, 788.106
261.565, 1083.876
262.935, 1427.173
264.305, 1699.465
265.675, 2018.656
267.044, 2253.504
268.414, 2329.454
269.783, 2238.370
271.151, 2002.622
272.520, 1690.985
273.888, 1483.895
275.256, 1350.030
276.624, 1195.201
277.992, 1192.703
279.359, 1239.957
280.726, 1358.409
282.093, 1495.773
283.460, 1671.381
284.827, 1986.111
286.193, 2291.964
287.559, 2601.913
288.925, 2935.925
290.290, 3017.972
291.656, 3107.028
293.021, 2990.090
294.386, 2892.160
295.750, 2650.239
297.115, 2241.325
298.479, 1952.419
299.843, 1686.502
301.207, 1358.463
302.570, 1254.337
303.933, 1085.165
305.296, 947.880
306.659, 747.474
308.022, 992.958
309.384, 994.453
310.746, 1197.969
312.108, 1490.500
313.470, 1504.045
314.831, 1692.600
316.193, 1649.161
317.554, 1533.728
318.914, 1410.295
320.275, 1151.864
321.635, 1160.432
322.995, 1098.991
324.355, 1292.151
325.715, 1774.215
327.074, 2630.777
328.434, 3638.017
329.792, 4894.259
331.151, 5841.935
332.510, 5879.134
333.868, 5635.931
335.226, 4780.848
336.584, 3626.439
337.941, 2835.714
339.299, 2212.274
340.656, 1835.698
342.013, 1398.745
343.370, 1136.115
344.726, 843.475
346.082, 733.811
347.438, 516.120
348.794, 383.403
350.150, 174.659
351.505, 187.886
352.860, 73.083
354.215, 98.261
355.570, 99.409
356.924, 14.536
358.278, 20.374
359.632, 7.319
360.986, 45.693
362.339, 86.322
363.693, 30.401
365.046, 59.529
366.399, 74.715
367.751, 42.961
369.104, 47.249
370.456, 56.409
371.808, 34.967
373.159, 4.395
374.511, 66.870
375.862, 57.406
377.213, 27.001
378.564, 26.361
379.914, 31.685
381.265, 79.970
382.615, 167.223
383.965, 285.445
385.315, 241.636
386.664, 278.798
388.013, 239.931
389.362, 162.032
390.711, 138.118
392.060, 57.173
393.408, 115.212
394.756, 79.219
396.104, 45.191
397.451, 1.115
398.799, 42.047
400.146, 34.314
401.493, 15.302
402.840, 26.192
404.186, 12.227
405.533, 2.559
406.879, 23.225
408.225, 33.916
409.570, 64.992
410.916, 26.962
412.261, 12.030
413.606, 61.981
414.951, 60.890
416.295, 76.759
417.639, 22.569
418.983, 48.151
420.327, 35.399
421.671, 43.490
423.014, 45.998
424.357, 5.409
425.700, 35.758
427.043, 38.058
428.386, 136.304
429.728, 120.501
431.070, 99.644
432.412, 161.735
433.753, 90.793
435.095, 115.815
436.436, 180.798
437.777, 111.765
439.118, 171.701
440.458, 141.607
441.798, 172.480
443.138, 263.318
444.478, 257.124
445.818, 366.896
447.157, 330.633
448.496, 573.334
449.835, 595.000
451.174, 885.630
452.513, 1084.276
453.851, 1274.833
455.189, 1284.367
456.527, 1309.850
457.864, 1416.295
459.202, 1271.767
460.539, 1218.313
461.876, 1143.649
463.212, 927.990
464.549, 771.259
465.885, 656.659
467.221, 645.223
468.557, 747.521
469.893, 870.661
471.228, 1045.172
472.563, 1344.558
473.898, 1872.763
475.233, 2341.024
476.567, 2399.174
477.902, 2302.153
479.236, 1783.229
480.570, 1239.281
481.903, 956.276
483.237, 637.422
484.570, 511.621
485.903, 512.323
487.235, 570.451
488.568, 511.288
489.900, 620.613
491.232, 677.210
492.564, 582.069
493.896, 620.008
495.227, 644.511
496.558, 705.484
497.889, 548.112
499.220, 579.161
500.551, 506.882
501.881, 502.707
503.211, 566.056
504.541, 579.661
505.870, 611.300
507.200, 710.008
508.529, 751.714
509.858, 784.331
511.187, 882.973
512.515, 951.671
513.844, 1071.426
515.172, 1324.083
516.500, 1529.765
517.827, 1642.640
519.155, 1799.848
520.482, 2167.166
521.809, 2644.076
523.136, 3134.623
524.462, 3753.515
525.789, 4820.470
527.115, 5796.360
528.441, 7407.308
529.766, 9164.664
531.092, 11117.081
532.417, 12495.082
533.742, 13564.499
535.067, 13550.371
536.391, 12846.765
537.716, 11367.080
539.040, 9758.059
540.364, 7969.175
541.688, 6541.519
543.011, 5124.243
544.334, 4246.574
545.657, 3409.640
546.980, 2732.098
548.303, 2431.461
549.625, 2033.036
550.947, 1664.363
552.269, 1416.262
553.591, 1207.186
554.913, 1248.546
556.234, 1002.021
557.555, 961.737
558.876, 1003.807
560.197, 776.911
561.517, 752.590
562.837, 716.265
564.157, 639.357
565.477, 592.074
566.797, 575.819
568.116, 544.468
569.435, 519.069
570.754, 505.986
572.073, 490.672
573.391, 431.843
574.709, 423.163
576.027, 486.658
577.345, 487.792
578.663, 421.334
579.980, 360.598
581.297, 490.267
582.614, 350.866
583.931, 422.965
585.248, 387.208
586.564, 452.058
587.880, 459.781
589.196, 592.453
590.511, 775.566
591.827, 884.264
593.142, 945.306
594.457, 1197.531
595.772, 1250.210
597.086, 1214.304
598.401, 1060.875
599.715, 970.217
601.029, 799.723
602.343, 615.574
603.656, 464.367
604.969, 376.126
606.282, 314.939
607.595, 256.684
608.908, 217.401
610.220, 198.091
611.532, 216.753
612.844, 206.388
614.156, 212.130
615.468, 211.710
616.779, 193.756
618.090, 166.714
619.401, 322.210
620.712, 198.880
622.022, 220.440
623.332, 166.233
624.642, 117.625
625.952, 174.000
627.262, 202.510
628.571, 104.871
629.880, 125.148
631.189, 159.397
632.498, 136.771
633.807, 153.961
635.115, 185.348
636.423, 154.388
637.731, 150.506
639.039, 154.599
640.346, 108.777
641.653, 86.956
642.960, 249.964
644.267, 89.100
645.574, 150.413
646.880, 43.408
648.186, 198.928
649.492, 123.797
650.798, 96.638
652.103, 267.492
653.409, 74.302
654.714, 150.267
656.019, 50.021
657.323, 115.767
658.628, 83.741
659.932, 189.413
661.236, 31.516
662.540, 99.079
663.843, 72.646
665.147, 63.189
666.450, 74.959
667.753, 58.823
669.056, 42.283
670.358, 25.084
671.660, 36.297
672.963, 24.352
674.264, 79.177
675.566, 27.539
676.868, 113.713
678.169, 9.049
679.470, 34.155
680.771, 44.384
682.071, 49.586
683.372, 55.787
684.672, 41.005
685.972, 77.171
687.271, 51.347
688.571, 68.499
689.870, 190.646
691.169, 59.788
692.468, 57.934
693.767, 24.920
695.065, 79.205
696.364, 70.312
697.662, 34.472
698.960, 43.538
700.257, 128.585
701.555, 1.604
702.852, 79.594
704.149, 92.561
705.446, 43.496
706.742, 36.396
708.038, 67.737
709.335, 81.196
710.631, 103.982
711.926, 106.753
713.222, 93.507
714.517, 61.336
715.812, 167.088
717.107, 5.903
718.402, 106.647
719.696, 66.394
720.990, 20.131
722.284, 24.140
723.578, 83.572
724.872, 145.919
726.165, 45.132
727.458, 83.558
728.751, 94.376
730.044, 39.044
731.336, 77.165
732.629, 37.802
733.921, 119.464
735.213, 85.251
736.504, 25.144
737.796, 60.268
739.087, 52.829
740.378, 50.478
741.669, 0.152
742.960, 126.492
744.250, 92.694
745.540, 152.370
746.830, 201.958
748.120, 108.498
749.410, 250.949
750.699, 329.398
751.988, 479.818
753.277, 390.260
754.566, 399.652
755.854, 411.030
757.143, 477.499
758.431, 371.963
759.719, 357.291
761.006, 416.604
762.294, 258.898
763.581, 276.177
764.868, 177.569
766.155, 202.860
767.442, 185.199
768.728, 102.398
770.014, 204.596
771.300, 14.777
772.586, 28.878
773.872, 183.849
775.157, 7.023
776.442, 102.041
777.727, 39.251
779.012, 135.939
780.297, 4.316
781.581, 85.611
782.865, 114.611
784.149, 143.247
785.433, 148.900
786.716, 91.317
787.999, 176.994
789.282, 75.731
790.565, 2.413
791.848, 166.335
793.130, 122.012
794.413, 95.413
795.695, 87.894
796.977, 158.270
798.258, 83.095
799.540, 33.458
800.821, 102.063
802.102, 15.862
803.382, 211.891
804.663, 168.337
805.943, 105.658
807.224, 153.254
808.504, 74.464
809.783, 183.298
811.063, 112.356
812.342, 51.232
813.621, 165.438
814.900, 14.476
816.179, 170.803
817.457, 131.044
818.736, 208.324
820.014, 50.398
821.292, 20.513
822.569, 129.549
823.847, 60.479
825.124, 152.218
826.401, 142.089
827.678, 49.882
828.954, 197.963
830.231, 202.562
831.507, 109.773
832.783, 145.545
834.059, 92.379
835.334, 189.284
836.610, 186.205
837.885, 193.146
839.160, 126.934
840.435, 162.133
841.709, 150.860
842.983, 167.834
844.258, 195.220
845.532, 142.145
846.805, 119.057
848.079, 93.875
849.352, 100.865
850.625, 67.812
851.898, 214.603
853.171, 81.425
854.443, 118.599
855.715, 204.993
856.988, 91.951
858.259, 98.958
859.531, 192.629
860.803, 129.392
862.074, 41.559
863.345, 118.512
864.616, 155.556
865.886, 72.607
867.157, 49.601
868.427, 156.456
869.697, 53.688
870.967, 100.231
872.236, 77.266
873.506, 134.128
874.775, 140.794
876.044, 165.751
877.313, 7.323
878.581, 40.147
879.849, 103.395
881.118, 19.725
882.386, 167.186
883.653, 96.139
884.921, 100.626
886.188, 47.223
887.455, 14.160
888.722, 60.948
889.989, 54.484
891.255, 62.162
892.522, 28.774
893.788, 14.626
895.054, 21.383
896.319, 11.712
897.585, 5.042
898.850, 22.018
900.115, 21.000
901.380, 85.812
902.645, 43.180
903.909, 69.741
905.174, 36.700
906.438, 73.656
907.701, 90.605
908.965, 17.556
910.229, 14.499
911.492, 151.439
912.755, 138.378
914.018, 65.312
915.280, 152.243
916.543, 9.171
917.805, 16.095
919.067, 13.015
920.329, 89.932
921.590, 106.712
922.852, 105.127
924.113, 150.045
925.374, 96.521
926.635, 53.429
927.895, 59.133
929.156, 4.887
930.416, 17.560
931.676, 19.331
932.936, 25.207
934.195, 211.918
935.454, 18.753
936.714, 65.639
937.973, 37.476
939.231, 89.248
940.490, 196.120
941.748, 92.785
943.006, 18.758
944.264, 185.627
945.522, 17.506
946.780, 219.244
948.037, 75.967
949.294, 112.829
950.551, 29.538
951.808, 46.042
953.064, 152.838
954.320, 48.082
955.577, 124.950
956.832, 51.820
958.088, 101.351
959.344, 75.479
960.599, 7.874
961.854, 38.954
963.109, 14.236
964.364, 22.313
965.618, 10.860
966.872, 25.539
968.127, 22.376
969.380, 30.784
970.634, 126.048
971.888, 62.626
973.141, 29.085
974.394, 65.928
975.647, 212.567
976.900, 199.425
978.152, 286.285
979.404, 322.934
980.656, 309.812
981.908, 456.703
983.160, 453.834
984.411, 860.739
985.663, 757.630
986.914, 924.738
988.165, 981.863
989.415, 868.839
990.666, 725.784
991.916, 733.382
993.166, 710.332
994.416, 777.357
995.665, 814.318
996.915, 1041.545
998.164, 1228.515
999.413, 1085.494
1000.662, 892.537
1001.911, 829.463
1003.159, 576.584
1004.407, 253.585
1005.655, 270.592
1006.903, 137.799
1008.151, 234.864
1009.398, 141.931
1010.646, 99.013
1011.893, 68.319
1013.139, 95.309
1014.386, 172.453
1015.633, 189.600
1016.879, 159.273
1018.125, 263.871
1019.371, 71.050
1020.616, 118.190
1021.862, 105.395
1023.107, 112.604
1024.352, 199.841
1025.597, 137.080
1026.842, 84.330
1028.086, 230.939
1029.330, 85.962
1030.574, 213.235
1031.818, 129.373
1033.062, 226.651
1034.305, 298.484
1035.548, 275.788
1036.791, 273.059
1038.034, 390.197
1039.277, 267.604
1040.519, 342.087
1041.762, 369.583
1043.004, 186.882
1044.246, 393.884
1045.487, 211.158
1046.729, 377.919
1047.970, 465.210
1049.211, 345.314
1050.452, 551.574
1051.692, 599.521
1052.933, 547.012
1054.173, 694.659
1055.413, 732.249
1056.653, 823.919
1057.893, 937.562
1059.132, 1074.817
1060.371, 1182.424
1061.610, 1370.249
1062.849, 1667.633
1064.088, 1915.285
1065.326, 2362.955
1066.565, 3050.178
1067.803, 3917.494
1069.041, 5475.279
1070.278, 7902.625
1071.516, 11320.840
1072.753, 17318.330
1073.990, 24295.672
1075.227, 29773.457
1076.464, 30600.805
1077.700, 25348.160
1078.936, 18906.082
1080.173, 13402.682
1081.408, 9370.017
1082.644, 6807.725
1083.880, 5005.117
1085.115, 3872.771
1086.350, 3160.178
1087.585, 2516.211
1088.820, 2044.151
1090.054, 1731.564
1091.288, 1328.998
1092.522, 1486.998
1093.756, 1124.400
1094.990, 1131.511
1096.224, 1139.022
1097.457, 1026.413
1098.690, 994.296
1099.923, 811.675
1101.156, 769.722
1102.388, 657.454
1103.621, 554.826
1104.853, 523.084
1106.085, 449.180
1107.316, 243.262
1108.548, 361.218
1109.779, 338.242
1111.010, 295.650
1112.241, 452.678
1113.472, 160.005
1114.703, 257.316
1115.933, 204.717
1117.163, 142.722
1118.393, 319.044
1119.623, 106.542
1120.853, 104.604
1122.082, 152.646
1123.311, 170.036
1124.540, 187.906
1125.769, 175.853
1126.997, 122.659
1128.226, 91.105
1129.454, 118.753
1130.682, 6.040
1131.910, 134.607
1133.138, 152.349
1134.365, 19.728
1135.592, 17.500
1136.819, 54.912
1138.046, 74.896
1139.273, 17.532
1140.499, 79.884
1141.725, 58.221
1142.951, 166.153
1144.177, 14.387
1145.403, 282.203
1146.628, 149.364
1147.854, 68.183
1149.079, 206.092
1150.304, 53.385
1151.528, 142.620
1152.753, 119.902
1153.977, 54.330
1155.201, 196.666
1156.425, 103.745
1157.649, 311.215
1158.872, 50.338
1160.096, 236.976
1161.319, 111.430
1162.542, 208.689
1163.764, 242.118
1164.987, 319.851
1166.209, 256.984
1167.431, 318.601
1168.653, 426.304
1169.875, 428.900
1171.097, 318.110
1172.318, 474.835
1173.539, 512.304
1174.760, 390.297
1175.981, 247.287
1177.202, 345.075
1178.422, 202.312
1179.642, 159.649
1180.862, 311.956
1182.082, 248.756
1183.302, 165.945
1184.521, 203.624
1185.740, 130.503
1186.959, 287.561
1188.178, 114.810
1189.397, 141.317
1190.615, 39.042
1191.834, 146.119
1193.052, 132.535
1194.269, 129.943
1195.487, 42.683
1196.705, 273.669
1197.922, 19.972
1199.139, 126.245
1200.356, 93.547
1201.573, 100.239
1202.789, 306.563
1204.006, 31.122
1205.222, 227.634
1206.438, 93.744
1207.653, 70.445
1208.869, 176.610
1210.084, 112.912
1211.299, 109.601
1212.514, 275.921
1213.729, 173.035
1214.944, 59.003
1216.158, 284.978
1217.372, 1.300
1218.586, 157.376
1219.800, 193.175
1221.014, 92.354
1222.227, 298.094
1223.440, 235.200
1224.654, 49.873
1225.866, 376.098
1227.079, 274.417
1228.292, 130.458
1229.504, 216.178
1230.716, 146.205
1231.928, 313.269
1233.139, 160.309
1234.351, 98.487
1235.562, 244.096
1236.773, 220.053
1237.984, 75.522
1239.195, 330.891
1240.406, 126.762
1241.616, 202.090
1242.826, 247.394
1244.036, 113.058
1245.246, 268.319
1246.456, 73.560
1247.665, 149.430
1248.874, 274.624
1250.083, 39.934
1251.292, 175.297
1252.501, 220.414
1253.709, 95.699
1254.917, 330.953
1256.125, 226.015
1257.333, 191.464
1258.541, 296.886
1259.748, 151.861
1260.956, 227.050
1262.163, 81.965
1263.370, 208.055
1264.576, 202.909
1265.783, 68.100
1266.989, 74.413
1268.195, 229.106
1269.401, 113.763
1270.607, 338.696
1271.813, 203.217
1273.018, 27.705
1274.223, 162.282
1275.428, 246.630
1276.633, 20.831
1277.838, 135.441
1279.042, 219.675
1280.246, 124.208
1281.450, 208.131
1282.654, 7.833
1283.858, 167.101
1285.061, 200.458
1286.265, 34.889
1287.468, 78.745
1288.671, 42.639
1289.873, 96.229
1291.076, 250.045
1292.278, 13.770
1293.480, 77.428
1294.682, 211.074
1295.884, 4.763
1297.086, 208.366
1298.287, 78.112
1299.488, 44.818
1300.689, 248.955
1301.890, 152.217
1303.091, 25.598
1304.291, 176.724
1305.491, 80.208
1306.691, 182.984
1307.891, 64.095
1309.091, 78.762
1310.290, 201.573
1311.490, 35.658
1312.689, 77.053
1313.888, 29.773
1315.086, 67.613
1316.285, 294.928
1317.483, 97.427
1318.681, 39.872
1319.879, 202.268
1321.077, 54.606
1322.275, 136.893
1323.472, 109.115
1324.669, 48.712
1325.866, 233.394
1327.063, 135.454
1328.260, 57.462
1329.456, 199.418
1330.653, 151.232
1331.849, 103.086
1333.045, 274.760
1334.240, 46.450
1335.436, 127.656
1336.631, 340.019
1337.826, 71.510
1339.021, 72.934
1340.216, 271.566
1341.411, 283.021
1342.605, 343.821
1343.799, 65.019
1344.993, 166.028
1346.187, 247.016
1347.381, 91.749
1348.574, 188.792
1349.767, 329.905
1350.961, 130.615
1352.153, 251.182
1353.346, 212.147
1354.539, 112.802
1355.731, 193.396
1356.923, 54.270
1358.115, 265.017
1359.307, 255.246
1360.498, 165.983
1361.690, 215.815
1362.881, 287.626
1364.072, 11.738
1365.263, 298.417
1366.453, 38.980
1367.644, 100.490
1368.834, 139.318
1370.024, 0.026
1371.214, 170.271
1372.404, 241.614
1373.593, 28.180
1374.783, 31.613
1375.972, 31.148
1377.161, 0.123
1378.349, 232.604
1379.538, 145.141
1380.726, 257.861
1381.915, 410.854
1383.103, 153.402
1384.290, 305.339
1385.478, 307.361
1386.665, 189.908
1387.853, 282.124
1389.040, 304.625
1390.227, 126.961
1391.413, 518.814
1392.600, 251.053
1393.786, 231.935
1394.972, 333.670
1396.158, 245.893
1397.344, 246.468
1398.530, 367.197
1399.715, 188.680
1400.900, 189.971
1402.085, 288.271
1403.270, 228.598
1404.455, 518.275
1405.639, 69.283
1406.824, 437.957
1408.008, 196.701
1409.192, 38.576
1410.375, 343.119
1411.559, 322.002
1412.742, 182.863
1413.925, 334.816
1415.108, 284.375
1416.291, 217.607
1417.474, 397.037
1418.656, 216.812
1419.839, 165.279
1421.021, 353.510
1422.202, 104.762
1423.384, 334.080
1424.566, 322.342
1425.747, 60.775
1426.928, 269.113
1428.109, 128.377
1429.290, 305.398
1430.470, 425.521
1431.651, 341.219
1432.831, 373.049
1434.011, 318.447
1435.191, 217.221
1436.370, 326.328
1437.550, 174.246
1438.729, 211.752
1439.908, 510.367
1441.087, 319.469
1442.266, 122.674
1443.444, 472.516
1444.623, 155.311
1445.801, 153.045
1446.979, 389.928
1448.157, 129.883
1449.334, 486.715
1450.512, 244.686
1451.689, 181.557
1452.866, 408.541
1454.043, 386.156
1455.220, 162.141
1456.396, 468.564
1457.573, 255.225
1458.749, 321.711
1459.925, 466.420
1461.100, 272.355
1462.276, 435.688
1463.451, 370.896
1464.627, 173.021
1465.802, 328.252
1466.977, 364.510
1468.151, 190.451
1469.326, 485.465
1470.500, 310.098
1471.674, 316.305
1472.848, 599.635
1474.022, 134.062
1475.195, 189.730
1476.369, 475.404
1477.542, 0.982
1478.715, 395.605
1479.888, 330.910
1481.061, 184.965
1482.233, 289.354
1483.405, 144.592
1484.577, 250.764
1485.749, 396.854
1486.921, 232.598
1488.093, 238.562
1489.264, 264.506
1490.435, 200.523
1491.606, 246.711
1492.777, 133.027
1493.948, 269.379
1495.118, 425.842
1496.288, 132.229
1497.459, 199.018
1498.628, 310.455
1499.798, 127.287
1500.968, 174.408
1502.137, 311.668
1503.306, 10.896
1504.475, 286.736
1505.644, 224.580
1506.813, 152.652
1507.981, 450.986
1509.149, 150.326
1510.318, 90.180
1511.485, 382.725
1512.653, 2.168
1513.821, 230.459
1514.988, 322.248
1516.155, 96.004
1517.322, 0.000
##END=



