##NAMES=Sanbornite
##RRUFFID=R050001
##IDEAL CHEMISTRY=BaSi_2_O_5_
##LOCALITY=Empire #1 mine, Fresno County, California, USA
##OWNER=RRUFF
##SOURCE=University of Arizona Mineral Museum
##DESCRIPTION=An aggregate of white to colorless pearly anhedral plates
##STATUS=The identification of this mineral has been confirmed by X-ray diffraction and chemical analysis
##URL=rruff.info/R050001
##MEASURED CHEMISTRY=Ba_1.00_Si_2.00_O_5_
##PIN_ID=M00207
##ORIENTATION=Laser parallel to -c* (0 0 -1). Fiducial mark perpendicular to laser is parallel to -a [-1 0 0]
81.463, 0.000
82.863, 0.023
84.264, 84.634
85.664, 236.848
87.064, 214.903
88.463, 97.567
89.863, 5.523
91.262, 91.849
92.661, 152.908
94.059, 110.729
95.458, 91.404
96.856, 53.170
98.254, 112.579
99.652, 186.126
101.049, 55.520
102.446, 113.281
103.843, 103.789
105.240, 162.899
106.637, 130.385
108.033, 262.465
109.429, 319.701
110.825, 582.067
112.220, 904.824
113.616, 1278.253
115.011, 1896.397
116.406, 2641.445
117.800, 3821.086
119.195, 4872.918
120.589, 6264.655
121.983, 6570.975
123.377, 5976.571
124.770, 5237.172
126.163, 3763.380
127.556, 2903.767
128.949, 2043.088
130.342, 1530.009
131.734, 1193.792
133.126, 947.924
134.518, 813.584
135.909, 611.064
137.301, 603.203
138.692, 503.873
140.083, 404.990
141.473, 420.620
142.864, 368.805
144.254, 356.390
145.644, 329.562
147.034, 478.488
148.423, 525.582
149.812, 467.403
151.201, 424.844
152.590, 333.841
153.979, 253.984
155.367, 172.218
156.755, 118.890
158.143, 107.879
159.530, 81.514
160.918, 57.665
162.305, 88.998
163.692, 117.681
165.078, 31.566
166.465, 30.706
167.851, 18.442
169.237, 71.501
170.623, 6.982
172.008, 14.374
173.393, 1.495
174.778, 10.267
176.163, 6.962
177.548, 40.725
178.932, 4.457
180.316, 24.411
181.700, 123.305
183.083, 168.208
184.467, 114.099
185.850, 188.962
187.233, 184.781
188.616, 306.540
189.998, 445.228
191.380, 539.834
192.762, 709.353
194.144, 869.769
195.525, 1125.072
196.907, 1301.255
198.288, 1574.385
199.669, 1721.359
201.049, 1461.637
202.429, 1212.389
203.810, 765.595
205.189, 580.446
206.569, 319.448
207.949, 188.217
209.328, 185.763
210.707, 69.083
212.085, 6.514
213.464, 17.051
214.842, 13.201
216.220, 32.206
217.598, 4.638
218.976, 21.713
220.353, 3.264
221.730, 8.041
223.107, 17.793
224.483, 6.517
225.860, 17.505
227.236, 16.037
228.612, 34.919
229.988, 7.901
231.363, 35.803
232.738, 36.885
234.113, 50.132
235.488, 3.656
236.863, 55.572
238.237, 14.186
239.611, 45.097
240.985, 28.546
242.359, 4.741
243.732, 67.293
245.105, 41.226
246.478, 1.334
247.851, 4.053
249.223, 39.344
250.595, 25.630
251.967, 78.951
253.339, 114.813
254.711, 142.857
256.082, 176.790
257.453, 241.851
258.824, 246.713
260.195, 278.900
261.565, 350.478
262.935, 392.514
264.305, 536.320
265.675, 614.342
267.044, 812.503
268.414, 801.621
269.783, 918.160
271.151, 859.468
272.520, 773.393
273.888, 825.336
275.256, 802.124
276.624, 849.076
277.992, 970.502
279.359, 1018.522
280.726, 1198.299
282.093, 1331.656
283.460, 1632.720
284.827, 1940.406
286.193, 2366.770
287.559, 2821.809
288.925, 3344.525
290.290, 4020.870
291.656, 4276.901
293.021, 4648.611
294.386, 4444.019
295.750, 4133.149
297.115, 3595.052
298.479, 2908.765
299.843, 2515.307
301.207, 1935.513
302.570, 1676.572
303.933, 1350.118
305.296, 1145.156
306.659, 983.166
308.022, 821.869
309.384, 794.407
310.746, 659.696
312.108, 610.421
313.470, 577.096
314.831, 495.296
316.193, 497.100
317.554, 444.331
318.914, 458.058
320.275, 424.892
321.635, 524.024
322.995, 401.711
324.355, 415.816
325.715, 511.267
327.074, 490.155
328.434, 619.111
329.792, 753.363
331.151, 1145.542
332.510, 1449.109
333.868, 1660.155
335.226, 1489.270
336.584, 1031.752
337.941, 702.563
339.299, 549.870
340.656, 442.023
342.013, 386.378
343.370, 313.875
344.726, 305.786
346.082, 253.306
347.438, 246.170
348.794, 246.523
350.150, 227.495
351.505, 220.398
352.860, 249.064
354.215, 205.269
355.570, 276.833
356.924, 178.066
358.278, 212.365
359.632, 235.619
360.986, 222.825
362.339, 214.981
363.693, 178.087
365.046, 191.139
366.399, 177.139
367.751, 206.084
369.104, 179.408
370.456, 186.604
371.808, 181.071
373.159, 158.499
374.511, 199.852
375.862, 166.159
377.213, 194.074
378.564, 202.243
379.914, 186.235
381.265, 182.505
382.615, 140.185
383.965, 203.036
385.315, 146.382
386.664, 201.349
388.013, 186.663
389.362, 195.173
390.711, 174.658
392.060, 84.633
393.408, 135.323
394.756, 129.278
396.104, 132.186
397.451, 165.283
398.799, 130.314
400.146, 131.123
401.493, 87.552
402.840, 89.137
404.186, 162.687
405.533, 94.740
406.879, 109.948
408.225, 123.820
409.570, 101.016
410.916, 87.231
412.261, 104.801
413.606, 96.116
414.951, 69.850
416.295, 63.802
417.639, 84.909
418.983, 128.144
420.327, 42.574
421.671, 56.947
423.014, 93.380
424.357, 78.048
425.700, 135.822
427.043, 78.133
428.386, 38.702
429.728, 58.306
431.070, 100.844
432.412, 127.320
433.753, 98.740
435.095, 142.100
436.436, 154.402
437.777, 99.644
439.118, 155.827
440.458, 183.953
441.798, 182.023
443.138, 220.041
444.478, 223.007
445.818, 293.923
447.157, 259.790
448.496, 341.612
449.835, 382.387
451.174, 525.119
452.513, 654.808
453.851, 816.456
455.189, 1126.063
456.527, 1445.632
457.864, 1881.164
459.202, 2242.659
460.539, 2102.119
461.876, 1997.543
463.212, 1404.934
464.549, 1055.291
465.885, 865.618
467.221, 682.916
468.557, 580.184
469.893, 568.426
471.228, 644.640
472.563, 776.829
473.898, 1151.990
475.233, 2078.081
476.567, 2983.815
477.902, 3347.542
479.236, 2387.037
480.570, 1224.580
481.903, 793.980
483.237, 510.796
484.570, 399.104
485.903, 377.478
487.235, 305.645
488.568, 431.968
489.900, 333.943
491.232, 395.917
492.564, 372.046
493.896, 443.067
495.227, 454.049
496.558, 355.034
497.889, 390.023
499.220, 386.090
500.551, 419.087
501.881, 407.050
503.211, 443.671
504.541, 493.934
505.870, 496.350
507.200, 551.684
508.529, 550.886
509.858, 615.237
511.187, 662.266
512.515, 735.798
513.844, 853.932
515.172, 972.382
516.500, 1104.691
517.827, 1291.501
519.155, 1400.696
520.482, 1782.785
521.809, 1918.901
523.136, 2398.304
524.462, 2948.355
525.789, 3483.304
527.115, 4805.140
528.441, 5744.357
529.766, 7953.191
531.092, 10580.978
532.417, 13478.931
533.742, 18495.773
535.067, 19972.588
536.391, 22229.500
537.716, 19987.010
539.040, 16085.389
540.364, 13234.425
541.688, 9241.527
543.011, 7308.828
544.334, 5489.034
545.657, 4164.849
546.980, 3473.011
548.303, 2657.683
549.625, 2365.764
550.947, 1894.365
552.269, 1666.690
553.591, 1484.788
554.913, 1204.599
556.234, 1215.040
557.555, 1022.500
558.876, 958.983
560.197, 855.724
561.517, 810.777
562.837, 750.626
564.157, 642.215
565.477, 602.121
566.797, 586.407
568.116, 529.784
569.435, 540.378
570.754, 495.461
572.073, 452.278
573.391, 452.506
574.709, 389.823
576.027, 393.044
577.345, 407.248
578.663, 397.627
579.980, 363.685
581.297, 393.918
582.614, 365.295
583.931, 318.453
585.248, 321.987
586.564, 290.722
587.880, 268.702
589.196, 256.888
590.511, 249.125
591.827, 229.784
593.142, 238.107
594.457, 269.522
595.772, 239.991
597.086, 223.232
598.401, 259.711
599.715, 205.312
601.029, 175.908
602.343, 241.666
603.656, 184.439
604.969, 135.284
606.282, 83.122
607.595, 138.954
608.908, 159.780
610.220, 162.600
611.532, 147.415
612.844, 88.226
614.156, 129.031
615.468, 97.833
616.779, 115.628
618.090, 146.534
619.401, 126.318
620.712, 133.098
622.022, 132.872
623.332, 74.642
624.642, 169.407
625.952, 101.251
627.262, 80.007
628.571, 156.759
629.880, 96.505
631.189, 174.269
632.498, 93.007
633.807, 71.749
635.115, 70.480
636.423, 69.209
637.731, 105.026
639.039, 111.753
640.346, 104.506
641.653, 111.228
642.960, 73.949
644.267, 85.699
645.574, 100.416
646.880, 68.130
648.186, 99.906
649.492, 28.614
650.798, 56.338
652.103, 88.121
653.409, 64.860
654.714, 75.608
656.019, 46.293
657.323, 79.998
658.628, 9.698
659.932, 39.385
661.236, 60.383
662.540, 20.147
663.843, 2.182
665.147, 14.810
666.450, 3.477
667.753, 40.233
669.056, 12.106
670.358, 37.561
671.660, 33.670
672.963, 22.315
674.264, 40.952
675.566, 27.411
676.868, 28.214
678.169, 8.650
679.470, 8.708
680.771, 2.585
682.071, 15.414
683.372, 27.302
684.672, 4.089
685.972, 27.522
687.271, 18.873
688.571, 22.278
689.870, 6.306
691.169, 57.888
692.468, 5.470
693.767, 9.217
695.065, 25.610
696.364, 38.052
697.662, 7.694
698.960, 5.771
700.257, 15.760
701.555, 14.713
702.852, 35.137
704.149, 26.619
705.446, 32.978
706.742, 43.522
708.038, 26.086
709.335, 9.335
710.631, 11.047
711.926, 2.262
713.222, 18.743
714.517, 21.293
715.812, 5.749
717.107, 14.680
718.402, 9.531
719.696, 2.835
720.990, 9.162
722.284, 16.223
723.578, 16.695
724.872, 0.045
726.165, 57.385
727.458, 3.209
728.751, 37.101
730.044, 6.053
731.336, 34.451
732.629, 16.902
733.921, 42.197
735.213, 34.503
736.504, 9.842
737.796, 11.867
739.087, 49.408
740.378, 21.045
741.669, 19.292
742.960, 14.916
744.250, 28.444
745.540, 58.667
746.830, 11.982
748.120, 36.222
749.410, 84.421
750.699, 63.616
751.988, 80.806
753.277, 122.993
754.566, 133.768
755.854, 149.201
757.143, 145.116
758.431, 148.824
759.719, 135.400
761.006, 140.553
762.294, 120.699
763.581, 108.840
764.868, 103.310
766.155, 88.251
767.442, 79.892
768.728, 80.007
770.014, 56.116
771.300, 76.218
772.586, 28.314
773.872, 125.402
775.157, 59.484
776.442, 56.560
777.727, 88.630
779.012, 71.693
780.297, 34.751
781.581, 67.801
782.865, 91.845
784.149, 116.883
785.433, 48.914
786.716, 125.939
787.999, 51.958
789.282, 91.970
790.565, 58.977
791.848, 32.159
793.130, 70.152
794.413, 46.139
795.695, 59.120
796.977, 84.094
798.258, 45.062
799.540, 83.024
800.821, 92.979
802.102, 35.936
803.382, 50.879
804.663, 45.662
805.943, 30.555
807.224, 39.478
808.504, 36.444
809.783, 52.400
811.063, 44.230
812.342, 44.128
813.621, 47.829
814.900, 17.292
816.179, 29.157
817.457, 59.848
818.736, 17.537
820.014, 39.192
821.292, 38.701
822.569, 50.451
823.847, 46.668
825.124, 26.397
826.401, 15.617
827.678, 57.266
828.954, 47.989
830.231, 76.458
831.507, 3.116
832.783, 40.679
834.059, 9.091
835.334, 13.320
836.610, 16.872
837.885, 61.467
839.160, 42.791
840.435, 52.376
841.709, 55.035
842.983, 70.506
844.258, 64.988
845.532, 48.681
846.805, 3.151
848.079, 32.163
849.352, 48.359
850.625, 7.132
851.898, 72.304
853.171, 45.389
854.443, 52.850
855.715, 21.478
856.988, 28.011
858.259, 40.988
859.531, 11.601
860.803, 46.619
862.074, 62.569
863.345, 6.973
864.616, 20.672
865.886, 0.216
867.157, 11.051
868.427, 5.163
869.697, 5.939
870.967, 4.805
872.236, 0.250
873.506, 12.382
874.775, 7.032
876.044, 3.220
877.313, 8.786
878.581, 8.861
879.849, 4.401
881.118, 12.289
882.386, 7.261
883.653, 3.351
884.921, 1.708
886.188, 10.764
887.455, 7.214
888.722, 4.629
889.989, 7.932
891.255, 7.370
892.522, 21.285
893.788, 17.047
895.054, 6.628
896.319, 0.415
897.585, 42.765
898.850, 0.239
900.115, 71.402
901.380, 54.778
902.645, 53.244
903.909, 71.708
905.174, 24.170
906.438, 9.369
907.701, 70.083
908.965, 32.540
910.229, 47.995
911.492, 16.553
912.755, 73.890
914.018, 58.329
915.280, 9.767
916.543, 12.203
917.805, 11.637
919.067, 11.930
920.329, 48.494
921.590, 6.917
922.852, 28.336
924.113, 68.755
925.374, 22.057
926.635, 42.472
927.895, 10.886
929.156, 10.298
930.416, 94.709
931.676, 37.118
932.936, 78.442
934.195, 71.848
935.454, 30.252
936.714, 77.656
937.973, 6.036
939.231, 25.436
940.490, 65.828
941.748, 52.226
943.006, 5.378
944.264, 49.927
945.522, 17.318
946.780, 23.681
948.037, 13.071
949.294, 13.459
950.551, 41.818
951.808, 17.205
953.064, 0.408
954.320, 52.913
955.577, 86.295
956.832, 40.659
958.088, 23.959
959.344, 72.297
960.599, 5.374
961.854, 41.011
963.109, 44.372
964.364, 23.267
965.618, 16.903
966.872, 62.146
968.127, 83.426
969.380, 7.203
970.634, 54.844
971.888, 36.168
973.141, 34.494
974.394, 0.871
975.647, 61.240
976.900, 47.515
978.152, 45.567
979.404, 97.964
980.656, 123.362
981.908, 141.769
983.160, 103.365
984.411, 171.505
985.663, 195.697
986.914, 222.703
988.165, 277.852
989.415, 198.280
990.666, 173.712
991.916, 209.152
993.166, 168.597
994.416, 231.049
995.665, 336.510
996.915, 465.972
998.164, 690.703
999.413, 723.135
1000.662, 799.615
1001.911, 587.900
1003.159, 463.393
1004.407, 355.891
1005.655, 242.389
1006.903, 181.835
1008.151, 241.338
1009.398, 176.871
1010.646, 194.256
1011.893, 139.810
1013.139, 186.372
1014.386, 262.751
1015.633, 175.319
1016.879, 147.435
1018.125, 210.974
1019.371, 186.410
1020.616, 210.317
1021.862, 164.790
1023.107, 181.095
1024.352, 258.698
1025.597, 186.269
1026.842, 220.751
1028.086, 240.352
1029.330, 200.017
1030.574, 175.556
1031.818, 204.210
1033.062, 190.213
1034.305, 239.766
1035.548, 128.265
1036.791, 181.917
1038.034, 236.554
1039.277, 200.159
1040.519, 322.809
1041.762, 213.469
1043.004, 335.773
1044.246, 370.949
1045.487, 343.083
1046.729, 428.643
1047.970, 411.337
1049.211, 495.014
1050.452, 554.729
1051.692, 481.639
1052.933, 610.364
1054.173, 682.090
1055.413, 717.100
1056.653, 873.243
1057.893, 780.368
1059.132, 1013.225
1060.371, 1220.965
1061.610, 1219.799
1062.849, 1641.543
1064.088, 1810.329
1065.326, 2164.074
1066.565, 2800.821
1067.803, 3256.763
1069.041, 4546.840
1070.278, 6345.594
1071.516, 8512.394
1072.753, 14189.151
1073.990, 20935.908
1075.227, 34412.695
1076.464, 49379.449
1077.700, 47376.215
1078.936, 41363.129
1080.173, 27419.887
1081.408, 15866.650
1082.644, 11293.413
1083.880, 7100.178
1085.115, 5314.942
1086.350, 4287.706
1087.585, 3135.479
1088.820, 2806.243
1090.054, 2218.020
1091.288, 1795.783
1092.522, 1706.425
1093.756, 1347.188
1094.990, 1266.951
1096.224, 1132.846
1097.457, 1050.607
1098.690, 1200.590
1099.923, 997.565
1101.156, 917.365
1102.388, 806.115
1103.621, 651.874
1104.853, 570.167
1106.085, 578.924
1107.316, 444.738
1108.548, 487.216
1109.779, 335.917
1111.010, 423.828
1112.241, 393.866
1113.472, 311.611
1114.703, 291.027
1115.933, 298.789
1117.163, 249.574
1118.393, 272.213
1119.623, 214.138
1120.853, 292.233
1122.082, 365.786
1123.311, 293.663
1124.540, 257.930
1125.769, 220.683
1126.997, 182.435
1128.226, 221.374
1129.454, 200.000
1130.682, 169.095
1131.910, 133.756
1133.138, 177.500
1134.365, 204.327
1135.592, 126.984
1136.819, 203.731
1138.046, 139.371
1139.273, 142.525
1140.499, 137.358
1141.725, 127.556
1142.951, 165.970
1144.177, 112.922
1145.403, 119.907
1146.628, 116.874
1147.854, 51.881
1149.079, 111.793
1150.304, 62.879
1151.528, 60.882
1152.753, 84.761
1153.977, 50.862
1155.201, 86.707
1156.425, 80.603
1157.649, 74.296
1158.872, 87.646
1160.096, 59.039
1161.319, 102.385
1162.542, 53.097
1163.764, 69.767
1164.987, 76.477
1166.209, 45.335
1167.431, 87.059
1168.653, 70.917
1169.875, 45.931
1171.097, 59.710
1172.318, 70.349
1173.539, 75.145
1174.760, 67.680
1175.981, 19.595
1177.202, 64.540
1178.422, 31.894
1179.642, 79.865
1180.862, 54.619
1182.082, 39.261
1183.302, 78.863
1184.521, 89.724
1185.740, 46.662
1186.959, 91.667
1188.178, 69.735
1189.397, 40.288
1190.615, 10.042
1191.834, 44.014
1193.052, 112.554
1194.269, 57.581
1195.487, 20.764
1196.705, 119.018
1197.922, 5.399
1199.139, 101.086
1200.356, 78.812
1201.573, 1.597
1202.789, 101.871
1204.006, 20.499
1205.222, 26.786
1206.438, 83.346
1207.653, 42.974
1208.869, 66.896
1210.084, 46.469
1211.299, 103.246
1212.514, 136.745
1213.729, 11.333
1214.944, 73.723
1216.158, 142.759
1217.372, 50.866
1218.586, 76.318
1219.800, 69.854
1221.014, 56.185
1222.227, 144.507
1223.440, 101.867
1224.654, 23.182
1225.866, 117.558
1227.079, 113.293
1228.292, 101.812
1229.504, 92.078
1230.716, 70.566
1231.928, 68.543
1233.139, 65.282
1234.351, 75.644
1235.562, 64.867
1236.773, 102.254
1237.984, 54.462
1239.195, 72.667
1240.406, 92.984
1241.616, 38.175
1242.826, 121.359
1244.036, 17.535
1245.246, 19.704
1246.456, 61.862
1247.665, 106.168
1248.874, 115.312
1250.083, 0.552
1251.292, 80.656
1252.501, 59.772
1253.709, 3.132
1254.917, 64.106
1256.125, 37.180
1257.333, 13.525
1258.541, 72.422
1259.748, 11.480
1260.956, 91.579
1262.163, 71.590
1263.370, 74.720
1264.576, 38.710
1265.783, 12.678
1266.989, 2.234
1268.195, 49.707
1269.401, 29.374
1270.607, 96.526
1271.813, 94.396
1273.018, 35.245
1274.223, 2.899
1275.428, 13.925
1276.633, 3.263
1277.838, 81.535
1279.042, 5.677
1280.246, 2.906
1281.450, 81.826
1282.654, 18.452
1283.858, 11.249
1285.061, 59.932
1286.265, 8.624
1287.468, 14.719
1288.671, 29.906
1289.873, 24.496
1291.076, 74.070
1292.278, 11.380
1293.480, 37.145
1294.682, 15.656
1295.884, 22.149
1297.086, 43.627
1298.287, 14.092
1299.488, 21.476
1300.689, 36.934
1301.890, 97.332
1303.091, 37.717
1304.291, 43.085
1305.491, 45.570
1306.691, 75.745
1307.891, 18.955
1309.091, 74.323
1310.290, 37.588
1311.490, 68.837
1312.689, 36.074
1313.888, 17.296
1315.086, 52.501
1316.285, 101.692
1317.483, 45.868
1318.681, 37.028
1319.879, 92.151
1321.077, 20.201
1322.275, 14.708
1323.472, 24.657
1324.669, 47.384
1325.866, 72.411
1327.063, 80.422
1328.260, 24.419
1329.456, 17.399
1330.653, 12.364
1331.849, 8.312
1333.045, 122.243
1334.240, 55.151
1335.436, 7.558
1336.631, 81.442
1337.826, 8.314
1339.021, 13.830
1340.216, 15.100
1341.411, 17.286
1342.605, 36.322
1343.799, 28.103
1344.993, 21.131
1346.187, 92.340
1347.381, 41.072
1348.574, 1.597
1349.767, 48.989
1350.961, 30.681
1352.153, 6.309
1353.346, 39.976
1354.539, 13.591
1355.731, 53.237
1356.923, 29.873
1358.115, 74.304
1359.307, 15.078
1360.498, 0.475
1361.690, 53.077
1362.881, 30.664
1364.072, 78.245
1365.263, 80.970
1366.453, 65.369
1367.644, 73.940
1368.834, 56.352
1370.024, 7.923
1371.214, 8.505
1372.404, 89.067
1373.593, 26.209
1374.783, 54.799
1375.972, 43.404
1377.161, 44.906
1378.349, 133.368
1379.538, 33.794
1380.726, 128.193
1381.915, 107.638
1383.103, 46.933
1384.290, 99.897
1385.478, 142.253
1386.665, 93.073
1387.853, 98.376
1389.040, 101.906
1390.227, 38.756
1391.413, 128.661
1392.600, 84.902
1393.786, 56.956
1394.972, 119.922
1396.158, 75.145
1397.344, 37.312
1398.530, 147.233
1399.715, 18.888
1400.900, 18.283
1402.085, 66.706
1403.270, 50.979
1404.455, 111.307
1405.639, 34.956
1406.824, 66.531
1408.008, 114.352
1409.192, 34.418
1410.375, 126.569
1411.559, 113.396
1412.742, 96.946
1413.925, 137.664
1415.108, 100.664
1416.291, 53.016
1417.474, 57.307
1418.656, 78.258
1419.839, 81.651
1421.021, 119.973
1422.202, 51.593
1423.384, 123.479
1424.566, 138.867
1425.747, 81.377
1426.928, 91.398
1428.109, 44.629
1429.290, 93.227
1430.470, 88.228
1431.651, 56.825
1432.831, 140.368
1434.011, 63.148
1435.191, 67.645
1436.370, 63.225
1437.550, 72.208
1438.729, 57.460
1439.908, 159.126
1441.087, 68.877
1442.266, 52.292
1443.444, 144.212
1444.623, 45.004
1445.801, 50.878
1446.979, 140.339
1448.157, 95.490
1449.334, 93.694
1450.512, 117.034
1451.689, 79.664
1452.866, 92.986
1454.043, 120.498
1455.220, 65.956
1456.396, 128.022
1457.573, 73.178
1458.749, 79.493
1459.925, 100.425
1461.100, 95.633
1462.276, 129.553
1463.451, 110.352
1464.627, 53.448
1465.802, 83.186
1466.977, 119.255
1468.151, 68.396
1469.326, 129.464
1470.500, 103.526
1471.674, 75.528
1472.848, 89.615
1474.022, 119.674
1475.195, 48.633
1476.369, 147.762
1477.542, 108.976
1478.715, 127.241
1479.888, 116.510
1481.061, 83.821
1482.233, 108.175
1483.405, 75.514
1484.577, 172.927
1485.749, 78.351
1486.921, 109.770
1488.093, 36.185
1489.264, 130.616
1490.435, 25.065
1491.606, 96.754
1492.777, 121.507
1493.948, 120.333
1495.118, 75.223
1496.288, 97.191
1497.459, 76.250
1498.628, 90.414
1499.798, 72.683
1500.968, 43.064
1502.137, 54.570
1503.306, 55.217
1504.475, 67.032
1505.644, 69.051
1506.813, 84.287
1507.981, 109.764
1509.149, 3.522
1510.318, 63.608
1511.485, 163.086
1512.653, 38.039
1513.821, 5.426
1514.988, 111.590
1516.155, 134.736
1517.322, 147.259
1518.489, 81.544
1519.656, 0.000
##END=



