##NAMES=Sanbornite
##RRUFFID=R050001
##IDEAL CHEMISTRY=BaSi_2_O_5_
##LOCALITY=Empire #1 mine, Fresno County, California, USA
##OWNER=RRUFF
##SOURCE=University of Arizona Mineral Museum
##DESCRIPTION=An aggregate of white to colorless pearly anhedral plates
##STATUS=The identification of this mineral has been confirmed by X-ray diffraction and chemical analysis
##URL=rruff.info/R050001
##MEASURED CHEMISTRY=Ba_1.00_Si_2.00_O_5_
##PIN_ID=M00207
##ORIENTATION=Laser parallel to -c* (0 0 -1). Fiducial mark perpendicular to laser is parallel to -a [-1 0 0]
68.847, 0.000
70.250, 2.357
71.652, 124.683
73.054, 299.051
74.456, 287.472
75.858, 308.631
77.260, 335.907
78.661, 494.817
80.062, 429.153
81.463, 414.882
82.863, 228.560
84.264, 403.245
85.664, 494.062
87.064, 327.312
88.463, 92.992
89.863, 132.588
91.262, 103.406
92.661, 162.039
94.059, 103.661
95.458, 182.949
96.856, 171.655
98.254, 477.209
99.652, 791.436
101.049, 1987.686
102.446, 4547.032
103.843, 4022.473
105.240, 3865.068
106.637, 3791.679
108.033, 1816.182
109.429, 827.073
110.825, 538.224
112.220, 363.249
113.616, 480.572
115.011, 627.297
116.406, 827.158
117.800, 1297.997
119.195, 2017.679
120.589, 2257.396
121.983, 1630.410
123.377, 1036.335
124.770, 818.251
126.163, 574.849
127.556, 538.230
128.949, 338.315
130.342, 286.241
131.734, 287.182
133.126, 274.877
134.518, 256.423
135.909, 255.833
137.301, 258.673
138.692, 240.966
140.083, 401.124
141.473, 346.343
142.864, 321.675
144.254, 443.143
145.644, 407.879
147.034, 512.374
148.423, 593.256
149.812, 623.828
151.201, 546.443
152.590, 398.668
153.979, 309.719
155.367, 262.483
156.755, 168.810
158.143, 101.076
159.530, 131.165
160.918, 43.263
162.305, 49.188
163.692, 102.880
165.078, 2.645
166.465, 11.312
167.851, 22.100
169.237, 55.985
170.623, 16.078
172.008, 40.879
173.393, 9.812
174.778, 56.343
176.163, 76.601
177.548, 65.951
178.932, 71.418
180.316, 85.045
181.700, 33.896
183.083, 17.022
184.467, 55.447
185.850, 22.178
187.233, 27.224
188.616, 44.425
189.998, 20.770
191.380, 17.831
192.762, 92.629
194.144, 31.160
195.525, 37.399
196.907, 44.319
198.288, 39.906
199.669, 54.152
201.049, 22.958
202.429, 11.408
203.810, 76.202
205.189, 28.343
206.569, 75.903
207.949, 14.875
209.328, 30.206
210.707, 47.874
212.085, 6.872
213.464, 44.336
214.842, 37.404
216.220, 51.875
217.598, 87.376
218.976, 81.323
220.353, 90.113
221.730, 93.816
223.107, 94.817
224.483, 80.428
225.860, 107.005
227.236, 141.033
228.612, 161.992
229.988, 148.053
231.363, 114.010
232.738, 123.992
234.113, 162.897
235.488, 232.171
236.863, 212.429
238.237, 304.208
239.611, 300.592
240.985, 391.922
242.359, 408.198
243.732, 494.715
245.105, 540.591
246.478, 654.561
247.851, 740.501
249.223, 765.914
250.595, 840.623
251.967, 825.093
253.339, 902.965
254.711, 944.960
256.082, 929.418
257.453, 1105.737
258.824, 1074.607
260.195, 1175.509
261.565, 1248.131
262.935, 1418.083
264.305, 1689.450
265.675, 1802.882
267.044, 2070.509
268.414, 2139.274
269.783, 2339.458
271.151, 2439.794
272.520, 2353.807
273.888, 2592.320
275.256, 2482.832
276.624, 2905.769
277.992, 3113.406
279.359, 3503.688
280.726, 3987.681
282.093, 4483.060
283.460, 5463.751
284.827, 6213.654
286.193, 7703.026
287.559, 9005.704
288.925, 10757.271
290.290, 12957.191
291.656, 13675.556
293.021, 15283.217
294.386, 14169.072
295.750, 13514.140
297.115, 11718.923
298.479, 9323.312
299.843, 8157.274
301.207, 6134.862
302.570, 5374.000
303.933, 4318.494
305.296, 3497.031
306.659, 3125.822
308.022, 2547.224
309.384, 2315.493
310.746, 2017.324
312.108, 1925.796
313.470, 1737.463
314.831, 1614.129
316.193, 1548.339
317.554, 1423.524
318.914, 1377.880
320.275, 1210.759
321.635, 1154.553
322.995, 1086.322
324.355, 1057.546
325.715, 1039.990
327.074, 1083.609
328.434, 1206.298
329.792, 1361.034
331.151, 1765.281
332.510, 2390.045
333.868, 2541.806
335.226, 2395.472
336.584, 1769.860
337.941, 1391.139
339.299, 1292.340
340.656, 1245.290
342.013, 1403.928
343.370, 1304.243
344.726, 1167.723
346.082, 923.437
347.438, 775.231
348.794, 693.644
350.150, 564.170
351.505, 553.404
352.860, 516.748
354.215, 497.595
355.570, 474.593
356.924, 462.060
358.278, 436.470
359.632, 434.667
360.986, 435.971
362.339, 399.192
363.693, 381.636
365.046, 290.480
366.399, 298.091
367.751, 320.678
369.104, 254.314
370.456, 300.012
371.808, 267.597
373.159, 240.280
374.511, 228.911
375.862, 186.648
377.213, 275.613
378.564, 198.822
379.914, 187.209
381.265, 247.022
382.615, 190.767
383.965, 212.571
385.315, 170.404
386.664, 182.239
388.013, 208.942
389.362, 193.859
390.711, 184.054
392.060, 214.421
393.408, 196.676
394.756, 166.641
396.104, 199.693
397.451, 208.071
398.799, 134.860
400.146, 146.348
401.493, 113.123
402.840, 163.721
404.186, 200.549
405.533, 191.300
406.879, 131.274
408.225, 129.294
409.570, 165.646
410.916, 185.220
412.261, 178.774
413.606, 197.512
414.951, 130.059
416.295, 154.819
417.639, 143.640
418.983, 172.283
420.327, 172.559
421.671, 150.599
423.014, 165.669
424.357, 137.637
425.700, 149.506
427.043, 120.274
428.386, 140.940
429.728, 180.509
431.070, 156.983
432.412, 212.366
433.753, 149.663
435.095, 141.872
436.436, 222.997
437.777, 178.043
439.118, 173.016
440.458, 222.921
441.798, 283.761
443.138, 244.538
444.478, 202.250
445.818, 277.896
447.157, 288.478
448.496, 366.001
449.835, 357.468
451.174, 465.884
452.513, 636.255
453.851, 747.588
455.189, 1028.887
456.527, 1184.158
457.864, 1492.406
459.202, 1887.750
460.539, 1814.953
461.876, 1850.136
463.212, 1410.302
464.549, 1217.451
465.885, 1087.587
467.221, 962.706
468.557, 1092.810
469.893, 1284.975
471.228, 1726.049
472.563, 2569.109
473.898, 4209.177
475.233, 8685.277
476.567, 13223.350
477.902, 16151.413
479.236, 11369.392
480.570, 5526.410
481.903, 3058.372
483.237, 1660.334
484.570, 1240.423
485.903, 920.425
487.235, 710.397
488.568, 633.433
489.900, 528.530
491.232, 618.529
492.564, 607.541
493.896, 576.566
495.227, 570.793
496.558, 488.847
497.889, 462.909
499.220, 506.003
500.551, 441.108
501.881, 546.348
503.211, 530.691
504.541, 613.110
505.870, 543.691
507.200, 693.205
508.529, 683.675
509.858, 686.446
511.187, 868.321
512.515, 830.728
513.844, 1034.077
515.172, 1120.646
516.500, 1271.098
517.827, 1526.173
519.155, 1573.266
520.482, 2032.768
521.809, 2274.403
523.136, 2659.962
524.462, 3258.092
525.789, 3882.366
527.115, 5334.445
528.441, 6306.687
529.766, 8805.030
531.092, 11603.520
532.417, 14892.153
533.742, 20650.127
535.067, 22268.705
536.391, 25236.275
537.716, 23093.902
539.040, 18531.100
540.364, 15498.389
541.688, 10575.804
543.011, 8563.169
544.334, 6268.052
545.657, 4854.301
546.980, 4076.569
548.303, 3042.134
549.625, 2696.897
550.947, 2164.012
552.269, 1760.784
553.591, 1667.369
554.913, 1339.454
556.234, 1350.722
557.555, 1062.952
558.876, 1036.641
560.197, 1002.091
561.517, 817.119
562.837, 896.911
564.157, 661.524
565.477, 709.073
566.797, 628.604
568.116, 602.110
569.435, 668.814
570.754, 531.534
572.073, 597.771
573.391, 577.659
574.709, 488.689
576.027, 496.266
577.345, 439.904
578.663, 457.623
579.980, 366.366
581.297, 323.090
582.614, 361.787
583.931, 295.623
585.248, 327.379
586.564, 243.926
587.880, 266.574
589.196, 279.410
590.511, 183.161
591.827, 257.163
593.142, 242.918
594.457, 134.658
595.772, 205.758
597.086, 174.686
598.401, 197.612
599.715, 145.763
601.029, 140.185
602.343, 162.459
603.656, 120.572
604.969, 120.019
606.282, 102.527
607.595, 131.241
608.908, 177.955
610.220, 85.669
611.532, 156.384
612.844, 117.098
614.156, 122.813
615.468, 79.531
616.779, 50.250
618.090, 88.968
619.401, 123.690
620.712, 146.413
622.022, 142.137
623.332, 93.862
624.642, 156.587
625.952, 101.313
627.262, 56.040
628.571, 128.767
629.880, 83.496
631.189, 66.303
632.498, 53.034
633.807, 55.765
635.115, 52.944
636.423, 75.229
637.731, 57.961
639.039, 100.694
640.346, 92.428
641.653, 38.163
642.960, 58.897
644.267, 100.632
645.574, 53.367
646.880, 39.103
648.186, 108.100
649.492, 75.836
650.798, 66.874
652.103, 18.703
653.409, 103.897
654.714, 75.661
656.019, 60.395
657.323, 93.128
658.628, 40.860
659.932, 23.592
661.236, 13.389
662.540, 2.885
663.843, 4.839
665.147, 27.443
666.450, 12.737
667.753, 11.342
669.056, 14.959
670.358, 16.216
671.660, 22.472
672.963, 63.795
674.264, 35.142
675.566, 57.501
676.868, 37.321
678.169, 14.980
679.470, 4.599
680.771, 37.776
682.071, 25.842
683.372, 19.247
684.672, 18.647
685.972, 1.066
687.271, 22.471
688.571, 26.947
689.870, 13.142
691.169, 25.772
692.468, 5.602
693.767, 13.987
695.065, 45.526
696.364, 20.067
697.662, 58.622
698.960, 20.164
700.257, 45.176
701.555, 14.656
702.852, 55.857
704.149, 18.797
705.446, 1.309
706.742, 6.805
708.038, 37.303
709.335, 24.178
710.631, 25.796
711.926, 5.331
713.222, 79.873
714.517, 18.207
715.812, 11.792
717.107, 5.080
718.402, 15.692
719.696, 28.316
720.990, 45.750
722.284, 20.296
723.578, 31.078
724.872, 23.488
726.165, 6.785
727.458, 3.535
728.751, 28.153
730.044, 33.793
731.336, 76.770
732.629, 45.049
733.921, 59.315
735.213, 57.104
736.504, 46.020
737.796, 110.333
739.087, 19.601
740.378, 46.406
741.669, 94.667
742.960, 94.179
744.250, 158.360
745.540, 191.614
746.830, 170.037
748.120, 332.367
749.410, 372.099
750.699, 553.675
751.988, 859.914
753.277, 987.966
754.566, 1332.289
755.854, 1218.516
757.143, 1137.737
758.431, 875.954
759.719, 622.166
761.006, 521.371
762.294, 440.571
763.581, 358.763
764.868, 315.949
766.155, 245.127
767.442, 182.299
768.728, 179.463
770.014, 179.089
771.300, 180.237
772.586, 162.258
773.872, 174.209
775.157, 143.337
776.442, 104.479
777.727, 109.592
779.012, 107.697
780.297, 157.795
781.581, 132.886
782.865, 86.895
784.149, 166.329
785.433, 54.397
786.716, 129.433
787.999, 150.407
789.282, 81.388
790.565, 167.352
791.848, 137.381
793.130, 94.355
794.413, 73.369
795.695, 72.375
796.977, 81.249
798.258, 102.202
799.540, 127.185
800.821, 170.104
802.102, 36.957
803.382, 102.914
804.663, 35.864
805.943, 48.802
807.224, 30.537
808.504, 63.455
809.783, 92.365
811.063, 77.249
812.342, 104.143
813.621, 70.931
814.900, 53.640
816.179, 87.299
817.457, 68.826
818.736, 103.435
820.014, 84.101
821.292, 34.467
822.569, 91.078
823.847, 55.166
825.124, 53.186
826.401, 102.938
827.678, 69.744
828.954, 62.898
830.231, 35.956
831.507, 49.625
832.783, 65.194
834.059, 57.505
835.334, 29.613
836.610, 68.034
837.885, 52.721
839.160, 72.414
840.435, 50.776
841.709, 8.253
842.983, 29.485
844.258, 10.312
845.532, 14.535
846.805, 39.619
848.079, 94.073
849.352, 78.653
850.625, 5.120
851.898, 71.730
853.171, 3.174
854.443, 88.207
855.715, 87.717
856.988, 18.278
858.259, 58.673
859.531, 19.825
860.803, 47.599
862.074, 74.861
863.345, 12.252
864.616, 110.034
865.886, 64.787
867.157, 17.629
868.427, 30.717
869.697, 13.104
870.967, 45.788
872.236, 33.931
873.506, 14.420
874.775, 1.054
876.044, 13.853
877.313, 18.571
878.581, 30.143
879.849, 6.790
881.118, 7.025
882.386, 2.726
883.653, 6.104
884.921, 34.499
886.188, 8.206
887.455, 0.133
888.722, 19.549
889.989, 16.700
891.255, 54.044
892.522, 0.850
893.788, 50.391
895.054, 5.727
896.319, 24.942
897.585, 32.367
898.850, 12.327
900.115, 12.963
901.380, 0.750
902.645, 15.470
903.909, 64.794
905.174, 6.946
906.438, 11.303
907.701, 74.547
908.965, 19.787
910.229, 78.024
911.492, 41.258
912.755, 37.488
914.018, 45.714
915.280, 68.937
916.543, 75.156
917.805, 86.372
919.067, 45.584
920.329, 54.793
921.590, 3.001
922.852, 103.197
924.113, 92.392
925.374, 9.416
926.635, 72.766
927.895, 13.945
929.156, 61.120
930.416, 56.292
931.676, 79.462
932.936, 85.628
934.195, 50.793
935.454, 3.044
936.714, 59.111
937.973, 44.188
939.231, 36.339
940.490, 56.488
941.748, 46.634
943.006, 17.779
944.264, 38.922
945.522, 16.063
946.780, 125.202
948.037, 52.338
949.294, 105.473
950.551, 73.606
951.808, 48.738
953.064, 78.867
954.320, 45.733
955.577, 60.239
956.832, 52.681
958.088, 61.712
959.344, 110.374
960.599, 86.464
961.854, 122.583
963.109, 102.700
964.364, 77.816
965.618, 96.930
966.872, 71.977
968.127, 39.090
969.380, 55.201
970.634, 98.316
971.888, 4.566
973.141, 75.172
974.394, 86.304
975.647, 51.387
976.900, 70.468
978.152, 111.611
979.404, 32.767
980.656, 58.930
981.908, 95.899
983.160, 60.031
984.411, 83.210
985.663, 109.384
986.914, 179.242
988.165, 180.435
989.415, 175.623
990.666, 153.836
991.916, 262.036
993.166, 248.302
994.416, 335.290
995.665, 497.711
996.915, 621.329
998.164, 912.530
999.413, 1034.779
1000.662, 1125.029
1001.911, 931.268
1003.159, 625.520
1004.407, 509.656
1005.655, 391.920
1006.903, 295.190
1008.151, 293.034
1009.398, 276.306
1010.646, 213.205
1011.893, 203.622
1013.139, 236.913
1014.386, 308.661
1015.633, 221.963
1016.879, 257.274
1018.125, 268.357
1019.371, 211.685
1020.616, 252.720
1021.862, 259.077
1023.107, 258.441
1024.352, 365.612
1025.597, 243.290
1026.842, 262.231
1028.086, 429.547
1029.330, 198.824
1030.574, 232.236
1031.818, 300.348
1033.062, 236.022
1034.305, 286.188
1035.548, 223.639
1036.791, 289.104
1038.034, 337.060
1039.277, 277.887
1040.519, 391.320
1041.762, 337.943
1043.004, 398.881
1044.246, 417.379
1045.487, 312.683
1046.729, 496.262
1047.970, 414.833
1049.211, 500.170
1050.452, 601.673
1051.692, 648.029
1052.933, 744.209
1054.173, 745.728
1055.413, 745.432
1056.653, 982.883
1057.893, 929.465
1059.132, 1163.052
1060.371, 1388.582
1061.610, 1452.115
1062.849, 1982.649
1064.088, 2069.185
1065.326, 2493.723
1066.565, 3255.263
1067.803, 3770.812
1069.041, 5529.364
1070.278, 7491.917
1071.516, 9949.106
1072.753, 16766.670
1073.990, 24164.232
1075.227, 40300.988
1076.464, 57958.551
1077.700, 55826.102
1078.936, 49843.688
1080.173, 32801.254
1081.408, 18818.945
1082.644, 13326.587
1083.880, 8444.246
1085.115, 6291.487
1086.350, 5130.088
1087.585, 3646.695
1088.820, 3310.375
1090.054, 2539.982
1091.288, 2179.673
1092.522, 2127.383
1093.756, 1635.996
1094.990, 1643.612
1096.224, 1490.339
1097.457, 1367.959
1098.690, 1423.681
1099.923, 1249.305
1101.156, 1087.014
1102.388, 948.646
1103.621, 775.281
1104.853, 750.009
1106.085, 625.649
1107.316, 483.292
1108.548, 562.958
1109.779, 431.607
1111.010, 373.258
1112.241, 361.919
1113.472, 292.582
1114.703, 331.330
1115.933, 336.018
1117.163, 307.688
1118.393, 328.409
1119.623, 343.103
1120.853, 355.618
1122.082, 441.474
1123.311, 422.154
1124.540, 358.029
1125.769, 256.092
1126.997, 243.803
1128.226, 293.640
1129.454, 229.328
1130.682, 258.019
1131.910, 211.886
1133.138, 234.726
1134.365, 277.527
1135.592, 132.237
1136.819, 156.200
1138.046, 216.220
1139.273, 108.915
1140.499, 120.726
1141.725, 113.983
1142.951, 110.692
1144.177, 135.722
1145.403, 129.663
1146.628, 81.370
1147.854, 101.374
1149.079, 30.228
1150.304, 64.003
1151.528, 50.729
1152.753, 59.443
1153.977, 90.250
1155.201, 49.053
1156.425, 57.767
1157.649, 105.886
1158.872, 10.302
1160.096, 75.492
1161.319, 42.358
1162.542, 34.071
1163.764, 86.980
1164.987, 75.691
1166.209, 49.402
1167.431, 62.898
1168.653, 79.607
1169.875, 102.499
1171.097, 76.585
1172.318, 67.289
1173.539, 80.995
1174.760, 51.862
1175.981, 13.430
1177.202, 93.436
1178.422, 47.347
1179.642, 111.163
1180.862, 107.269
1182.082, 63.255
1183.302, 113.705
1184.521, 52.496
1185.740, 47.323
1186.959, 71.308
1188.178, 41.798
1189.397, 48.923
1190.615, 17.631
1191.834, 4.498
1193.052, 111.210
1194.269, 3.358
1195.487, 51.200
1196.705, 1.899
1197.922, 8.370
1199.139, 115.306
1200.356, 55.986
1201.573, 66.718
1202.789, 18.392
1204.006, 10.405
1205.222, 10.070
1206.438, 45.832
1207.653, 31.655
1208.869, 111.307
1210.084, 77.971
1211.299, 57.722
1212.514, 99.361
1213.729, 34.738
1214.944, 72.369
1216.158, 108.997
1217.372, 7.910
1218.586, 70.577
1219.800, 73.276
1221.014, 71.237
1222.227, 74.845
1223.440, 80.538
1224.654, 49.237
1225.866, 71.834
1227.079, 16.801
1228.292, 27.384
1229.504, 25.004
1230.716, 62.026
1231.928, 69.665
1233.139, 41.231
1234.351, 24.847
1235.562, 44.403
1236.773, 23.962
1237.984, 20.546
1239.195, 68.096
1240.406, 46.795
1241.616, 19.340
1242.826, 53.882
1244.036, 22.500
1245.246, 75.037
1246.456, 27.572
1247.665, 74.103
1248.874, 79.632
1250.083, 28.158
1251.292, 109.816
1252.501, 92.321
1253.709, 46.964
1254.917, 107.460
1256.125, 60.109
1257.333, 78.399
1258.541, 85.877
1259.748, 35.561
1260.956, 51.184
1262.163, 100.627
1263.370, 45.286
1264.576, 52.719
1265.783, 72.147
1266.989, 42.267
1268.195, 82.148
1269.401, 16.549
1270.607, 4.098
1271.813, 54.480
1273.018, 24.858
1274.223, 121.223
1275.428, 61.570
1276.633, 9.086
1277.838, 27.247
1279.042, 37.554
1280.246, 59.840
1281.450, 13.114
1282.654, 26.638
1283.858, 86.591
1285.061, 37.788
1286.265, 14.023
1287.468, 64.149
1288.671, 11.315
1289.873, 17.467
1291.076, 83.610
1292.278, 13.746
1293.480, 32.871
1294.682, 52.990
1295.884, 65.101
1297.086, 89.230
1298.287, 47.305
1299.488, 48.371
1300.689, 92.427
1301.890, 9.474
1303.091, 47.603
1304.291, 51.469
1305.491, 34.459
1306.691, 74.543
1307.891, 6.484
1309.091, 75.476
1310.290, 93.425
1311.490, 15.635
1312.689, 76.288
1313.888, 29.192
1315.086, 8.915
1316.285, 90.960
1317.483, 92.824
1318.681, 36.659
1319.879, 99.480
1321.077, 36.993
1322.275, 27.791
1323.472, 50.561
1324.669, 24.683
1325.866, 21.051
1327.063, 1.772
1328.260, 35.521
1329.456, 48.162
1330.653, 21.832
1331.849, 32.491
1333.045, 66.992
1334.240, 51.371
1335.436, 31.239
1336.631, 67.792
1337.826, 8.379
1339.021, 36.889
1340.216, 71.452
1341.411, 62.928
1342.605, 97.190
1343.799, 3.280
1344.993, 61.234
1346.187, 98.739
1347.381, 15.213
1348.574, 75.641
1349.767, 51.057
1350.961, 35.523
1352.153, 110.980
1353.346, 71.499
1354.539, 49.941
1355.731, 138.399
1356.923, 14.704
1358.115, 109.711
1359.307, 126.119
1360.498, 7.480
1361.690, 64.812
1362.881, 56.199
1364.072, 15.583
1365.263, 99.964
1366.453, 55.448
1367.644, 52.793
1368.834, 76.136
1370.024, 40.524
1371.214, 93.706
1372.404, 66.964
1373.593, 10.212
1374.783, 60.524
1375.972, 86.368
1377.161, 64.193
1378.349, 153.272
1379.538, 77.234
1380.726, 71.366
1381.915, 115.378
1383.103, 43.386
1384.290, 174.398
1385.478, 116.387
1386.665, 62.461
1387.853, 110.506
1389.040, 86.551
1390.227, 0.515
1391.413, 144.477
1392.600, 139.401
1393.786, 44.793
1394.972, 167.519
1396.158, 46.985
1397.344, 131.728
1398.530, 42.247
1399.715, 14.176
1400.900, 114.354
1402.085, 30.391
1403.270, 37.163
1404.455, 165.540
1405.639, 30.026
1406.824, 101.229
1408.008, 102.878
1409.192, 41.500
1410.375, 78.115
1411.559, 118.173
1412.742, 43.566
1413.925, 143.646
1415.108, 104.316
1416.291, 77.509
1417.474, 122.947
1418.656, 124.541
1419.839, 101.902
1421.021, 115.632
1422.202, 100.934
1423.384, 116.454
1424.566, 90.089
1425.747, 119.770
1426.928, 114.907
1428.109, 84.871
1429.290, 144.168
1430.470, 204.321
1431.651, 67.943
1432.831, 156.067
1434.011, 169.703
1435.191, 85.441
1436.370, 113.590
1437.550, 97.569
1438.729, 48.634
1439.908, 186.405
1441.087, 108.209
1442.266, 66.589
1443.444, 152.239
1444.623, 21.764
1445.801, 54.551
1446.979, 223.378
1448.157, 24.077
1449.334, 100.841
1450.512, 72.503
1451.689, 112.858
1452.866, 149.311
1454.043, 114.874
1455.220, 61.149
1456.396, 169.250
1457.573, 80.336
1458.749, 111.326
1459.925, 173.287
1461.100, 49.572
1462.276, 153.224
1463.451, 202.361
1464.627, 126.989
1465.802, 137.578
1466.977, 169.533
1468.151, 123.484
1469.326, 178.391
1470.500, 93.384
1471.674, 93.450
1472.848, 123.608
1474.022, 120.808
1475.195, 99.986
1476.369, 91.138
1477.542, 28.247
1478.715, 133.209
1479.888, 103.363
1481.061, 29.489
1482.233, 133.320
1483.405, 16.174
1484.577, 58.395
1485.749, 112.595
1486.921, 29.811
1488.093, 56.069
1489.264, 135.429
1490.435, 45.942
1491.606, 84.505
1492.777, 111.146
1493.948, 11.848
1495.118, 93.617
1496.288, 23.445
1497.459, 11.661
1498.628, 77.240
1499.798, 54.316
1500.968, 100.100
1502.137, 124.442
1503.306, 61.944
1504.475, 126.620
1505.644, 92.479
1506.813, 11.681
1507.981, 140.975
1509.149, 102.543
1510.318, 102.211
1511.485, 196.832
1512.653, 54.423
1513.821, 65.696
1514.988, 208.104
1516.155, 0.455
1517.322, 0.000
##END=



