##NAMES=Scheelite
##RRUFFID=R040172
##IDEAL CHEMISTRY=CaW^6+^O_4_
##LOCALITY=Sonora, Mexico
##OWNER=RRUFF
##SOURCE=University of Arizona Mineral Museum
##DESCRIPTION=Colorless water worn single crystal
##STATUS=The identification of this mineral has been confirmed by X-ray diffraction and chemical analysis
##URL=rruff.info/R040172
##MEASURED CHEMISTRY=Ca_1.01_W_1.00_O_4_
##PIN_ID=L00480
##ORIENTATION=Laser parallel to -c* (0 0 -1). Fiducial mark perpendicular to laser is parallel to a [1 0 0]
57.445, 0.000
58.850, 13.535
60.254, 15.055
61.659, 11.099
63.063, 14.977
64.467, 12.504
65.871, 52.356
67.274, 43.935
68.678, 29.059
70.081, 14.678
71.484, 2.742
72.886, 3.792
74.288, 17.963
75.690, 30.196
77.092, 74.658
78.494, 209.397
79.895, 493.394
81.296, 1348.626
82.697, 4054.077
84.097, 6850.726
85.498, 7823.563
86.898, 5338.570
88.298, 2903.739
89.697, 1833.059
91.097, 1256.522
92.496, 1098.119
93.895, 881.844
95.293, 826.691
96.692, 751.655
98.090, 646.732
99.488, 542.916
100.885, 435.200
102.283, 392.578
103.680, 350.041
105.077, 315.583
106.473, 328.199
107.870, 319.886
109.266, 304.640
110.662, 288.459
112.057, 302.341
113.453, 327.283
114.848, 326.284
116.243, 345.342
117.638, 357.454
119.032, 332.621
120.426, 248.841
121.820, 216.112
123.214, 208.435
124.608, 184.808
126.001, 171.018
127.394, 161.704
128.787, 156.227
130.179, 141.799
131.571, 154.419
132.963, 152.087
134.355, 138.801
135.747, 140.560
137.138, 117.364
138.529, 128.213
139.920, 135.104
141.311, 114.030
142.701, 111.967
144.091, 110.913
145.481, 107.868
146.870, 95.832
148.260, 74.806
149.649, 107.779
151.038, 99.759
152.426, 88.755
153.815, 103.770
155.203, 84.803
156.591, 96.857
157.979, 84.930
159.366, 76.025
160.753, 101.141
162.140, 69.278
163.527, 75.437
164.913, 50.619
166.300, 69.822
167.686, 81.048
169.071, 73.296
170.457, 100.566
171.842, 82.859
173.227, 79.174
174.612, 80.511
175.996, 48.870
177.381, 65.251
178.765, 93.654
180.149, 70.079
181.532, 71.537
182.915, 86.017
184.299, 84.524
185.681, 94.054
187.064, 91.612
188.446, 110.195
189.828, 99.799
191.210, 120.427
192.592, 140.094
193.973, 173.790
195.355, 184.527
196.736, 258.298
198.116, 315.090
199.497, 409.905
200.877, 512.743
202.257, 712.603
203.637, 1013.492
205.016, 1475.399
206.395, 2269.335
207.774, 3450.288
209.153, 5340.257
210.532, 6832.244
211.910, 7411.250
213.288, 6634.270
214.666, 4703.309
216.043, 3113.372
217.421, 2093.457
218.798, 1454.569
220.175, 1087.695
221.551, 845.839
222.928, 695.007
224.304, 581.357
225.680, 526.726
227.055, 439.102
228.431, 346.472
229.806, 300.844
231.181, 199.225
232.556, 211.520
233.930, 162.860
235.304, 161.242
236.678, 107.663
238.052, 104.026
239.426, 108.201
240.799, 98.675
242.172, 77.238
243.545, 77.832
244.917, 52.455
246.290, 43.107
247.662, 30.786
249.034, 22.491
250.405, 39.221
251.777, 27.976
253.148, 44.755
254.519, 40.558
255.889, 37.382
257.260, 26.227
258.630, 28.937
260.000, 36.980
261.370, 28.886
262.739, 37.811
264.108, 34.754
265.477, 53.721
266.846, 47.154
268.215, 47.705
269.583, 42.723
270.951, 57.756
272.319, 59.806
273.686, 82.871
275.054, 44.951
276.421, 64.047
277.788, 63.157
279.154, 89.282
280.521, 111.421
281.887, 90.575
283.253, 131.746
284.619, 135.931
285.984, 122.130
287.349, 154.342
288.714, 163.567
290.079, 184.804
291.444, 219.054
292.808, 224.316
294.172, 267.590
295.536, 265.877
296.899, 302.175
298.263, 350.484
299.626, 336.804
300.989, 429.134
302.351, 420.474
303.714, 491.824
305.076, 547.185
306.438, 614.556
307.799, 651.475
309.161, 733.888
310.522, 839.287
311.883, 906.087
313.244, 1099.505
314.604, 1189.776
315.965, 1381.212
317.325, 1558.768
318.684, 1734.229
320.044, 2100.697
321.403, 2418.476
322.762, 2989.087
324.121, 3600.878
325.480, 4373.219
326.838, 5596.732
328.196, 7161.385
329.554, 9363.762
330.912, 11374.484
332.270, 13964.689
333.627, 14994.931
334.984, 14264.492
336.341, 13084.062
337.697, 10544.148
339.053, 8361.732
340.409, 6512.450
341.765, 5031.011
343.121, 4052.618
344.476, 3309.232
345.831, 2674.125
347.186, 2243.828
348.541, 1903.464
349.895, 1690.440
351.250, 1394.198
352.604, 1276.853
353.957, 1125.760
355.311, 1078.424
356.664, 922.093
358.017, 870.767
359.370, 819.447
360.722, 759.895
362.075, 709.667
363.427, 657.848
364.779, 616.057
366.130, 569.773
367.482, 532.730
368.833, 515.842
370.184, 484.019
371.535, 485.222
372.885, 490.527
374.235, 466.874
375.585, 482.575
376.935, 489.573
378.285, 516.301
379.634, 522.031
380.983, 563.459
382.332, 609.194
383.680, 686.581
385.029, 796.575
386.377, 834.315
387.725, 1003.061
389.073, 1142.438
390.420, 1383.262
391.767, 1691.031
393.114, 2148.907
394.461, 2908.686
395.808, 3873.475
397.154, 5531.270
398.500, 7538.067
399.846, 8976.965
401.191, 9612.813
402.537, 7988.636
403.882, 5857.700
405.227, 3967.627
406.571, 2638.463
407.916, 1854.310
409.260, 1310.190
410.604, 934.035
411.948, 721.901
413.291, 545.753
414.635, 451.934
415.978, 365.792
417.321, 334.652
418.663, 280.518
420.006, 218.386
421.348, 189.258
422.690, 179.200
424.031, 145.082
425.373, 121.973
426.714, 136.049
428.055, 112.945
429.396, 105.842
430.736, 113.741
432.077, 97.670
433.417, 79.577
434.757, 81.480
436.096, 84.384
437.436, 78.289
438.775, 56.349
440.114, 91.255
441.452, 42.162
442.791, 65.472
444.129, 52.949
445.467, 29.323
446.805, 48.266
448.142, 43.182
449.480, 18.300
450.817, 39.320
452.154, 18.249
453.490, 14.246
454.827, 30.301
456.163, 26.432
457.499, 31.440
458.835, 18.449
460.170, 18.362
461.505, 2.274
462.840, 24.727
464.175, 10.174
465.510, 3.179
466.844, 4.182
468.178, 14.921
469.512, 1.030
470.846, 9.959
472.179, 11.153
473.512, 11.729
474.845, 19.390
476.178, 8.482
477.511, 3.649
478.843, 6.640
480.175, 7.504
481.507, 7.396
482.839, 3.129
484.170, 24.275
485.501, 16.425
486.832, 3.424
488.163, 20.749
489.493, 15.800
490.823, 20.996
492.153, 12.089
493.483, 12.307
494.813, 4.772
496.142, 10.552
497.471, 8.512
498.800, 11.247
500.129, 0.998
501.457, 15.246
502.785, 31.967
504.113, 16.778
505.441, 19.240
506.769, 1.117
508.096, 6.890
509.423, 3.093
510.750, 15.390
512.077, 4.299
513.403, 1.006
514.729, 12.672
516.055, 13.458
517.381, 8.214
518.706, 8.141
520.032, 8.196
521.357, 3.466
522.681, 20.112
524.006, 9.755
525.330, 6.393
526.655, 1.027
527.978, 1.195
529.302, 1.971
530.626, 2.118
531.949, 3.517
533.272, 3.926
534.595, 9.345
535.917, 2.222
537.239, 12.783
538.562, 14.339
539.883, 4.110
541.205, 22.430
542.527, 3.035
543.848, 12.510
545.169, 13.000
546.489, 15.504
547.810, 1.996
549.130, 9.493
550.450, 30.324
551.770, 9.802
553.090, 27.275
554.409, 17.433
555.728, 27.896
557.047, 20.353
558.366, 11.805
559.685, 14.250
561.003, 16.690
562.321, 8.322
563.639, 12.748
564.956, 18.169
566.274, 17.583
567.591, 15.992
568.908, 22.395
570.225, 17.848
571.541, 26.240
572.857, 7.626
574.173, 35.003
575.489, 44.374
576.805, 41.228
578.120, 25.588
579.435, 28.143
580.750, 17.954
582.065, 25.089
583.380, 42.173
584.694, 4.343
586.008, 29.976
587.322, 58.283
588.635, 44.584
589.949, 23.879
591.262, 26.167
592.575, 40.449
593.887, 28.725
595.200, 36.995
596.512, 18.258
597.824, 36.514
599.136, 31.763
600.447, 11.494
601.759, 7.727
603.070, 10.891
604.381, 27.103
605.692, 36.520
607.002, 18.719
608.312, 22.909
609.622, 29.128
610.932, 24.305
612.242, 21.474
613.551, 18.635
614.860, 23.788
616.169, 23.741
617.478, 37.072
618.786, 35.204
620.094, 24.329
621.402, 38.473
622.710, 22.584
624.018, 22.689
625.325, 41.787
626.632, 40.338
627.939, 22.400
629.246, 35.477
630.552, 31.156
631.859, 36.221
633.165, 43.435
634.471, 38.109
635.776, 7.577
637.082, 32.451
638.387, 15.472
639.692, 10.186
640.996, 32.068
642.301, 25.772
643.605, 23.929
644.909, 36.914
646.213, 15.764
647.516, 39.891
648.820, 14.675
650.123, 32.976
651.426, 7.244
652.729, 20.190
654.031, 11.130
655.333, 43.554
656.636, 29.482
657.937, 33.281
659.239, 2.234
660.540, 13.142
661.842, 6.910
663.142, 1.335
664.443, 12.474
665.744, 4.352
667.044, 18.889
668.344, 21.644
669.644, 14.503
670.944, 29.110
672.243, 7.960
673.542, 8.804
674.841, 3.643
676.140, 17.475
677.438, 12.538
678.737, 29.277
680.035, 20.095
681.333, 27.357
682.630, 18.701
683.928, 39.252
685.225, 22.647
686.522, 37.976
687.819, 32.279
689.115, 12.477
690.412, 38.634
691.708, 12.434
693.004, 48.937
694.300, 28.708
695.595, 23.476
696.890, 32.543
698.185, 12.303
699.480, 23.409
700.775, 4.907
702.069, 23.655
703.363, 4.401
704.657, 12.518
705.951, 19.810
707.244, 7.913
708.538, 6.531
709.831, 9.751
711.124, 11.956
712.416, 12.661
713.709, 12.362
715.001, 27.967
716.293, 23.623
717.585, 2.691
718.876, 13.758
720.167, 6.345
721.459, 26.025
722.749, 5.695
724.040, 8.333
725.331, 0.994
726.621, 17.660
727.911, 10.327
729.201, 1.666
730.490, 5.329
731.780, 9.010
733.069, 12.643
734.358, 4.706
735.646, 9.059
736.935, 14.485
738.223, 29.855
739.511, 4.241
740.799, 0.187
742.087, 9.794
743.374, 4.400
744.661, 8.004
745.948, 18.577
747.235, 9.850
748.522, 1.770
749.808, 3.371
751.094, 5.971
752.380, 9.414
753.666, 14.010
754.951, 12.395
756.236, 6.795
757.521, 20.184
758.806, 13.934
760.091, 7.517
761.375, 1.056
762.659, 22.426
763.943, 2.107
765.227, 28.450
766.511, 28.938
767.794, 3.366
769.077, 47.718
770.360, 6.191
771.643, 17.660
772.925, 11.225
774.207, 1.790
775.489, 1.734
776.771, 3.834
778.053, 5.297
779.334, 0.760
780.615, 8.327
781.896, 6.896
783.177, 19.365
784.457, 13.934
785.738, 51.505
787.018, 15.078
788.298, 41.654
789.577, 31.230
790.857, 24.385
792.136, 45.962
793.415, 72.309
794.694, 73.483
795.972, 91.589
797.251, 144.653
798.529, 106.232
799.807, 107.834
801.084, 105.306
802.362, 53.918
803.639, 49.420
804.916, 75.042
806.193, 77.361
807.470, 67.978
808.746, 76.437
810.022, 65.068
811.298, 75.572
812.574, 88.334
813.850, 95.505
815.125, 102.076
816.400, 115.475
817.675, 114.491
818.950, 106.088
820.224, 133.440
821.499, 171.102
822.773, 142.770
824.047, 180.433
825.320, 232.108
826.594, 296.677
827.867, 316.274
829.140, 440.700
830.413, 494.387
831.685, 632.069
832.958, 818.763
834.230, 1130.464
835.502, 1584.168
836.774, 2014.874
838.045, 2363.587
839.316, 2389.304
840.588, 2056.029
841.858, 1596.761
843.129, 1256.497
844.400, 969.239
845.670, 789.988
846.940, 664.742
848.210, 596.499
849.479, 563.258
850.749, 501.023
852.018, 474.791
853.287, 457.564
854.556, 490.346
855.824, 518.130
857.093, 466.920
858.361, 503.715
859.629, 479.167
860.896, 540.975
862.164, 499.787
863.431, 565.911
864.698, 597.729
865.965, 600.550
867.232, 661.374
868.498, 658.203
869.764, 702.034
871.030, 770.672
872.296, 797.510
873.562, 863.354
874.827, 977.201
876.092, 1099.052
877.357, 1304.907
878.622, 1545.709
879.886, 1912.571
881.151, 2421.437
882.415, 2958.307
883.679, 3345.180
884.942, 3318.569
886.206, 2953.449
887.469, 2592.131
888.732, 2356.555
889.995, 2225.652
891.258, 2197.543
892.520, 2232.547
893.782, 2482.450
895.044, 2806.363
896.306, 3233.280
897.568, 3861.202
898.829, 4510.127
900.090, 5840.058
901.351, 7165.954
902.612, 9258.891
903.872, 12297.832
905.133, 16026.777
906.393, 22575.729
907.653, 29994.191
908.912, 38593.152
910.172, 48691.180
911.431, 51150.152
912.690, 47638.914
913.949, 37677.902
915.208, 25786.881
916.466, 18475.832
917.724, 12454.828
918.982, 8973.829
920.240, 6591.830
921.498, 4927.839
922.755, 3878.851
924.012, 3134.869
925.269, 2594.892
926.526, 2289.917
927.782, 1942.924
929.039, 1787.959
930.295, 1606.999
931.551, 1483.045
932.806, 1460.096
934.062, 1317.152
935.317, 1230.212
936.572, 1173.276
937.827, 1074.678
939.082, 1011.750
940.336, 925.979
941.590, 798.908
942.844, 757.000
944.098, 701.397
945.352, 620.498
946.605, 595.733
947.859, 535.919
949.112, 508.034
950.364, 464.797
951.617, 424.921
952.869, 404.049
954.121, 385.181
955.373, 329.318
956.625, 341.458
957.877, 368.604
959.128, 299.754
960.379, 287.908
961.630, 255.066
962.881, 280.228
964.131, 255.640
965.381, 268.812
966.631, 230.164
967.881, 213.345
969.131, 231.532
970.380, 200.724
971.630, 201.921
972.879, 167.121
974.128, 192.856
975.376, 186.064
976.625, 148.761
977.873, 156.320
979.121, 202.539
980.369, 150.805
981.616, 132.033
982.864, 165.267
984.111, 134.548
985.358, 142.789
986.605, 159.032
987.851, 144.273
989.097, 156.573
990.344, 150.462
991.589, 164.135
992.835, 157.681
994.081, 149.607
995.326, 145.065
996.571, 128.741
997.816, 117.023
999.061, 110.301
1000.305, 79.581
1001.550, 70.864
1002.794, 135.290
1004.037, 74.578
1005.281, 97.870
1006.525, 62.825
1007.768, 62.128
1009.011, 81.503
1010.254, 69.429
1011.496, 73.739
1012.739, 72.625
1013.981, 31.504
1015.223, 60.825
1016.465, 37.158
1017.706, 20.587
1018.948, 57.915
1020.189, 36.255
1021.430, 74.589
1022.671, 78.179
1023.911, 51.604
1025.152, 60.951
1026.392, 74.610
1027.632, 28.961
1028.872, 43.317
1030.111, 38.676
1031.350, 47.037
1032.590, 62.400
1033.829, 47.764
1035.067, 70.133
1036.306, 29.537
1037.544, 24.913
1038.782, 25.293
1040.020, 50.042
1041.258, 50.437
1042.495, 33.834
1043.733, 16.502
1044.970, 59.903
1046.207, 28.307
1047.443, 32.830
1048.680, 18.239
1049.916, 24.311
1051.152, 60.091
1052.388, 52.495
1053.624, 14.900
1054.859, 16.307
1056.094, 21.730
1057.329, 14.142
1058.564, 60.668
1059.799, 12.098
1061.033, 33.518
1062.268, 25.952
1063.502, 3.375
1064.735, 28.800
1065.969, 50.226
1067.202, 17.653
1068.436, 2.081
1069.669, 9.510
1070.902, 28.966
1072.134, 26.056
1073.367, 37.667
1074.599, 37.343
1075.831, 40.782
1077.062, 36.223
1078.294, 16.664
1079.525, 6.729
1080.757, 47.171
1081.988, 9.614
1083.218, 56.058
1084.449, 20.502
1085.679, 9.048
1086.909, 9.394
1088.139, 25.837
1089.369, 3.411
1090.599, 16.217
1091.828, 24.703
1093.057, 12.729
1094.286, 3.831
1095.515, 2.380
1096.744, 9.053
1097.972, 13.514
1099.200, 22.122
1100.428, 14.549
1101.656, 4.976
1102.883, 6.408
1104.111, 1.836
1105.338, 26.263
1106.565, 29.691
1107.791, 11.119
1109.018, 34.547
1110.244, 8.997
1111.470, 21.556
1112.696, 34.909
1113.922, 3.672
1115.147, 36.741
1116.373, 28.241
1117.598, 18.653
1118.823, 27.065
1120.047, 17.476
1121.272, 9.114
1122.496, 29.493
1123.720, 8.101
1124.944, 5.701
1126.168, 13.696
1127.391, 0.092
1128.615, 9.516
1129.838, 21.537
1131.061, 16.071
1132.283, 23.312
1133.506, 10.704
1134.728, 14.916
1135.950, 0.681
1137.172, 8.950
1138.394, 5.358
1139.615, 27.137
1140.837, 0.508
1142.058, 10.983
1143.279, 4.666
1144.499, 3.680
1145.720, 7.024
1146.940, 19.367
1148.160, 17.844
1149.380, 0.048
1150.600, 10.385
1151.819, 9.721
1153.038, 7.945
1154.257, 6.387
1155.476, 1.732
1156.695, 22.914
1157.913, 22.392
1159.132, 39.703
1160.350, 1.033
1161.568, 37.333
1162.785, 7.631
1164.003, 1.926
1165.220, 45.310
1166.437, 8.725
1167.654, 18.013
1168.871, 0.033
1170.087, 3.249
1171.304, 38.164
1172.520, 0.528
1173.736, 23.744
1174.951, 48.878
1176.167, 19.234
1177.382, 55.499
1178.597, 44.761
1179.812, 22.034
1181.027, 19.292
1182.241, 8.692
1183.455, 28.253
1184.669, 32.536
1185.883, 0.120
1187.097, 39.121
1188.311, 31.359
1189.524, 1.719
1190.737, 19.950
1191.950, 31.184
1193.162, 5.430
1194.375, 18.651
1195.587, 10.335
1196.799, 69.587
1198.011, 36.799
1199.223, 58.068
1200.434, 55.276
1201.646, 16.587
1202.857, 51.788
1204.068, 6.033
1205.279, 18.300
1206.489, 31.491
1207.699, 18.681
1208.909, 47.867
1210.119, 50.049
1211.329, 22.338
1212.539, 37.515
1213.748, 60.711
1214.957, 30.883
1216.166, 17.224
1217.375, 53.390
1218.583, 10.851
1219.792, 50.010
1221.000, 33.178
1222.208, 49.443
1223.415, 65.592
1224.623, 2.245
1225.830, 32.892
1227.037, 40.026
1228.244, 39.197
1229.451, 60.327
1230.658, 25.453
1231.864, 58.319
1233.070, 44.438
1234.276, 8.552
1235.482, 43.664
1236.687, 45.772
1237.893, 41.629
1239.098, 24.732
1240.303, 21.745
1241.508, 29.336
1242.712, 46.430
1243.917, 4.893
1245.121, 57.981
1246.325, 44.065
1247.529, 26.293
1248.732, 43.463
1249.936, 37.538
1251.139, 35.807
1252.342, 44.948
1253.545, 61.015
1254.747, 23.090
1255.950, 24.147
1257.152, 15.955
1258.354, 27.006
1259.556, 37.875
1260.758, 10.959
1261.959, 53.058
1263.160, 30.095
1264.361, 33.165
1265.562, 62.196
1266.763, 4.693
1267.963, 61.024
1269.164, 63.560
1270.364, 56.388
1271.563, 38.405
1272.763, 21.375
1273.963, 3.613
1275.162, 39.383
1276.361, 42.333
1277.560, 25.317
1278.759, 64.299
1279.957, 2.285
1281.155, 35.208
1282.354, 39.543
1283.551, 0.907
1284.749, 31.089
1285.947, 4.937
1287.144, 50.889
1288.341, 34.434
1289.538, 39.372
1290.735, 39.315
1291.931, 35.796
1293.128, 38.588
1294.324, 33.019
1295.520, 37.949
1296.716, 28.876
1297.911, 25.150
1299.107, 22.061
1300.302, 19.214
1301.497, 34.250
1302.692, 24.151
1303.886, 19.048
1305.081, 38.808
1306.275, 32.699
1307.469, 30.577
1308.663, 7.358
1309.856, 4.234
1311.050, 35.097
1312.243, 7.033
1313.436, 55.577
1314.629, 6.650
1315.822, 18.200
1317.014, 35.735
1318.206, 10.421
1319.398, 7.416
1320.590, 42.248
1321.782, 28.077
1322.974, 22.899
1324.165, 37.717
1325.356, 2.531
1326.547, 1.692
1327.738, 18.114
1328.928, 6.916
1330.119, 41.352
1331.309, 37.036
1332.499, 3.939
1333.688, 41.459
1334.878, 24.245
1336.067, 21.027
1337.256, 41.686
1338.445, 4.541
1339.634, 55.189
1340.823, 27.962
1342.011, 11.730
1343.199, 26.495
1344.388, 5.292
1345.575, 35.037
1346.763, 14.794
1347.950, 9.436
1349.138, 60.178
1350.325, 27.094
1351.512, 29.831
1352.698, 47.578
1353.885, 5.323
1355.071, 35.108
1356.257, 20.850
1357.443, 32.689
1358.629, 0.429
1359.814, 26.142
1361.000, 18.121
1362.185, 37.541
1363.370, 23.273
1364.554, 4.996
1365.739, 44.720
1366.923, 22.441
1368.107, 60.579
1369.291, 41.294
1370.475, 17.563
1371.659, 54.279
1372.842, 66.992
1374.025, 9.586
1375.208, 86.115
1376.391, 26.579
1377.574, 47.305
1378.756, 76.162
1379.939, 13.993
1381.121, 35.843
1382.303, 16.476
1383.484, 6.685
1384.666, 73.152
1385.847, 22.983
1387.028, 57.784
1388.209, 54.535
1389.390, 2.358
1390.570, 8.085
1391.751, 39.902
1392.931, 0.511
1394.111, 10.299
1395.291, 43.110
1396.470, 23.152
1397.649, 61.952
1398.829, 44.741
1400.008, 37.277
1401.187, 65.639
1402.365, 16.276
1403.544, 12.080
1404.722, 62.883
1405.900, 17.682
1407.078, 41.479
1408.255, 55.269
1409.433, 3.000
1410.610, 63.807
1411.787, 1.582
1412.964, 32.393
1414.141, 47.910
1415.317, 24.793
1416.494, 86.700
1417.670, 45.441
1418.846, 29.863
1420.022, 50.631
1421.197, 52.379
1422.373, 38.469
1423.548, 53.030
1424.723, 32.786
1425.898, 16.352
1427.072, 19.065
1428.247, 31.083
1429.421, 42.828
1430.595, 38.474
1431.769, 37.038
1432.942, 32.577
1434.116, 47.311
1435.289, 16.042
1436.462, 35.584
1437.635, 47.270
1438.808, 21.683
1439.981, 21.030
1441.153, 48.478
1442.325, 6.121
1443.497, 96.804
1444.669, 23.402
1445.840, 74.921
1447.012, 45.591
1448.183, 61.260
1449.354, 68.812
1450.525, 73.174
1451.696, 59.766
1452.866, 77.385
1454.036, 69.469
1455.206, 58.618
1456.376, 99.033
1457.546, 42.584
1458.716, 43.161
1459.885, 51.640
1461.054, 65.061
1462.223, 75.524
1463.392, 66.262
1464.560, 54.368
1465.729, 60.864
1466.897, 66.363
1468.065, 49.894
1469.233, 102.431
1470.400, 63.976
1471.568, 31.404
1472.735, 71.863
1473.902, 29.397
1475.069, 70.926
1476.236, 55.321
1477.402, 84.829
1478.569, 53.297
1479.735, 50.590
1480.901, 21.149
1482.066, 71.706
1483.232, 49.255
1484.397, 13.846
1485.562, 46.445
1486.727, 28.074
1487.892, 42.710
1489.057, 45.357
1490.221, 0.963
1491.386, 52.769
1492.550, 49.520
1493.714, 71.291
1494.877, 14.091
1496.041, 41.921
1497.204, 6.792
1498.367, 59.715
1499.530, 33.676
1500.693, 28.406
1501.856, 35.474
1503.018, 47.608
1504.180, 33.923
1505.342, 41.015
1506.504, 45.552
1507.666, 20.101
1508.827, 32.005
1509.988, 2.168
1511.149, 53.882
1512.310, 35.668
1513.471, 32.298
1514.631, 29.816
1515.792, 0.000
##END=



