##NAMES=Scheelite
##RRUFFID=R040173
##IDEAL CHEMISTRY=CaW^6+^O_4_
##LOCALITY=Santa Cruz, Sonora, Mexico
##OWNER=RRUFF
##SOURCE=University of Arizona Mineral Museum
##DESCRIPTION=Yellow crystal fragments
##STATUS=The identification of this mineral has been confirmed by X-ray diffraction and chemical analysis
##URL=rruff.info/R040173
##MEASURED CHEMISTRY=Ca_1.00_W_1.00_O_4_
##PIN_ID=M00457
##ORIENTATION=Laser parallel to -a* (-1 0 0). Fiducial mark perpendicular to laser is parallel to c [0 0 1]
61.962, 0.000
63.360, 22.647
64.758, 9.933
66.157, 15.728
67.554, 53.800
68.952, 42.459
70.349, 29.598
71.747, 1.978
73.144, 12.385
74.540, 17.214
75.937, 42.614
77.333, 68.617
78.729, 33.926
80.125, 70.383
81.521, 52.024
82.916, 67.671
84.311, 96.485
85.706, 51.644
87.101, 51.035
88.496, 49.523
89.890, 74.657
91.284, 68.716
92.678, 73.500
94.071, 83.903
95.465, 68.103
96.858, 103.653
98.251, 76.087
99.644, 98.803
101.036, 100.177
102.428, 88.690
103.820, 112.707
105.212, 118.422
106.604, 150.992
107.995, 178.661
109.387, 222.881
110.777, 317.385
112.168, 443.413
113.559, 679.483
114.949, 840.655
116.339, 866.425
117.729, 665.361
119.119, 476.875
120.508, 337.408
121.897, 337.295
123.286, 314.759
124.675, 292.273
126.063, 286.832
127.452, 239.436
128.840, 233.078
130.228, 181.754
131.615, 147.459
133.003, 135.189
134.390, 115.945
135.777, 123.727
137.164, 118.540
138.550, 103.386
139.937, 107.269
141.323, 84.193
142.709, 90.158
144.094, 57.167
145.480, 70.236
146.865, 56.412
148.250, 48.686
149.635, 40.053
151.019, 44.504
152.403, 21.035
153.788, 20.640
155.171, 6.313
156.555, 0.050
157.939, 6.155
159.322, 39.306
160.705, 18.409
162.088, 19.469
163.470, 21.487
164.853, 44.468
166.235, 36.414
167.617, 33.326
168.998, 39.208
170.380, 36.064
171.761, 24.900
173.142, 36.719
174.523, 34.525
175.904, 30.318
177.284, 23.096
178.664, 12.858
180.044, 6.395
181.424, 35.659
182.803, 47.934
184.183, 76.222
185.562, 97.522
186.940, 145.829
188.319, 166.142
189.698, 228.459
191.076, 269.773
192.454, 367.073
193.831, 439.338
195.209, 575.561
196.586, 730.745
197.963, 846.884
199.340, 1118.986
200.717, 1266.063
202.093, 1390.120
203.470, 1428.175
204.846, 1406.263
206.221, 1513.397
207.597, 1733.575
208.972, 2247.800
210.347, 2461.071
211.722, 2285.395
213.097, 1818.785
214.472, 1243.254
215.846, 1035.796
217.220, 802.403
218.594, 729.067
219.967, 724.786
221.341, 694.552
222.714, 786.363
224.087, 838.219
225.460, 1021.122
226.832, 1081.071
228.204, 1226.987
229.577, 1402.887
230.948, 1468.759
232.320, 1695.599
233.692, 1729.394
235.063, 1885.159
236.434, 1785.891
237.805, 1776.481
239.175, 1765.133
240.545, 1489.755
241.916, 1476.347
243.286, 1182.898
244.655, 1130.408
246.025, 975.880
247.394, 874.317
248.763, 908.720
250.132, 789.093
251.501, 895.427
252.869, 842.697
254.237, 925.892
255.605, 1018.109
256.973, 1150.233
258.340, 1352.313
259.708, 1458.381
261.075, 1695.325
262.442, 1755.372
263.808, 1925.271
265.175, 2007.233
266.541, 1942.169
267.907, 2095.024
269.273, 1854.935
270.639, 1882.824
272.004, 1702.686
273.369, 1467.507
274.734, 1376.271
276.099, 1158.946
277.463, 1117.548
278.828, 954.066
280.192, 906.509
281.556, 836.881
282.919, 739.205
284.283, 776.486
285.646, 699.753
287.009, 773.050
288.372, 767.381
289.734, 797.747
291.097, 850.146
292.459, 776.579
293.821, 834.047
295.183, 752.476
296.544, 792.784
297.905, 793.070
299.266, 747.232
300.627, 853.584
301.988, 831.972
303.348, 1006.272
304.709, 1071.718
306.069, 1208.937
307.428, 1403.363
308.788, 1539.246
310.147, 1868.556
311.507, 2053.681
312.865, 2513.738
314.224, 2787.676
315.583, 3249.875
316.941, 3779.406
318.299, 4037.064
319.657, 4829.191
321.015, 5360.097
322.372, 6667.757
323.729, 8261.480
325.086, 10580.657
326.443, 14793.905
327.800, 19517.168
329.156, 28279.127
330.512, 34601.723
331.868, 38854.656
333.224, 37317.367
334.579, 28280.395
335.935, 22414.264
337.290, 15257.527
338.645, 11591.062
339.999, 8665.995
341.354, 6524.519
342.708, 5396.818
344.062, 4123.376
345.416, 3565.139
346.769, 2838.936
348.123, 2488.768
349.476, 2190.635
350.829, 1799.537
352.182, 1762.474
353.534, 1501.567
354.887, 1473.576
356.239, 1336.680
357.591, 1219.172
358.942, 1136.526
360.294, 1012.305
361.645, 1079.933
362.996, 1052.813
364.347, 1181.072
365.698, 1405.807
367.048, 1628.974
368.398, 2179.506
369.748, 2415.686
371.098, 2999.139
372.448, 2912.395
373.797, 2358.416
375.146, 1890.994
376.495, 1195.666
377.844, 982.303
379.192, 699.976
380.540, 570.685
381.889, 489.429
383.236, 383.210
384.584, 423.025
385.932, 324.877
387.279, 322.763
388.626, 298.684
389.973, 207.641
391.319, 298.625
392.666, 187.635
394.012, 290.672
395.358, 372.737
396.704, 469.830
398.049, 700.950
399.394, 881.099
400.740, 1386.276
402.084, 1594.482
403.429, 1807.717
404.774, 1834.981
406.118, 1529.274
407.462, 1404.597
408.806, 1019.950
410.150, 918.332
411.493, 722.745
412.836, 608.189
414.179, 634.663
415.522, 591.168
416.865, 675.705
418.207, 600.273
419.549, 619.877
420.891, 607.516
422.233, 492.193
423.575, 510.909
424.916, 300.662
426.257, 301.453
427.598, 207.285
428.939, 165.155
430.279, 168.077
431.619, 73.044
432.959, 111.055
434.299, 96.112
435.639, 53.221
436.978, 113.384
438.318, 78.597
439.657, 106.858
440.996, 78.176
442.334, 78.550
443.673, 129.980
445.011, 78.462
446.349, 123.995
447.687, 94.585
449.024, 155.224
450.361, 178.920
451.699, 155.670
453.036, 247.473
454.372, 181.327
455.709, 241.227
457.045, 231.184
458.381, 239.198
459.717, 319.263
461.053, 296.387
462.388, 401.562
463.724, 396.786
465.059, 504.068
466.394, 611.398
467.728, 563.781
469.063, 859.209
470.397, 802.690
471.731, 995.216
473.065, 1082.784
474.398, 1148.395
475.732, 1396.046
477.065, 1269.734
478.398, 1459.463
479.731, 1400.231
481.063, 1363.041
482.396, 1440.893
483.728, 1302.789
485.060, 1401.737
486.391, 1221.731
487.723, 1139.770
489.054, 1052.854
490.385, 868.989
491.716, 865.172
493.047, 660.402
494.377, 612.680
495.708, 504.006
497.038, 380.379
498.368, 387.805
499.697, 238.281
501.027, 248.807
502.356, 207.381
503.685, 132.002
505.014, 134.669
506.342, 75.374
507.671, 92.121
508.999, 51.903
510.327, 38.720
511.655, 59.574
512.982, 9.539
514.310, 20.380
515.637, 4.667
516.964, 25.684
518.291, 16.673
519.617, 71.635
520.944, 26.582
522.270, 102.505
523.596, 49.423
524.921, 64.323
526.247, 77.210
527.572, 11.087
528.897, 74.940
530.222, 4.215
531.547, 39.604
532.871, 28.406
534.196, 0.811
535.520, 4.948
536.844, 41.316
538.167, 33.603
539.491, 55.914
540.814, 112.248
542.137, 91.605
543.460, 157.984
544.783, 136.386
546.105, 208.810
547.427, 238.255
548.749, 223.723
550.071, 313.212
551.393, 308.722
552.714, 342.253
554.035, 405.804
555.356, 377.377
556.677, 509.969
557.998, 484.582
559.318, 593.215
560.638, 640.867
561.958, 630.539
563.278, 809.230
564.597, 772.940
565.917, 874.668
567.236, 923.416
568.555, 967.181
569.874, 1150.965
571.192, 1052.766
572.511, 1232.585
573.829, 1295.422
575.147, 1311.333
576.464, 1501.219
577.782, 1447.638
579.099, 1642.020
580.416, 1627.183
581.733, 1636.041
583.050, 1835.949
584.366, 1643.805
585.683, 1862.545
586.999, 1848.455
588.315, 1916.563
589.630, 2014.031
590.946, 1907.245
592.261, 2174.082
593.576, 2105.047
594.891, 2207.767
596.206, 2363.045
597.520, 2351.013
598.834, 2659.185
600.148, 2562.611
601.462, 2766.300
602.776, 2749.996
604.089, 2631.267
605.402, 2828.937
606.715, 2615.678
608.028, 2641.825
609.341, 2640.739
610.653, 2507.490
611.965, 2725.204
613.277, 2522.504
614.589, 2748.470
615.901, 2786.280
617.212, 2644.492
618.523, 2885.751
619.834, 2733.977
621.145, 2859.120
622.456, 2887.250
623.766, 2732.852
625.076, 2907.695
626.386, 2598.829
627.696, 2618.018
629.006, 2474.193
630.315, 2268.165
631.624, 2308.675
632.933, 2006.100
634.242, 2050.434
635.551, 1878.625
636.859, 1723.812
638.167, 1751.995
639.475, 1545.175
640.783, 1570.351
642.090, 1458.522
643.398, 1291.688
644.705, 1386.849
646.012, 1254.005
647.318, 1328.155
648.625, 1182.299
649.931, 1137.495
651.237, 1188.808
652.543, 1026.389
653.849, 1083.428
655.155, 960.176
656.460, 958.745
657.765, 965.356
659.070, 845.362
660.375, 852.638
661.679, 775.938
662.984, 715.068
664.288, 738.850
665.592, 605.341
666.895, 669.776
668.199, 606.395
669.502, 561.578
670.805, 554.741
672.108, 487.032
673.411, 498.776
674.713, 467.194
676.016, 427.644
677.318, 462.624
678.620, 395.436
679.921, 360.007
681.223, 337.346
682.524, 292.849
683.825, 323.057
685.126, 273.791
686.427, 303.874
687.727, 243.697
689.028, 250.712
690.328, 280.985
691.628, 221.793
692.927, 223.456
694.227, 203.173
695.526, 175.874
696.825, 227.558
698.124, 165.226
699.423, 217.876
700.721, 193.510
702.020, 172.126
703.318, 188.724
704.616, 118.305
705.913, 150.869
707.211, 152.414
708.508, 127.941
709.805, 165.451
711.102, 111.942
712.399, 127.414
713.695, 132.869
714.992, 101.305
716.288, 108.722
717.584, 97.120
718.879, 120.500
720.175, 110.860
721.470, 90.202
722.765, 111.525
724.060, 83.828
725.355, 95.112
726.649, 81.376
727.944, 76.622
729.238, 84.847
730.532, 32.052
731.825, 44.237
733.119, 12.402
734.412, 14.540
735.705, 0.652
736.998, 6.730
738.291, 6.779
739.584, 8.796
740.876, 5.217
742.168, 9.731
743.460, 41.351
744.752, 14.491
746.043, 9.676
747.334, 18.903
748.626, 36.177
749.916, 47.508
751.207, 23.903
752.498, 18.349
753.788, 52.843
755.078, 40.405
756.368, 44.028
757.658, 27.714
758.947, 20.455
760.237, 42.248
761.526, 11.104
762.815, 49.007
764.104, 28.978
765.392, 26.005
766.680, 25.088
767.969, 2.227
769.257, 44.409
770.544, 41.658
771.832, 15.971
773.119, 48.335
774.406, 15.769
775.693, 14.254
776.980, 45.790
778.267, 5.393
779.553, 25.044
780.839, 2.249
782.125, 14.502
783.411, 1.697
784.697, 33.851
785.982, 15.974
787.267, 71.060
788.552, 82.118
789.837, 136.150
791.122, 265.158
792.406, 430.140
793.690, 700.098
794.974, 1016.031
796.258, 1259.938
797.542, 1163.821
798.825, 742.679
800.108, 530.512
801.391, 309.319
802.674, 178.102
803.957, 105.860
805.239, 83.592
806.522, 57.297
807.804, 31.972
809.085, 8.614
810.367, 13.215
811.649, 11.778
812.930, 2.301
814.211, 2.218
815.492, 18.784
816.772, 0.404
818.053, 11.068
819.333, 13.218
820.613, 14.465
821.893, 8.674
823.173, 21.843
824.452, 17.976
825.732, 17.074
827.011, 36.134
828.290, 34.162
829.568, 40.159
830.847, 44.125
832.125, 68.068
833.403, 68.985
834.681, 58.886
835.959, 102.780
837.236, 84.656
838.514, 106.514
839.791, 112.351
841.068, 114.171
842.345, 146.971
843.621, 119.753
844.898, 102.513
846.174, 151.250
847.450, 163.963
848.726, 179.657
850.001, 210.337
851.277, 220.993
852.552, 252.635
853.827, 270.258
855.102, 274.861
856.376, 308.460
857.651, 289.044
858.925, 378.625
860.199, 348.201
861.473, 364.760
862.746, 435.323
864.020, 425.880
865.293, 493.434
866.566, 535.994
867.839, 540.547
869.112, 667.104
870.384, 699.661
871.656, 785.210
872.928, 902.760
874.200, 1020.305
875.472, 1277.843
876.744, 1455.389
878.015, 1877.919
879.286, 2478.447
880.557, 3093.972
881.828, 4186.487
883.098, 4564.998
884.369, 4595.436
885.639, 4091.902
886.909, 3279.853
888.178, 3010.833
889.448, 2699.034
890.717, 2577.533
891.987, 2868.977
893.256, 2699.465
894.524, 3216.063
895.793, 3576.483
897.061, 3997.701
898.330, 5151.550
899.598, 5907.646
900.865, 7716.110
902.133, 9884.441
903.401, 12468.007
904.668, 17733.008
905.935, 22908.311
907.202, 31251.402
908.468, 43145.227
909.735, 51228.793
911.001, 60543.332
912.267, 54598.281
913.533, 41481.828
914.799, 31157.299
916.064, 19420.354
917.330, 14494.622
918.595, 10129.053
919.860, 7179.504
921.124, 5910.363
922.389, 4284.545
923.653, 3494.873
924.918, 2900.785
926.182, 2312.642
927.445, 2184.519
928.709, 1793.470
929.972, 1639.420
931.236, 1605.886
932.499, 1395.101
933.761, 1383.011
935.024, 1219.854
936.286, 1095.700
937.549, 1100.736
938.811, 922.220
940.073, 902.776
941.334, 826.410
942.596, 726.175
943.857, 756.929
945.118, 649.673
946.379, 609.407
947.640, 560.131
948.900, 492.845
950.161, 525.550
951.421, 457.245
952.681, 460.931
953.940, 417.607
955.200, 355.274
956.459, 396.874
957.719, 369.340
958.978, 334.523
960.236, 388.231
961.495, 331.215
962.753, 322.360
964.012, 298.448
965.270, 257.122
966.527, 315.510
967.785, 271.857
969.043, 278.357
970.300, 318.188
971.557, 262.291
972.814, 310.432
974.071, 322.373
975.327, 297.730
976.583, 346.971
977.840, 337.185
979.095, 384.869
980.351, 409.508
981.607, 417.270
982.862, 505.096
984.117, 467.260
985.372, 553.432
986.627, 646.392
987.882, 656.814
989.136, 778.117
990.390, 792.860
991.644, 844.312
992.898, 1004.767
994.152, 1013.360
995.405, 1208.835
996.659, 1330.360
997.912, 1517.829
999.165, 1911.918
1000.417, 2040.520
1001.670, 2379.980
1002.922, 2730.387
1004.174, 2806.693
1005.426, 3285.768
1006.678, 3520.273
1007.930, 3849.463
1009.181, 4451.520
1010.432, 4433.801
1011.683, 4964.735
1012.934, 5123.916
1014.185, 4811.148
1015.435, 4993.070
1016.685, 4357.204
1017.935, 3928.868
1019.185, 3574.390
1020.435, 2951.671
1021.684, 2838.359
1022.934, 2499.086
1024.183, 2349.222
1025.432, 2391.114
1026.680, 2214.336
1027.929, 2411.842
1029.177, 2521.704
1030.425, 2461.264
1031.673, 2728.283
1032.921, 2780.536
1034.169, 2896.189
1035.416, 3197.220
1036.663, 2988.332
1037.911, 3143.669
1039.157, 2819.027
1040.404, 2416.364
1041.650, 2412.699
1042.897, 1871.036
1044.143, 1677.371
1045.389, 1442.710
1046.634, 1084.050
1047.880, 996.403
1049.125, 813.763
1050.371, 667.129
1051.615, 655.504
1052.860, 488.892
1054.105, 493.298
1055.349, 435.714
1056.593, 370.140
1057.837, 413.584
1059.081, 391.045
1060.325, 405.523
1061.568, 425.014
1062.812, 347.517
1064.055, 452.037
1065.298, 465.567
1066.540, 457.116
1067.783, 548.680
1069.025, 510.259
1070.267, 634.851
1071.509, 801.452
1072.751, 867.072
1073.993, 1074.711
1075.234, 1145.363
1076.475, 1216.036
1077.716, 1312.721
1078.957, 1188.420
1080.198, 1239.140
1081.438, 1163.870
1082.679, 1042.616
1083.919, 1113.372
1085.159, 1055.141
1086.398, 1213.919
1087.638, 1420.702
1088.877, 1574.492
1090.116, 1966.283
1091.355, 2141.075
1092.594, 2198.870
1093.833, 2233.664
1095.071, 1843.461
1096.309, 1596.259
1097.547, 1370.058
1098.785, 1069.859
1100.023, 1034.662
1101.260, 848.467
1102.498, 726.274
1103.735, 735.084
1104.972, 583.895
1106.208, 511.710
1107.445, 455.528
1108.681, 397.351
1109.918, 441.181
1111.154, 332.022
1112.389, 341.872
1113.625, 402.732
1114.860, 314.604
1116.096, 371.490
1117.331, 319.394
1118.566, 260.311
1119.800, 244.244
1121.035, 198.187
1122.269, 251.140
1123.503, 256.104
1124.737, 196.078
1125.971, 236.062
1127.205, 133.056
1128.438, 118.057
1129.671, 136.067
1130.904, 46.085
1132.137, 44.110
1133.370, 43.142
1134.602, 56.820
1135.834, 38.188
1137.066, 35.202
1138.298, 6.222
1139.530, 80.241
1140.762, 6.734
1141.993, 11.284
1143.224, 61.306
1144.455, 10.332
1145.686, 51.361
1146.917, 0.604
1148.147, 28.571
1149.377, 82.446
1150.607, 25.530
1151.837, 5.520
1153.067, 1.514
1154.296, 62.509
1155.526, 22.535
1156.755, 72.572
1157.984, 59.644
1159.213, 18.744
1160.441, 92.853
1161.670, 60.006
1162.898, 72.186
1164.126, 110.400
1165.354, 51.666
1166.581, 100.954
1167.809, 80.289
1169.036, 53.660
1170.263, 89.053
1171.490, 62.486
1172.717, 58.944
1173.943, 116.427
1175.170, 16.960
1176.396, 77.497
1177.622, 73.066
1178.848, 46.664
1180.073, 69.277
1181.299, 22.916
1182.524, 30.559
1183.749, 86.208
1184.974, 34.109
1186.199, 19.562
1187.423, 24.766
1188.648, 33.106
1189.872, 33.457
1191.096, 78.819
1192.320, 52.194
1193.543, 69.581
1194.767, 170.980
1195.990, 90.392
1197.213, 122.817
1198.436, 230.254
1199.659, 179.705
1200.881, 202.169
1202.104, 231.646
1203.326, 178.137
1204.548, 289.642
1205.770, 223.161
1206.991, 246.694
1208.213, 299.242
1209.434, 210.804
1210.655, 313.382
1211.876, 324.975
1213.096, 264.583
1214.317, 375.208
1215.537, 310.848
1216.757, 344.504
1217.977, 452.179
1219.197, 367.873
1220.417, 494.583
1221.636, 531.311
1222.855, 425.056
1224.074, 632.819
1225.293, 533.605
1226.512, 559.409
1227.731, 707.233
1228.949, 585.079
1230.167, 708.945
1231.385, 680.831
1232.603, 610.736
1233.820, 763.662
1235.038, 691.608
1236.255, 704.576
1237.472, 874.566
1238.689, 699.577
1239.906, 837.610
1241.122, 859.666
1242.338, 824.746
1243.555, 953.848
1244.771, 962.974
1245.986, 1003.122
1247.202, 1144.293
1248.417, 1071.472
1249.633, 1208.662
1250.848, 1352.863
1252.063, 1217.073
1253.277, 1523.294
1254.492, 1435.526
1255.706, 1507.768
1256.920, 1787.021
1258.134, 1686.285
1259.348, 1853.560
1260.562, 2015.846
1261.775, 1898.144
1262.988, 2219.452
1264.201, 2237.773
1265.414, 2285.105
1266.627, 2608.450
1267.839, 2508.806
1269.052, 2684.176
1270.264, 2910.556
1271.476, 2675.950
1272.688, 3072.358
1273.899, 3151.778
1275.111, 3117.212
1276.322, 3445.661
1277.533, 3327.125
1278.744, 3517.604
1279.955, 3889.099
1281.165, 3549.694
1282.376, 3911.224
1283.586, 4119.774
1284.796, 3924.030
1286.006, 4466.619
1287.215, 4413.230
1288.425, 4438.748
1289.634, 5108.400
1290.843, 4708.951
1292.052, 5146.648
1293.261, 5447.746
1294.469, 5202.353
1295.678, 5766.121
1296.886, 5790.962
1298.094, 5759.927
1299.302, 6429.144
1300.509, 6031.952
1301.717, 6249.098
1302.924, 6732.400
1304.131, 6329.504
1305.338, 6940.975
1306.545, 7060.224
1307.752, 6949.445
1308.958, 7679.000
1310.164, 7410.371
1311.370, 7632.233
1312.576, 8186.265
1313.782, 7773.559
1314.987, 8142.473
1316.193, 8469.371
1317.398, 8304.889
1318.603, 9300.675
1319.807, 9323.156
1321.012, 9531.379
1322.216, 10616.275
1323.421, 10211.498
1324.625, 10678.291
1325.829, 11493.882
1327.032, 10702.100
1328.236, 11839.970
1329.439, 12074.795
1330.642, 12024.429
1331.845, 13573.075
1333.048, 13492.785
1334.251, 14212.537
1335.453, 15682.327
1336.656, 15402.164
1337.858, 16552.041
1339.060, 17361.967
1340.261, 16501.928
1341.463, 18091.943
1342.664, 17182.002
1343.866, 16352.107
1345.067, 17142.256
1346.267, 15342.459
1347.468, 15012.709
1348.669, 14923.011
1349.869, 12833.364
1351.069, 13023.770
1352.269, 12394.282
1353.469, 10964.794
1354.668, 11215.364
1355.868, 10256.182
1357.067, 9376.868
1358.266, 9687.612
1359.465, 8368.492
1360.664, 8419.368
1361.862, 8150.762
1363.061, 7279.194
1364.259, 7665.270
1365.457, 7027.554
1366.655, 6405.772
1367.852, 6595.067
1369.050, 5965.506
1370.247, 5650.958
1371.444, 5812.790
1372.641, 4981.173
1373.838, 5191.871
1375.035, 5070.661
1376.231, 4444.542
1377.427, 4688.476
1378.623, 4358.499
1379.819, 4044.719
1381.015, 4283.875
1382.211, 3845.213
1383.406, 3795.466
1384.601, 3855.795
1385.796, 3422.672
1386.991, 3580.109
1388.185, 3433.614
1389.380, 3133.114
1390.574, 3336.340
1391.768, 3005.158
1392.962, 2824.005
1394.156, 2983.883
1395.350, 2538.793
1396.543, 2571.734
1397.736, 2588.707
1398.929, 2279.711
1400.122, 2367.749
1401.315, 2257.818
1402.507, 1978.922
1403.700, 2112.059
1404.892, 1852.230
1406.084, 1792.435
1407.276, 1878.676
1408.467, 1632.992
1409.659, 1645.347
1410.850, 1634.748
1412.041, 1440.196
1413.232, 1552.684
1414.423, 1398.232
1415.614, 1260.841
1416.804, 1372.518
1417.994, 1285.296
1419.184, 1133.198
1420.374, 1262.217
1421.564, 1078.383
1422.753, 1131.717
1423.943, 1110.219
1425.132, 986.874
1426.321, 1051.681
1427.510, 1019.657
1428.698, 906.782
1429.887, 992.054
1431.075, 881.446
1432.263, 911.976
1433.451, 1004.588
1434.639, 829.267
1435.827, 867.013
1437.014, 902.825
1438.201, 794.703
1439.388, 874.648
1440.575, 827.658
1441.762, 740.734
1442.949, 858.874
1444.135, 823.077
1445.321, 811.340
1446.507, 906.663
1447.693, 751.042
1448.879, 752.469
1450.064, 789.948
1451.250, 630.472
1452.435, 769.034
1453.620, 745.627
1454.805, 582.260
1455.989, 713.932
1457.174, 603.635
1458.358, 529.367
1459.542, 600.122
1460.726, 460.899
1461.910, 445.702
1463.093, 481.612
1464.277, 295.656
1465.460, 376.841
1466.643, 358.170
1467.826, 237.649
1469.009, 329.283
1470.191, 234.078
1471.373, 170.038
1472.556, 285.169
1473.738, 181.476
1474.919, 195.965
1476.101, 222.639
1477.283, 138.496
1478.464, 172.535
1479.645, 178.750
1480.826, 69.139
1482.007, 163.697
1483.187, 122.423
1484.368, 123.320
1485.548, 163.392
1486.728, 73.645
