##NAMES=Scheelite
##RRUFFID=R040173
##IDEAL CHEMISTRY=CaW^6+^O_4_
##LOCALITY=Santa Cruz, Sonora, Mexico
##OWNER=RRUFF
##SOURCE=University of Arizona Mineral Museum
##DESCRIPTION=Yellow crystal fragments
##STATUS=The identification of this mineral has been confirmed by X-ray diffraction and chemical analysis
##URL=rruff.info/R040173
##MEASURED CHEMISTRY=Ca_1.00_W_1.00_O_4_
##PIN_ID=M00301
##ORIENTATION=Laser parallel to c* (0 0 1). Fiducial mark perpendicular to laser is parallel to a [1 0 0]
61.962, 0.000
63.360, 13.659
64.758, 2.130
66.157, 20.707
67.554, 3.254
68.952, 15.635
70.349, 62.054
71.747, 91.678
73.144, 224.587
74.540, 387.034
75.937, 646.593
77.333, 1267.458
78.729, 2601.166
80.125, 5333.530
81.521, 8947.531
82.916, 11099.897
84.311, 9592.128
85.706, 6359.662
87.101, 3796.873
88.496, 2166.575
89.890, 1391.611
91.284, 975.237
92.678, 757.663
94.071, 634.063
95.465, 518.580
96.858, 430.333
98.251, 350.231
99.644, 309.265
101.036, 284.917
102.428, 295.085
103.820, 307.173
105.212, 377.110
106.604, 463.321
107.995, 652.339
109.387, 870.780
110.777, 1332.984
112.168, 1831.894
113.559, 2342.923
114.949, 2640.815
116.339, 2431.824
117.729, 1868.946
119.119, 1286.179
120.508, 928.519
121.897, 751.966
123.286, 644.522
124.675, 623.186
126.063, 464.948
127.452, 416.803
128.840, 311.742
130.228, 229.761
131.615, 157.860
133.003, 105.039
134.390, 82.300
135.777, 48.643
137.164, 31.068
138.550, 26.577
139.937, 13.171
141.323, 0.849
142.709, 13.613
144.094, 17.537
145.480, 4.597
146.865, 25.564
148.250, 15.437
149.635, 38.214
151.019, 41.901
152.403, 22.498
153.788, 39.011
155.171, 43.443
156.555, 18.798
157.939, 38.080
159.322, 25.294
160.705, 74.443
162.088, 35.529
163.470, 20.555
164.853, 15.524
166.235, 26.560
167.617, 33.691
168.998, 47.864
170.380, 113.088
171.761, 147.366
173.142, 179.698
174.523, 207.080
175.904, 283.505
177.284, 363.970
178.664, 407.487
180.044, 527.074
181.424, 626.759
182.803, 764.535
184.183, 969.386
185.562, 1189.281
186.940, 1417.174
188.319, 1600.049
189.698, 1852.892
191.076, 1994.715
192.454, 2355.520
193.831, 2559.321
195.209, 3009.098
196.586, 3485.891
197.963, 4105.738
199.340, 4966.646
200.717, 5684.619
202.093, 6525.652
203.470, 7372.751
204.846, 8139.913
206.221, 9096.139
207.597, 10168.432
208.972, 11170.783
210.347, 11503.203
211.722, 11155.689
213.097, 10068.238
214.472, 9140.856
215.846, 8487.537
217.220, 8030.283
218.594, 7391.098
219.967, 6865.979
221.341, 6438.928
222.714, 6039.941
224.087, 5589.023
225.460, 5142.172
226.832, 4520.388
228.204, 3982.992
229.577, 3534.622
230.948, 3113.259
232.320, 2816.049
233.692, 2668.887
235.063, 2535.759
236.434, 2403.656
237.805, 2369.572
239.175, 2253.500
240.545, 2155.434
241.916, 2150.367
243.286, 2098.300
244.655, 2127.232
246.025, 2121.165
247.394, 2127.096
248.763, 2084.019
250.132, 1912.926
251.501, 1842.811
252.869, 1548.671
254.237, 1485.509
255.605, 1322.332
256.973, 1250.147
258.340, 1169.959
259.708, 1143.775
261.075, 1098.597
262.442, 1033.430
263.808, 986.271
265.175, 946.091
266.541, 957.875
267.907, 894.619
269.273, 798.300
270.639, 794.917
272.004, 712.446
273.369, 697.920
274.734, 632.350
276.099, 529.333
277.463, 558.016
278.828, 493.965
280.192, 510.153
281.556, 470.054
282.919, 491.005
284.283, 598.020
285.646, 658.825
287.009, 779.494
288.372, 864.267
289.734, 979.044
291.097, 1085.874
292.459, 1127.759
293.821, 1106.137
295.183, 997.513
296.544, 925.257
297.905, 765.798
299.266, 807.925
300.627, 837.977
301.988, 908.380
303.348, 1096.334
304.709, 1293.386
306.069, 1545.186
307.428, 1688.095
308.788, 1867.797
310.147, 1990.287
311.507, 2039.689
312.865, 2101.858
314.224, 2275.849
315.583, 2428.786
316.941, 2525.019
318.299, 2605.439
319.657, 2881.754
321.015, 3174.665
322.372, 3614.598
323.729, 4266.430
325.086, 5134.531
326.443, 6261.060
327.800, 7578.570
329.156, 9092.479
330.512, 10267.829
331.868, 11153.232
333.224, 10988.685
334.579, 10494.189
335.935, 9669.747
337.290, 8495.353
338.645, 7645.009
339.999, 6778.717
341.354, 6056.476
342.708, 5479.286
344.062, 5003.145
345.416, 4688.057
346.769, 4454.017
348.123, 4527.027
349.476, 4816.088
350.829, 5342.199
352.182, 6104.359
353.534, 6517.572
354.887, 6889.834
356.239, 6357.147
357.591, 5628.513
358.942, 4408.928
360.294, 3452.396
361.645, 2755.916
362.996, 2283.487
364.347, 2057.109
365.698, 2107.782
367.048, 2284.506
368.398, 2512.281
369.748, 2635.106
371.098, 2605.320
372.448, 2633.908
373.797, 2387.884
375.146, 2146.911
376.495, 1919.987
377.844, 1878.112
379.192, 1792.288
380.540, 1707.512
381.889, 1568.785
383.236, 1510.108
384.584, 1493.478
385.932, 1555.898
387.279, 1653.365
388.626, 1656.881
389.973, 1764.445
391.319, 2056.055
392.666, 2529.713
394.012, 3252.416
395.358, 4285.166
396.704, 5568.961
398.049, 6635.804
399.394, 6899.691
400.740, 7037.624
402.084, 6454.604
403.429, 5969.628
404.774, 5128.699
406.118, 4348.816
407.462, 3513.980
408.806, 2769.189
410.150, 2260.445
411.493, 1809.747
412.836, 1647.097
414.179, 1511.492
415.522, 1323.937
416.865, 1407.431
418.207, 1296.977
419.549, 1228.575
420.891, 1149.229
422.233, 895.941
423.575, 765.710
424.916, 587.536
426.257, 464.426
427.598, 345.380
428.939, 193.405
430.279, 116.502
431.619, 80.676
432.959, 49.929
434.299, 37.263
435.639, 17.680
436.978, 28.820
438.318, 18.241
439.657, 29.581
440.996, 36.841
442.334, 23.024
443.673, 22.677
445.011, 23.147
446.349, 10.086
447.687, 10.063
449.024, 0.696
450.361, 32.638
451.699, 6.058
453.036, 6.391
454.372, 58.847
455.709, 19.190
457.045, 67.449
458.381, 89.641
459.717, 80.769
461.053, 94.831
462.388, 114.838
463.724, 101.794
465.059, 53.700
466.394, 91.544
467.728, 36.334
469.063, 9.066
470.397, 3.270
471.731, 82.662
473.065, 90.114
474.398, 174.621
475.732, 209.188
477.065, 199.816
478.398, 256.498
479.731, 303.238
481.063, 376.036
482.396, 344.886
483.728, 422.792
485.060, 412.749
486.391, 447.769
487.723, 521.842
489.054, 483.964
490.385, 567.132
491.716, 562.340
493.047, 599.588
494.377, 617.874
495.708, 670.199
497.038, 689.566
498.368, 784.976
499.697, 755.432
501.027, 805.931
502.356, 796.477
503.685, 861.066
505.014, 878.703
506.342, 927.381
507.671, 977.101
508.999, 1008.859
510.327, 1094.653
511.655, 1093.482
512.982, 1166.345
514.310, 1243.243
515.637, 1304.174
516.964, 1373.139
518.291, 1460.137
519.617, 1528.167
520.944, 1586.603
522.270, 1654.734
523.596, 1688.452
524.921, 1761.610
526.247, 1801.799
527.572, 1833.018
528.897, 1845.268
530.222, 1884.225
531.547, 1924.857
532.871, 1949.195
534.196, 1969.563
535.520, 2012.209
536.844, 2179.383
538.167, 2181.834
539.491, 2286.313
540.814, 2417.820
542.137, 2463.353
543.460, 2665.912
544.783, 2629.497
546.105, 2865.108
547.427, 2883.744
548.749, 3110.406
550.071, 3182.091
551.393, 3260.801
552.714, 3444.534
554.035, 3617.291
555.356, 3712.072
556.677, 3907.875
557.998, 4070.858
559.318, 4320.547
560.638, 4428.417
561.958, 4590.308
563.278, 4749.218
564.597, 4863.587
565.917, 5027.103
567.236, 5075.074
568.555, 5210.066
569.874, 5233.078
571.192, 5201.107
572.511, 5476.157
573.829, 5245.484
575.147, 5219.081
576.464, 5211.913
577.782, 5017.999
579.099, 4925.730
580.416, 4672.833
581.733, 4486.102
583.050, 4315.064
584.366, 4016.837
585.683, 3847.342
586.999, 3636.587
588.315, 3456.884
589.630, 3359.363
590.946, 3143.651
592.261, 3096.685
593.576, 3001.472
594.891, 3004.264
596.206, 2897.654
597.520, 2990.806
598.834, 2952.460
600.148, 2915.825
601.462, 3024.522
602.776, 2995.286
604.089, 2995.440
605.402, 3045.897
606.715, 3037.273
608.028, 3042.765
609.341, 3108.598
610.653, 3239.977
611.965, 3311.415
613.277, 3388.524
614.589, 3560.509
615.901, 3544.680
617.212, 3662.236
618.523, 3759.159
619.834, 3675.172
621.145, 3634.876
622.456, 3513.808
623.766, 3479.440
625.076, 3231.944
626.386, 3080.495
627.696, 2941.111
629.006, 2780.865
630.315, 2650.442
631.624, 2513.642
632.933, 2389.828
634.242, 2328.002
635.551, 2110.162
636.859, 2059.309
638.167, 2080.441
639.475, 1953.558
640.783, 1967.661
642.090, 1826.749
643.398, 1773.820
644.705, 1673.875
646.012, 1642.913
647.318, 1632.935
648.625, 1454.939
649.931, 1474.925
651.237, 1434.893
652.543, 1381.843
653.849, 1386.322
655.155, 1307.462
656.460, 1311.852
657.765, 1318.222
659.070, 1254.832
660.375, 1282.024
661.679, 1186.042
662.984, 1191.926
664.288, 1170.960
665.592, 1098.072
666.895, 1083.003
668.199, 996.702
669.502, 959.377
670.805, 901.029
672.108, 799.656
673.411, 760.260
674.713, 716.838
676.016, 683.392
677.318, 638.921
678.620, 600.425
679.921, 615.902
681.223, 505.354
682.524, 516.779
683.825, 445.178
685.126, 430.551
686.427, 435.896
687.727, 409.214
689.028, 371.504
690.328, 334.767
691.628, 326.001
692.927, 299.207
694.227, 295.385
695.526, 306.533
696.825, 273.653
698.124, 270.743
699.423, 307.804
700.721, 223.835
702.020, 263.836
703.318, 261.806
704.616, 226.746
705.913, 223.656
707.211, 238.534
708.508, 238.381
709.805, 223.197
711.102, 232.819
712.399, 226.734
713.695, 216.454
714.992, 206.143
716.288, 198.089
717.584, 187.425
718.879, 182.017
720.175, 180.577
721.470, 178.105
722.765, 166.600
724.060, 175.064
725.355, 149.494
726.649, 147.893
727.944, 149.258
729.238, 92.592
730.532, 76.889
731.825, 67.147
733.119, 58.365
734.412, 38.540
735.705, 29.665
736.998, 26.738
738.291, 35.757
739.584, 0.275
740.876, 4.625
742.168, 22.539
743.460, 22.784
744.752, 41.109
746.043, 53.524
747.334, 49.036
748.626, 60.642
749.916, 60.351
751.207, 63.008
752.498, 71.069
753.788, 67.083
755.078, 65.199
756.368, 64.938
757.658, 81.734
758.947, 72.164
760.237, 88.698
761.526, 100.349
762.815, 103.122
764.104, 76.020
765.392, 69.027
766.680, 86.141
767.969, 56.370
769.257, 85.692
770.544, 78.127
771.832, 80.664
773.119, 82.302
774.406, 44.042
775.693, 50.862
776.980, 31.762
778.267, 18.735
779.553, 20.779
780.839, 5.109
782.125, 15.937
783.411, 102.707
784.697, 116.437
785.982, 184.129
787.267, 254.787
788.552, 406.410
789.837, 646.000
791.122, 984.555
792.406, 1672.076
793.690, 2570.563
794.974, 3344.018
796.258, 3560.437
797.542, 2965.824
798.825, 1914.177
800.108, 1238.496
801.391, 718.783
802.674, 492.036
803.957, 375.257
805.239, 213.444
806.522, 175.598
807.804, 88.720
809.085, 46.804
810.367, 33.843
811.649, 32.836
812.930, 21.781
814.211, 36.678
815.492, 5.530
816.772, 47.328
818.053, 38.083
819.333, 93.794
820.613, 108.470
821.893, 188.113
823.173, 259.724
824.452, 315.305
825.732, 438.855
827.011, 596.375
828.290, 783.864
829.568, 1024.323
830.847, 1404.752
832.125, 2020.151
833.403, 2677.521
834.681, 3824.861
835.959, 5000.172
837.236, 5673.454
838.514, 5504.707
839.791, 4561.931
841.068, 3253.127
842.345, 2397.295
843.621, 1726.434
844.898, 1310.546
846.174, 995.630
847.450, 782.686
848.726, 682.715
850.001, 584.717
851.277, 496.693
852.552, 486.641
853.827, 443.563
855.102, 394.459
856.376, 408.329
857.651, 409.173
858.925, 425.991
860.199, 372.784
861.473, 409.552
862.746, 385.302
864.020, 389.029
865.293, 441.748
866.566, 458.457
867.839, 514.161
869.112, 543.874
870.384, 588.589
871.656, 693.308
872.928, 821.027
874.200, 943.756
875.472, 1147.497
876.744, 1391.252
878.015, 1849.029
879.286, 2372.819
880.557, 3162.614
881.828, 3805.416
883.098, 4039.960
884.369, 3862.245
885.639, 3173.318
886.909, 2733.150
888.178, 2433.356
889.448, 2145.211
890.717, 2191.898
891.987, 2293.896
893.256, 2404.083
894.524, 2713.545
895.793, 3047.260
897.061, 3773.921
898.330, 4574.396
899.598, 5754.056
900.865, 7233.966
902.133, 9332.116
903.401, 12681.255
904.668, 17620.211
905.935, 23468.625
907.202, 31957.281
908.468, 42026.039
909.735, 50214.785
911.001, 52572.473
912.267, 44860.762
913.533, 34227.996
914.799, 23824.496
916.064, 16010.821
917.330, 11478.854
918.595, 7882.331
919.860, 5803.744
921.124, 4457.038
922.389, 3288.505
923.653, 2640.465
924.918, 2092.286
926.182, 1708.026
927.445, 1537.193
928.709, 1246.958
929.972, 1156.949
931.236, 1031.788
932.499, 938.530
933.761, 862.928
935.024, 763.884
936.286, 715.868
937.549, 630.034
938.811, 504.571
940.073, 498.112
941.334, 353.657
942.596, 325.207
943.857, 360.762
945.118, 282.322
946.379, 266.887
947.640, 221.458
948.900, 145.034
950.161, 168.617
951.421, 163.206
952.681, 185.802
953.940, 174.404
955.200, 185.014
956.459, 210.630
957.719, 189.255
958.978, 217.887
960.236, 247.979
961.495, 189.400
962.753, 233.561
964.012, 234.729
965.270, 192.647
966.527, 221.973
967.785, 167.460
969.043, 219.071
970.300, 198.521
971.557, 207.881
972.814, 268.410
974.071, 285.161
975.327, 321.924
976.583, 312.699
977.840, 360.486
979.095, 423.286
980.351, 444.098
981.607, 521.924
982.862, 586.763
984.117, 641.615
985.372, 697.481
986.627, 847.361
987.882, 866.256
989.136, 1008.164
990.390, 995.087
991.644, 1177.026
992.898, 1354.979
994.152, 1461.948
995.405, 1717.932
996.659, 1908.932
997.912, 2198.948
999.165, 2630.980
1000.417, 2912.028
1001.670, 3397.093
1002.922, 3832.175
1004.174, 4208.274
1005.426, 4814.390
1006.678, 5298.524
1007.930, 5943.676
1009.181, 6395.845
1010.432, 7131.032
1011.683, 7646.237
1012.934, 7866.632
1014.185, 7800.046
1015.435, 7581.604
1016.685, 6985.733
1017.935, 6573.175
1019.185, 5939.856
1020.435, 5582.617
1021.684, 5519.254
1022.934, 5266.485
1024.183, 5478.135
1025.432, 5707.554
1026.680, 5732.864
1027.929, 6121.407
1029.177, 5858.616
1030.425, 5732.935
1031.673, 5346.752
1032.921, 4802.711
1034.169, 4268.073
1035.416, 3746.384
1036.663, 3245.752
1037.911, 2906.721
1039.157, 2614.935
1040.404, 2328.745
1041.650, 2171.997
1042.897, 1965.619
1044.143, 1805.018
1045.389, 1643.769
1046.634, 1540.681
1047.880, 1456.511
1049.125, 1377.385
1050.371, 1358.308
1051.615, 1356.692
1052.860, 1411.298
1054.105, 1473.369
1055.349, 1617.491
1056.593, 1797.667
1057.837, 2014.896
1059.081, 2132.178
1060.325, 2405.511
1061.568, 2530.903
1062.812, 2552.349
1064.055, 2745.854
1065.298, 2873.422
1066.540, 3066.053
1067.783, 3379.741
1069.025, 3788.482
1070.267, 4351.283
1071.509, 5072.136
1072.751, 6025.047
1073.993, 7079.015
1075.234, 7738.040
1076.475, 8067.126
1077.716, 7878.256
1078.957, 7238.438
1080.198, 6675.665
1081.438, 5881.932
1082.679, 5133.243
1083.919, 4693.587
1085.159, 4161.964
1086.398, 4029.364
1087.638, 3871.786
1088.877, 3972.228
1090.116, 4287.690
1091.355, 4275.173
1092.594, 4416.676
1093.833, 4301.199
1095.071, 4069.743
1096.309, 3948.307
1097.547, 3720.892
1098.785, 3712.498
1100.023, 3644.124
1101.260, 3350.771
1102.498, 3143.438
1103.735, 2851.127
1104.972, 2557.836
1106.208, 2408.567
1107.445, 2256.318
1108.681, 1993.091
1109.918, 1953.886
1111.154, 1805.709
1112.389, 1789.560
1113.625, 1676.439
1114.860, 1579.348
1116.096, 1508.285
1117.331, 1250.253
1118.566, 1265.248
1119.800, 1168.271
1121.035, 1030.316
1122.269, 1058.383
1123.503, 1013.472
1124.737, 914.581
1125.971, 832.712
1127.205, 682.864
1128.438, 627.605
1129.671, 615.229
1130.904, 509.444
1132.137, 493.680
1133.370, 491.936
1134.602, 466.213
1135.834, 482.512
1137.066, 470.831
1138.298, 514.171
1139.530, 569.533
1140.762, 525.915
1141.993, 602.318
1143.224, 629.742
1144.455, 563.187
1145.686, 589.653
1146.917, 517.140
1148.147, 474.648
1149.377, 412.177
1150.607, 344.727
1151.837, 268.298
1153.067, 227.890
1154.296, 153.503
1155.526, 129.138
1156.755, 81.793
1157.984, 70.469
1159.213, 23.167
1160.441, 20.115
1161.670, 2.611
1162.898, 60.646
1164.126, 51.914
1165.354, 75.189
1166.581, 133.482
1167.809, 97.819
1169.036, 113.185
1170.263, 86.586
1171.490, 130.011
1172.717, 142.480
1173.943, 139.999
1175.170, 177.568
1176.396, 137.204
1177.622, 102.888
1178.848, 111.604
1180.073, 95.356
1181.299, 47.136
1182.524, 100.922
1183.749, 64.739
1184.974, 79.570
1186.199, 93.422
1187.423, 7.698
1188.648, 22.164
1189.872, 9.022
1191.096, 23.870
1192.320, 26.286
1193.543, 9.464
1194.767, 81.660
1195.990, 44.877
1197.213, 97.119
1198.436, 76.383
1199.659, 53.668
1200.881, 126.979
1202.104, 138.311
1203.326, 161.664
1204.548, 123.038
1205.770, 143.433
1206.991, 181.850
1208.213, 210.288
1209.434, 156.748
1210.655, 229.231
1211.876, 205.733
1213.096, 259.256
1214.317, 311.800
1215.537, 339.364
1216.757, 394.948
1217.977, 357.553
1219.197, 459.177
1220.417, 536.822
1221.636, 609.487
1222.855, 588.172
1224.074, 731.876
1225.293, 666.600
1226.512, 732.344
1227.731, 775.108
1228.949, 759.892
1230.167, 833.695
1231.385, 737.521
1232.603, 777.370
1233.820, 877.240
1235.038, 801.129
1236.255, 824.039
1237.472, 886.969
1238.689, 882.919
1239.906, 986.890
1241.122, 988.880
1242.338, 1018.891
1243.555, 1111.922
1244.771, 1068.974
1245.986, 1218.047
1247.202, 1255.138
1248.417, 1243.241
1249.633, 1394.358
1250.848, 1519.487
1252.063, 1538.628
1253.277, 1733.781
1254.492, 1822.947
1255.706, 1963.125
1256.920, 2035.316
1258.134, 2120.519
1259.348, 2354.734
1260.562, 2410.961
1261.775, 2584.200
1262.988, 2726.452
1264.201, 2838.715
1265.414, 3014.991
1266.627, 3205.278
1267.839, 3315.577
1269.052, 3562.887
1270.264, 3690.210
1271.476, 3847.545
1272.688, 4104.891
1273.899, 4015.248
1275.111, 4251.617
1276.322, 4220.998
1277.533, 4287.392
1278.744, 4439.795
1279.955, 4402.211
1281.165, 4313.641
1282.376, 4375.083
1283.586, 4387.540
1284.796, 4424.011
1286.006, 4460.499
1287.215, 4498.004
1288.425, 4604.523
1289.634, 4802.062
1290.843, 4728.621
1292.052, 4947.195
1293.261, 4956.791
1294.469, 5091.403
1295.678, 5253.036
1296.886, 5243.689
1298.094, 5501.360
1299.302, 5666.049
1300.509, 5570.759
1301.717, 5762.487
1302.924, 5542.235
1304.131, 5630.004
1305.338, 5696.792
1306.545, 5551.429
1307.752, 5554.085
1308.958, 5553.635
1310.164, 5250.653
1311.370, 5214.398
1312.576, 5068.941
1313.782, 4960.445
1314.987, 4881.111
1316.193, 4731.223
1317.398, 4610.955
1318.603, 4672.958
1319.807, 4429.109
1321.012, 4496.065
1322.216, 4457.396
1323.421, 4303.661
1324.625, 4321.464
1325.829, 4274.168
1327.032, 4047.514
1328.236, 4276.954
1329.439, 4136.383
1330.642, 4183.029
1331.845, 4355.946
1333.048, 4188.087
1334.251, 4359.843
1335.453, 4439.291
1336.656, 4498.018
1337.858, 4667.469
1339.060, 4676.817
1340.261, 4639.318
1341.463, 4745.518
1342.664, 4470.351
1343.866, 4407.952
1345.067, 4292.438
1346.267, 4105.121
1347.468, 4040.824
1348.669, 3796.572
1349.869, 3470.346
1351.069, 3393.184
1352.269, 3146.309
1353.469, 3098.383
1354.668, 2884.592
1355.868, 2763.552
1357.067, 2709.552
1358.266, 2628.592
1359.465, 2443.673
1360.664, 2506.796
1361.862, 2366.963
1363.061, 2226.173
1364.259, 2283.428
1365.457, 2140.729
1366.655, 2152.058
1367.852, 2076.425
1369.050, 1999.815
1370.247, 1943.250
1371.444, 1972.732
1372.641, 1858.244
1373.838, 1938.804
1375.035, 1892.025
1376.231, 1882.562
1377.427, 1925.254
1378.623, 1974.995
1379.819, 1949.784
1381.015, 2031.625
1382.211, 1951.521
1383.406, 2014.421
1384.601, 2001.286
1385.796, 1964.179
1386.991, 2008.084
1388.185, 1890.162
1389.380, 1918.217
1390.574, 1840.904
1391.768, 1652.251
1392.962, 1700.615
1394.156, 1555.994
1395.350, 1408.390
1396.543, 1439.802
1397.736, 1279.229
1398.929, 1190.673
1400.122, 1193.133
1401.315, 1144.608
1402.507, 1039.099
1403.700, 1039.606
1404.892, 884.129
1406.084, 902.667
1407.276, 854.222
1408.467, 750.792
1409.659, 754.377
1410.850, 733.977
1412.041, 683.593
1413.232, 664.223
1414.423, 594.867
1415.614, 586.525
1416.804, 613.196
1417.994, 517.880
1419.184, 535.577
1420.374, 507.294
1421.564, 437.057
1422.753, 511.913
1423.943, 425.925
1425.132, 402.090
1426.321, 435.438
1427.510, 406.010
1428.698, 416.799
1429.887, 362.767
1431.075, 344.878
1432.263, 366.141
1433.451, 352.545
1434.639, 329.024
1435.827, 348.578
1437.014, 320.179
1438.201, 331.809
1439.388, 342.471
1440.575, 341.167
1441.762, 338.652
1442.949, 374.671
1444.135, 328.472
1445.321, 337.306
1446.507, 350.177
1447.693, 300.082
1448.879, 309.020
1450.064, 316.991
1451.250, 313.992
1452.435, 341.025
1453.620, 269.085
1454.805, 259.156
1455.989, 305.245
1457.174, 184.357
1458.358, 213.490
1459.542, 197.644
1460.726, 176.818
1461.910, 129.013
1463.093, 125.279
1464.277, 113.630
1465.460, 113.070
1466.643, 82.602
1467.826, 71.825
1469.009, 91.960
1470.191, 44.794
1471.373, 39.738
1472.556, 52.796
1473.738, 37.975
