##NAMES=Scheelite
##RRUFFID=R040172
##IDEAL CHEMISTRY=CaW^6+^O_4_
##LOCALITY=Sonora, Mexico
##OWNER=RRUFF
##SOURCE=University of Arizona Mineral Museum
##DESCRIPTION=Colorless water worn single crystal
##STATUS=The identification of this mineral has been confirmed by X-ray diffraction and chemical analysis
##URL=rruff.info/R040172
##MEASURED CHEMISTRY=Ca_1.01_W_1.00_O_4_
##PIN_ID=L00329
##ORIENTATION=Laser parallel to a* (1 0 0). Fiducial mark perpendicular to laser is parallel to c [0 0 1]
53.228, 0.000
54.634, 13.645
56.040, 22.628
57.445, 38.041
58.850, 84.410
60.254, 76.445
61.659, 102.171
63.063, 114.632
64.467, 87.759
65.871, 58.633
67.274, 32.830
68.678, 13.325
70.081, 2.091
71.484, 9.892
72.886, 11.643
74.288, 2.180
75.690, 43.482
77.092, 140.330
78.494, 299.348
79.895, 728.525
81.296, 2052.849
82.697, 6165.309
84.097, 9793.897
85.498, 10440.607
86.898, 6098.431
88.298, 3152.364
89.697, 1946.399
91.097, 1351.532
92.496, 1140.761
93.895, 945.081
95.293, 859.488
96.692, 751.978
98.090, 622.545
99.488, 539.183
100.885, 475.886
102.283, 410.649
103.680, 376.043
105.077, 357.347
106.473, 333.276
107.870, 354.257
109.266, 352.288
110.662, 430.366
112.057, 548.491
113.453, 700.662
114.848, 948.877
116.243, 1067.135
117.638, 974.436
119.032, 753.779
120.426, 516.162
121.820, 376.587
123.214, 304.053
124.608, 255.561
126.001, 235.109
127.394, 202.698
128.787, 198.328
130.179, 155.997
131.571, 175.705
132.963, 134.451
134.355, 142.234
135.747, 119.053
137.138, 90.902
138.529, 124.765
139.920, 117.642
141.311, 90.530
142.701, 88.427
144.091, 79.332
145.481, 57.244
146.870, 73.147
148.260, 51.054
149.649, 62.976
151.038, 53.914
152.426, 43.868
153.815, 68.840
155.203, 48.830
156.591, 62.837
157.979, 64.862
159.366, 42.905
160.753, 54.967
162.140, 48.048
163.527, 71.147
164.913, 28.265
166.300, 43.402
167.686, 59.557
169.071, 41.730
170.457, 71.923
171.842, 62.133
173.227, 67.362
174.612, 45.609
175.996, 29.874
177.381, 45.157
178.765, 40.459
180.149, 43.778
181.532, 25.115
182.915, 53.473
184.299, 21.858
185.681, 70.264
187.064, 106.701
188.446, 84.162
189.828, 91.646
191.210, 114.158
192.592, 165.708
193.973, 211.285
195.355, 263.879
196.736, 321.495
198.116, 402.132
199.497, 476.799
200.877, 630.490
202.257, 850.201
203.637, 1171.936
205.016, 1711.685
206.395, 2675.446
207.774, 4156.219
209.153, 6630.003
210.532, 8394.803
211.910, 9459.615
213.288, 8120.439
214.666, 5522.277
216.043, 3745.129
217.421, 2411.003
218.798, 1689.892
220.175, 1246.291
221.551, 996.696
222.928, 858.090
224.304, 675.472
225.680, 618.823
227.055, 459.169
228.431, 402.496
229.806, 332.717
231.181, 264.958
232.556, 217.232
233.930, 157.537
235.304, 160.819
236.678, 114.931
238.052, 127.452
239.426, 96.006
240.799, 73.286
242.172, 81.755
243.545, 50.245
244.917, 52.757
246.290, 58.291
247.662, 41.845
249.034, 22.418
250.405, 35.010
251.777, 46.621
253.148, 30.249
254.519, 23.894
255.889, 15.555
257.260, 21.233
258.630, 30.926
260.000, 25.635
261.370, 41.359
262.739, 29.097
264.108, 37.852
265.477, 28.621
266.846, 47.403
268.215, 45.199
269.583, 60.007
270.951, 61.829
272.319, 77.663
273.686, 98.509
275.054, 95.368
276.421, 98.238
277.788, 124.121
279.154, 84.015
280.521, 92.920
281.887, 111.835
283.253, 125.761
284.619, 143.105
285.984, 151.644
287.349, 184.600
288.714, 193.565
290.079, 222.541
291.444, 255.525
292.808, 271.519
294.172, 338.522
295.536, 334.534
296.899, 366.556
298.263, 365.586
299.626, 437.674
300.989, 418.723
302.351, 491.779
303.714, 567.843
305.076, 586.914
306.438, 686.994
307.799, 751.080
309.161, 884.174
310.522, 933.007
311.883, 1007.531
313.244, 1216.780
314.604, 1299.151
315.965, 1526.281
317.325, 1679.302
318.684, 1945.386
320.044, 2338.542
321.403, 2675.076
322.762, 3284.245
324.121, 3943.463
325.480, 4879.242
326.838, 6296.432
328.196, 7841.342
329.554, 10578.742
330.912, 12749.090
332.270, 15929.977
333.627, 16810.193
334.984, 16070.422
336.341, 14851.442
337.697, 11471.679
339.053, 9511.919
340.409, 7192.567
341.765, 5626.704
343.121, 4536.262
344.476, 3502.257
345.831, 3017.873
347.186, 2413.429
348.541, 2095.271
349.895, 1800.211
351.250, 1564.969
352.604, 1398.270
353.957, 1185.600
355.311, 1149.908
356.664, 988.221
358.017, 965.540
359.370, 906.859
360.722, 819.221
362.075, 791.573
363.427, 671.972
364.779, 681.659
366.130, 616.999
367.482, 562.690
368.833, 578.045
370.184, 540.382
371.535, 509.733
372.885, 522.087
374.235, 524.542
375.585, 530.772
376.935, 509.883
378.285, 594.472
379.634, 588.405
380.983, 675.766
382.332, 683.114
383.680, 788.520
385.029, 846.199
386.377, 945.177
387.725, 1141.749
389.073, 1266.877
390.420, 1596.892
391.767, 1965.347
393.114, 2467.928
394.461, 3387.520
395.808, 4504.003
397.154, 6494.550
398.500, 8817.177
399.846, 10910.051
401.191, 11691.058
402.537, 9521.467
403.882, 7120.150
405.227, 4705.577
406.571, 3254.016
407.916, 2265.696
409.260, 1557.118
410.604, 1190.570
411.948, 877.996
413.291, 692.423
414.635, 580.855
415.978, 450.293
417.321, 408.733
418.663, 313.177
420.006, 294.623
421.348, 264.070
422.690, 202.575
424.031, 181.023
425.373, 149.127
426.714, 158.612
428.055, 159.066
429.396, 142.519
430.736, 146.048
432.077, 102.503
433.417, 101.026
434.757, 106.481
436.096, 88.218
437.436, 102.671
438.775, 70.282
440.114, 87.734
441.452, 73.185
442.791, 51.636
444.129, 77.086
445.467, 34.538
446.805, 39.986
448.142, 54.433
449.480, 47.878
450.817, 21.327
452.154, 14.794
453.490, 38.276
454.827, 11.793
456.163, 27.303
457.499, 46.955
458.835, 11.536
460.170, 2.614
461.505, 0.828
462.840, 23.256
464.175, 12.681
465.510, 12.103
466.844, 0.523
468.178, 0.941
469.512, 9.357
470.846, 16.231
472.179, 10.827
473.512, 4.431
474.845, 7.038
476.178, 5.349
477.511, 17.267
478.843, 17.894
480.175, 2.707
481.507, 7.863
482.839, 11.489
484.170, 18.030
485.501, 10.693
486.832, 1.662
488.163, 28.015
489.493, 19.534
490.823, 2.244
492.153, 10.660
493.483, 6.619
494.813, 16.891
496.142, 11.842
497.471, 26.415
498.800, 2.717
500.129, 20.898
501.457, 12.433
502.785, 2.774
504.113, 9.423
505.441, 3.091
506.769, 1.882
508.096, 5.742
509.423, 6.619
510.750, 3.326
512.077, 10.707
513.403, 5.864
514.729, 13.219
516.055, 23.911
517.381, 12.063
518.706, 23.216
520.032, 7.346
521.357, 8.469
522.681, 6.588
524.006, 0.570
525.330, 12.804
526.655, 0.903
527.978, 10.994
529.302, 23.088
530.626, 13.168
531.949, 13.243
533.272, 7.312
534.595, 6.625
535.917, 4.576
537.239, 4.630
538.562, 1.340
539.883, 15.679
541.205, 19.692
542.527, 11.701
543.848, 3.868
545.169, 1.138
546.489, 6.845
547.810, 3.180
549.130, 1.217
550.450, 11.734
551.770, 7.679
553.090, 7.616
554.409, 11.654
555.728, 9.577
557.047, 7.492
558.366, 2.400
559.685, 0.297
561.003, 29.682
562.321, 7.979
563.639, 22.002
564.956, 19.868
566.274, 8.727
567.591, 26.578
568.908, 19.442
570.225, 25.396
571.541, 30.228
572.857, 26.667
574.173, 42.710
575.489, 38.823
576.805, 29.331
578.120, 33.279
579.435, 37.073
580.750, 20.861
582.065, 41.655
583.380, 3.924
584.694, 23.687
586.008, 37.052
587.322, 41.801
588.635, 21.872
589.949, 33.607
591.262, 22.336
592.575, 35.138
593.887, 13.853
595.200, 45.559
596.512, 18.258
597.824, 41.953
599.136, 45.637
600.447, 36.383
601.759, 34.081
603.070, 31.811
604.381, 39.470
605.692, 38.121
607.002, 34.766
608.312, 31.404
609.622, 27.036
610.932, 25.144
612.242, 22.609
613.551, 22.889
614.860, 16.492
616.169, 19.087
617.478, 10.674
618.786, 29.203
620.094, 40.772
621.402, 57.336
622.710, 53.893
624.018, 50.443
625.325, 46.985
626.632, 46.523
627.939, 39.054
629.246, 51.846
630.552, 52.948
631.859, 50.048
633.165, 30.584
634.471, 33.084
635.776, 28.693
637.082, 6.760
638.387, 18.710
639.692, 45.802
640.996, 15.259
642.301, 25.667
643.605, 19.514
644.909, 27.952
646.213, 10.669
647.516, 31.894
648.820, 6.175
650.123, 19.911
651.426, 36.316
652.729, 30.716
654.031, 20.319
655.333, 12.708
656.636, 8.927
657.937, 5.159
659.239, 0.548
660.540, 6.608
661.842, 6.230
663.142, 11.230
664.443, 8.711
665.744, 8.944
667.044, 0.279
668.344, 4.436
669.644, 10.862
670.944, 2.128
672.243, 3.586
673.542, 7.690
674.841, 6.960
676.140, 24.227
677.438, 20.450
678.737, 14.681
680.035, 25.863
681.333, 38.755
682.630, 23.992
683.928, 35.876
685.225, 5.093
686.522, 26.326
687.819, 20.543
689.115, 7.754
690.412, 25.863
691.708, 23.193
693.004, 0.360
694.300, 16.606
695.595, 8.225
696.890, 17.415
698.185, 19.613
699.480, 1.245
700.775, 9.622
702.069, 19.190
703.363, 9.165
704.657, 16.584
705.951, 14.115
707.244, 2.208
708.538, 18.177
709.831, 1.866
711.124, 7.200
712.416, 10.202
713.709, 10.125
715.001, 20.804
716.293, 9.648
717.585, 8.499
718.876, 3.625
720.167, 5.504
721.459, 2.620
722.749, 9.495
724.040, 0.373
725.331, 3.270
726.621, 6.856
727.911, 13.019
729.201, 22.901
730.490, 6.796
731.780, 15.696
733.069, 4.603
734.358, 5.486
735.646, 17.573
736.935, 0.399
738.223, 12.315
739.511, 10.109
740.799, 14.849
742.087, 17.221
743.374, 9.711
744.661, 11.280
745.948, 7.343
747.235, 3.664
748.522, 10.397
749.808, 15.173
751.094, 2.231
752.380, 0.131
753.666, 3.188
754.951, 3.613
756.236, 1.702
757.521, 3.648
758.806, 6.402
760.091, 15.453
761.375, 4.505
762.659, 2.556
763.943, 31.602
765.227, 13.628
766.511, 16.637
767.794, 1.610
769.077, 17.588
770.360, 24.421
771.643, 38.324
772.925, 45.049
774.207, 28.993
775.489, 61.044
776.771, 40.095
778.053, 51.147
779.334, 40.199
780.615, 67.251
781.896, 70.305
783.177, 80.359
784.457, 61.417
785.738, 86.477
787.018, 118.540
788.298, 187.604
789.577, 215.669
790.857, 307.738
792.136, 450.575
793.415, 698.579
794.694, 1075.658
795.972, 1590.606
797.251, 1797.691
798.529, 1559.753
799.807, 1083.844
801.084, 790.769
802.362, 460.877
803.639, 329.688
804.916, 268.799
806.193, 218.915
807.470, 168.037
808.746, 145.164
810.022, 122.245
811.298, 108.241
812.574, 131.148
813.850, 89.855
815.125, 114.866
816.400, 104.895
817.675, 97.043
818.950, 80.261
820.224, 112.489
821.499, 114.290
822.773, 135.852
824.047, 143.036
825.320, 161.021
826.594, 191.668
827.867, 209.856
829.140, 286.041
830.413, 305.249
831.685, 403.464
832.958, 505.689
834.230, 658.923
835.502, 910.164
836.774, 1120.408
838.045, 1340.663
839.316, 1323.910
840.588, 1063.171
841.858, 920.436
843.129, 660.707
844.400, 574.984
845.670, 518.269
846.940, 438.396
848.210, 447.700
849.479, 438.016
850.749, 400.334
852.018, 425.660
853.287, 435.824
854.556, 489.160
855.824, 482.501
857.093, 483.850
858.361, 532.206
859.629, 515.570
860.896, 580.937
862.164, 548.310
863.431, 576.580
864.698, 663.962
865.965, 637.349
867.232, 671.741
868.498, 721.139
869.764, 705.045
871.030, 817.036
872.296, 861.299
873.562, 919.718
874.827, 1072.140
876.092, 1152.568
877.357, 1361.980
878.622, 1539.301
879.886, 1862.742
881.151, 2379.573
882.415, 2669.801
883.679, 2821.431
884.942, 3106.710
886.206, 2839.025
887.469, 2697.492
888.732, 2355.962
889.995, 2495.426
891.258, 2551.411
892.520, 2645.899
893.782, 3035.781
895.044, 3310.279
896.306, 4009.453
897.568, 4780.961
898.829, 5608.473
900.090, 7471.911
901.351, 8855.435
902.612, 11652.965
903.872, 15712.499
905.133, 20112.037
906.393, 28921.578
907.653, 37171.066
908.912, 48460.586
910.172, 60620.078
911.431, 60969.645
912.690, 57609.219
913.949, 44068.789
915.208, 29358.369
916.466, 21437.947
917.724, 13997.538
918.982, 10417.131
920.240, 7663.729
921.498, 5665.333
922.755, 4631.942
924.012, 3687.558
925.269, 3002.180
926.526, 2666.807
927.782, 2229.439
929.039, 2084.076
930.295, 1861.717
931.551, 1743.446
932.806, 1799.098
934.062, 1530.754
935.317, 1485.415
936.572, 1369.081
937.827, 1211.752
939.082, 1245.428
940.336, 1040.109
941.590, 961.794
942.844, 871.484
944.098, 779.185
945.352, 771.891
946.605, 677.602
947.859, 614.322
949.112, 598.042
950.364, 522.768
951.617, 523.499
952.869, 465.235
954.121, 435.990
955.373, 396.737
956.625, 353.489
957.877, 344.684
959.128, 342.879
960.379, 325.864
961.630, 315.635
962.881, 311.411
964.131, 273.193
965.381, 280.981
966.631, 227.685
967.881, 240.483
969.131, 204.958
970.380, 208.769
971.630, 207.589
972.879, 179.415
974.128, 194.248
975.376, 178.600
976.625, 169.442
977.873, 167.195
979.121, 146.208
980.369, 176.066
981.616, 154.914
982.864, 156.401
984.111, 147.712
985.358, 131.905
986.605, 141.782
987.851, 162.000
989.097, 139.885
990.344, 143.818
991.589, 138.710
992.835, 110.346
994.081, 119.882
995.326, 103.784
996.571, 118.520
997.816, 105.520
999.061, 107.533
1000.305, 108.487
1001.550, 115.176
1002.794, 96.137
1004.037, 93.110
1005.281, 62.135
1006.525, 73.535
1007.768, 65.540
1009.011, 65.599
1010.254, 48.541
1011.496, 66.739
1012.739, 69.687
1013.981, 60.638
1015.223, 49.593
1016.465, 64.549
1017.706, 63.600
1018.948, 36.562
1020.189, 61.529
1021.430, 59.581
1022.671, 51.556
1023.911, 75.533
1025.152, 30.512
1026.392, 44.611
1027.632, 43.596
1028.872, 60.583
1030.111, 35.572
1031.350, 43.567
1032.590, 39.569
1033.829, 43.575
1035.067, 11.586
1036.306, 48.601
1037.544, 47.638
1038.782, 9.657
1040.020, 31.784
1041.258, 22.809
1042.495, 12.836
1043.733, 17.885
1044.970, 28.918
1046.207, 37.108
1047.443, 39.146
1048.680, 18.498
1049.916, 13.582
1051.152, 24.626
1052.388, 33.693
1053.624, 6.753
1054.859, 10.801
1056.094, 30.851
1057.329, 10.903
1058.564, 7.963
1059.799, 30.019
1061.033, 21.076
1062.268, 27.135
1063.502, 14.204
1064.735, 21.266
1065.969, 19.329
1067.202, 8.395
1068.436, 15.462
1069.669, 16.990
1070.902, 3.616
1072.134, 29.686
1073.367, 29.771
1074.599, 33.843
1075.831, 20.916
1077.062, 34.992
1078.294, 12.067
1079.525, 3.858
1080.757, 28.218
1081.988, 36.294
1083.218, 11.371
1084.449, 1.449
1085.679, 5.527
1086.909, 16.606
1088.139, 12.686
1089.369, 7.766
1090.599, 4.854
1091.828, 8.937
1093.057, 4.416
1094.286, 6.270
1095.515, 0.187
1096.744, 10.271
1097.972, 6.366
1099.200, 13.454
1100.428, 18.542
1101.656, 0.313
1102.883, 7.775
1104.111, 10.864
1105.338, 16.033
1106.565, 6.053
1107.791, 4.860
1109.018, 16.226
1110.244, 19.310
1111.470, 4.394
1112.696, 14.502
1113.922, 15.414
1115.147, 6.664
1116.373, 11.256
1117.598, 9.814
1118.823, 1.884
1120.047, 7.953
1121.272, 7.022
1122.496, 7.910
1123.720, 2.152
1124.944, 13.785
1126.168, 1.732
1127.391, 7.319
1128.615, 14.630
1129.838, 24.589
1131.061, 21.563
1132.283, 3.551
1133.506, 23.484
1134.728, 19.488
1135.950, 5.529
1137.172, 1.525
1138.394, 3.518
1139.615, 9.448
1140.837, 7.659
1142.058, 8.543
1143.279, 10.480
1144.499, 14.512
1145.720, 14.546
1146.940, 4.424
1148.160, 9.630
1149.380, 3.307
1150.600, 3.242
1151.819, 2.250
1153.038, 3.807
1154.257, 3.118
1155.476, 2.141
1156.695, 20.071
1157.913, 0.002
1159.132, 28.004
1160.350, 13.951
1161.568, 13.904
1162.785, 13.835
1164.003, 3.765
1165.220, 27.689
1166.437, 24.593
1167.654, 4.506
1168.871, 34.406
1170.087, 38.305
1171.304, 16.201
1172.520, 4.095
1173.736, 30.987
1174.951, 16.876
1176.167, 13.838
1177.382, 26.750
1178.597, 41.634
1179.812, 16.516
1181.027, 25.395
1182.241, 20.303
1183.455, 9.178
1184.669, 48.051
1185.883, 5.934
1187.097, 50.801
1188.311, 25.666
1189.524, 10.529
1190.737, 29.389
1191.950, 5.247
1193.162, 34.101
1194.375, 1.952
1195.587, 9.798
1196.799, 46.642
1198.011, 11.483
1199.223, 13.321
1200.434, 17.156
1201.646, 29.009
1202.857, 37.839
1204.068, 15.780
1205.279, 20.618
1206.489, 22.441
1207.699, 30.418
1208.909, 16.236
1210.119, 28.051
1211.329, 27.864
1212.539, 46.133
1213.748, 43.941
1214.957, 15.745
1216.166, 33.547
1217.375, 49.346
1218.583, 17.157
1219.792, 32.951
1221.000, 58.742
1222.208, 20.529
1223.415, 34.314
1224.623, 23.096
1225.830, 41.792
1227.037, 32.568
1228.244, 41.389
1229.451, 26.178
1230.658, 24.947
1231.864, 32.712
1233.070, 31.474
1234.276, 30.233
1235.482, 20.990
1236.687, 31.162
1237.893, 41.914
1239.098, 32.669
1240.303, 33.415
1241.508, 24.182
1242.712, 22.616
1243.917, 34.354
1245.121, 47.278
1246.325, 16.010
1247.529, 38.758
1248.732, 30.642
1249.936, 22.365
1251.139, 48.437
1252.342, 27.154
1253.545, 25.649
1254.747, 37.360
1255.950, 28.044
1257.152, 21.004
1258.354, 29.750
1259.556, 25.539
1260.758, 25.252
1261.959, 36.527
1263.160, 45.219
1264.361, 33.909
1265.562, 60.633
1266.763, 33.317
1267.963, 52.484
1269.164, 36.186
1270.364, 25.984
1271.563, 30.498
1272.763, 27.199
1273.963, 30.892
1275.162, 24.727
1276.361, 37.160
1277.560, 15.501
1278.759, 17.172
1279.957, 15.491
1281.155, 28.411
1282.354, 32.018
1283.551, 12.668
1284.749, 31.575
1285.947, 13.584
1287.144, 38.228
1288.341, 23.040
1289.538, 16.589
1290.735, 12.126
1291.931, 25.759
1293.128, 18.586
1294.324, 42.177
1295.520, 5.754
1296.716, 14.281
1297.911, 41.434
1299.107, 3.983
1300.302, 14.479
1301.497, 14.093
1302.692, 4.451
1303.886, 9.083
1305.081, 8.404
1306.275, 11.969
1307.469, 11.896
1308.663, 12.829
1309.856, 18.992
1311.050, 14.578
1312.243, 18.081
1313.436, 19.661
1314.629, 31.227
1315.822, 26.095
1317.014, 25.233
1318.206, 23.790
1319.398, 5.342
1320.590, 10.891
1321.782, 21.437
1322.974, 21.981
1324.165, 43.522
1325.356, 10.060
1326.547, 39.596
1327.738, 38.108
1328.928, 14.635
1330.119, 24.052
1331.309, 33.574
1332.499, 24.777
1333.688, 31.473
1334.878, 24.106
1336.067, 32.463
1337.256, 31.971
1338.445, 36.486
1339.634, 25.626
1340.823, 32.125
1342.011, 23.599
1343.199, 20.080
1344.388, 12.570
1345.575, 30.058
1346.763, 2.560
1347.950, 14.065
1349.138, 29.545
1350.325, 1.075
1351.512, 36.550
1352.698, 20.025
1353.885, 28.549
1355.071, 3.982
1356.257, 26.483
1357.443, 37.947
1358.629, 17.393
1359.814, 26.853
1361.000, 13.312
1362.185, 16.756
1363.370, 22.209
1364.554, 24.660
1365.739, 19.106
1366.923, 20.830
1368.107, 17.996
1369.291, 19.440
1370.475, 6.918
1371.659, 12.361
1372.842, 36.943
1374.025, 37.387
1375.208, 31.667
1376.391, 20.201
1377.574, 36.722
1378.756, 3.756
1379.939, 42.761
1381.121, 15.258
1382.303, 30.698
1383.484, 10.191
1384.666, 8.339
1385.847, 34.139
1387.028, 0.385
1388.209, 26.058
1389.390, 8.522
1390.570, 0.006
1391.751, 25.461
1392.931, 17.075
1394.111, 17.391
1395.291, 33.859
1396.470, 21.340
1397.649, 0.190
1398.829, 3.266
1400.008, 6.773
1401.187, 36.229
1402.365, 12.710
1403.544, 1.774
1404.722, 42.737
1405.900, 26.285
1407.078, 7.720
1408.255, 31.139
1409.433, 17.659
1410.610, 11.046
1411.787, 10.508
1412.964, 25.998
1414.141, 9.525
1415.317, 14.066
1416.494, 40.605
1417.670, 34.145
1418.846, 36.538
1420.022, 14.074
1421.197, 28.564
1422.373, 1.902
1423.548, 40.614
1424.723, 46.149
1425.898, 22.684
1427.072, 54.221
1428.247, 40.764
1429.421, 26.307
1430.595, 28.820
1431.769, 30.176
1432.942, 21.697
1434.116, 24.970
1435.289, 23.953
1436.462, 32.237
1437.635, 27.048
1438.808, 35.270
1439.981, 41.801
1441.153, 32.336
1442.325, 42.872
1443.497, 49.318
1444.669, 11.819
1445.840, 75.358
1447.012, 75.899
1448.183, 57.572
1449.354, 40.085
1450.525, 55.059
1451.696, 56.144
1452.866, 64.562
1454.036, 36.695
1455.206, 33.341
1456.376, 37.087
1457.546, 25.643
1458.716, 45.951
1459.885, 46.687
1461.054, 47.072
1462.223, 57.357
1463.392, 51.669
1464.560, 46.830
1465.729, 37.209
1466.897, 32.555
1468.065, 22.858
1469.233, 24.382
1470.400, 44.677
1471.568, 18.958
1472.735, 69.223
1473.902, 45.474
1475.069, 30.715
1476.236, 30.953
1477.402, 35.185
1478.569, 23.397
1479.735, 38.587
1480.901, 43.661
1482.066, 31.813
1483.232, 39.982
1484.397, 16.171
1485.562, 41.408
1486.727, 5.698
1487.892, 3.007
1489.057, 20.324
1490.221, 0.359
1491.386, 32.958
1492.550, 7.295
1493.714, 0.344
1494.877, 29.026
1496.041, 22.408
1497.204, 26.807
1498.367, 29.737
1499.530, 28.702
1500.693, 19.209
1501.856, 30.277
1503.018, 19.216
1504.180, 33.591
1505.342, 16.369
1506.504, 24.809
1507.666, 34.234
1508.827, 30.651
1509.988, 5.188
1511.149, 37.933
1512.310, 0.150
1513.471, 14.261
1514.631, 0.000
##END=



