##NAMES=Scheelite
##RRUFFID=R040172
##IDEAL CHEMISTRY=CaW^6+^O_4_
##LOCALITY=Sonora, Mexico
##OWNER=RRUFF
##SOURCE=University of Arizona Mineral Museum
##DESCRIPTION=Colorless water worn single crystal
##STATUS=The identification of this mineral has been confirmed by X-ray diffraction and chemical analysis
##URL=rruff.info/R040172
##MEASURED CHEMISTRY=Ca_1.01_W_1.00_O_4_
##PIN_ID=L00480
##ORIENTATION=Laser parallel to -c* (0 0 -1). Fiducial mark perpendicular to laser is parallel to a [1 0 0]
57.445, 0.000
58.850, 14.539
60.254, 32.623
61.659, 25.874
63.063, 41.338
64.467, 78.715
65.871, 65.219
67.274, 45.335
68.678, 5.991
70.081, 14.877
71.484, 1.677
72.886, 11.607
74.288, 18.873
75.690, 53.442
77.092, 137.286
78.494, 271.382
79.895, 597.710
81.296, 1476.249
82.697, 4438.982
84.097, 7638.896
85.498, 9036.973
86.898, 6200.202
88.298, 3335.575
89.697, 2166.081
91.097, 1405.713
92.496, 1250.463
93.895, 1031.326
95.293, 960.295
96.692, 844.367
98.090, 666.536
99.488, 581.800
100.885, 473.150
102.283, 412.582
103.680, 341.087
105.077, 322.661
106.473, 293.300
107.870, 288.000
109.266, 251.760
110.662, 256.576
112.057, 292.447
113.453, 272.370
114.848, 276.344
116.243, 318.369
117.638, 337.441
119.032, 308.560
120.426, 203.725
121.820, 193.934
123.214, 162.188
124.608, 128.484
126.001, 116.824
127.394, 115.205
128.787, 104.627
130.179, 91.091
131.571, 98.595
132.963, 67.140
134.355, 92.724
135.747, 69.348
137.138, 69.010
138.529, 82.711
139.920, 59.450
141.311, 63.218
142.701, 65.996
144.091, 53.781
145.481, 39.572
146.870, 42.371
148.260, 57.162
149.649, 17.965
151.038, 32.782
152.426, 44.614
153.815, 30.462
155.203, 50.327
156.591, 36.209
157.979, 46.109
159.366, 18.027
160.753, 41.965
162.140, 15.921
163.527, 50.897
164.913, 52.891
166.300, 39.906
167.686, 14.939
169.071, 16.992
170.457, 49.065
171.842, 41.157
173.227, 35.268
174.612, 29.399
175.996, 36.548
177.381, 21.717
178.765, 28.904
180.149, 46.110
181.532, 48.335
182.915, 34.583
184.299, 36.852
185.681, 37.138
187.064, 51.443
188.446, 60.269
189.828, 59.112
191.210, 95.487
192.592, 112.880
193.973, 144.292
195.355, 201.725
196.736, 257.179
198.116, 315.651
199.497, 434.150
200.877, 531.678
202.257, 754.228
203.637, 1067.797
205.016, 1585.382
206.395, 2480.989
207.774, 3810.614
209.153, 5912.268
210.532, 7558.949
211.910, 8403.650
213.288, 7519.361
214.666, 5209.086
216.043, 3510.842
217.421, 2272.625
218.798, 1589.420
220.175, 1174.236
221.551, 921.063
222.928, 788.906
224.304, 631.040
225.680, 536.184
227.055, 481.323
228.431, 366.449
229.806, 293.578
231.181, 212.626
232.556, 216.719
233.930, 170.851
235.304, 136.963
236.678, 113.053
238.052, 73.290
239.426, 98.558
240.799, 52.855
242.172, 59.179
243.545, 59.531
244.917, 51.912
246.290, 47.319
247.662, 38.748
249.034, 39.204
250.405, 15.680
251.777, 19.177
253.148, 18.695
254.519, 35.231
255.889, 15.789
257.260, 14.364
258.630, 18.958
260.000, 18.568
261.370, 18.196
262.739, 25.839
264.108, 17.499
265.477, 34.174
266.846, 44.868
268.215, 35.575
269.583, 38.299
270.951, 38.036
272.319, 43.787
273.686, 40.550
275.054, 57.327
276.421, 62.115
277.788, 61.917
279.154, 55.732
280.521, 81.560
281.887, 107.400
283.253, 125.251
284.619, 128.114
285.984, 162.988
287.349, 160.873
288.714, 185.769
290.079, 220.676
291.444, 230.593
292.808, 257.519
294.172, 284.456
295.536, 310.401
296.899, 336.357
298.263, 350.322
299.626, 383.295
300.989, 470.277
302.351, 494.267
303.714, 537.266
305.076, 560.531
306.438, 649.793
307.799, 715.938
309.161, 820.969
310.522, 915.007
311.883, 986.053
313.244, 1156.108
314.604, 1265.171
315.965, 1442.242
317.325, 1703.413
318.684, 1891.580
320.044, 2267.542
321.403, 2609.252
322.762, 3146.363
324.121, 3795.555
325.480, 4793.680
326.838, 6092.047
328.196, 7678.185
329.554, 10170.331
330.912, 12341.413
332.270, 14891.569
333.627, 16311.738
334.984, 15472.123
336.341, 14472.359
337.697, 11373.175
339.053, 9218.994
340.409, 7200.857
341.765, 5532.833
343.121, 4521.248
344.476, 3482.604
345.831, 2923.823
347.186, 2420.690
348.541, 2047.919
349.895, 1808.153
351.250, 1524.023
352.604, 1406.397
353.957, 1230.897
355.311, 1138.339
356.664, 1018.727
358.017, 921.058
359.370, 877.829
360.722, 784.868
362.075, 778.138
363.427, 684.802
364.779, 651.078
366.130, 638.356
367.482, 583.638
368.833, 587.922
370.184, 520.812
371.535, 546.331
372.885, 523.733
374.235, 520.026
375.585, 540.321
376.935, 518.119
378.285, 562.427
379.634, 577.728
380.983, 612.086
382.332, 675.390
383.680, 708.461
385.029, 839.775
386.377, 902.083
387.725, 1097.873
389.073, 1278.280
390.420, 1460.598
391.767, 1865.027
393.114, 2281.756
394.461, 3110.679
395.808, 4154.116
397.154, 5993.459
398.500, 8109.807
399.846, 9863.163
401.191, 10823.521
402.537, 8977.884
403.882, 6604.252
405.227, 4526.719
406.571, 3002.964
407.916, 2090.610
409.260, 1438.989
410.604, 1099.022
411.948, 837.409
413.291, 604.794
414.635, 550.183
415.978, 423.573
417.321, 373.438
418.663, 306.835
420.006, 251.385
421.348, 238.784
422.690, 189.184
424.031, 170.586
425.373, 167.177
426.714, 127.780
428.055, 149.881
429.396, 137.287
430.736, 138.110
432.077, 94.538
433.417, 108.947
434.757, 79.356
436.096, 92.766
437.436, 83.202
438.775, 83.621
440.114, 58.640
441.452, 69.103
442.791, 61.531
444.129, 63.128
445.467, 44.543
446.805, 61.190
448.142, 46.622
449.480, 30.260
450.817, 25.671
452.154, 13.085
453.490, 33.500
454.827, 8.047
456.163, 26.458
457.499, 2.926
458.835, 6.386
460.170, 9.795
461.505, 2.199
462.840, 15.645
464.175, 11.094
465.510, 8.507
466.844, 8.078
468.178, 4.688
469.512, 9.699
470.846, 7.084
472.179, 11.776
473.512, 16.297
474.845, 9.818
476.178, 7.194
477.511, 2.880
478.843, 2.436
480.175, 17.070
481.507, 12.656
482.839, 15.831
484.170, 1.825
485.501, 9.529
486.832, 5.134
488.163, 1.278
489.493, 3.780
490.823, 15.894
492.153, 4.421
493.483, 3.267
494.813, 3.426
496.142, 0.123
497.471, 9.720
498.800, 9.438
500.129, 9.660
501.457, 11.045
502.785, 1.786
504.113, 0.533
505.441, 36.714
506.769, 8.043
508.096, 15.191
509.423, 22.553
510.750, 7.178
512.077, 1.044
513.403, 0.700
514.729, 0.503
516.055, 14.300
517.381, 13.117
518.706, 3.947
520.032, 7.947
521.357, 9.362
522.681, 1.494
524.006, 9.643
525.330, 11.774
526.655, 8.902
527.978, 23.025
529.302, 19.857
530.626, 13.757
531.949, 11.673
533.272, 12.397
534.595, 17.463
535.917, 1.477
537.239, 9.425
538.562, 16.862
539.883, 8.913
541.205, 24.024
542.527, 4.798
543.848, 13.212
545.169, 15.218
546.489, 0.219
547.810, 9.211
549.130, 7.804
550.450, 9.168
551.770, 2.133
553.090, 0.910
554.409, 10.172
555.728, 19.171
557.047, 21.105
558.366, 26.455
559.685, 27.386
561.003, 26.000
562.321, 20.913
563.639, 11.821
564.956, 4.277
566.274, 6.987
567.591, 26.868
568.908, 0.258
570.225, 20.606
571.541, 22.464
572.857, 28.638
574.173, 44.485
575.489, 4.112
576.805, 33.943
578.120, 12.768
579.435, 25.586
580.750, 26.398
582.065, 52.204
583.380, 12.004
584.694, 12.123
586.008, 0.908
587.322, 33.913
588.635, 6.686
589.949, 22.443
591.262, 34.365
592.575, 30.272
593.887, 35.011
595.200, 23.077
596.512, 25.804
597.824, 4.306
599.136, 22.159
600.447, 25.930
601.759, 15.626
603.070, 29.573
604.381, 14.256
605.692, 25.930
607.002, 14.599
608.312, 39.259
609.622, 40.740
610.932, 30.388
612.242, 19.029
613.551, 32.690
614.860, 23.318
616.169, 23.939
617.478, 30.554
618.786, 42.162
620.094, 24.764
621.402, 24.359
622.710, 36.948
624.018, 25.273
625.325, 41.602
626.632, 33.050
627.939, 46.614
629.246, 56.172
630.552, 8.724
631.859, 18.279
633.165, 30.814
634.471, 6.343
635.776, 21.771
637.082, 39.204
638.387, 21.843
639.692, 16.735
640.996, 29.227
642.301, 25.638
643.605, 41.118
644.909, 19.356
646.213, 14.823
647.516, 29.284
648.820, 37.808
650.123, 4.257
651.426, 37.696
652.729, 38.916
654.031, 16.287
655.333, 45.077
656.636, 3.863
657.937, 6.603
659.239, 30.229
660.540, 27.416
661.842, 28.662
663.142, 31.044
664.443, 24.985
665.744, 11.151
667.044, 15.517
668.344, 19.246
669.644, 14.471
670.944, 21.859
672.243, 33.723
673.542, 25.931
674.841, 33.195
676.140, 27.018
677.438, 22.572
678.737, 17.894
680.035, 18.820
681.333, 17.204
682.630, 18.525
683.928, 22.746
685.225, 17.046
686.522, 26.740
687.819, 12.801
689.115, 38.978
690.412, 19.262
691.708, 21.543
693.004, 20.318
694.300, 0.419
695.595, 4.847
696.890, 2.372
698.185, 0.802
699.480, 10.801
700.775, 7.044
702.069, 19.290
703.363, 25.056
704.657, 15.205
705.951, 10.444
707.244, 15.573
708.538, 19.403
709.831, 0.959
711.124, 0.165
712.416, 5.384
713.709, 9.600
715.001, 1.187
716.293, 13.022
717.585, 4.228
718.876, 1.431
720.167, 10.534
721.459, 6.142
722.749, 27.779
724.040, 7.969
725.331, 1.503
726.621, 20.683
727.911, 6.135
729.201, 1.042
730.490, 13.783
731.780, 3.911
733.069, 17.074
734.358, 7.083
735.646, 1.242
736.935, 1.399
738.223, 1.554
739.511, 7.483
740.799, 4.467
742.087, 6.082
743.374, 0.060
744.661, 3.785
745.948, 5.096
747.235, 4.961
748.522, 25.172
749.808, 8.697
751.094, 23.404
752.380, 16.479
753.666, 4.966
754.951, 2.901
756.236, 3.198
757.521, 7.874
758.806, 12.233
760.091, 3.106
761.375, 7.193
762.659, 24.072
763.943, 18.825
765.227, 46.271
766.511, 1.364
767.794, 1.678
769.077, 21.416
770.360, 10.449
771.643, 4.491
772.925, 8.581
774.207, 6.675
775.489, 4.724
776.771, 5.959
778.053, 6.861
779.334, 6.921
780.615, 20.016
781.896, 25.112
783.177, 44.208
784.457, 30.304
785.738, 1.049
787.018, 37.904
788.298, 54.001
789.577, 14.546
790.857, 35.570
792.136, 51.669
793.415, 26.715
794.694, 69.682
795.972, 85.789
797.251, 109.885
798.529, 92.996
799.807, 79.029
801.084, 52.969
802.362, 54.083
803.639, 62.203
804.916, 72.789
806.193, 62.910
807.470, 65.034
808.746, 59.053
810.022, 69.182
811.298, 85.823
812.574, 100.615
813.850, 100.758
815.125, 102.903
816.400, 126.053
817.675, 108.204
818.950, 129.360
820.224, 151.385
821.499, 139.500
822.773, 187.660
824.047, 210.783
825.320, 232.955
826.594, 309.131
827.867, 342.315
829.140, 436.505
830.413, 517.699
831.685, 656.899
832.958, 853.101
834.230, 1110.307
835.502, 1552.518
836.774, 2033.730
838.045, 2412.950
839.316, 2514.173
840.588, 2116.406
841.858, 1755.650
843.129, 1307.902
844.400, 1037.156
845.670, 841.413
846.940, 692.674
848.210, 652.694
849.479, 582.949
850.749, 522.143
852.018, 542.266
853.287, 515.551
854.556, 530.839
855.824, 534.129
857.093, 533.424
858.361, 573.722
859.629, 566.027
860.896, 617.335
862.164, 614.650
863.431, 595.833
864.698, 659.098
865.965, 672.424
867.232, 715.753
868.498, 748.963
869.764, 750.298
871.030, 852.636
872.296, 925.976
873.562, 990.321
874.827, 1159.297
876.092, 1191.654
877.357, 1428.014
878.622, 1722.380
879.886, 2153.749
881.151, 2802.798
882.415, 3208.174
883.679, 3356.156
884.942, 3709.149
886.206, 3333.536
887.469, 2991.927
888.732, 2607.322
889.995, 2491.719
891.258, 2531.120
892.520, 2435.200
893.782, 2801.609
895.044, 3065.793
896.306, 3571.208
897.568, 4333.632
898.829, 4992.890
900.090, 6468.166
901.351, 7788.604
902.612, 9953.715
903.872, 13603.163
905.133, 17521.830
906.393, 24871.148
907.653, 32730.535
908.912, 42210.000
910.172, 54009.207
911.431, 56728.691
912.690, 53578.176
913.949, 42927.656
915.208, 28977.143
916.466, 21035.807
917.724, 14195.300
918.982, 10064.874
920.240, 7486.354
921.498, 5459.866
922.755, 4434.672
924.012, 3591.192
925.269, 2836.716
926.526, 2533.244
927.782, 2115.777
929.039, 1977.503
930.295, 1798.044
931.551, 1626.672
932.806, 1643.220
934.062, 1455.774
935.317, 1373.331
936.572, 1324.892
937.827, 1149.674
939.082, 1126.245
940.336, 1003.823
941.590, 924.405
942.844, 874.992
944.098, 788.634
945.352, 710.228
946.605, 683.828
947.859, 620.528
949.112, 598.325
950.364, 513.936
951.617, 471.589
952.869, 447.370
954.121, 402.994
955.373, 401.622
956.625, 387.257
957.877, 377.895
959.128, 349.538
960.379, 323.185
961.630, 306.836
962.881, 279.638
964.131, 258.324
965.381, 247.126
966.631, 230.053
967.881, 226.891
969.131, 218.607
970.380, 209.294
971.630, 204.177
972.879, 202.371
974.128, 186.070
975.376, 193.773
976.625, 175.017
977.873, 176.729
979.121, 183.442
980.369, 140.159
981.616, 152.987
982.864, 154.711
984.111, 171.438
985.358, 155.790
986.605, 144.524
987.851, 134.660
989.097, 125.400
990.344, 122.287
991.589, 131.988
992.835, 125.862
994.081, 131.616
995.326, 146.520
996.571, 95.280
997.816, 121.341
999.061, 108.482
1000.305, 91.285
1001.550, 115.058
1002.794, 108.836
1004.037, 98.617
1005.281, 71.400
1006.525, 95.194
1007.768, 89.983
1009.011, 60.830
1010.254, 77.625
1011.496, 69.741
1012.739, 45.540
1013.981, 72.343
1015.223, 64.149
1016.465, 70.070
1017.706, 47.884
1018.948, 43.701
1020.189, 19.520
1021.430, 24.370
1022.671, 53.341
1023.911, 68.169
1025.152, 55.181
1026.392, 58.017
1027.632, 49.855
1028.872, 64.696
1030.111, 42.539
1031.350, 15.386
1032.590, 42.235
1033.829, 31.089
1035.067, 16.946
1036.306, 43.812
1037.544, 64.673
1038.782, 22.536
1040.020, 48.401
1041.258, 20.268
1042.495, 48.139
1043.733, 40.013
1044.970, 29.892
1046.207, 31.773
1047.443, 24.658
1048.680, 13.442
1049.916, 15.332
1051.152, 36.252
1052.388, 42.150
1053.624, 9.103
1054.859, 22.014
1056.094, 9.928
1057.329, 3.844
1058.564, 39.773
1059.799, 7.693
1061.033, 5.618
1062.268, 22.542
1063.502, 6.467
1064.735, 25.393
1065.969, 5.324
1067.202, 3.743
1068.436, 9.012
1069.669, 21.948
1070.902, 9.032
1072.134, 10.903
1073.367, 1.839
1074.599, 23.776
1075.831, 21.714
1077.062, 6.347
1078.294, 0.591
1079.525, 3.411
1080.757, 34.529
1081.988, 0.470
1083.218, 6.412
1084.449, 9.354
1085.679, 6.696
1086.909, 15.246
1088.139, 0.188
1089.369, 12.132
1090.599, 1.076
1091.828, 1.980
1093.057, 17.965
1094.286, 20.953
1095.515, 3.088
1096.744, 5.142
1097.972, 15.802
1099.200, 1.254
1100.428, 4.274
1101.656, 5.669
1102.883, 8.612
1104.111, 7.574
1105.338, 13.518
1106.565, 10.048
1107.791, 9.543
1109.018, 7.488
1110.244, 3.293
1111.470, 0.345
1112.696, 0.603
1113.922, 10.433
1115.147, 8.510
1116.373, 0.527
1117.598, 29.440
1118.823, 11.442
1120.047, 11.617
1121.272, 15.318
1122.496, 9.253
1123.720, 8.810
1124.944, 1.122
1126.168, 9.053
1127.391, 8.984
1128.615, 1.086
1129.838, 3.842
1131.061, 15.782
1132.283, 9.291
1133.506, 13.631
1134.728, 21.448
1135.950, 2.460
1137.172, 3.572
1138.394, 11.668
1139.615, 0.628
1140.837, 10.267
1142.058, 0.840
1143.279, 8.063
1144.499, 3.046
1145.720, 4.159
1146.940, 1.723
1148.160, 5.629
1149.380, 4.608
1150.600, 3.388
1151.819, 5.266
1153.038, 3.171
1154.257, 6.047
1155.476, 1.921
1156.695, 4.324
1157.913, 2.308
1159.132, 8.559
1160.350, 5.491
1161.568, 10.374
1162.785, 1.615
1164.003, 7.134
1165.220, 5.407
1166.437, 11.428
1167.654, 4.284
1168.871, 1.466
1170.087, 26.071
1171.304, 1.062
1172.520, 21.195
1173.736, 20.144
1174.951, 38.002
1176.167, 25.844
1177.382, 12.684
1178.597, 17.523
1179.812, 12.360
1181.027, 11.704
1182.241, 8.028
1183.455, 15.860
1184.669, 15.689
1185.883, 22.517
1187.097, 20.415
1188.311, 21.437
1189.524, 20.282
1190.737, 17.560
1191.950, 26.386
1193.162, 18.667
1194.375, 8.520
1195.587, 31.307
1196.799, 9.653
1198.011, 27.452
1199.223, 9.117
1200.434, 37.693
1201.646, 18.485
1202.857, 40.274
1204.068, 14.061
1205.279, 43.845
1206.489, 16.768
1207.699, 20.548
1208.909, 24.325
1210.119, 26.099
1211.329, 56.888
1212.539, 24.657
1213.748, 5.522
1214.957, 21.239
1216.166, 9.993
1217.375, 49.454
1218.583, 40.203
1219.792, 35.948
1221.000, 51.691
1222.208, 44.458
1223.415, 43.351
1224.623, 11.819
1225.830, 34.583
1227.037, 26.312
1228.244, 24.038
1229.451, 28.770
1230.658, 19.491
1231.864, 22.217
1233.070, 42.697
1234.276, 25.408
1235.482, 46.139
1236.687, 56.889
1237.893, 43.547
1239.098, 14.265
1240.303, 18.967
1241.508, 34.568
1242.712, 22.075
1243.917, 31.769
1245.121, 15.423
1246.325, 27.951
1247.529, 37.636
1248.732, 18.328
1249.936, 44.003
1251.139, 25.763
1252.342, 9.454
1253.545, 30.121
1254.747, 5.211
1255.950, 35.376
1257.152, 49.012
1258.354, 20.669
1259.556, 50.770
1260.758, 19.421
1261.959, 7.968
1263.160, 14.674
1264.361, 40.313
1265.562, 28.259
1266.763, 39.894
1267.963, 31.982
1269.164, 24.074
1270.364, 59.701
1271.563, 30.325
1272.763, 64.944
1273.963, 49.452
1275.162, 22.066
1276.361, 38.675
1277.560, 34.659
1278.759, 28.262
1279.957, 30.463
1281.155, 13.061
1282.354, 47.365
1283.551, 7.152
1284.749, 25.618
1285.947, 28.200
1287.144, 19.631
1288.341, 37.205
1289.538, 36.475
1290.735, 35.123
1291.931, 16.174
1293.128, 39.723
1294.324, 34.268
1295.520, 51.825
1296.716, 15.365
1297.911, 43.893
1299.107, 23.426
1300.302, 15.901
1301.497, 28.429
1302.692, 27.634
1303.886, 11.156
1305.081, 17.674
1306.275, 0.189
1307.469, 10.590
1308.663, 36.098
1309.856, 5.602
1311.050, 24.104
1312.243, 35.575
1313.436, 9.924
1314.629, 6.417
1315.822, 1.726
1317.014, 8.210
1318.206, 18.681
1319.398, 24.149
1320.590, 28.949
1321.782, 36.076
1322.974, 35.371
1324.165, 35.062
1325.356, 36.433
1326.547, 32.870
1327.738, 26.311
1328.928, 30.749
1330.119, 10.184
1331.309, 35.615
1332.499, 3.042
1333.688, 1.535
1334.878, 19.884
1336.067, 1.701
1337.256, 31.709
1338.445, 15.220
1339.634, 3.376
1340.823, 21.997
1342.011, 8.607
1343.199, 7.268
1344.388, 25.203
1345.575, 24.583
1346.763, 22.960
1347.950, 35.321
1349.138, 4.693
1350.325, 26.058
1351.512, 21.423
1352.698, 30.786
1353.885, 16.147
1355.071, 21.505
1356.257, 4.862
1357.443, 18.394
1358.629, 20.747
1359.814, 21.013
1361.000, 27.363
1362.185, 20.709
1363.370, 26.053
1364.554, 12.396
1365.739, 6.737
1366.923, 37.078
1368.107, 4.360
1369.291, 24.699
1370.475, 30.039
1371.659, 16.378
1372.842, 59.719
1374.025, 44.056
1375.208, 20.402
1376.391, 41.753
1377.574, 13.156
1378.756, 9.478
1379.939, 16.962
1381.121, 14.385
1382.303, 17.725
1383.484, 33.299
1384.666, 23.770
1385.847, 18.218
1387.028, 21.535
1388.209, 49.697
1389.390, 29.137
1390.570, 15.559
1391.751, 33.844
1392.931, 4.201
1394.111, 11.625
1395.291, 35.042
1396.470, 3.541
1397.649, 7.128
1398.829, 22.268
1400.008, 26.679
1401.187, 23.029
1402.365, 28.280
1403.544, 27.704
1404.722, 53.112
1405.900, 38.537
1407.078, 42.930
1408.255, 37.351
1409.433, 4.268
1410.610, 32.112
1411.787, 15.526
1412.964, 36.827
1414.141, 22.637
1415.317, 17.818
1416.494, 28.214
1417.670, 33.306
1418.846, 36.153
1420.022, 37.516
1421.197, 27.896
1422.373, 41.274
1423.548, 28.650
1424.723, 49.024
1425.898, 32.287
1427.072, 45.620
1428.247, 35.243
1429.421, 20.554
1430.595, 38.045
1431.769, 49.736
1432.942, 12.037
1434.116, 28.336
1435.289, 31.396
1436.462, 5.687
1437.635, 45.945
1438.808, 12.004
1439.981, 34.297
1441.153, 65.588
1442.325, 30.828
1443.497, 65.970
1444.669, 41.037
1445.840, 16.299
1447.012, 25.573
1448.183, 21.844
1449.354, 62.985
1450.525, 79.206
1451.696, 48.455
1452.866, 29.698
1454.036, 56.938
1455.206, 16.155
1456.376, 81.211
1457.546, 48.405
1458.716, 24.150
1459.885, 72.325
1461.054, 45.492
1462.223, 31.650
1463.392, 44.797
1464.560, 12.760
1465.729, 45.852
1466.897, 45.945
1468.065, 28.034
1469.233, 47.123
1470.400, 43.204
1471.568, 26.270
1472.735, 49.320
1473.902, 28.393
1475.069, 6.472
1476.236, 8.624
1477.402, 19.769
1478.569, 26.857
1479.735, 35.993
1480.901, 33.162
1482.066, 4.245
1483.232, 28.363
1484.397, 3.529
1485.562, 1.573
1486.727, 40.662
1487.892, 13.744
1489.057, 50.868
1490.221, 34.038
1491.386, 35.207
1492.550, 31.433
1493.714, 21.670
1494.877, 18.920
1496.041, 24.188
1497.204, 6.475
1498.367, 26.779
1499.530, 41.102
1500.693, 11.448
1501.856, 41.098
1503.018, 33.457
1504.180, 12.853
1505.342, 19.286
1506.504, 1.754
1507.666, 7.259
1508.827, 20.805
1509.988, 48.398
1511.149, 18.164
1512.310, 11.042
1513.471, 2.069
1514.631, 31.319
1515.792, 38.872
1516.952, 0.123
1518.112, 0.000
##END=



