##NAMES=Scheelite
##RRUFFID=R040172
##IDEAL CHEMISTRY=CaW^6+^O_4_
##LOCALITY=Sonora, Mexico
##OWNER=RRUFF
##SOURCE=University of Arizona Mineral Museum
##DESCRIPTION=Colorless water worn single crystal
##STATUS=The identification of this mineral has been confirmed by X-ray diffraction and chemical analysis
##URL=rruff.info/R040172
##MEASURED CHEMISTRY=Ca_1.01_W_1.00_O_4_
##PIN_ID=L00329
##ORIENTATION=Laser parallel to a* (1 0 0). Fiducial mark perpendicular to laser is parallel to c [0 0 1]
53.228, 0.000
54.634, 13.061
56.040, 24.331
57.445, 45.594
58.850, 73.997
60.254, 67.516
61.659, 64.568
63.063, 70.116
64.467, 67.493
65.871, 71.171
67.274, 65.074
68.678, 64.214
70.081, 30.618
71.484, 4.215
72.886, 21.952
74.288, 4.207
75.690, 13.284
77.092, 25.703
78.494, 87.742
79.895, 240.824
81.296, 709.999
82.697, 2227.362
84.097, 3526.270
85.498, 3620.226
86.898, 2080.119
88.298, 1040.955
89.697, 656.742
91.097, 452.490
92.496, 385.205
93.895, 350.892
95.293, 313.557
96.692, 296.205
98.090, 287.838
99.488, 250.459
100.885, 283.071
102.283, 310.675
103.680, 335.272
105.077, 427.866
106.473, 559.457
107.870, 765.048
109.266, 1128.586
110.662, 1807.132
112.057, 3106.134
113.453, 5193.431
114.848, 7828.901
116.243, 8681.771
117.638, 7833.215
119.032, 5297.472
120.426, 3233.752
121.820, 2113.052
123.214, 1563.370
124.608, 1453.707
126.001, 1246.062
127.394, 998.432
128.787, 705.818
130.179, 473.220
131.571, 355.638
132.963, 249.072
134.355, 230.521
135.747, 188.985
137.138, 153.465
138.529, 123.959
139.920, 98.466
141.311, 98.986
142.701, 74.519
144.091, 49.061
145.481, 64.615
146.870, 45.179
148.260, 20.741
149.649, 22.308
151.038, 30.887
152.426, 25.479
153.815, 24.082
155.203, 15.696
156.591, 9.323
157.979, 4.961
159.366, 7.610
160.753, 20.270
162.140, 8.940
163.527, 2.378
164.913, 12.686
166.300, 3.016
167.686, 5.727
169.071, 21.554
170.457, 11.827
171.842, 22.091
173.227, 32.348
174.612, 19.621
175.996, 7.836
177.381, 4.068
178.765, 5.292
180.149, 3.508
181.532, 3.284
182.915, 32.085
184.299, 16.893
185.681, 60.708
187.064, 84.532
188.446, 104.362
189.828, 201.201
191.210, 309.047
192.592, 449.898
193.973, 656.753
195.355, 841.603
196.736, 933.439
198.116, 827.264
199.497, 667.094
200.877, 530.935
202.257, 538.788
203.637, 559.651
205.016, 778.524
206.395, 1151.405
207.774, 1744.294
209.153, 2816.191
210.532, 3577.097
211.910, 3996.012
213.288, 3460.936
214.666, 2380.870
216.043, 1575.823
217.421, 977.793
218.798, 680.774
220.175, 490.705
221.551, 378.675
222.928, 301.659
224.304, 233.647
225.680, 201.629
227.055, 161.606
228.431, 130.587
229.806, 115.571
231.181, 91.484
232.556, 67.411
233.930, 58.349
235.304, 57.301
236.678, 31.262
238.052, 37.217
239.426, 15.198
240.799, 38.804
242.172, 28.874
243.545, 30.883
244.917, 33.898
246.290, 29.922
247.662, 35.958
249.034, 39.003
250.405, 56.052
251.777, 49.108
253.148, 30.168
254.519, 75.231
255.889, 67.296
257.260, 69.367
258.630, 100.446
260.000, 98.528
261.370, 129.614
262.739, 137.702
264.108, 162.794
265.477, 204.890
266.846, 254.988
268.215, 317.090
269.583, 372.199
270.951, 468.312
272.319, 555.429
273.686, 610.549
275.054, 660.665
276.421, 613.789
277.788, 548.899
279.154, 485.977
280.521, 429.046
281.887, 370.116
283.253, 344.189
284.619, 341.269
285.984, 299.354
287.349, 317.445
288.714, 298.540
290.079, 329.642
291.444, 340.747
292.808, 357.862
294.172, 379.979
295.536, 398.100
296.899, 415.224
298.263, 434.352
299.626, 452.484
300.989, 513.619
302.351, 537.759
303.714, 631.902
305.076, 669.049
306.438, 748.200
307.799, 829.377
309.161, 935.536
310.522, 1020.697
311.883, 1108.869
313.244, 1372.035
314.604, 1446.204
315.965, 1716.375
317.325, 1892.583
318.684, 2186.758
320.044, 2534.936
321.403, 3007.114
322.762, 3689.296
324.121, 4440.509
325.480, 5674.698
326.838, 7411.053
328.196, 10024.180
329.554, 13943.845
330.912, 17604.072
332.270, 22294.326
333.627, 23233.496
334.984, 21223.293
336.341, 18012.475
337.697, 13121.085
339.053, 10020.404
340.409, 7237.398
341.765, 5531.508
343.121, 4306.671
344.476, 3356.974
345.831, 2792.884
347.186, 2247.187
348.541, 1930.407
349.895, 1623.625
351.250, 1453.334
352.604, 1291.650
353.957, 1096.951
355.311, 1050.284
356.664, 869.508
358.017, 830.835
359.370, 765.068
360.722, 673.343
362.075, 631.733
363.427, 560.153
364.779, 518.691
366.130, 495.000
367.482, 456.285
368.833, 438.558
370.184, 428.921
371.535, 406.360
372.885, 368.248
374.235, 360.180
375.585, 351.229
376.935, 357.986
378.285, 368.942
379.634, 352.492
380.983, 379.909
382.332, 366.367
383.680, 412.803
385.029, 419.285
386.377, 434.744
387.725, 499.103
389.073, 595.174
390.420, 697.582
391.767, 880.702
393.114, 1001.601
394.461, 1384.975
395.808, 1782.312
397.154, 2558.037
398.500, 3441.240
399.846, 4256.895
401.191, 4650.641
402.537, 4155.667
403.882, 3648.473
405.227, 2911.960
406.571, 2403.199
407.916, 1929.100
409.260, 1445.847
410.604, 1160.251
411.948, 902.808
413.291, 702.088
414.635, 561.836
415.978, 474.140
417.321, 400.353
418.663, 356.267
420.006, 280.592
421.348, 249.810
422.690, 240.222
424.031, 226.381
425.373, 202.594
426.714, 160.877
428.055, 168.027
429.396, 152.307
430.736, 159.297
432.077, 107.761
433.417, 127.058
434.757, 88.236
436.096, 106.875
437.436, 82.057
438.775, 99.777
440.114, 76.959
441.452, 68.073
442.791, 85.325
444.129, 66.481
445.467, 73.095
446.805, 58.268
448.142, 54.905
449.480, 57.002
450.817, 54.726
452.154, 45.831
453.490, 45.957
454.827, 45.028
456.163, 38.097
457.499, 41.167
458.835, 29.268
460.170, 63.492
461.505, 24.559
462.840, 59.063
464.175, 23.102
465.510, 32.573
466.844, 33.602
468.178, 15.651
469.512, 20.685
470.846, 32.349
472.179, 20.368
473.512, 42.393
474.845, 39.390
476.178, 34.383
477.511, 14.370
478.843, 32.352
480.175, 31.328
481.507, 31.299
482.839, 23.273
484.170, 16.289
485.501, 33.062
486.832, 1.026
488.163, 21.967
489.493, 12.160
490.823, 17.092
492.153, 12.024
493.483, 9.007
494.813, 7.688
496.142, 7.114
497.471, 2.752
498.800, 13.990
500.129, 16.900
501.457, 30.743
502.785, 9.118
504.113, 4.012
505.441, 6.100
506.769, 9.857
508.096, 27.724
509.423, 28.613
510.750, 2.532
512.077, 9.992
513.403, 11.828
514.729, 8.668
516.055, 33.490
517.381, 9.306
518.706, 27.115
520.032, 16.917
521.357, 5.712
522.681, 4.499
524.006, 6.278
525.330, 3.049
526.655, 14.811
527.978, 17.566
529.302, 7.314
530.626, 4.054
531.949, 4.214
533.272, 4.804
534.595, 6.649
535.917, 1.996
537.239, 4.718
538.562, 2.121
539.883, 5.779
541.205, 4.428
542.527, 5.078
543.848, 3.709
545.169, 4.331
546.489, 7.945
547.810, 6.366
549.130, 11.775
550.450, 7.201
551.770, 19.642
553.090, 6.896
554.409, 8.425
555.728, 1.053
557.047, 34.457
558.366, 0.040
559.685, 1.547
561.003, 6.067
562.321, 2.600
563.639, 2.855
564.956, 18.300
566.274, 4.262
567.591, 17.837
568.908, 12.433
570.225, 0.955
571.541, 10.668
572.857, 2.306
574.173, 7.043
575.489, 17.384
576.805, 5.281
578.120, 11.960
579.435, 13.345
580.750, 2.643
582.065, 27.957
583.380, 11.240
584.694, 5.515
586.008, 24.850
587.322, 5.111
588.635, 7.540
589.949, 0.699
591.262, 3.928
592.575, 12.526
593.887, 2.259
595.200, 11.055
596.512, 3.867
597.824, 7.309
599.136, 29.478
600.447, 3.641
601.759, 8.797
603.070, 3.054
604.381, 5.083
605.692, 3.786
607.002, 17.334
608.312, 5.552
609.622, 12.549
610.932, 12.355
612.242, 25.725
613.551, 16.799
614.860, 14.868
616.169, 5.930
617.478, 0.986
618.786, 11.035
620.094, 3.922
621.402, 22.110
622.710, 3.863
624.018, 34.154
625.325, 7.166
626.632, 9.148
627.939, 7.855
629.246, 9.134
630.552, 6.109
631.859, 18.087
633.165, 20.059
634.471, 29.027
635.776, 16.953
637.082, 18.530
638.387, 18.862
639.692, 5.809
640.996, 0.750
642.301, 12.345
643.605, 2.579
644.909, 8.331
646.213, 3.766
647.516, 12.087
648.820, 2.955
650.123, 0.203
651.426, 20.617
652.729, 24.421
654.031, 8.215
655.333, 6.058
656.636, 1.762
657.937, 16.411
659.239, 9.179
660.540, 1.198
661.842, 0.872
663.142, 1.987
664.443, 3.758
665.744, 0.417
667.044, 8.405
668.344, 14.266
669.644, 9.449
670.944, 0.176
672.243, 3.866
673.542, 25.663
674.841, 17.353
676.140, 15.135
677.438, 11.870
678.737, 12.488
680.035, 9.073
681.333, 17.695
682.630, 23.226
683.928, 8.936
685.225, 27.655
686.522, 5.282
687.819, 16.828
689.115, 4.077
690.412, 20.971
691.708, 27.898
693.004, 16.886
694.300, 6.875
695.595, 14.538
696.890, 5.081
698.185, 0.420
699.480, 20.097
700.775, 20.566
702.069, 9.055
703.363, 4.360
704.657, 12.511
705.951, 6.041
707.244, 9.857
708.538, 3.891
709.831, 32.447
711.124, 16.038
712.416, 29.239
713.709, 16.958
715.001, 53.223
716.293, 33.395
717.585, 2.284
718.876, 23.393
720.167, 43.822
721.459, 34.496
722.749, 31.506
724.040, 43.666
725.331, 33.168
726.621, 29.885
727.911, 6.134
729.201, 13.284
730.490, 5.876
731.780, 1.555
733.069, 13.532
734.358, 33.095
735.646, 1.763
736.935, 2.766
738.223, 19.955
739.511, 8.620
740.799, 5.787
742.087, 26.937
743.374, 7.473
744.661, 10.405
745.948, 23.807
747.235, 18.626
748.522, 10.055
749.808, 13.272
751.094, 16.945
752.380, 18.966
753.666, 11.746
754.951, 14.481
756.236, 8.075
757.521, 19.765
758.806, 17.994
760.091, 16.663
761.375, 32.866
762.659, 25.610
763.943, 52.725
765.227, 59.458
766.511, 41.168
767.794, 85.930
769.077, 81.695
770.360, 61.461
771.643, 81.194
772.925, 79.803
774.207, 91.567
775.489, 106.894
776.771, 152.684
778.053, 166.039
779.334, 212.839
780.615, 244.618
781.896, 265.411
783.177, 322.578
784.457, 363.388
785.738, 432.191
787.018, 568.020
788.298, 699.852
789.577, 979.689
790.857, 1396.532
792.136, 2082.380
793.415, 3499.234
794.694, 5245.085
795.972, 7534.892
797.251, 8274.940
798.529, 6553.801
799.807, 4716.682
801.084, 3010.312
802.362, 1912.203
803.639, 1365.095
804.916, 922.935
806.193, 702.842
807.470, 523.756
808.746, 416.675
810.022, 335.280
811.298, 265.219
812.574, 214.226
813.850, 170.408
815.125, 134.664
816.400, 121.630
817.675, 117.530
818.950, 114.518
820.224, 127.487
821.499, 124.288
822.773, 125.886
824.047, 135.841
825.320, 123.857
826.594, 141.890
827.867, 136.932
829.140, 202.985
830.413, 206.050
831.685, 241.123
832.958, 323.206
834.230, 392.296
835.502, 476.394
836.774, 556.501
838.045, 695.615
839.316, 652.735
840.588, 578.863
841.858, 462.998
843.129, 368.041
844.400, 313.199
845.670, 272.367
846.940, 273.946
848.210, 269.960
849.479, 260.154
850.749, 274.355
852.018, 254.554
853.287, 288.770
854.556, 305.993
855.824, 322.223
857.093, 323.376
858.361, 364.623
859.629, 314.882
860.896, 350.150
862.164, 382.432
863.431, 388.722
864.698, 430.019
865.965, 449.324
867.232, 492.636
868.498, 495.956
869.764, 521.285
871.030, 615.624
872.296, 679.972
873.562, 698.328
874.827, 818.690
876.092, 857.061
877.357, 1082.447
878.622, 1279.843
879.886, 1575.248
881.151, 1991.664
882.415, 2325.089
883.679, 2423.588
884.942, 2650.959
886.206, 2488.439
887.469, 2259.898
888.732, 2115.364
889.995, 2166.812
891.258, 2130.292
892.520, 2250.779
893.782, 2600.205
895.044, 2871.705
896.306, 3490.116
897.568, 4181.634
898.829, 4924.159
900.090, 6552.317
901.351, 7749.855
902.612, 10346.401
903.872, 13735.964
905.133, 17895.533
906.393, 25685.104
907.653, 32814.680
908.912, 43214.273
910.172, 53573.871
911.431, 54063.613
912.690, 50793.223
913.949, 38533.406
915.208, 26043.031
916.466, 18792.664
917.724, 12512.345
918.982, 9101.998
920.240, 6729.765
921.498, 4978.479
922.755, 4043.150
924.012, 3199.827
925.269, 2632.511
926.526, 2349.369
927.782, 1987.067
929.039, 1857.771
930.295, 1614.367
931.551, 1539.085
932.806, 1483.865
934.062, 1280.766
935.317, 1275.709
936.572, 1115.454
937.827, 1083.204
939.082, 999.961
940.336, 861.723
941.590, 792.237
942.844, 736.010
944.098, 701.436
945.352, 660.333
946.605, 566.123
947.859, 527.229
949.112, 513.034
950.364, 434.684
951.617, 410.500
952.869, 335.322
954.121, 361.340
955.373, 351.377
956.625, 280.216
957.877, 313.418
959.128, 290.267
960.379, 276.198
961.630, 223.150
962.881, 279.016
964.131, 223.699
965.381, 221.092
966.631, 227.317
967.881, 188.630
969.131, 181.526
970.380, 170.568
971.630, 166.473
972.879, 178.622
974.128, 160.916
975.376, 156.057
976.625, 165.172
977.873, 156.784
979.121, 151.952
980.369, 137.518
981.616, 132.885
982.864, 134.588
984.111, 123.699
985.358, 135.074
986.605, 130.474
987.851, 116.641
989.097, 122.603
990.344, 115.923
991.589, 132.925
992.835, 111.897
994.081, 111.137
995.326, 108.117
996.571, 93.191
997.816, 76.200
999.061, 129.264
1000.305, 89.291
1001.550, 87.490
1002.794, 102.490
1004.037, 73.492
1005.281, 52.498
1006.525, 98.505
1007.768, 99.516
1009.011, 116.530
1010.254, 67.553
1011.496, 61.572
1012.739, 68.594
1013.981, 63.831
1015.223, 62.858
1016.465, 52.886
1017.706, 55.487
1018.948, 73.982
1020.189, 56.018
1021.430, 60.055
1022.671, 57.093
1023.911, 45.133
1025.152, 36.175
1026.392, 75.292
1027.632, 37.337
1028.872, 63.384
1030.111, 42.440
1031.350, 54.489
1032.590, 36.540
1033.829, 43.593
1035.067, 2.353
1036.306, 58.701
1037.544, 29.756
1038.782, 19.813
1040.020, 37.871
1041.258, 27.931
1042.495, 33.992
1043.733, 32.366
1044.970, 37.147
1046.207, 28.211
1047.443, 10.276
1048.680, 15.342
1049.916, 11.409
1051.152, 22.477
1052.388, 7.546
1053.624, 18.615
1054.859, 23.684
1056.094, 34.754
1057.329, 36.824
1058.564, 3.893
1059.799, 5.034
1061.033, 11.037
1062.268, 13.891
1063.502, 11.175
1064.735, 17.240
1065.969, 1.694
1067.202, 23.371
1068.436, 3.564
1069.669, 20.500
1070.902, 6.553
1072.134, 23.606
1073.367, 30.664
1074.599, 4.278
1075.831, 19.777
1077.062, 1.832
1078.294, 16.115
1079.525, 1.930
1080.757, 1.026
1081.988, 19.983
1083.218, 3.951
1084.449, 3.078
1085.679, 7.106
1086.909, 13.133
1088.139, 6.159
1089.369, 11.816
1090.599, 20.205
1091.828, 9.775
1093.057, 0.760
1094.286, 18.254
1095.515, 3.734
1096.744, 12.279
1097.972, 11.711
1099.200, 14.291
1100.428, 22.290
1101.656, 0.712
1102.883, 0.717
1104.111, 16.274
1105.338, 2.737
1106.565, 13.246
1107.791, 13.772
1109.018, 13.802
1110.244, 14.156
1111.470, 8.889
1112.696, 3.943
1113.922, 1.001
1115.147, 18.065
1116.373, 14.860
1117.598, 13.217
1118.823, 27.693
1120.047, 1.601
1121.272, 0.495
1122.496, 2.402
1123.720, 3.294
1124.944, 4.818
1126.168, 15.939
1127.391, 17.074
1128.615, 0.225
1129.838, 5.383
1131.061, 5.449
1132.283, 0.277
1133.506, 0.098
1134.728, 4.911
1135.950, 25.720
1137.172, 1.525
1138.394, 26.323
1139.615, 25.119
1140.837, 12.089
1142.058, 25.728
1143.279, 10.502
1144.499, 18.272
1145.720, 12.039
1146.940, 16.369
1148.160, 7.560
1149.380, 31.333
1150.600, 26.082
1151.819, 37.276
1153.038, 34.588
1154.257, 34.327
1155.476, 37.185
1156.695, 26.183
1157.913, 46.910
1159.132, 36.665
1160.350, 9.404
1161.568, 79.202
1162.785, 30.947
1164.003, 37.670
1165.220, 22.406
1166.437, 40.217
1167.654, 47.910
1168.871, 63.598
1170.087, 33.282
1171.304, 57.962
1172.520, 18.665
1173.736, 51.335
1174.951, 60.041
1176.167, 31.703
1177.382, 80.359
1178.597, 56.259
1179.812, 44.906
1181.027, 79.549
1182.241, 62.157
1183.455, 40.790
1184.669, 59.440
1185.883, 42.375
1187.097, 50.995
1188.311, 85.778
1189.524, 30.438
1190.737, 87.076
1191.950, 53.754
1193.162, 86.369
1194.375, 66.959
1195.587, 74.584
1196.799, 51.164
1198.011, 56.738
1199.223, 73.427
1200.434, 94.991
1201.646, 66.670
1202.857, 96.223
1204.068, 84.779
1205.279, 72.997
1206.489, 94.469
1207.699, 113.065
1208.909, 79.039
1210.119, 78.608
1211.329, 86.325
1212.539, 89.796
1213.748, 97.366
1214.957, 90.902
1216.166, 83.366
1217.375, 84.911
1218.583, 83.835
1219.792, 104.289
1221.000, 85.712
1222.208, 93.199
1223.415, 94.662
1224.623, 74.330
1225.830, 104.885
1227.037, 120.444
1228.244, 59.771
1229.451, 82.246
1230.658, 93.705
1231.864, 96.337
1233.070, 110.756
1234.276, 88.233
1235.482, 65.003
1236.687, 96.440
1237.893, 97.935
1239.098, 81.578
1240.303, 83.985
1241.508, 67.293
1242.712, 69.576
1243.917, 53.243
1245.121, 69.656
1246.325, 74.023
1247.529, 71.537
1248.732, 89.732
1249.936, 87.097
1251.139, 65.210
1252.342, 98.599
1253.545, 85.863
1254.747, 58.123
1255.950, 79.455
1257.152, 66.068
1258.354, 71.448
1259.556, 86.443
1260.758, 49.337
1261.959, 113.776
1263.160, 49.944
1264.361, 89.443
1265.562, 95.505
1266.763, 73.424
1267.963, 86.598
1269.164, 86.752
1270.364, 71.414
1271.563, 51.523
1272.763, 71.325
1273.963, 44.199
1275.162, 89.723
1276.361, 52.824
1277.560, 83.664
1278.759, 87.476
1279.957, 48.518
1281.155, 77.807
1282.354, 44.694
1283.551, 46.975
1284.749, 65.260
1285.947, 29.225
1287.144, 77.450
1288.341, 46.578
1289.538, 67.779
1290.735, 55.920
1291.931, 44.102
1293.128, 34.101
1294.324, 55.298
1295.520, 34.490
1296.716, 75.677
1297.911, 46.860
1299.107, 16.038
1300.302, 7.202
1301.497, 41.355
1302.692, 31.509
1303.886, 34.657
1305.081, 20.586
1306.275, 30.722
1307.469, 34.855
1308.663, 30.974
1309.856, 17.047
1311.050, 39.137
1312.243, 61.223
1313.436, 45.304
1314.629, 47.378
1315.822, 32.446
1317.014, 52.437
1318.206, 29.497
1319.398, 46.545
1320.590, 60.571
1321.782, 7.598
1322.974, 49.618
1324.165, 48.631
1325.356, 38.639
1326.547, 43.639
1327.738, 33.669
1328.928, 4.657
1330.119, 45.640
1331.309, 11.615
1332.499, 26.584
1333.688, 30.517
1334.878, 20.473
1336.067, 33.423
1337.256, 45.368
1338.445, 28.312
1339.634, 46.244
1340.823, 42.170
1342.011, 15.089
1343.199, 58.003
1344.388, 14.910
1345.575, 62.811
1346.763, 35.706
1347.950, 3.404
1349.138, 20.478
1350.325, 22.782
1351.512, 35.654
1352.698, 26.523
1353.885, 8.410
1355.071, 39.267
1356.257, 22.121
1357.443, 11.970
1358.629, 32.814
1359.814, 23.659
1361.000, 15.501
1362.185, 42.330
1363.370, 14.156
1364.554, 31.980
1365.739, 40.782
1366.923, 16.578
1368.107, 15.373
1369.291, 9.162
1370.475, 21.959
1371.659, 4.743
1372.842, 28.521
1374.025, 6.297
1375.208, 69.068
1376.391, 19.839
1377.574, 11.297
1378.756, 26.386
1379.939, 5.565
1381.121, 0.475
1382.303, 30.500
1383.484, 13.473
1384.666, 48.545
1385.847, 26.559
1387.028, 24.568
1388.209, 53.586
1389.390, 0.606
1390.570, 24.625
1391.751, 31.643
1392.931, 11.664
1394.111, 23.684
1395.291, 53.702
1396.470, 30.727
1397.649, 38.770
1398.829, 14.819
1400.008, 3.129
1401.187, 30.923
1402.365, 10.026
1403.544, 10.979
1404.722, 47.035
1405.900, 6.087
1407.078, 36.113
1408.255, 61.137
1409.433, 14.181
1410.610, 20.717
1411.787, 19.707
1412.964, 4.599
1414.141, 39.553
1415.317, 27.374
1416.494, 30.392
1417.670, 38.409
1418.846, 33.384
1420.022, 42.340
1421.197, 48.997
1422.373, 24.004
1423.548, 27.008
1424.723, 23.519
1425.898, 21.263
1427.072, 51.132
1428.247, 54.972
1429.421, 48.901
1430.595, 32.895
1431.769, 40.697
1432.942, 32.495
1434.116, 53.363
1435.289, 42.118
1436.462, 38.000
1437.635, 79.631
1438.808, 39.240
1439.981, 78.083
1441.153, 61.518
1442.325, 61.209
1443.497, 76.972
1444.669, 41.401
1445.840, 79.760
1447.012, 61.228
1448.183, 74.027
1449.354, 74.658
1450.525, 74.284
1451.696, 64.524
1452.866, 89.240
1454.036, 60.927
1455.206, 65.854
1456.376, 84.298
1457.546, 51.918
1458.716, 92.590
1459.885, 47.721
1461.054, 57.921
1462.223, 39.184
1463.392, 32.244
1464.560, 37.502
1465.729, 78.693
1466.897, 57.571
1468.065, 9.883
1469.233, 85.277
1470.400, 46.657
1471.568, 26.795
1472.735, 69.832
1473.902, 26.125
1475.069, 33.368
1476.236, 51.572
1477.402, 32.789
1478.569, 13.971
1479.735, 65.122
1480.901, 37.306
1482.066, 84.459
1483.232, 38.593
1484.397, 20.723
1485.562, 61.969
1486.727, 29.224
1487.892, 33.479
1489.057, 58.706
1490.221, 6.989
1491.386, 38.366
1492.550, 45.734
1493.714, 5.931
1494.877, 33.315
1496.041, 13.718
1497.204, 12.138
1498.367, 47.578
1499.530, 43.002
1500.693, 12.503
1501.856, 33.049
1503.018, 29.638
1504.180, 16.276
1505.342, 26.517
1506.504, 13.577
1507.666, 11.859
1508.827, 22.095
1509.988, 4.256
1511.149, 37.273
1512.310, 16.448
1513.471, 18.046
1514.631, 17.370
1515.792, 17.358
1516.952, 0.162
1518.112, 0.000
##END=



