##NAMES=Scheelite
##RRUFFID=R040172
##IDEAL CHEMISTRY=CaW^6+^O_4_
##LOCALITY=Sonora, Mexico
##OWNER=RRUFF
##SOURCE=University of Arizona Mineral Museum
##DESCRIPTION=Colorless water worn single crystal
##STATUS=The identification of this mineral has been confirmed by X-ray diffraction and chemical analysis
##URL=rruff.info/R040172
##MEASURED CHEMISTRY=Ca_1.01_W_1.00_O_4_
##PIN_ID=L00480
##ORIENTATION=Laser parallel to -c* (0 0 -1). Fiducial mark perpendicular to laser is parallel to a [1 0 0]
53.228, 0.000
54.634, 15.970
56.040, 31.295
57.445, 35.237
58.850, 46.026
60.254, 55.462
61.659, 67.159
63.063, 86.027
64.467, 83.716
65.871, 60.601
67.274, 40.769
68.678, 24.190
70.081, 11.161
71.484, 15.303
72.886, 3.257
74.288, 1.038
75.690, 4.342
77.092, 26.869
78.494, 49.530
79.895, 128.316
81.296, 340.217
82.697, 961.225
84.097, 1704.332
85.498, 1813.532
86.898, 1134.821
88.298, 606.193
89.697, 379.644
91.097, 267.171
92.496, 243.770
93.895, 218.438
95.293, 210.171
96.692, 205.966
98.090, 174.819
99.488, 169.724
100.885, 152.678
102.283, 140.549
103.680, 148.720
105.077, 132.804
106.473, 136.928
107.870, 155.089
109.266, 159.288
110.662, 168.522
112.057, 163.792
113.453, 210.096
114.848, 215.434
116.243, 251.805
117.638, 277.209
119.032, 267.645
120.426, 204.112
121.820, 182.611
123.214, 142.140
124.608, 168.698
126.001, 143.286
127.394, 146.902
128.787, 158.547
130.179, 112.218
131.571, 138.917
132.963, 114.642
134.355, 136.394
135.747, 100.171
137.138, 110.970
138.529, 112.776
139.920, 109.591
141.311, 142.415
142.701, 109.244
144.091, 93.081
145.481, 114.925
146.870, 96.759
148.260, 68.599
149.649, 90.451
151.038, 94.314
152.426, 85.190
153.815, 95.079
155.203, 89.980
156.591, 100.895
157.979, 99.823
159.366, 102.764
160.753, 92.720
162.140, 85.689
163.527, 99.673
164.913, 77.670
166.300, 84.684
167.686, 105.711
169.071, 96.756
170.457, 116.816
171.842, 91.898
173.227, 106.995
174.612, 121.107
175.996, 104.232
177.381, 91.371
178.765, 87.527
180.149, 96.697
181.532, 112.888
182.915, 117.099
184.299, 109.321
185.681, 113.560
187.064, 118.817
188.446, 119.085
189.828, 163.365
191.210, 172.655
192.592, 169.959
193.973, 213.276
195.355, 232.611
196.736, 344.960
198.116, 373.319
199.497, 485.688
200.877, 603.067
202.257, 786.458
203.637, 1124.858
205.016, 1601.269
206.395, 2529.702
207.774, 3828.149
209.153, 5926.608
210.532, 7602.078
211.910, 8331.558
213.288, 7352.051
214.666, 5056.555
216.043, 3434.070
217.421, 2271.600
218.798, 1579.140
220.175, 1178.247
221.551, 883.378
222.928, 791.519
224.304, 611.667
225.680, 534.806
227.055, 435.948
228.431, 370.098
229.806, 304.162
231.181, 226.246
232.556, 212.354
233.930, 165.486
235.304, 156.640
236.678, 144.815
238.052, 109.895
239.426, 108.837
240.799, 88.998
242.172, 96.246
243.545, 77.511
244.917, 77.792
246.290, 59.089
247.662, 67.401
249.034, 66.728
250.405, 30.069
251.777, 51.424
253.148, 31.795
254.519, 22.179
255.889, 49.577
257.260, 40.987
258.630, 22.409
260.000, 7.843
261.370, 26.289
262.739, 41.747
264.108, 11.216
265.477, 21.695
266.846, 26.185
268.215, 14.684
269.583, 28.192
270.951, 37.710
272.319, 50.237
273.686, 50.778
275.054, 47.322
276.421, 54.163
277.788, 41.628
279.154, 56.198
280.521, 64.777
281.887, 62.363
283.253, 76.493
284.619, 74.011
285.984, 91.621
287.349, 112.645
288.714, 118.585
290.079, 129.219
291.444, 158.895
292.808, 164.545
294.172, 182.338
295.536, 199.026
296.899, 208.696
298.263, 233.372
299.626, 241.062
300.989, 289.024
302.351, 310.807
303.714, 374.512
305.076, 361.222
306.438, 434.104
307.799, 476.118
309.161, 549.846
310.522, 576.579
311.883, 627.317
313.244, 796.071
314.604, 827.820
315.965, 953.435
317.325, 1116.272
318.684, 1232.039
320.044, 1482.813
321.403, 1716.591
322.762, 2100.375
324.121, 2574.164
325.480, 3177.956
326.838, 4082.755
328.196, 5248.711
329.554, 7101.518
330.912, 8756.327
332.270, 10803.703
333.627, 11793.523
334.984, 11124.052
336.341, 10253.883
337.697, 7941.715
339.053, 6385.550
340.409, 4999.391
341.765, 3844.235
343.121, 3080.082
344.476, 2359.932
345.831, 2033.786
347.186, 1588.747
348.541, 1448.607
349.895, 1246.470
351.250, 1083.336
352.604, 966.205
353.957, 848.519
355.311, 801.419
356.664, 687.296
358.017, 650.175
359.370, 595.887
360.722, 527.829
362.075, 499.763
363.427, 423.604
364.779, 430.900
366.130, 395.792
367.482, 364.687
368.833, 334.799
370.184, 300.823
371.535, 289.722
372.885, 269.327
374.235, 230.515
375.585, 245.419
376.935, 224.403
378.285, 215.110
379.634, 226.018
380.983, 206.927
382.332, 214.980
383.680, 189.280
385.029, 222.857
386.377, 222.836
387.725, 236.093
389.073, 238.749
390.420, 240.676
391.767, 298.606
393.114, 315.592
394.461, 388.536
395.808, 473.618
397.154, 599.563
398.500, 793.510
399.846, 906.463
401.191, 990.423
402.537, 803.387
403.882, 618.353
405.227, 478.321
406.571, 347.520
407.916, 248.737
409.260, 157.357
410.604, 121.496
411.948, 81.558
413.291, 69.777
414.635, 67.208
415.978, 55.425
417.321, 47.699
418.663, 41.605
420.006, 31.841
421.348, 29.175
422.690, 25.178
424.031, 21.550
425.373, 13.809
426.714, 16.812
428.055, 30.817
429.396, 20.821
430.736, 18.826
432.077, 8.877
433.417, 3.886
434.757, 0.199
436.096, 1.917
437.436, 8.069
438.775, 11.033
440.114, 10.049
441.452, 2.297
442.791, 2.313
444.129, 13.672
445.467, 2.441
446.805, 2.502
448.142, 12.302
449.480, 10.154
450.817, 17.172
452.154, 1.828
453.490, 18.656
454.827, 5.224
456.163, 1.227
457.499, 1.768
458.835, 0.762
460.170, 0.245
461.505, 7.980
462.840, 3.097
464.175, 10.094
465.510, 29.092
466.844, 4.926
468.178, 23.947
469.512, 5.177
470.846, 16.191
472.179, 16.153
473.512, 0.134
474.845, 21.092
476.178, 15.876
477.511, 1.929
478.843, 12.253
480.175, 6.830
481.507, 11.770
482.839, 14.709
484.170, 5.645
485.501, 18.579
486.832, 14.554
488.163, 2.560
489.493, 9.365
490.823, 8.329
492.153, 8.697
493.483, 5.447
494.813, 10.643
496.142, 7.259
497.471, 3.158
498.800, 14.054
500.129, 14.693
501.457, 16.143
502.785, 13.727
504.113, 13.612
505.441, 13.436
506.769, 0.375
508.096, 7.250
509.423, 4.123
510.750, 6.993
512.077, 22.860
513.403, 4.276
514.729, 13.419
516.055, 22.425
517.381, 11.268
518.706, 9.894
520.032, 2.934
521.357, 9.759
522.681, 8.580
524.006, 2.603
525.330, 15.208
526.655, 12.016
527.978, 0.820
529.302, 2.619
530.626, 9.413
531.949, 10.796
533.272, 5.983
534.595, 8.758
535.917, 4.530
537.239, 7.703
538.562, 16.054
539.883, 18.808
541.205, 3.558
542.527, 0.697
543.848, 4.959
545.169, 11.230
546.489, 15.514
547.810, 5.813
549.130, 12.877
550.450, 16.710
551.770, 7.394
553.090, 10.612
554.409, 5.288
555.728, 12.967
557.047, 15.633
558.366, 16.611
559.685, 18.810
561.003, 19.464
562.321, 23.115
563.639, 23.844
564.956, 18.478
566.274, 15.621
567.591, 8.354
568.908, 6.984
570.225, 9.608
571.541, 5.227
572.857, 1.733
574.173, 6.198
575.489, 6.936
576.805, 10.416
578.120, 10.006
579.435, 4.611
580.750, 16.185
582.065, 4.611
583.380, 7.173
584.694, 53.063
586.008, 32.839
587.322, 34.385
588.635, 27.927
589.949, 16.325
591.262, 30.857
592.575, 18.385
593.887, 33.904
595.200, 22.478
596.512, 14.861
597.824, 25.527
599.136, 11.032
600.447, 22.530
601.759, 33.023
603.070, 15.062
604.381, 17.545
605.692, 12.024
607.002, 13.090
608.312, 7.604
609.622, 22.702
610.932, 4.121
612.242, 13.803
613.551, 28.107
614.860, 23.518
616.169, 22.949
617.478, 28.375
618.786, 8.788
620.094, 3.069
621.402, 10.248
622.710, 18.645
624.018, 42.038
625.325, 24.260
626.632, 10.351
627.939, 14.729
629.246, 30.102
630.552, 16.471
631.859, 33.826
633.165, 13.187
634.471, 27.683
635.776, 6.956
637.082, 0.698
638.387, 20.638
639.692, 16.969
640.996, 21.297
642.301, 18.621
643.605, 25.940
644.909, 30.256
646.213, 25.414
647.516, 12.722
648.820, 12.026
650.123, 5.766
651.426, 18.060
652.729, 15.117
654.031, 18.931
655.333, 21.213
656.636, 22.492
657.937, 24.767
659.239, 20.784
660.540, 26.307
661.842, 15.572
663.142, 25.833
664.443, 32.987
665.744, 25.241
667.044, 13.492
668.344, 15.740
669.644, 18.984
670.944, 23.782
672.243, 18.995
673.542, 10.229
674.841, 13.590
676.140, 21.858
677.438, 16.026
678.737, 26.248
680.035, 38.468
681.333, 23.278
682.630, 17.492
683.928, 18.450
685.225, 7.695
686.522, 13.775
687.819, 10.978
689.115, 10.211
690.412, 20.386
691.708, 26.581
693.004, 10.696
694.300, 23.085
695.595, 23.273
696.890, 9.459
698.185, 4.499
699.480, 10.293
700.775, 4.811
702.069, 2.928
703.363, 3.690
704.657, 11.209
705.951, 1.620
707.244, 6.548
708.538, 8.338
709.831, 18.817
711.124, 0.834
712.416, 24.990
713.709, 13.856
715.001, 13.289
716.293, 20.433
717.585, 11.575
718.876, 1.284
720.167, 5.146
721.459, 4.011
722.749, 1.880
724.040, 3.136
725.331, 6.102
726.621, 9.146
727.911, 15.967
729.201, 6.705
730.490, 2.591
731.780, 16.498
733.069, 0.496
734.358, 0.526
735.646, 9.239
736.935, 16.666
738.223, 3.057
739.511, 8.109
740.799, 6.019
742.087, 4.068
743.374, 1.578
744.661, 17.758
745.948, 10.278
747.235, 3.356
748.522, 7.420
749.808, 21.503
751.094, 2.435
752.380, 23.457
753.666, 3.600
754.951, 10.426
756.236, 2.484
757.521, 10.544
758.806, 13.504
760.091, 0.516
761.375, 14.392
762.659, 6.313
763.943, 7.055
765.227, 13.122
766.511, 8.294
767.794, 6.652
769.077, 11.720
770.360, 16.789
771.643, 37.858
772.925, 16.928
774.207, 14.726
775.489, 23.903
776.771, 17.772
778.053, 31.833
779.334, 36.909
780.615, 36.987
781.896, 32.913
783.177, 21.950
784.457, 24.037
785.738, 44.106
787.018, 42.196
788.298, 78.213
789.577, 52.309
790.857, 74.171
792.136, 97.637
793.415, 101.739
794.694, 143.842
795.972, 186.948
797.251, 200.057
798.529, 161.168
799.807, 136.283
801.084, 145.400
802.362, 97.478
803.639, 150.547
804.916, 136.442
806.193, 187.571
807.470, 132.705
808.746, 187.842
810.022, 180.981
811.298, 172.122
812.574, 182.269
813.850, 255.418
815.125, 228.569
816.400, 287.723
817.675, 282.879
818.950, 326.038
820.224, 369.199
821.499, 397.364
822.773, 497.532
824.047, 573.705
825.320, 677.882
826.594, 811.066
827.867, 947.252
829.140, 1219.442
830.413, 1488.643
831.685, 2001.847
832.958, 2610.057
834.230, 3452.274
835.502, 4931.499
836.774, 6150.725
838.045, 7292.956
839.316, 7442.188
840.588, 6093.426
841.858, 4947.666
843.129, 3515.917
844.400, 2568.172
845.670, 2099.429
846.940, 1585.691
848.210, 1406.961
849.479, 1174.234
850.749, 1036.510
852.018, 976.792
853.287, 873.079
854.556, 856.376
855.824, 856.680
857.093, 813.995
858.361, 795.320
859.629, 775.503
860.896, 802.837
862.164, 798.634
863.431, 793.974
864.698, 808.310
865.965, 795.658
867.232, 811.154
868.498, 843.937
869.764, 886.871
871.030, 933.239
872.296, 1008.528
873.562, 1074.620
874.827, 1205.785
876.092, 1391.068
877.357, 1561.455
878.622, 1834.846
879.886, 2195.241
881.151, 2830.748
882.415, 3212.154
883.679, 3763.566
884.942, 3682.094
886.206, 3339.513
887.469, 2979.914
888.732, 2576.350
889.995, 2482.932
891.258, 2534.379
892.520, 2477.496
893.782, 2791.727
895.044, 3013.187
896.306, 3547.651
897.568, 4250.260
898.829, 4851.733
900.090, 6414.212
901.351, 7796.693
902.612, 9950.125
903.872, 13649.555
905.133, 17457.893
906.393, 24807.396
907.653, 32566.896
908.912, 42126.914
910.172, 53436.422
911.431, 55525.934
912.690, 52325.465
913.949, 41334.996
915.208, 27894.527
916.466, 20174.162
917.724, 13613.797
918.982, 9833.114
920.240, 7292.671
921.498, 5325.232
922.755, 4304.798
924.012, 3482.368
925.269, 2795.943
926.526, 2517.523
927.782, 2101.113
929.039, 1920.707
930.295, 1805.306
931.551, 1611.909
932.806, 1645.517
934.062, 1438.131
935.317, 1395.749
936.572, 1243.372
937.827, 1148.000
939.082, 1124.682
940.336, 967.319
941.590, 934.131
942.844, 813.777
944.098, 719.431
945.352, 700.090
946.605, 657.932
947.859, 583.881
949.112, 562.553
950.364, 508.684
951.617, 468.365
952.869, 419.050
954.121, 401.046
955.373, 385.740
956.625, 355.509
957.877, 351.216
959.128, 349.998
960.379, 314.710
961.630, 317.505
962.881, 296.004
964.131, 281.730
965.381, 267.493
966.631, 251.245
967.881, 227.930
969.131, 228.672
970.380, 205.570
971.630, 204.320
972.879, 195.538
974.128, 194.520
975.376, 190.195
976.625, 175.073
977.873, 182.843
979.121, 175.616
980.369, 171.596
981.616, 151.378
982.864, 150.133
984.111, 151.650
985.358, 145.993
986.605, 156.789
987.851, 152.588
989.097, 142.391
990.344, 143.198
991.589, 122.169
992.835, 152.706
994.081, 133.539
995.326, 119.360
996.571, 95.185
997.816, 75.525
999.061, 85.356
1000.305, 111.190
1001.550, 97.447
1002.794, 82.288
1004.037, 97.013
1005.281, 75.860
1006.525, 88.862
1007.768, 88.752
1009.011, 71.608
1010.254, 58.706
1011.496, 55.569
1012.739, 53.437
1013.981, 29.307
1015.223, 59.181
1016.465, 62.057
1017.706, 48.128
1018.948, 64.460
1020.189, 54.833
1021.430, 45.724
1022.671, 67.617
1023.911, 63.515
1025.152, 72.416
1026.392, 64.383
1027.632, 61.313
1028.872, 41.233
1030.111, 36.144
1031.350, 29.061
1032.590, 29.076
1033.829, 25.068
1035.067, 25.341
1036.306, 19.556
1037.544, 17.869
1038.782, 10.806
1040.020, 15.966
1041.258, 38.914
1042.495, 33.866
1043.733, 18.820
1044.970, 10.776
1046.207, 35.816
1047.443, 29.782
1048.680, 29.749
1049.916, 35.721
1051.152, 32.694
1052.388, 13.689
1053.624, 34.672
1054.859, 20.663
1056.094, 19.668
1057.329, 14.336
1058.564, 6.658
1059.799, 4.653
1061.033, 15.650
1062.268, 16.648
1063.502, 7.649
1064.735, 4.349
1065.969, 4.346
1067.202, 13.656
1068.436, 24.661
1069.669, 13.668
1070.902, 13.675
1072.134, 51.684
1073.367, 20.700
1074.599, 1.714
1075.831, 46.737
1077.062, 19.753
1078.294, 29.770
1079.525, 19.787
1080.757, 11.805
1081.988, 21.933
1083.218, 23.952
1084.449, 22.972
1085.679, 7.993
1086.909, 1.981
1088.139, 9.041
1089.369, 4.938
1090.599, 9.093
1091.828, 4.114
1093.057, 8.138
1094.286, 4.720
1095.515, 6.697
1096.744, 15.325
1097.972, 9.654
1099.200, 10.364
1100.428, 23.382
1101.656, 6.600
1102.883, 22.415
1104.111, 1.569
1105.338, 0.445
1106.565, 1.540
1107.791, 4.473
1109.018, 1.468
1110.244, 13.433
1111.470, 22.677
1112.696, 1.684
1113.922, 30.690
1115.147, 8.696
1116.373, 19.704
1117.598, 2.290
1118.823, 2.714
1120.047, 7.283
1121.272, 3.284
1122.496, 10.711
1123.720, 0.707
1124.944, 16.701
1126.168, 16.741
1127.391, 18.216
1128.615, 2.766
1129.838, 14.252
1131.061, 10.275
1132.283, 7.310
1133.506, 12.650
1134.728, 6.609
1135.950, 12.576
1137.172, 10.534
1138.394, 0.510
1139.615, 9.301
1140.837, 2.646
1142.058, 16.602
1143.279, 14.560
1144.499, 5.497
1145.720, 25.441
1146.940, 13.385
1148.160, 3.680
1149.380, 14.250
1150.600, 10.820
1151.819, 5.100
1153.038, 1.045
1154.257, 13.003
1155.476, 18.955
1156.695, 0.050
1157.913, 22.850
1159.132, 45.750
1160.350, 20.647
1161.568, 33.543
1162.785, 36.509
1164.003, 1.402
1165.220, 2.709
1166.437, 3.233
1167.654, 24.052
1168.871, 11.928
1170.087, 16.802
1171.304, 45.674
1172.520, 4.582
1173.736, 35.450
1174.951, 8.316
1176.167, 38.180
1177.382, 37.042
1178.597, 5.050
1179.812, 6.099
1181.027, 24.953
1182.241, 28.805
1183.455, 10.318
1184.669, 40.732
1185.883, 2.871
1187.097, 28.177
1188.311, 45.007
1189.524, 18.853
1190.737, 42.679
1191.950, 7.502
1193.162, 50.715
1194.375, 21.539
1195.587, 56.068
1196.799, 30.880
1198.011, 13.690
1199.223, 23.751
1200.434, 41.970
1201.646, 15.780
1202.857, 23.128
1204.068, 36.493
1205.279, 40.287
1206.489, 21.079
1207.699, 38.867
1208.909, 21.068
1210.119, 34.851
1211.329, 26.574
1212.539, 45.257
1213.748, 36.039
1214.957, 46.845
1216.166, 39.638
1217.375, 33.404
1218.583, 20.437
1219.792, 25.694
1221.000, 20.451
1222.208, 25.234
1223.415, 53.999
1224.623, 24.748
1225.830, 38.493
1227.037, 11.236
1228.244, 33.990
1229.451, 66.744
1230.658, 30.477
1231.864, 23.243
1233.070, 28.921
1234.276, 40.646
1235.482, 22.227
1236.687, 35.945
1237.893, 30.291
1239.098, 12.043
1240.303, 57.643
1241.508, 38.144
1242.712, 30.876
1243.917, 28.140
1245.121, 42.846
1246.325, 26.573
1247.529, 36.959
1248.732, 34.650
1249.936, 36.269
1251.139, 41.030
1252.342, 42.638
1253.545, 17.642
1254.747, 21.279
1255.950, 12.175
1257.152, 46.845
1258.354, 39.513
1259.556, 37.178
1260.758, 25.840
1261.959, 28.235
1263.160, 46.002
1264.361, 33.667
1265.562, 41.854
1266.763, 51.277
1267.963, 45.922
1269.164, 35.539
1270.364, 17.178
1271.563, 16.825
1272.763, 51.256
1273.963, 40.923
1275.162, 23.603
1276.361, 57.500
1277.560, 50.574
1278.759, 33.195
1279.957, 21.813
1281.155, 39.428
1282.354, 41.110
1283.551, 3.555
1284.749, 37.433
1285.947, 21.014
1287.144, 20.639
1288.341, 37.224
1289.538, 32.294
1290.735, 21.869
1291.931, 25.438
1293.128, 38.584
1294.324, 23.152
1295.520, 26.829
1296.716, 16.384
1297.911, 14.198
1299.107, 11.337
1300.302, 7.877
1301.497, 28.177
1302.692, 23.712
1303.886, 33.244
1305.081, 24.773
1306.275, 9.300
1307.469, 42.823
1308.663, 44.156
1309.856, 23.222
1311.050, 44.246
1312.243, 20.751
1313.436, 32.253
1314.629, 32.753
1315.822, 12.249
1317.014, 22.651
1318.206, 40.138
1319.398, 20.611
1320.590, 49.092
1321.782, 3.570
1322.974, 1.948
1324.165, 25.349
1325.356, 46.816
1326.547, 14.280
1327.738, 0.734
1328.928, 0.810
1330.119, 3.608
1331.309, 34.871
1332.499, 15.313
1333.688, 33.752
1334.878, 44.188
1336.067, 2.462
1337.256, 17.966
1338.445, 7.609
1339.634, 38.810
1340.823, 37.226
1342.011, 0.376
1343.199, 2.966
1344.388, 17.439
1345.575, 5.171
1346.763, 7.227
1347.950, 20.624
1349.138, 27.018
1350.325, 22.411
1351.512, 3.199
1352.698, 32.187
1353.885, 10.571
1355.071, 22.953
1356.257, 17.334
1357.443, 10.734
1358.629, 13.112
1359.814, 40.487
1361.000, 1.138
1362.185, 4.772
1363.370, 28.597
1364.554, 11.956
1365.739, 15.323
1366.923, 30.689
1368.107, 31.056
1369.291, 31.421
1370.475, 14.703
1371.659, 14.070
1372.842, 40.438
1374.025, 9.959
1375.208, 24.323
1376.391, 40.695
1377.574, 11.039
1378.756, 42.284
1379.939, 7.248
1381.121, 9.094
1382.303, 5.552
1383.484, 5.009
1384.666, 11.462
1385.847, 13.913
1387.028, 16.268
1388.209, 10.728
1389.390, 21.057
1390.570, 21.493
1391.751, 22.921
1392.931, 4.348
1394.111, 22.776
1395.291, 2.799
1396.470, 8.513
1397.649, 30.939
1398.829, 38.369
1400.008, 17.809
1401.187, 26.235
1402.365, 24.361
1403.544, 33.782
1404.722, 30.196
1405.900, 14.620
1407.078, 21.050
1408.255, 46.484
1409.433, 21.843
1410.610, 29.104
1411.787, 32.548
1412.964, 14.989
1414.141, 44.333
1415.317, 8.774
1416.494, 12.221
1417.670, 18.667
1418.846, 43.059
1420.022, 25.500
1421.197, 28.729
1422.373, 22.890
1423.548, 4.286
1424.723, 36.971
1425.898, 44.698
1427.072, 16.101
1428.247, 7.923
1429.421, 16.221
1430.595, 23.627
1431.769, 32.961
1432.942, 20.447
1434.116, 50.716
1435.289, 12.091
1436.462, 27.761
1437.635, 37.063
1438.808, 6.352
1439.981, 8.667
1441.153, 48.648
1442.325, 34.931
1443.497, 57.238
1444.669, 24.568
1445.840, 45.834
1447.012, 64.091
1448.183, 42.411
1449.354, 60.670
1450.525, 51.619
1451.696, 53.606
1452.866, 57.787
1454.036, 55.974
1455.206, 25.235
1456.376, 75.314
1457.546, 33.821
1458.716, 31.953
1459.885, 47.166
1461.054, 39.373
1462.223, 42.574
1463.392, 25.736
1464.560, 25.915
1465.729, 37.087
1466.897, 41.221
1468.065, 33.211
1469.233, 48.340
1470.400, 25.455
1471.568, 7.356
1472.735, 58.472
1473.902, 18.489
1475.069, 48.625
1476.236, 51.789
1477.402, 9.943
1478.569, 20.119
1479.735, 45.139
1480.901, 11.335
1482.066, 47.523
1483.232, 46.704
1484.397, 27.876
1485.562, 12.092
1486.727, 13.314
1487.892, 6.536
1489.057, 16.790
1490.221, 16.982
1491.386, 19.147
1492.550, 23.580
1493.714, 27.862
1494.877, 25.161
1496.041, 34.488
1497.204, 0.841
1498.367, 25.214
1499.530, 34.614
1500.693, 27.042
1501.856, 62.500
1503.018, 20.992
1504.180, 12.520
1505.342, 41.088
1506.504, 20.705
1507.666, 41.380
1508.827, 44.815
1509.988, 3.587
1511.149, 42.436
1512.310, 12.374
1513.471, 0.588
1514.631, 50.810
1515.792, 28.917
1516.952, 3.072
1518.112, 0.000
##END=



