##NAMES=Scheelite
##RRUFFID=R040173
##IDEAL CHEMISTRY=CaW^6+^O_4_
##LOCALITY=Santa Cruz, Sonora, Mexico
##OWNER=RRUFF
##SOURCE=University of Arizona Mineral Museum
##DESCRIPTION=Yellow crystal fragments
##STATUS=The identification of this mineral has been confirmed by X-ray diffraction and chemical analysis
##URL=rruff.info/R040173
##MEASURED CHEMISTRY=Ca_1.00_W_1.00_O_4_
##PIN_ID=M00301
##ORIENTATION=Laser parallel to c* (0 0 1). Fiducial mark perpendicular to laser is parallel to a [1 0 0]
61.962, 0.000
63.360, 11.819
64.758, 21.294
66.157, 1.530
67.554, 9.108
68.952, 9.937
70.349, 46.855
71.747, 88.102
73.144, 185.850
74.540, 306.101
75.937, 576.187
77.333, 1145.389
78.729, 2464.330
80.125, 4880.406
81.521, 8102.414
82.916, 10177.256
84.311, 8375.612
85.706, 5067.679
87.101, 2767.656
88.496, 1630.351
89.890, 1031.552
91.284, 761.488
92.678, 617.346
94.071, 507.281
95.465, 403.420
96.858, 321.334
98.251, 293.036
99.644, 219.843
101.036, 198.173
102.428, 207.905
103.820, 200.541
105.212, 229.441
106.604, 259.228
107.995, 291.973
109.387, 345.288
110.777, 479.889
112.168, 633.280
113.559, 759.222
114.949, 841.692
116.339, 700.263
117.729, 530.932
119.119, 354.695
120.508, 279.550
121.897, 231.496
123.286, 193.535
124.675, 169.665
126.063, 160.881
127.452, 129.175
128.840, 100.542
130.228, 79.979
131.615, 50.488
133.003, 55.067
134.390, 26.718
135.777, 24.442
137.164, 19.239
138.550, 16.109
139.937, 7.947
141.323, 5.072
142.709, 37.834
144.094, 0.336
145.480, 39.417
146.865, 33.084
148.250, 30.662
149.635, 19.153
151.019, 30.560
152.403, 46.887
153.788, 24.136
155.171, 29.313
156.555, 12.420
157.939, 35.463
159.322, 22.446
160.705, 24.372
162.088, 15.242
163.470, 0.939
164.853, 12.169
166.235, 51.442
167.617, 63.753
168.998, 67.097
170.380, 134.472
171.761, 131.878
173.142, 192.315
174.523, 269.786
175.904, 272.296
177.284, 383.843
178.664, 432.433
180.044, 539.083
181.424, 638.816
182.803, 800.637
184.183, 987.535
185.562, 1165.461
186.940, 1323.389
188.319, 1530.280
189.698, 1706.154
191.076, 1855.000
192.454, 2090.843
193.831, 2319.685
195.209, 2787.537
196.586, 3237.426
197.963, 3882.367
199.340, 4694.363
200.717, 5381.411
202.093, 6276.515
203.470, 7160.673
204.846, 8024.885
206.221, 9007.153
207.597, 9960.478
208.972, 10793.855
210.347, 10767.291
211.722, 10050.784
213.097, 9024.331
214.472, 8290.935
215.846, 7830.596
217.220, 7339.313
218.594, 6785.090
219.967, 6306.924
221.341, 5907.815
222.714, 5515.765
224.087, 5108.773
225.460, 4694.837
226.832, 4002.961
228.204, 3618.384
229.577, 3135.978
230.948, 2706.667
232.320, 2475.410
233.692, 2364.208
235.063, 2239.033
236.434, 2104.877
237.805, 2030.681
239.175, 1980.591
240.545, 1913.448
241.916, 1922.299
243.286, 1944.143
244.655, 1918.982
246.025, 1991.814
247.394, 1978.636
248.763, 1939.440
250.132, 1776.218
251.501, 1660.969
252.869, 1448.692
254.237, 1296.393
255.605, 1185.079
256.973, 1085.755
258.340, 1018.429
259.708, 933.103
261.075, 903.781
262.442, 830.450
263.808, 778.097
265.175, 691.714
266.541, 662.281
267.907, 604.771
269.273, 544.193
270.639, 521.539
272.004, 459.834
273.369, 436.072
274.734, 400.286
276.099, 351.474
277.463, 364.658
278.828, 378.879
280.192, 379.148
281.556, 353.464
282.919, 466.828
284.283, 531.239
285.646, 582.697
287.009, 739.491
288.372, 882.043
289.734, 957.667
291.097, 1098.312
292.459, 1101.402
293.821, 1061.166
295.183, 933.750
296.544, 894.048
297.905, 796.396
299.266, 850.056
300.627, 852.762
301.988, 983.846
303.348, 1173.417
304.709, 1361.797
306.069, 1580.565
307.428, 1740.225
308.788, 1976.117
310.147, 1909.778
311.507, 2060.761
312.865, 2143.051
314.224, 2305.155
315.583, 2429.728
316.941, 2590.480
318.299, 2718.699
319.657, 3005.748
321.015, 3433.918
322.372, 3983.870
323.729, 4783.712
325.086, 5928.571
326.443, 7254.034
327.800, 8868.463
329.156, 10824.347
330.512, 12110.311
331.868, 13016.319
333.224, 12312.371
334.579, 11318.467
335.935, 10134.609
337.290, 8790.794
338.645, 7744.026
339.999, 6797.301
341.354, 6001.958
342.708, 5389.985
344.062, 4899.393
345.416, 4513.846
346.769, 4309.342
348.123, 4483.883
349.476, 4800.467
350.829, 5336.096
352.182, 5970.767
353.534, 6405.484
354.887, 6542.246
356.239, 5903.051
357.591, 5201.903
358.942, 4058.798
360.294, 3184.739
361.645, 2547.725
362.996, 2216.756
364.347, 1978.831
365.698, 1980.951
367.048, 2098.115
368.398, 2328.323
369.748, 2432.575
371.098, 2488.871
372.448, 2316.211
373.797, 2110.595
375.146, 1905.023
376.495, 1828.493
377.844, 1774.007
379.192, 1750.564
380.540, 1644.164
381.889, 1472.807
383.236, 1469.492
384.584, 1451.220
385.932, 1465.990
387.279, 1523.802
388.626, 1536.656
389.973, 1657.553
391.319, 1930.490
392.666, 2302.466
394.012, 2914.483
395.358, 3797.540
396.704, 5019.635
398.049, 5896.771
399.394, 6365.946
400.740, 6369.159
402.084, 5682.412
403.429, 5139.707
404.774, 4280.038
406.118, 3624.411
407.462, 2812.823
408.806, 2304.275
410.150, 1925.767
411.493, 1536.299
412.836, 1437.872
414.179, 1364.485
415.522, 1202.139
416.865, 1196.834
418.207, 1163.570
419.549, 1093.351
420.891, 915.173
422.233, 815.040
423.575, 656.958
424.916, 539.922
426.257, 421.939
427.598, 301.010
428.939, 222.139
430.279, 133.330
431.619, 96.576
432.959, 52.769
434.299, 24.254
435.639, 23.693
436.978, 7.199
438.318, 25.778
439.657, 12.427
440.996, 8.152
442.334, 34.948
443.673, 9.818
445.011, 11.760
446.349, 48.767
447.687, 15.153
449.024, 33.990
450.361, 1.210
451.699, 25.498
453.036, 20.141
454.372, 1.289
455.709, 40.205
457.045, 76.636
458.381, 71.013
459.717, 125.334
461.053, 97.608
462.388, 108.834
463.724, 121.010
465.059, 64.145
466.394, 77.217
467.728, 58.233
469.063, 49.182
470.397, 12.071
471.731, 40.115
473.065, 18.373
474.398, 63.694
475.732, 69.075
477.065, 115.510
478.398, 173.999
479.731, 201.536
481.063, 263.121
482.396, 251.751
483.728, 299.429
485.060, 357.153
486.391, 349.921
487.723, 414.731
489.054, 398.580
490.385, 475.464
491.716, 530.385
493.047, 548.345
494.377, 597.347
495.708, 621.390
497.038, 650.476
498.368, 712.601
499.697, 666.771
501.027, 793.982
502.356, 759.230
503.685, 822.518
505.014, 805.841
506.342, 930.197
507.671, 991.585
508.999, 1021.005
510.327, 1068.455
511.655, 1060.937
512.982, 1123.448
514.310, 1184.990
515.637, 1239.561
516.964, 1354.161
518.291, 1386.791
519.617, 1464.449
520.944, 1528.135
522.270, 1541.850
523.596, 1653.593
524.921, 1707.363
526.247, 1692.160
527.572, 1753.984
528.897, 1732.835
530.222, 1876.712
531.547, 1855.615
532.871, 1904.543
534.196, 1925.497
535.520, 2010.476
536.844, 2031.480
538.167, 2141.507
539.491, 2196.560
540.814, 2280.635
542.137, 2366.735
543.460, 2502.857
544.783, 2493.002
546.105, 2717.170
547.427, 2728.360
548.749, 2895.571
550.071, 3035.804
551.393, 3056.058
552.714, 3297.334
554.035, 3347.630
555.356, 3514.946
556.677, 3692.282
557.998, 3726.638
559.318, 3984.012
560.638, 4070.407
561.958, 4275.821
563.278, 4390.251
564.597, 4457.700
565.917, 4716.168
567.236, 4686.652
568.555, 4860.154
569.874, 4857.673
571.192, 4908.207
572.511, 4929.759
573.829, 4791.327
575.147, 4768.911
576.464, 4660.508
577.782, 4616.580
579.099, 4397.394
580.416, 4157.510
581.733, 4026.060
583.050, 3814.787
584.366, 3588.667
585.683, 3502.989
586.999, 3243.865
588.315, 3076.738
589.630, 2931.042
590.946, 2802.907
592.261, 2713.646
593.576, 2584.018
594.891, 2627.643
596.206, 2474.158
597.520, 2576.680
598.834, 2578.659
600.148, 2488.337
601.462, 2575.292
602.776, 2547.327
604.089, 2535.009
605.402, 2634.414
606.715, 2612.307
608.028, 2667.847
609.341, 2701.518
610.653, 2803.323
611.965, 2880.026
613.277, 2968.465
614.589, 3086.301
615.901, 3069.603
617.212, 3244.397
618.523, 3238.354
619.834, 3211.532
621.145, 3137.920
622.456, 3026.222
623.766, 2933.693
625.076, 2733.740
626.386, 2627.684
627.696, 2505.470
629.006, 2365.138
630.315, 2241.696
631.624, 2113.842
632.933, 2063.688
634.242, 1967.073
635.551, 1832.761
636.859, 1763.437
638.167, 1765.100
639.475, 1649.750
640.783, 1665.386
642.090, 1562.010
643.398, 1574.619
644.705, 1465.214
646.012, 1416.794
647.318, 1444.360
648.625, 1300.388
649.931, 1290.673
651.237, 1271.878
652.543, 1220.784
653.849, 1207.074
655.155, 1208.867
656.460, 1139.659
657.765, 1146.679
659.070, 1137.272
660.375, 1108.868
661.679, 1080.019
662.984, 1101.491
664.288, 1082.085
665.592, 986.404
666.895, 1024.702
668.199, 880.979
669.502, 873.236
670.805, 827.472
672.108, 776.686
673.411, 702.879
674.713, 647.050
676.016, 621.198
677.318, 587.325
678.620, 547.238
679.921, 520.279
681.223, 485.568
682.524, 457.602
683.825, 444.613
685.126, 413.600
686.427, 417.563
687.727, 383.502
689.028, 388.416
690.328, 337.306
691.628, 327.170
692.927, 339.010
694.227, 285.823
695.526, 336.612
696.825, 279.374
698.124, 277.110
699.423, 283.820
700.721, 245.503
702.020, 273.159
703.318, 214.789
704.616, 223.391
705.913, 226.966
707.211, 212.514
708.508, 258.034
709.805, 215.525
711.102, 179.989
712.399, 219.424
713.695, 200.831
714.992, 194.209
716.288, 187.559
717.584, 205.880
718.879, 179.172
720.175, 201.436
721.470, 196.670
722.765, 171.876
724.060, 154.052
725.355, 157.200
726.649, 149.318
727.944, 133.407
729.238, 125.467
730.532, 122.497
731.825, 108.499
733.119, 62.471
734.412, 83.408
735.705, 64.313
736.998, 17.183
738.291, 41.005
739.584, 11.786
740.876, 4.516
742.168, 3.810
743.460, 19.195
744.752, 6.350
746.043, 18.159
747.334, 15.737
748.626, 41.383
749.916, 29.110
751.207, 58.911
752.498, 42.803
753.788, 65.778
755.078, 44.847
756.368, 65.000
757.658, 50.248
758.947, 28.582
760.237, 55.992
761.526, 36.492
762.815, 74.070
764.104, 44.747
765.392, 62.509
766.680, 67.364
767.969, 73.312
769.257, 62.359
770.544, 56.494
771.832, 61.710
773.119, 80.010
774.406, 51.394
775.693, 77.853
776.980, 52.397
778.267, 55.012
779.553, 55.708
780.839, 44.481
782.125, 38.120
783.411, 37.252
784.697, 16.250
785.982, 5.685
787.267, 11.565
788.552, 69.393
789.837, 143.184
791.122, 236.944
792.406, 497.673
793.690, 761.371
794.974, 962.039
796.258, 969.676
797.542, 704.283
798.825, 442.860
800.108, 280.406
801.391, 140.922
802.674, 77.409
803.957, 57.860
805.239, 15.274
806.522, 24.642
807.804, 9.967
809.085, 26.245
810.367, 2.519
811.649, 14.664
812.930, 29.802
814.211, 27.901
815.492, 48.958
816.772, 102.979
818.053, 84.970
819.333, 147.930
820.613, 182.860
821.893, 254.763
823.173, 327.638
824.452, 400.484
825.732, 529.303
827.011, 679.095
828.290, 908.858
829.568, 1191.594
830.847, 1659.304
832.125, 2334.986
833.403, 3214.641
834.681, 4495.271
835.959, 5589.871
837.236, 6015.448
838.514, 5702.997
839.791, 4524.521
841.068, 3282.018
842.345, 2493.491
843.621, 1741.937
844.898, 1308.358
846.174, 1017.754
847.450, 813.125
848.726, 702.471
850.001, 599.793
851.277, 522.090
852.552, 538.363
853.827, 432.612
855.102, 453.837
856.376, 444.039
857.651, 404.217
858.925, 436.372
860.199, 407.504
861.473, 393.613
862.746, 416.700
864.020, 405.765
865.293, 467.820
866.566, 425.865
867.839, 510.905
869.112, 555.946
870.384, 586.981
871.656, 686.017
872.928, 790.054
874.200, 933.092
875.472, 1090.132
876.744, 1410.180
878.015, 1798.235
879.286, 2272.301
880.557, 2995.376
881.828, 3461.469
883.098, 3595.571
884.369, 3300.675
885.639, 2749.780
886.909, 2345.430
888.178, 2049.343
889.448, 1919.980
890.717, 1926.188
891.987, 2030.229
893.256, 2179.122
894.524, 2507.571
895.793, 2812.460
897.061, 3452.348
898.330, 4266.799
899.598, 5235.684
900.865, 6735.691
902.133, 8660.060
903.401, 11908.170
904.668, 16388.379
905.935, 22129.586
907.202, 29769.326
908.468, 38570.355
909.735, 44810.109
911.001, 44850.781
912.267, 36932.793
913.533, 27583.068
914.799, 18684.566
916.064, 12733.700
917.330, 9134.671
918.595, 6373.528
919.860, 4779.080
921.124, 3639.264
922.389, 2749.141
923.653, 2230.395
924.918, 1810.332
926.182, 1513.134
927.445, 1314.746
928.709, 1087.713
929.972, 1078.296
931.236, 929.734
932.499, 879.150
933.761, 756.293
935.024, 703.861
936.286, 657.509
937.549, 555.504
938.811, 498.902
940.073, 437.594
941.334, 379.737
942.596, 357.570
943.857, 350.407
945.118, 271.248
946.379, 296.093
947.640, 204.943
948.900, 213.797
950.161, 221.657
951.421, 227.521
952.681, 232.675
953.940, 238.608
955.200, 230.671
956.459, 256.808
957.719, 237.017
958.978, 263.514
960.236, 283.618
961.495, 226.209
962.753, 259.792
964.012, 232.136
965.270, 240.898
966.527, 271.648
967.785, 219.832
969.043, 236.684
970.300, 205.405
971.557, 209.391
972.814, 250.388
974.071, 288.395
975.327, 312.412
976.583, 370.440
977.840, 338.479
979.095, 420.530
980.351, 456.591
981.607, 474.664
982.862, 560.749
984.117, 596.846
985.372, 711.956
986.627, 762.077
987.882, 857.212
989.136, 963.359
990.390, 927.519
991.644, 1093.693
992.898, 1246.880
994.152, 1357.081
995.405, 1611.295
996.659, 1770.524
997.912, 2008.768
999.165, 2400.024
1000.417, 2679.297
1001.670, 3074.584
1002.922, 3396.886
1004.174, 3889.204
1005.426, 4358.538
1006.678, 4713.886
1007.930, 5399.250
1009.181, 5777.633
1010.432, 6420.029
1011.683, 6803.442
1012.934, 6907.874
1014.185, 6831.422
1015.435, 6593.052
1016.685, 6047.344
1017.935, 5760.133
1019.185, 5232.722
1020.435, 4892.250
1021.684, 4860.015
1022.934, 4720.296
1024.183, 5030.475
1025.432, 5111.203
1026.680, 5160.081
1027.929, 5460.639
1029.177, 5280.317
1030.425, 5055.378
1031.673, 4710.360
1032.921, 4175.768
1034.169, 3669.678
1035.416, 3187.977
1036.663, 2754.340
1037.911, 2545.354
1039.157, 2226.697
1040.404, 2034.232
1041.650, 1860.741
1042.897, 1681.910
1044.143, 1590.769
1045.389, 1405.656
1046.634, 1289.572
1047.880, 1271.522
1049.125, 1254.501
1050.371, 1260.513
1051.615, 1239.560
1052.860, 1252.647
1054.105, 1403.773
1055.349, 1513.944
1056.593, 1662.157
1057.837, 1906.418
1059.081, 1960.722
1060.325, 2249.074
1061.568, 2327.471
1062.812, 2425.907
1064.055, 2597.389
1065.298, 2670.912
1066.540, 2816.487
1067.783, 3150.105
1069.025, 3583.801
1070.267, 4184.490
1071.509, 4841.257
1072.751, 5736.074
1073.993, 6670.938
1075.234, 7191.850
1076.475, 7407.817
1077.716, 7080.828
1078.957, 6521.894
1080.198, 6026.005
1081.438, 5291.163
1082.679, 4582.368
1083.919, 4157.617
1085.159, 3768.908
1086.398, 3618.242
1087.638, 3504.613
1088.877, 3560.013
1090.116, 3851.445
1091.355, 3829.898
1092.594, 3985.369
1093.833, 3807.861
1095.071, 3595.372
1096.309, 3477.903
1097.547, 3329.451
1098.785, 3376.020
1100.023, 3283.607
1101.260, 2985.215
1102.498, 2840.843
1103.735, 2571.489
1104.972, 2339.158
1106.208, 2209.851
1107.445, 1993.570
1108.681, 1868.317
1109.918, 1839.092
1111.154, 1619.893
1112.389, 1684.725
1113.625, 1572.586
1114.860, 1391.471
1116.096, 1351.382
1117.331, 1152.317
1118.566, 1137.273
1119.800, 1068.250
1121.035, 899.246
1122.269, 979.262
1123.503, 877.299
1124.737, 822.355
1125.971, 793.431
1127.205, 663.526
1128.438, 604.642
1129.671, 574.777
1130.904, 451.932
1132.137, 462.107
1133.370, 489.302
1134.602, 443.516
1135.834, 480.751
1137.066, 464.005
1138.298, 510.279
1139.530, 539.572
1140.762, 513.885
1141.993, 567.218
1143.224, 546.571
1144.455, 534.944
1145.686, 567.336
1146.917, 473.748
1148.147, 443.180
1149.377, 347.632
1150.607, 286.103
1151.837, 265.594
1153.067, 146.105
1154.296, 151.636
1155.526, 141.187
1156.755, 58.757
1157.984, 51.348
1159.213, 59.958
1160.441, 21.588
1161.670, 3.238
1162.898, 41.096
1164.126, 53.432
1165.354, 61.774
1166.581, 94.128
1167.809, 55.509
1169.036, 95.898
1170.263, 86.314
1171.490, 83.754
1172.717, 93.216
1173.943, 113.705
1175.170, 107.230
1176.396, 126.789
1177.622, 115.390
1178.848, 148.029
1180.073, 120.722
1181.299, 74.455
1182.524, 81.206
1183.749, 81.979
1184.974, 37.775
1186.199, 117.571
1187.423, 27.406
1188.648, 46.238
1189.872, 39.077
1191.096, 21.083
1192.320, 18.262
1193.543, 45.461
1194.767, 42.680
1195.990, 26.919
1197.213, 69.179
1198.436, 92.458
1199.659, 69.758
1200.881, 106.078
1202.104, 105.417
1203.326, 128.777
1204.548, 126.159
1205.770, 99.562
1206.991, 166.984
1208.213, 170.429
1209.434, 158.895
1210.655, 229.381
1211.876, 204.891
1213.096, 217.420
1214.317, 212.968
1215.537, 243.921
1216.757, 389.123
1217.977, 336.730
1219.197, 423.357
1220.417, 504.003
1221.636, 501.669
1222.855, 541.354
1224.074, 629.057
1225.293, 623.780
1226.512, 647.521
1227.731, 643.283
1228.949, 633.063
1230.167, 681.861
1231.385, 646.677
1232.603, 688.512
1233.820, 707.365
1235.038, 654.236
1236.255, 724.125
1237.472, 733.033
1238.689, 755.959
1239.906, 850.904
1241.122, 866.867
1242.338, 881.848
1243.555, 942.847
1244.771, 940.865
1245.986, 1006.618
1247.202, 1115.952
1248.417, 1138.024
1249.633, 1209.112
1250.848, 1307.212
1252.063, 1385.324
1253.277, 1539.448
1254.492, 1464.584
1255.706, 1694.732
1256.920, 1760.891
1258.134, 1859.062
1259.348, 2047.245
1260.562, 2075.438
1261.775, 2216.644
1262.988, 2420.860
1264.201, 2478.087
1265.414, 2704.327
1266.627, 2802.577
1267.839, 2878.838
1269.052, 3177.111
1270.264, 3166.394
1271.476, 3297.690
1272.688, 3578.995
1273.899, 3545.312
1275.111, 3646.640
1276.322, 3708.978
1277.533, 3687.328
1278.744, 3809.688
1279.955, 3774.060
1281.165, 3699.442
1282.376, 3805.836
1283.586, 3725.242
1284.796, 3770.661
1286.006, 3889.093
1287.215, 3796.539
1288.425, 3925.000
1289.634, 4038.475
1290.843, 4043.967
1292.052, 4214.475
1293.261, 4239.000
1294.469, 4301.542
1295.678, 4466.099
1296.886, 4427.675
1298.094, 4696.268
1299.302, 4673.878
1300.509, 4715.504
1301.717, 4757.149
1302.924, 4765.811
1304.131, 4762.490
1305.338, 4770.185
1306.545, 4650.900
1307.752, 4595.529
1308.958, 4592.111
1310.164, 4326.067
1311.370, 4250.560
1312.576, 4142.288
1313.782, 3968.110
1314.987, 3899.732
1316.193, 3704.872
1317.398, 3661.151
1318.603, 3622.915
1319.807, 3441.565
1321.012, 3461.571
1322.216, 3380.490
1323.421, 3320.064
1324.625, 3374.752
1325.829, 3201.052
1327.032, 3044.885
1328.236, 3176.366
1329.439, 3038.821
1330.642, 3011.985
1331.845, 3120.541
1333.048, 3045.945
1334.251, 3138.425
1335.453, 3152.288
1336.656, 3178.513
1337.858, 3243.768
1339.060, 3212.050
1340.261, 3224.354
1341.463, 3236.687
1342.664, 3097.046
1343.866, 2985.434
1345.067, 2937.849
1346.267, 2754.294
1347.468, 2697.768
1348.669, 2525.012
1349.869, 2414.544
1351.069, 2382.106
1352.269, 2207.630
1353.469, 2144.252
1354.668, 2050.178
1355.868, 1934.831
1357.067, 1879.549
1358.266, 1777.299
1359.465, 1743.084
1360.664, 1813.901
1361.862, 1675.932
1363.061, 1627.812
1364.259, 1634.063
1365.457, 1528.015
1366.655, 1514.004
1367.852, 1523.033
1369.050, 1458.253
1370.247, 1450.357
1371.444, 1448.706
1372.641, 1419.868
1373.838, 1451.023
1375.035, 1479.207
1376.231, 1504.410
1377.427, 1523.650
1378.623, 1546.969
1379.819, 1575.255
1381.015, 1629.572
1382.211, 1570.236
1383.406, 1674.586
1384.601, 1591.036
1385.796, 1568.445
1386.991, 1635.877
1388.185, 1496.297
1389.380, 1491.727
1390.574, 1478.163
1391.768, 1337.730
1392.962, 1354.066
1394.156, 1255.289
1395.350, 1176.526
1396.543, 1154.777
1397.736, 1063.042
1398.929, 993.321
1400.122, 971.614
1401.315, 874.920
1402.507, 808.240
1403.700, 788.574
1404.892, 686.921
1406.084, 762.282
1407.276, 649.656
1408.467, 584.043
1409.659, 617.444
1410.850, 570.857
1412.041, 508.284
1413.232, 514.724
1414.423, 461.175
1415.614, 456.639
1416.804, 454.115
1417.994, 421.601
1419.184, 429.099
1420.374, 368.606
1421.564, 353.124
1422.753, 374.669
1423.943, 332.292
1425.132, 326.023
1426.321, 349.874
1427.510, 287.854
1428.698, 315.991
1429.887, 291.306
1431.075, 288.824
1432.263, 318.491
1433.451, 281.288
1434.639, 250.225
1435.827, 301.261
1437.014, 266.348
1438.201, 238.469
1439.388, 269.625
1440.575, 248.814
1441.762, 293.038
1442.949, 263.284
1444.135, 283.556
1445.321, 245.851
1446.507, 279.162
1447.693, 230.503
1448.879, 255.871
1450.064, 225.263
1451.250, 233.681
1452.435, 240.122
1453.620, 197.586
1454.805, 213.071
1455.989, 182.581
1457.174, 148.113
1458.358, 140.668
1459.542, 126.239
1460.726, 128.830
1461.910, 126.442
1463.093, 79.076
1464.277, 90.732
1465.460, 91.446
1466.643, 77.231
1467.826, 32.092
1469.009, 78.030
1470.191, 8.048
1471.373, 40.150
1472.556, 19.660
1473.738, 14.621
1474.919, 20.999
1476.101, 9.476
1477.283, 2.060
