##NAMES=Scheelite
##RRUFFID=R040173
##IDEAL CHEMISTRY=CaW^6+^O_4_
##LOCALITY=Santa Cruz, Sonora, Mexico
##OWNER=RRUFF
##SOURCE=University of Arizona Mineral Museum
##DESCRIPTION=Yellow crystal fragments
##STATUS=The identification of this mineral has been confirmed by X-ray diffraction and chemical analysis
##URL=rruff.info/R040173
##MEASURED CHEMISTRY=Ca_1.00_W_1.00_O_4_
##PIN_ID=M00457
##ORIENTATION=Laser parallel to -a* (-1 0 0). Fiducial mark perpendicular to laser is parallel to c [0 0 1]
61.962, 0.000
63.360, 3.917
64.758, 16.649
66.157, 10.953
67.554, 64.147
68.952, 101.974
70.349, 197.145
71.747, 265.849
73.144, 555.709
74.540, 858.784
75.937, 1501.155
77.333, 2596.558
78.729, 5113.223
80.125, 11186.119
81.521, 23388.035
82.916, 38492.105
84.311, 34029.188
85.706, 20178.398
87.101, 10128.414
88.496, 5267.457
89.890, 3556.462
91.284, 2490.591
92.678, 2146.122
94.071, 1709.286
95.465, 1419.272
96.858, 1036.026
98.251, 810.954
99.644, 655.821
101.036, 528.801
102.428, 452.905
103.820, 396.859
105.212, 411.408
106.604, 418.700
107.995, 420.062
109.387, 497.338
110.777, 578.180
112.168, 803.152
113.559, 1021.869
114.949, 1201.138
116.339, 1157.224
117.729, 832.332
119.119, 592.581
120.508, 402.968
121.897, 362.492
123.286, 304.153
124.675, 305.952
126.063, 281.878
127.452, 203.916
128.840, 181.058
130.228, 133.296
131.615, 82.629
133.003, 85.054
134.390, 53.574
135.777, 46.188
137.164, 50.895
138.550, 22.697
139.937, 8.408
141.323, 12.419
142.709, 5.664
144.094, 4.158
145.480, 34.884
146.865, 64.508
148.250, 32.013
149.635, 68.398
151.019, 50.664
152.403, 46.814
153.788, 64.853
155.171, 51.787
156.555, 53.621
157.939, 42.363
159.322, 71.018
160.705, 14.593
162.088, 57.091
163.470, 8.517
164.853, 39.875
166.235, 16.172
167.617, 49.583
168.998, 10.381
170.380, 132.216
171.761, 118.089
173.142, 173.003
174.523, 202.964
175.904, 274.968
177.284, 315.017
178.664, 366.126
180.044, 465.328
181.424, 534.650
182.803, 701.091
184.183, 882.643
185.562, 1032.249
186.940, 1380.870
188.319, 1490.432
189.698, 1754.926
191.076, 1823.364
192.454, 2046.753
193.831, 2264.104
195.209, 2581.442
196.586, 3081.785
197.963, 3573.156
199.340, 4536.585
200.717, 5299.075
202.093, 6444.627
203.470, 7475.242
204.846, 8283.919
206.221, 9886.657
207.597, 11269.458
208.972, 14222.323
210.347, 15185.252
211.722, 14308.240
213.097, 12381.296
214.472, 9774.412
215.846, 9327.592
217.220, 8391.836
218.594, 8043.145
219.967, 7260.518
221.341, 6450.955
222.714, 6242.457
224.087, 5647.021
225.460, 5577.653
226.832, 4703.349
228.204, 4143.503
229.577, 3538.590
230.948, 3043.168
232.320, 2852.925
233.692, 2500.806
235.063, 2459.773
236.434, 2332.799
237.805, 2249.866
239.175, 2235.960
240.545, 2045.065
241.916, 2158.169
243.286, 1926.268
244.655, 2084.361
246.025, 2043.444
247.394, 2162.513
248.763, 2113.560
250.132, 1906.569
251.501, 1953.533
252.869, 1591.445
254.237, 1492.312
255.605, 1318.142
256.973, 1150.945
258.340, 1163.726
259.708, 1065.495
261.075, 1035.254
262.442, 927.001
263.808, 920.724
265.175, 889.418
266.541, 804.035
267.907, 744.573
269.273, 618.017
270.639, 632.328
272.004, 521.502
273.369, 506.566
274.734, 418.541
276.099, 354.434
277.463, 419.293
278.828, 342.144
280.192, 439.265
281.556, 478.219
282.919, 505.277
284.283, 599.841
285.646, 543.940
287.009, 803.354
288.372, 875.561
289.734, 1127.909
291.097, 1251.374
292.459, 1258.748
293.821, 1352.557
295.183, 1162.891
296.544, 1203.121
297.905, 1070.385
299.266, 1063.407
300.627, 1070.421
301.988, 1126.818
303.348, 1362.046
304.709, 1551.206
306.069, 1934.197
307.428, 2149.952
308.788, 2419.053
310.147, 2677.629
311.507, 2600.888
312.865, 2894.375
314.224, 3037.762
315.583, 3373.443
316.941, 3674.545
318.299, 3720.690
319.657, 4299.827
321.015, 4550.020
322.372, 5539.045
323.729, 6547.480
325.086, 7856.410
326.443, 10070.989
327.800, 12055.519
329.156, 16128.377
330.512, 18522.717
331.868, 21048.504
333.224, 21384.299
334.579, 18670.176
335.935, 17376.104
337.290, 13632.076
338.645, 12098.098
339.999, 9994.166
341.354, 8600.278
342.708, 7744.439
344.062, 6380.646
345.416, 6036.898
346.769, 5215.198
348.123, 5148.543
349.476, 5334.934
350.829, 5525.370
352.182, 6506.854
353.534, 6881.385
354.887, 7719.962
356.239, 7195.588
357.591, 6305.263
358.942, 5262.984
360.294, 3785.756
361.645, 3208.577
362.996, 2554.445
364.347, 2285.362
365.698, 2248.327
367.048, 2266.340
368.398, 2667.401
369.748, 2746.510
371.098, 3152.666
372.448, 2895.869
373.797, 2646.121
375.146, 2434.418
376.495, 2136.764
377.844, 2269.156
379.192, 2187.594
380.540, 2230.078
381.889, 2133.609
383.236, 1989.187
384.584, 2154.809
385.932, 2077.477
387.279, 2448.191
388.626, 2522.950
389.973, 2876.754
391.319, 3515.602
392.666, 4081.495
394.012, 5663.429
395.358, 7409.404
396.704, 10571.421
398.049, 13389.475
399.394, 13917.571
400.740, 13755.708
402.084, 10483.881
403.429, 8642.097
404.774, 6917.353
406.118, 5191.648
407.462, 4294.983
408.806, 3089.358
410.150, 2667.774
411.493, 1952.230
412.836, 1737.727
414.179, 1651.265
415.522, 1436.844
416.865, 1539.465
418.207, 1329.128
419.549, 1345.834
420.891, 1205.583
422.233, 960.376
423.575, 881.220
424.916, 673.109
426.257, 555.044
427.598, 373.029
428.939, 298.062
430.279, 265.153
431.619, 120.302
432.959, 133.510
434.299, 61.786
435.639, 92.128
436.978, 63.539
438.318, 37.024
439.657, 90.571
440.996, 9.812
442.334, 3.867
443.673, 0.373
445.011, 21.541
446.349, 72.358
447.687, 10.663
449.024, 24.378
450.361, 1.508
451.699, 5.332
453.036, 4.917
454.372, 79.756
455.709, 33.393
457.045, 123.962
458.381, 120.492
459.717, 74.992
461.053, 151.435
462.388, 103.850
463.724, 143.225
465.059, 153.571
466.394, 74.889
467.728, 113.147
469.063, 17.369
470.397, 57.520
471.731, 12.385
473.065, 100.363
474.398, 47.406
475.732, 152.519
477.065, 108.694
478.398, 190.928
479.731, 215.226
481.063, 240.583
482.396, 304.998
483.728, 252.468
485.060, 423.000
486.391, 364.579
487.723, 450.215
489.054, 494.895
490.385, 475.625
491.716, 568.401
493.047, 492.215
494.377, 545.071
495.708, 613.973
497.038, 612.919
498.368, 707.919
499.697, 619.972
501.027, 804.085
502.356, 685.266
503.685, 792.501
505.014, 818.802
506.342, 772.163
507.671, 968.592
508.999, 924.082
510.327, 978.618
511.655, 1056.217
512.982, 997.863
514.310, 1219.560
515.637, 1103.301
516.964, 1301.081
518.291, 1356.899
519.617, 1330.752
520.944, 1546.636
522.270, 1424.550
523.596, 1587.495
524.921, 1652.469
526.247, 1632.473
527.572, 1779.506
528.897, 1587.568
530.222, 1866.658
531.547, 1798.776
532.871, 1770.922
534.196, 1961.096
535.520, 1841.296
536.844, 2025.524
538.167, 2013.777
539.491, 2073.057
540.814, 2326.362
542.137, 2188.692
543.460, 2518.048
544.783, 2475.428
546.105, 2648.832
547.427, 2737.260
548.749, 2703.712
550.071, 3035.187
551.393, 2979.685
552.714, 3228.206
554.035, 3338.748
555.356, 3381.313
556.677, 3762.899
557.998, 3604.505
559.318, 4015.133
560.638, 4089.781
561.958, 4068.450
563.278, 4585.139
564.597, 4361.847
565.917, 4791.573
567.236, 4717.320
568.555, 4725.083
569.874, 5034.866
571.192, 4764.666
572.511, 5154.483
573.829, 4964.318
575.147, 4818.192
576.464, 5069.124
577.782, 4577.058
579.099, 4817.191
580.416, 4389.272
581.733, 4233.787
583.050, 4162.489
584.366, 3637.811
585.683, 3804.330
586.999, 3375.114
588.315, 3370.096
589.630, 3181.127
590.946, 2879.831
592.261, 3056.098
593.576, 2764.292
594.891, 2762.234
596.206, 2796.305
597.520, 2575.678
598.834, 2843.500
600.148, 2647.653
601.462, 2789.488
602.776, 2812.718
604.089, 2666.139
605.402, 2873.730
606.715, 2781.073
608.028, 2821.209
609.341, 2942.217
610.653, 2875.144
611.965, 3159.879
613.277, 3034.503
614.589, 3347.217
615.901, 3303.810
617.212, 3362.648
618.523, 3569.458
619.834, 3304.296
621.145, 3542.184
622.456, 3349.791
623.766, 3112.459
625.076, 3142.758
626.386, 2777.368
627.696, 2865.113
629.006, 2577.894
630.315, 2378.421
631.624, 2387.931
632.933, 2117.529
634.242, 2153.965
635.551, 2021.003
636.859, 1883.032
638.167, 1918.051
639.475, 1706.060
640.783, 1731.058
642.090, 1659.045
643.398, 1562.021
644.705, 1583.985
646.012, 1412.937
647.318, 1512.876
648.625, 1390.802
649.931, 1306.845
651.237, 1372.698
652.543, 1192.508
653.849, 1254.083
655.155, 1242.641
656.460, 1212.940
657.765, 1257.365
659.070, 1112.421
660.375, 1198.401
661.679, 1090.335
662.984, 1094.394
664.288, 1131.975
665.592, 1031.688
666.895, 1039.030
668.199, 942.033
669.502, 880.985
670.805, 955.278
672.108, 744.472
673.411, 788.304
674.713, 682.451
676.016, 649.584
677.318, 672.137
678.620, 580.614
679.921, 572.065
681.223, 517.490
682.524, 464.890
683.825, 490.262
685.126, 403.608
686.427, 449.927
687.727, 362.218
689.028, 373.482
690.328, 383.718
691.628, 319.925
692.927, 360.104
694.227, 301.255
695.526, 282.377
696.825, 312.469
698.124, 290.532
699.423, 308.565
700.721, 269.568
702.020, 265.541
703.318, 291.483
704.616, 242.394
705.913, 296.275
707.211, 285.124
708.508, 209.942
709.805, 285.728
711.102, 184.482
712.399, 209.205
713.695, 225.895
714.992, 244.553
716.288, 261.180
717.584, 188.773
718.879, 193.335
720.175, 224.864
721.470, 189.361
722.765, 249.825
724.060, 127.257
725.355, 193.656
726.649, 150.023
727.944, 151.357
729.238, 157.658
730.532, 104.926
731.825, 97.161
733.119, 103.362
734.412, 78.529
735.705, 88.661
736.998, 19.757
738.291, 47.804
739.584, 73.809
740.876, 22.776
742.168, 49.695
743.460, 3.429
744.752, 3.616
746.043, 2.134
747.334, 38.176
748.626, 20.568
749.916, 32.034
751.207, 49.578
752.498, 6.212
753.788, 28.912
755.078, 21.690
756.368, 76.542
757.658, 51.497
758.947, 45.542
760.237, 71.672
761.526, 23.905
762.815, 48.212
764.104, 15.610
765.392, 63.079
766.680, 73.646
767.969, 1.685
769.257, 71.037
770.544, 56.857
771.832, 26.753
773.119, 62.710
774.406, 47.754
775.693, 33.865
776.980, 39.044
778.267, 15.286
779.553, 39.578
780.839, 19.944
782.125, 34.369
783.411, 10.126
784.697, 38.570
785.982, 38.963
787.267, 93.305
788.552, 108.606
789.837, 210.866
791.122, 374.090
792.406, 536.277
793.690, 967.427
794.974, 1448.541
796.258, 1643.619
797.542, 1475.660
798.825, 956.664
800.108, 650.633
801.391, 367.564
802.674, 214.460
803.957, 142.319
805.239, 63.140
806.522, 17.916
807.804, 25.638
809.085, 16.693
810.367, 13.094
811.649, 47.565
812.930, 74.121
814.211, 25.779
815.492, 73.510
816.772, 44.342
818.053, 85.257
819.333, 56.277
820.613, 3.387
821.893, 62.558
823.173, 14.821
824.452, 21.151
825.732, 4.550
827.011, 36.990
828.290, 20.484
829.568, 77.928
830.847, 147.332
832.125, 169.700
833.403, 304.035
834.681, 408.335
835.959, 642.602
837.236, 735.834
838.514, 748.034
839.791, 712.200
841.068, 459.333
842.345, 372.432
843.621, 308.499
844.898, 225.533
846.174, 236.534
847.450, 181.503
848.726, 198.440
850.001, 274.344
851.277, 157.217
852.552, 298.058
853.827, 247.867
855.102, 311.645
856.376, 310.392
857.651, 296.108
858.925, 403.793
860.199, 403.449
861.473, 394.075
862.746, 476.698
864.020, 389.307
865.293, 512.905
866.566, 564.504
867.839, 598.089
869.112, 735.685
870.384, 754.291
871.656, 902.893
872.928, 995.516
874.200, 1106.132
875.472, 1434.755
876.744, 1649.397
878.015, 2110.034
879.286, 2790.677
880.557, 3575.334
881.828, 4753.000
883.098, 5077.688
884.369, 5081.358
885.639, 4548.981
886.909, 3471.623
888.178, 3285.064
889.448, 2914.570
890.717, 2849.638
891.987, 3076.509
893.256, 2964.765
894.524, 3572.811
895.793, 3943.583
897.061, 4475.156
898.330, 5698.669
899.598, 6684.497
900.865, 8687.749
902.133, 11050.063
903.401, 14121.614
904.668, 20212.025
905.935, 26065.121
907.202, 36156.750
908.468, 48908.805
909.735, 58347.375
911.001, 63967.496
912.267, 59877.957
913.533, 45836.754
914.799, 33668.527
916.064, 20958.748
917.330, 15740.994
918.595, 10720.242
919.860, 7781.812
921.124, 6352.097
922.389, 4407.803
923.653, 3750.388
924.918, 3084.854
926.182, 2410.053
927.445, 2308.185
928.709, 1809.183
929.972, 1704.851
931.236, 1653.007
932.499, 1421.635
933.761, 1435.493
935.024, 1302.444
936.286, 1085.134
937.549, 1185.708
938.811, 919.285
940.073, 941.757
941.334, 853.375
942.596, 689.375
943.857, 748.367
945.118, 640.353
946.379, 615.331
947.640, 568.302
948.900, 471.267
950.161, 565.227
951.421, 457.180
952.681, 473.127
953.940, 489.069
955.200, 405.005
956.459, 478.807
957.719, 426.780
958.978, 440.776
960.236, 507.990
961.495, 391.201
962.753, 462.654
964.012, 460.959
965.270, 321.617
966.527, 430.330
967.785, 309.070
969.043, 348.665
970.300, 365.720
971.557, 292.623
972.814, 386.877
974.071, 365.450
975.327, 341.055
976.583, 449.298
977.840, 383.621
979.095, 521.286
980.351, 585.616
981.607, 565.939
982.862, 673.823
984.117, 658.763
985.372, 788.707
986.627, 925.658
987.882, 857.614
989.136, 1109.576
990.390, 1039.544
991.644, 1188.519
992.898, 1411.500
994.152, 1423.489
995.405, 1694.485
996.659, 1904.487
997.912, 2107.498
999.165, 2597.517
1000.417, 2847.543
1001.670, 3357.578
1002.922, 3776.621
1004.174, 3949.673
1005.426, 4740.733
1006.678, 5220.806
1007.930, 5686.884
1009.181, 6557.972
1010.432, 6708.099
1011.683, 7542.208
1012.934, 7771.114
1014.185, 7525.665
1015.435, 7859.687
1016.685, 6940.490
1017.935, 6514.665
1019.185, 6181.888
1020.435, 5250.742
1021.684, 5348.424
1022.934, 4995.759
1024.183, 4948.381
1025.432, 5367.460
1026.680, 5145.219
1027.929, 5660.240
1029.177, 5548.390
1030.425, 5268.463
1031.673, 5475.997
1032.921, 4695.210
1034.169, 4326.926
1035.416, 4150.276
1036.663, 3501.087
1037.911, 3457.230
1039.157, 3016.888
1040.404, 2710.858
1041.650, 2656.173
1042.897, 2188.082
1044.143, 2021.415
1045.389, 1865.763
1046.634, 1570.707
1047.880, 1601.086
1049.125, 1426.486
1050.371, 1313.907
1051.615, 1396.358
1052.860, 1185.837
1054.105, 1401.345
1055.349, 1493.888
1056.593, 1496.455
1057.837, 1824.052
1059.081, 1773.677
1060.325, 2015.345
1061.568, 2197.050
1062.812, 2145.789
1064.055, 2369.572
1065.298, 2418.385
1066.540, 2473.234
1067.783, 2884.111
1069.025, 2962.029
1070.267, 3587.991
1071.509, 4197.978
1072.751, 4699.008
1073.993, 6019.079
1075.234, 6167.181
1076.475, 6573.326
1077.716, 6924.509
1078.957, 5958.726
1080.198, 5869.980
1081.438, 5235.265
1082.679, 4398.584
1083.919, 4208.937
1085.159, 3614.324
1086.398, 3507.736
1087.638, 3525.167
1088.877, 3447.618
1090.116, 4026.085
1091.355, 3925.567
1092.594, 4019.062
1093.833, 4252.571
1095.071, 3653.094
1096.309, 3490.630
1097.547, 3378.180
1098.785, 3045.745
1100.023, 3231.324
1101.260, 2847.917
1102.498, 2627.525
1103.735, 2657.148
1104.972, 2199.786
1106.208, 2155.439
1107.445, 1961.112
1108.681, 1707.810
1109.918, 1881.530
1111.154, 1504.283
1112.389, 1552.067
1113.625, 1599.893
1114.860, 1257.766
1116.096, 1352.674
1117.331, 1192.630
1118.566, 1023.626
1119.800, 1077.672
1121.035, 847.761
1122.269, 906.880
1123.503, 909.042
1124.737, 748.237
1125.971, 887.465
1127.205, 682.722
1128.438, 543.001
1129.671, 571.304
1130.904, 366.627
1132.137, 406.966
1133.370, 436.322
1134.602, 322.694
1135.834, 431.083
1137.066, 331.489
1138.298, 378.911
1139.530, 535.350
1140.762, 373.806
1141.993, 516.279
1143.224, 495.769
1144.455, 398.276
1145.686, 515.800
1146.917, 391.341
1148.147, 336.900
1149.377, 390.476
1150.607, 186.070
1151.837, 252.681
1153.067, 157.310
1154.296, 39.957
1155.526, 134.622
1156.755, 39.305
1157.984, 12.006
1159.213, 59.721
1160.441, 99.546
1161.670, 55.848
1162.898, 64.164
1164.126, 114.500
1165.354, 47.878
1166.581, 155.268
1167.809, 148.720
1169.036, 93.231
1170.263, 190.774
1171.490, 73.397
1172.717, 135.042
1173.943, 180.739
1175.170, 80.510
1176.396, 136.307
1177.622, 152.155
1178.848, 143.063
1180.073, 189.026
1181.299, 112.066
1182.524, 87.144
1183.749, 114.250
1184.974, 27.395
1186.199, 93.539
1187.423, 3.712
1188.648, 17.127
1189.872, 62.015
1191.096, 33.829
1192.320, 36.696
1193.543, 44.417
1194.767, 96.467
1195.990, 28.373
1197.213, 113.300
1198.436, 127.250
1199.659, 85.223
1200.881, 166.218
1202.104, 183.235
1203.326, 131.276
1204.548, 217.339
1205.770, 154.426
1206.991, 163.535
1208.213, 293.669
1209.434, 199.825
1210.655, 323.006
1211.876, 332.210
1213.096, 252.437
1214.317, 362.688
1215.537, 312.964
1216.757, 372.264
1217.977, 432.595
1219.197, 456.952
1220.417, 600.333
1221.636, 598.743
1222.855, 613.177
1224.074, 723.637
1225.293, 723.127
1226.512, 732.644
1227.731, 836.189
1228.949, 706.763
1230.167, 878.363
1231.385, 892.989
1232.603, 756.643
1233.820, 916.324
1235.038, 860.033
1236.255, 926.769
1237.472, 976.533
1238.689, 903.324
1239.906, 988.144
1241.122, 1098.991
1242.338, 1044.870
1243.555, 1199.778
1244.771, 1200.714
1245.986, 1219.680
1247.202, 1424.672
1248.417, 1322.681
1249.633, 1489.706
1250.848, 1617.746
1252.063, 1549.802
1253.277, 1881.873
1254.492, 1862.961
1255.706, 1994.065
1256.920, 2251.185
1258.134, 2223.321
1259.348, 2424.473
1260.562, 2602.641
1261.775, 2605.825
1262.988, 2920.025
1264.201, 3002.241
1265.414, 3080.472
1266.627, 3526.720
1267.839, 3374.983
1269.052, 3740.262
1270.264, 3893.557
1271.476, 3790.866
1272.688, 4275.192
1273.899, 4311.535
1275.111, 4309.891
1276.322, 4765.265
1277.533, 4548.654
1278.744, 4692.060
1279.955, 5062.482
1281.165, 4669.924
1282.376, 4980.384
1283.586, 5075.864
1284.796, 5011.364
1286.006, 5287.888
1287.215, 5303.434
1288.425, 5295.005
1289.634, 5800.599
1290.843, 5552.220
1292.052, 5906.867
1293.261, 6155.541
1294.469, 6026.241
1295.678, 6460.969
1296.886, 6455.723
1298.094, 6553.506
1299.302, 7029.316
1300.509, 6715.155
1301.717, 7090.022
1302.924, 7250.917
1304.131, 6954.816
1305.338, 7401.769
1306.545, 7396.965
1307.752, 7280.556
1308.958, 7529.714
1310.164, 7277.131
1311.370, 7279.219
1312.576, 7450.297
1313.782, 7188.788
1314.987, 7122.488
1316.193, 7220.577
1317.398, 7107.420
1318.603, 7577.847
1319.807, 7587.636
1321.012, 7873.206
1322.216, 8375.684
1323.421, 8317.286
1324.625, 8319.469
1325.829, 8639.018
1327.032, 8443.108
1328.236, 8848.611
1329.439, 9082.699
1330.642, 8951.504
1331.845, 9726.844
1333.048, 9816.919
1334.251, 10277.712
1335.453, 10894.966
1336.656, 11225.851
1337.858, 11536.779
1339.060, 12025.174
1340.261, 12006.200
1341.463, 12317.277
1342.664, 11988.406
1343.866, 11649.583
1345.067, 11660.817
1346.267, 10942.101
1347.468, 10473.439
1348.669, 10194.831
1349.869, 9406.280
1351.069, 9047.784
1352.269, 8609.439
1353.469, 8121.061
1354.668, 7802.743
1355.868, 7324.487
1357.067, 6849.291
1358.266, 6750.163
1359.465, 6218.099
1360.664, 6073.104
1361.862, 5935.656
1363.061, 5585.055
1364.259, 5567.273
1365.457, 5234.227
1366.655, 4940.597
1367.852, 4874.048
1369.050, 4616.651
1370.247, 4436.266
1371.444, 4425.740
1372.641, 4012.790
1373.838, 4139.667
1375.035, 3994.641
1376.231, 3748.713
1377.427, 3846.802
1378.623, 3655.953
1379.819, 3512.200
1381.015, 3678.474
1382.211, 3408.758
1383.406, 3408.110
1384.601, 3440.528
1385.796, 3197.622
1386.991, 3246.170
1388.185, 3159.798
1389.380, 2940.391
1390.574, 3015.684
1391.768, 2798.544
1392.962, 2677.433
1394.156, 2647.352
1395.350, 2353.299
1396.543, 2401.277
1397.736, 2354.285
1398.929, 2128.323
1400.122, 2129.391
1401.315, 1983.488
1402.507, 1795.616
1403.700, 1818.776
1404.892, 1621.965
1406.084, 1622.186
1407.276, 1646.438
1408.467, 1420.721
1409.659, 1407.035
1410.850, 1380.381
1412.041, 1252.757
1413.232, 1242.165
1414.423, 1194.603
1415.614, 1057.072
1416.804, 1193.571
1417.994, 1068.099
1419.184, 933.658
1420.374, 1044.283
1421.564, 889.038
1422.753, 905.946
1423.943, 967.063
1425.132, 861.401
1426.321, 869.947
1427.510, 856.742
1428.698, 773.767
1429.887, 798.069
1431.075, 706.612
1432.263, 710.348
1433.451, 818.241
1434.639, 644.235
1435.827, 759.321
1437.014, 784.514
1438.201, 656.774
1439.388, 730.103
1440.575, 660.499
1441.762, 713.961
1442.949, 742.489
1444.135, 759.080
1445.321, 623.735
1446.507, 763.453
1447.693, 644.221
1448.879, 687.030
1450.064, 704.885
1451.250, 655.784
1452.435, 662.717
1453.620, 599.684
1454.805, 472.690
1455.989, 570.735
1457.174, 501.814
1458.358, 479.927
1459.542, 540.066
1460.726, 399.227
1461.910, 386.417
1463.093, 362.718
1464.277, 248.158
1465.460, 283.741
1466.643, 289.473
1467.826, 145.359
1469.009, 250.406
1470.191, 184.620
1471.373, 165.007
