##NAMES=Scheelite
##RRUFFID=R040173
##IDEAL CHEMISTRY=CaW^6+^O_4_
##LOCALITY=Santa Cruz, Sonora, Mexico
##OWNER=RRUFF
##SOURCE=University of Arizona Mineral Museum
##DESCRIPTION=Yellow crystal fragments
##STATUS=The identification of this mineral has been confirmed by X-ray diffraction and chemical analysis
##URL=rruff.info/R040173
##MEASURED CHEMISTRY=Ca_1.00_W_1.00_O_4_
##PIN_ID=M00457
##ORIENTATION=Laser parallel to -a* (-1 0 0). Fiducial mark perpendicular to laser is parallel to c [0 0 1]
61.962, 0.000
63.360, 3.430
64.758, 9.551
66.157, 78.466
67.554, 97.558
68.952, 100.416
70.349, 69.722
71.747, 86.765
73.144, 134.826
74.540, 311.449
75.937, 637.783
77.333, 1204.548
78.729, 2213.472
80.125, 4971.877
81.521, 10635.051
82.916, 18334.883
84.311, 17167.084
85.706, 9982.599
87.101, 5084.152
88.496, 2583.573
89.890, 1723.267
91.284, 1227.728
92.678, 1039.245
94.071, 886.219
95.465, 723.988
96.858, 567.827
98.251, 478.173
99.644, 463.311
101.036, 433.698
102.428, 452.351
103.820, 524.704
105.212, 679.233
106.604, 866.209
107.995, 1209.434
109.387, 1792.425
110.777, 2734.917
112.168, 4619.751
113.559, 7087.049
114.949, 9411.438
116.339, 8897.384
117.729, 6079.675
119.119, 3980.489
120.508, 2470.467
121.897, 2074.604
123.286, 1932.893
124.675, 2089.326
126.063, 1879.891
127.452, 1393.572
128.840, 1082.355
130.228, 691.224
131.615, 540.171
133.003, 423.195
134.390, 292.297
135.777, 274.482
137.164, 179.750
138.550, 166.105
139.937, 114.548
141.323, 113.082
142.709, 97.708
144.094, 63.429
145.480, 80.270
146.865, 16.290
148.250, 13.495
149.635, 17.118
151.019, 29.559
152.403, 33.837
153.788, 40.960
155.171, 51.938
156.555, 43.782
157.939, 47.500
159.322, 100.104
160.705, 64.602
162.088, 97.004
163.470, 71.314
164.853, 88.538
166.235, 76.685
167.617, 66.729
168.998, 76.681
170.380, 17.528
171.761, 0.737
173.142, 27.099
174.523, 55.545
175.904, 99.045
177.284, 171.586
178.664, 192.185
180.044, 298.844
181.424, 374.548
182.803, 494.288
184.183, 678.041
185.562, 768.793
186.940, 1098.536
188.319, 1230.241
189.698, 1492.870
191.076, 1742.407
192.454, 2044.849
193.831, 2592.193
195.209, 2969.424
196.586, 3411.556
197.963, 3570.605
199.340, 4264.608
200.717, 4780.650
202.093, 5465.773
203.470, 6167.976
204.846, 6290.262
206.221, 7060.630
207.597, 7632.080
208.972, 9037.612
210.347, 9707.229
211.722, 9096.929
213.097, 8191.712
214.472, 6707.583
215.846, 6504.537
217.220, 5984.575
218.594, 5813.702
219.967, 5365.913
221.341, 4740.210
222.714, 4866.596
224.087, 4444.068
225.460, 4555.628
226.832, 4084.275
228.204, 3780.048
229.577, 3589.199
230.948, 3217.936
232.320, 3280.767
233.692, 3026.653
235.063, 3173.565
236.434, 3106.481
237.805, 3003.389
239.175, 3001.277
240.545, 2614.134
241.916, 2603.948
243.286, 2249.711
244.655, 2323.424
246.025, 2175.086
247.394, 2086.700
248.763, 2133.263
250.132, 1910.764
251.501, 1981.188
252.869, 1717.522
254.237, 1679.758
255.605, 1649.900
256.973, 1685.961
258.340, 1849.955
259.708, 1857.893
261.075, 2146.785
262.442, 2184.643
263.808, 2253.469
265.175, 2318.259
266.541, 2254.986
267.907, 2432.647
269.273, 2146.230
270.639, 2234.789
272.004, 2092.107
273.369, 1849.107
274.734, 1753.614
276.099, 1414.663
277.463, 1394.422
278.828, 1125.346
280.192, 1080.788
281.556, 983.427
282.919, 835.951
284.283, 872.093
285.646, 808.032
287.009, 1022.175
288.372, 950.649
289.734, 1113.443
291.097, 1235.374
292.459, 1131.046
293.821, 1256.869
295.183, 1028.673
296.544, 1032.854
297.905, 825.935
299.266, 750.891
300.627, 852.460
301.988, 772.860
303.348, 1060.264
304.709, 1165.891
306.069, 1441.723
307.428, 1696.411
308.788, 1829.327
310.147, 2200.027
311.507, 2129.537
312.865, 2529.176
314.224, 2759.221
315.583, 3007.751
316.941, 3422.275
318.299, 3405.611
319.657, 3982.512
321.015, 4225.178
322.372, 5131.859
323.729, 6168.485
325.086, 7559.586
326.443, 10157.895
327.800, 12594.056
329.156, 17609.373
330.512, 21095.676
331.868, 23642.838
333.224, 23549.600
334.579, 19290.303
335.935, 16712.371
337.290, 12625.920
338.645, 10669.754
339.999, 8853.650
341.354, 7305.607
342.708, 6412.626
344.062, 5202.706
345.416, 4747.849
346.769, 4098.053
348.123, 3897.317
349.476, 4016.645
350.829, 3992.037
352.182, 4710.490
353.534, 5027.008
354.887, 5647.591
356.239, 5364.240
357.591, 4571.956
358.942, 3862.738
360.294, 2825.589
361.645, 2468.508
362.996, 2068.497
364.347, 1974.554
365.698, 2246.680
367.048, 2388.874
368.398, 3143.138
369.748, 3494.470
371.098, 4220.870
372.448, 4134.338
373.797, 3430.874
375.146, 2924.478
376.495, 2003.150
377.844, 1897.888
379.192, 1632.694
380.540, 1503.567
381.889, 1448.507
383.236, 1205.514
384.584, 1348.586
385.932, 1214.726
387.279, 1480.931
388.626, 1461.202
389.973, 1509.539
391.319, 1920.929
392.666, 2154.375
394.012, 2982.875
395.358, 4055.427
396.704, 5821.032
398.049, 7712.689
399.394, 8409.400
400.740, 9106.164
402.084, 8002.983
403.429, 7489.852
404.774, 6800.777
406.118, 5338.756
407.462, 4621.790
408.806, 3216.878
410.150, 2723.022
411.493, 2028.221
412.836, 1668.477
414.179, 1652.791
415.522, 1364.161
416.865, 1537.595
418.207, 1365.091
419.549, 1362.653
420.891, 1216.292
422.233, 945.005
423.575, 963.797
424.916, 562.658
426.257, 461.593
427.598, 237.621
428.939, 115.729
430.279, 149.940
431.619, 92.750
432.959, 0.635
434.299, 47.866
435.639, 109.285
436.978, 64.631
438.318, 129.876
439.657, 108.046
440.996, 129.125
442.334, 105.131
443.673, 100.053
445.011, 118.879
446.349, 33.624
447.687, 80.259
449.024, 67.191
450.361, 15.256
451.699, 64.616
453.036, 38.113
454.372, 126.051
455.709, 21.852
457.045, 64.152
458.381, 8.074
459.717, 12.089
461.053, 32.654
462.388, 115.672
463.724, 117.076
465.059, 219.554
466.394, 323.107
467.728, 300.736
469.063, 528.438
470.397, 469.214
471.731, 672.061
473.065, 816.990
474.398, 883.999
475.732, 1073.095
477.065, 1034.281
478.398, 1239.556
479.731, 1150.921
481.063, 1247.378
482.396, 1268.924
483.728, 1164.558
485.060, 1354.294
486.391, 1177.121
487.723, 1136.045
489.054, 1070.061
490.385, 942.171
491.716, 1011.370
493.047, 752.656
494.377, 790.030
495.708, 757.474
497.038, 608.985
498.368, 706.557
499.697, 516.187
501.027, 586.882
502.356, 551.650
503.685, 520.493
505.014, 597.420
506.342, 445.418
507.671, 610.507
508.999, 526.685
510.327, 537.951
511.655, 683.309
512.982, 489.748
514.310, 705.266
515.637, 623.867
516.964, 704.532
518.291, 794.266
519.617, 747.063
520.944, 866.917
522.270, 761.827
523.596, 931.787
524.921, 938.795
526.247, 894.852
527.572, 1022.956
528.897, 951.106
530.222, 1130.304
531.547, 1120.548
532.871, 1048.838
534.196, 1211.174
535.520, 1151.558
536.844, 1352.989
538.167, 1378.470
539.491, 1353.001
540.814, 1594.580
542.137, 1521.205
543.460, 1783.875
544.783, 1735.590
546.105, 1810.349
547.427, 2036.149
548.749, 1993.990
550.071, 2284.871
551.393, 2251.790
552.714, 2423.748
554.035, 2620.746
555.356, 2515.780
556.677, 2976.852
557.998, 2866.961
559.318, 3182.107
560.638, 3338.289
561.958, 3332.507
563.278, 3786.760
564.597, 3655.048
565.917, 4013.370
567.236, 4121.728
568.555, 4083.118
569.874, 4437.541
571.192, 4271.999
572.511, 4661.682
573.829, 4569.202
575.147, 4452.727
576.464, 4820.835
577.782, 4513.697
579.099, 4653.338
580.416, 4464.695
581.733, 4359.409
583.050, 4518.949
584.366, 4036.366
585.683, 4246.219
586.999, 3882.170
588.315, 3888.384
589.630, 4017.587
590.946, 3662.486
592.261, 3877.155
593.576, 3717.193
594.891, 3829.753
596.206, 3968.479
597.520, 3854.503
598.834, 4307.733
600.148, 4012.522
601.462, 4225.263
602.776, 4415.454
604.089, 4164.688
605.402, 4448.990
606.715, 4132.009
608.028, 4219.817
609.341, 4293.981
610.653, 4128.396
611.965, 4571.771
613.277, 4296.994
614.589, 4553.252
615.901, 4690.466
617.212, 4646.855
618.523, 4929.611
619.834, 4686.035
621.145, 4799.362
622.456, 4823.816
623.766, 4584.571
625.076, 4692.665
626.386, 4117.063
627.696, 4113.237
629.006, 3967.380
630.315, 3551.522
631.624, 3609.661
632.933, 3103.797
634.242, 3177.929
635.551, 2997.057
636.859, 2720.180
638.167, 2776.296
639.475, 2437.407
640.783, 2484.510
642.090, 2315.605
643.398, 2146.693
644.705, 2243.771
646.012, 2013.840
647.318, 2096.898
648.625, 1911.945
649.931, 1813.981
651.237, 1921.004
652.543, 1616.015
653.849, 1747.012
655.155, 1589.510
656.460, 1511.077
657.765, 1553.890
659.070, 1335.640
660.375, 1446.670
661.679, 1352.057
662.984, 1245.597
664.288, 1322.507
665.592, 1083.589
666.895, 1223.031
668.199, 1042.909
669.502, 984.898
670.805, 1019.574
672.108, 840.323
673.411, 906.917
674.713, 748.238
676.016, 708.749
677.318, 720.989
678.620, 642.984
679.921, 643.777
681.223, 543.324
682.524, 493.842
683.825, 535.330
685.126, 373.788
686.427, 499.216
687.727, 352.613
689.028, 329.979
690.328, 376.507
691.628, 287.424
692.927, 338.321
694.227, 290.932
695.526, 265.545
696.825, 344.418
698.124, 227.666
699.423, 308.334
700.721, 237.120
702.020, 209.634
703.318, 283.626
704.616, 195.760
705.913, 257.677
707.211, 219.556
708.508, 169.397
709.805, 213.201
711.102, 153.966
712.399, 214.693
713.695, 155.382
714.992, 125.031
716.288, 190.642
717.584, 149.214
718.879, 205.746
720.175, 189.239
721.470, 133.692
722.765, 196.105
724.060, 108.479
725.355, 151.813
726.649, 127.106
727.944, 61.359
729.238, 153.569
730.532, 33.738
731.825, 49.855
733.119, 29.924
734.412, 18.062
735.705, 3.872
736.998, 16.262
738.291, 22.523
739.584, 7.247
740.876, 62.099
742.168, 14.551
743.460, 97.085
744.752, 79.746
746.043, 59.525
747.334, 133.402
748.626, 40.425
749.916, 58.544
751.207, 119.760
752.498, 74.111
753.788, 113.566
755.078, 68.149
756.368, 70.835
757.658, 122.627
758.947, 83.555
760.237, 111.596
761.526, 60.775
762.815, 61.061
764.104, 22.462
765.392, 58.958
766.680, 84.562
767.969, 35.295
769.257, 34.118
770.544, 38.044
771.832, 6.068
773.119, 41.180
774.406, 51.600
775.693, 41.317
776.980, 74.966
778.267, 119.554
779.553, 96.088
780.839, 160.564
782.125, 211.989
783.411, 252.365
784.697, 380.693
785.982, 419.972
787.267, 626.202
788.552, 841.384
789.837, 1198.516
791.122, 1894.600
792.406, 2914.635
793.690, 5102.622
794.974, 7293.558
796.258, 8281.445
797.542, 7496.285
798.825, 4824.075
800.108, 3206.815
801.391, 1981.507
802.674, 1202.149
803.957, 931.741
805.239, 568.285
806.522, 398.779
807.804, 290.223
809.085, 148.619
810.367, 139.960
811.649, 63.246
812.930, 4.464
814.211, 0.402
815.492, 38.357
816.772, 6.580
818.053, 63.567
819.333, 66.835
820.613, 57.226
821.893, 80.733
823.173, 35.371
824.452, 31.113
825.732, 48.959
827.011, 24.083
828.290, 4.050
829.568, 23.934
830.847, 72.742
832.125, 83.488
833.403, 183.171
834.681, 245.804
835.959, 355.389
837.236, 437.926
838.514, 409.415
839.791, 415.857
841.068, 254.250
842.345, 237.596
843.621, 180.895
844.898, 131.144
846.174, 129.341
847.450, 76.484
848.726, 73.567
850.001, 120.590
851.277, 89.561
852.552, 129.474
853.827, 116.336
855.102, 136.144
856.376, 214.902
857.651, 170.614
858.925, 260.285
860.199, 231.945
861.473, 218.570
862.746, 289.200
864.020, 267.810
865.293, 349.405
866.566, 352.009
867.839, 373.593
869.112, 532.183
870.384, 508.784
871.656, 617.362
872.928, 742.955
874.200, 825.542
875.472, 1167.125
876.744, 1275.730
878.015, 1750.326
879.286, 2254.936
880.557, 2948.553
881.828, 4032.966
883.098, 4386.591
884.369, 4398.229
885.639, 4007.305
886.909, 3098.660
888.178, 2910.241
889.448, 2482.111
890.717, 2400.618
891.987, 2605.286
893.256, 2544.082
894.524, 2989.427
895.793, 3345.661
897.061, 3808.630
898.330, 4856.596
899.598, 5694.745
900.865, 7363.169
902.133, 9518.348
903.401, 12217.308
904.668, 17232.350
905.935, 22520.180
907.202, 30775.465
908.468, 42403.531
909.735, 50811.352
911.001, 59395.867
912.267, 53802.770
913.533, 41007.852
914.799, 30396.078
916.064, 19034.225
917.330, 13924.743
918.595, 9682.926
919.860, 6901.455
921.124, 5560.033
922.389, 3861.643
923.653, 3174.969
924.918, 2684.265
926.182, 2061.321
927.445, 1903.117
928.709, 1556.565
929.972, 1394.865
931.236, 1364.847
932.499, 1108.469
933.761, 1149.764
935.024, 1061.266
936.286, 854.775
937.549, 867.265
938.811, 723.736
940.073, 723.188
941.334, 676.622
942.596, 480.038
943.857, 575.435
945.118, 445.815
946.379, 484.178
947.640, 452.523
948.900, 312.852
950.161, 394.165
951.421, 351.460
952.681, 346.740
953.940, 372.004
955.200, 324.253
956.459, 359.486
957.719, 414.705
958.978, 327.909
960.236, 443.098
961.495, 277.760
962.753, 386.323
964.012, 397.612
965.270, 298.936
966.527, 421.950
967.785, 313.579
969.043, 308.025
970.300, 379.072
971.557, 304.917
972.814, 368.373
974.071, 434.363
975.327, 364.212
976.583, 507.342
977.840, 453.370
979.095, 560.522
980.351, 634.917
981.607, 626.089
982.862, 871.503
984.117, 744.130
985.372, 969.927
986.627, 1123.938
987.882, 1066.948
989.136, 1334.954
990.390, 1359.959
991.644, 1497.961
992.898, 1823.963
994.152, 1790.963
995.405, 2222.767
996.659, 2485.151
997.912, 2709.522
999.165, 3563.145
1000.417, 3725.733
1001.670, 4398.029
1002.922, 4988.916
1004.174, 5166.348
1005.426, 6251.630
1006.678, 6694.150
1007.930, 7311.158
1009.181, 8440.940
1010.432, 8693.337
1011.683, 9599.877
1012.934, 10106.158
1014.185, 9626.271
1015.435, 9927.513
1016.685, 8754.501
1017.935, 8134.521
1019.185, 7480.714
1020.435, 6289.891
1021.684, 6238.342
1022.934, 5760.251
1024.183, 5512.466
1025.432, 5994.787
1026.680, 5633.660
1027.929, 6063.914
1029.177, 6233.488
1030.425, 5882.590
1031.673, 6168.175
1032.921, 5757.738
1034.169, 5572.966
1035.416, 5736.750
1036.663, 5083.622
1037.911, 5147.628
1039.157, 4709.029
1040.404, 4062.693
1041.650, 3894.779
1042.897, 3158.682
1044.143, 2942.788
1045.389, 2606.924
1046.634, 2047.059
1047.880, 2068.254
1049.125, 1661.485
1050.371, 1489.748
1051.615, 1565.063
1052.860, 1274.406
1054.105, 1259.781
1055.349, 1432.205
1056.593, 1384.667
1057.837, 1579.178
1059.081, 1553.726
1060.325, 1716.312
1061.568, 1876.950
1062.812, 1833.630
1064.055, 2086.362
1065.298, 2149.129
1066.540, 2136.935
1067.783, 2535.768
1069.025, 2626.640
1070.267, 3110.555
1071.509, 3696.503
1072.751, 4003.484
1073.993, 5179.498
1075.234, 5438.538
1076.475, 5782.613
1077.716, 6150.702
1078.957, 5436.807
1080.198, 5271.925
1081.438, 4753.052
1082.679, 4022.190
1083.919, 4024.336
1085.159, 3582.490
1086.398, 3586.651
1087.638, 3773.820
1088.877, 3827.997
1090.116, 4537.183
1091.355, 4661.375
1092.594, 4805.578
1093.833, 5002.789
1095.071, 4321.008
1096.309, 3888.239
1097.547, 3592.478
1098.785, 3110.728
1100.023, 3212.988
1101.260, 2809.259
1102.498, 2445.541
1103.735, 2544.833
1104.972, 2065.136
1106.208, 2006.452
1107.445, 1845.778
1108.681, 1521.116
1109.918, 1625.466
1111.154, 1395.831
1112.389, 1378.210
1113.625, 1500.611
1114.860, 1222.042
1116.096, 1306.506
1117.331, 1129.012
1118.566, 971.548
1119.800, 1057.133
1121.035, 768.768
1122.269, 835.451
1123.503, 927.187
1124.737, 732.965
1125.971, 799.785
1127.205, 640.650
1128.438, 431.542
1129.671, 518.467
1130.904, 302.418
1132.137, 303.392
1133.370, 334.387
1134.602, 191.399
1135.834, 337.425
1137.066, 316.467
1138.298, 273.524
1139.530, 434.596
1140.762, 300.685
1141.993, 423.789
1143.224, 455.908
1144.455, 254.046
1145.686, 405.203
1146.917, 303.379
1148.147, 191.579
1149.377, 349.802
1150.607, 157.046
1151.837, 185.313
1153.067, 145.600
1154.296, 43.908
1155.526, 97.237
1156.755, 1.416
1157.984, 120.063
1159.213, 12.760
1160.441, 186.458
1161.670, 79.238
1162.898, 100.047
1164.126, 198.896
1165.354, 77.831
1166.581, 185.796
1167.809, 202.841
1169.036, 67.974
1170.263, 216.130
1171.490, 136.381
1172.717, 138.685
1173.943, 251.045
1175.170, 121.515
1176.396, 213.031
1177.622, 188.636
1178.848, 129.320
1180.073, 215.051
1181.299, 105.871
1182.524, 116.727
1183.749, 171.622
1184.974, 48.583
1186.199, 56.552
1187.423, 1.531
1188.648, 56.504
1189.872, 48.436
1191.096, 63.619
1192.320, 107.699
1193.543, 34.196
1194.767, 217.913
1195.990, 119.047
1197.213, 169.208
1198.436, 275.394
1199.659, 146.607
1200.881, 317.847
1202.104, 299.113
1203.326, 307.407
1204.548, 403.728
1205.770, 234.076
1206.991, 348.452
1208.213, 445.858
1209.434, 343.292
1210.655, 485.755
1211.876, 463.247
1213.096, 407.768
1214.317, 538.319
1215.537, 453.901
1216.757, 548.512
1217.977, 723.155
1219.197, 576.828
1220.417, 845.532
1221.636, 903.275
1222.855, 826.050
1224.074, 1066.857
1225.293, 999.707
1226.512, 1049.590
1227.731, 1262.508
1228.949, 1045.470
1230.167, 1186.468
1231.385, 1280.502
1232.603, 1115.575
1233.820, 1376.685
1235.038, 1233.833
1236.255, 1260.020
1237.472, 1465.244
1238.689, 1322.507
1239.906, 1520.810
1241.122, 1545.150
1242.338, 1500.531
1243.555, 1718.951
1244.771, 1704.411
1245.986, 1694.913
1247.202, 2080.453
1248.417, 1943.013
1249.633, 2147.594
1250.848, 2338.195
1252.063, 2221.816
1253.277, 2702.458
1254.492, 2703.121
1255.706, 2768.805
1256.920, 3221.510
1258.134, 3161.237
1259.348, 3387.986
1260.562, 3618.755
1261.775, 3589.548
1262.988, 4045.363
1264.201, 4093.198
1265.414, 4190.057
1266.627, 4758.937
1267.839, 4621.840
1269.052, 4915.765
1270.264, 5367.713
1271.476, 5177.683
1272.688, 5848.676
1273.899, 5858.691
1275.111, 5789.729
1276.322, 6466.789
1277.533, 6288.875
1278.744, 6459.984
1279.955, 7051.119
1281.165, 6482.284
1282.376, 7017.476
1283.586, 7295.696
1284.796, 7043.949
1286.006, 7682.234
1287.215, 7700.554
1288.425, 7778.910
1289.634, 8597.301
1290.843, 8195.730
1292.052, 8714.201
1293.261, 9292.709
1294.469, 8831.255
1295.678, 9709.843
1296.886, 9758.468
1298.094, 9767.137
1299.302, 10645.846
1300.509, 10084.594
1301.717, 10613.387
1302.924, 11061.270
1304.131, 10642.769
1305.338, 11430.163
1306.545, 11487.869
1307.752, 11271.787
1308.958, 11984.626
1310.164, 11811.766
1311.370, 11915.920
1312.576, 12303.949
1313.782, 12011.048
1314.987, 12225.919
1316.193, 12662.377
1317.398, 12233.585
1318.603, 13574.733
1319.807, 13579.380
1321.012, 13951.696
1322.216, 15338.744
1323.421, 14877.315
1324.625, 15409.458
1325.829, 16016.685
1327.032, 15410.294
1328.236, 16723.412
1329.439, 17123.508
1330.642, 16810.535
1331.845, 18937.244
1333.048, 18766.771
1334.251, 19836.955
1335.453, 21514.406
1336.656, 21574.727
1337.858, 22755.123
1339.060, 23693.613
1340.261, 23194.160
1341.463, 24624.773
1342.664, 23435.467
1343.866, 22456.240
1345.067, 23157.090
1346.267, 20988.021
1347.468, 20379.031
1348.669, 20340.127
1349.869, 17901.307
1351.069, 17882.568
1352.269, 17024.277
1353.469, 15375.722
1354.668, 15387.255
1355.868, 14119.005
1357.067, 13000.732
1358.266, 13262.557
1359.465, 11704.825
1360.664, 11696.854
1361.862, 11268.990
1363.061, 10291.253
1364.259, 10633.609
1365.457, 9737.640
1366.655, 9070.231
1367.852, 9222.943
1369.050, 8577.905
1370.247, 8170.874
1371.444, 8253.979
1372.641, 7249.650
1373.838, 7373.014
1375.035, 7336.522
1376.231, 6600.608
1377.427, 6874.404
1378.623, 6534.422
1379.819, 6117.455
1381.015, 6324.512
1382.211, 5892.584
1383.406, 5849.730
1384.601, 5841.932
1385.796, 5251.238
1386.991, 5500.565
1388.185, 5327.971
1389.380, 4868.845
1390.574, 5164.001
1391.768, 4686.312
1392.962, 4409.671
1394.156, 4622.079
1395.350, 3984.535
1396.543, 3992.040
1397.736, 3941.594
1398.929, 3499.197
1400.122, 3613.851
1401.315, 3399.555
1402.507, 2977.310
1403.700, 3208.116
1404.892, 2827.974
1406.084, 2689.884
1407.276, 2829.846
1408.467, 2440.862
1409.659, 2524.931
1410.850, 2428.052
1412.041, 2138.227
1413.232, 2272.455
1414.423, 2164.735
1415.614, 1865.068
1416.804, 2100.453
1417.994, 1875.890
1419.184, 1706.438
1420.374, 1903.169
1421.564, 1595.119
1422.753, 1662.334
1423.943, 1652.845
1425.132, 1439.625
1426.321, 1543.705
1427.510, 1520.135
1428.698, 1306.913
1429.887, 1495.022
1431.075, 1400.428
1432.263, 1274.125
1433.451, 1445.004
1434.639, 1183.017
1435.827, 1263.157
1437.014, 1384.435
1438.201, 1098.820
1439.388, 1374.311
1440.575, 1222.906
1441.762, 1150.606
1442.949, 1321.406
1444.135, 1250.304
1445.321, 1163.300
1446.507, 1306.390
1447.693, 1110.572
1448.879, 1126.846
1450.064, 1211.182
1451.250, 1021.585
1452.435, 1127.050
1453.620, 1113.546
1454.805, 906.104
1455.989, 1028.712
1457.174, 879.372
1458.358, 733.081
1459.542, 917.839
1460.726, 701.642
1461.910, 673.484
