##NAMES=Scheelite
##RRUFFID=R040172
##IDEAL CHEMISTRY=CaW^6+^O_4_
##LOCALITY=Sonora, Mexico
##OWNER=RRUFF
##SOURCE=University of Arizona Mineral Museum
##DESCRIPTION=Colorless water worn single crystal
##STATUS=The identification of this mineral has been confirmed by X-ray diffraction and chemical analysis
##URL=rruff.info/R040172
##MEASURED CHEMISTRY=Ca_1.01_W_1.00_O_4_
##PIN_ID=L00329
##ORIENTATION=Laser parallel to a* (1 0 0). Fiducial mark perpendicular to laser is parallel to c [0 0 1]
60.254, 0.000
61.659, 14.248
63.063, 0.288
64.467, 12.728
65.871, 7.146
67.274, 26.846
68.678, 19.787
70.081, 7.919
71.484, 2.172
72.886, 8.519
74.288, 19.978
75.690, 20.594
77.092, 25.996
78.494, 40.083
79.895, 27.843
81.296, 23.577
82.697, 18.293
84.097, 22.057
85.498, 30.934
86.898, 26.050
88.298, 37.084
89.697, 28.570
91.097, 22.977
92.496, 32.315
93.895, 27.487
95.293, 25.512
96.692, 23.408
98.090, 35.189
99.488, 52.869
100.885, 48.460
102.283, 72.058
103.680, 54.792
105.077, 74.308
106.473, 79.394
107.870, 111.339
109.266, 139.848
110.662, 198.981
112.057, 332.380
113.453, 516.091
114.848, 785.528
116.243, 904.153
117.638, 819.555
119.032, 605.137
120.426, 354.318
121.820, 245.572
123.214, 198.903
124.608, 181.353
126.001, 149.750
127.394, 135.155
128.787, 83.567
130.179, 82.985
131.571, 65.408
132.963, 49.836
134.355, 46.269
135.747, 25.706
137.138, 39.149
138.529, 24.596
139.920, 38.049
141.311, 36.507
142.701, 17.971
144.091, 25.442
145.481, 8.926
146.870, 24.421
148.260, 18.928
149.649, 14.447
151.038, 2.976
152.426, 9.516
153.815, 18.066
155.203, 3.374
156.591, 0.806
157.979, 4.771
159.366, 4.644
160.753, 3.948
162.140, 5.547
163.527, 7.152
164.913, 2.237
166.300, 5.621
167.686, 2.000
169.071, 16.374
170.457, 1.744
171.842, 14.110
173.227, 17.475
174.612, 9.838
175.996, 5.199
177.381, 2.558
178.765, 0.916
180.149, 0.751
181.532, 1.626
182.915, 0.021
184.299, 2.329
185.681, 6.678
187.064, 12.974
188.446, 9.629
189.828, 28.283
191.210, 30.936
192.592, 43.585
193.973, 61.229
195.355, 68.995
196.736, 98.516
198.116, 96.147
199.497, 104.768
200.877, 123.370
202.257, 156.971
203.637, 202.580
205.016, 335.192
206.395, 566.807
207.774, 885.423
209.153, 1441.043
210.532, 1909.667
211.910, 2077.295
213.288, 1820.926
214.666, 1268.567
216.043, 887.212
217.421, 575.861
218.798, 452.513
220.175, 322.174
221.551, 258.840
222.928, 215.512
224.304, 182.195
225.680, 168.882
227.055, 169.785
228.431, 157.684
229.806, 142.577
231.181, 149.490
232.556, 134.409
233.930, 141.330
235.304, 160.253
236.678, 123.177
238.052, 136.101
239.426, 137.024
240.799, 118.946
242.172, 136.870
243.545, 129.793
244.917, 166.713
246.290, 158.630
247.662, 160.546
249.034, 192.458
250.405, 173.372
251.777, 195.282
253.148, 181.188
254.519, 201.089
255.889, 194.988
257.260, 203.880
258.630, 225.766
260.000, 208.646
261.370, 240.521
262.739, 223.392
264.108, 236.260
265.477, 240.124
266.846, 248.988
268.215, 261.442
269.583, 267.706
270.951, 295.561
272.319, 305.412
273.686, 342.254
275.054, 344.089
276.421, 333.915
277.788, 343.739
279.154, 333.553
280.521, 347.349
281.887, 341.127
283.253, 390.883
284.619, 408.630
285.984, 420.376
287.349, 479.120
288.714, 477.858
290.079, 501.598
291.444, 556.340
292.808, 574.084
294.172, 631.831
295.536, 670.834
296.899, 732.331
298.263, 766.084
299.626, 825.839
300.989, 889.597
302.351, 969.356
303.714, 1096.118
305.076, 1155.882
306.438, 1296.647
307.799, 1446.393
309.161, 1675.162
310.522, 1857.855
311.883, 2001.629
313.244, 2359.393
314.604, 2485.140
315.965, 2923.756
317.325, 3293.479
318.684, 3564.251
320.044, 4353.553
321.403, 4933.028
322.762, 6213.722
324.121, 7456.979
325.480, 9659.672
326.838, 12689.391
328.196, 17349.123
329.554, 24518.580
330.912, 31087.834
332.270, 39557.320
333.627, 40635.953
334.984, 36245.500
336.341, 30004.258
337.697, 21072.822
339.053, 15861.864
340.409, 11331.645
341.765, 8542.251
343.121, 6672.416
344.476, 5148.611
345.831, 4371.249
347.186, 3533.968
348.541, 3079.956
349.895, 2646.310
351.250, 2199.145
352.604, 2020.946
353.957, 1729.766
355.311, 1624.615
356.664, 1430.441
358.017, 1326.303
359.370, 1257.149
360.722, 1067.981
362.075, 1058.852
363.427, 916.677
364.779, 897.838
366.130, 839.956
367.482, 763.824
368.833, 720.695
370.184, 642.541
371.535, 623.371
372.885, 579.203
374.235, 543.034
375.585, 482.291
376.935, 456.380
378.285, 428.229
379.634, 426.484
380.983, 419.319
382.332, 367.189
383.680, 364.695
385.029, 382.846
386.377, 360.781
387.725, 314.629
389.073, 311.555
390.420, 307.916
391.767, 285.771
393.114, 283.736
394.461, 287.350
395.808, 291.202
397.154, 278.294
398.500, 292.659
399.846, 284.509
401.191, 296.585
402.537, 295.521
403.882, 310.270
405.227, 307.915
406.571, 304.777
407.916, 308.640
409.260, 271.917
410.604, 255.776
411.948, 251.853
413.291, 217.684
414.635, 206.986
415.978, 163.517
417.321, 170.253
418.663, 152.119
420.006, 131.955
421.348, 143.773
422.690, 94.590
424.031, 135.410
425.373, 99.226
426.714, 105.042
428.055, 97.465
429.396, 106.280
430.736, 106.152
432.077, 88.104
433.417, 83.935
434.757, 89.918
436.096, 66.735
437.436, 72.590
438.775, 75.435
440.114, 79.050
441.452, 70.879
442.791, 58.698
444.129, 78.520
445.467, 50.342
446.805, 52.164
448.142, 43.988
449.480, 64.808
450.817, 46.626
452.154, 41.444
453.490, 56.275
454.827, 49.091
456.163, 57.936
457.499, 38.750
458.835, 39.564
460.170, 21.376
461.505, 42.261
462.840, 17.084
464.175, 33.894
465.510, 37.703
466.844, 19.511
468.178, 29.317
469.512, 43.123
470.846, 20.952
472.179, 15.853
473.512, 34.655
474.845, 41.456
476.178, 23.256
477.511, 13.055
478.843, 22.854
480.175, 10.238
481.507, 17.036
482.839, 22.834
484.170, 25.630
485.501, 24.565
486.832, 22.355
488.163, 17.150
489.493, 16.944
490.823, 12.738
492.153, 13.534
493.483, 1.329
494.813, 5.127
496.142, 23.924
497.471, 9.725
498.800, 12.529
500.129, 6.398
501.457, 0.596
502.785, 7.795
504.113, 7.000
505.441, 3.790
506.769, 8.578
508.096, 5.635
509.423, 3.976
510.750, 6.834
512.077, 11.615
513.403, 11.866
514.729, 5.171
516.055, 10.946
517.381, 3.718
518.706, 6.489
520.032, 10.257
521.357, 3.026
522.681, 17.790
524.006, 3.448
525.330, 2.691
526.655, 4.061
527.978, 3.811
529.302, 8.558
530.626, 26.303
531.949, 14.046
533.272, 19.787
534.595, 4.474
535.917, 1.741
537.239, 8.987
538.562, 4.287
539.883, 24.433
541.205, 5.151
542.527, 8.133
543.848, 2.426
545.169, 1.276
546.489, 9.975
547.810, 1.672
549.130, 5.634
550.450, 8.053
551.770, 0.737
553.090, 9.582
554.409, 8.090
555.728, 1.241
557.047, 5.576
558.366, 8.082
559.685, 0.495
561.003, 2.156
562.321, 11.196
563.639, 9.559
564.956, 6.069
566.274, 5.695
567.591, 3.682
568.908, 5.934
570.225, 16.452
571.541, 11.149
572.857, 2.748
574.173, 2.344
575.489, 11.064
576.805, 4.519
578.120, 8.098
579.435, 16.772
580.750, 27.348
582.065, 11.069
583.380, 18.695
584.694, 19.559
586.008, 5.546
587.322, 24.013
588.635, 4.785
589.949, 2.418
591.262, 7.968
592.575, 2.358
593.887, 20.201
595.200, 7.603
596.512, 8.142
597.824, 7.236
599.136, 11.897
600.447, 17.541
601.759, 31.193
603.070, 27.747
604.381, 22.264
605.692, 13.779
607.002, 22.293
608.312, 26.803
609.622, 17.311
610.932, 10.817
612.242, 24.320
613.551, 8.820
614.860, 25.318
616.169, 15.924
617.478, 19.418
618.786, 6.909
620.094, 10.482
621.402, 26.933
622.710, 14.474
624.018, 20.955
625.325, 23.434
626.632, 35.911
627.939, 8.385
629.246, 5.857
630.552, 23.326
631.859, 22.792
633.165, 29.256
634.471, 24.719
635.776, 24.179
637.082, 3.364
638.387, 26.087
639.692, 18.535
640.996, 28.981
642.301, 4.425
643.605, 14.866
644.909, 18.304
646.213, 30.741
647.516, 25.782
648.820, 13.607
650.123, 19.037
651.426, 22.423
652.729, 26.827
654.031, 13.251
655.333, 14.670
656.636, 1.090
657.937, 14.072
659.239, 17.399
660.540, 16.282
661.842, 12.209
663.142, 19.587
664.443, 22.982
665.744, 9.021
667.044, 3.340
668.344, 8.710
669.644, 20.099
670.944, 31.487
672.243, 10.846
673.542, 9.227
674.841, 29.571
676.140, 37.930
677.438, 5.302
678.737, 7.635
680.035, 14.013
681.333, 16.055
682.630, 19.180
683.928, 30.473
685.225, 22.803
686.522, 37.158
687.819, 35.528
689.115, 21.898
690.412, 33.265
691.708, 35.208
693.004, 25.318
694.300, 25.667
695.595, 19.609
696.890, 14.971
698.185, 17.298
699.480, 8.741
700.775, 28.033
702.069, 4.294
703.363, 10.640
704.657, 23.908
705.951, 12.739
707.244, 17.076
708.538, 15.301
709.831, 6.876
711.124, 20.211
712.416, 4.305
713.709, 11.124
715.001, 12.542
716.293, 15.561
717.585, 5.802
718.876, 37.229
720.167, 8.758
721.459, 7.069
722.749, 46.378
724.040, 15.272
725.331, 29.583
726.621, 33.674
727.911, 20.011
729.201, 28.266
730.490, 12.509
731.780, 13.937
733.069, 10.234
734.358, 2.439
735.646, 8.904
736.935, 3.753
738.223, 1.415
739.511, 7.074
740.799, 7.781
742.087, 3.995
743.374, 5.668
744.661, 2.390
745.948, 0.808
747.235, 17.875
748.522, 7.714
749.808, 18.388
751.094, 1.895
752.380, 2.813
753.666, 14.292
754.951, 3.987
756.236, 23.673
757.521, 1.369
758.806, 5.937
760.091, 10.243
761.375, 0.545
762.659, 13.853
763.943, 12.163
765.227, 19.474
766.511, 17.774
767.794, 22.090
769.077, 22.502
770.360, 4.305
771.643, 14.013
772.925, 19.333
774.207, 2.420
775.489, 24.889
776.771, 2.788
778.053, 28.536
779.334, 29.861
780.615, 46.187
781.896, 51.515
783.177, 52.818
784.457, 59.052
785.738, 57.384
787.018, 93.718
788.298, 155.053
789.577, 165.389
790.857, 260.727
792.136, 381.480
793.415, 605.821
794.694, 967.164
795.972, 1362.509
797.251, 1521.726
798.529, 1270.075
799.807, 942.425
801.084, 636.780
802.362, 386.136
803.639, 276.498
804.916, 199.862
806.193, 154.228
807.470, 107.596
808.746, 115.966
810.022, 85.343
811.298, 83.454
812.574, 90.837
813.850, 72.225
815.125, 55.620
816.400, 72.020
817.675, 61.423
818.950, 75.829
820.224, 60.410
821.499, 53.749
822.773, 65.169
824.047, 92.593
825.320, 92.025
826.594, 70.460
827.867, 104.899
829.140, 95.340
830.413, 107.784
831.685, 115.229
832.958, 125.678
834.230, 146.134
835.502, 147.595
836.774, 150.062
838.045, 149.532
839.316, 180.004
840.588, 176.479
841.858, 200.957
843.129, 190.438
844.400, 199.921
845.670, 225.411
846.940, 228.906
848.210, 253.404
849.479, 267.907
850.749, 295.412
852.018, 306.920
853.287, 310.434
854.556, 355.954
855.824, 363.477
857.093, 362.008
858.361, 419.542
859.629, 436.082
860.896, 479.625
862.164, 459.171
863.431, 498.723
864.698, 534.279
865.965, 545.838
867.232, 606.403
868.498, 630.203
869.764, 670.775
871.030, 765.351
872.296, 793.934
873.562, 882.523
874.827, 992.116
876.092, 1056.711
877.357, 1314.312
878.622, 1543.917
879.886, 1898.529
881.151, 2332.145
882.415, 2692.765
883.679, 2819.949
884.942, 2990.017
886.206, 2863.651
887.469, 2713.191
888.732, 2432.831
889.995, 2545.326
891.258, 2593.916
892.520, 2687.270
893.782, 3149.594
895.044, 3462.253
896.306, 4149.700
897.568, 5013.285
898.829, 5930.956
900.090, 7715.787
901.351, 9197.164
902.612, 12120.984
903.872, 16200.674
905.133, 20960.277
906.393, 30289.365
907.653, 38638.941
908.912, 50387.520
910.172, 61677.180
911.431, 61656.898
912.690, 57416.605
913.949, 43096.320
915.208, 28916.322
916.466, 21156.047
917.724, 13956.265
918.982, 10255.996
920.240, 7637.730
921.498, 5631.645
922.755, 4648.276
924.012, 3699.021
925.269, 3044.770
926.526, 2633.472
927.782, 2259.228
929.039, 2160.021
930.295, 1869.783
931.551, 1728.549
932.806, 1711.319
934.062, 1522.093
935.317, 1469.870
936.572, 1322.652
937.827, 1211.436
939.082, 1167.225
940.336, 997.028
941.590, 944.823
942.844, 856.621
944.098, 770.426
945.352, 752.234
946.605, 661.139
947.859, 611.954
949.112, 573.773
950.364, 539.595
951.617, 486.815
952.869, 422.643
954.121, 413.443
955.373, 389.278
956.625, 365.117
957.877, 365.958
959.128, 344.803
960.379, 304.642
961.630, 305.493
962.881, 286.348
964.131, 267.897
965.381, 263.390
966.631, 242.255
967.881, 232.123
969.131, 222.325
970.380, 214.199
971.630, 210.482
972.879, 219.023
974.128, 217.450
975.376, 195.449
976.625, 183.393
977.873, 166.720
979.121, 178.617
980.369, 188.521
981.616, 163.455
982.864, 190.360
984.111, 163.107
985.358, 137.298
986.605, 156.621
987.851, 130.536
989.097, 136.454
990.344, 115.374
991.589, 135.297
992.835, 147.222
994.081, 117.198
995.326, 84.710
996.571, 108.742
997.816, 97.688
999.061, 113.625
1000.305, 95.563
1001.550, 89.582
1002.794, 70.526
1004.037, 75.653
1005.281, 75.602
1006.525, 82.877
1007.768, 73.710
1009.011, 70.195
1010.254, 54.740
1011.496, 59.699
1012.739, 52.659
1013.981, 60.621
1015.223, 61.589
1016.465, 53.561
1017.706, 28.536
1018.948, 37.523
1020.189, 16.512
1021.430, 29.503
1022.671, 32.496
1023.911, 54.490
1025.152, 33.489
1026.392, 37.487
1027.632, 30.486
1028.872, 19.486
1030.111, 34.488
1031.350, 42.491
1032.590, 67.496
1033.829, 58.076
1035.067, 41.509
1036.306, 46.518
1037.544, 23.529
1038.782, 24.541
1040.020, 59.554
1041.258, 37.570
1042.495, 44.588
1043.733, 20.659
1044.970, 11.753
1046.207, 41.777
1047.443, 30.803
1048.680, 18.830
1049.916, 3.861
1051.152, 5.290
1052.388, 0.039
1053.624, 14.974
1054.859, 1.015
1056.094, 18.060
1057.329, 18.106
1058.564, 16.158
1059.799, 33.211
1061.033, 9.265
1062.268, 17.330
1063.502, 7.615
1064.735, 12.439
1065.969, 11.275
1067.202, 24.775
1068.436, 10.826
1069.669, 5.118
1070.902, 2.932
1072.134, 16.983
1073.367, 5.055
1074.599, 7.107
1075.831, 5.160
1077.062, 2.787
1078.294, 3.265
1079.525, 5.319
1080.757, 4.665
1081.988, 9.426
1083.218, 5.658
1084.449, 8.713
1085.679, 3.767
1086.909, 5.822
1088.139, 0.123
1089.369, 10.932
1090.599, 18.986
1091.828, 9.041
1093.057, 11.096
1094.286, 1.849
1095.515, 19.236
1096.744, 23.290
1097.972, 6.348
1099.200, 6.598
1100.428, 18.451
1101.656, 15.499
1102.883, 27.542
1104.111, 11.584
1105.338, 11.625
1106.565, 4.667
1107.791, 15.292
1109.018, 5.741
1110.244, 3.784
1111.470, 10.176
1112.696, 9.129
1113.922, 11.915
1115.147, 13.938
1116.373, 4.038
1117.598, 3.000
1118.823, 4.969
1120.047, 8.908
1121.272, 6.958
1122.496, 15.939
1123.720, 1.055
1124.944, 4.952
1126.168, 17.036
1127.391, 3.024
1128.615, 2.011
1129.838, 18.997
1131.061, 10.994
1132.283, 2.013
1133.506, 3.978
1134.728, 6.992
1135.950, 25.962
1137.172, 10.930
1138.394, 14.898
1139.615, 13.899
1140.837, 2.865
1142.058, 6.157
1143.279, 1.801
1144.499, 4.757
1145.720, 6.717
1146.940, 6.682
1148.160, 2.861
1149.380, 14.845
1150.600, 0.810
1151.819, 29.757
1153.038, 17.287
1154.257, 24.646
1155.476, 29.657
1156.695, 9.587
1157.913, 14.516
1159.132, 28.462
1160.350, 24.388
1161.568, 49.368
1162.785, 13.865
1164.003, 41.824
1165.220, 32.615
1166.437, 25.535
1167.654, 39.523
1168.871, 32.439
1170.087, 34.354
1171.304, 13.267
1172.520, 21.179
1173.736, 24.089
1174.951, 40.998
1176.167, 36.919
1177.382, 18.824
1178.597, 50.727
1179.812, 25.629
1181.027, 40.532
1182.241, 46.430
1183.455, 16.327
1184.669, 47.221
1185.883, 36.114
1187.097, 35.004
1188.311, 41.910
1189.524, 10.812
1190.737, 9.697
1191.950, 32.592
1193.162, 39.473
1194.375, 19.351
1195.587, 18.237
1196.799, 29.146
1198.011, 35.018
1199.223, 24.884
1200.434, 49.752
1201.646, 43.618
1202.857, 26.481
1204.068, 41.343
1205.279, 24.202
1206.489, 22.060
1207.699, 16.937
1208.909, 33.790
1210.119, 41.360
1211.329, 5.208
1212.539, 29.561
1213.748, 23.403
1214.957, 18.245
1216.166, 45.906
1217.375, 20.741
1218.583, 15.574
1219.792, 30.405
1221.000, 44.233
1222.208, 23.060
1223.415, 29.794
1224.623, 25.645
1225.830, 35.466
1227.037, 34.284
1228.244, 7.100
1229.451, 53.919
1230.658, 26.729
1231.864, 24.537
1233.070, 38.343
1234.276, 43.135
1235.482, 37.936
1236.687, 63.735
1237.893, 43.532
1239.098, 25.327
1240.303, 16.026
1241.508, 27.817
1242.712, 20.945
1243.917, 44.393
1245.121, 33.784
1246.325, 23.567
1247.529, 38.496
1248.732, 48.359
1249.936, 34.157
1251.139, 25.051
1252.342, 49.824
1253.545, 37.605
1254.747, 18.428
1255.950, 21.297
1257.152, 17.372
1258.354, 16.467
1259.556, 28.267
1260.758, 25.027
1261.959, 16.454
1263.160, 18.210
1264.361, 49.842
1265.562, 32.937
1266.763, 28.166
1267.963, 37.803
1269.164, 23.497
1270.364, 29.916
1271.563, 29.669
1272.763, 38.386
1273.963, 39.101
1275.162, 14.072
1276.361, 18.101
1277.560, 9.533
1278.759, 28.835
1279.957, 24.544
1281.155, 19.253
1282.354, 45.959
1283.551, 11.663
1284.749, 32.366
1285.947, 15.017
1287.144, 38.134
1288.341, 36.731
1289.538, 16.413
1290.735, 15.107
1291.931, 1.798
1293.128, 11.411
1294.324, 14.098
1295.520, 17.601
1296.716, 15.285
1297.911, 16.641
1299.107, 6.322
1300.302, 21.000
1301.497, 18.677
1302.692, 12.353
1303.886, 23.026
1305.081, 12.302
1306.275, 4.636
1307.469, 10.026
1308.663, 25.314
1309.856, 34.337
1311.050, 6.986
1312.243, 19.633
1313.436, 17.278
1314.629, 40.920
1315.822, 22.556
1317.014, 46.193
1318.206, 16.818
1319.398, 13.441
1320.590, 24.061
1321.782, 22.677
1322.974, 25.247
1324.165, 15.902
1325.356, 27.510
1326.547, 20.116
1327.738, 17.716
1328.928, 18.313
1330.119, 22.909
1331.309, 12.503
1332.499, 13.096
1333.688, 32.636
1334.878, 13.152
1336.067, 47.739
1337.256, 38.324
1338.445, 13.907
1339.634, 9.488
1340.823, 35.067
1342.011, 37.645
1343.199, 26.220
1344.388, 26.793
1345.575, 19.364
1346.763, 23.933
1347.950, 35.500
1349.138, 24.065
1350.325, 10.629
1351.512, 20.181
1352.698, 47.742
1353.885, 19.302
1355.071, 15.630
1356.257, 30.191
1357.443, 14.751
1358.629, 29.305
1359.814, 22.865
1361.000, 16.424
1362.185, 28.962
1363.370, 19.520
1364.554, 23.079
1365.739, 34.861
1366.923, 9.421
1368.107, 17.981
1369.291, 15.543
1370.475, 27.106
1371.659, 13.493
1372.842, 33.036
1374.025, 23.575
1375.208, 27.105
1376.391, 31.635
1377.574, 27.154
1378.756, 14.786
1379.939, 20.414
1381.121, 41.009
1382.303, 24.627
1383.484, 29.250
1384.666, 31.878
1385.847, 20.501
1387.028, 26.125
1388.209, 25.729
1389.390, 2.311
1390.570, 3.932
1391.751, 9.519
1392.931, 2.142
1394.111, 26.775
1395.291, 41.415
1396.470, 6.053
1397.649, 14.338
1398.829, 17.229
1400.008, 15.873
1401.187, 23.516
1402.365, 22.114
1403.544, 17.739
1404.722, 42.377
1405.900, 1.278
1407.078, 31.299
1408.255, 9.925
1409.433, 19.474
1410.610, 39.125
1411.787, 2.751
1412.964, 8.226
1414.141, 43.275
1415.317, 4.772
1416.494, 2.639
1417.670, 1.050
1418.846, 11.536
1420.022, 21.101
1421.197, 11.684
1422.373, 10.261
1423.548, 17.843
1424.723, 25.423
1425.898, 22.954
1427.072, 37.512
1428.247, 29.091
1429.421, 22.597
1430.595, 16.174
1431.769, 39.750
1432.942, 25.326
1434.116, 50.901
1435.289, 29.438
1436.462, 38.013
1437.635, 58.591
1438.808, 30.164
1439.981, 33.742
1441.153, 47.320
1442.325, 44.897
1443.497, 28.419
1444.669, 17.992
1445.840, 20.171
1447.012, 40.133
1448.183, 26.710
1449.354, 44.286
1450.525, 53.859
1451.696, 51.431
1452.866, 55.000
1454.036, 29.313
1455.206, 38.639
1456.376, 66.921
1457.546, 40.341
1458.716, 37.274
1459.885, 44.755
1461.054, 14.230
1462.223, 33.991
1463.392, 59.393
1464.560, 10.836
1465.729, 39.957
1466.897, 44.408
1468.065, 8.791
1469.233, 48.284
1470.400, 26.772
1471.568, 44.254
1472.735, 39.731
1473.902, 27.203
1475.069, 40.669
1476.236, 11.128
1477.402, 15.580
1478.569, 8.022
1479.735, 19.456
1480.901, 31.879
1482.066, 23.292
1483.232, 29.692
1484.397, 32.078
1485.562, 43.449
1486.727, 8.818
1487.892, 14.189
1489.057, 32.656
1490.221, 3.136
1491.386, 39.635
1492.550, 21.152
1493.714, 21.728
1494.877, 29.310
1496.041, 10.901
1497.204, 15.503
1498.367, 45.120
1499.530, 25.757
1500.693, 16.420
1501.856, 30.121
1503.018, 10.868
1504.180, 15.654
1505.342, 2.504
1506.504, 11.387
1507.666, 25.335
1508.827, 23.357
1509.988, 40.467
1511.149, 47.682
1512.310, 12.077
1513.471, 25.879
1514.631, 52.520
1515.792, 0.021
1516.952, 0.000
##END=



