##NAMES=Scholzite
##RRUFFID=R050238
##IDEAL CHEMISTRY=CaZn^2+^_2_(PO_4_)_2_&#183;2H_2_O
##LOCALITY=near Blinman, South Australia, Australia
##OWNER=RRUFF
##SOURCE=Marcus Origlieri
##DESCRIPTION=Colorless bladed crystals
##STATUS=The identification of this mineral has been confirmed by X-ray diffraction and chemical analysis
##URL=rruff.info/R050238
##MEASURED CHEMISTRY=Ca_1.00_Zn_2.00_(P_1.00_O_4_)_2_Â·2H_2_O
##PIN_ID=M00184
##ORIENTATION=Laser parallel to -a* (-1 0 0). Fiducial mark perpendicular to laser is parallel to -b [0 -1 0]
135.3560, 0.0000000E+00
136.5850, 82.51562
137.8140, 188.7383
139.0430, 204.5957
140.2710, 42.93750
141.5000, 102.8633
142.7280, 20.76562
143.9560, 197.6758
145.1840, 288.1250
146.4120, 373.9883
147.6390, 598.1602
148.8670, 668.0137
150.0940, 1053.387
151.3210, 1359.951
152.5490, 1686.504
153.7750, 1732.863
155.0020, 1960.297
156.2290, 2060.262
157.4550, 2007.316
158.6810, 2038.883
159.9080, 2047.316
161.1340, 2087.834
162.3590, 2276.865
163.5850, 2697.758
164.8110, 2481.801
166.0360, 2584.234
167.2610, 2101.250
168.4860, 1900.020
169.7110, 1616.680
170.9360, 1412.182
172.1610, 1208.887
173.3850, 1085.688
174.6100, 1005.639
175.8340, 762.7891
177.0580, 625.9316
178.2820, 590.3301
179.5050, 509.9746
180.7290, 453.8594
181.9520, 482.9766
183.1760, 498.3242
184.3990, 516.8887
185.6220, 575.6641
186.8450, 638.6367
188.0670, 643.8027
189.2900, 693.1504
190.5120, 626.6543
191.7340, 693.2715
192.9560, 645.0391
194.1780, 814.9258
195.4000, 695.9180
196.6220, 731.0078
197.8430, 723.1855
199.0640, 907.4258
200.2860, 1383.721
201.5070, 1491.061
202.7270, 1156.447
203.9480, 643.8809
205.1690, 0.6503910
206.3890, 297.1426
207.6090, 289.5977
208.8290, 253.9980
210.0490, 162.2539
211.2690, 87.35352
212.4890, 5.300781
213.7080, 30.89844
214.9280, 217.2559
216.1470, 89.76172
217.3660, 528.3965
218.5850, 472.1504
219.8030, 650.1523
221.0220, 1078.250
222.2400, 1138.422
223.4590, 1523.734
224.6770, 1456.117
225.8950, 1569.625
227.1120, 1723.254
228.3300, 1819.961
229.5480, 1855.799
230.7650, 2166.730
231.9820, 2354.689
233.1990, 2543.652
234.4160, 2914.746
235.6330, 3122.828
236.8490, 3212.059
238.0660, 3174.332
239.2820, 3308.635
240.4980, 3161.920
241.7140, 2837.207
242.9300, 2567.570
244.1460, 2458.686
245.3610, 2009.227
246.5770, 1950.375
247.7920, 1699.594
249.0070, 1584.219
250.2220, 1511.578
251.4370, 1362.336
252.6510, 1370.854
253.8660, 1207.213
255.0800, 1359.146
256.2940, 1401.904
257.5080, 2037.717
258.7220, 1744.902
259.9360, 2262.932
261.1490, 1558.676
262.3630, 1566.410
263.5760, 1741.137
264.7890, 1654.857
266.0020, 1823.566
267.2150, 1974.270
268.4270, 2306.961
269.6400, 2466.641
270.8520, 2645.314
272.0640, 2718.977
273.2760, 3037.629
274.4880, 3222.270
275.7000, 2987.898
276.9120, 2951.520
278.1230, 3138.131
279.3340, 3221.730
280.5450, 3344.318
281.7560, 3392.158
282.9670, 3312.645
284.1780, 3400.330
285.3880, 3486.166
286.5980, 3412.086
287.8090, 3513.035
289.0190, 3415.404
290.2290, 3353.383
291.4380, 3299.902
292.6480, 3079.600
293.8570, 3145.975
295.0670, 2854.432
296.2760, 2718.752
297.4850, 2472.559
298.6930, 2420.545
299.9020, 2519.174
301.1110, 2352.006
302.3190, 2314.871
303.5270, 2260.055
304.7350, 2536.570
305.9430, 2399.980
307.1510, 2738.336
308.3580, 2563.443
309.5660, 2534.523
310.7730, 2434.467
311.9800, 2485.521
313.1870, 2333.387
314.3940, 2437.090
315.6010, 2209.547
316.8070, 1955.416
318.0130, 1928.309
319.2200, 1787.535
320.4260, 2064.770
321.6310, 1728.035
322.8370, 1860.035
324.0430, 1709.625
325.2480, 1714.113
326.4540, 1764.104
327.6590, 1479.734
328.8640, 1472.197
330.0680, 1341.770
331.2730, 1445.578
332.4780, 1212.000
333.6820, 1313.715
334.8860, 1236.908
336.0900, 1138.963
337.2940, 1155.164
338.4980, 1081.654
339.7010, 996.9727
340.9050, 1107.814
342.1080, 955.7109
343.3110, 683.3867
344.5140, 828.5723
345.7170, 799.2734
346.9200, 876.8730
348.1220, 827.5898
349.3240, 713.7871
350.5270, 634.4492
351.7290, 596.6875
352.9310, 487.9863
354.1320, 482.3555
355.3340, 427.6699
356.5350, 518.2539
357.7370, 286.9941
358.9380, 312.1797
360.1390, 348.5742
361.3400, 51.49023
362.5400, 191.1016
363.7410, 162.6992
364.9410, 215.2871
366.1410, 244.5859
367.3410, 256.0547
368.5410, 243.1582
369.7410, 284.6895
370.9400, 239.2031
372.1400, 203.7051
373.3390, 201.5176
374.5380, 246.5098
375.7370, 186.0977
376.9360, 304.5273
378.1350, 369.9395
379.3330, 219.3340
380.5310, 186.7109
381.7300, 202.0684
382.9280, 285.4043
384.1260, 334.7227
385.3230, 449.0195
386.5210, 439.3008
387.7180, 459.5625
388.9160, 380.8086
390.1130, 679.0352
391.3100, 655.2520
392.5060, 633.4512
393.7030, 1044.629
394.9000, 719.7891
396.0960, 1100.934
397.2920, 1161.061
398.4880, 1393.172
399.6840, 1416.270
400.8800, 1709.348
402.0750, 1878.414
403.2710, 2334.465
404.4660, 2574.504
405.6610, 3056.533
406.8560, 3677.551
408.0510, 3726.561
409.2450, 4144.559
410.4400, 4342.539
411.6340, 4329.520
412.8280, 4161.492
414.0220, 3654.453
415.2160, 3278.402
416.4100, 3097.344
417.6030, 2291.271
418.7970, 2018.189
419.9900, 1659.096
421.1830, 1538.992
422.3760, 1245.896
423.5690, 969.7871
424.7610, 804.6641
425.9540, 562.5176
427.1460, 649.3477
428.3380, 520.1523
429.5300, 466.9277
430.7220, 453.6758
431.9140, 281.3945
433.1050, 273.0859
434.2970, 299.7461
435.4880, 76.38086
436.6790, 132.9785
437.8700, 91.54102
439.0610, 103.0645
440.2510, 204.5527
441.4420, 200.0098
442.6320, 135.4336
443.8220, 99.82812
445.0120, 130.8125
446.2020, 176.4297
447.3910, 62.64648
448.5810, 59.15039
449.7700, 398.9766
450.9600, 81.09570
452.1490, 51.81250
453.3370, 79.20312
454.5260, 34.19336
455.7150, 62.14648
456.9030, 3.927734
458.0910, 81.04688
459.2800, 34.25195
460.4670, 152.4863
461.6550, 29.79883
462.8430, 81.13477
464.0300, 130.4590
465.2180, 237.9668
466.4050, 57.45898
467.5920, 83.86328
468.7790, 34.75586
469.9650, 38.58203
471.1520, 93.89258
472.3380, 41.81641
473.5250, 141.5742
474.7110, 104.5625
475.8970, 34.68164
477.0820, 79.77734
478.2680, 126.1484
479.4540, 150.1660
480.6390, 84.71289
481.8240, 124.5684
483.0090, 50.59180
484.1940, 2.203125
485.3780, 33.97070
486.5630, 149.7129
487.7470, 24.43750
488.9320, 49.85742
490.1160, 100.1445
491.3000, 138.4941
492.4830, 1.888672
493.6670, 178.7363
494.8500, 60.46289
496.0340, 120.2695
497.2170, 97.15820
498.4000, 220.0996
499.5820, 237.0742
500.7650, 157.9043
501.9480, 95.85742
503.1300, 372.8320
504.3120, 254.4590
505.4940, 398.8848
506.6760, 266.1738
507.8580, 202.6719
509.0390, 387.2734
510.2210, 287.6035
511.4020, 380.1406
512.5830, 273.1953
513.7640, 458.7168
514.9450, 390.0781
516.1250, 336.4121
517.3060, 251.9473
518.4860, 319.2168
519.6660, 313.0664
520.8460, 501.7285
522.0260, 375.0938
523.2060, 419.3066
524.3850, 370.5684
525.5650, 411.1641
526.7440, 350.8320
527.9230, 490.4824
529.1020, 600.1113
530.2810, 456.7227
531.4590, 579.3164
532.6380, 830.8926
533.8160, 662.4668
534.9940, 743.0195
536.1720, 873.5566
537.3500, 929.6230
538.5270, 1343.635
539.7050, 1293.154
540.8820, 1637.826
542.0590, 1952.561
543.2360, 2552.984
544.4130, 2924.117
545.5900, 3898.268
546.7660, 4364.492
547.9430, 5700.406
549.1190, 6781.768
550.2950, 8003.219
551.4710, 9324.789
552.6470, 9923.506
553.8220, 9757.758
554.9980, 8543.016
556.1730, 7016.543
557.3480, 5345.859
558.5230, 4412.451
559.6980, 3195.471
560.8730, 2770.492
562.0470, 2400.211
563.2220, 1990.084
564.3960, 1558.521
565.5700, 1186.736
566.7440, 1174.830
567.9170, 1075.979
569.0910, 1001.957
570.2640, 1054.607
571.4380, 760.5391
572.6110, 868.2715
573.7840, 742.3027
574.9570, 642.2402
576.1290, 671.3125
577.3020, 638.0938
578.4740, 665.9180
579.6460, 807.0234
580.8180, 712.8301
581.9900, 700.6152
583.1620, 681.6426
584.3330, 601.7363
585.5040, 715.5703
586.6760, 657.8398
587.8470, 979.5723
589.0180, 777.9570
590.1880, 1040.891
591.3590, 845.7266
592.5290, 1122.371
593.7000, 901.2930
594.8700, 1009.168
596.0400, 1182.664
597.2090, 1226.541
598.3790, 1212.260
599.5490, 1184.133
600.7180, 1246.957
601.8870, 1061.918
603.0560, 1326.000
604.2250, 931.9473
605.3940, 1113.535
606.5620, 957.4297
607.7300, 914.3184
608.8990, 854.9590
610.0670, 696.3594
611.2350, 901.2793
612.4020, 625.4961
613.5700, 705.9082
614.7370, 582.6016
615.9050, 648.2910
617.0720, 620.4707
618.2390, 654.0273
619.4060, 667.2559
620.5720, 595.9102
621.7390, 659.6152
622.9050, 635.2891
624.0710, 714.1934
625.2370, 739.9883
626.4030, 740.6523
627.5690, 746.9648
628.7340, 646.0176
629.9000, 685.6953
631.0650, 607.3828
632.2300, 516.3184
633.3950, 643.2637
634.5600, 578.2988
635.7240, 491.4629
636.8890, 463.9746
638.0530, 497.4219
639.2170, 476.6797
640.3810, 514.4746
641.5450, 376.8867
642.7080, 377.4902
643.8720, 441.2754
645.0350, 570.4863
646.1980, 487.6992
647.3610, 764.6309
648.5240, 611.4980
649.6870, 659.9355
650.8490, 581.6211
652.0120, 559.5117
653.1740, 822.6445
654.3360, 677.6230
655.4980, 818.0312
656.6600, 838.7812
657.8210, 762.7910
658.9830, 870.2070
660.1440, 764.0000
661.3050, 1169.150
662.4660, 1067.080
663.6270, 1127.299
664.7870, 1045.973
665.9480, 1053.525
667.1080, 1050.338
668.2680, 845.5723
669.4280, 753.8027
670.5880, 541.1797
671.7480, 476.9180
672.9070, 460.4746
674.0670, 381.9473
675.2260, 283.8613
676.3850, 315.7148
677.5440, 226.5156
678.7030, 233.0430
679.8610, 193.7324
681.0200, 174.5039
682.1780, 258.1582
683.3360, 84.78320
684.4940, 77.12500
685.6520, 64.04102
686.8090, 134.3867
687.9670, 24.07617
689.1240, 237.6562
690.2810, 205.3730
691.4380, 48.24023
692.5950, 34.74609
693.7520, 30.06641
694.9080, 209.1387
696.0650, 15.12891
697.2210, 196.0723
698.3770, 102.2500
699.5330, 106.7422
700.6880, 175.0684
701.8440, 84.25977
702.9990, 232.6465
704.1550, 281.6328
705.3100, 67.84375
706.4650, 49.97852
707.6190, 85.20898
708.7740, 158.7676
709.9290, 87.04102
711.0830, 129.7988
712.2370, 44.24414
713.3910, 54.24219
714.5450, 34.33398
715.6980, 124.9785
716.8520, 166.8027
718.0050, 301.2891
719.1580, 212.7090
720.3110, 171.7070
721.4640, 175.8809
722.6170, 90.61523
723.7700, 111.2754
724.9220, 192.2480
726.0740, 201.7148
727.2260, 166.2363
728.3780, 265.4277
729.5300, 271.8438
730.6810, 108.4492
731.8330, 261.7480
732.9840, 41.49805
734.1350, 329.6211
735.2860, 22.00977
736.4370, 360.7598
737.5880, 350.0664
738.7380, 333.6094
739.8880, 330.4668
741.0390, 413.9863
742.1890, 86.24805
743.3380, 150.6074
744.4880, 14.28516
745.6380, 238.9531
746.7870, 95.44531
747.9360, 224.0391
749.0850, 216.3145
750.2340, 197.0098
751.3830, 119.8457
752.5310, 231.0273
753.6800, 82.85938
754.8280, 147.0059
755.9760, 110.4570
757.1240, 140.4121
758.2720, 165.3926
759.4190, 75.15234
760.5670, 146.7461
761.7140, 16.93945
762.8610, 213.6953
764.0080, 309.4648
765.1550, 165.3926
766.3020, 59.82812
767.4480, 192.4258
768.5950, 28.38086
769.7410, 84.92969
770.8870, 136.9434
772.0330, 1.156250
773.1780, 170.9961
774.3240, 139.8867
775.4690, 125.5254
776.6140, 285.0762
777.7590, 166.5449
778.9040, 169.9238
780.0490, 293.2148
781.1940, 159.4199
782.3380, 49.53906
783.4820, 279.5645
784.6260, 99.50391
785.7700, 297.3477
786.9140, 454.1094
788.0580, 131.7891
789.2010, 73.37891
790.3450, 245.8750
791.4880, 34.28125
792.6310, 160.5957
793.7730, 76.18359
794.9160, 236.8926
796.0590, 130.8770
797.2010, 31.77344
798.3430, 173.5703
799.4850, 217.2773
800.6270, 137.8965
801.7690, 258.4219
802.9100, 276.8613
804.0520, 204.2109
805.1930, 331.4727
806.3340, 82.65039
807.4750, 275.7344
808.6160, 44.72852
809.7560, 24.37109
810.8970, 220.4082
812.0370, 103.0996
813.1770, 106.6992
814.3170, 107.2051
815.4570, 161.5566
816.5960, 111.2109
817.7360, 80.23438
818.8750, 95.08008
820.0140, 72.41406
821.1530, 146.0684
822.2920, 46.85938
823.4310, 117.0039
824.5690, 31.29102
825.7070, 273.3008
826.8460, 228.0410
827.9840, 55.14062
829.1220, 132.0332
830.2590, 3.203125
831.3970, 25.73047
832.5340, 87.89258
833.6710, 73.36328
834.8080, 78.03320
835.9450, 52.27148
837.0820, 187.3535
838.2190, 90.17578
839.3550, 245.7227
840.4910, 15.59766
841.6270, 144.5762
842.7630, 147.3984
843.8990, 107.8105
845.0350, 252.2656
846.1700, 66.36133
847.3060, 174.0605
848.4410, 17.84570
849.5760, 83.41602
850.7100, 45.19141
851.8450, 134.5488
852.9800, 76.93359
854.1140, 56.60156
855.2480, 143.2715
856.3820, 16.68164
857.5160, 180.8203
858.6500, 250.8887
859.7830, 261.9609
860.9170, 171.1348
862.0500, 286.0059
863.1830, 256.8301
864.3160, 81.41602
865.4480, 24.32617
866.5810, 190.1680
867.7130, 247.2422
868.8460, 127.8691
869.9780, 2.517578
871.1100, 23.82617
872.2410, 126.5215
873.3730, 153.8984
874.5050, 114.2402
875.6360, 29.47852
876.7670, 81.61523
877.8980, 28.28516
879.0290, 95.62500
880.1590, 12.28516
881.2900, 102.6602
882.4200, 100.0801
883.5500, 7.597656
884.6800, 29.31641
885.8100, 122.1074
886.9400, 172.7363
888.0690, 22.95312
889.1990, 1.451172
890.3280, 119.5820
891.4570, 94.05273
892.5860, 24.00977
893.7140, 41.38281
894.8430, 38.78320
895.9710, 69.69336
897.1000, 97.53906
898.2280, 122.1289
899.3560, 141.9043
900.4830, 130.5117
901.6110, 5.238281
902.7380, 370.4219
903.8660, 60.55273
904.9930, 345.4902
906.1200, 452.5312
907.2460, 383.7168
908.3730, 447.6191
909.5000, 414.7949
910.6260, 569.7617
911.7520, 623.8223
912.8780, 542.2500
914.0040, 860.1055
915.1290, 1104.906
916.2550, 1580.148
917.3800, 1739.756
918.5050, 2126.834
919.6300, 2712.799
920.7550, 2977.943
921.8800, 3348.838
923.0040, 3404.262
924.1290, 3741.346
925.2530, 3591.111
926.3770, 3741.539
927.5010, 3376.020
928.6250, 3158.965
929.7480, 2825.486
930.8720, 2517.641
931.9950, 2083.312
933.1180, 1727.504
934.2410, 1674.230
935.3640, 1458.084
936.4860, 1357.555
937.6090, 1307.533
938.7310, 1051.535
939.8530, 872.1953
940.9750, 874.4023
942.0970, 966.5137
943.2180, 531.3887
944.3400, 697.2383
945.4610, 503.2988
946.5820, 506.8281
947.7030, 481.8086
948.8240, 449.7480
949.9450, 505.6387
951.0650, 337.7617
952.1860, 574.6191
953.3060, 598.3203
954.4260, 315.0312
955.5460, 352.6680
956.6650, 553.4785
957.7850, 419.6074
958.9040, 362.1953
960.0230, 293.3496
961.1420, 310.6133
962.2610, 409.4551
963.3800, 395.6289
964.4990, 595.1543
965.6170, 634.2383
966.7350, 468.4570
967.8530, 584.6562
968.9710, 733.7930
970.0890, 918.6035
971.2070, 1003.984
972.3240, 1246.432
973.4410, 1206.418
974.5580, 984.0391
975.6750, 1456.484
976.7920, 1566.590
977.9090, 1914.672
979.0250, 2370.570
980.1410, 2301.029
981.2580, 3008.666
982.3740, 3518.707
983.4890, 4094.945
984.6050, 4798.521
985.7200, 5881.891
986.8360, 7288.596
987.9510, 8529.012
989.0660, 10263.66
990.1810, 11869.26
991.2950, 13999.18
992.4100, 15961.85
993.5240, 17707.77
994.6390, 20185.70
995.7530, 22607.20
996.8660, 24983.13
997.9800, 27053.22
999.0940, 29657.20
1000.207, 30846.33
1001.320, 31854.61
1002.433, 31710.22
1003.546, 29640.64
1004.659, 26642.68
1005.772, 23297.21
1006.884, 19295.36
1007.996, 15746.15
1009.108, 12644.87
1010.220, 10388.07
1011.332, 8261.654
1012.444, 6761.488
1013.555, 5498.572
1014.666, 4300.727
1015.777, 3778.135
1016.888, 2991.092
1017.999, 2856.211
1019.110, 2584.092
1020.220, 2332.125
1021.331, 2602.145
1022.441, 2389.695
1023.551, 2429.184
1024.661, 2097.998
1025.770, 2286.500
1026.880, 1886.129
1027.989, 1571.701
1029.098, 1270.311
1030.207, 1213.133
1031.316, 908.9473
1032.425, 769.3281
1033.533, 544.4531
1034.642, 589.3086
1035.750, 363.5312
1036.858, 728.3242
1037.966, 312.8906
1039.073, 684.6172
1040.181, 446.7598
1041.288, 605.5820
1042.396, 393.6465
1043.503, 413.5410
1044.610, 272.5645
1045.716, 372.5508
1046.823, 509.5000
1047.929, 457.4141
1049.036, 336.2930
1050.142, 439.1367
1051.248, 494.9434
1052.353, 590.7188
1053.459, 657.4551
1054.564, 769.1465
1055.670, 804.3438
1056.775, 871.2090
1057.880, 953.1465
1058.985, 711.5078
1060.089, 918.1680
1061.194, 891.0762
1062.298, 938.8301
1063.402, 1023.041
1064.506, 1250.889
1065.610, 1349.523
1066.713, 1361.068
1067.817, 1775.561
1068.920, 2022.314
1070.023, 2161.973
1071.126, 1993.221
1072.229, 2089.645
1073.332, 2333.883
1074.435, 2425.809
1075.537, 2450.186
1076.639, 2744.420
1077.741, 2618.955
1078.843, 2726.064
1079.945, 2957.957
1081.046, 3324.613
1082.148, 3489.701
1083.249, 3599.023
1084.350, 4043.887
1085.451, 4141.240
1086.551, 4372.004
1087.652, 4499.223
1088.752, 4771.455
1089.853, 4557.641
1090.953, 4553.834
1092.053, 4606.932
1093.152, 4090.762
1094.252, 3910.311
1095.351, 3721.082
1096.451, 3452.965
1097.550, 2983.180
1098.649, 2684.174
1099.748, 2646.502
1100.846, 2260.088
1101.945, 2344.410
1103.043, 1872.762
1104.141, 1848.281
1105.239, 1705.826
1106.337, 1748.525
1107.434, 1799.729
1108.532, 1837.826
1109.629, 2059.035
1110.726, 2116.492
1111.823, 2354.494
1112.920, 2640.359
1114.017, 2759.559
1115.113, 2908.203
1116.210, 3019.176
1117.306, 2525.639
1118.402, 2384.637
1119.498, 1880.387
1120.593, 1735.045
1121.689, 1256.551
1122.784, 1176.945
1123.879, 847.6582
1124.974, 817.2441
1126.069, 916.8867
1127.164, 538.2305
1128.259, 580.9707
1129.353, 411.8398
1130.447, 509.4727
1131.541, 375.4629
1132.635, 266.3438
1133.729, 473.8828
1134.822, 391.3945
1135.916, 365.1133
1137.009, 156.1738
1138.102, 137.7500
1139.195, 284.5566
1140.288, 15.91797
1141.380, 38.75781
1142.473, 6.142578
1143.565, 211.5312
1144.657, 347.4062
1145.749, 124.8711
1146.841, 260.1562
1147.932, 42.02734
1149.024, 429.1914
1150.115, 43.30859
1151.206, 92.35742
1152.297, 376.3379
1153.388, 83.26367
1154.479, 403.1230
1155.569, 221.9375
1156.659, 196.7266
1157.750, 495.5098
1158.839, 245.2910
1159.929, 579.9902
1161.019, 471.6797
1162.108, 665.3359
1163.198, 600.9570
1164.287, 842.5605
1165.376, 1007.156
1166.465, 1010.695
1167.553, 1098.188
1168.642, 1277.637
1169.730, 1445.980
1170.818, 1612.324
1171.906, 1496.607
1172.994, 1558.830
1174.082, 1301.986
1175.170, 1162.088
1176.257, 770.1016
1177.344, 801.0742
1178.431, 1040.982
1179.518, 968.9902
1180.605, 1111.447
1181.691, 771.1660
1182.778, 772.6211
1183.864, 1223.652
1184.950, 518.1797
1186.036, 157.6387
1187.122, 4.976563
1188.207, 454.3887
1189.292, 107.6094
1190.378, 47.94141
1191.463, 201.0391
1192.548, 36.98242
1193.632, 120.2012
1194.717, 54.01367
1195.801, 241.7031
1196.886, 46.28906
1197.970, 48.79297
1199.054, 4.773438
1200.137, 226.3906
1201.221, 3.166016
1202.305, 31.69727
1203.388, 267.8027
1204.471, 106.8496
1205.554, 31.58008
1206.637, 49.57031
1207.719, 18.57227
1208.802, 139.3086
1209.884, 205.2930
1210.966, 38.30273
1212.048, 3.492188
1213.130, 191.6855
1214.212, 24.93750
1215.293, 81.52734
1216.374, 68.86719
1217.456, 73.37891
1218.536, 93.69141
1219.617, 161.8281
1220.698, 154.8867
1221.778, 35.06641
1222.859, 99.93359
1223.939, 126.2930
1225.019, 208.9648
1226.099, 222.5078
1227.178, 91.17188
1228.258, 130.3984
1229.337, 9.539063
1230.417, 210.6055
1231.496, 7.429688
1232.574, 57.42188
1233.653, 35.64453
1234.732, 194.7852
1235.810, 386.0312
1236.888, 3.058594
1237.966, 504.7461
1239.044, 2.082031
1240.122, 61.67969
1241.199, 256.1055
1242.277, 69.44922
1243.354, 187.3086
1244.431, 307.1758
1245.508, 39.90625
1246.585, 329.4727
1247.661, 189.2070
1248.738, 237.3359
1249.814, 54.03125
1250.890, 276.7383
1251.966, 291.4375
1253.042, 203.6484
1254.117, 222.0781
1255.193, 195.2852
1256.268, 254.9609
1257.343, 386.2656
1258.418, 342.3477
1259.493, 394.2344
1260.567, 297.3359
1261.642, 615.2383
1262.716, 139.9023
1263.790, 371.2461
1264.864, 642.4766
1265.938, 453.6328
1267.011, 640.3203
1268.085, 511.2266
1269.158, 351.4414
1270.231, 479.0312
1271.304, 332.4805
1272.377, 580.1992
1273.450, 434.1484
1274.522, 279.1523
1275.594, 548.3281
1276.666, 392.8555
1277.738, 579.5039
1278.810, 727.6133
1279.882, 807.1289
1280.953, 824.1641
1282.025, 590.3750
1283.096, 680.8047
1284.167, 642.2539
1285.238, 597.5352
1286.308, 740.2422
1287.379, 543.5508
1288.449, 677.2695
1289.519, 685.2383
1290.589, 747.5547
1291.659, 682.4492
1292.729, 653.7695
1293.798, 757.3750
1294.868, 787.1055
1295.937, 703.8633
1297.006, 773.0312
1298.075, 571.4258
1299.143, 605.0781
1300.212, 739.7422
1301.280, 661.5234
1302.348, 729.1250
1303.416, 741.7617
1304.484, 501.5586
1305.552, 699.5234
1306.620, 707.8359
1307.687, 508.5273
1308.754, 384.9688
1309.821, 557.3320
