##NAMES=Scholzite
##RRUFFID=R050238
##IDEAL CHEMISTRY=CaZn^2+^_2_(PO_4_)_2_&#183;2H_2_O
##LOCALITY=near Blinman, South Australia, Australia
##OWNER=RRUFF
##SOURCE=Marcus Origlieri
##DESCRIPTION=Colorless bladed crystals
##STATUS=The identification of this mineral has been confirmed by X-ray diffraction and chemical analysis
##URL=rruff.info/R050238
##MEASURED CHEMISTRY=Ca_1.00_Zn_2.00_(P_1.00_O_4_)_2_Â·2H_2_O
##PIN_ID=M00305
##ORIENTATION=Laser parallel to b* (0 1 0). Fiducial mark perpendicular to laser is parallel to -b [0 -1 0]
100.8830, 0.0000000E+00
102.1160, 250.9580
103.3490, 232.9609
104.5820, 417.4873
105.8150, 355.1592
107.0470, 465.8555
108.2800, 318.8125
109.5120, 162.4121
110.7440, 4.170898
111.9760, 53.12207
113.2080, 202.4287
114.4400, 383.6270
115.6710, 728.0791
116.9030, 1115.134
118.1340, 1814.656
119.3650, 2389.394
120.5960, 2904.842
121.8270, 2938.461
123.0580, 2999.571
124.2880, 2378.717
125.5190, 2024.738
126.7490, 1443.414
127.9790, 1157.060
129.2090, 1216.240
130.4390, 1187.546
131.6680, 1529.253
132.8980, 2205.598
134.1270, 2941.791
135.3560, 3839.568
136.5850, 4732.162
137.8140, 5600.007
139.0430, 6453.966
140.2710, 6925.412
141.5000, 7106.160
142.7280, 6877.586
143.9560, 6362.910
145.1840, 5517.318
146.4120, 4478.976
147.6390, 3506.023
148.8670, 2737.591
150.0940, 2198.697
151.3210, 1767.552
152.5490, 1712.777
153.7750, 1829.483
155.0020, 1989.179
156.2290, 2298.721
157.4550, 2745.596
158.6810, 3285.027
159.9080, 3735.036
161.1340, 4098.638
162.3590, 4474.846
163.5850, 4491.670
164.8110, 4381.091
166.0360, 4056.219
167.2610, 3379.152
168.4860, 2967.610
169.7110, 2332.709
170.9360, 1783.742
172.1610, 1425.363
173.3850, 1284.205
174.6100, 1221.348
175.8340, 1051.150
177.0580, 1103.227
178.2820, 1076.699
179.5050, 1199.555
180.7290, 1277.444
181.9520, 1456.522
183.1760, 1688.777
184.3990, 1870.192
185.6220, 2114.752
186.8450, 2372.441
188.0670, 2560.245
189.2900, 2492.146
190.5120, 2628.129
191.7340, 2443.177
192.9560, 2243.280
194.1780, 1921.424
195.4000, 1691.597
196.6220, 1314.801
197.8430, 1022.042
199.0640, 646.3213
200.2860, 419.6270
201.5070, 216.9341
202.7270, 57.77246
203.9480, 52.45996
205.1690, 343.1055
206.3890, 271.6060
207.6090, 177.0576
208.8290, 91.53320
210.0490, 573.2080
211.2690, 1124.894
212.4890, 1845.511
213.7080, 2596.060
214.9280, 3538.526
216.1470, 4550.915
217.3660, 5610.194
218.5850, 6627.357
219.8030, 7211.398
221.0220, 7612.316
222.2400, 7615.107
223.4590, 7564.746
224.6770, 7801.157
225.8950, 5539.103
227.1120, 4594.301
228.3300, 3561.640
229.5480, 2844.313
230.7650, 2150.863
231.9820, 1608.786
233.1990, 1177.216
234.4160, 850.6621
235.6330, 567.8867
236.8490, 424.5894
238.0660, 321.0625
239.2820, 251.1021
240.4980, 93.99121
241.7140, 50.58447
242.9300, 80.76416
244.1460, 171.3354
245.3610, 131.2808
246.5770, 197.7070
247.7920, 266.5645
249.0070, 130.9688
250.2220, 120.1733
251.4370, 40.51172
252.6510, 23.46484
253.8660, 136.2744
255.0800, 318.9990
256.2940, 389.6870
257.5080, 679.2666
258.7220, 1102.868
259.9360, 1538.332
261.1490, 1638.692
262.3630, 1897.929
263.5760, 2382.028
264.7890, 2921.982
266.0020, 3307.786
267.2150, 3696.429
268.4270, 4099.904
269.6400, 4548.210
270.8520, 4893.346
272.0640, 5237.629
273.2760, 5535.085
274.4880, 5741.620
275.7000, 6017.916
276.9120, 6027.984
278.1230, 6346.836
279.3340, 6373.479
280.5450, 6427.924
281.7560, 6666.175
282.9670, 7008.228
284.1780, 7061.063
285.3880, 7289.667
286.5980, 7486.042
287.8090, 7597.199
289.0190, 7613.254
290.2290, 7690.820
291.4380, 7748.261
292.6480, 7757.823
293.8570, 7792.654
295.0670, 7806.178
296.2760, 7719.968
297.4850, 7658.228
298.6930, 7599.039
299.9020, 7531.520
301.1110, 7492.139
302.3190, 7410.755
303.5270, 7421.405
304.7350, 7266.170
305.9430, 7212.866
307.1510, 7151.562
308.3580, 6945.533
309.5660, 6660.556
310.7730, 6269.482
311.9800, 6057.498
313.1870, 5788.822
314.3940, 5089.339
315.6010, 4732.956
316.8070, 4324.845
318.0130, 3904.143
319.2200, 3668.827
320.4260, 3266.813
321.6310, 3031.817
322.8370, 2902.894
324.0430, 2746.233
325.2480, 2468.734
326.4540, 2470.024
327.6590, 2297.666
328.8640, 2231.911
330.0680, 2249.490
331.2730, 2245.366
332.4780, 2189.366
333.6820, 2195.790
334.8860, 2097.281
336.0900, 2175.483
337.2940, 2259.674
338.4980, 2251.470
339.7010, 2155.127
340.9050, 2133.811
342.1080, 2170.826
343.3110, 2141.317
344.5140, 2081.931
345.7170, 2044.379
346.9200, 1887.506
348.1220, 1686.445
349.3240, 1456.697
350.5270, 1359.686
351.7290, 1124.134
352.9310, 1162.486
354.1320, 890.5210
355.3340, 782.8027
356.5350, 608.3140
357.7370, 520.7412
358.9380, 437.0854
360.1390, 433.3438
361.3400, 417.5161
362.5400, 345.6035
363.7410, 415.6025
364.9410, 391.5171
366.1410, 236.3457
367.3410, 289.0830
368.5410, 310.7334
369.7410, 309.2969
370.9400, 421.7764
372.1400, 425.1787
373.3390, 410.5029
374.5380, 374.7383
375.7370, 535.8770
376.9360, 644.9199
378.1350, 661.8667
379.3330, 793.9248
380.5310, 799.3701
381.7300, 935.6772
382.9280, 1011.758
384.1260, 1032.741
385.3230, 1180.733
386.5210, 1339.015
387.7180, 1497.409
388.9160, 1723.590
390.1130, 1856.382
391.3100, 2220.493
392.5060, 2470.182
393.7030, 2745.260
394.9000, 3152.888
396.0960, 3718.387
397.2920, 4383.834
398.4880, 5116.491
399.6840, 5821.510
400.8800, 6824.268
402.0750, 8014.887
403.2710, 9031.147
404.4660, 10131.32
405.6610, 11322.41
406.8560, 12215.43
408.0510, 12606.36
409.2450, 12786.07
410.4400, 12665.93
411.6340, 12060.57
412.8280, 11100.12
414.0220, 9957.590
415.2160, 8758.962
416.4100, 7353.240
417.6030, 6135.431
418.7970, 5120.532
419.9900, 4206.543
421.1830, 3412.469
422.3760, 2897.305
423.5690, 2289.056
424.7610, 2162.721
425.9540, 1662.341
427.1460, 1439.796
428.3380, 1066.208
429.5300, 871.5371
430.7220, 762.7852
431.9140, 631.9521
433.1050, 458.0381
434.2970, 438.0391
435.4880, 360.9541
436.6790, 249.7812
437.8700, 278.5186
439.0610, 164.1665
440.2510, 216.7227
441.4420, 173.1909
442.6320, 66.57080
443.8220, 100.8628
445.0120, 66.07129
446.2020, 77.19336
447.3910, 15.76807
448.5810, 34.82764
449.7700, 9.004883
450.9600, 108.2500
452.1490, 143.6494
453.3370, 49.21094
454.5260, 18.88330
455.7150, 124.6509
456.9030, 14.56689
458.0910, 72.57373
459.2800, 97.69922
460.4670, 111.9551
461.6550, 63.34717
462.8430, 2.154297
464.0300, 37.42041
465.2180, 7.916992
466.4050, 37.81543
467.5920, 42.63330
468.7790, 17.53662
469.9650, 1.484375
471.1520, 44.56348
472.3380, 4.696289
473.5250, 76.10107
474.7110, 25.83643
475.8970, 142.5088
477.0820, 105.1226
478.2680, 152.6763
479.4540, 134.1719
480.6390, 206.6104
481.8240, 217.9937
483.0090, 190.3228
484.1940, 327.5967
485.3780, 372.8218
486.5630, 424.0000
487.7470, 537.1411
488.9320, 640.5156
490.1160, 769.3555
491.3000, 924.4961
492.4830, 1070.675
493.6670, 1243.969
494.8500, 1382.360
496.0340, 1528.823
497.2170, 1769.650
498.4000, 1843.007
499.5820, 2227.606
500.7650, 2240.811
501.9480, 2622.581
503.1300, 2828.307
504.3120, 3017.886
505.4940, 3255.849
506.6760, 3323.385
507.8580, 3473.706
509.0390, 3569.596
510.2210, 3546.034
511.4020, 3477.641
512.5830, 3445.222
513.7640, 3276.730
514.9450, 3186.239
516.1250, 3127.631
517.3060, 2933.714
518.4860, 2731.619
519.6660, 2561.958
520.8460, 2316.346
522.0260, 2279.271
523.2060, 2144.206
524.3850, 1955.710
525.5650, 1903.373
526.7440, 1845.027
527.9230, 1709.691
529.1020, 1681.396
530.2810, 1688.330
531.4590, 1736.924
532.6380, 1734.174
533.8160, 1891.173
534.9940, 2065.678
536.1720, 2295.010
537.3500, 2732.209
538.5270, 3135.105
539.7050, 3978.808
540.8820, 4607.990
542.0590, 5763.802
543.2360, 6951.312
544.4130, 8427.305
545.5900, 9880.451
546.7660, 11614.07
547.9430, 13281.71
549.1190, 14828.36
550.2950, 15873.72
551.4710, 16052.02
552.6470, 15432.36
553.8220, 14158.59
554.9980, 12455.68
556.1730, 10313.84
557.3480, 8506.920
558.5230, 6836.027
559.6980, 5393.077
560.8730, 4462.958
562.0470, 3552.866
563.2220, 2984.698
564.3960, 2469.509
565.5700, 2228.297
566.7440, 1826.062
567.9170, 1682.816
569.0910, 1564.565
570.2640, 1409.300
571.4380, 1275.047
572.6110, 1341.780
573.7840, 1044.405
574.9570, 1173.324
576.1290, 1162.166
577.3020, 1033.680
578.4740, 1077.742
579.6460, 1029.932
580.8180, 1075.656
581.9900, 1086.615
583.1620, 1145.405
584.3330, 1212.582
585.5040, 1103.072
586.6760, 1219.283
587.8470, 1191.599
589.0180, 1327.551
590.1880, 1340.472
591.3590, 1576.278
592.5290, 1546.732
593.7000, 1635.026
594.8700, 1653.314
596.0400, 1814.417
597.2090, 1803.119
598.3790, 1832.505
599.5490, 1841.647
600.7180, 1807.289
601.8870, 1852.130
603.0560, 1816.106
604.2250, 1616.225
605.3940, 1533.884
606.5620, 1325.133
607.7300, 1249.876
608.8990, 1139.434
610.0670, 1125.157
611.2350, 956.4531
612.4020, 943.0723
613.5700, 908.3022
614.7370, 766.1597
615.9050, 755.8179
617.0720, 758.9810
618.2390, 827.9980
619.4060, 772.2251
620.5720, 827.3862
621.7390, 790.8613
622.9050, 1029.396
624.0710, 988.8252
625.2370, 945.8418
626.4030, 1269.058
627.5690, 1291.502
628.7340, 1475.103
629.9000, 1570.865
631.0650, 1760.537
632.2300, 1871.118
633.3950, 1878.956
634.5600, 1868.632
635.7240, 1964.593
636.8890, 1878.391
638.0530, 1765.129
639.2170, 1756.910
640.3810, 1517.485
641.5450, 1446.183
642.7080, 1231.155
643.8720, 1152.318
645.0350, 951.2969
646.1980, 864.4404
647.3610, 632.1108
648.5240, 563.4287
649.6870, 518.1323
650.8490, 433.7031
652.0120, 438.3711
653.1740, 453.9526
654.3360, 390.0854
655.4980, 352.7227
656.6600, 293.4712
657.8210, 259.2368
658.9830, 170.9663
660.1440, 231.5996
661.3050, 215.3354
662.4660, 216.0215
663.6270, 161.8906
664.7870, 107.6240
665.9480, 102.3433
667.1080, 137.1440
668.2680, 161.6870
669.4280, 45.22168
670.5880, 17.25537
671.7480, 3.452637
672.9070, 54.05420
674.0670, 2.413574
675.2260, 38.20752
676.3850, 25.23145
677.5440, 68.39648
678.7030, 85.02051
679.8610, 21.68750
681.0200, 40.37549
682.1780, 21.02393
683.3360, 69.70654
684.4940, 50.35107
685.6520, 84.15039
686.8090, 105.1245
687.9670, 8.020508
689.1240, 15.43262
690.2810, 23.90430
691.4380, 5.248535
692.5950, 31.69189
693.7520, 59.25488
694.9080, 34.37012
696.0650, 46.41699
697.2210, 33.40234
698.3770, 40.27686
699.5330, 123.1699
700.6880, 64.11475
701.8440, 164.4229
702.9990, 191.2515
704.1550, 169.3877
705.3100, 233.4941
706.4650, 174.3721
707.6190, 223.1675
708.7740, 252.0576
709.9290, 249.6089
711.0830, 231.3208
712.2370, 310.9810
713.3910, 307.1338
714.5450, 402.5122
715.6980, 439.3994
716.8520, 359.3984
718.0050, 438.5767
719.1580, 414.1357
720.3110, 508.0757
721.4640, 587.5283
722.6170, 586.9238
723.7700, 633.4346
724.9220, 535.4028
726.0740, 636.3638
727.2260, 560.5327
728.3780, 548.9385
729.5300, 556.2656
730.6810, 561.8647
731.8330, 531.3369
732.9840, 494.5244
734.1350, 509.5659
735.2860, 539.3936
736.4370, 456.3701
737.5880, 521.9971
738.7380, 469.8428
739.8880, 423.6387
741.0390, 531.5508
742.1890, 339.6543
743.3380, 321.5703
744.4880, 308.5571
745.6380, 440.4961
746.7870, 426.1338
747.9360, 420.8999
749.0850, 252.7178
750.2340, 320.5259
751.3830, 318.9351
752.5310, 281.7314
753.6800, 330.7070
754.8280, 237.2764
755.9760, 300.0322
757.1240, 211.7734
758.2720, 211.5000
759.4190, 297.2114
760.5670, 296.9067
761.7140, 212.5850
762.8610, 220.2471
764.0080, 234.8911
765.1550, 257.5142
766.3020, 231.1177
767.4480, 128.6992
768.5950, 148.2583
769.7410, 200.7949
770.8870, 104.3101
772.0330, 140.8022
773.1780, 70.27148
774.3240, 106.7168
775.4690, 119.1377
776.6140, 107.5356
777.7590, 155.9097
778.9040, 25.26270
780.0490, 60.58203
781.1940, 41.87598
782.3380, 59.14307
783.4820, 43.38379
784.6260, 133.5972
785.7700, 87.78760
786.9140, 43.95361
788.0580, 178.0923
789.2010, 138.2085
790.3450, 162.3018
791.4880, 86.37354
792.6310, 87.42090
793.7730, 119.4429
794.9160, 115.4414
796.0590, 123.4175
797.2010, 145.3691
798.3430, 119.4727
799.4850, 129.6240
800.6270, 84.08789
801.7690, 113.9468
802.9100, 114.7817
804.0520, 92.59277
805.1930, 152.3804
806.3340, 184.1450
807.4750, 194.7104
808.6160, 100.6670
809.7560, 179.0083
810.8970, 103.6572
812.0370, 103.8765
813.1770, 114.3101
814.3170, 50.91504
815.4570, 150.8389
816.5960, 219.9731
817.7360, 164.6104
818.8750, 106.5869
820.0140, 160.8291
821.1530, 100.5483
822.2920, 183.0625
823.4310, 22.05811
824.5690, 123.9775
825.7070, 36.83447
826.8460, 56.93311
827.9840, 33.04834
829.1220, 9.936523
830.2590, 28.14307
831.3970, 90.31445
832.5340, 102.3647
833.6710, 119.4482
834.8080, 141.8135
835.9450, 1.512695
837.0820, 153.6294
838.2190, 33.69922
839.3550, 15.80078
840.4910, 51.87549
841.6270, 54.93018
842.7630, 21.03418
843.8990, 36.04492
845.0350, 6.107910
846.1700, 99.20898
847.3060, 1.395996
848.4410, 51.61719
849.5760, 75.89844
850.7100, 16.25342
851.8450, 69.35107
852.9800, 43.06250
854.1140, 14.53174
855.2480, 37.04004
856.3820, 43.59912
857.5160, 36.38086
858.6500, 67.87695
859.7830, 36.60742
860.9170, 24.61328
862.0500, 29.81348
863.1830, 18.99512
864.3160, 54.84424
865.4480, 13.25879
866.5810, 122.6602
867.7130, 8.672852
868.8460, 20.71729
869.9780, 34.80029
871.1100, 47.92920
872.2410, 50.51025
873.3730, 109.3433
874.5050, 33.66064
875.6360, 97.02100
876.7670, 51.45801
877.8980, 22.94629
879.0290, 35.52881
880.1590, 18.98779
881.2900, 22.56982
882.4200, 35.16211
883.5500, 85.79541
884.6800, 45.50391
885.8100, 172.7900
886.9400, 66.93848
888.0690, 43.27832
889.1990, 6.481445
890.3280, 6.332520
891.4570, 37.83105
892.5860, 93.98242
893.7140, 124.1211
894.8430, 177.4438
895.9710, 230.3628
897.1000, 276.4653
898.2280, 279.5562
899.3560, 334.6353
900.4830, 350.7036
901.6110, 461.0205
902.7380, 614.8066
903.8660, 705.6748
904.9930, 860.6167
906.1200, 995.4155
907.2460, 1132.371
908.3730, 1377.256
909.5000, 1666.839
910.6260, 1911.565
911.7520, 2494.337
912.8780, 2850.052
914.0040, 3576.965
915.1290, 4756.746
916.2550, 5458.246
917.3800, 6648.550
918.5050, 7755.031
919.6300, 8889.347
920.7550, 9801.130
921.8800, 10708.72
923.0040, 11152.01
924.1290, 11210.89
925.2530, 10862.68
926.3770, 10401.55
927.5010, 9682.112
928.6250, 8740.677
929.7480, 7948.369
930.8720, 6820.044
931.9950, 6119.749
933.1180, 5354.544
934.2410, 4860.231
935.3640, 4280.955
936.4860, 3822.489
937.6090, 3448.148
938.7310, 3251.809
939.8530, 2998.376
940.9750, 2633.189
942.0970, 2602.000
943.2180, 2440.808
944.3400, 2421.418
945.4610, 2177.230
946.5820, 1952.872
947.7030, 1900.519
948.8240, 1835.219
949.9450, 1732.627
951.0650, 1588.477
952.1860, 1574.342
953.3060, 1389.210
954.4260, 1446.971
955.5460, 1361.847
956.6650, 1316.611
957.7850, 1279.512
958.9040, 1286.229
960.0230, 1363.500
961.1420, 1360.076
962.2610, 1447.765
963.3800, 1517.281
964.4990, 1546.830
965.6170, 1588.251
966.7350, 1746.108
967.8530, 1828.024
968.9710, 1958.010
970.0890, 2131.000
971.2070, 2344.155
972.3240, 2506.152
973.4410, 2734.779
974.5580, 3031.896
975.6750, 3342.695
976.7920, 3638.517
977.9090, 4092.560
979.0250, 4674.690
980.1410, 5419.716
981.2580, 6076.921
982.3740, 7420.281
983.4890, 8874.528
984.6050, 10507.28
985.7200, 12618.82
986.8360, 15080.85
987.9510, 17566.76
989.0660, 20571.50
990.1810, 23750.95
991.2950, 27727.83
992.4100, 31046.30
993.5240, 35243.86
994.6390, 39724.41
995.7530, 43492.30
996.8660, 47454.34
997.9800, 50764.18
999.0940, 52960.79
1000.207, 54137.52
1001.320, 53559.98
1002.433, 51424.62
1003.546, 47222.60
1004.659, 42415.77
1005.772, 36629.16
1006.884, 30903.46
1007.996, 25168.12
1009.108, 20481.60
1010.220, 16555.15
1011.332, 13141.63
1012.444, 10592.94
1013.555, 8859.459
1014.666, 7291.917
1015.777, 6215.433
1016.888, 5368.272
1017.999, 4966.009
1019.110, 4682.707
1020.220, 4474.422
1021.331, 4296.579
1022.441, 4299.373
1023.551, 4195.018
1024.661, 4088.104
1025.770, 3624.034
1026.880, 3187.986
1027.989, 2920.963
1029.098, 2466.959
1030.207, 2280.978
1031.316, 2010.017
1032.425, 1693.082
1033.533, 1588.168
1034.642, 1514.276
1035.750, 1459.405
1036.858, 1286.556
1037.966, 1248.729
1039.073, 1234.925
1040.181, 1255.142
1041.288, 1123.388
1042.396, 1019.655
1043.503, 1015.947
1044.610, 1138.262
1045.716, 1065.600
1046.823, 1169.961
1047.929, 1099.346
1049.036, 1202.498
1050.142, 1433.196
1051.248, 1292.658
1052.353, 1416.146
1053.459, 1239.958
1054.564, 1412.195
1055.670, 1491.756
1056.775, 1485.344
1057.880, 1159.954
1058.985, 1074.588
1060.089, 881.2461
1061.194, 793.9282
1062.298, 729.6353
1063.402, 729.3662
1064.506, 639.1221
1065.610, 384.9019
1066.713, 478.7056
1067.817, 311.5332
1068.920, 398.3857
1070.023, 436.2632
1071.126, 273.1650
1072.229, 412.0923
1073.332, 369.0439
1074.435, 355.0205
1075.537, 270.0205
1076.639, 402.4004
1077.741, 277.4502
1078.843, 374.5371
1079.945, 315.6357
1081.046, 256.2524
1082.148, 418.4004
1083.249, 460.1934
1084.350, 352.3921
1085.451, 521.6143
1086.551, 573.8604
1087.652, 559.1309
1088.752, 536.4253
1089.853, 564.1226
1090.953, 562.2051
1092.053, 509.9150
1093.152, 570.3208
1094.252, 511.7417
1095.351, 456.1870
1096.451, 446.6587
1097.550, 407.1641
1098.649, 405.2310
1099.748, 368.7896
1100.846, 379.9116
1101.945, 366.5186
1103.043, 413.1479
1104.141, 306.8101
1105.239, 362.0532
1106.337, 390.6602
1107.434, 476.4038
1108.532, 476.1714
1109.629, 571.5815
1110.726, 649.5059
1111.823, 748.3779
1112.920, 920.7598
1114.017, 1027.951
1115.113, 1060.949
1116.210, 1104.474
1117.306, 980.5215
1118.402, 1132.924
1119.498, 843.0737
1120.593, 730.2637
1121.689, 595.4878
1122.784, 581.7520
1123.879, 309.8936
1124.974, 369.1753
1126.069, 199.5674
1127.164, 363.2144
1128.259, 152.7090
1129.353, 223.1851
1130.447, 154.6021
1131.541, 223.3271
1132.635, 231.8931
1133.729, 171.3765
1134.822, 179.0312
1135.916, 168.0889
1137.009, 195.8096
1138.102, 232.4727
1139.195, 144.1953
1140.288, 87.34229
1141.380, 117.2236
1142.473, 155.8408
1143.565, 150.5166
1144.657, 178.3208
1145.749, 201.8540
1146.841, 221.8892
1147.932, 264.9927
1149.024, 327.0854
1150.115, 432.2217
1151.206, 563.4331
1152.297, 724.2324
1153.388, 915.0889
1154.479, 984.6001
1155.569, 1236.923
1156.659, 1356.927
1157.750, 1715.536
1158.839, 1976.539
1159.929, 2248.858
1161.019, 2595.253
1162.108, 3130.664
1163.198, 3826.071
1164.287, 4757.528
1165.376, 5838.837
1166.465, 7144.240
1167.553, 8674.837
1168.642, 10289.27
1169.730, 11708.71
1170.818, 13026.17
1171.906, 13504.75
1172.994, 12976.24
1174.082, 11625.75
1175.170, 9892.258
1176.257, 8077.784
1177.344, 6397.322
1178.431, 4978.877
1179.518, 3812.438
1180.605, 3082.009
1181.691, 2353.590
1182.778, 2114.184
1183.864, 1481.787
1184.950, 1293.400
1186.036, 1188.023
1187.122, 1045.657
1188.207, 892.2686
1189.292, 633.9531
1190.378, 639.6157
1191.463, 470.2871
1192.548, 423.9683
1193.632, 454.6577
1194.717, 204.3550
1195.801, 290.0610
1196.886, 256.7759
1197.970, 227.4985
1199.054, 202.2290
1200.137, 219.9668
1201.221, 105.7124
1202.305, 117.4653
1203.388, 53.22510
1204.471, 84.07227
1205.554, 17.84570
1206.637, 20.37402
1207.719, 94.40820
1208.802, 1.196777
1209.884, 55.99170
1210.966, 50.20801
1212.048, 9.583008
1213.130, 51.61963
1214.212, 126.1665
1215.293, 142.9580
1216.374, 57.75391
1217.456, 15.55469
1218.536, 13.16406
1219.617, 17.19824
1220.698, 3.871582
1221.778, 2.939941
1222.859, 1.800781
1223.939, 53.61865
1225.019, 15.43994
1226.099, 139.2642
1227.178, 18.63770
1228.258, 8.185547
1229.337, 101.1318
1230.417, 90.04004
1231.496, 38.97656
1232.574, 101.7700
1233.653, 29.56494
1234.732, 15.42676
1235.810, 74.63428
1236.888, 31.13770
1237.966, 54.90674
1239.044, 8.324219
1240.122, 46.55811
1241.199, 39.91211
1242.277, 9.530273
1243.354, 41.23926
1244.431, 57.47559
1245.508, 7.811035
1246.585, 50.10400
1247.661, 2.324707
1248.738, 166.3647
1249.814, 45.15625
1250.890, 22.82373
1251.966, 133.6274
1253.042, 9.710938
1254.117, 75.31494
1255.193, 32.28809
1256.268, 62.11279
1257.343, 42.55469
1258.418, 135.1602
1259.493, 38.86865
1260.567, 7.622070
1261.642, 28.20117
1262.716, 83.32080
1263.790, 36.60693
1264.864, 73.97705
1265.938, 44.38721
1267.011, 17.25439
1268.085, 0.9208980
1269.158, 11.39697
1270.231, 49.81445
1271.304, 10.83301
1272.377, 118.8911
1273.450, 31.23389
1274.522, 25.56104
1275.594, 39.81592
1276.666, 6.2987998E-02
1277.738, 8.541992
1278.810, 40.65967
1279.882, 30.20508
