##NAMES=Scholzite
##RRUFFID=R050238
##IDEAL CHEMISTRY=CaZn^2+^_2_(PO_4_)_2_&#183;2H_2_O
##LOCALITY=near Blinman, South Australia, Australia
##OWNER=RRUFF
##SOURCE=Marcus Origlieri
##DESCRIPTION=Colorless bladed crystals
##STATUS=The identification of this mineral has been confirmed by X-ray diffraction and chemical analysis
##URL=rruff.info/R050238
##MEASURED CHEMISTRY=Ca_1.00_Zn_2.00_(P_1.00_O_4_)_2_Â·2H_2_O
##PIN_ID=M00184
##ORIENTATION=Laser parallel to -a* (-1 0 0). Fiducial mark perpendicular to laser is parallel to -b [0 -1 0]
135.3560, 0.0000000E+00
136.5850, 95.84229
137.8140, 155.7568
139.0430, 320.6904
140.2710, 142.3052
141.5000, 142.2026
142.7280, 202.3569
143.9560, 163.7974
145.1840, 102.4487
146.4120, 138.7227
147.6390, 32.51758
148.8670, 7.311523
150.0940, 93.71533
151.3210, 213.2725
152.5490, 308.1802
153.7750, 297.3823
155.0020, 427.6953
156.2290, 453.4658
157.4550, 488.9082
158.6810, 678.5454
159.9080, 1146.816
161.1340, 1449.144
162.3590, 2061.050
163.5850, 2474.854
164.8110, 2997.347
166.0360, 3036.635
167.2610, 2909.862
168.4860, 2562.154
169.7110, 2505.611
170.9360, 2224.555
172.1610, 2020.029
173.3850, 1789.974
174.6100, 1570.423
175.8340, 1405.467
177.0580, 1369.936
178.2820, 1197.333
179.5050, 1237.866
180.7290, 1247.533
181.9520, 1236.338
183.1760, 1118.277
184.3990, 1118.347
185.6220, 1092.889
186.8450, 1127.181
188.0670, 1080.163
189.2900, 998.6123
190.5120, 1009.569
191.7340, 985.0068
192.9560, 921.7754
194.1780, 882.2832
195.4000, 914.8379
196.6220, 971.4351
197.8430, 1021.073
199.0640, 940.7471
200.2860, 1214.453
201.5070, 1421.187
202.7270, 1242.947
203.9480, 854.7310
205.1690, 171.5361
206.3890, 25.63770
207.6090, 158.7939
208.8290, 289.9146
210.0490, 138.9326
211.2690, 110.8428
212.4890, 38.35254
213.7080, 67.64795
214.9280, 31.96338
216.1470, 244.5103
217.3660, 247.0654
218.5850, 478.7100
219.8030, 696.4736
221.0220, 901.3828
222.2400, 1109.495
223.4590, 1331.733
224.6770, 1438.050
225.8950, 1421.436
227.1120, 1172.941
228.3300, 967.5586
229.5480, 809.1987
230.7650, 671.9019
231.9820, 453.6499
233.1990, 356.4497
234.4160, 295.3755
235.6330, 263.3989
236.8490, 178.4746
238.0660, 237.5400
239.2820, 159.6279
240.4980, 207.6021
241.7140, 72.01270
242.9300, 150.3667
244.1460, 106.0669
245.3610, 108.4800
246.5770, 320.7109
247.7920, 133.8105
249.0070, 259.6538
250.2220, 426.4814
251.4370, 512.2959
252.6510, 539.0977
253.8660, 817.8862
255.0800, 621.6626
256.2940, 1026.425
257.5080, 1556.174
258.7220, 1489.832
259.9360, 2268.625
261.1490, 1725.318
262.3630, 1764.976
263.5760, 1863.601
264.7890, 2292.202
266.0020, 2479.687
267.2150, 2961.355
268.4270, 3145.912
269.6400, 3404.454
270.8520, 3698.982
272.0640, 3731.497
273.2760, 3787.998
274.4880, 3903.485
275.7000, 3695.958
276.9120, 3648.418
278.1230, 3592.863
279.3340, 3439.866
280.5450, 3376.784
281.7560, 3233.758
282.9670, 3157.102
284.1780, 3108.597
285.3880, 2961.170
286.5980, 3026.783
287.8090, 2907.405
289.0190, 2732.010
290.2290, 2673.591
291.4380, 2532.134
292.6480, 2395.623
293.8570, 2187.050
295.0670, 2100.355
296.2760, 1933.653
297.4850, 1760.899
298.6930, 1612.499
299.9020, 1562.082
301.1110, 1453.081
302.3190, 1324.800
303.5270, 1105.523
304.7350, 1212.177
305.9430, 1274.306
307.1510, 1100.602
308.3580, 1119.808
309.5660, 1051.744
310.7730, 1131.070
311.9800, 1062.288
313.1870, 1064.842
314.3940, 972.6401
315.6010, 998.7461
316.8070, 856.7808
318.0130, 925.6396
319.2200, 944.9512
320.4260, 982.6157
321.6310, 1035.741
322.8370, 940.1050
324.0430, 956.2744
325.2480, 942.4121
326.4540, 1026.086
327.6590, 968.0752
328.8640, 967.7666
330.0680, 928.2266
331.2730, 934.4297
332.4780, 799.1343
333.6820, 808.2568
334.8860, 804.1299
336.0900, 697.7690
337.2940, 700.3374
338.4980, 646.5605
339.7010, 541.9204
340.9050, 517.0342
342.1080, 497.2319
343.3110, 467.1743
344.5140, 410.8999
345.7170, 397.2686
346.9200, 281.6646
348.1220, 326.0518
349.3240, 310.4307
350.5270, 346.0522
351.7290, 203.7437
352.9310, 265.8467
354.1320, 209.8716
355.3340, 189.4561
356.5350, 189.7407
357.7370, 264.9878
358.9380, 277.1963
360.1390, 307.8398
361.3400, 309.6260
362.5400, 380.6748
363.7410, 353.9370
364.9410, 411.1880
366.1410, 392.4272
367.3410, 481.6533
368.5410, 448.8667
369.7410, 492.0659
370.9400, 495.2515
372.1400, 571.4219
373.3390, 588.5767
374.5380, 658.7173
375.7370, 734.8418
376.9360, 849.9507
378.1350, 870.5664
379.3330, 935.0864
380.5310, 954.0576
381.7300, 1039.625
382.9280, 1136.421
384.1260, 1263.837
385.3230, 1412.475
386.5210, 1512.875
387.7180, 1776.167
388.9160, 1783.033
390.1130, 2011.919
391.3100, 2193.813
392.5060, 2469.921
393.7030, 2560.668
394.9000, 3051.524
396.0960, 3463.370
397.2920, 3802.203
398.4880, 4441.023
399.6840, 5044.833
400.8800, 5635.632
402.0750, 6563.419
403.2710, 7552.194
404.4660, 8449.959
405.6610, 9677.709
406.8560, 11092.45
408.0510, 12616.18
409.2450, 13485.89
410.4400, 13844.60
411.6340, 14239.29
412.8280, 13542.98
414.0220, 12422.65
415.2160, 10855.32
416.4100, 9339.972
417.6030, 7730.613
418.7970, 6253.243
419.9900, 5083.863
421.1830, 4219.472
422.3760, 3345.069
423.5690, 2851.655
424.7610, 2307.232
425.9540, 1932.787
427.1460, 1564.500
428.3380, 1363.829
429.5300, 1043.313
430.7220, 871.7754
431.9140, 791.2124
433.1050, 546.6250
434.2970, 580.0137
435.4880, 483.3774
436.6790, 429.7178
437.8700, 403.0342
439.0610, 289.3276
440.2510, 238.5840
441.4420, 138.8423
442.6320, 121.0620
443.8220, 30.25342
445.0120, 48.41406
446.2020, 52.45508
447.3910, 30.60986
448.5810, 62.35547
449.7700, 98.39160
450.9600, 53.48438
452.1490, 63.66699
453.3370, 22.11035
454.5260, 26.85938
455.7150, 45.41992
456.9030, 63.24023
458.0910, 19.87598
459.2800, 58.51660
460.4670, 50.97461
461.6550, 65.49023
462.8430, 25.06934
464.0300, 2.688477
465.2180, 43.66309
466.4050, 36.00586
467.5920, 67.72168
468.7790, 7.500000
469.9650, 34.30078
471.1520, 6.855469
472.3380, 91.01172
473.5250, 70.95215
474.7110, 79.57715
475.8970, 71.02637
477.0820, 36.16016
478.2680, 49.33594
479.4540, 17.07617
480.6390, 33.17676
481.8240, 14.89844
483.0090, 43.59961
484.1940, 30.28613
485.3780, 78.95215
486.5630, 127.6025
487.7470, 4.236328
488.9320, 254.8496
490.1160, 333.1436
491.3000, 695.6201
492.4830, 254.0186
493.6670, 125.5605
494.8500, 322.5547
496.0340, 142.9199
497.2170, 225.2256
498.4000, 223.5693
499.5820, 297.9971
500.7650, 366.7529
501.9480, 287.5723
503.1300, 350.4385
504.3120, 427.2920
505.4940, 415.8447
506.6760, 501.9883
507.8580, 459.8203
509.0390, 600.6455
510.2210, 590.4580
511.4020, 634.2617
512.5830, 882.0527
513.7640, 817.8311
514.9450, 676.6172
516.1250, 887.3916
517.3060, 970.1738
518.4860, 980.9531
519.6660, 967.7207
520.8460, 923.4795
522.0260, 1093.250
523.2060, 1111.034
524.3850, 1068.807
525.5650, 1208.569
526.7440, 1384.321
527.9230, 1277.083
529.1020, 1441.875
530.2810, 1400.658
531.4590, 1568.435
532.6380, 1745.202
533.8160, 1924.979
534.9940, 2023.762
536.1720, 2365.539
537.3500, 2870.319
538.5270, 3205.255
539.7050, 3979.013
540.8820, 4880.765
542.0590, 5868.859
543.2360, 7220.600
544.4130, 8885.340
545.5900, 11059.07
546.7660, 13473.68
547.9430, 16150.54
549.1190, 19403.32
550.2950, 23055.05
551.4710, 26787.80
552.6470, 29153.67
553.8220, 29097.50
554.9980, 25899.60
556.1730, 21482.31
557.3480, 16748.03
558.5230, 13223.76
559.6980, 10165.49
560.8730, 8092.211
562.0470, 6563.915
563.2220, 5353.609
564.3960, 4394.288
565.5700, 3667.956
566.7440, 3105.611
567.9170, 2680.253
569.0910, 2500.885
570.2640, 1942.506
571.4380, 1863.112
572.6110, 1662.707
573.7840, 1586.289
574.9570, 1339.858
576.1290, 1378.415
577.3020, 1286.958
578.4740, 1094.489
579.6460, 1171.008
580.8180, 1241.514
581.9900, 1248.996
583.1620, 1346.051
584.3330, 1419.021
585.5040, 1349.437
586.6760, 1515.996
587.8470, 1609.432
589.0180, 1575.829
590.1880, 1832.650
591.3590, 1793.218
592.5290, 2058.789
593.7000, 2045.551
594.8700, 2194.848
596.0400, 2367.185
597.2090, 2525.119
598.3790, 2668.749
599.5490, 2727.534
600.7180, 2764.220
601.8870, 2752.795
603.0560, 2689.532
604.2250, 2614.824
605.3940, 2473.537
606.5620, 2453.003
607.7300, 2270.684
608.8990, 2068.391
610.0670, 1922.553
611.2350, 1872.647
612.4020, 1810.845
613.5700, 1614.437
614.7370, 1423.068
615.9050, 1482.257
617.0720, 1402.163
618.2390, 1382.339
619.4060, 1322.312
620.5720, 1416.414
621.7390, 1274.126
622.9050, 1346.531
624.0710, 1575.779
625.2370, 1492.375
626.4030, 1711.072
627.5690, 1422.985
628.7340, 1388.328
629.9000, 1476.533
631.0650, 1419.964
632.2300, 1312.157
633.3950, 1364.372
634.5600, 1279.580
635.7240, 1156.051
636.8890, 1195.192
638.0530, 1015.847
639.2170, 999.0098
640.3810, 955.5215
641.5450, 885.6172
642.7080, 824.7588
643.8720, 773.8926
645.0350, 809.5752
646.1980, 863.9170
647.3610, 765.4395
648.5240, 756.8594
649.6870, 607.9287
650.8490, 633.7051
652.0120, 564.7783
653.1740, 525.8564
654.3360, 511.4746
655.4980, 460.7217
656.6600, 359.4561
657.8210, 355.6777
658.9830, 400.7275
660.1440, 276.5068
661.3050, 248.8027
662.4660, 299.7891
663.6270, 230.7695
664.7870, 183.7588
665.9480, 395.9199
667.1080, 296.5459
668.2680, 269.5039
669.4280, 89.55273
670.5880, 178.5713
671.7480, 154.6064
672.9070, 139.3418
674.0670, 136.2080
675.2260, 104.8340
676.3850, 177.9180
677.5440, 44.93555
678.7030, 208.9619
679.8610, 117.2227
681.0200, 2.955078
682.1780, 133.7832
683.3360, 119.5625
684.4940, 140.0791
685.6520, 129.7139
686.8090, 183.6260
687.9670, 80.36035
689.1240, 166.0771
690.2810, 173.6367
691.4380, 68.33008
692.5950, 77.00977
693.7520, 5.815430
694.9080, 134.5684
696.0650, 172.7295
697.2210, 137.5703
698.3770, 114.5059
699.5330, 144.1387
700.6880, 249.7168
701.8440, 353.3857
702.9990, 286.9355
704.1550, 198.4717
705.3100, 370.9932
706.4650, 337.5000
707.6190, 350.6992
708.7740, 288.1797
709.9290, 329.6445
711.0830, 336.0957
712.2370, 360.5322
713.3910, 375.9561
714.5450, 442.3652
715.6980, 486.7607
716.8520, 465.1426
718.0050, 561.5098
719.1580, 473.8643
720.3110, 470.2031
721.4640, 459.5303
722.6170, 359.8447
723.7700, 506.1475
724.9220, 505.4414
726.0740, 393.7256
727.2260, 377.0166
728.3780, 434.3008
729.5300, 377.5947
730.6810, 579.9102
731.8330, 354.2148
732.9840, 267.5312
734.1350, 258.8389
735.2860, 405.1377
736.4370, 294.4443
737.5880, 345.7393
738.7380, 363.0254
739.8880, 291.8633
741.0390, 161.1680
742.1890, 199.1943
743.3380, 279.5107
744.4880, 341.8213
745.6380, 268.7969
746.7870, 232.1016
747.9360, 158.4346
749.0850, 44.76953
750.2340, 279.9775
751.3830, 45.37891
752.5310, 193.6924
753.6800, 83.01758
754.8280, 44.35352
755.9760, 63.69824
757.1240, 179.0449
758.2720, 190.3955
759.4190, 39.74414
760.5670, 77.07812
761.7140, 9.403320
762.8610, 63.70898
764.0080, 203.0029
765.1550, 93.28613
766.3020, 72.55762
767.4480, 172.8184
768.5950, 6.4452998E-02
769.7410, 178.2852
770.8870, 87.49219
772.0330, 1.313477
773.1780, 22.85352
774.3240, 50.00586
775.4690, 67.85547
776.6140, 106.2207
777.7590, 18.28320
778.9040, 11.67090
780.0490, 174.3418
781.1940, 109.3428
782.3380, 21.67090
783.4820, 33.28027
784.6260, 15.21484
785.7700, 0.6015630
786.9140, 47.02441
788.0580, 7.902344
789.2010, 102.7598
790.3450, 79.60352
791.4880, 54.56348
792.6310, 33.21484
793.7730, 57.02051
794.9160, 17.31055
796.0590, 71.36816
797.2010, 5.033203
798.3430, 67.32227
799.4850, 78.73535
800.6270, 103.7871
801.7690, 69.29590
802.9100, 24.79492
804.0520, 58.71973
805.1930, 112.2861
806.3340, 41.06543
807.4750, 44.40625
808.6160, 36.73438
809.7560, 62.94824
810.8970, 33.68555
812.0370, 14.46094
813.1770, 38.26270
814.3170, 20.89551
815.4570, 14.87891
816.5960, 10.98535
817.7360, 2.873047
818.8750, 5.130859
820.0140, 37.05957
821.1530, 1.024414
822.2920, 36.00586
823.4310, 57.02344
824.5690, 52.91211
825.7070, 71.20898
826.8460, 85.33301
827.9840, 165.4844
829.1220, 121.1562
830.2590, 8.859375
831.3970, 27.74316
832.5340, 50.92871
833.6710, 126.2539
834.8080, 16.60742
835.9450, 25.01855
837.0820, 147.6377
838.2190, 6.251953
839.3550, 54.85547
840.4910, 124.4551
841.6270, 43.04785
842.7630, 150.6348
843.8990, 9.784180
845.0350, 195.7832
846.1700, 97.34570
847.3060, 61.90137
848.4410, 52.45410
849.5760, 74.00293
850.7100, 135.5459
851.8450, 142.6934
852.9800, 160.6172
854.1140, 181.1465
855.2480, 145.6729
856.3820, 111.1934
857.5160, 267.7119
858.6500, 178.2266
859.7830, 204.7363
860.9170, 447.2432
862.0500, 460.7471
863.1830, 326.2480
864.3160, 154.7441
865.4480, 46.23926
866.5810, 33.72949
867.7130, 56.21777
868.8460, 121.7031
869.9780, 64.18652
871.1100, 52.66602
872.2410, 119.1514
873.3730, 8.631836
874.5050, 72.11035
875.6360, 19.41211
876.7670, 13.05664
877.8980, 24.47754
879.0290, 70.97852
880.1590, 7.431641
881.2900, 128.1162
882.4200, 51.27344
883.5500, 1.661133
884.6800, 103.9512
885.8100, 69.84375
886.9400, 5.533203
888.0690, 75.53613
889.1990, 31.84180
890.3280, 185.0703
891.4570, 64.13770
892.5860, 48.28711
893.7140, 86.58691
894.8430, 166.8867
895.9710, 145.9385
897.1000, 169.6875
898.2280, 174.7451
899.3560, 184.9004
900.4830, 193.1963
901.6110, 265.4785
902.7380, 380.6768
903.8660, 387.9707
904.9930, 434.0332
906.1200, 441.3281
907.2460, 660.5986
908.3730, 869.5801
909.5000, 967.5840
910.6260, 1093.707
911.7520, 1239.521
912.8780, 1347.822
914.0040, 1740.770
915.1290, 1947.129
916.2550, 2466.435
917.3800, 3133.744
918.5050, 3722.500
919.6300, 4370.590
920.7550, 5158.494
921.8800, 5780.676
923.0040, 6297.852
924.1290, 6557.497
925.2530, 6597.840
926.3770, 6257.178
927.5010, 5967.990
928.6250, 5478.169
929.7480, 4837.893
930.8720, 4370.124
931.9950, 3865.524
933.1180, 3417.596
934.2410, 2947.376
935.3640, 2697.850
936.4860, 2362.327
937.6090, 2220.841
938.7310, 1989.178
939.8530, 1891.050
940.9750, 1648.604
942.0970, 1594.067
943.2180, 1622.574
944.3400, 1331.062
945.4610, 1259.871
946.5820, 1184.590
947.7030, 1236.579
948.8240, 1211.109
949.9450, 1164.283
951.0650, 1191.289
952.1860, 1107.638
953.3060, 1065.514
954.4260, 1114.318
955.5460, 1044.176
956.6650, 1021.316
957.7850, 1021.340
958.9040, 1193.102
960.0230, 1050.075
961.1420, 1129.100
962.2610, 1324.282
963.3800, 1206.342
964.4990, 1378.413
965.6170, 1442.358
966.7350, 1521.353
967.8530, 1565.941
968.9710, 1773.851
970.0890, 1909.688
971.2070, 2112.828
972.3240, 2151.028
973.4410, 2458.146
974.5580, 2635.383
975.6750, 2910.649
976.7920, 3292.930
977.9090, 3679.230
979.0250, 3967.840
980.1410, 4574.172
981.2580, 5136.521
982.3740, 6142.881
983.4890, 7216.258
984.6050, 8305.657
985.7200, 10077.07
986.8360, 11783.50
987.9510, 14320.95
989.0660, 16967.40
990.1810, 19783.88
991.2950, 22820.38
992.4100, 26099.88
993.5240, 29520.40
994.6390, 33144.95
995.7530, 37061.50
996.8660, 40921.06
997.9800, 44782.65
999.0940, 48075.26
1000.207, 50476.86
1001.320, 51470.50
1002.433, 51047.16
1003.546, 48308.81
1004.659, 43584.50
1005.772, 37633.53
1006.884, 31724.25
1007.996, 26214.97
1009.108, 20988.72
1010.220, 16675.93
1011.332, 13512.71
1012.444, 10825.78
1013.555, 8731.589
1014.666, 7153.408
1015.777, 5988.569
1016.888, 5154.420
1017.999, 4820.269
1019.110, 4148.734
1020.220, 4213.125
1021.331, 3584.938
1022.441, 3358.873
1023.551, 3396.824
1024.661, 3292.792
1025.770, 2968.779
1026.880, 2698.781
1027.989, 2466.801
1029.098, 2009.838
1030.207, 1731.894
1031.316, 1616.965
1032.425, 1346.057
1033.533, 1199.167
1034.642, 1037.293
1035.750, 971.4355
1036.858, 852.5957
1037.966, 802.7725
1039.073, 666.9727
1040.181, 853.1895
1041.288, 597.4238
1042.396, 727.6807
1043.503, 770.9561
1044.610, 678.2500
1045.716, 654.5850
1046.823, 753.9355
1047.929, 766.3066
1049.036, 699.7012
1050.142, 771.1133
1051.248, 983.5439
1052.353, 907.0020
1053.459, 1094.477
1054.564, 1221.971
1055.670, 1057.623
1056.775, 1104.157
1057.880, 916.7129
1058.985, 886.9219
1060.089, 821.8359
1061.194, 554.4600
1062.298, 902.4150
1063.402, 915.0908
1064.506, 729.9365
1065.610, 675.9463
1066.713, 747.1162
1067.817, 874.8916
1068.920, 730.7061
1070.023, 974.6436
1071.126, 959.4883
1072.229, 881.5586
1073.332, 1311.928
1074.435, 1383.956
1075.537, 1089.973
1076.639, 1130.941
1077.741, 1147.282
1078.843, 1216.273
1079.945, 1269.631
1081.046, 1414.975
1082.148, 1503.770
1083.249, 1577.553
1084.350, 1727.666
1085.451, 1741.011
1086.551, 1788.287
1087.652, 1733.045
1088.752, 1783.053
1089.853, 1875.451
1090.953, 1852.807
1092.053, 1755.386
1093.152, 1934.410
1094.252, 1668.985
1095.351, 1596.387
1096.451, 1808.435
1097.550, 1195.775
1098.649, 1296.294
1099.748, 1014.921
1100.846, 1056.546
1101.945, 1100.216
1103.043, 867.9570
1104.141, 809.5371
1105.239, 771.6074
1106.337, 779.2373
1107.434, 780.6650
1108.532, 703.5791
1109.629, 851.2100
1110.726, 857.7061
1111.823, 924.7021
1112.920, 822.2129
1114.017, 944.8359
1115.113, 1014.357
1116.210, 967.6602
1117.306, 728.1914
1118.402, 697.7256
1119.498, 770.5273
1120.593, 532.0703
1121.689, 546.1777
1122.784, 443.7285
1123.879, 198.2822
1124.974, 310.4609
1126.069, 163.9219
1127.164, 392.9668
1128.259, 277.7168
1129.353, 277.4697
1130.447, 373.0742
1131.541, 268.2920
1132.635, 444.1660
1133.729, 334.7480
1134.822, 294.3340
1135.916, 93.92285
1137.009, 53.48828
1138.102, 180.0898
1139.195, 81.66992
1140.288, 178.2529
1141.380, 53.83691
1142.473, 107.4268
1143.565, 77.01758
1144.657, 78.61328
1145.749, 94.21094
1146.841, 22.81152
1147.932, 7.443359
1149.024, 9.076172
1150.115, 47.71094
1151.206, 82.38672
1152.297, 59.85938
1153.388, 132.7109
1154.479, 133.3848
1155.569, 204.2686
1156.659, 280.7314
1157.750, 319.4062
1158.839, 299.0830
1159.929, 270.7598
1161.019, 324.4355
1162.108, 392.1113
1163.198, 400.7852
1164.287, 395.4580
1165.376, 529.1289
1166.465, 777.7988
1167.553, 811.4668
1168.642, 884.1660
1169.730, 908.8623
1170.818, 1086.557
1171.906, 1058.258
1172.994, 993.9551
1174.082, 1005.649
1175.170, 832.3428
1176.257, 572.0312
1177.344, 528.7158
1178.431, 235.3975
1179.518, 312.0752
1180.605, 302.7500
1181.691, 379.4199
1182.778, 152.0850
1183.864, 176.7461
1184.950, 220.4014
1186.036, 35.94629
1187.122, 147.6797
1188.207, 182.2988
1189.292, 9.085938
1190.378, 67.48438
1191.463, 126.0713
1192.548, 129.3779
1193.632, 112.0938
1194.717, 14.55957
1195.801, 46.98242
1196.886, 16.56152
1197.970, 78.83691
1199.054, 77.22949
1200.137, 168.3857
1201.221, 118.8945
1202.305, 11.16895
1203.388, 60.56738
1204.471, 44.64746
1205.554, 52.54785
1206.637, 152.0137
1207.719, 71.83398
1208.802, 144.7373
1209.884, 101.7363
1210.966, 14.19336
1212.048, 15.10938
1213.130, 53.01074
1214.212, 78.90234
1215.293, 29.78516
1216.374, 79.34473
1217.456, 6.497070
1218.536, 57.36621
1219.617, 38.97266
1220.698, 45.31152
1221.778, 111.6426
1222.859, 102.2080
1223.939, 28.45117
1225.019, 21.05566
1226.099, 78.40332
1227.178, 110.8477
1228.258, 55.28320
1229.337, 36.70508
1230.417, 42.09375
1231.496, 58.49121
1232.574, 35.84473
1233.653, 8.166992
1234.732, 0.4648440
1235.810, 64.73633
1236.888, 27.00684
1237.966, 149.3184
1239.044, 10.52148
1240.122, 122.8799
1241.199, 30.21973
1242.277, 229.3682
1243.354, 85.50391
1244.431, 122.6270
1245.508, 1.736328
1246.585, 206.8174
1247.661, 250.8848
1248.738, 53.94043
1249.814, 145.9795
1250.890, 33.00684
1251.966, 198.0146
1253.042, 184.6475
1254.117, 174.9893
1255.193, 205.9932
1256.268, 172.9473
1257.343, 78.91797
1258.418, 79.60352
1259.493, 58.68066
1260.567, 50.10352
1261.642, 60.01660
1262.716, 151.9180
1263.790, 148.8076
1264.864, 218.6826
1265.938, 278.5801
1267.011, 314.1172
1268.085, 231.9883
1269.158, 259.8447
1270.231, 346.8193
1271.304, 190.6494
1272.377, 288.4658
1273.450, 255.3604
1274.522, 277.1494
1275.594, 247.1367
1276.666, 396.2490
1277.738, 479.0674
1278.810, 498.6504
1279.882, 266.7979
1280.953, 359.5801
1282.025, 322.2588
1283.096, 279.8096
1284.167, 418.4834
1285.238, 223.1279
1286.308, 358.6797
1287.379, 362.8936
1288.449, 426.7461
1289.519, 360.0332
1290.589, 333.3867
1291.659, 437.6836
1292.729, 469.4453
1293.798, 387.2529
1294.868, 454.8643
1295.937, 254.7695
1297.006, 297.2256
1298.075, 433.3477
1299.143, 357.6436
1300.212, 429.4570
1301.280, 443.8896
1302.348, 206.2354
1303.416, 427.9150
1304.484, 459.2764
1305.552, 381.6221
1306.620, 514.9492
1307.687, 431.2588
1308.754, 512.5527
1309.821, 434.8281
