##NAMES=Scholzite
##RRUFFID=R050238
##IDEAL CHEMISTRY=CaZn^2+^_2_(PO_4_)_2_&#183;2H_2_O
##LOCALITY=near Blinman, South Australia, Australia
##OWNER=RRUFF
##SOURCE=Marcus Origlieri
##DESCRIPTION=Colorless bladed crystals
##STATUS=The identification of this mineral has been confirmed by X-ray diffraction and chemical analysis
##URL=rruff.info/R050238
##MEASURED CHEMISTRY=Ca_1.00_Zn_2.00_(P_1.00_O_4_)_2_Â·2H_2_O
##PIN_ID=M00305
##ORIENTATION=Laser parallel to b* (0 1 0). Fiducial mark perpendicular to laser is parallel to -b [0 -1 0]
127.9790, 0.0000000E+00
129.2090, 28.88086
130.4390, 9.187500
131.6680, 62.03467
132.8980, 48.52734
134.1270, 360.3564
135.3560, 387.8623
136.5850, 574.3735
137.8140, 708.8086
139.0430, 984.2373
140.2710, 1029.440
141.5000, 1111.627
142.7280, 1074.265
143.9560, 1129.040
145.1840, 1181.700
146.4120, 1312.616
147.6390, 1573.848
148.8670, 1826.466
150.0940, 2214.510
151.3210, 2895.000
152.5490, 3621.946
153.7750, 4707.356
155.0020, 5485.236
156.2290, 6805.585
157.4550, 8014.401
158.6810, 9259.332
159.9080, 10425.33
161.1340, 11399.87
162.3590, 11975.74
163.5850, 12025.62
164.8110, 11324.10
166.0360, 10692.12
167.2610, 9625.641
168.4860, 8346.615
169.7110, 6981.015
170.9360, 5577.805
172.1610, 4582.967
173.3850, 3448.480
174.6100, 2637.331
175.8340, 2062.512
177.0580, 1494.024
178.2820, 1083.868
179.5050, 840.0479
180.7290, 673.5596
181.9520, 478.2192
183.1760, 357.5371
184.3990, 244.9771
185.6220, 207.6982
186.8450, 47.68555
188.0670, 61.01318
189.2900, 137.1753
190.5120, 60.03174
191.7340, 50.70508
192.9560, 147.2104
194.1780, 166.5576
195.4000, 153.7568
196.6220, 52.81836
197.8430, 8.016602
199.0640, 28.43994
200.2860, 258.7422
201.5070, 373.1094
202.7270, 563.4165
203.9480, 1036.705
205.1690, 1268.007
206.3890, 1962.337
207.6090, 2743.708
208.8290, 3930.128
210.0490, 5373.602
211.2690, 7258.132
212.4890, 9559.721
213.7080, 11901.37
214.9280, 14385.09
216.1470, 16859.90
217.3660, 19171.79
218.5850, 21618.78
219.8030, 23115.88
221.0220, 23588.12
222.2400, 23203.57
223.4590, 22149.26
224.6770, 20234.15
225.8950, 18430.26
227.1120, 15869.66
228.3300, 13467.35
229.5480, 11168.28
230.7650, 9428.104
231.9820, 7633.730
233.1990, 6546.229
234.4160, 5533.788
235.6330, 4672.436
236.8490, 4183.177
238.0660, 3692.002
239.2820, 3369.896
240.4980, 2948.836
241.7140, 2745.794
242.9300, 2298.757
244.1460, 2128.723
245.3610, 2013.681
246.5770, 1705.394
247.7920, 1503.434
249.0070, 1434.781
250.2220, 1346.368
251.4370, 1177.182
252.6510, 1182.177
253.8660, 1170.815
255.0800, 1172.439
256.2940, 1283.047
257.5080, 1294.638
258.7220, 1523.209
259.9360, 1829.763
261.1490, 1941.293
262.3630, 2261.801
263.5760, 2482.276
264.7890, 2881.719
266.0020, 3175.126
267.2150, 3492.497
268.4270, 3777.832
269.6400, 4088.131
270.8520, 4382.391
272.0640, 4434.615
273.2760, 4500.800
274.4880, 4403.985
275.7000, 4606.736
276.9120, 4775.069
278.1230, 4768.235
279.3340, 4833.774
280.5450, 4896.624
281.7560, 4982.733
282.9670, 4982.063
284.1780, 5052.583
285.3880, 5054.266
286.5980, 4864.092
287.8090, 4832.048
289.0190, 4536.121
290.2290, 4560.294
291.4380, 4182.535
292.6480, 3900.841
293.8570, 3750.206
295.0670, 3516.889
296.2760, 3499.111
297.4850, 3329.656
298.6930, 3207.297
299.9020, 3343.290
301.1110, 3432.630
302.3190, 3369.014
303.5270, 3425.693
304.7350, 3597.772
305.9430, 3686.842
307.1510, 3821.667
308.3580, 3836.750
309.5660, 3736.592
310.7730, 3673.752
311.9800, 3567.992
313.1870, 3376.588
314.3940, 3336.533
315.6010, 3148.146
316.8070, 2925.986
318.0130, 2699.119
319.2200, 2616.427
320.4260, 2454.261
321.6310, 2290.050
322.8370, 2234.951
324.0430, 2195.495
325.2480, 2251.724
326.4540, 2182.410
327.6590, 2230.711
328.8640, 2258.926
330.0680, 2329.964
331.2730, 2390.710
332.4780, 2480.866
333.6820, 2499.183
334.8860, 2558.229
336.0900, 2666.411
337.2940, 2599.723
338.4980, 2539.645
339.7010, 2616.380
340.9050, 2516.410
342.1080, 2430.966
343.3110, 2248.131
344.5140, 2134.487
345.7170, 1966.525
346.9200, 1832.310
348.1220, 1647.674
349.3240, 1474.474
350.5270, 1114.186
351.7290, 1121.085
352.9310, 803.9932
354.1320, 649.5693
355.3340, 527.0483
356.5350, 431.5562
357.7370, 317.3750
358.9380, 205.6294
360.1390, 153.8232
361.3400, 134.9648
362.5400, 31.05322
363.7410, 34.95410
364.9410, 64.14990
366.1410, 17.66992
367.3410, 54.84424
368.5410, 48.42871
369.7410, 36.01416
370.9400, 63.32178
372.1400, 51.44336
373.3390, 5.978516
374.5380, 113.5791
375.7370, 118.8091
376.9360, 210.2329
378.1350, 274.6279
379.3330, 391.0234
380.5310, 459.9790
381.7300, 567.7690
382.9280, 652.0659
384.1260, 723.2563
385.3230, 888.4243
386.5210, 948.5776
387.7180, 1262.799
388.9160, 1540.863
390.1130, 1701.954
391.3100, 2156.767
392.5060, 2546.680
393.7030, 2864.436
394.9000, 3495.165
396.0960, 4183.385
397.2920, 4981.558
398.4880, 5855.690
399.6840, 7011.778
400.8800, 8380.824
402.0750, 9683.827
403.2710, 11163.79
404.4660, 12574.70
405.6610, 13653.57
406.8560, 14765.40
408.0510, 15631.18
409.2450, 15980.91
410.4400, 15901.60
411.6340, 15219.25
412.8280, 14145.84
414.0220, 13073.39
415.2160, 11448.90
416.4100, 9970.358
417.6030, 8584.772
418.7970, 7279.195
419.9900, 6075.516
421.1830, 5052.849
422.3760, 4172.148
423.5690, 3460.413
424.7610, 2874.642
425.9540, 2450.833
427.1460, 2152.985
428.3380, 1820.096
429.5300, 1530.165
430.7220, 1296.190
431.9140, 1220.174
433.1050, 1064.112
434.2970, 919.0056
435.4880, 743.8535
436.6790, 655.6555
437.8700, 532.4109
439.0610, 547.1191
440.2510, 353.7795
441.4420, 346.3916
442.6320, 276.9548
443.8220, 208.4661
445.0120, 211.9219
446.2020, 154.3223
447.3910, 100.6641
448.5810, 102.3743
449.7700, 116.1609
450.9600, 84.31714
452.1490, 42.40942
453.3370, 33.43066
454.5260, 7.697510
455.7150, 12.74097
456.9030, 16.99463
458.0910, 42.32837
459.2800, 44.77588
460.4670, 48.33887
461.6550, 66.01929
462.8430, 30.17188
464.0300, 71.71704
465.2180, 40.73877
466.4050, 113.8757
467.5920, 92.16797
468.7790, 130.6045
469.9650, 44.20581
471.1520, 121.9258
472.3380, 9.193115
473.5250, 49.78052
474.7110, 71.87793
475.8970, 74.11206
477.0820, 104.4836
478.2680, 78.99072
479.4540, 12.63184
480.6390, 11.37305
481.8240, 84.19849
483.0090, 32.14453
484.1940, 64.18262
485.3780, 35.65088
486.5630, 41.40308
487.7470, 5.069824
488.9320, 17.63745
490.1160, 29.11255
491.3000, 48.50220
492.4830, 51.80957
493.6670, 93.03320
494.8500, 185.1802
496.0340, 115.2588
497.2170, 249.2627
498.4000, 238.2019
499.5820, 189.0793
500.7650, 289.8899
501.9480, 299.6462
503.1300, 307.3513
504.3120, 314.9944
505.4940, 354.2703
506.6760, 349.5166
507.8580, 436.2366
509.0390, 345.3508
510.2210, 430.4255
511.4020, 411.7729
512.5830, 436.6782
513.7640, 446.5752
514.9450, 377.3625
516.1250, 345.6750
517.3060, 415.7903
518.4860, 360.6016
519.6660, 358.5930
520.8460, 349.4419
522.0260, 339.9888
523.2060, 342.5913
524.3850, 345.3799
525.5650, 361.2468
526.7440, 357.0745
527.9230, 350.7671
529.1020, 324.3884
530.2810, 351.9795
531.4590, 335.4404
532.6380, 390.8550
533.8160, 349.2046
534.9940, 367.5586
536.1720, 363.1863
537.3500, 493.6533
538.5270, 568.1187
539.7050, 480.4409
540.8820, 471.7327
542.0590, 615.1975
543.2360, 643.2493
544.4130, 673.2456
545.5900, 707.4724
546.7660, 731.2812
547.9430, 752.3130
549.1190, 793.9148
550.2950, 776.2866
551.4710, 830.9849
552.6470, 819.4028
553.8220, 799.9302
554.9980, 788.1611
556.1730, 735.3042
557.3480, 727.4858
558.5230, 783.5933
559.6980, 839.5076
560.8730, 745.6338
562.0470, 831.6396
563.2220, 783.6216
564.3960, 955.3076
565.5700, 1001.193
566.7440, 1056.959
567.9170, 1148.502
569.0910, 1158.018
570.2640, 1213.496
571.4380, 1391.928
572.6110, 1439.316
573.7840, 1534.668
574.9570, 1510.966
576.1290, 1597.206
577.3020, 1567.410
578.4740, 1773.575
579.6460, 1762.683
580.8180, 1821.762
581.9900, 1827.784
583.1620, 1906.705
584.3330, 1924.799
585.5040, 1966.478
586.6760, 1963.631
587.8470, 1983.482
589.0180, 1961.843
590.1880, 2023.151
591.3590, 2012.522
592.5290, 2007.541
593.7000, 2010.323
594.8700, 1962.728
596.0400, 1969.562
597.2090, 1888.031
598.3790, 1850.142
599.5490, 1808.576
600.7180, 1623.774
601.8870, 1590.695
603.0560, 1455.384
604.2250, 1419.521
605.3940, 1247.673
606.5620, 1238.886
607.7300, 1018.415
608.8990, 926.0884
610.0670, 859.3521
611.2350, 695.2292
612.4020, 584.9417
613.5700, 549.7959
614.7370, 506.9768
615.9050, 480.4180
617.0720, 424.8987
618.2390, 453.2258
619.4060, 379.0833
620.5720, 366.2595
621.7390, 397.6270
622.9050, 442.2046
624.0710, 461.8191
625.2370, 386.3411
626.4030, 484.5293
627.5690, 435.7202
628.7340, 464.4487
629.9000, 493.8809
631.0650, 512.4106
632.2300, 508.9932
633.3950, 548.2949
634.5600, 489.3501
635.7240, 515.1904
636.8890, 477.4033
638.0530, 513.6689
639.2170, 554.6907
640.3810, 548.7544
641.5450, 423.1377
642.7080, 450.1685
643.8720, 383.7488
645.0350, 345.3804
646.1980, 414.3381
647.3610, 340.0989
648.5240, 284.6848
649.6870, 249.1589
650.8490, 322.7412
652.0120, 221.1072
653.1740, 230.7742
654.3360, 259.2620
655.4980, 176.5898
656.6600, 171.0747
657.8210, 242.3906
658.9830, 203.3477
660.1440, 221.4771
661.3050, 149.7466
662.4660, 141.7200
663.6270, 193.5525
664.7870, 158.2761
665.9480, 156.8003
667.1080, 162.5264
668.2680, 183.1367
669.4280, 163.6001
670.5880, 178.1418
671.7480, 172.5781
672.9070, 174.5347
674.0670, 156.9573
675.2260, 77.61523
676.3850, 100.3870
677.5440, 85.19849
678.7030, 103.9739
679.8610, 95.71240
681.0200, 49.41479
682.1780, 122.0791
683.3360, 119.7551
684.4940, 53.34985
685.6520, 104.9128
686.8090, 93.43604
687.9670, 151.9250
689.1240, 192.3816
690.2810, 97.80713
691.4380, 149.1985
692.5950, 107.5586
693.7520, 162.8850
694.9080, 168.1809
696.0650, 143.4468
697.2210, 145.6814
698.3770, 178.8855
699.5330, 110.0603
700.6880, 123.2041
701.8440, 113.3169
702.9990, 175.3989
704.1550, 105.5952
705.3100, 118.6184
706.4650, 200.8210
707.6190, 187.3721
708.7740, 213.7637
709.9290, 225.7690
711.0830, 193.6689
712.2370, 220.9624
713.3910, 190.2595
714.5450, 220.0544
715.6980, 217.0623
716.8520, 200.7998
718.0050, 202.5107
719.1580, 216.6780
720.3110, 276.0479
721.4640, 244.6750
722.6170, 254.0176
723.7700, 256.5911
724.9220, 233.1567
726.0740, 236.2649
727.2260, 301.8169
728.3780, 242.8464
729.5300, 227.2703
730.6810, 281.3218
731.8330, 226.8689
732.9840, 207.2703
734.1350, 206.1472
735.2860, 182.3162
736.4370, 231.4048
737.5880, 235.9839
738.7380, 218.2852
739.8880, 173.9104
741.0390, 222.8289
742.1890, 183.6689
743.3380, 236.8955
744.4880, 126.2910
745.6380, 127.7490
746.7870, 160.9712
747.9360, 138.4116
749.0850, 77.70215
750.2340, 122.3672
751.3830, 117.8667
752.5310, 97.35840
753.6800, 173.8579
754.8280, 101.3726
755.9760, 142.9023
757.1240, 142.4565
758.2720, 89.02832
759.4190, 60.59961
760.5670, 82.16846
761.7140, 25.75537
762.8610, 125.3398
764.0080, 20.93896
765.1550, 114.5195
766.3020, 114.0898
767.4480, 76.65820
768.5950, 26.21973
769.7410, 44.76660
770.8870, 78.29980
772.0330, 76.82227
773.1780, 110.3315
774.3240, 84.82422
775.4690, 79.48340
776.6140, 20.76123
777.7590, 43.19385
778.9040, 4.392578
780.0490, 15.01807
781.1940, 39.31348
782.3380, 6.622559
783.4820, 13.09961
784.6260, 31.13477
785.7700, 15.34717
786.9140, 39.53076
788.0580, 12.69287
789.2010, 114.8257
790.3450, 43.88184
791.4880, 83.96338
792.6310, 48.04004
793.7730, 2.870605
794.9160, 67.64795
796.0590, 105.6572
797.2010, 37.54883
798.3430, 2.504883
799.4850, 35.13281
800.6270, 9.033691
801.7690, 70.48145
802.9100, 20.90820
804.0520, 58.65186
805.1930, 73.22754
806.3340, 82.88232
807.4750, 101.4497
808.6160, 90.07129
809.7560, 0.3364260
810.8970, 79.23975
812.0370, 0.7363280
813.1770, 16.87891
814.3170, 63.10645
815.4570, 58.26367
816.5960, 65.58301
817.7360, 68.68164
818.8750, 62.62695
820.0140, 25.91406
821.1530, 44.18555
822.2920, 30.70215
823.4310, 60.35840
824.5690, 33.50586
825.7070, 63.89404
826.8460, 75.44385
827.9840, 79.59863
829.1220, 78.96533
830.2590, 58.15479
831.3970, 57.57324
832.5340, 74.01172
833.6710, 78.34473
834.8080, 86.68506
835.9450, 68.34814
837.0820, 60.98096
838.2190, 17.58350
839.3550, 35.78467
840.4910, 8.216309
841.6270, 17.38135
842.7630, 94.39844
843.8990, 101.0479
845.0350, 67.76318
846.1700, 30.52588
847.3060, 46.31494
848.4410, 71.13818
849.5760, 8.7890001E-03
850.7100, 19.10938
851.8450, 68.77783
852.9800, 65.70898
854.1140, 21.31787
855.2480, 102.6602
856.3820, 33.69727
857.5160, 9.242188
858.6500, 10.82275
859.7830, 25.10059
860.9170, 6.020020
862.0500, 29.06445
863.1830, 74.16748
864.3160, 48.31055
865.4480, 106.4795
866.5810, 133.7031
867.7130, 60.99609
868.8460, 13.68213
869.9780, 9.642090
871.1100, 56.97217
872.2410, 56.32910
873.3730, 66.14307
874.5050, 80.12451
875.6360, 49.57227
876.7670, 36.07520
877.8980, 11.55908
879.0290, 22.04785
880.1590, 15.45508
881.2900, 28.24902
882.4200, 44.95166
883.5500, 30.47070
884.6800, 24.19238
885.8100, 6.127441
886.9400, 108.1470
888.0690, 62.41309
889.1990, 105.6040
890.3280, 197.0796
891.4570, 146.3091
892.5860, 226.7231
893.7140, 178.1455
894.8430, 332.3555
895.9710, 456.3960
897.1000, 427.5996
898.2280, 380.9780
899.3560, 587.3848
900.4830, 726.6562
901.6110, 843.0405
902.7380, 927.4360
903.8660, 1036.687
904.9930, 1284.207
906.1200, 1500.187
907.2460, 1898.482
908.3730, 2082.786
909.5000, 2629.243
910.6260, 3166.608
911.7520, 3894.965
912.8780, 5128.484
914.0040, 6124.598
915.1290, 7554.904
916.2550, 9182.570
917.3800, 11035.69
918.5050, 12958.75
919.6300, 14784.63
920.7550, 16492.65
921.8800, 17274.21
923.0040, 18106.48
924.1290, 18115.99
925.2530, 17738.64
926.3770, 17159.06
927.5010, 15896.68
928.6250, 14471.17
929.7480, 13161.35
930.8720, 11746.96
931.9950, 10419.68
933.1180, 9316.190
934.2410, 8258.500
935.3640, 7242.038
936.4860, 6738.705
937.6090, 6111.469
938.7310, 5540.473
939.8530, 5125.236
940.9750, 4494.066
942.0970, 4244.911
943.2180, 3910.771
944.3400, 3611.648
945.4610, 3220.217
946.5820, 3040.125
947.7030, 2766.857
948.8240, 2466.437
949.9450, 2308.399
951.0650, 2222.381
952.1860, 1987.381
953.3060, 1906.401
954.4260, 1752.440
955.5460, 1635.453
956.6650, 1544.532
957.7850, 1458.794
958.9040, 1388.503
960.0230, 1358.884
961.1420, 1310.043
962.2610, 1303.222
963.3800, 1344.684
964.4990, 1467.641
965.6170, 1427.882
966.7350, 1530.144
967.8530, 1580.428
968.9710, 1767.737
970.0890, 1796.073
971.2070, 1859.431
972.3240, 2122.815
973.4410, 2363.221
974.5580, 2529.650
975.6750, 2976.959
976.7920, 3274.451
977.9090, 3630.772
979.0250, 4289.738
980.1410, 4972.883
981.2580, 5757.410
982.3740, 7153.043
983.4890, 8484.189
984.6050, 10336.51
985.7200, 12279.25
986.8360, 14679.77
987.9510, 17337.57
989.0660, 20316.41
990.1810, 23380.05
991.2950, 26970.98
992.4100, 30762.93
993.5240, 34617.17
994.6390, 38703.17
995.7530, 42719.20
996.8660, 46194.68
997.9800, 49422.73
999.0940, 51468.34
1000.207, 51952.57
1001.320, 51339.19
1002.433, 49036.33
1003.546, 45225.65
1004.659, 40581.51
1005.772, 35070.11
1006.884, 29329.81
1007.996, 24491.06
1009.108, 19815.65
1010.220, 16036.96
1011.332, 12848.00
1012.444, 10559.20
1013.555, 8620.041
1014.666, 7190.768
1015.777, 6229.475
1016.888, 5630.479
1017.999, 5225.321
1019.110, 4918.398
1020.220, 4970.141
1021.331, 4871.111
1022.441, 4929.117
1023.551, 4684.159
1024.661, 4423.237
1025.770, 4026.365
1026.880, 3572.535
1027.989, 3018.749
1029.098, 2611.019
1030.207, 2271.326
1031.316, 1831.673
1032.425, 1699.061
1033.533, 1387.508
1034.642, 1286.997
1035.750, 1221.521
1036.858, 978.0815
1037.966, 964.6807
1039.073, 878.3213
1040.181, 874.0005
1041.288, 838.7183
1042.396, 718.4854
1043.503, 669.2886
1044.610, 872.1294
1045.716, 774.0068
1046.823, 923.9272
1047.929, 971.8887
1049.036, 1023.898
1050.142, 1139.957
1051.248, 1312.055
1052.353, 1366.198
1053.459, 1477.389
1054.564, 1490.620
1055.670, 1514.894
1056.775, 1447.830
1057.880, 1376.559
1058.985, 1188.950
1060.089, 1014.377
1061.194, 777.8438
1062.298, 701.3467
1063.402, 569.8945
1064.506, 562.4800
1065.610, 347.1016
1066.713, 251.7617
1067.817, 283.4648
1068.920, 216.2070
1070.023, 232.9956
1071.126, 177.8213
1072.229, 191.3491
1073.332, 248.6089
1074.435, 182.5576
1075.537, 165.5430
1076.639, 77.56543
1077.741, 162.6250
1078.843, 128.7275
1079.945, 119.8662
1081.046, 132.0474
1082.148, 182.2676
1083.249, 224.5249
1084.350, 202.8184
1085.451, 325.1484
1086.551, 241.5146
1087.652, 280.9165
1088.752, 311.3555
1089.853, 207.8301
1090.953, 169.3647
1092.053, 244.9531
1093.152, 269.5815
1094.252, 157.2456
1095.351, 258.9468
1096.451, 252.6831
1097.550, 282.4609
1098.649, 270.2739
1099.748, 265.4150
1100.846, 291.9082
1101.945, 323.9980
1103.043, 309.9526
1104.141, 403.8071
1105.239, 521.8359
1106.337, 631.8999
1107.434, 796.0015
1108.532, 1027.167
1109.629, 1336.171
1110.726, 1605.544
1111.823, 2285.880
1112.920, 2667.232
1114.017, 3188.801
1115.113, 3616.247
1116.210, 3811.089
1117.306, 3828.794
1118.402, 3586.366
1119.498, 3210.223
1120.593, 2558.833
1121.689, 1936.559
1122.784, 1401.601
1123.879, 1059.824
1124.974, 783.7422
1126.069, 668.6445
1127.164, 442.6729
1128.259, 481.6372
1129.353, 518.1187
1130.447, 423.5625
1131.541, 591.5586
1132.635, 552.7090
1133.729, 498.5737
1134.822, 406.2739
1135.916, 488.5581
1137.009, 298.1455
1138.102, 478.5020
1139.195, 406.5459
1140.288, 390.5029
1141.380, 472.9858
1142.473, 466.5059
1143.565, 652.2871
1144.657, 680.6982
1145.749, 821.3184
1146.841, 843.1973
1147.932, 876.8750
1149.024, 1162.422
1150.115, 1431.742
1151.206, 1603.688
1152.297, 1789.479
1153.388, 2092.388
1154.479, 2262.239
1155.569, 2631.099
1156.659, 3128.463
1157.750, 3753.313
1158.839, 4256.236
1159.929, 4982.515
1161.019, 6136.488
1162.108, 7229.267
1163.198, 8926.281
1164.287, 11128.49
1165.376, 13442.55
1166.465, 16542.63
1167.553, 19841.72
1168.642, 23580.12
1169.730, 26841.27
1170.818, 28940.54
1171.906, 29597.93
1172.994, 28138.65
1174.082, 25497.86
1175.170, 22031.09
1176.257, 18196.34
1177.344, 14613.85
1178.431, 11369.61
1179.518, 9095.903
1180.605, 6847.354
1181.691, 5540.685
1182.778, 4460.031
1183.864, 3681.391
1184.950, 3136.765
1186.036, 2584.152
1187.122, 2325.554
1188.207, 1863.968
1189.292, 1736.396
1190.378, 1478.837
1191.463, 1283.291
1192.548, 1177.757
1193.632, 935.2344
1194.717, 786.7529
1195.801, 697.2539
1196.886, 552.7661
1197.970, 657.2891
1199.054, 344.8228
1200.137, 457.3667
1201.221, 391.9209
1202.305, 225.4878
1203.388, 308.0610
1204.471, 302.6436
1205.554, 271.2715
1206.637, 219.8721
1207.719, 204.9575
1208.802, 137.0977
1209.884, 148.7217
1210.966, 125.3540
1212.048, 100.9932
1213.130, 106.7495
1214.212, 87.40234
1215.293, 85.06152
1216.374, 43.72705
1217.456, 11.39893
1218.536, 99.07471
1219.617, 15.76318
1220.698, 8.937500
1221.778, 141.7354
1222.859, 65.43896
1223.939, 41.13916
1225.019, 98.07275
1226.099, 60.78223
1227.178, 88.77686
1228.258, 91.49121
1229.337, 12.79248
1230.417, 22.07812
1231.496, 35.42285
1232.574, 12.60498
1233.653, 26.64404
1234.732, 54.07715
1235.810, 92.83691
1236.888, 98.24365
1237.966, 84.90137
1239.044, 62.18164
1240.122, 3.487793
1241.199, 98.81201
1242.277, 38.33398
1243.354, 26.89697
1244.431, 73.44824
1245.508, 6.912598
1246.585, 24.27783
1247.661, 66.27295
1248.738, 42.57520
1249.814, 53.02637
1250.890, 118.5781
1251.966, 39.57471
1253.042, 74.00928
1254.117, 5.404297
1255.193, 19.03809
1256.268, 5.449219
1257.343, 14.84814
1258.418, 37.28760
1259.493, 34.84717
1260.567, 74.31348
1261.642, 69.29932
1262.716, 68.14502
1263.790, 31.92969
1264.864, 125.2539
1265.938, 8.675781
1267.011, 65.83887
1268.085, 47.00830
1269.158, 59.89844
1270.231, 35.20020
1271.304, 74.31055
1272.377, 68.24365
1273.450, 44.71924
1274.522, 59.36328
1275.594, 17.56006
1276.666, 220.7339
1277.738, 6.785645
1278.810, 52.35400
1279.882, 25.45312
1280.953, 72.03467
1282.025, 31.81396
1283.096, 38.57764
1284.167, 85.62012
1285.238, 29.53320
1286.308, 13.10596
1287.379, 4.123047
1288.449, 40.48291
1289.519, 107.2207
1290.589, 20.79395
1291.659, 62.54248
1292.729, 50.89941
1293.798, 60.07471
1294.868, 113.2495
1295.937, 115.9800
1297.006, 43.48242
1298.075, 77.89062
1299.143, 53.49854
1300.212, 50.21777
1301.280, 2.774902
1302.348, 67.62500
1303.416, 105.0605
