##NAMES=Scolecite
##RRUFFID=R050083
##IDEAL CHEMISTRY=Ca(Si_3_Al_2_)O_10_&#183;3H_2_O
##LOCALITY=near Ahmednagar, Maharashtra, India
##OWNER=RRUFF
##SOURCE=Rock Currier
##DESCRIPTION=Colorless acicular single crystals associated with fluorapophyllite
##STATUS=The identification of this mineral has been confirmed by X-ray diffraction and chemical analysis
##URL=rruff.info/R050083
##MEASURED CHEMISTRY=(Ca_.992_Na_.008_)[Al_2_Si_3_O_10_]Â·3H_2_O
##PIN_ID=M00476
##ORIENTATION=Laser parallel to a* (1 0 0). Fiducial mark perpendicular to laser is parallel to b [0 1 0]
89.863, 0.000
91.262, 8.385
92.661, 137.647
94.059, 348.047
95.458, 710.644
96.856, 1058.047
98.254, 1282.766
99.652, 1163.823
101.049, 752.423
102.446, 679.231
103.843, 768.072
105.240, 1071.000
106.637, 1349.298
108.033, 1905.404
109.429, 2211.230
110.825, 2581.048
112.220, 2493.017
113.616, 2168.994
115.011, 2027.087
116.406, 1154.915
117.800, 716.702
119.195, 450.275
120.589, 326.584
121.983, 243.572
123.377, 209.114
124.770, 238.113
126.163, 277.587
127.556, 368.301
128.949, 514.268
130.342, 628.073
131.734, 784.533
133.126, 958.353
134.518, 1251.591
135.909, 1701.309
137.301, 2501.561
138.692, 3350.395
140.083, 4140.855
141.473, 4522.979
142.864, 4361.801
144.254, 3578.350
145.644, 2790.653
147.034, 2089.731
148.423, 1644.713
149.812, 1513.373
151.201, 1671.598
152.590, 1990.600
153.979, 2644.344
155.367, 3187.847
156.755, 3745.126
158.143, 3967.195
159.530, 3933.066
160.918, 3344.753
162.305, 2853.313
163.692, 2323.931
165.078, 1916.852
166.465, 1816.863
167.851, 1713.023
169.237, 1811.418
170.623, 1913.354
172.008, 2115.692
173.393, 2264.002
174.778, 2611.274
176.163, 3043.558
177.548, 3291.883
178.932, 3525.262
180.316, 3723.709
181.700, 3830.227
183.083, 3833.821
184.467, 3854.490
185.850, 3736.237
187.233, 3660.057
188.616, 3550.951
189.998, 3251.915
191.380, 2842.948
192.762, 2631.046
194.144, 2304.207
195.525, 2074.425
196.907, 1844.697
198.288, 1621.019
199.669, 1433.388
201.049, 1247.801
202.429, 1194.255
203.810, 1084.747
205.189, 1094.522
206.569, 1011.210
207.949, 977.980
209.328, 851.780
210.707, 699.901
212.085, 613.576
213.464, 539.137
214.842, 452.216
216.220, 513.049
217.598, 529.890
218.976, 630.739
220.353, 755.595
221.730, 810.459
223.107, 791.331
224.483, 748.210
225.860, 629.095
227.236, 379.987
228.612, 238.884
229.988, 116.787
231.363, 40.695
232.738, 23.605
234.113, 19.332
235.488, 65.310
236.863, 84.889
238.237, 147.316
239.611, 207.250
240.985, 179.294
242.359, 226.491
243.732, 265.689
245.105, 246.900
246.478, 213.192
247.851, 143.660
249.223, 123.356
250.595, 2.332
251.967, 109.470
253.339, 300.166
254.711, 489.873
256.082, 637.794
257.453, 797.023
258.824, 861.306
260.195, 804.114
261.565, 678.330
262.935, 485.874
264.305, 359.685
265.675, 247.720
267.044, 239.941
268.414, 236.320
269.783, 293.831
271.151, 319.456
272.520, 329.095
273.888, 460.983
275.256, 373.858
276.624, 358.789
277.992, 422.764
279.359, 565.775
280.726, 825.814
282.093, 975.264
283.460, 1351.954
284.827, 1349.047
286.193, 1422.149
287.559, 1455.259
288.925, 1389.373
290.290, 1389.491
291.656, 1285.612
293.021, 1158.725
294.386, 938.823
295.750, 778.884
297.115, 586.911
298.479, 490.909
299.843, 410.871
301.207, 272.798
302.570, 243.693
303.933, 184.556
305.296, 202.389
306.659, 178.194
308.022, 203.972
309.384, 216.724
310.746, 205.451
312.108, 211.153
313.470, 186.832
314.831, 175.483
316.193, 161.108
317.554, 110.704
318.914, 70.276
320.275, 29.822
321.635, 8.913
322.995, 52.195
324.355, 66.777
325.715, 94.416
327.074, 95.812
328.434, 71.028
329.792, 45.190
331.151, 10.359
332.510, 87.585
333.868, 125.595
335.226, 181.519
336.584, 266.442
337.941, 291.366
339.299, 340.291
340.656, 370.216
342.013, 396.141
343.370, 416.067
344.726, 441.992
346.082, 462.917
347.438, 418.842
348.794, 445.765
350.150, 391.688
351.505, 399.608
352.860, 398.527
354.215, 383.443
355.570, 396.357
356.924, 369.268
358.278, 323.176
359.632, 288.080
360.986, 287.981
362.339, 263.879
363.693, 213.772
365.046, 203.661
366.399, 179.546
367.751, 162.427
369.104, 125.301
370.456, 144.135
371.808, 134.879
373.159, 106.507
374.511, 115.047
375.862, 91.566
377.213, 85.083
378.564, 61.598
379.914, 42.106
381.265, 33.606
382.615, 23.096
383.965, 49.573
385.315, 58.044
386.664, 81.508
388.013, 90.968
389.362, 115.426
390.711, 108.882
392.060, 164.336
393.408, 169.788
394.756, 210.239
396.104, 258.687
397.451, 310.356
398.799, 334.399
400.146, 422.240
401.493, 435.125
402.840, 550.222
404.186, 637.064
405.533, 734.936
406.879, 779.341
408.225, 788.918
409.570, 742.607
410.916, 739.665
412.261, 604.007
413.606, 546.516
414.951, 484.922
416.295, 393.333
417.639, 395.750
418.983, 370.179
420.327, 401.619
421.671, 464.063
423.014, 504.510
424.357, 569.957
425.700, 645.403
427.043, 829.846
428.386, 920.287
429.728, 1120.723
431.070, 1383.154
432.412, 1627.579
433.753, 1772.998
435.095, 1826.410
436.436, 1862.814
437.777, 1653.212
439.118, 1453.601
440.458, 1234.982
441.798, 1050.355
443.138, 870.719
444.478, 739.075
445.818, 697.447
447.157, 658.785
448.496, 709.115
449.835, 752.812
451.174, 838.501
452.513, 857.506
453.851, 877.638
455.189, 869.505
456.527, 895.809
457.864, 820.184
459.202, 836.290
460.539, 773.814
461.876, 666.054
463.212, 672.286
464.549, 624.509
465.885, 514.723
467.221, 473.929
468.557, 421.128
469.893, 382.318
471.228, 373.501
472.563, 366.677
473.898, 304.850
475.233, 336.021
476.567, 356.826
477.902, 390.989
479.236, 469.795
480.570, 460.217
481.903, 609.981
483.237, 648.499
484.570, 711.259
485.903, 870.048
487.235, 973.050
488.568, 1105.921
489.900, 1178.313
491.232, 1268.305
492.564, 1334.742
493.896, 1399.839
495.227, 1337.037
496.558, 1325.238
497.889, 1367.453
499.220, 1238.674
500.551, 1151.900
501.881, 1124.137
503.211, 1055.382
504.541, 993.639
505.870, 938.909
507.200, 982.189
508.529, 986.481
509.858, 1006.781
511.187, 1032.086
512.515, 1105.397
513.844, 1216.714
515.172, 1364.042
516.500, 1521.379
517.827, 1780.721
519.155, 1957.071
520.482, 2398.426
521.809, 2810.787
523.136, 3324.162
524.462, 4052.541
525.789, 4973.923
527.115, 6246.307
528.441, 7609.693
529.766, 9668.080
531.092, 12528.470
532.417, 14698.865
533.742, 17519.262
535.067, 18989.666
536.391, 19509.934
537.716, 18120.100
539.040, 15859.761
540.364, 13128.772
541.688, 10447.446
543.011, 8215.645
544.334, 6594.944
545.657, 5157.527
546.980, 4174.669
548.303, 3451.964
549.625, 2838.398
550.947, 2373.836
552.269, 2039.278
553.591, 1812.722
554.913, 1542.168
556.234, 1388.619
557.555, 1227.082
558.876, 1206.568
560.197, 1014.083
561.517, 976.644
562.837, 884.266
564.157, 808.941
565.477, 764.683
566.797, 735.501
568.116, 694.391
569.435, 659.344
570.754, 633.658
572.073, 618.376
573.391, 583.420
574.709, 529.467
576.027, 503.518
577.345, 425.570
578.663, 458.626
579.980, 405.684
581.297, 426.745
582.614, 385.809
583.931, 317.875
585.248, 318.944
586.564, 333.015
587.880, 243.089
589.196, 243.166
590.511, 221.244
591.827, 148.324
593.142, 185.407
594.457, 160.492
595.772, 143.578
597.086, 125.667
598.401, 106.758
599.715, 91.851
601.029, 58.946
602.343, 42.043
603.656, 0.858
604.969, 13.242
606.282, 17.344
607.595, 20.551
608.908, 20.449
610.220, 31.349
611.532, 35.253
612.844, 88.164
614.156, 40.105
615.468, 63.054
616.779, 58.020
618.090, 16.002
619.401, 5.016
620.712, 7.035
622.022, 46.057
623.332, 74.080
624.642, 75.105
625.952, 82.133
627.262, 127.162
628.571, 101.319
629.880, 61.484
631.189, 69.838
632.498, 10.597
633.807, 27.954
635.115, 9.184
636.423, 27.769
637.731, 20.618
639.039, 3.382
640.346, 48.911
641.653, 58.703
642.960, 27.020
644.267, 28.526
645.574, 39.654
646.880, 40.617
648.186, 91.907
649.492, 56.008
650.798, 144.570
652.103, 155.532
653.409, 133.239
654.714, 123.543
656.019, 125.762
657.323, 145.841
658.628, 132.287
659.932, 125.282
661.236, 117.955
662.540, 115.806
663.843, 119.736
665.147, 82.994
666.450, 126.630
667.753, 133.821
669.056, 122.070
670.358, 178.503
671.660, 151.937
672.963, 135.756
674.264, 187.246
675.566, 166.987
676.868, 183.692
678.169, 174.560
679.470, 190.436
680.771, 222.335
682.071, 200.818
683.372, 230.464
684.672, 221.836
685.972, 244.352
687.271, 307.840
688.571, 336.365
689.870, 443.776
691.169, 434.169
692.468, 515.534
693.767, 492.915
695.065, 458.214
696.364, 489.630
697.662, 497.959
698.960, 480.190
700.257, 548.520
701.555, 576.752
702.852, 711.057
704.149, 755.311
705.446, 852.553
706.742, 916.775
708.038, 870.020
709.335, 925.233
710.631, 861.442
711.926, 787.661
713.222, 660.860
714.517, 596.189
715.812, 524.443
717.107, 436.628
718.402, 405.899
719.696, 325.073
720.990, 262.242
722.284, 247.479
723.578, 212.702
724.872, 198.851
726.165, 190.992
727.458, 159.165
728.751, 157.364
730.044, 105.545
731.336, 123.702
732.629, 130.806
733.921, 158.000
735.213, 129.185
736.504, 152.275
737.796, 127.505
739.087, 139.632
740.378, 88.736
741.669, 128.905
742.960, 141.038
744.250, 127.068
745.540, 171.089
746.830, 187.172
748.120, 237.177
749.410, 276.184
750.699, 322.776
751.988, 372.140
753.277, 428.110
754.566, 489.071
755.854, 539.153
757.143, 581.968
758.431, 604.903
759.719, 618.805
761.006, 616.722
762.294, 639.630
763.581, 560.152
764.868, 598.666
766.155, 477.844
767.442, 440.878
768.728, 368.160
770.014, 288.985
771.300, 279.722
772.586, 199.710
773.872, 191.263
775.157, 132.082
776.442, 81.893
777.727, 112.694
779.012, 69.488
780.297, 56.272
781.581, 77.047
782.865, 26.814
784.149, 26.570
785.433, 7.684
786.716, 2.041
787.999, 8.750
789.282, 4.195
790.565, 2.519
791.848, 20.508
793.130, 18.311
794.413, 6.292
795.695, 46.119
796.977, 18.429
798.258, 9.965
799.540, 17.513
800.821, 30.018
802.102, 34.557
803.382, 0.867
804.663, 16.273
805.943, 28.334
807.224, 10.025
808.504, 33.631
809.783, 0.323
811.063, 1.965
812.342, 19.766
813.621, 12.525
814.900, 23.311
816.179, 26.114
817.457, 18.173
818.736, 25.858
820.014, 6.770
821.292, 0.295
822.569, 0.659
823.847, 3.634
825.124, 19.629
826.401, 9.878
827.678, 4.704
828.954, 8.775
830.231, 10.130
831.507, 10.981
832.783, 27.116
834.059, 4.715
835.334, 21.530
836.610, 11.332
837.885, 36.119
839.160, 17.895
840.435, 19.658
841.709, 16.408
842.983, 27.145
844.258, 28.780
845.532, 32.852
846.805, 29.284
848.079, 46.974
849.352, 24.652
850.625, 40.319
851.898, 64.974
853.171, 42.619
854.443, 72.252
855.715, 48.875
856.988, 60.487
858.259, 62.089
859.531, 80.681
860.803, 59.263
862.074, 93.835
863.345, 93.396
864.616, 61.947
865.886, 75.488
867.157, 33.018
868.427, 49.537
869.697, 87.045
870.967, 42.544
872.236, 66.035
873.506, 68.517
874.775, 45.988
876.044, 47.449
877.313, 63.899
878.581, 64.339
879.849, 53.771
881.118, 45.193
882.386, 47.605
883.653, 51.006
884.921, 84.397
886.188, 37.779
887.455, 38.151
888.722, 58.513
889.989, 22.867
891.255, 45.209
892.522, 48.542
893.788, 30.865
895.054, 37.177
896.319, 69.479
897.585, 79.773
898.850, 42.057
900.115, 97.331
901.380, 91.596
902.645, 62.852
903.909, 95.099
905.174, 102.338
906.438, 74.567
907.701, 86.787
908.965, 78.999
910.229, 103.201
911.492, 102.396
912.755, 119.581
914.018, 121.758
915.280, 137.927
916.543, 154.090
917.805, 162.939
919.067, 172.399
920.329, 194.548
921.590, 213.704
922.852, 243.858
924.113, 293.013
925.374, 348.969
926.635, 415.322
927.895, 503.468
929.156, 614.605
930.416, 726.735
931.676, 919.857
932.936, 1161.971
934.195, 1477.079
935.454, 1605.052
936.714, 1742.012
937.973, 1644.777
939.231, 1437.132
940.490, 1269.792
941.748, 946.753
943.006, 852.801
944.264, 669.736
945.522, 611.815
946.780, 624.368
948.037, 569.670
949.294, 632.471
950.551, 630.109
951.808, 588.162
953.064, 511.415
954.320, 423.371
955.577, 385.538
956.832, 317.260
958.088, 239.579
959.344, 273.148
960.599, 245.113
961.854, 206.160
963.109, 192.341
964.364, 156.150
965.618, 176.406
966.872, 164.099
968.127, 194.372
969.380, 180.257
970.634, 200.655
971.888, 226.247
973.141, 265.279
974.394, 258.249
975.647, 285.030
976.900, 323.804
978.152, 371.190
979.404, 456.900
980.656, 535.354
981.908, 743.839
983.160, 804.155
984.411, 940.460
985.663, 1053.737
986.914, 1023.425
988.165, 1001.953
989.415, 880.749
990.666, 702.398
991.916, 682.069
993.166, 625.699
994.416, 652.445
995.665, 688.205
996.915, 733.032
998.164, 813.796
999.413, 955.638
1000.662, 1034.364
1001.911, 1196.178
1003.159, 1357.095
1004.407, 1477.918
1005.655, 1638.841
1006.903, 1685.837
1008.151, 1893.739
1009.398, 1873.945
1010.646, 1810.870
1011.893, 1671.768
1013.139, 1432.692
1014.386, 1347.624
1015.633, 1140.556
1016.879, 969.487
1018.125, 942.286
1019.371, 775.199
1020.616, 738.132
1021.862, 681.887
1023.107, 630.840
1024.352, 677.780
1025.597, 639.646
1026.842, 679.519
1028.086, 815.460
1029.330, 867.804
1030.574, 1040.708
1031.818, 1124.577
1033.062, 1216.457
1034.305, 1262.856
1035.548, 1316.601
1036.791, 1265.450
1038.034, 1266.303
1039.277, 1207.607
1040.519, 1349.401
1041.762, 1496.289
1043.004, 1785.194
1044.246, 2223.028
1045.487, 2423.908
1046.729, 2459.455
1047.970, 2599.875
1049.211, 2205.776
1050.452, 1925.748
1051.692, 1465.724
1052.933, 1167.700
1054.173, 948.678
1055.413, 752.664
1056.653, 671.651
1057.893, 513.644
1059.132, 468.638
1060.371, 500.633
1061.610, 387.630
1062.849, 377.628
1064.088, 374.628
1065.326, 365.849
1066.565, 340.852
1067.803, 281.857
1069.041, 271.118
1070.278, 270.126
1071.516, 229.141
1072.753, 224.156
1073.990, 188.173
1075.227, 169.234
1076.464, 233.266
1077.700, 200.300
1078.936, 199.335
1080.173, 204.372
1081.408, 202.465
1082.644, 239.505
1083.880, 206.547
1085.115, 206.637
1086.350, 296.692
1087.585, 237.755
1088.820, 344.824
1090.054, 334.897
1091.288, 368.977
1092.522, 462.063
1093.756, 506.161
1094.990, 586.297
1096.224, 712.409
1097.457, 661.540
1098.690, 747.675
1099.923, 729.812
1101.156, 709.001
1102.388, 705.164
1103.621, 614.343
1104.853, 543.256
1106.085, 550.444
1107.316, 383.645
1108.548, 380.860
1109.779, 328.081
1111.010, 253.309
1112.241, 231.542
1113.472, 188.787
1114.703, 175.216
1115.933, 172.723
1117.163, 172.004
1118.393, 175.297
1119.623, 180.603
1120.853, 162.997
1122.082, 155.318
1123.311, 132.646
1124.540, 127.980
1125.769, 114.424
1126.997, 106.780
1128.226, 100.142
1129.454, 58.515
1130.682, 68.892
1131.910, 76.325
1133.138, 36.768
1134.365, 83.172
1135.592, 60.308
1136.819, 21.721
1138.046, 87.136
1139.273, 36.554
1140.499, 18.975
1141.725, 16.134
1142.951, 5.561
1144.177, 4.010
1145.403, 42.533
1146.628, 14.966
1147.854, 41.531
1149.079, 57.968
1150.304, 3.455
1151.528, 38.985
1152.753, 32.428
1153.977, 9.128
1155.201, 11.291
1156.425, 14.263
1157.649, 67.256
1158.872, 12.740
1160.096, 26.187
1161.319, 29.288
1162.542, 1.262
1163.764, 14.274
1164.987, 36.031
1166.209, 3.517
1167.431, 43.046
1168.653, 26.979
1169.875, 1.492
1171.097, 29.125
1172.318, 53.573
1173.539, 61.022
1174.760, 11.595
1175.981, 14.954
1177.202, 2.530
1178.422, 20.003
1179.642, 19.452
1180.862, 17.099
1182.082, 11.451
1183.302, 31.034
1184.521, 15.757
1185.740, 12.794
1186.959, 54.726
1188.178, 15.323
1189.397, 27.771
1190.615, 36.313
1191.834, 1.178
1193.052, 2.675
1194.269, 26.422
1195.487, 0.587
1196.705, 31.516
1197.922, 14.399
1199.139, 21.907
1200.356, 11.518
1201.573, 6.421
1202.789, 17.885
1204.006, 65.369
1205.222, 13.893
1206.438, 46.340
1207.653, 28.815
1208.869, 22.261
1210.084, 31.742
1211.299, 5.713
1212.514, 16.729
1213.729, 31.286
1214.944, 6.181
1216.158, 54.321
1217.372, 22.760
1218.586, 15.196
1219.800, 24.632
1221.014, 19.007
1222.227, 56.417
1223.440, 61.841
1224.654, 28.264
1225.866, 50.691
1227.079, 1.211
1228.292, 86.680
1229.504, 52.192
1230.716, 7.493
1231.928, 59.939
1233.139, 68.402
1234.351, 37.104
1235.562, 63.518
1236.773, 45.975
1237.984, 44.387
1239.195, 51.796
1240.406, 13.318
1241.616, 57.728
1242.826, 21.138
1244.036, 44.664
1245.246, 98.067
1246.456, 12.525
1247.665, 48.967
1248.874, 22.370
1250.083, 25.229
1251.292, 67.228
1252.501, 62.621
1253.709, 22.146
1254.917, 80.554
1256.125, 32.945
1257.333, 44.375
1258.541, 52.772
1259.748, 2.826
1260.956, 48.654
1262.163, 44.081
1263.370, 31.586
1264.576, 48.966
1265.783, 9.355
1266.989, 39.718
1268.195, 63.079
1269.401, 36.438
1270.607, 6.791
1271.813, 55.140
1273.018, 31.479
1274.223, 41.056
1275.428, 56.389
1276.633, 20.716
1277.838, 22.074
1279.042, 36.389
1280.246, 21.105
1281.450, 100.326
1282.654, 41.441
1283.858, 72.909
1285.061, 37.197
1286.265, 20.504
1287.468, 36.829
1288.671, 37.098
1289.873, 9.304
1291.076, 74.544
1292.278, 7.780
1293.480, 58.003
1294.682, 26.214
1295.884, 16.421
1297.086, 69.625
1298.287, 56.825
1299.488, 7.127
1300.689, 66.052
1301.890, 20.931
1303.091, 30.080
1304.291, 69.225
1305.491, 17.634
1306.691, 63.495
1307.891, 19.589
1309.091, 4.690
1310.290, 52.785
1311.490, 14.831
1312.689, 0.915
1313.888, 31.081
1315.086, 9.866
1316.285, 49.194
1317.483, 96.249
1318.681, 12.298
1319.879, 106.341
1321.077, 32.974
1322.275, 36.004
1323.472, 58.026
1324.669, 9.958
1325.866, 45.048
1327.063, 33.753
1328.260, 5.746
1329.456, 62.729
1330.653, 25.342
1331.849, 10.310
1333.045, 52.269
1334.240, 21.223
1335.436, 29.168
1336.631, 31.125
1337.826, 16.988
1339.021, 2.069
1340.216, 1.839
1341.411, 2.740
1342.605, 30.633
1343.799, 10.520
1344.993, 13.599
1346.187, 41.270
1347.381, 6.865
1348.574, 26.989
1349.767, 70.838
1350.961, 38.682
1352.153, 87.520
1353.346, 37.354
1354.539, 22.182
1355.731, 80.785
1356.923, 18.604
1358.115, 24.418
1359.307, 30.973
1360.498, 6.223
1361.690, 70.574
1362.881, 59.396
1364.072, 36.773
1365.263, 59.972
1366.453, 52.839
1367.644, 57.609
1368.834, 45.378
1370.024, 23.330
1371.214, 35.042
1372.404, 24.809
1373.593, 20.410
1374.783, 40.302
1375.972, 36.058
1377.161, 6.787
1378.349, 77.508
1379.538, 37.612
1380.726, 82.411
1381.915, 61.633
1383.103, 21.816
1384.290, 60.021
1385.478, 82.220
1386.665, 22.373
1387.853, 82.755
1389.040, 35.922
1390.227, 40.073
1391.413, 85.227
1392.600, 70.929
1393.786, 35.066
1394.972, 69.197
1396.158, 20.232
1397.344, 47.350
1398.530, 73.351
1399.715, 42.455
1400.900, 50.497
1402.085, 49.536
1403.270, 26.583
1404.455, 39.441
1405.639, 18.601
1406.824, 46.621
1408.008, 44.499
1409.192, 50.346
1410.375, 81.176
1411.559, 80.168
1412.742, 86.911
1413.925, 70.738
1415.108, 81.673
1416.291, 8.369
1417.474, 89.892
1418.656, 53.962
1419.839, 38.229
1421.021, 92.124
1422.202, 10.843
1423.384, 18.645
1424.566, 94.815
1425.747, 53.622
1426.928, 47.077
1428.109, 43.597
1429.290, 33.301
1430.470, 104.966
1431.651, 72.152
1432.831, 84.505
1434.011, 114.912
1435.191, 66.302
1436.370, 53.203
1437.550, 90.835
1438.729, 93.449
1439.908, 95.948
1441.087, 103.254
1442.266, 100.047
1443.444, 123.669
1444.623, 119.032
1445.801, 92.575
1446.979, 163.918
1448.157, 102.170
1449.334, 125.020
1450.512, 127.805
1451.689, 109.129
1452.866, 148.526
1454.043, 143.671
1455.220, 88.772
1456.396, 120.995
1457.573, 100.215
1458.749, 66.355
1459.925, 133.303
1461.100, 126.470
1462.276, 144.531
1463.451, 118.409
1464.627, 94.104
1465.802, 138.130
1466.977, 116.213
1468.151, 107.271
1469.326, 110.329
1470.500, 111.733
1471.674, 78.658
1472.848, 108.126
1474.022, 45.737
1475.195, 61.685
1476.369, 167.369
1477.542, 18.288
1478.715, 143.255
1479.888, 80.274
1481.061, 61.281
1482.233, 85.258
1483.405, 53.254
1484.577, 54.374
1485.749, 105.475
1486.921, 66.685
1488.093, 65.892
1489.264, 58.097
1490.435, 29.300
1491.606, 62.506
1492.777, 67.718
1493.948, 47.954
1495.118, 49.210
1496.288, 26.479
1497.459, 31.799
1498.628, 74.184
1499.798, 59.624
1500.968, 59.876
1502.137, 34.407
1503.306, 20.997
1504.475, 18.429
1505.644, 64.344
1506.813, 7.107
1507.981, 41.946
1509.149, 31.875
1510.318, 1.091
1511.485, 91.058
1512.653, 44.363
1513.821, 30.706
1514.988, 74.462
1516.155, 36.791
1517.322, 45.279
1518.489, 68.667
1519.656, 0.329
1520.822, 24.553
1521.988, 0.000
##END=



