##NAMES=Scolecite
##RRUFFID=R050083
##IDEAL CHEMISTRY=Ca(Si_3_Al_2_)O_10_&#183;3H_2_O
##LOCALITY=near Ahmednagar, Maharashtra, India
##OWNER=RRUFF
##SOURCE=Rock Currier
##DESCRIPTION=Colorless acicular single crystals associated with fluorapophyllite
##STATUS=The identification of this mineral has been confirmed by X-ray diffraction and chemical analysis
##URL=rruff.info/R050083
##MEASURED CHEMISTRY=(Ca_.992_Na_.008_)[Al_2_Si_3_O_10_]Â·3H_2_O
##PIN_ID=M00106
##ORIENTATION=Laser parallel to (1 0 1). Fiducial mark perpendicular to laser is parallel to b [0 1 0]
49.184, 0.000
50.590, 2.174
51.996, 236.275
53.401, 2.808
54.807, 331.843
56.212, 399.542
57.617, 283.669
59.021, 396.416
60.426, 378.233
61.830, 236.684
63.234, 404.293
64.637, 432.803
66.041, 513.392
67.444, 561.118
68.847, 543.995
70.250, 542.128
71.652, 561.890
73.054, 419.792
74.456, 468.122
75.858, 407.230
77.260, 350.129
78.661, 273.142
80.062, 86.497
81.463, 290.412
82.863, 80.118
84.264, 115.726
85.664, 42.678
87.064, 88.513
88.463, 7.325
89.863, 144.324
91.262, 304.095
92.661, 630.478
94.059, 880.646
95.458, 1530.278
96.856, 2029.563
98.254, 2776.055
99.652, 3229.881
101.049, 3402.444
102.446, 4084.849
103.843, 4451.143
105.240, 5317.612
106.637, 6804.162
108.033, 10520.588
109.429, 14056.828
110.825, 18022.887
112.220, 19539.014
113.616, 16665.787
115.011, 12912.748
116.406, 8709.466
117.800, 5555.916
119.195, 3672.116
120.589, 2384.075
121.983, 1841.807
123.377, 1276.132
124.770, 1096.324
126.163, 810.689
127.556, 1184.175
128.949, 1242.490
130.342, 1059.693
131.734, 870.901
133.126, 320.077
134.518, 263.958
135.909, 15.173
137.301, 72.396
138.692, 67.148
140.083, 25.284
141.473, 72.267
142.864, 13.748
144.254, 17.110
145.644, 77.299
147.034, 26.016
148.423, 299.187
149.812, 742.306
151.201, 2053.025
152.590, 2124.363
153.979, 3790.510
155.367, 5496.559
156.755, 8260.538
158.143, 10807.934
159.530, 12799.978
160.918, 13880.067
162.305, 12888.541
163.692, 11576.649
165.078, 9450.047
166.465, 7663.154
167.851, 5716.195
169.237, 3821.167
170.623, 2937.072
172.008, 2036.901
173.393, 2118.201
174.778, 2112.209
176.163, 2380.293
177.548, 2744.010
178.932, 3275.160
180.316, 4348.039
181.700, 5275.988
183.083, 6636.835
184.467, 7497.639
185.850, 7768.406
187.233, 7049.137
188.616, 5459.831
189.998, 4088.485
191.380, 2383.102
192.762, 1617.679
194.144, 914.218
195.525, 528.718
196.907, 351.178
198.288, 124.595
199.669, 394.968
201.049, 409.300
202.429, 765.591
203.810, 1114.840
205.189, 1397.049
206.569, 1639.197
207.949, 1341.257
209.328, 1322.007
210.707, 840.415
212.085, 592.227
213.464, 537.542
214.842, 630.708
216.220, 1138.340
217.598, 1687.942
218.976, 3084.844
220.353, 4578.419
221.730, 6563.649
223.107, 8067.300
224.483, 8619.471
225.860, 8689.951
227.236, 7159.329
228.612, 6166.790
229.988, 4794.102
231.363, 4235.526
232.738, 3731.431
234.113, 3017.307
235.488, 2390.624
236.863, 1499.525
238.237, 924.343
239.611, 349.427
240.985, 98.549
242.359, 30.235
243.732, 108.700
245.105, 107.552
246.478, 215.291
247.851, 682.467
249.223, 1321.949
250.595, 2332.025
251.967, 3621.074
253.339, 5008.253
254.711, 6516.527
256.082, 6704.796
257.453, 6364.530
258.824, 5031.706
260.195, 3309.479
261.565, 2183.372
262.935, 1182.039
264.305, 752.408
265.675, 273.686
267.044, 146.912
268.414, 169.085
269.783, 157.208
271.151, 379.277
272.520, 330.298
273.888, 388.270
275.256, 347.195
276.624, 388.073
277.992, 722.903
279.359, 1203.690
280.726, 2012.433
282.093, 2479.132
283.460, 2905.789
284.827, 3045.404
286.193, 2763.979
287.559, 2569.516
288.925, 2023.980
290.290, 1808.356
291.656, 1339.065
293.021, 930.352
294.386, 551.606
295.750, 261.823
297.115, 90.674
298.479, 53.912
299.843, 39.021
301.207, 80.279
302.570, 114.744
303.933, 29.040
305.296, 6.599
306.659, 176.173
308.022, 294.799
309.384, 548.541
310.746, 802.739
312.108, 1124.277
313.470, 1535.903
314.831, 1719.512
316.193, 2072.927
317.554, 2080.317
318.914, 2068.687
320.275, 2064.027
321.635, 1823.339
322.995, 1773.606
324.355, 1504.809
325.715, 1437.954
327.074, 1292.049
328.434, 1149.096
329.792, 1194.112
331.151, 1094.100
332.510, 1221.061
333.868, 1177.994
335.226, 1186.901
336.584, 1275.780
337.941, 1426.618
339.299, 1709.371
340.656, 1850.010
342.013, 2122.534
343.370, 2360.003
344.726, 2597.441
346.082, 2817.860
347.438, 2705.260
348.794, 2841.641
350.150, 2436.006
351.505, 2208.352
352.860, 1747.679
354.215, 1448.990
355.570, 1362.283
356.924, 1143.558
358.278, 1286.816
359.632, 1378.673
360.986, 1450.784
362.339, 1466.403
363.693, 1110.693
365.046, 926.042
366.399, 375.879
367.751, 202.017
369.104, 10.867
370.456, 140.781
371.808, 58.757
373.159, 210.775
374.511, 192.894
375.862, 132.148
377.213, 215.892
378.564, 87.496
379.914, 169.291
381.265, 3.724
382.615, 37.364
383.965, 85.444
385.315, 200.166
386.664, 207.809
388.013, 433.380
389.362, 412.891
390.711, 649.345
392.060, 785.753
393.408, 979.114
394.756, 1233.433
396.104, 1432.711
397.451, 1796.954
398.799, 2028.167
400.146, 2316.353
401.493, 2754.511
402.840, 3049.486
404.186, 3536.727
405.533, 3461.959
406.879, 3696.957
408.225, 3567.296
409.570, 3129.562
410.916, 2885.902
412.261, 2211.927
413.606, 1950.943
414.951, 1502.979
416.295, 1232.045
417.639, 1132.120
418.983, 832.188
420.327, 1100.241
421.671, 1031.274
423.014, 1296.284
424.357, 1590.271
425.700, 1911.235
427.043, 2699.027
428.386, 3145.807
429.728, 4103.855
431.070, 4957.090
432.412, 5715.228
433.753, 6689.420
435.095, 6753.398
436.436, 7457.612
437.777, 7031.648
439.118, 6735.847
440.458, 6751.442
441.798, 6101.168
443.138, 6135.879
444.478, 5877.570
445.818, 6071.243
447.157, 6144.897
448.496, 5965.535
449.835, 6269.153
451.174, 5966.755
452.513, 5955.339
453.851, 5577.908
455.189, 5100.462
456.527, 4942.274
457.864, 4261.967
459.202, 3990.048
460.539, 3460.691
461.876, 3008.348
463.212, 2797.850
464.549, 2225.404
465.885, 2100.488
467.221, 1733.227
468.557, 1576.954
469.893, 1399.961
471.228, 1171.715
472.563, 1162.049
473.898, 931.044
475.233, 938.797
476.567, 831.837
477.902, 809.070
479.236, 820.392
480.570, 698.814
481.903, 819.171
483.237, 652.305
484.570, 671.306
485.903, 752.162
487.235, 643.843
488.568, 799.533
489.900, 713.221
491.232, 784.921
492.564, 785.629
493.896, 811.348
495.227, 884.072
496.558, 777.795
497.889, 943.509
499.220, 983.213
500.551, 942.908
501.881, 1147.604
503.211, 1158.291
504.541, 1318.980
505.870, 1331.667
507.200, 1493.344
508.529, 1768.015
509.858, 1872.686
511.187, 2184.348
512.515, 2303.007
513.844, 2679.656
515.172, 3184.300
516.500, 3357.934
517.827, 4191.555
519.155, 4606.173
520.482, 5499.785
521.809, 6485.404
523.136, 7359.029
524.462, 9124.649
525.789, 10860.266
527.115, 13355.148
528.441, 16359.304
529.766, 20331.992
531.092, 26587.152
532.417, 31727.475
533.742, 39738.285
535.067, 43990.215
536.391, 45715.992
537.716, 44496.539
539.040, 37065.188
540.364, 30638.730
541.688, 23521.996
543.011, 17723.656
544.334, 14067.371
545.657, 10531.570
546.980, 8735.813
548.303, 7051.006
549.625, 5746.121
550.947, 4900.607
552.269, 3908.088
553.591, 3640.565
554.913, 3038.038
556.234, 2712.508
557.555, 2396.973
558.876, 2143.436
560.197, 1903.893
561.517, 1659.346
562.837, 1606.805
564.157, 1508.274
565.477, 1262.763
566.797, 1351.303
568.116, 1058.854
569.435, 1138.413
570.754, 983.971
572.073, 867.524
573.391, 917.073
574.709, 745.616
576.027, 822.155
577.345, 731.689
578.663, 684.217
579.980, 686.740
581.297, 548.258
582.614, 600.770
583.931, 586.277
585.248, 572.778
586.564, 662.274
587.880, 545.774
589.196, 587.280
590.511, 641.792
591.827, 562.310
593.142, 633.830
594.457, 507.351
595.772, 605.873
597.086, 571.397
598.401, 557.921
599.715, 567.439
601.029, 499.951
602.343, 514.458
603.656, 472.958
604.969, 497.451
606.282, 441.939
607.595, 372.420
608.908, 411.894
610.220, 306.362
611.532, 364.823
612.844, 280.278
614.156, 213.727
615.468, 162.171
616.779, 82.615
618.090, 86.061
619.401, 76.528
620.712, 48.987
622.022, 3.646
623.332, 87.684
624.642, 123.759
625.952, 93.800
627.262, 137.931
628.571, 63.281
629.880, 147.327
631.189, 109.526
632.498, 104.115
633.807, 140.417
635.115, 17.025
636.423, 39.709
637.731, 16.072
639.039, 34.899
640.346, 92.402
641.653, 128.819
642.960, 162.521
644.267, 215.745
645.574, 242.810
646.880, 251.640
648.186, 382.194
649.492, 360.463
650.798, 447.951
652.103, 533.967
653.409, 584.585
654.714, 700.577
656.019, 729.115
657.323, 876.725
658.628, 1042.733
659.932, 1090.304
661.236, 1352.404
662.540, 1478.110
663.843, 1823.565
665.147, 1973.422
666.450, 2281.851
667.753, 2822.159
669.056, 2996.264
670.358, 3486.322
671.660, 3851.385
672.963, 3928.435
674.264, 4367.463
675.566, 4008.645
676.868, 4098.542
678.169, 3668.595
679.470, 3191.501
680.771, 2874.321
682.071, 2257.353
683.372, 1932.135
684.672, 1566.732
685.972, 1237.509
687.271, 1038.228
688.571, 770.082
689.870, 717.745
691.169, 613.574
692.468, 486.390
693.767, 441.151
695.065, 400.966
696.364, 434.756
697.662, 457.742
698.960, 452.549
700.257, 605.400
701.555, 707.257
702.852, 858.899
704.149, 1081.749
705.446, 1163.468
706.742, 1417.173
708.038, 1320.848
709.335, 1485.457
710.631, 1408.192
711.926, 1350.997
713.222, 1209.572
714.517, 1076.292
715.812, 1130.758
717.107, 1068.338
718.402, 949.765
719.696, 1047.231
720.990, 1057.866
722.284, 1122.285
723.578, 1267.667
724.872, 1280.192
726.165, 1485.592
727.458, 1499.943
728.751, 1720.336
730.044, 1665.476
731.336, 1523.821
732.629, 1488.058
733.921, 1348.324
735.213, 1252.596
736.504, 1091.634
737.796, 979.915
739.087, 1019.039
740.378, 890.045
741.669, 910.077
742.960, 849.081
744.250, 906.236
745.540, 1047.312
746.830, 985.238
748.120, 1171.278
749.410, 1302.138
750.699, 1316.157
751.988, 1600.017
753.277, 1561.709
754.566, 1743.562
755.854, 1773.272
757.143, 1683.051
758.431, 1747.779
759.719, 1490.483
761.006, 1460.140
762.294, 1206.794
763.581, 1037.372
764.868, 995.022
766.155, 786.471
767.442, 710.209
768.728, 661.663
770.014, 501.037
771.300, 508.465
772.586, 340.359
773.872, 314.254
775.157, 287.073
776.442, 199.505
777.727, 197.935
779.012, 126.246
780.297, 99.343
781.581, 105.217
782.865, 3.314
784.149, 47.721
785.433, 56.071
786.716, 20.256
787.999, 38.617
789.282, 44.834
790.565, 12.536
791.848, 53.376
793.130, 38.376
794.413, 49.366
795.695, 48.193
796.977, 4.943
798.258, 29.595
799.540, 59.126
800.821, 23.724
802.102, 67.373
803.382, 63.095
804.663, 66.888
805.943, 43.752
807.224, 21.172
808.504, 5.245
809.783, 16.236
811.063, 13.197
812.342, 28.873
813.621, 13.004
814.900, 31.150
816.179, 9.357
817.457, 14.394
818.736, 4.115
820.014, 22.198
821.292, 17.440
822.569, 17.951
823.847, 41.613
825.124, 1.849
826.401, 33.651
827.678, 34.126
828.954, 5.426
830.231, 54.984
831.507, 20.631
832.783, 42.708
834.059, 58.021
835.334, 17.309
836.610, 56.570
837.885, 0.806
839.160, 49.008
840.435, 61.186
841.709, 34.338
842.983, 80.465
844.258, 50.569
845.532, 62.646
846.805, 80.700
848.079, 77.728
849.352, 85.703
850.625, 45.712
851.898, 85.665
853.171, 73.594
854.443, 68.499
855.715, 115.378
856.988, 61.234
858.259, 87.065
859.531, 84.872
860.803, 86.655
862.074, 96.414
863.345, 60.150
864.616, 37.862
865.886, 86.549
867.157, 46.212
868.427, 100.850
869.697, 67.466
870.967, 98.059
872.236, 82.629
873.506, 36.177
874.775, 81.700
876.044, 84.201
877.313, 43.679
878.581, 67.134
879.849, 72.567
881.118, 55.977
882.386, 110.365
883.653, 54.731
884.921, 74.076
886.188, 60.399
887.455, 52.699
888.722, 101.978
889.989, 37.237
891.255, 68.474
892.522, 89.690
893.788, 76.886
895.054, 77.061
896.319, 34.216
897.585, 46.350
898.850, 75.462
900.115, 41.556
901.380, 77.628
902.645, 32.682
903.909, 63.714
905.174, 106.726
906.438, 51.720
907.701, 78.695
908.965, 55.651
910.229, 60.587
911.492, 59.505
912.755, 63.403
914.018, 57.284
915.280, 68.146
916.543, 43.990
917.805, 107.815
919.067, 8.623
920.329, 69.411
921.590, 115.182
922.852, 37.936
924.113, 138.676
925.374, 75.400
926.635, 116.111
927.895, 160.807
929.156, 142.356
930.416, 183.890
931.676, 171.146
932.936, 181.330
934.195, 266.566
935.454, 185.967
936.714, 265.025
937.973, 214.173
939.231, 199.658
940.490, 240.804
941.748, 193.193
943.006, 122.627
944.264, 84.559
945.522, 56.417
946.780, 46.515
948.037, 53.789
949.294, 53.694
950.551, 94.054
951.808, 70.549
953.064, 62.257
954.320, 81.216
955.577, 46.436
956.832, 87.414
958.088, 40.160
959.344, 28.637
960.599, 28.037
961.854, 16.868
963.109, 54.605
964.364, 64.922
965.618, 55.651
966.872, 96.829
968.127, 54.378
969.380, 119.156
970.634, 90.510
971.888, 99.269
973.141, 192.126
974.394, 88.165
975.647, 137.227
976.900, 131.263
978.152, 139.290
979.404, 230.317
980.656, 218.171
981.908, 373.291
983.160, 377.231
984.411, 437.298
985.663, 599.428
986.914, 675.323
988.165, 798.453
989.415, 803.750
990.666, 703.851
991.916, 669.002
993.166, 571.042
994.416, 507.276
995.665, 489.391
996.915, 373.561
998.164, 395.808
999.413, 384.044
1000.662, 363.319
1001.911, 480.428
1003.159, 406.706
1004.407, 456.936
1005.655, 505.160
1006.903, 486.583
1008.151, 642.790
1009.398, 775.106
1010.646, 908.416
1011.893, 1223.740
1013.139, 1386.109
1014.386, 1760.328
1015.633, 2153.458
1016.879, 2296.794
1018.125, 2701.967
1019.371, 2709.384
1020.616, 2715.665
1021.862, 2715.087
1023.107, 2416.454
1024.352, 2628.631
1025.597, 2698.001
1026.842, 2936.387
1028.086, 3394.612
1029.330, 3081.939
1030.574, 2988.293
1031.818, 2516.585
1033.062, 1885.108
1034.305, 1729.409
1035.548, 1355.796
1036.791, 1283.130
1038.034, 1261.439
1039.277, 1064.134
1040.519, 1222.396
1041.762, 1206.800
1043.004, 1082.298
1044.246, 1157.753
1045.487, 955.240
1046.729, 846.533
1047.970, 803.888
1049.211, 653.585
1050.452, 642.936
1051.692, 608.448
1052.933, 567.779
1054.173, 579.245
1055.413, 478.860
1056.653, 532.291
1057.893, 521.842
1059.132, 482.304
1060.371, 582.794
1061.610, 531.288
1062.849, 569.910
1064.088, 678.409
1065.326, 577.964
1066.565, 612.424
1067.803, 639.063
1069.041, 534.391
1070.278, 630.981
1071.516, 578.629
1072.753, 570.652
1073.990, 639.307
1075.227, 479.203
1076.464, 603.867
1077.700, 497.539
1078.936, 509.577
1080.173, 566.265
1081.408, 472.958
1082.644, 544.667
1083.880, 605.382
1085.115, 583.113
1086.350, 687.850
1087.585, 774.591
1088.820, 839.352
1090.054, 1098.119
1091.288, 1082.908
1092.522, 1421.733
1093.756, 1541.564
1094.990, 1704.453
1096.224, 2011.341
1097.457, 2172.239
1098.690, 2324.488
1099.923, 2418.415
1101.156, 2292.368
1102.388, 2264.351
1103.621, 2033.348
1104.853, 1714.372
1106.085, 1695.424
1107.316, 1378.602
1108.548, 1211.995
1109.779, 1120.095
1111.010, 936.201
1112.241, 867.687
1113.472, 752.820
1114.703, 670.969
1115.933, 639.159
1117.163, 519.330
1118.393, 523.910
1119.623, 455.702
1120.853, 388.302
1122.082, 359.608
1123.311, 303.835
1124.540, 242.451
1125.769, 302.721
1126.997, 214.969
1128.226, 198.448
1129.454, 190.097
1130.682, 144.367
1131.910, 175.776
1133.138, 181.163
1134.365, 158.457
1135.592, 188.271
1136.819, 107.575
1138.046, 129.318
1139.273, 58.643
1140.499, 85.979
1141.725, 110.410
1142.951, 63.029
1144.177, 35.103
1145.403, 81.583
1146.628, 27.928
1147.854, 96.247
1149.079, 72.711
1150.304, 29.068
1151.528, 79.622
1152.753, 40.207
1153.977, 61.574
1155.201, 53.762
1156.425, 38.134
1157.649, 79.577
1158.872, 44.961
1160.096, 35.341
1161.319, 57.803
1162.542, 33.262
1163.764, 23.652
1164.987, 66.394
1166.209, 1.641
1167.431, 50.149
1168.653, 68.704
1169.875, 6.349
1171.097, 43.854
1172.318, 31.284
1173.539, 14.703
1174.760, 37.915
1175.981, 17.321
1177.202, 34.870
1178.422, 52.467
1179.642, 49.982
1180.862, 80.559
1182.082, 2.974
1183.302, 53.387
1184.521, 75.953
1185.740, 13.130
1186.959, 47.429
1188.178, 8.238
1189.397, 34.699
1190.615, 33.963
1191.834, 2.543
1193.052, 36.941
1194.269, 25.460
1195.487, 14.228
1196.705, 53.232
1197.922, 4.338
1199.139, 26.875
1200.356, 23.290
1201.573, 9.800
1202.789, 23.569
1204.006, 49.857
1205.222, 34.313
1206.438, 38.747
1207.653, 52.363
1208.869, 8.168
1210.084, 70.272
1211.299, 0.899
1212.514, 33.304
1213.729, 36.708
1214.944, 14.370
1216.158, 55.772
1217.372, 32.175
1218.586, 21.417
1219.800, 86.016
1221.014, 12.503
1222.227, 55.643
1223.440, 40.156
1224.654, 14.417
1225.866, 61.971
1227.079, 66.361
1228.292, 20.280
1229.504, 33.042
1230.716, 32.774
1231.928, 32.137
1233.139, 53.498
1234.351, 43.226
1235.562, 21.750
1236.773, 25.103
1237.984, 5.619
1239.195, 14.019
1240.406, 2.319
1241.616, 8.668
1242.826, 39.019
1244.036, 9.632
1245.246, 43.715
1246.456, 52.061
1247.665, 12.416
1248.874, 71.759
1250.083, 29.102
1251.292, 22.457
1252.501, 35.795
1253.709, 6.854
1254.917, 51.550
1256.125, 41.879
1257.333, 7.767
1258.541, 87.616
1259.748, 20.927
1260.956, 16.335
1262.163, 36.639
1263.370, 7.066
1264.576, 46.241
1265.783, 52.519
1266.989, 4.950
1268.195, 45.476
1269.401, 5.284
1270.607, 22.949
1271.813, 31.174
1273.018, 18.606
1274.223, 4.158
1275.428, 73.028
1276.633, 3.190
1277.838, 10.500
1279.042, 56.646
1280.246, 21.213
1281.450, 69.989
1282.654, 2.895
1283.858, 35.676
1285.061, 34.768
1286.265, 13.846
1287.468, 15.551
1288.671, 6.511
1289.873, 7.600
1291.076, 65.611
1292.278, 9.384
1293.480, 15.826
1294.682, 75.955
1295.884, 4.932
1297.086, 44.099
1298.287, 48.848
1299.488, 21.213
1300.689, 64.711
1301.890, 29.628
1303.091, 7.478
1304.291, 75.406
1305.491, 28.245
1306.691, 30.069
1307.891, 47.885
1309.091, 4.688
1310.290, 35.494
1311.490, 22.268
1312.689, 23.980
1313.888, 9.237
1315.086, 25.481
1316.285, 44.190
1317.483, 47.889
1318.681, 1.423
1319.879, 61.250
1321.077, 18.912
1322.275, 13.562
1323.472, 28.200
1324.669, 6.176
1325.866, 53.430
1327.063, 65.024
1328.260, 18.604
1329.456, 10.827
1330.653, 20.554
1331.849, 8.910
1333.045, 44.604
1334.240, 0.105
1335.436, 3.416
1336.631, 40.024
1337.826, 3.528
1339.021, 0.100
1340.216, 46.132
1341.411, 3.532
1342.605, 27.917
1343.799, 66.289
1344.993, 34.650
1346.187, 22.999
1347.381, 37.336
1348.574, 47.661
1349.767, 52.974
1350.961, 19.276
1352.153, 44.565
1353.346, 50.738
1354.539, 19.003
1355.731, 68.256
1356.923, 71.498
1358.115, 17.729
1359.307, 82.948
1360.498, 58.758
1361.690, 57.244
1362.881, 49.673
1364.072, 37.426
1365.263, 4.094
1366.453, 2.095
1367.644, 16.603
1368.834, 56.171
1370.024, 55.291
1371.214, 24.596
1372.404, 13.501
1373.593, 14.591
1374.783, 63.677
1375.972, 86.760
1377.161, 14.926
1378.349, 25.011
1379.538, 88.071
1380.726, 1.888
1381.915, 73.052
1383.103, 64.949
1384.290, 66.539
1385.478, 61.465
1386.665, 69.368
1387.853, 96.274
1389.040, 83.848
1390.227, 61.730
1391.413, 115.199
1392.600, 98.012
1393.786, 61.415
1394.972, 86.244
1396.158, 63.955
1397.344, 50.292
1398.530, 75.678
1399.715, 58.995
1400.900, 51.481
1402.085, 131.430
1403.270, 41.623
1404.455, 115.283
1405.639, 81.268
1406.824, 59.835
1408.008, 82.249
1409.192, 32.700
1410.375, 21.958
1411.559, 115.154
1412.742, 95.549
1413.925, 69.706
1415.108, 95.947
1416.291, 22.906
1417.474, 72.314
1418.656, 82.022
1419.839, 23.131
1421.021, 79.262
1422.202, 71.319
1423.384, 35.142
1424.566, 102.674
1425.747, 7.645
1426.928, 50.380
1428.109, 75.355
1429.290, 2.523
1430.470, 106.768
1431.651, 23.314
1432.831, 44.009
1434.011, 80.810
1435.191, 11.372
1436.370, 16.183
1437.550, 96.646
1438.729, 73.105
1439.908, 62.975
1441.087, 73.379
1442.266, 51.193
1443.444, 121.790
1444.623, 86.164
1445.801, 32.109
1446.979, 93.969
1448.157, 84.108
1449.334, 30.659
1450.512, 104.120
1451.689, 19.264
1452.866, 34.668
1454.043, 105.016
1455.220, 24.311
1456.396, 75.528
1457.573, 51.711
1458.749, 73.803
1459.925, 88.692
1461.100, 90.653
1462.276, 36.489
1463.451, 110.185
1464.627, 47.039
1465.802, 71.514
1466.977, 121.720
1468.151, 31.583
1469.326, 92.755
1470.500, 107.633
1471.674, 33.083
1472.848, 88.694
1474.022, 36.126
1475.195, 16.912
1476.369, 84.069
1477.542, 37.613
1478.715, 46.677
1479.888, 104.896
1481.061, 0.532
1482.233, 44.105
1483.405, 103.660
1484.577, 9.326
1485.749, 86.127
1486.921, 80.810
1488.093, 67.630
1489.264, 72.375
1490.435, 36.124
1491.606, 11.853
1492.777, 77.570
1493.948, 34.284
1495.118, 30.021
1496.288, 68.774
