##NAMES=Scolecite
##RRUFFID=R040111
##IDEAL CHEMISTRY=Ca(Si_3_Al_2_)O_10_&#183;3H_2_O
##LOCALITY=Bombay-Poona area, Mahahashtra Province, India
##OWNER=RRUFF
##SOURCE=National Museums of Canada
##DESCRIPTION=Pale pink prismatic crystals in parallel or near parallel aggregates
##STATUS=The identification of this mineral has been confirmed by X-ray diffraction and chemical analysis
##URL=rruff.info/R040111
##MEASURED CHEMISTRY=Ca_0.98_(Si_3.05_Al_1.95_)O_10_Â·3H_2_O
##PIN_ID=L00237
##ORIENTATION=Laser parallel to a* (1 0 0). Fiducial mark perpendicular to laser is parallel to b [0 1 0]
79.427, 0.000
80.823, 9.227
82.218, 282.754
83.614, 471.388
85.009, 946.259
86.404, 1465.583
87.798, 2106.803
89.193, 2981.229
90.587, 3917.988
91.981, 4892.483
93.375, 5644.921
94.768, 6352.257
96.161, 6813.086
97.554, 6837.654
98.947, 6701.215
100.340, 6104.287
101.732, 5604.375
103.124, 4373.058
104.516, 3365.105
105.908, 2607.568
107.300, 1840.720
108.691, 1417.052
110.082, 1213.103
111.473, 1417.503
112.864, 2322.936
114.254, 3712.131
115.644, 5335.859
117.034, 5873.363
118.424, 4359.309
119.813, 3386.918
121.203, 2638.208
122.592, 2109.647
123.981, 1956.420
125.369, 1519.266
126.758, 1593.292
128.146, 1467.597
129.534, 1568.264
130.922, 990.369
132.309, 673.981
133.696, 364.157
135.083, 539.138
136.470, 501.443
137.857, 875.404
139.243, 1026.047
140.630, 1094.447
142.016, 827.863
143.401, 436.035
144.787, 154.981
146.172, 46.714
147.557, 190.251
148.942, 485.602
150.327, 1289.776
151.711, 2182.785
153.096, 3439.904
154.480, 4503.832
155.863, 5504.980
157.247, 5663.807
158.630, 5331.484
160.013, 4492.795
161.396, 3728.201
162.779, 2881.424
164.161, 2131.960
165.544, 1542.668
166.926, 1171.772
168.308, 832.018
169.689, 700.436
171.070, 762.052
172.452, 799.878
173.833, 995.924
175.213, 1018.191
176.594, 1207.682
177.974, 1704.391
179.354, 2319.317
180.734, 2757.453
182.114, 3307.793
183.493, 3850.327
184.872, 4159.046
186.251, 4137.939
187.630, 3720.999
189.008, 3109.316
190.387, 2516.581
191.765, 1989.970
193.143, 1455.016
194.520, 1058.422
195.898, 1004.049
197.275, 801.938
198.652, 967.052
200.029, 1159.341
201.405, 1175.995
202.782, 1417.012
204.158, 1584.495
205.534, 1493.998
206.909, 1185.512
208.285, 1040.032
209.660, 708.561
211.035, 517.097
212.410, 473.637
213.784, 341.186
215.159, 501.734
216.533, 674.288
217.907, 811.844
219.281, 1022.396
220.654, 1019.945
222.027, 1108.490
223.400, 749.029
224.773, 420.229
226.146, 179.853
227.518, 29.529
228.891, 127.723
230.263, 297.101
231.634, 228.254
233.006, 377.683
234.377, 462.224
235.748, 395.936
237.119, 509.713
238.490, 386.725
239.860, 580.086
241.231, 496.868
242.601, 504.086
243.970, 386.785
245.340, 349.554
246.709, 455.385
248.079, 196.771
249.448, 186.357
250.816, 46.437
252.185, 226.373
253.553, 275.247
254.921, 525.042
256.289, 441.368
257.657, 516.262
259.024, 513.641
260.391, 549.441
261.758, 488.606
263.125, 817.093
264.492, 993.857
265.858, 1222.864
267.224, 1899.074
268.590, 2229.456
269.956, 2630.982
271.321, 2771.635
272.687, 2317.395
274.052, 2153.246
275.416, 2134.177
276.781, 2341.175
278.146, 2800.229
279.510, 3563.332
280.874, 4154.475
282.237, 4609.652
283.601, 4294.835
284.964, 3618.990
286.327, 3238.087
287.690, 2346.111
289.053, 1857.100
290.416, 1447.021
291.778, 835.914
293.140, 851.762
294.502, 448.601
295.863, 332.385
297.225, 179.113
298.586, 71.787
299.947, 44.101
301.308, 5.082
302.668, 48.355
304.029, 175.852
305.389, 229.158
306.749, 230.412
308.108, 273.214
309.468, 285.655
310.827, 453.813
312.186, 504.868
313.545, 664.623
314.903, 616.951
316.262, 625.757
317.620, 458.365
318.978, 484.826
320.336, 366.012
321.693, 204.129
323.051, 318.814
324.408, 68.343
325.765, 405.334
327.121, 354.428
328.478, 372.654
329.834, 746.429
331.190, 1147.103
332.546, 1291.771
333.902, 1786.431
335.257, 1993.081
336.612, 2331.722
337.967, 2714.351
339.322, 2854.969
340.677, 3053.572
342.031, 2871.161
343.385, 2944.735
344.739, 2851.293
346.093, 2607.832
347.446, 2423.354
348.799, 2293.854
350.153, 2233.335
351.505, 2060.795
352.858, 1930.229
354.210, 1723.582
355.563, 1410.825
356.915, 1258.039
358.267, 1090.229
359.618, 790.393
360.969, 787.532
362.321, 489.645
363.672, 525.729
365.022, 515.772
366.373, 252.742
367.723, 229.670
369.073, 190.552
370.423, 148.385
371.773, 3.158
373.122, 12.842
374.471, 154.438
375.821, 68.026
377.169, 190.401
378.518, 60.225
379.866, 73.041
381.215, 216.230
382.563, 221.370
383.910, 136.459
385.258, 348.484
386.605, 569.474
387.952, 496.400
389.299, 626.239
390.646, 521.875
391.992, 763.230
393.339, 804.997
394.685, 702.959
396.031, 903.913
397.376, 705.145
398.722, 833.866
400.067, 869.268
401.412, 860.279
402.757, 1096.315
404.101, 1041.129
405.446, 917.438
406.790, 1001.181
408.134, 826.979
409.478, 743.974
410.821, 640.683
412.165, 270.813
413.508, 553.769
414.851, 418.860
416.193, 163.935
417.536, 289.986
418.878, 443.015
420.220, 560.015
421.562, 721.186
422.904, 742.927
424.245, 1114.834
425.586, 1226.706
426.927, 1586.543
428.268, 1909.342
429.609, 2246.103
430.949, 2747.823
432.289, 3127.504
433.629, 2898.146
434.969, 3006.744
436.309, 2384.301
437.648, 2138.816
438.987, 1651.289
440.326, 1101.721
441.665, 890.107
443.003, 973.449
444.342, 813.750
445.680, 822.006
447.018, 1002.219
448.355, 942.389
449.693, 873.018
451.030, 886.141
452.367, 988.861
453.704, 645.912
455.041, 737.311
456.377, 699.219
457.713, 539.082
459.049, 495.838
460.385, 556.324
461.721, 501.354
463.056, 363.641
464.391, 194.447
465.726, 370.574
467.061, 222.211
468.395, 152.807
469.730, 177.412
471.064, 152.971
472.398, 262.486
473.731, 85.096
475.065, 54.242
476.398, 12.518
477.731, 67.750
479.064, 7.066
480.397, 78.033
481.729, 59.082
483.062, 19.434
484.394, 151.363
485.725, 36.146
487.057, 237.988
488.389, 151.805
489.720, 188.590
491.051, 270.377
492.382, 227.135
493.712, 410.932
495.043, 354.705
496.373, 352.463
497.703, 560.193
499.032, 570.926
500.362, 626.633
501.691, 833.340
503.020, 878.027
504.349, 1071.686
505.678, 1131.344
507.007, 1239.982
508.335, 1404.594
509.663, 1713.184
510.991, 2043.756
512.319, 2301.307
513.646, 2950.832
514.973, 3026.334
516.300, 3746.811
517.627, 4268.266
518.954, 4767.699
520.280, 5838.109
521.607, 6860.498
522.933, 8487.863
524.259, 10545.207
525.584, 12930.525
526.910, 16481.248
528.235, 20727.215
529.560, 26202.844
530.885, 30804.859
532.209, 35171.641
533.534, 38586.926
534.858, 37225.934
536.182, 33683.965
537.506, 28414.137
538.829, 22978.473
540.152, 17919.691
541.476, 14225.535
542.799, 10685.465
544.121, 8754.328
545.444, 7112.279
546.766, 5515.305
548.088, 4766.316
549.410, 4005.314
550.732, 3516.309
552.053, 2965.322
553.375, 2445.389
554.696, 2262.494
556.017, 2141.676
557.337, 1905.951
558.658, 1714.307
559.978, 1359.766
561.298, 1422.305
562.618, 1117.967
563.938, 1096.736
565.257, 1189.611
566.576, 811.566
567.895, 960.592
569.214, 1002.711
570.533, 762.869
571.851, 700.061
573.170, 900.246
574.488, 571.420
575.805, 627.451
577.123, 370.605
578.440, 408.750
579.758, 662.881
581.075, 463.004
582.391, 623.117
583.708, 501.219
585.024, 495.311
586.341, 466.396
587.657, 397.512
588.972, 492.537
590.288, 256.596
591.603, 283.646
592.918, 117.684
594.233, 222.715
595.548, 339.740
596.863, 167.756
598.177, 134.764
599.491, 224.764
600.805, 200.758
602.119, 85.744
603.432, 203.725
604.746, 234.697
606.059, 115.664
607.372, 137.373
608.685, 29.512
609.997, 140.607
611.309, 66.801
612.621, 201.027
613.933, 203.637
615.245, 223.295
616.557, 194.951
617.868, 374.602
619.179, 363.723
620.490, 559.406
621.801, 1069.402
623.111, 1081.205
624.421, 1442.938
625.731, 1125.668
627.041, 1258.850
628.351, 754.881
629.660, 503.285
630.970, 718.141
632.279, 232.771
633.588, 315.105
634.896, 142.930
636.205, 356.014
637.513, 283.971
638.821, 456.385
640.129, 719.920
641.437, 679.410
642.744, 765.562
644.051, 973.941
645.358, 978.674
646.665, 1155.961
647.972, 965.164
649.278, 934.895
650.584, 963.250
651.890, 1226.977
653.196, 981.264
654.502, 907.990
655.807, 597.115
657.113, 720.842
658.418, 678.627
659.722, 463.352
661.027, 360.072
662.331, 361.812
663.636, 500.117
664.940, 228.834
666.244, 584.551
667.547, 501.902
668.851, 630.617
670.154, 733.336
671.457, 534.049
672.760, 856.764
674.062, 724.479
675.365, 606.195
676.667, 764.908
677.969, 596.625
679.271, 533.340
680.572, 486.057
681.874, 573.773
683.175, 593.492
684.476, 554.223
685.777, 593.973
687.077, 599.742
688.378, 817.543
689.678, 950.406
690.978, 973.328
692.278, 530.281
693.577, 1059.314
694.877, 688.375
696.176, 1041.518
697.475, 783.703
698.774, 1089.916
700.072, 1280.148
701.371, 1308.416
702.669, 1255.693
703.967, 1836.979
705.265, 1972.262
706.562, 1829.551
707.860, 1463.846
709.157, 1703.143
710.454, 1172.445
711.751, 1279.752
713.047, 775.062
714.344, 855.375
715.640, 431.691
716.936, 504.008
718.232, 450.330
719.527, 480.654
720.823, 317.980
722.118, 324.305
723.413, 267.633
724.708, 309.957
726.002, 400.285
727.297, 116.613
728.591, 337.941
729.885, 501.270
731.179, 331.598
732.472, 284.928
733.766, 352.256
735.059, 461.586
736.352, 367.916
737.645, 329.246
738.937, 483.578
740.230, 260.910
741.522, 502.242
742.814, 496.578
744.106, 573.914
745.397, 630.250
746.689, 561.590
747.980, 777.930
749.271, 1055.273
750.562, 1250.617
751.853, 1052.963
753.143, 1154.311
754.433, 1135.660
755.723, 1106.014
757.013, 1254.367
758.303, 923.721
759.592, 949.082
760.881, 801.443
762.170, 825.807
763.459, 700.670
764.748, 376.996
766.036, 528.686
767.325, 351.006
768.613, 407.941
769.901, 325.326
771.188, 65.713
772.476, 274.107
773.763, 62.496
775.050, 144.873
776.337, 43.754
777.624, 74.398
778.910, 87.078
780.196, 66.203
781.482, 215.512
782.768, 208.332
784.054, 17.258
785.339, 0.125
786.625, 177.992
787.910, 163.096
789.195, 115.799
790.479, 46.730
791.764, 86.322
793.048, 11.594
794.332, 66.498
795.616, 194.604
796.900, 296.729
798.183, 2.139
799.467, 39.008
800.750, 18.158
802.033, 98.684
803.316, 268.430
804.598, 243.453
805.880, 141.543
807.163, 35.455
808.445, 8.533
809.726, 97.475
811.008, 36.473
812.289, 108.572
813.570, 127.330
814.851, 159.240
816.132, 92.848
817.413, 15.975
818.693, 228.895
819.973, 50.771
821.253, 39.350
822.533, 234.518
823.813, 242.391
825.092, 92.268
826.371, 180.152
827.650, 171.039
828.929, 303.934
830.208, 344.836
831.486, 204.738
832.764, 415.650
834.042, 339.568
835.320, 429.498
836.598, 484.434
837.875, 447.393
839.152, 367.355
840.429, 650.330
841.706, 482.314
842.983, 547.324
844.259, 802.367
845.536, 570.418
846.812, 688.475
848.088, 623.545
849.363, 905.625
850.639, 931.738
851.914, 923.879
853.189, 852.049
854.464, 989.223
855.739, 1070.062
857.013, 1300.709
858.288, 1324.988
859.562, 1526.293
860.836, 1534.604
862.110, 1249.922
863.383, 1394.262
864.656, 1168.615
865.930, 1027.977
867.203, 932.348
868.475, 815.336
869.748, 748.225
871.020, 697.672
872.292, 765.125
873.564, 761.584
874.836, 663.045
876.108, 605.512
877.379, 747.980
878.650, 813.449
879.922, 715.963
881.192, 737.480
882.463, 737.000
883.733, 744.539
885.004, 669.082
886.274, 606.629
887.544, 799.182
888.813, 671.754
890.083, 578.330
891.352, 789.912
892.621, 576.498
893.890, 588.090
895.159, 640.688
896.427, 707.318
897.695, 696.834
898.964, 631.717
900.232, 770.432
901.499, 640.156
902.767, 821.885
904.034, 645.619
905.301, 720.355
906.568, 775.105
907.835, 821.855
909.102, 662.607
910.368, 789.361
911.634, 792.117
912.900, 536.873
914.166, 933.633
915.432, 557.395
916.697, 355.189
917.962, 711.998
919.227, 480.842
920.492, 498.701
921.757, 397.611
923.021, 448.521
924.285, 586.436
925.550, 553.352
926.813, 603.822
928.077, 759.748
929.341, 734.398
930.604, 822.125
931.867, 761.064
933.130, 857.000
934.393, 1225.885
935.655, 850.229
936.918, 1268.434
938.180, 1178.240
939.442, 759.518
940.703, 812.467
941.965, 614.676
943.226, 379.229
944.488, 528.184
945.749, 458.342
947.009, 779.611
948.270, 678.570
949.530, 714.533
950.791, 955.312
952.051, 777.275
953.311, 859.242
954.570, 759.646
955.830, 709.615
957.089, 597.959
958.348, 317.930
959.607, 568.344
960.866, 300.318
962.124, 409.896
963.383, 420.877
964.641, 377.797
965.899, 344.785
967.156, 317.775
968.414, 169.746
969.671, 152.156
970.928, 34.152
972.185, 207.150
973.442, 144.514
974.699, 306.516
975.955, 271.516
977.211, 66.521
978.468, 327.525
979.723, 178.674
980.979, 185.680
982.234, 616.688
983.490, 119.727
984.745, 577.277
986.000, 633.848
987.254, 390.857
988.509, 839.695
989.763, 779.707
991.017, 709.207
992.271, 788.125
993.525, 1028.186
994.779, 1368.082
996.032, 1682.768
997.285, 2103.180
998.538, 2046.562
999.791, 2688.043
1001.044, 2770.443
1002.296, 3334.805
1003.548, 2785.768
1004.800, 2447.062
1006.052, 2338.266
1007.304, 2174.834
1008.555, 2360.537
1009.807, 2235.158
1011.058, 2019.857
1012.309, 1826.328
1013.559, 1703.826
1014.810, 1282.768
1016.060, 1410.811
1017.310, 1266.104
1018.560, 1081.322
1019.810, 1221.219
1021.060, 1420.576
1022.309, 1132.459
1023.558, 1457.229
1024.807, 1214.334
1026.056, 1464.758
1027.305, 1356.600
1028.553, 1682.432
1029.801, 1671.494
1031.049, 1766.924
1032.297, 2031.332
1033.545, 2319.281
1034.793, 2072.580
1036.040, 1952.752
1037.287, 1680.613
1038.534, 1559.355
1039.781, 1647.383
1041.027, 1201.070
1042.274, 1415.342
1043.520, 1741.125
1044.766, 1590.398
1046.012, 1830.701
1047.257, 1616.387
1048.503, 1917.283
1049.748, 1371.963
1050.993, 1438.594
1052.238, 1144.453
1053.483, 849.232
1054.727, 770.885
1055.971, 970.203
1057.216, 698.848
1058.459, 753.494
1059.703, 692.119
1060.947, 654.719
1062.190, 713.305
1063.433, 865.871
1064.676, 698.969
1065.919, 545.842
1067.162, 912.211
1068.404, 541.744
1069.646, 601.441
1070.888, 819.908
1072.130, 628.357
1073.372, 618.107
1074.613, 776.861
1075.855, 622.207
1077.096, 499.000
1078.337, 678.771
1079.578, 872.148
1080.818, 945.586
1082.059, 1055.957
1083.299, 1200.307
1084.539, 976.004
1085.779, 946.893
1087.018, 870.299
1088.258, 849.688
1089.497, 795.771
1090.736, 807.496
1091.975, 721.900
1093.213, 762.293
1094.452, 771.504
1095.690, 613.020
1096.928, 923.348
1098.166, 967.654
1099.404, 1071.939
1100.642, 908.203
1101.879, 1068.443
1103.116, 860.658
1104.353, 1018.875
1105.590, 595.066
1106.827, 719.299
1108.063, 581.508
1109.299, 653.697
1110.536, 570.260
1111.771, 567.840
1113.007, 472.979
1114.243, 545.730
1115.478, 485.848
1116.713, 443.938
1117.948, 558.037
1119.183, 519.395
1120.418, 594.166
1121.652, 661.191
1122.886, 645.195
1124.120, 907.176
1125.354, 450.129
1126.588, 750.053
1127.821, 231.949
1129.055, 379.812
1130.288, 470.646
1131.521, 263.455
1132.753, 143.232
1133.986, 8.975
1135.218, 527.689
1136.450, 30.625
1137.682, 344.018
1138.914, 20.596
1140.146, 85.146
1141.377, 31.334
1142.609, 75.908
1143.840, 125.439
1145.071, 191.697
1146.301, 2.119
1147.532, 177.023
1148.762, 80.887
1149.992, 47.861
1151.222, 56.953
1152.452, 222.902
1153.682, 187.270
1154.911, 29.479
1156.140, 66.852
1157.369, 33.236
1158.598, 126.316
1159.827, 39.387
1161.055, 24.695
1162.284, 5.721
1163.512, 84.098
1164.740, 55.340
1165.967, 199.484
1167.195, 324.590
1168.422, 50.631
1169.650, 435.623
1170.877, 115.588
1172.103, 256.523
1173.330, 178.424
1174.557, 434.285
1175.783, 452.115
1177.009, 99.082
1178.235, 170.648
1179.461, 173.332
1180.686, 1.020
1181.912, 196.582
1183.137, 224.146
1184.362, 99.678
1185.587, 12.826
1186.811, 252.619
1188.036, 118.033
1189.260, 189.834
1190.484, 105.180
1191.708, 187.074
1192.932, 68.316
1194.155, 133.826
1195.378, 41.508
1196.602, 344.965
1197.825, 42.553
1199.047, 300.830
1200.270, 120.152
1201.492, 527.533
1202.715, 22.408
1203.937, 340.451
1205.159, 347.324
1206.380, 349.084
1207.602, 411.018
1208.823, 360.482
1210.044, 376.363
1211.265, 221.980
1212.486, 272.562
1213.707, 63.107
1214.927, 345.609
1216.147, 302.082
1217.367, 426.523
1218.587, 407.182
1219.807, 277.561
1221.027, 272.902
1222.246, 60.215
1223.465, 258.490
1224.684, 499.734
1225.903, 257.092
1227.121, 138.281
1228.340, 407.436
1229.558, 491.564
1230.776, 281.666
1231.994, 244.736
1233.212, 422.779
1234.429, 597.795
1235.646, 545.777
1236.864, 738.705
1238.081, 505.467
1239.297, 707.148
1240.514, 819.709
1241.730, 531.227
1242.947, 455.600
1244.163, 518.936
1245.378, 673.281
1246.594, 658.533
1247.810, 422.742
1249.025, 751.908
1250.240, 459.031
1251.455, 505.105
1252.670, 637.135
1253.885, 567.113
1255.099, 443.043
1256.313, 257.916
1257.527, 252.197
1258.741, 522.494
1259.955, 205.203
1261.168, 438.865
1262.382, 471.486
1263.595, 546.959
1264.808, 556.586
1266.021, 612.090
1267.233, 646.666
1268.446, 878.100
1269.658, 587.502
1270.870, 1017.881
1272.082, 613.012
1273.294, 791.074
1274.505, 835.914
1275.716, 866.799
1276.928, 650.621
1278.139, 905.371
1279.349, 530.617
1280.560, 506.645
1281.770, 574.303
1282.981, 487.316
1284.191, 565.406
1285.401, 435.545
1286.610, 411.754
1287.820, 385.344
1289.029, 331.422
1290.239, 529.395
1291.448, 333.666
1292.656, 396.727
1293.865, 529.920
1295.073, 479.506
1296.282, 522.396
1297.490, 404.924
1298.698, 505.664
1299.906, 402.998
1301.113, 324.076
1302.320, 322.211
1303.528, 460.752
1304.735, 279.578
1305.942, 484.918
1307.148, 592.520
1308.355, 387.854
1309.561, 718.357
1310.767, 600.354
1311.973, 698.330
1313.179, 361.496
1314.384, 835.475
1315.590, 595.822
1316.795, 713.137
1318.000, 461.648
1319.205, 838.814
1320.410, 629.562
1321.614, 501.590
1322.819, 895.605
1324.023, 705.076
1325.227, 698.256
1326.431, 599.365
1327.634, 531.434
1328.838, 319.352
1330.041, 422.812
1331.244, 448.207
1332.447, 377.703
1333.650, 120.795
1334.852, 221.990
1336.055, 20.123
1337.257, 138.191
1338.459, 108.807
1339.661, 170.133
1340.862, 25.598
1342.064, 19.311
1343.265, 45.979
1344.466, 120.619
1345.667, 101.150
1346.868, 357.611
1348.068, 154.004
1349.269, 59.666
1350.469, 422.607
1351.669, 230.822
1352.869, 146.941
1354.069, 331.049
1355.268, 211.148
1356.468, 239.346
1357.667, 238.895
1358.866, 206.527
1360.065, 229.307
1361.263, 250.131
1362.462, 128.016
1363.660, 331.930
1364.858, 194.863
1366.056, 236.801
1367.254, 303.289
1368.451, 194.879
1369.649, 150.518
1370.846, 333.121
1372.043, 269.771
1373.240, 272.406
1374.436, 430.125
1375.633, 260.887
1376.829, 285.670
1378.025, 224.463
1379.221, 476.887
1380.417, 307.223
1381.613, 301.061
1382.808, 412.207
1384.003, 340.795
1385.199, 402.750
1386.393, 197.729
1387.588, 398.471
1388.783, 90.193
1389.977, 268.662
1391.171, 187.963
1392.365, 222.049
1393.559, 409.664
1394.753, 152.164
1395.946, 306.289
1397.140, 86.193
1398.333, 328.314
1399.526, 221.828
1400.719, 142.633
1401.911, 160.859
1403.104, 261.715
1404.296, 132.750
1405.488, 364.207
1406.680, 37.812
1407.872, 38.559
1409.063, 543.074
1410.255, 30.812
1411.446, 335.066
1412.637, 149.262
1413.828, 354.508
1415.018, 343.406
1416.209, 203.121
1417.399, 55.648
1418.589, 316.055
1419.779, 37.742
1420.969, 319.438
1422.159, 0.000
##END=



