##NAMES=Scolecite
##RRUFFID=R050083
##IDEAL CHEMISTRY=Ca(Si_3_Al_2_)O_10_&#183;3H_2_O
##LOCALITY=near Ahmednagar, Maharashtra, India
##OWNER=RRUFF
##SOURCE=Rock Currier
##DESCRIPTION=Colorless acicular single crystals associated with fluorapophyllite
##STATUS=The identification of this mineral has been confirmed by X-ray diffraction and chemical analysis
##URL=rruff.info/R050083
##MEASURED CHEMISTRY=(Ca_.992_Na_.008_)[Al_2_Si_3_O_10_]Â·3H_2_O
##PIN_ID=M00346
##ORIENTATION=Laser parallel to b* (0 1 0). Fiducial mark perpendicular to laser is parallel to c [0 0 1]
91.262, 0.000
92.661, 2.132
94.059, 6.426
95.458, 189.637
96.856, 286.715
98.254, 393.269
99.652, 488.513
101.049, 520.572
102.446, 525.359
103.843, 666.051
105.240, 814.890
106.637, 982.277
108.033, 1244.733
109.429, 1616.866
110.825, 1901.717
112.220, 1991.581
113.616, 1942.018
115.011, 1733.643
116.406, 1523.155
117.800, 1296.335
119.195, 1183.093
120.589, 1025.333
121.983, 916.939
123.377, 856.831
124.770, 940.911
126.163, 926.124
127.556, 946.429
128.949, 932.801
130.342, 750.995
131.734, 554.056
133.126, 373.494
134.518, 234.214
135.909, 167.457
137.301, 260.203
138.692, 398.402
140.083, 658.108
141.473, 876.368
142.864, 919.228
144.254, 804.908
145.644, 698.889
147.034, 457.959
148.423, 406.697
149.812, 306.092
151.201, 383.171
152.590, 530.167
153.979, 771.924
155.367, 1111.172
156.755, 1492.181
158.143, 1741.964
159.530, 1852.535
160.918, 1696.906
162.305, 1415.088
163.692, 1183.311
165.078, 885.414
166.465, 796.587
167.851, 719.080
169.237, 685.953
170.623, 702.247
172.008, 719.882
173.393, 662.971
174.778, 755.039
176.163, 826.111
177.548, 938.218
178.932, 1149.144
180.316, 1384.143
181.700, 1587.297
183.083, 1672.517
184.467, 1765.801
185.850, 1641.147
187.233, 1454.555
188.616, 1307.021
189.998, 1068.543
191.380, 810.117
192.762, 723.740
194.144, 552.591
195.525, 477.581
196.907, 402.567
198.288, 459.956
199.669, 472.734
201.049, 531.152
202.429, 516.595
203.810, 594.206
205.189, 640.557
206.569, 569.940
207.949, 477.353
209.328, 334.790
210.707, 285.249
212.085, 220.723
213.464, 70.201
214.842, 95.673
216.220, 67.139
217.598, 149.597
218.976, 236.047
220.353, 313.489
221.730, 468.923
223.107, 572.348
224.483, 634.766
225.860, 583.175
227.236, 527.575
228.612, 427.965
229.988, 355.986
231.363, 227.706
232.738, 180.057
234.113, 140.395
235.488, 72.720
236.863, 44.969
238.237, 88.671
239.611, 116.385
240.985, 179.112
242.359, 190.833
243.732, 187.972
245.105, 161.183
246.478, 176.970
247.851, 136.852
249.223, 96.924
250.595, 10.250
251.967, 13.193
253.339, 114.450
254.711, 230.640
256.082, 293.829
257.453, 344.912
258.824, 333.288
260.195, 236.113
261.565, 162.323
262.935, 112.768
264.305, 60.396
265.675, 31.170
267.044, 0.943
268.414, 26.031
269.783, 116.075
271.151, 114.181
272.520, 192.336
273.888, 247.530
275.256, 182.754
276.624, 287.001
277.992, 262.260
279.359, 335.524
280.726, 442.788
282.093, 526.048
283.460, 612.299
284.827, 625.538
286.193, 645.764
287.559, 560.975
288.925, 466.167
290.290, 375.342
291.656, 330.499
293.021, 230.644
294.386, 164.761
295.750, 121.353
297.115, 91.851
298.479, 45.820
299.843, 18.740
301.207, 0.604
302.570, 4.591
303.933, 33.841
305.296, 10.149
306.659, 12.514
308.022, 10.933
309.384, 13.594
310.746, 58.072
312.108, 98.639
313.470, 123.468
314.831, 169.569
316.193, 193.282
317.554, 233.723
318.914, 202.191
320.275, 245.621
321.635, 226.970
322.995, 230.318
324.355, 287.511
325.715, 299.672
327.074, 319.809
328.434, 411.898
329.792, 407.837
331.151, 472.537
332.510, 464.961
333.868, 416.139
335.226, 437.138
336.584, 371.090
337.941, 329.038
339.299, 342.979
340.656, 366.916
342.013, 396.847
343.370, 364.763
344.726, 414.646
346.082, 451.522
347.438, 402.393
348.794, 430.258
350.150, 415.116
351.505, 384.968
352.860, 400.812
354.215, 382.650
355.570, 351.479
356.924, 355.302
358.278, 310.115
359.632, 353.909
360.986, 347.657
362.339, 384.336
363.693, 423.952
365.046, 388.516
366.399, 350.063
367.751, 367.602
369.104, 359.135
370.456, 374.660
371.808, 377.073
373.159, 337.690
374.511, 377.194
375.862, 384.691
377.213, 368.102
378.564, 335.584
379.914, 351.964
381.265, 335.431
382.615, 329.890
383.965, 312.342
385.315, 242.786
386.664, 251.223
388.013, 213.653
389.362, 226.075
390.711, 184.490
392.060, 118.898
393.408, 133.296
394.756, 152.687
396.104, 114.069
397.451, 190.443
398.799, 203.712
400.146, 231.113
401.493, 275.765
402.840, 291.671
404.186, 328.635
405.533, 390.857
406.879, 404.250
408.225, 381.317
409.570, 319.389
410.916, 288.977
412.261, 210.074
413.606, 204.624
414.951, 158.570
416.295, 130.867
417.639, 122.163
418.983, 122.998
420.327, 165.752
421.671, 184.041
423.014, 230.324
424.357, 320.598
425.700, 393.863
427.043, 488.910
428.386, 569.419
429.728, 750.459
431.070, 936.732
432.412, 1068.939
433.753, 1252.133
435.095, 1359.314
436.436, 1403.482
437.777, 1400.637
439.118, 1349.778
440.458, 1330.905
441.798, 1252.018
443.138, 1219.118
444.478, 1163.203
445.818, 1151.275
447.157, 1129.333
448.496, 1146.377
449.835, 1080.407
451.174, 1028.441
452.513, 954.756
453.851, 881.538
455.189, 733.696
456.527, 674.747
457.864, 590.056
459.202, 523.402
460.539, 440.396
461.876, 375.206
463.212, 310.091
464.549, 239.312
465.885, 203.346
467.221, 126.266
468.557, 99.338
469.893, 105.162
471.228, 80.790
472.563, 23.858
473.898, 6.671
475.233, 11.683
476.567, 3.690
477.902, 24.073
479.236, 8.926
480.570, 13.331
481.903, 25.351
483.237, 18.201
484.570, 48.106
485.903, 48.515
487.235, 47.718
488.568, 68.478
489.900, 96.208
491.232, 112.915
492.564, 118.615
493.896, 134.337
495.227, 160.008
496.558, 149.702
497.889, 178.394
499.220, 187.083
500.551, 142.772
501.881, 204.458
503.211, 186.144
504.541, 263.838
505.870, 251.527
507.200, 246.218
508.529, 315.908
509.858, 318.604
511.187, 360.302
512.515, 418.996
513.844, 478.691
515.172, 557.381
516.500, 649.067
517.827, 747.753
519.155, 865.436
520.482, 1051.114
521.809, 1242.789
523.136, 1467.461
524.462, 1742.131
525.789, 2147.800
527.115, 2678.466
528.441, 3360.128
529.766, 4215.790
531.092, 5339.444
532.417, 6715.099
533.742, 8248.747
535.067, 9288.396
536.391, 9988.042
537.716, 9657.683
539.040, 8577.324
540.364, 7087.965
541.688, 5721.601
543.011, 4472.234
544.334, 3556.865
545.657, 2742.493
546.980, 2168.118
548.303, 1782.739
549.625, 1515.358
550.947, 1286.956
552.269, 1016.233
553.591, 940.613
554.913, 808.071
556.234, 733.304
557.555, 649.905
558.876, 542.504
560.197, 517.122
561.517, 469.771
562.837, 465.458
564.157, 396.200
565.477, 427.999
566.797, 392.855
568.116, 366.761
569.435, 324.720
570.754, 239.723
572.073, 282.759
573.391, 257.804
574.709, 218.854
576.027, 248.900
577.345, 175.943
578.663, 162.983
579.980, 164.019
581.297, 199.053
582.614, 172.084
583.931, 149.111
585.248, 110.136
586.564, 118.158
587.880, 107.181
589.196, 96.400
590.511, 99.245
591.827, 87.274
593.142, 115.300
594.457, 113.323
595.772, 107.343
597.086, 122.360
598.401, 96.374
599.715, 77.385
601.029, 84.393
602.343, 51.397
603.656, 46.400
604.969, 36.399
606.282, 55.395
607.595, 52.389
608.908, 24.379
610.220, 7.633
611.532, 34.651
612.844, 2.689
614.156, 7.269
615.468, 11.776
616.779, 16.828
618.090, 24.889
619.401, 4.043
620.712, 9.996
622.022, 18.990
623.332, 29.963
624.642, 39.100
625.952, 7.799
627.262, 19.190
628.571, 9.644
629.880, 41.566
631.189, 18.595
632.498, 42.588
633.807, 24.196
635.115, 47.631
636.423, 5.685
637.731, 30.499
639.039, 4.768
640.346, 4.206
641.653, 0.245
642.960, 25.477
644.267, 7.315
645.574, 29.711
646.880, 34.727
648.186, 54.549
649.492, 79.607
650.798, 41.466
652.103, 118.998
653.409, 65.707
654.714, 121.280
656.019, 93.351
657.323, 94.656
658.628, 76.645
659.932, 134.743
661.236, 140.402
662.540, 150.342
663.843, 128.607
665.147, 177.112
666.450, 176.620
667.753, 231.868
669.056, 271.878
670.358, 205.743
671.660, 238.644
672.963, 272.655
674.264, 249.512
675.566, 208.450
676.868, 262.376
678.169, 167.365
679.470, 205.274
680.771, 188.500
682.071, 131.852
683.372, 177.735
684.672, 127.542
685.972, 121.508
687.271, 124.365
688.571, 169.160
689.870, 159.950
691.169, 190.906
692.468, 189.800
693.767, 212.744
695.065, 205.805
696.364, 217.718
697.662, 190.656
698.960, 246.482
700.257, 296.307
701.555, 282.058
702.852, 325.805
704.149, 390.663
705.446, 411.463
706.742, 465.254
708.038, 431.091
709.335, 460.817
710.631, 420.639
711.926, 421.374
713.222, 401.090
714.517, 367.558
715.812, 383.642
717.107, 306.478
718.402, 331.175
719.696, 311.906
720.990, 273.593
722.284, 265.301
723.578, 242.045
724.872, 262.779
726.165, 224.442
727.458, 282.102
728.751, 254.752
730.044, 308.396
731.336, 324.082
732.629, 303.712
733.921, 329.369
735.213, 302.985
736.504, 240.663
737.796, 253.266
739.087, 330.197
740.378, 245.646
741.669, 246.974
742.960, 190.831
744.250, 144.412
745.540, 205.974
746.830, 143.555
748.120, 208.103
749.410, 231.644
750.699, 222.178
751.988, 299.705
753.277, 272.230
754.566, 298.799
755.854, 272.305
757.143, 345.804
758.431, 316.296
759.719, 312.781
761.006, 295.260
762.294, 275.732
763.581, 250.196
764.868, 205.637
766.155, 153.775
767.442, 179.425
768.728, 170.680
770.014, 118.021
771.300, 142.970
772.586, 98.673
773.872, 82.872
775.157, 57.171
776.442, 45.488
777.727, 43.019
779.012, 34.846
780.297, 29.220
781.581, 59.241
782.865, 20.557
784.149, 42.488
785.433, 7.515
786.716, 8.801
787.999, 19.738
789.282, 6.833
790.565, 7.147
791.848, 7.647
793.130, 23.016
794.413, 11.975
795.695, 35.884
796.977, 4.826
798.258, 6.652
799.540, 31.573
800.821, 26.562
802.102, 6.290
803.382, 14.861
804.663, 6.996
805.943, 1.868
807.224, 4.752
808.504, 2.651
809.783, 8.437
811.063, 14.482
812.342, 25.579
813.621, 11.367
814.900, 36.331
816.179, 34.675
817.457, 14.326
818.736, 2.346
820.014, 34.378
821.292, 14.440
822.569, 12.480
823.847, 8.608
825.124, 36.289
826.401, 9.178
827.678, 8.940
828.954, 23.927
830.231, 25.786
831.507, 9.637
832.783, 27.482
834.059, 0.319
835.334, 1.854
836.610, 29.961
837.885, 65.770
839.160, 7.572
840.435, 32.367
841.709, 54.155
842.983, 46.937
844.258, 4.713
845.532, 18.481
846.805, 5.242
848.079, 1.071
849.352, 10.090
850.625, 3.478
851.898, 28.207
853.171, 26.931
854.443, 47.647
855.715, 43.358
856.988, 15.062
858.259, 27.761
859.531, 28.452
860.803, 16.138
862.074, 49.817
863.345, 17.490
864.616, 37.158
865.886, 51.819
867.157, 8.475
868.427, 41.125
869.697, 7.768
870.967, 49.405
872.236, 30.036
873.506, 39.662
874.775, 32.282
876.044, 21.897
877.313, 22.505
878.581, 47.109
879.849, 36.711
881.118, 43.309
882.386, 52.901
883.653, 24.488
884.921, 46.069
886.188, 27.646
887.455, 60.217
888.722, 18.782
889.989, 48.342
891.255, 32.897
892.522, 2.448
893.788, 56.992
895.054, 13.535
896.319, 30.073
897.585, 37.605
898.850, 26.134
900.115, 68.660
901.380, 47.181
902.645, 42.698
903.909, 56.211
905.174, 29.719
906.438, 17.222
907.701, 63.723
908.965, 78.221
910.229, 67.714
911.492, 42.202
912.755, 28.687
914.018, 40.167
915.280, 31.643
916.543, 44.888
917.805, 54.585
919.067, 77.053
920.329, 93.525
921.590, 116.995
922.852, 94.460
924.113, 138.925
925.374, 140.389
926.635, 152.855
927.895, 178.302
929.156, 202.696
930.416, 243.090
931.676, 264.459
932.936, 261.801
934.195, 266.266
935.454, 227.567
936.714, 217.959
937.973, 189.134
939.231, 174.905
940.490, 199.672
941.748, 166.911
943.006, 162.154
944.264, 192.566
945.522, 143.066
946.780, 214.368
948.037, 212.060
949.294, 272.700
950.551, 235.223
951.808, 203.180
953.064, 239.533
954.320, 201.073
955.577, 153.373
956.832, 124.867
958.088, 81.682
959.344, 84.316
960.599, 110.082
961.854, 77.344
963.109, 110.367
964.364, 90.700
965.618, 36.920
966.872, 50.574
968.127, 98.943
969.380, 88.982
970.634, 63.776
971.888, 98.562
973.141, 108.604
974.394, 115.879
975.647, 136.296
976.900, 126.671
978.152, 160.934
979.404, 167.345
980.656, 191.670
981.908, 230.004
983.160, 243.270
984.411, 351.611
985.663, 416.631
986.914, 397.520
988.165, 436.874
989.415, 384.300
990.666, 362.563
991.916, 366.931
993.166, 330.357
994.416, 331.786
995.665, 289.044
996.915, 263.361
998.164, 293.623
999.413, 328.765
1000.662, 312.050
1001.911, 396.306
1003.159, 438.691
1004.407, 454.051
1005.655, 473.482
1006.903, 499.915
1008.151, 493.716
1009.398, 499.642
1010.646, 477.067
1011.893, 425.413
1013.139, 401.009
1014.386, 352.365
1015.633, 421.804
1016.879, 373.261
1018.125, 390.587
1019.371, 344.047
1020.616, 346.374
1021.862, 335.835
1023.107, 323.259
1024.352, 370.722
1025.597, 348.256
1026.842, 353.652
1028.086, 380.132
1029.330, 360.630
1030.574, 494.096
1031.818, 532.619
1033.062, 602.089
1034.305, 613.511
1035.548, 616.885
1036.791, 651.424
1038.034, 613.899
1039.277, 612.306
1040.519, 674.789
1041.762, 710.378
1043.004, 802.730
1044.246, 918.910
1045.487, 1014.317
1046.729, 1041.414
1047.970, 1057.866
1049.211, 1022.438
1050.452, 939.935
1051.692, 810.505
1052.933, 722.009
1054.173, 571.505
1055.413, 479.011
1056.653, 404.192
1057.893, 289.719
1059.132, 326.238
1060.371, 277.757
1061.610, 273.278
1062.849, 228.799
1064.088, 227.322
1065.326, 195.900
1066.565, 186.950
1067.803, 147.507
1069.041, 153.046
1070.278, 150.586
1071.516, 125.209
1072.753, 134.751
1073.990, 188.294
1075.227, 151.857
1076.464, 194.402
1077.700, 154.949
1078.936, 175.252
1080.173, 177.802
1081.408, 123.354
1082.644, 146.906
1083.880, 207.460
1085.115, 129.016
1086.350, 238.588
1087.585, 252.147
1088.820, 222.738
1090.054, 253.300
1091.288, 258.864
1092.522, 312.430
1093.756, 362.001
1094.990, 373.582
1096.224, 434.164
1097.457, 457.758
1098.690, 413.357
1099.923, 437.961
1101.156, 423.577
1102.388, 367.195
1103.621, 366.817
1104.853, 318.441
1106.085, 299.114
1107.316, 279.892
1108.548, 257.383
1109.779, 242.024
1111.010, 204.666
1112.241, 192.315
1113.472, 156.966
1114.703, 114.622
1115.933, 101.292
1117.163, 91.961
1118.393, 129.638
1119.623, 89.318
1120.853, 108.056
1122.082, 110.875
1123.311, 79.677
1124.540, 89.498
1125.769, 94.274
1126.997, 91.980
1128.226, 127.728
1129.454, 32.440
1130.682, 73.154
1131.910, 15.868
1133.138, 65.686
1134.365, 50.404
1135.592, 32.145
1136.819, 89.882
1138.046, 55.672
1139.273, 28.494
1140.499, 53.226
1141.725, 80.673
1142.951, 66.398
1144.177, 24.123
1145.403, 73.899
1146.628, 31.624
1147.854, 10.413
1149.079, 25.159
1150.304, 2.091
1151.528, 10.637
1152.753, 30.482
1153.977, 17.760
1155.201, 14.914
1156.425, 3.652
1157.649, 1.486
1158.872, 9.212
1160.096, 6.062
1161.319, 15.806
1162.542, 24.663
1163.764, 12.541
1164.987, 32.703
1166.209, 66.515
1167.431, 6.305
1168.653, 47.073
1169.875, 13.847
1171.097, 36.579
1172.318, 3.703
1173.539, 51.089
1174.760, 2.709
1175.981, 22.988
1177.202, 56.891
1178.422, 1.303
1179.642, 28.425
1180.862, 13.169
1182.082, 33.910
1183.302, 40.643
1184.521, 24.479
1185.740, 32.327
1186.959, 16.349
1188.178, 2.945
1189.397, 25.774
1190.615, 15.537
1191.834, 87.356
1193.052, 30.099
1194.269, 6.948
1195.487, 8.914
1196.705, 80.776
1197.922, 0.469
1199.139, 65.268
1200.356, 36.040
1201.573, 53.928
1202.789, 13.329
1204.006, 13.321
1205.222, 78.969
1206.438, 67.614
1207.653, 18.488
1208.869, 22.185
1210.084, 29.824
1211.299, 6.538
1212.514, 8.828
1213.729, 15.339
1214.944, 42.383
1216.158, 46.004
1217.372, 3.752
1218.586, 44.368
1219.800, 76.981
1221.014, 19.734
1222.227, 56.343
1223.440, 73.139
1224.654, 26.012
1225.866, 101.615
1227.079, 64.199
1228.292, 31.819
1229.504, 46.398
1230.716, 27.190
1231.928, 22.861
1233.139, 43.397
1234.351, 19.990
1235.562, 46.564
1236.773, 57.191
1237.984, 47.796
1239.195, 52.362
1240.406, 40.943
1241.616, 81.507
1242.826, 55.069
1244.036, 55.666
1245.246, 89.226
1246.456, 43.000
1247.665, 47.733
1248.874, 41.288
1250.083, 30.842
1251.292, 20.393
1252.501, 49.942
1253.709, 49.561
1254.917, 46.106
1256.125, 109.648
1257.333, 53.294
1258.541, 84.832
1259.748, 58.368
1260.956, 56.898
1262.163, 54.425
1263.370, 65.950
1264.576, 41.473
1265.783, 22.992
1266.989, 6.482
1268.195, 10.018
1269.401, 7.517
1270.607, 17.995
1271.813, 43.466
1273.018, 26.933
1274.223, 66.489
1275.428, 66.949
1276.633, 46.402
1277.838, 11.852
1279.042, 36.298
1280.246, 31.907
1281.450, 33.344
1282.654, 20.769
1283.858, 13.584
1285.061, 35.633
1286.265, 3.842
1287.468, 37.579
1288.671, 44.968
1289.873, 26.337
1291.076, 59.702
1292.278, 24.056
1293.480, 34.403
1294.682, 33.746
1295.884, 63.052
1297.086, 12.364
1298.287, 0.330
1299.488, 62.019
1300.689, 37.254
1301.890, 31.521
1303.091, 22.753
1304.291, 53.137
1305.491, 10.244
1306.691, 11.489
1307.891, 9.727
1309.091, 1.959
1310.290, 19.185
1311.490, 24.405
1312.689, 29.615
1313.888, 27.820
1315.086, 38.019
1316.285, 45.211
1317.483, 23.299
1318.681, 1.479
1319.879, 39.572
1321.077, 8.707
1322.275, 15.865
1323.472, 33.964
1324.669, 30.109
1325.866, 30.540
1327.063, 32.399
1328.260, 11.524
1329.456, 10.640
1330.653, 12.252
1331.849, 37.843
1333.045, 33.819
1334.240, 74.901
1335.436, 10.718
1336.631, 25.347
1337.826, 5.407
1339.021, 3.171
1340.216, 34.830
1341.411, 18.868
1342.605, 22.834
1343.799, 14.862
1344.993, 27.117
1346.187, 19.890
1347.381, 50.169
1348.574, 7.849
1349.767, 78.138
1350.961, 6.121
1352.153, 26.097
1353.346, 40.069
1354.539, 21.036
1355.731, 47.946
1356.923, 16.621
1358.115, 14.696
1359.307, 47.243
1360.498, 12.179
1361.690, 70.031
1362.881, 58.962
1364.072, 10.890
1365.263, 84.799
1366.453, 7.724
1367.644, 5.649
1368.834, 27.819
1370.024, 67.998
1371.214, 28.925
1372.404, 57.857
1373.593, 5.829
1374.783, 30.687
1375.972, 30.416
1377.161, 32.701
1378.349, 37.010
1379.538, 24.314
1380.726, 29.534
1381.915, 69.905
1383.103, 35.190
1384.290, 59.468
1385.478, 77.693
1386.665, 30.958
1387.853, 76.218
1389.040, 7.469
1390.227, 9.715
1391.413, 80.955
1392.600, 73.136
1393.786, 96.109
1394.972, 68.112
1396.158, 23.281
1397.344, 71.484
1398.530, 54.560
1399.715, 17.723
1400.900, 44.803
1402.085, 77.845
1403.270, 56.113
1404.455, 84.201
1405.639, 54.269
1406.824, 80.354
1408.008, 50.337
1409.192, 57.963
1410.375, 89.954
1411.559, 19.902
1412.742, 51.567
1413.925, 46.784
1415.108, 124.580
1416.291, 14.444
1417.474, 85.425
1418.656, 87.051
1419.839, 45.419
1421.021, 146.133
1422.202, 6.984
1423.384, 60.692
1424.566, 52.401
1425.747, 25.265
1426.928, 52.303
1428.109, 7.674
1429.290, 24.962
1430.470, 90.592
1431.651, 60.621
1432.831, 35.310
1434.011, 71.445
1435.191, 45.750
1436.370, 48.401
1437.550, 76.457
1438.729, 39.647
1439.908, 63.108
1441.087, 18.531
1442.266, 29.842
1443.444, 101.966
1444.623, 27.555
1445.801, 1.217
1446.979, 67.293
1448.157, 50.850
1449.334, 44.234
1450.512, 66.757
1451.689, 20.284
1452.866, 67.706
1454.043, 81.299
1455.220, 34.720
1456.396, 46.115
1457.573, 42.307
1458.749, 44.381
1459.925, 119.671
1461.100, 24.944
1462.276, 131.181
1463.451, 98.453
1464.627, 54.584
1465.802, 54.875
1466.977, 27.889
1468.151, 9.131
1469.326, 104.353
1470.500, 36.038
1471.674, 22.130
1472.848, 113.959
1474.022, 125.066
1475.195, 29.335
1476.369, 57.630
1477.542, 18.946
1478.715, 43.361
1479.888, 81.728
1481.061, 51.147
1482.233, 71.045
1483.405, 9.438
1484.577, 57.820
1485.749, 58.211
1486.921, 22.614
1488.093, 50.030
1489.264, 91.459
1490.435, 49.901
1491.606, 45.361
1492.777, 94.723
1493.948, 38.241
1495.118, 51.821
1496.288, 80.452
1497.459, 47.120
1498.628, 79.818
1499.798, 31.568
1500.968, 96.344
1502.137, 61.214
1503.306, 54.152
1504.475, 20.169
1505.644, 55.296
1506.813, 29.530
1507.981, 39.889
1509.149, 82.404
1510.318, 1.894
1511.485, 67.041
1512.653, 20.264
1513.821, 0.742
1514.988, 16.717
1516.155, 0.000
##END=



