##NAMES=Scolecite
##RRUFFID=R050083
##IDEAL CHEMISTRY=Ca(Si_3_Al_2_)O_10_&#183;3H_2_O
##LOCALITY=near Ahmednagar, Maharashtra, India
##OWNER=RRUFF
##SOURCE=Rock Currier
##DESCRIPTION=Colorless acicular single crystals associated with fluorapophyllite
##STATUS=The identification of this mineral has been confirmed by X-ray diffraction and chemical analysis
##URL=rruff.info/R050083
##MEASURED CHEMISTRY=(Ca_.992_Na_.008_)[Al_2_Si_3_O_10_]Â·3H_2_O
##PIN_ID=M00346
##ORIENTATION=Laser parallel to b* (0 1 0). Fiducial mark perpendicular to laser is parallel to c [0 0 1]
89.863, 0.000
91.262, 0.630
92.661, 5.171
94.059, 34.664
95.458, 95.560
96.856, 238.032
98.254, 410.310
99.652, 565.528
101.049, 694.965
102.446, 818.056
103.843, 924.750
105.240, 994.602
106.637, 1058.624
108.033, 1083.438
109.429, 1137.946
110.825, 1308.348
112.220, 1443.350
113.616, 1560.590
115.011, 1606.406
116.406, 1597.776
117.800, 1605.398
119.195, 1484.585
120.589, 1403.236
121.983, 1285.265
123.377, 1257.603
124.770, 1242.197
126.163, 1202.001
127.556, 1246.034
128.949, 1201.619
130.342, 1023.232
131.734, 951.182
133.126, 671.678
134.518, 518.764
135.909, 499.482
137.301, 533.871
138.692, 637.965
140.083, 826.794
141.473, 982.387
142.864, 1083.765
144.254, 1041.120
145.644, 997.707
147.034, 820.228
148.423, 670.562
149.812, 609.725
151.201, 613.730
152.590, 753.589
153.979, 942.310
155.367, 1218.903
156.755, 1573.375
158.143, 1770.733
159.530, 1796.984
160.918, 1662.134
162.305, 1427.187
163.692, 1112.524
165.078, 901.246
166.465, 801.500
167.851, 719.370
169.237, 731.061
170.623, 675.692
172.008, 667.577
173.393, 645.285
174.778, 688.975
176.163, 707.679
177.548, 755.414
178.932, 827.191
180.316, 936.016
181.700, 1040.891
183.083, 1165.820
184.467, 1219.801
185.850, 1245.835
187.233, 1157.920
188.616, 1085.056
189.998, 909.239
191.380, 761.469
192.762, 651.743
194.144, 510.057
195.525, 498.410
196.907, 443.796
198.288, 483.705
199.669, 503.447
201.049, 525.472
202.429, 576.006
203.810, 644.333
205.189, 694.686
206.569, 647.073
207.949, 570.494
209.328, 468.949
210.707, 379.425
212.085, 223.907
213.464, 170.390
214.842, 189.869
216.220, 131.344
217.598, 186.815
218.976, 204.282
220.353, 256.745
221.730, 336.204
223.107, 398.659
224.483, 430.110
225.860, 390.555
227.236, 352.997
228.612, 262.431
229.988, 175.858
231.363, 131.277
232.738, 76.688
234.113, 23.260
235.488, 18.250
236.863, 55.124
238.237, 100.650
239.611, 117.302
240.985, 148.549
242.359, 109.110
243.732, 126.144
245.105, 127.841
246.478, 137.724
247.851, 107.654
249.223, 102.743
250.595, 80.980
251.967, 63.367
253.339, 9.130
254.711, 58.564
256.082, 60.635
257.453, 99.833
258.824, 112.634
260.195, 150.815
261.565, 115.255
262.935, 68.901
264.305, 52.717
265.675, 74.674
267.044, 66.747
268.414, 113.919
269.783, 140.173
271.151, 209.496
272.520, 246.119
273.888, 269.312
275.256, 333.786
276.624, 342.294
277.992, 369.826
279.359, 478.378
280.726, 594.945
282.093, 699.521
283.460, 787.105
284.827, 787.694
286.193, 711.285
287.559, 581.876
288.925, 545.465
290.290, 422.052
291.656, 375.634
293.021, 275.207
294.386, 259.758
295.750, 167.280
297.115, 119.769
298.479, 69.233
299.843, 67.670
301.207, 15.080
302.570, 29.468
303.933, 17.830
305.296, 34.837
306.659, 23.545
308.022, 14.289
309.384, 13.014
310.746, 1.205
312.108, 20.062
313.470, 34.519
314.831, 61.006
316.193, 75.426
317.554, 110.621
318.914, 141.907
320.275, 96.095
321.635, 137.229
322.995, 102.310
324.355, 115.054
325.715, 184.164
327.074, 236.342
328.434, 250.377
329.792, 356.096
331.151, 418.644
332.510, 452.027
333.868, 496.254
335.226, 414.364
336.584, 354.427
337.941, 446.488
339.299, 448.545
340.656, 440.599
342.013, 436.650
343.370, 437.697
344.726, 448.740
346.082, 460.779
347.438, 458.813
348.794, 435.843
350.150, 418.868
351.505, 450.888
352.860, 384.902
354.215, 360.911
355.570, 313.914
356.924, 403.911
358.278, 380.901
359.632, 347.885
360.986, 371.852
362.339, 362.777
363.693, 345.984
365.046, 354.498
366.399, 305.327
367.751, 292.148
369.104, 249.963
370.456, 269.771
371.808, 264.571
373.159, 222.365
374.511, 205.150
375.862, 204.929
377.213, 192.700
378.564, 168.464
379.914, 178.219
381.265, 171.968
382.615, 104.708
383.965, 103.441
385.315, 69.167
386.664, 65.882
388.013, 49.588
389.362, 69.282
390.711, 50.966
392.060, 1.639
393.408, 42.292
394.756, 66.931
396.104, 25.560
397.451, 41.174
398.799, 87.360
400.146, 52.276
401.493, 115.310
402.840, 165.270
404.186, 162.234
405.533, 195.576
406.879, 135.811
408.225, 139.878
409.570, 112.299
410.916, 138.594
412.261, 143.190
413.606, 128.150
414.951, 115.217
416.295, 90.600
417.639, 135.065
418.983, 138.532
420.327, 173.000
421.671, 206.464
423.014, 250.924
424.357, 329.379
425.700, 385.827
427.043, 438.268
428.386, 536.700
429.728, 672.123
431.070, 767.537
432.412, 948.941
433.753, 998.334
435.095, 1111.718
436.436, 1169.091
437.777, 1190.452
439.118, 1152.803
440.458, 1180.142
441.798, 1065.469
443.138, 1119.785
444.478, 1026.089
445.818, 1036.381
447.157, 1084.662
448.496, 1019.930
449.835, 969.187
451.174, 891.432
452.513, 809.665
453.851, 749.937
455.189, 615.206
456.527, 553.456
457.864, 449.642
459.202, 387.848
460.539, 302.379
461.876, 307.598
463.212, 167.728
464.549, 132.481
465.885, 69.778
467.221, 89.902
468.557, 66.604
469.893, 19.852
471.228, 80.677
472.563, 24.215
473.898, 2.202
475.233, 35.528
476.567, 49.978
477.902, 10.002
479.236, 16.821
480.570, 6.140
481.903, 10.250
483.237, 16.221
484.570, 25.832
485.903, 6.102
487.235, 0.019
488.568, 3.924
489.900, 40.818
491.232, 84.708
492.564, 42.603
493.896, 99.490
495.227, 45.379
496.558, 102.267
497.889, 135.145
499.220, 151.021
500.551, 195.065
501.881, 207.398
503.211, 258.631
504.541, 247.494
505.870, 278.359
507.200, 314.219
508.529, 387.080
509.858, 436.056
511.187, 477.790
512.515, 568.641
513.844, 590.486
515.172, 654.325
516.500, 768.159
517.827, 867.988
519.155, 1055.812
520.482, 1226.629
521.809, 1402.442
523.136, 1674.250
524.462, 1930.052
525.789, 2484.850
527.115, 3037.645
528.441, 3762.436
529.766, 4717.221
531.092, 5995.004
532.417, 7426.780
533.742, 8986.553
535.067, 10065.319
536.391, 10574.080
537.716, 10082.837
539.040, 9051.589
540.364, 7501.337
541.688, 6089.078
543.011, 4861.778
544.334, 3756.464
545.657, 3056.782
546.980, 2468.030
548.303, 2025.887
549.625, 1626.182
550.947, 1414.061
552.269, 1132.800
553.591, 1024.409
554.913, 959.631
556.234, 809.600
557.555, 737.151
558.876, 713.676
560.197, 656.670
561.517, 581.398
562.837, 514.156
564.157, 496.951
565.477, 492.773
566.797, 401.628
568.116, 378.516
569.435, 359.439
570.754, 315.392
572.073, 318.372
573.391, 301.372
574.709, 263.389
576.027, 234.403
577.345, 207.413
578.663, 233.419
579.980, 190.422
581.297, 209.420
582.614, 156.421
583.931, 143.418
585.248, 209.411
586.564, 195.399
587.880, 187.389
589.196, 121.374
590.511, 177.355
591.827, 132.333
593.142, 103.307
594.457, 155.277
595.772, 130.243
597.086, 148.205
598.401, 112.163
599.715, 74.118
601.029, 95.069
602.343, 55.017
603.656, 22.960
604.969, 35.900
606.282, 20.837
607.595, 43.769
608.908, 29.699
610.220, 21.625
611.532, 8.547
612.844, 6.465
614.156, 8.380
615.468, 30.290
616.779, 22.802
618.090, 10.855
619.401, 5.032
620.712, 36.156
622.022, 20.720
623.332, 11.647
624.642, 2.628
625.952, 46.149
627.262, 19.107
628.571, 51.061
629.880, 70.656
631.189, 31.935
632.498, 3.399
633.807, 30.931
635.115, 31.417
636.423, 5.561
637.731, 52.817
639.039, 2.986
640.346, 20.352
641.653, 45.325
642.960, 21.576
644.267, 46.689
645.574, 58.495
646.880, 48.219
648.186, 67.100
649.492, 50.717
650.798, 51.583
652.103, 83.344
653.409, 30.310
654.714, 95.280
656.019, 70.791
657.323, 74.916
658.628, 57.080
659.932, 52.007
661.236, 62.385
662.540, 70.063
663.843, 84.027
665.147, 111.235
666.450, 125.164
667.753, 131.343
669.056, 138.258
670.358, 139.168
671.660, 135.995
672.963, 108.942
674.264, 171.826
675.566, 111.701
676.868, 73.504
678.169, 122.433
679.470, 133.215
680.771, 94.084
682.071, 100.859
683.372, 92.139
684.672, 84.112
685.972, 85.045
687.271, 138.805
688.571, 178.562
689.870, 151.314
691.169, 160.139
692.468, 243.885
693.767, 249.626
695.065, 217.365
696.364, 267.100
697.662, 262.831
698.960, 231.558
700.257, 339.286
701.555, 303.158
702.852, 371.947
704.149, 464.664
705.446, 454.383
706.742, 477.100
708.038, 502.816
709.335, 534.543
710.631, 489.271
711.926, 440.998
713.222, 446.729
714.517, 376.462
715.812, 355.192
717.107, 341.921
718.402, 282.647
719.696, 316.505
720.990, 248.223
722.284, 229.937
723.578, 252.645
724.872, 238.350
726.165, 232.604
727.458, 276.299
728.751, 281.038
730.044, 282.722
731.336, 307.454
732.629, 304.128
733.921, 285.797
735.213, 279.595
736.504, 262.253
737.796, 235.240
739.087, 243.887
740.378, 200.530
741.669, 160.167
742.960, 206.773
744.250, 166.399
745.540, 182.021
746.830, 175.636
748.120, 209.247
749.410, 247.852
750.699, 241.452
751.988, 304.047
753.277, 280.646
754.566, 308.231
755.854, 310.810
757.143, 341.383
758.431, 322.950
759.719, 292.513
761.006, 287.070
762.294, 263.622
763.581, 222.169
764.868, 207.719
766.155, 186.256
767.442, 171.735
768.728, 98.201
770.014, 160.668
771.300, 85.184
772.586, 36.661
773.872, 116.796
775.157, 6.772
776.442, 45.815
777.727, 33.290
779.012, 20.721
780.297, 2.892
781.581, 32.566
782.865, 16.002
784.149, 3.551
785.433, 32.883
786.716, 9.680
787.999, 7.419
789.282, 21.558
790.565, 13.143
791.848, 20.699
793.130, 16.562
794.413, 18.349
795.695, 12.020
796.977, 12.314
798.258, 15.363
799.540, 7.956
800.821, 41.269
802.102, 9.422
803.382, 37.127
804.663, 44.139
805.943, 23.600
807.224, 18.639
808.504, 16.868
809.783, 3.905
811.063, 2.311
812.342, 14.481
813.621, 23.710
814.900, 2.104
816.179, 22.929
817.457, 12.225
818.736, 15.627
820.014, 18.504
821.292, 15.371
822.569, 19.737
823.847, 19.840
825.124, 38.937
826.401, 9.028
827.678, 23.114
828.954, 24.194
830.231, 40.268
831.507, 9.338
832.783, 55.401
834.059, 21.460
835.334, 83.513
836.610, 2.437
837.885, 2.603
839.160, 4.637
840.435, 45.664
841.709, 60.687
842.983, 53.706
844.258, 23.723
845.532, 48.736
846.805, 63.745
848.079, 45.750
849.352, 46.750
850.625, 78.747
851.898, 68.738
853.171, 39.725
854.443, 4.708
855.715, 23.685
856.988, 129.657
858.259, 68.624
859.531, 109.587
860.803, 109.546
862.074, 110.501
863.345, 91.451
864.616, 85.588
865.886, 79.594
867.157, 65.274
868.427, 69.207
869.697, 76.135
870.967, 76.059
872.236, 4.978
873.506, 90.892
874.775, 37.801
876.044, 72.707
877.313, 69.607
878.581, 5.496
879.849, 68.391
881.118, 24.274
882.386, 61.152
883.653, 23.027
884.921, 57.897
886.188, 73.763
887.455, 2.625
888.722, 77.482
889.989, 18.655
891.255, 46.192
892.522, 79.035
893.788, 35.875
895.054, 13.288
896.319, 78.536
897.585, 53.357
898.850, 71.174
900.115, 58.988
901.380, 44.799
902.645, 45.606
903.909, 35.410
905.174, 29.211
906.438, 31.008
907.701, 92.801
908.965, 56.592
910.229, 118.378
911.492, 59.162
912.755, 106.942
914.018, 69.719
915.280, 63.493
916.543, 27.264
917.805, 35.031
919.067, 58.798
920.329, 66.562
921.590, 101.323
922.852, 104.081
924.113, 120.837
925.374, 119.543
926.635, 98.301
927.895, 111.127
929.156, 191.881
930.416, 118.584
931.676, 147.233
932.936, 85.352
934.195, 161.044
935.454, 98.665
936.714, 138.728
937.973, 117.413
939.231, 136.082
940.490, 170.892
941.748, 145.864
943.006, 104.359
944.264, 121.383
945.522, 139.664
946.780, 206.832
948.037, 157.395
949.294, 210.992
950.551, 197.341
951.808, 187.906
953.064, 197.620
954.320, 191.336
955.577, 134.312
956.832, 105.036
958.088, 89.861
959.344, 75.476
960.599, 73.083
961.854, 119.146
963.109, 67.589
964.364, 49.989
965.618, 87.623
966.872, 54.801
968.127, 28.674
969.380, 51.259
970.634, 120.594
971.888, 60.205
973.141, 106.562
974.394, 46.178
975.647, 111.795
976.900, 150.493
978.152, 140.066
979.404, 180.698
980.656, 143.335
981.908, 161.041
983.160, 144.617
984.411, 263.337
985.663, 239.965
986.914, 302.980
988.165, 287.190
989.415, 363.705
990.666, 330.256
991.916, 283.977
993.166, 322.857
994.416, 310.332
995.665, 259.981
996.915, 261.056
998.164, 242.781
999.413, 317.514
1000.662, 344.243
1001.911, 366.973
1003.159, 376.703
1004.407, 395.115
1005.655, 453.009
1006.903, 394.674
1008.151, 436.408
1009.398, 388.142
1010.646, 395.877
1011.893, 359.613
1013.139, 318.350
1014.386, 305.088
1015.633, 370.826
1016.879, 336.564
1018.125, 392.303
1019.371, 375.043
1020.616, 335.783
1021.862, 370.524
1023.107, 362.128
1024.352, 315.870
1025.597, 340.612
1026.842, 345.354
1028.086, 411.097
1029.330, 390.299
1030.574, 530.043
1031.818, 554.740
1033.062, 615.527
1034.305, 628.270
1035.548, 684.017
1036.791, 598.781
1038.034, 615.395
1039.277, 525.469
1040.519, 617.886
1041.762, 608.662
1043.004, 731.702
1044.246, 911.456
1045.487, 896.237
1046.729, 1011.992
1047.970, 1018.908
1049.211, 927.793
1050.452, 829.643
1051.692, 672.505
1052.933, 542.310
1054.173, 471.116
1055.413, 362.902
1056.653, 342.728
1057.893, 290.550
1059.132, 184.348
1060.371, 231.170
1061.610, 213.970
1062.849, 173.770
1064.088, 179.661
1065.326, 195.463
1066.565, 102.257
1067.803, 113.575
1069.041, 111.412
1070.278, 167.217
1071.516, 156.531
1072.753, 159.010
1073.990, 163.032
1075.227, 140.962
1076.464, 131.780
1077.700, 126.601
1078.936, 142.761
1080.173, 131.186
1081.408, 131.419
1082.644, 148.321
1083.880, 146.160
1085.115, 206.999
1086.350, 193.854
1087.585, 184.710
1088.820, 155.585
1090.054, 207.534
1091.288, 211.424
1092.522, 269.588
1093.756, 245.492
1094.990, 300.403
1096.224, 309.321
1097.457, 308.319
1098.690, 287.244
1099.923, 294.176
1101.156, 292.108
1102.388, 274.094
1103.621, 290.032
1104.853, 214.280
1106.085, 229.231
1107.316, 126.190
1108.548, 136.154
1109.779, 168.215
1111.010, 85.185
1112.241, 116.156
1113.472, 138.133
1114.703, 91.112
1115.933, 83.093
1117.163, 113.082
1118.393, 48.072
1119.623, 109.080
1120.853, 74.078
1122.082, 108.089
1123.311, 65.094
1124.540, 52.160
1125.769, 52.166
1126.997, 2.173
1128.226, 8.180
1129.454, 77.241
1130.682, 28.250
1131.910, 19.341
1133.138, 103.351
1134.365, 11.638
1135.592, 16.559
1136.819, 38.569
1138.046, 28.639
1139.273, 29.652
1140.499, 7.336
1141.725, 21.326
1142.951, 23.793
1144.177, 12.203
1145.403, 52.816
1146.628, 0.815
1147.854, 13.446
1149.079, 12.584
1150.304, 3.582
1151.528, 69.833
1152.753, 36.846
1153.977, 58.043
1155.201, 65.479
1156.425, 58.475
1157.649, 68.038
1158.872, 18.813
1160.096, 62.858
1161.319, 29.943
1162.542, 11.996
1163.764, 51.995
1164.987, 57.051
1166.209, 49.428
1167.431, 10.119
1168.653, 38.124
1169.875, 30.108
1171.097, 31.091
1172.318, 22.073
1173.539, 39.157
1174.760, 25.202
1175.981, 7.232
1177.202, 15.242
1178.422, 59.219
1179.642, 1.194
1180.862, 0.167
1182.082, 32.230
1183.302, 8.199
1184.521, 32.370
1185.740, 41.588
1186.959, 39.427
1188.178, 7.446
1189.397, 7.454
1190.615, 19.555
1191.834, 19.616
1193.052, 24.590
1194.269, 2.078
1195.487, 0.975
1196.705, 1.748
1197.922, 6.292
1199.139, 20.631
1200.356, 20.593
1201.573, 30.513
1202.789, 16.431
1204.006, 18.461
1205.222, 54.391
1206.438, 19.300
1207.653, 29.206
1208.869, 38.172
1210.084, 4.009
1211.299, 35.906
1212.514, 32.800
1213.729, 6.285
1214.944, 18.665
1216.158, 68.544
1217.372, 53.422
1218.586, 3.128
1219.800, 124.740
1221.014, 3.105
1222.227, 75.966
1223.440, 68.824
1224.654, 17.189
1225.866, 100.651
1227.079, 77.758
1228.292, 17.441
1229.504, 63.338
1230.716, 38.167
1231.928, 68.750
1233.139, 86.576
1234.351, 42.796
1235.562, 24.026
1236.773, 114.846
1237.984, 4.664
1239.195, 57.480
1240.406, 126.293
1241.616, 44.104
1242.826, 23.913
1244.036, 44.719
1245.246, 50.523
1246.456, 82.325
1247.665, 30.125
1248.874, 81.923
1250.083, 5.719
1251.292, 67.511
1252.501, 100.300
1253.709, 88.782
1254.917, 21.842
1256.125, 51.622
1257.333, 51.446
1258.541, 71.266
1259.748, 73.966
1260.956, 61.799
1262.163, 70.557
1263.370, 56.311
1264.576, 44.204
1265.783, 116.948
1266.989, 45.688
1268.195, 117.424
1269.401, 33.155
1270.607, 65.883
1271.813, 77.607
1273.018, 100.328
1274.223, 36.343
1275.428, 98.057
1276.633, 29.766
1277.838, 74.473
1279.042, 93.175
1280.246, 15.628
1281.450, 52.322
1282.654, 36.010
1283.858, 74.694
1285.061, 79.345
1286.265, 56.831
1287.468, 5.243
1288.671, 54.364
1289.873, 45.617
1291.076, 98.216
1292.278, 2.803
1293.480, 21.391
1294.682, 108.974
1295.884, 13.553
1297.086, 47.115
1298.287, 3.668
1299.488, 45.214
1300.689, 52.747
1301.890, 88.266
1303.091, 10.780
1304.291, 39.264
1305.491, 29.709
1306.691, 37.148
1307.891, 49.582
1309.091, 36.009
1310.290, 49.431
1311.490, 31.846
1312.689, 47.254
1313.888, 64.656
1315.086, 58.042
1316.285, 57.419
1317.483, 27.790
1318.681, 36.153
1319.879, 39.507
1321.077, 44.588
1322.275, 77.179
1323.472, 58.510
1324.669, 60.788
1325.866, 30.049
1327.063, 63.351
1328.260, 18.628
1329.456, 33.911
1330.653, 32.861
1331.849, 33.127
1333.045, 20.360
1334.240, 33.321
1335.436, 23.560
1336.631, 41.790
1337.826, 56.989
1339.021, 19.065
1340.216, 65.143
1341.411, 47.750
1342.605, 46.338
1343.799, 39.479
1344.993, 48.611
1346.187, 66.748
1347.381, 23.848
1348.574, 43.919
1349.767, 92.067
1350.961, 58.157
1352.153, 67.265
1353.346, 102.367
1354.539, 64.604
1355.731, 75.469
1356.923, 41.560
1358.115, 31.132
1359.307, 55.184
1360.498, 99.300
1361.690, 12.619
1362.881, 77.072
1364.072, 5.147
1365.263, 76.110
1366.453, 101.188
1367.644, 5.731
1368.834, 47.018
1370.024, 11.149
1371.214, 1.749
1372.404, 28.289
1373.593, 54.406
1374.783, 32.016
1375.972, 60.531
1377.161, 42.015
1378.349, 7.225
1379.538, 87.733
1380.726, 77.158
1381.915, 130.654
1383.103, 49.088
1384.290, 111.249
1385.478, 89.719
1386.665, 94.072
1387.853, 105.521
1389.040, 94.778
1390.227, 89.438
1391.413, 79.817
1392.600, 88.231
1393.786, 55.575
1394.972, 107.983
1396.158, 2.318
1397.344, 13.610
1398.530, 132.764
1399.715, 35.067
1400.900, 35.435
1402.085, 81.406
1403.270, 44.734
1404.455, 121.275
1405.639, 73.429
1406.824, 20.401
1408.008, 70.873
1409.192, 86.175
1410.375, 55.929
1411.559, 90.004
1412.742, 89.177
1413.925, 55.318
1415.108, 77.558
1416.291, 12.821
1417.474, 75.834
1418.656, 78.965
1419.839, 76.215
1421.021, 183.325
1422.202, 32.261
1423.384, 96.289
1424.566, 119.206
1425.747, 50.170
1426.928, 73.335
1428.109, 41.234
1429.290, 18.106
1430.470, 79.121
1431.651, 57.003
1432.831, 74.045
1434.011, 89.115
1435.191, 116.185
1436.370, 93.209
1437.550, 121.165
1438.729, 41.318
1439.908, 96.407
1441.087, 112.422
1442.266, 104.246
1443.444, 159.031
1444.623, 145.851
1445.801, 153.583
1446.979, 143.794
1448.157, 145.717
1449.334, 129.338
1450.512, 115.934
1451.689, 138.498
1452.866, 114.027
1454.043, 164.520
1455.220, 141.977
1456.396, 216.055
1457.573, 180.278
1458.749, 105.470
1459.925, 204.746
1461.100, 140.622
1462.276, 96.840
1463.451, 121.022
1464.627, 80.157
1465.802, 123.382
1466.977, 153.390
1468.151, 58.336
1469.326, 125.070
1470.500, 150.898
1471.674, 91.850
1472.848, 173.703
1474.022, 90.710
1475.195, 115.653
1476.369, 165.526
1477.542, 68.434
1478.715, 87.320
1479.888, 150.249
1481.061, 47.449
1482.233, 56.759
1483.405, 94.044
1484.577, 51.307
1485.749, 98.601
1486.921, 34.948
1488.093, 41.309
1489.264, 92.688
1490.435, 19.111
1491.606, 43.595
1492.777, 44.147
1493.948, 80.771
1495.118, 90.470
1496.288, 58.266
1497.459, 22.179
1498.628, 92.193
1499.798, 40.312
1500.968, 2.441
1502.137, 74.956
1503.306, 40.533
1504.475, 42.322
1505.644, 69.360
1506.813, 42.691
1507.981, 42.661
1509.149, 62.655
1510.318, 0.844
1511.485, 90.440
1512.653, 21.839
1513.821, 0.000
##END=



