##NAMES=Scolecite
##RRUFFID=R050083
##IDEAL CHEMISTRY=Ca(Si_3_Al_2_)O_10_&#183;3H_2_O
##LOCALITY=near Ahmednagar, Maharashtra, India
##OWNER=RRUFF
##SOURCE=Rock Currier
##DESCRIPTION=Colorless acicular single crystals associated with fluorapophyllite
##STATUS=The identification of this mineral has been confirmed by X-ray diffraction and chemical analysis
##URL=rruff.info/R050083
##MEASURED CHEMISTRY=(Ca_.992_Na_.008_)[Al_2_Si_3_O_10_]Â·3H_2_O
##PIN_ID=M00476
##ORIENTATION=Laser parallel to a* (1 0 0). Fiducial mark perpendicular to laser is parallel to b [0 1 0]
112.220, 0.000
113.616, 22.304
115.011, 315.866
116.406, 139.392
117.800, 727.959
119.195, 547.022
120.589, 949.197
121.983, 651.790
123.377, 588.218
124.770, 593.450
126.163, 231.243
127.556, 712.764
128.949, 444.358
130.342, 717.975
131.734, 597.030
133.126, 510.199
134.518, 386.119
135.909, 65.461
137.301, 448.316
138.692, 64.347
140.083, 582.556
141.473, 562.879
142.864, 704.446
144.254, 704.631
145.644, 194.890
147.034, 500.127
148.423, 29.292
149.812, 491.342
151.201, 503.126
152.590, 940.143
153.979, 1753.466
155.367, 1827.161
156.755, 2911.295
158.143, 2780.926
159.530, 3145.105
160.918, 2658.162
162.305, 2190.055
163.692, 1963.603
165.078, 1102.815
166.465, 1265.012
167.851, 480.976
169.237, 777.666
170.623, 421.104
172.008, 393.655
173.393, 564.052
174.778, 214.396
176.163, 859.470
177.548, 443.146
178.932, 975.399
180.316, 1048.207
181.700, 1288.718
183.083, 1957.145
184.467, 1689.111
185.850, 2410.065
187.233, 2052.997
188.616, 2321.896
189.998, 2092.763
191.380, 1704.601
192.762, 1774.412
194.144, 950.200
195.525, 1252.976
196.907, 658.785
198.288, 804.648
199.669, 761.576
201.049, 556.569
202.429, 907.626
203.810, 658.748
205.189, 1244.933
206.569, 901.178
207.949, 1193.905
209.328, 1100.108
210.707, 746.892
212.085, 897.714
213.464, 344.961
214.842, 751.303
216.220, 487.735
217.598, 607.206
218.976, 815.901
220.353, 547.840
221.730, 1133.357
223.107, 635.907
224.483, 933.488
225.860, 647.092
227.236, 460.710
228.612, 617.331
229.988, 5.948
231.363, 400.562
232.738, 144.828
234.113, 88.777
235.488, 8.379
236.863, 125.023
238.237, 257.571
239.611, 352.836
240.985, 175.754
242.359, 280.609
243.732, 3.792
245.105, 129.979
246.478, 166.461
247.851, 309.115
249.223, 52.560
250.595, 470.633
251.967, 98.912
253.339, 258.266
254.711, 423.382
256.082, 155.376
257.453, 745.290
258.824, 256.034
260.195, 762.569
261.565, 500.983
262.935, 467.278
264.305, 827.517
265.675, 332.769
267.044, 985.035
268.414, 728.316
269.783, 1077.612
271.151, 1114.923
272.520, 993.248
273.888, 1585.587
275.256, 900.942
276.624, 1562.311
277.992, 1028.030
279.359, 1343.327
280.726, 1786.959
282.093, 1774.813
283.460, 2633.825
284.827, 2128.958
286.193, 2525.174
287.559, 2113.454
288.925, 1757.782
290.290, 1702.068
291.656, 857.419
293.021, 1096.799
294.386, 316.231
295.750, 599.649
297.115, 440.070
298.479, 188.488
299.843, 613.901
301.207, 37.075
302.570, 618.309
303.933, 189.681
305.296, 290.055
306.659, 436.417
308.022, 10.222
309.384, 614.086
310.746, 51.346
312.108, 591.548
313.470, 460.155
314.831, 286.302
316.193, 722.303
317.554, 198.368
318.914, 788.396
320.275, 232.390
321.635, 439.395
322.995, 430.242
324.355, 22.811
325.715, 592.085
327.074, 15.954
328.434, 603.784
329.792, 410.589
331.151, 387.371
332.510, 843.456
333.868, 438.192
335.226, 1302.907
336.584, 905.562
337.941, 1383.054
339.299, 1521.370
340.656, 1353.398
342.013, 1941.201
343.370, 1364.962
344.726, 1896.576
346.082, 1545.115
347.438, 1450.654
348.794, 1714.194
350.150, 1149.739
351.505, 1728.285
352.860, 978.835
354.215, 1453.387
355.570, 1312.943
356.924, 894.502
358.278, 1429.064
359.632, 561.631
360.986, 1135.200
362.339, 541.772
363.693, 591.348
365.046, 834.925
366.399, 189.506
367.751, 898.088
369.104, 151.673
370.456, 421.258
371.808, 323.803
373.159, 25.651
374.511, 568.844
375.862, 194.668
377.213, 442.754
378.564, 111.178
379.914, 106.603
381.265, 513.026
382.615, 134.586
383.965, 609.729
385.315, 29.046
386.664, 378.354
388.013, 431.663
389.362, 128.973
390.711, 764.282
392.060, 112.591
393.408, 740.861
394.756, 436.169
396.104, 386.040
397.451, 732.277
398.799, 244.808
400.146, 842.009
401.493, 324.321
402.840, 686.284
404.186, 822.599
405.533, 467.155
406.879, 1164.962
408.225, 451.170
409.570, 937.246
410.916, 666.459
412.261, 505.340
413.606, 850.490
414.951, 129.450
416.295, 709.606
417.639, 326.768
418.983, 550.934
420.327, 791.105
421.671, 209.283
423.014, 1029.468
424.357, 361.660
425.700, 933.860
427.043, 984.069
428.386, 741.286
429.728, 1642.511
431.070, 1047.744
432.412, 1872.033
433.753, 1903.282
435.095, 1872.540
436.436, 2235.805
437.777, 1424.079
439.118, 1941.604
440.458, 1087.888
441.798, 1144.172
443.138, 1041.456
444.478, 498.737
445.818, 1175.489
447.157, 524.763
448.496, 917.197
449.835, 800.463
451.174, 567.723
452.513, 1067.082
453.851, 404.332
455.189, 929.364
456.527, 589.603
457.864, 658.836
459.202, 1048.063
460.539, 343.315
461.876, 1006.522
463.212, 284.274
464.549, 583.515
465.885, 576.984
467.221, 148.233
468.557, 780.661
469.893, 133.995
471.228, 594.226
472.563, 378.482
473.898, 75.730
475.233, 698.593
476.567, 105.167
477.902, 564.007
479.236, 165.175
480.570, 164.344
481.903, 627.408
483.237, 117.433
484.570, 624.651
485.903, 157.490
487.235, 413.606
488.568, 570.042
489.900, 75.149
491.232, 782.263
492.564, 1.373
493.896, 453.506
495.227, 465.634
496.558, 158.759
497.889, 871.888
499.220, 242.014
500.551, 835.168
501.881, 690.321
503.211, 505.475
504.541, 1087.644
505.870, 464.814
507.200, 1118.984
508.529, 854.156
509.858, 972.328
511.187, 1402.513
512.515, 905.697
513.844, 1917.885
515.172, 1319.071
516.500, 1852.260
517.827, 2244.476
519.155, 2056.690
520.482, 3138.908
521.809, 2941.124
523.136, 3983.344
524.462, 4655.582
525.789, 5387.824
527.115, 7290.063
528.441, 7942.308
529.766, 10924.508
531.092, 13456.764
532.417, 15649.019
533.742, 19326.295
535.067, 19648.549
536.391, 20995.262
537.716, 18997.551
539.040, 16399.641
540.364, 14091.715
541.688, 10484.016
543.011, 9134.645
544.334, 6836.951
545.657, 5437.555
546.980, 4839.861
548.303, 3362.177
549.625, 3524.384
550.947, 2526.703
552.269, 2318.850
553.591, 2311.188
554.913, 1603.562
556.234, 2135.993
557.555, 1102.427
558.876, 1480.874
560.197, 1377.373
561.517, 824.876
562.837, 1498.488
564.157, 603.103
565.477, 1253.809
566.797, 997.531
568.116, 647.257
569.435, 1336.047
570.754, 392.836
572.073, 1072.670
573.391, 617.504
574.709, 458.344
576.027, 1027.186
577.345, 133.029
578.663, 981.875
579.980, 404.723
581.297, 455.571
582.614, 869.422
583.931, 88.274
585.248, 909.131
586.564, 288.988
587.880, 365.847
589.196, 763.706
590.511, 19.567
591.827, 938.446
593.142, 253.327
594.457, 431.209
595.772, 670.093
597.086, 96.023
598.401, 787.812
599.715, 56.650
601.029, 467.489
602.343, 578.350
603.656, 66.789
604.969, 673.040
606.282, 2.869
607.595, 466.696
608.908, 335.537
610.220, 107.620
611.532, 659.166
612.844, 134.047
614.156, 367.671
615.468, 308.397
616.779, 829.124
618.090, 724.699
619.401, 53.574
620.712, 505.123
622.022, 411.846
623.332, 57.433
624.642, 784.717
625.952, 70.593
627.262, 596.157
628.571, 240.824
629.880, 108.490
631.189, 755.521
632.498, 153.810
633.807, 617.774
635.115, 267.461
636.423, 61.043
637.731, 720.872
639.039, 160.548
640.346, 570.945
641.653, 210.614
642.960, 151.104
644.267, 778.453
645.574, 9.966
646.880, 657.489
648.186, 426.272
649.492, 323.793
650.798, 870.509
652.103, 142.025
653.409, 863.540
654.714, 508.766
656.019, 410.293
657.323, 986.685
658.628, 114.206
659.932, 1101.727
661.236, 441.700
662.540, 497.215
663.843, 982.728
665.147, 120.235
666.450, 1057.742
667.753, 509.251
669.056, 610.751
670.358, 1117.688
671.660, 182.181
672.963, 1152.688
674.264, 716.989
675.566, 694.489
676.868, 1175.983
678.169, 288.476
679.470, 1170.964
680.771, 523.275
682.071, 606.756
683.372, 1233.234
684.672, 212.709
685.972, 1308.180
687.271, 760.190
688.571, 815.652
689.870, 1388.135
691.169, 488.635
692.468, 1533.132
693.767, 684.069
695.065, 784.622
696.364, 1397.172
697.662, 584.883
698.960, 1373.423
700.257, 936.217
701.555, 1068.797
702.852, 1571.379
704.149, 824.864
705.446, 1607.436
706.742, 1130.000
708.038, 1212.561
709.335, 1665.115
710.631, 805.703
711.926, 1638.246
713.222, 850.781
714.517, 913.311
715.812, 1285.832
717.107, 268.951
718.402, 1261.458
719.696, 653.959
720.990, 604.622
722.284, 1149.106
723.578, 385.581
724.872, 1204.049
726.165, 636.506
727.458, 468.617
728.751, 1203.058
730.044, 139.628
731.336, 1068.051
732.629, 580.463
733.921, 492.909
735.213, 1165.304
736.504, 245.688
737.796, 1020.063
739.087, 712.430
740.378, 437.191
741.669, 1227.537
742.960, 283.874
744.250, 1042.201
745.540, 834.519
746.830, 530.861
748.120, 1293.158
749.410, 407.445
750.699, 1267.792
751.988, 1000.059
753.277, 747.069
754.566, 1689.315
755.854, 611.550
757.143, 1418.796
758.431, 1161.010
759.719, 629.739
761.006, 1471.932
762.294, 503.949
763.581, 1079.078
764.868, 1081.240
766.155, 497.289
767.442, 1279.448
768.728, 304.793
770.014, 807.441
771.300, 769.553
772.586, 77.347
773.872, 1043.684
775.157, 150.742
776.442, 404.753
777.727, 696.753
779.012, 41.492
780.297, 867.447
781.581, 112.191
782.865, 367.110
784.149, 849.019
785.433, 73.082
786.716, 782.750
787.999, 224.955
789.282, 276.768
790.565, 908.603
791.848, 4.427
793.130, 922.271
794.413, 264.164
795.695, 108.946
796.977, 827.754
798.258, 136.446
799.540, 711.258
800.821, 272.740
802.102, 15.573
803.382, 986.081
804.663, 99.274
805.943, 769.299
807.224, 440.862
808.504, 6.584
809.783, 1077.353
811.063, 87.129
812.342, 690.319
813.621, 691.758
814.900, 32.774
816.179, 1144.653
817.457, 256.070
818.736, 567.479
820.014, 748.995
821.292, 9.612
822.569, 901.752
823.847, 33.107
825.124, 344.449
826.401, 689.061
827.678, 68.616
828.954, 991.646
830.231, 262.900
831.507, 314.157
832.783, 875.497
834.059, 53.265
835.334, 907.921
836.610, 339.579
837.885, 160.746
839.160, 801.906
840.435, 16.944
841.709, 724.174
842.983, 471.177
844.258, 132.276
845.532, 1113.368
846.805, 75.548
848.079, 695.470
849.352, 546.479
850.625, 7.478
851.898, 1038.456
853.171, 79.424
854.443, 600.382
855.715, 931.329
856.988, 12.268
858.259, 1143.188
859.531, 364.099
860.803, 464.999
862.074, 1025.907
863.345, 103.192
864.616, 977.628
865.886, 318.440
867.157, 279.243
868.427, 1020.037
869.697, 20.824
870.967, 931.595
872.236, 482.365
873.506, 83.125
874.775, 1043.875
876.044, 134.616
877.313, 595.350
878.581, 636.075
879.849, 3.212
881.118, 1027.478
882.386, 88.157
883.653, 498.828
884.921, 979.490
886.188, 110.143
887.455, 1070.788
888.722, 261.422
889.989, 442.048
891.255, 1132.646
892.522, 33.235
893.788, 983.815
895.054, 484.386
896.319, 294.924
897.585, 1015.452
898.850, 44.027
900.115, 846.451
901.380, 706.921
902.645, 97.372
903.909, 1107.815
905.174, 148.249
906.438, 598.699
907.701, 879.141
908.965, 60.425
910.229, 1159.979
911.492, 200.375
912.755, 590.779
914.018, 1001.177
915.280, 28.433
916.543, 1111.938
917.805, 252.302
919.067, 102.686
920.329, 1113.064
921.590, 6.529
922.852, 893.842
924.113, 884.207
925.374, 117.719
926.635, 1238.073
927.895, 258.437
929.156, 788.792
930.416, 1009.122
931.676, 265.002
932.936, 1345.338
934.195, 735.587
935.454, 775.928
936.714, 1606.264
937.973, 450.234
939.231, 1340.521
940.490, 820.845
941.748, 361.164
943.006, 1091.481
944.264, 70.546
945.522, 800.855
946.780, 841.203
948.037, 201.499
949.294, 1501.840
950.551, 462.346
951.808, 812.682
953.064, 1273.018
954.320, 161.089
955.577, 1151.419
956.832, 454.225
958.088, 214.552
959.344, 1174.878
960.599, 56.511
961.854, 943.798
963.109, 707.237
964.364, 137.545
965.618, 1126.889
966.872, 243.740
968.127, 614.052
969.380, 734.364
970.634, 24.680
971.888, 1045.649
973.141, 223.966
974.394, 384.289
975.647, 994.178
976.900, 55.491
978.152, 944.830
979.404, 539.355
980.656, 79.688
981.908, 1182.518
983.160, 22.862
984.411, 643.215
985.663, 768.747
986.914, 10.883
988.165, 1129.495
989.415, 389.885
990.666, 550.285
991.916, 968.154
993.166, 101.419
994.416, 768.997
995.665, 339.428
996.915, 319.875
998.164, 1303.960
999.413, 394.269
1000.662, 1364.588
1001.911, 1553.757
1003.159, 844.087
1004.407, 1994.222
1005.655, 1144.582
1006.903, 1394.957
1008.151, 2024.370
1009.398, 844.705
1010.646, 1855.053
1011.893, 1359.264
1013.139, 779.636
1014.386, 1801.979
1015.633, 572.373
1016.879, 1292.789
1018.125, 1543.229
1019.371, 443.699
1020.616, 1583.595
1021.862, 775.258
1023.107, 765.576
1024.352, 1555.734
1025.597, 436.076
1026.842, 1246.414
1028.086, 1116.582
1029.330, 706.726
1030.574, 1915.190
1031.818, 875.424
1033.062, 1515.703
1034.305, 1666.074
1035.548, 656.482
1036.791, 1806.886
1038.034, 1006.862
1039.277, 777.253
1040.519, 1853.302
1041.762, 563.646
1043.004, 1453.911
1044.246, 1614.247
1045.487, 759.052
1046.729, 2059.331
1047.970, 969.607
1049.211, 936.531
1050.452, 1466.747
1051.692, 445.217
1052.933, 1335.428
1054.173, 875.705
1055.413, 515.979
1056.653, 1456.274
1057.893, 176.594
1059.132, 876.911
1060.371, 997.297
1061.610, 147.681
1062.849, 1388.020
1064.088, 498.420
1065.326, 698.821
1066.565, 1439.333
1067.803, 239.860
1069.041, 1180.449
1070.278, 1141.086
1071.516, 307.096
1072.753, 1467.797
1073.990, 488.419
1075.227, 779.068
1076.464, 1189.550
1077.700, 20.228
1078.936, 1136.105
1080.173, 556.779
1081.408, 237.480
1082.644, 1348.026
1083.880, 218.045
1085.115, 1108.801
1086.350, 1179.582
1087.585, 250.937
1088.820, 1581.623
1090.054, 622.402
1091.288, 723.203
1092.522, 1734.024
1093.756, 344.856
1094.990, 1435.716
1096.224, 1066.555
1097.457, 407.434
1098.690, 1838.387
1099.923, 799.351
1101.156, 880.323
1102.388, 1371.300
1103.621, 322.290
1104.853, 1283.299
1106.085, 944.358
1107.316, 365.438
1108.548, 1496.539
1109.779, 277.666
1111.010, 558.901
1112.241, 850.164
1113.472, 158.432
1114.703, 913.045
1115.933, 204.621
1117.163, 16.268
1118.393, 1197.963
1119.623, 20.293
1120.853, 1011.504
1122.082, 1213.357
1123.311, 265.263
1124.540, 1577.223
1125.769, 599.293
1126.997, 701.481
1128.226, 1283.736
1129.454, 43.874
1130.682, 808.659
1131.910, 651.292
1133.138, 24.026
1134.365, 1387.130
1135.592, 200.353
1136.819, 673.698
1138.046, 1297.179
1139.273, 90.804
1140.499, 1094.579
1141.725, 698.520
1142.951, 142.641
1144.177, 1326.955
1145.403, 351.479
1146.628, 595.480
1147.854, 1158.855
1149.079, 62.342
1150.304, 1162.628
1151.528, 726.202
1152.753, 49.887
1153.977, 1253.675
1155.201, 232.279
1156.425, 625.413
1157.649, 1208.492
1158.872, 58.535
1160.096, 1154.269
1161.319, 656.816
1162.542, 228.990
1163.764, 1404.039
1164.987, 179.401
1166.209, 745.132
1167.431, 961.950
1168.653, 0.349
1169.875, 1208.541
1171.097, 480.491
1172.318, 211.073
1173.539, 1308.576
1174.760, 89.572
1175.981, 731.238
1177.202, 1183.895
1178.422, 0.000
##END=



