##NAMES=Scolecite
##RRUFFID=R040111
##IDEAL CHEMISTRY=Ca(Si_3_Al_2_)O_10_&#183;3H_2_O
##LOCALITY=Bombay-Poona area, Mahahashtra Province, India
##OWNER=RRUFF
##SOURCE=National Museums of Canada
##DESCRIPTION=Pale pink prismatic crystals in parallel or near parallel aggregates
##STATUS=The identification of this mineral has been confirmed by X-ray diffraction and chemical analysis
##URL=rruff.info/R040111
##MEASURED CHEMISTRY=Ca_0.98_(Si_3.05_Al_1.95_)O_10_Â·3H_2_O
##PIN_ID=M00424
##ORIENTATION=Laser parallel to -c* (0 0 -1). Fiducial mark perpendicular to laser is parallel to -a [-1 0 0]
80.823, 0.000
82.218, 16.382
83.614, 11.910
85.009, 35.720
86.404, 50.050
87.798, 163.352
89.193, 402.634
90.587, 598.753
91.981, 917.431
93.375, 1002.970
94.768, 1072.135
96.161, 1102.926
97.554, 1128.553
98.947, 1280.390
100.340, 1621.885
101.732, 2222.560
103.124, 2798.004
104.516, 3326.909
105.908, 3919.278
107.300, 4793.808
108.691, 6154.178
110.082, 7384.215
111.473, 8155.796
112.864, 7717.822
114.254, 6436.199
115.644, 5148.827
117.034, 4048.523
118.424, 2976.120
119.813, 2267.481
121.203, 1770.495
122.592, 1811.237
123.981, 2209.430
125.369, 2628.003
126.758, 2644.007
128.146, 2049.199
129.534, 1534.412
130.922, 1086.919
132.309, 971.333
133.696, 1137.664
135.083, 1798.919
136.470, 2704.269
137.857, 4332.353
139.243, 6158.063
140.630, 8155.019
142.016, 9132.338
143.401, 8641.374
144.787, 6955.771
146.172, 5274.601
147.557, 4177.153
148.942, 3772.833
150.327, 3923.173
151.711, 4720.180
153.096, 6014.872
154.480, 7612.268
155.863, 9559.382
157.247, 11071.224
158.630, 11239.811
160.013, 10294.146
161.396, 8390.252
162.779, 6684.661
164.161, 5505.247
165.544, 4668.561
166.926, 3999.646
168.308, 3583.572
169.689, 3266.373
171.070, 3137.074
172.452, 3081.902
173.833, 3046.791
175.213, 3280.843
176.594, 3635.630
177.974, 4310.064
179.354, 5118.943
180.734, 5964.403
182.114, 7061.878
183.493, 7817.367
184.872, 8118.868
186.251, 8093.382
187.630, 7170.911
189.008, 5960.450
190.387, 4816.997
191.765, 3737.746
193.143, 2911.932
194.520, 2204.290
195.898, 1861.375
197.275, 1585.049
198.652, 1531.395
200.029, 1485.915
201.405, 1530.977
202.782, 1752.039
204.158, 1846.188
205.534, 1799.024
206.909, 1640.927
208.285, 1454.101
209.660, 1355.204
211.035, 1215.768
212.410, 1225.616
213.784, 1306.184
215.159, 1496.936
216.533, 1848.579
217.907, 2223.241
219.281, 2728.900
220.654, 2992.552
222.027, 3235.194
223.400, 2955.823
224.773, 2327.437
226.146, 1675.032
227.518, 1280.605
228.891, 1008.154
230.263, 962.674
231.634, 935.164
233.006, 936.622
234.377, 821.051
235.748, 646.449
237.119, 456.819
238.490, 287.159
239.860, 108.471
241.231, 63.755
242.601, 34.990
243.970, 32.761
245.340, 73.423
246.709, 140.065
248.079, 319.633
249.448, 518.818
250.816, 846.035
252.185, 1109.675
253.553, 1255.783
254.921, 1237.284
256.289, 975.120
257.657, 646.244
259.024, 380.619
260.391, 194.210
261.758, 20.991
263.125, 65.062
264.492, 167.985
265.858, 202.824
267.224, 156.603
268.590, 265.325
269.956, 163.032
271.321, 159.708
272.687, 92.363
274.052, 106.991
275.416, 16.603
276.781, 23.817
278.146, 96.266
279.510, 248.740
280.874, 364.230
282.237, 630.733
283.601, 785.243
284.964, 1051.756
286.327, 1299.270
287.690, 1390.779
289.053, 1392.284
290.416, 1273.781
291.778, 928.276
293.140, 714.751
294.502, 420.199
295.863, 307.615
297.225, 177.004
298.586, 59.362
299.947, 12.689
301.308, 78.020
302.668, 82.793
304.029, 49.636
305.389, 44.542
306.749, 33.184
308.108, 55.549
309.468, 27.659
310.827, 32.837
312.186, 66.090
313.545, 5.575
314.903, 32.176
316.262, 5.721
317.620, 35.206
318.978, 43.364
320.336, 17.995
321.693, 53.702
323.051, 41.471
324.408, 94.310
325.765, 37.231
327.121, 94.241
328.478, 58.331
329.834, 2.491
331.190, 6.294
332.546, 38.972
333.902, 17.698
335.257, 22.680
336.612, 35.143
337.967, 40.835
339.322, 98.779
340.677, 66.941
342.031, 130.259
343.385, 61.665
344.739, 85.132
346.093, 13.665
347.446, 17.755
348.799, 82.134
350.153, 165.485
351.505, 279.811
352.858, 345.111
354.210, 418.388
355.563, 509.585
356.915, 550.675
358.267, 636.680
359.618, 708.595
360.969, 791.417
362.321, 919.191
363.672, 1027.919
365.022, 1140.577
366.373, 1242.138
367.723, 1362.591
369.073, 1457.929
370.423, 1462.206
371.773, 1423.412
373.122, 1403.536
374.471, 1347.551
375.821, 1198.438
377.169, 1158.217
378.518, 1006.936
379.866, 936.639
381.215, 873.331
382.563, 820.011
383.910, 759.681
385.258, 768.340
386.605, 732.987
387.952, 699.625
389.299, 788.251
390.646, 814.867
391.992, 840.472
393.339, 903.067
394.685, 984.652
396.031, 1185.227
397.376, 1279.792
398.722, 1604.347
400.067, 1789.893
401.412, 2086.430
402.757, 2349.958
404.101, 2436.476
405.446, 2518.067
406.790, 2425.728
408.134, 2278.221
409.478, 1991.715
410.821, 1795.210
412.165, 1451.704
413.508, 1297.195
414.851, 1166.677
416.193, 1038.149
417.536, 1064.607
418.878, 1035.051
420.220, 1034.479
421.562, 1006.890
422.904, 1227.282
424.245, 1411.655
425.586, 1563.111
426.927, 1896.024
428.268, 2222.629
429.609, 2496.012
430.949, 2913.446
432.289, 3399.177
433.629, 3579.993
434.969, 3893.911
436.309, 3980.786
437.648, 4188.116
438.987, 4175.271
440.326, 4214.403
441.665, 4224.515
443.003, 4506.605
444.342, 4566.675
445.680, 4704.725
447.018, 4976.752
448.355, 5023.761
449.693, 5366.788
451.030, 5783.936
452.367, 6339.334
453.704, 6779.571
455.041, 7585.810
456.377, 8098.768
457.713, 8369.264
459.049, 8247.105
460.385, 7800.934
461.721, 6931.226
463.056, 5863.803
464.391, 4863.521
465.726, 4125.329
467.061, 3330.228
468.395, 2750.733
469.730, 2438.744
471.064, 2041.430
472.398, 1996.684
473.731, 1741.758
475.065, 1671.248
476.398, 1656.926
477.731, 1687.254
479.064, 1741.911
480.397, 1795.985
481.729, 1900.753
483.062, 1997.026
484.394, 1997.992
485.725, 2161.560
487.057, 2293.633
488.389, 2263.052
489.720, 2288.647
491.051, 2340.688
492.382, 2365.217
493.712, 2368.855
495.043, 2351.921
496.373, 2412.449
497.703, 2448.141
499.032, 2510.416
500.362, 2567.013
501.691, 2660.584
503.020, 2706.154
504.349, 2796.994
505.678, 2905.349
507.007, 3111.171
508.335, 3245.867
509.663, 3461.895
510.991, 3842.722
512.319, 4082.552
513.646, 4578.394
514.973, 4919.258
516.300, 5599.134
517.627, 6240.022
518.954, 6897.920
520.280, 8078.822
521.607, 9281.725
522.933, 11053.635
524.259, 13130.544
525.584, 15697.459
526.910, 19456.383
528.235, 24087.305
529.560, 29918.232
530.885, 36148.172
532.209, 43025.105
533.534, 48800.051
534.858, 50967.992
536.182, 48550.941
537.506, 42832.910
538.829, 35372.879
540.152, 27931.854
541.476, 22068.838
542.799, 17095.822
544.121, 13842.821
545.444, 11189.824
546.766, 9133.835
548.088, 7782.854
549.410, 6676.879
550.732, 5748.913
552.053, 5156.954
553.375, 4537.000
554.696, 4066.059
556.017, 3693.121
557.337, 3471.190
558.658, 3241.270
559.978, 3002.356
561.298, 2955.450
562.618, 2739.552
563.938, 2604.662
565.257, 2544.785
566.576, 2284.922
567.895, 2359.067
569.214, 2207.219
570.533, 2082.379
571.851, 1780.548
573.170, 1819.725
574.488, 1554.909
575.805, 1390.102
577.123, 1304.302
578.440, 1182.510
579.758, 1114.727
581.075, 938.952
582.391, 927.185
583.708, 810.508
585.024, 720.998
586.341, 694.327
587.657, 628.703
588.972, 549.128
590.288, 460.632
591.603, 388.660
592.918, 342.266
594.233, 287.390
595.548, 260.584
596.863, 209.278
598.177, 179.980
599.491, 135.692
600.805, 137.413
602.119, 129.144
603.432, 89.883
604.746, 28.633
606.059, 34.392
607.372, 2.841
608.685, 16.674
609.997, 73.279
611.309, 25.499
612.621, 26.712
613.933, 6.919
615.245, 42.117
616.557, 13.688
617.868, 4.503
619.179, 29.672
620.490, 32.834
621.801, 44.317
623.111, 12.114
624.421, 103.465
625.731, 63.230
627.041, 177.134
628.351, 124.248
629.660, 133.525
630.970, 274.563
632.279, 243.187
633.588, 268.614
634.896, 255.677
636.205, 302.977
637.513, 408.831
638.821, 419.086
640.129, 513.095
641.437, 594.625
642.744, 607.607
644.051, 623.639
645.358, 756.619
646.665, 756.406
647.972, 807.531
649.278, 899.791
650.584, 806.142
651.890, 857.260
653.196, 819.956
654.502, 801.187
655.807, 737.109
657.113, 713.280
658.418, 717.013
659.722, 660.877
661.027, 622.223
662.331, 568.492
663.636, 540.803
664.940, 458.801
666.244, 461.068
667.547, 378.154
668.851, 364.758
670.154, 364.744
671.457, 329.881
672.760, 425.463
674.062, 307.065
675.365, 334.060
676.667, 250.286
677.969, 222.441
679.271, 236.260
680.572, 135.328
681.874, 220.522
683.175, 247.062
684.476, 260.138
685.777, 248.344
687.077, 286.426
688.378, 410.512
689.678, 564.679
690.978, 614.770
692.278, 636.863
693.577, 803.959
694.877, 804.057
696.176, 901.157
697.475, 829.260
698.774, 942.365
700.072, 1029.473
701.371, 1138.581
702.669, 1194.692
703.967, 1384.805
705.265, 1573.920
706.562, 1548.036
707.860, 1385.154
709.157, 1343.274
710.454, 1178.395
711.751, 1017.518
713.047, 873.641
714.344, 813.767
715.640, 513.893
716.936, 508.020
718.232, 467.149
719.527, 333.278
720.823, 372.408
722.118, 309.540
723.413, 321.671
724.708, 246.804
726.002, 304.937
727.297, 168.069
728.591, 236.203
729.885, 231.336
731.179, 160.470
732.472, 150.604
733.766, 69.738
735.059, 86.872
736.352, 75.005
737.645, 34.139
738.937, 3.271
740.230, 0.598
741.522, 6.528
742.814, 13.652
744.106, 59.774
745.397, 25.896
746.689, 3.984
747.980, 39.126
749.271, 21.236
750.562, 123.342
751.853, 161.446
753.143, 206.547
754.433, 222.123
755.723, 227.345
757.013, 215.831
758.303, 196.920
759.592, 205.005
760.881, 162.086
762.170, 204.165
763.459, 108.199
764.748, 62.087
766.036, 126.702
767.325, 142.452
768.613, 91.178
769.901, 71.159
771.188, 48.578
772.476, 41.634
773.763, 29.747
775.050, 47.322
776.337, 7.917
777.624, 1.945
778.910, 29.166
780.196, 15.181
781.482, 64.218
782.768, 114.304
784.054, 13.535
785.339, 31.635
786.625, 55.837
787.910, 13.914
789.195, 93.345
790.479, 29.669
791.764, 12.027
793.048, 46.408
794.332, 41.833
795.616, 33.297
796.900, 7.798
798.183, 7.528
799.467, 5.870
800.750, 17.560
802.033, 54.022
803.316, 23.653
804.598, 72.317
805.880, 20.041
807.163, 36.205
808.445, 36.560
809.726, 22.635
811.008, 18.181
812.289, 58.030
813.570, 25.932
814.851, 23.130
816.132, 68.821
817.413, 31.832
818.693, 65.117
819.973, 24.056
821.253, 43.980
822.533, 14.894
823.813, 25.208
825.092, 59.349
826.371, 18.544
827.650, 18.774
828.929, 9.038
830.208, 28.669
831.486, 37.297
832.764, 11.047
834.042, 69.711
835.320, 32.364
836.598, 18.005
837.875, 75.631
839.152, 32.246
840.429, 163.849
841.706, 100.443
842.983, 42.026
844.259, 152.600
845.536, 107.162
846.812, 71.715
848.088, 77.256
849.363, 69.243
850.639, 111.309
851.914, 94.820
853.189, 93.320
854.464, 99.810
855.739, 95.280
857.013, 84.785
858.288, 115.260
859.562, 102.732
860.836, 141.193
862.110, 115.644
863.383, 136.088
864.656, 160.522
865.930, 153.946
867.203, 67.360
868.475, 145.781
869.748, 90.191
871.020, 181.592
872.292, 136.982
873.564, 109.363
874.836, 108.733
876.108, 97.093
877.379, 138.443
878.650, 148.784
879.922, 99.113
881.192, 132.433
882.463, 187.743
883.733, 70.042
885.004, 80.333
886.274, 86.613
887.544, 188.884
888.813, 77.145
890.083, 159.396
891.352, 149.645
892.621, 203.805
893.890, 185.810
895.159, 123.023
896.427, 163.255
897.695, 146.487
898.964, 187.695
900.232, 201.430
901.499, 212.629
902.767, 248.259
904.034, 263.057
905.301, 308.171
906.568, 310.333
907.835, 345.486
909.102, 371.629
910.368, 337.764
911.634, 440.889
912.900, 427.006
914.166, 541.112
915.432, 561.210
916.697, 564.300
917.962, 783.382
919.227, 940.462
920.492, 1091.535
921.757, 1399.602
923.021, 1782.660
924.285, 2250.713
925.550, 3035.756
926.813, 3758.792
928.077, 4880.820
929.341, 5686.566
930.604, 5850.926
931.867, 5179.302
933.130, 4207.516
934.393, 3362.613
935.655, 2411.531
936.918, 1965.306
938.180, 1547.343
939.442, 1204.829
940.703, 993.526
941.965, 863.595
943.226, 693.630
944.488, 546.746
945.749, 608.675
947.009, 508.865
948.270, 514.567
949.530, 536.846
950.791, 531.119
952.051, 532.666
953.311, 544.067
954.570, 530.357
955.830, 534.534
957.089, 557.637
958.348, 521.007
959.607, 600.818
960.866, 629.122
962.124, 718.766
963.383, 882.196
964.641, 980.111
965.899, 1315.031
967.156, 1622.646
968.414, 1960.854
969.671, 2683.377
970.928, 3160.240
972.185, 3181.855
973.442, 2881.659
974.699, 2394.949
975.955, 1856.861
977.211, 1369.627
978.468, 1209.952
979.723, 1011.261
980.979, 917.182
982.234, 968.877
983.490, 754.646
984.745, 909.755
986.000, 1095.622
987.254, 1120.364
988.509, 1362.767
989.763, 1435.637
991.017, 1754.380
992.271, 1936.723
993.525, 2275.605
994.779, 2548.610
996.032, 2639.532
997.285, 2547.455
998.538, 2250.379
999.791, 2139.305
1001.044, 1646.286
1002.296, 1588.219
1003.548, 1440.154
1004.800, 1347.093
1006.052, 1412.050
1007.304, 1401.996
1008.555, 1512.546
1009.807, 1758.000
1011.058, 1931.965
1012.309, 2204.954
1013.559, 2620.650
1014.810, 3004.650
1016.060, 3708.734
1017.310, 4396.745
1018.560, 5281.642
1019.810, 6575.663
1021.060, 8104.705
1022.309, 9688.750
1023.558, 10823.798
1024.807, 10341.854
1026.056, 9219.906
1027.305, 7432.959
1028.553, 6017.014
1029.801, 4620.078
1031.049, 3608.142
1032.297, 2931.209
1033.545, 2542.277
1034.793, 2185.346
1036.040, 2058.515
1037.287, 1888.645
1038.534, 1897.736
1039.781, 1937.829
1041.027, 1700.695
1042.274, 1531.920
1043.520, 1514.022
1044.766, 1257.377
1046.012, 1101.785
1047.257, 1207.902
1048.503, 1225.207
1049.748, 1141.329
1050.993, 1195.562
1052.238, 1278.698
1053.483, 1425.834
1054.727, 1418.024
1055.971, 1732.176
1057.216, 1801.329
1058.459, 2057.554
1059.703, 2219.713
1060.947, 2595.955
1062.190, 2748.136
1063.433, 2887.300
1064.676, 3000.470
1065.919, 2775.751
1067.162, 2716.925
1068.404, 2347.100
1069.646, 2072.276
1070.888, 1878.650
1072.130, 1539.884
1073.372, 1408.110
1074.613, 1296.292
1075.855, 1084.477
1077.096, 1012.486
1078.337, 968.849
1079.578, 835.040
1080.818, 764.237
1082.059, 714.447
1083.299, 690.668
1084.539, 695.912
1085.779, 801.227
1087.018, 793.639
1088.258, 745.938
1089.497, 865.258
1090.736, 1031.583
1091.975, 1167.938
1093.213, 1172.308
1094.452, 1493.688
1095.690, 1540.089
1096.928, 1802.595
1098.166, 1993.030
1099.404, 2088.592
1100.642, 1954.046
1101.879, 1918.511
1103.116, 1803.979
1104.353, 1624.468
1105.590, 1390.973
1106.827, 1254.931
1108.063, 1098.609
1109.299, 997.355
1110.536, 917.171
1111.771, 759.737
1113.007, 608.374
1114.243, 551.015
1115.478, 507.712
1116.713, 406.549
1117.948, 387.462
1119.183, 317.431
1120.418, 293.325
1121.652, 302.127
1122.886, 307.970
1124.120, 351.801
1125.354, 197.679
1126.588, 186.573
1127.821, 107.478
1129.055, 164.351
1130.288, 141.297
1131.521, 136.232
1132.753, 76.175
1133.986, 112.254
1135.218, 124.000
1136.450, 9.962
1137.682, 79.943
1138.914, 13.690
1140.146, 23.918
1141.377, 32.825
1142.609, 12.899
1143.840, 42.929
1145.071, 74.855
1146.301, 37.831
1147.532, 25.923
1148.762, 3.868
1149.992, 4.346
1151.222, 4.444
1152.452, 37.863
1153.682, 69.156
1154.911, 56.247
1156.140, 22.392
1157.369, 41.831
1158.598, 15.993
1159.827, 33.039
1161.055, 22.127
1162.284, 53.637
1163.512, 1.854
1164.740, 102.925
1165.967, 74.958
1167.195, 49.649
1168.422, 50.602
1169.650, 24.321
1170.877, 27.446
1172.103, 17.193
1173.330, 43.991
1174.557, 56.703
1175.783, 61.610
1177.009, 67.004
1178.235, 68.356
1179.461, 48.882
1180.686, 56.447
1181.912, 28.007
1183.137, 2.903
1184.362, 17.835
1185.587, 39.897
1186.811, 38.479
1188.036, 32.437
1189.260, 3.384
1190.484, 89.943
1191.708, 23.249
1192.932, 55.004
1194.155, 87.452
1195.378, 20.900
1196.602, 95.716
1197.825, 16.486
1199.047, 125.247
1200.270, 97.739
1201.492, 36.124
1202.715, 51.566
1203.937, 59.133
1205.159, 31.337
1206.380, 113.606
1207.602, 30.143
1208.823, 45.512
1210.044, 85.873
1211.265, 57.275
1212.486, 26.783
1213.707, 85.156
1214.927, 101.549
1216.147, 110.879
1217.367, 9.265
1218.587, 43.754
1219.807, 47.061
1221.027, 62.362
1222.246, 85.656
1223.465, 60.944
1224.684, 98.332
1225.903, 91.089
1227.121, 68.876
1228.340, 85.240
1229.558, 100.551
1230.776, 77.808
1231.994, 57.083
1233.212, 35.327
1234.429, 87.562
1235.646, 96.790
1236.864, 141.008
1238.081, 142.180
1239.297, 87.460
1240.514, 114.656
1241.730, 117.847
1242.947, 51.197
1244.163, 76.378
1245.378, 45.555
1246.594, 92.849
1247.810, 92.920
1249.025, 156.237
1250.240, 89.388
1251.455, 78.532
1252.670, 6.668
1253.885, 46.795
1255.099, 31.914
1256.313, 22.023
1257.527, 117.139
1258.741, 68.232
1259.955, 73.688
1261.168, 64.392
1262.382, 32.459
1263.595, 24.505
1264.808, 20.498
1266.021, 31.479
1267.233, 54.447
1268.446, 45.753
1269.658, 50.215
1270.870, 43.256
1272.082, 45.154
1273.294, 46.371
1274.505, 57.610
1275.716, 42.630
1276.928, 46.395
1278.139, 45.145
1279.349, 24.882
1280.560, 141.604
1281.770, 43.310
1282.981, 40.001
1284.191, 99.680
1285.401, 22.677
1286.610, 118.479
1287.820, 20.917
1289.029, 77.541
1290.239, 52.988
1291.448, 41.495
1292.656, 26.987
1293.865, 18.445
1295.073, 18.400
1296.282, 26.710
1297.490, 11.669
1298.698, 41.055
1299.906, 9.412
1301.113, 23.231
1302.320, 5.507
1303.528, 61.332
1304.735, 67.367
1305.942, 16.103
1307.148, 72.442
1308.355, 11.330
1309.561, 67.804
1310.767, 5.002
1311.973, 120.293
1313.179, 68.546
1314.384, 68.576
1315.590, 12.683
1316.795, 60.772
1318.000, 47.842
1319.205, 67.901
1320.410, 29.945
1321.614, 2.028
1322.819, 62.978
1324.023, 52.968
1325.227, 111.942
1326.431, 116.901
1327.634, 29.846
1328.838, 20.323
1330.041, 6.464
1331.244, 90.421
1332.447, 14.292
1333.650, 33.378
1334.852, 87.095
1336.055, 33.924
1337.257, 11.508
1338.459, 94.997
1339.661, 47.782
1340.862, 50.369
1342.064, 6.869
1343.265, 25.773
1344.466, 76.507
1345.667, 32.771
1346.868, 85.889
1348.068, 54.577
1349.269, 24.255
1350.469, 26.852
1351.669, 57.508
1352.869, 117.074
1354.069, 173.691
1355.268, 1.679
1356.468, 58.938
1357.667, 89.437
1358.866, 83.040
1360.065, 100.636
1361.263, 82.227
1362.462, 55.616
1363.660, 153.141
1364.858, 155.685
1366.056, 106.258
1367.254, 112.830
1368.451, 72.419
1369.649, 111.166
1370.846, 152.737
1372.043, 74.604
1373.240, 88.943
1374.436, 115.527
1375.633, 94.762
1376.829, 104.669
1378.025, 120.104
1379.221, 156.413
1380.417, 180.618
1381.613, 90.728
1382.808, 176.619
1384.003, 101.995
1385.199, 147.265
1386.393, 63.484
1387.588, 183.806
1388.783, 138.109
1389.977, 73.945
1391.171, 89.854
1392.365, 102.827
1393.559, 115.945
1394.753, 148.994
1395.946, 149.028
1397.140, 208.123
1398.333, 143.882
1399.526, 144.567
1400.719, 104.289
1401.911, 172.903
1403.104, 165.337
1404.296, 137.116
1405.488, 197.856
1406.680, 141.682
1407.872, 108.180
1409.063, 200.493
1410.255, 161.278
1411.446, 190.003
1412.637, 167.569
1413.828, 189.028
1415.018, 173.423
1416.209, 211.269
1417.399, 168.263
1418.589, 211.668
1419.779, 90.997
1420.969, 140.564
1422.159, 146.488
1423.348, 197.256
1424.537, 151.711
1425.726, 158.771
1426.915, 176.594
1428.104, 139.170
1429.293, 142.499
1430.481, 117.161
1431.669, 120.685
1432.857, 147.064
1434.045, 142.842
1435.233, 183.299
1436.420, 211.550
1437.608, 124.693
1438.795, 135.844
1439.982, 169.793
1441.169, 170.679
1442.355, 175.402
1443.542, 211.142
1444.728, 252.660
1445.914, 244.458
1447.100, 245.033
1448.286, 246.769
1449.472, 151.178
1450.657, 235.768
1451.842, 239.369
1453.027, 248.942
1454.212, 346.407
1455.397, 163.905
1456.581, 273.997
1457.766, 325.092
1458.950, 190.241
1460.134, 363.465
1461.318, 215.632
1462.501, 171.734
1463.685, 275.735
1464.868, 241.706
1466.051, 179.631
1467.234, 177.729
1468.417, 89.791
1469.600, 153.863
1470.782, 85.051
1471.965, 117.373
1473.147, 125.840
1474.329, 147.288
1475.510, 111.746
1476.692, 140.248
1477.873, 220.813
1479.055, 132.440
1480.236, 248.114
1481.416, 137.918
1482.597, 172.743
1483.778, 139.624
1484.958, 81.510
1486.138, 159.404
1487.318, 213.310
1488.498, 162.234
1489.678, 132.177
1490.857, 111.153
1492.037, 154.187
1493.216, 173.279
1494.395, 170.444
1495.574, 163.700
1496.752, 146.477
1497.931, 146.511
1499.109, 83.065
1500.287, 105.716
1501.465, 61.473
1502.643, 81.339
1503.820, 125.315
1504.998, 90.407
1506.175, 60.634
1507.352, 85.018
1508.529, 126.585
