##NAMES=Scolecite
##RRUFFID=R050083
##IDEAL CHEMISTRY=Ca(Si_3_Al_2_)O_10_&#183;3H_2_O
##LOCALITY=near Ahmednagar, Maharashtra, India
##OWNER=RRUFF
##SOURCE=Rock Currier
##DESCRIPTION=Colorless acicular single crystals associated with fluorapophyllite
##STATUS=The identification of this mineral has been confirmed by X-ray diffraction and chemical analysis
##URL=rruff.info/R050083
##MEASURED CHEMISTRY=(Ca_.992_Na_.008_)[Al_2_Si_3_O_10_]Â·3H_2_O
##PIN_ID=M00106
##ORIENTATION=Laser parallel to (1 0 1). Fiducial mark perpendicular to laser is parallel to b [0 1 0]
49.184, 0.000
50.590, 1.606
51.996, 168.357
53.401, 146.374
54.807, 145.625
56.212, 217.226
57.617, 218.440
59.021, 322.113
60.426, 317.576
61.830, 301.087
63.234, 403.108
64.637, 395.401
66.041, 470.868
67.444, 533.883
68.847, 473.783
70.250, 436.149
71.652, 424.120
73.054, 257.395
74.456, 319.051
75.858, 251.163
77.260, 199.698
78.661, 167.842
80.062, 23.504
81.463, 58.549
82.863, 15.128
84.264, 85.606
85.664, 21.952
87.064, 15.787
88.463, 29.429
89.863, 151.370
91.262, 275.162
92.661, 662.953
94.059, 946.756
95.458, 1508.573
96.856, 1784.396
98.254, 2016.063
99.652, 2303.369
101.049, 2510.472
102.446, 2773.331
103.843, 2829.258
105.240, 3376.024
106.637, 3913.268
108.033, 5473.454
109.429, 7032.179
110.825, 8558.479
112.220, 9374.393
113.616, 8279.976
115.011, 6795.225
116.406, 5069.153
117.800, 3871.784
119.195, 2983.136
120.589, 2336.227
121.983, 2061.071
123.377, 1873.684
124.770, 2131.078
126.163, 2215.268
127.556, 2414.263
128.949, 2218.076
130.342, 1978.716
131.734, 1907.195
133.126, 1633.612
134.518, 1828.200
135.909, 2271.918
137.301, 3195.720
138.692, 4380.565
140.083, 6080.411
141.473, 7697.226
142.864, 8229.966
144.254, 7882.603
145.644, 6408.997
147.034, 5058.324
148.423, 4111.705
149.812, 3702.545
151.201, 3971.077
152.590, 4410.433
153.979, 5792.689
155.367, 7091.932
156.755, 9122.627
158.143, 10913.225
159.530, 11689.818
160.918, 11726.874
162.305, 10100.981
163.692, 8907.916
165.078, 7188.180
166.465, 6239.259
167.851, 5529.367
169.237, 4844.504
170.623, 4531.668
172.008, 4257.859
173.393, 4351.078
174.778, 4502.821
176.163, 4787.032
177.548, 5148.954
178.932, 5568.250
180.316, 6362.565
181.700, 6798.904
183.083, 7487.259
184.467, 7775.627
185.850, 7854.010
187.233, 7432.408
188.616, 6359.813
189.998, 5512.221
191.380, 4037.629
192.762, 3294.037
194.144, 2489.447
195.525, 1947.860
196.907, 1659.276
198.288, 1394.697
199.669, 1425.122
201.049, 1281.554
202.429, 1493.991
203.810, 1681.437
205.189, 1810.891
206.569, 1891.353
207.949, 1773.826
209.328, 1763.309
210.707, 1457.803
212.085, 1261.309
213.464, 1141.827
214.842, 1166.359
216.220, 1346.955
217.598, 1589.065
218.976, 2128.032
220.353, 2791.397
221.730, 3509.060
223.107, 4073.209
224.483, 3953.643
225.860, 3640.537
227.236, 2761.724
228.612, 2219.155
229.988, 1732.406
231.363, 1501.884
232.738, 1457.824
234.113, 1200.782
235.488, 1100.818
236.863, 675.596
238.237, 443.371
239.611, 130.182
240.985, 20.571
242.359, 49.560
243.732, 200.097
245.105, 108.956
246.478, 129.263
247.851, 91.313
249.223, 331.208
250.595, 654.781
251.967, 1198.446
253.339, 1700.268
254.711, 2251.645
256.082, 2323.852
257.453, 2140.111
258.824, 1701.768
260.195, 1055.422
261.565, 713.074
262.935, 277.724
264.305, 5.366
265.675, 128.018
267.044, 208.462
268.414, 198.986
269.783, 267.587
271.151, 161.292
272.520, 179.079
273.888, 125.950
275.256, 156.891
276.624, 82.908
277.992, 66.022
279.359, 178.929
280.726, 505.818
282.093, 710.693
283.460, 968.559
284.827, 1215.427
286.193, 1230.293
287.559, 1403.158
288.925, 1298.028
290.290, 1301.895
291.656, 1035.769
293.021, 767.643
294.386, 594.515
295.750, 410.410
297.115, 242.257
298.479, 167.123
299.843, 172.984
301.207, 137.840
302.570, 116.694
303.933, 236.542
305.296, 265.386
306.659, 460.229
308.022, 594.074
309.384, 805.928
310.746, 971.745
312.108, 900.395
313.470, 1093.888
314.831, 983.377
316.193, 989.884
317.554, 947.400
318.914, 846.924
320.275, 760.456
321.635, 683.996
322.995, 623.139
324.355, 510.717
325.715, 500.787
327.074, 453.719
328.434, 342.542
329.792, 331.376
331.151, 261.230
332.510, 289.104
333.868, 392.998
335.226, 288.912
336.584, 314.848
337.941, 263.803
339.299, 296.777
340.656, 238.768
342.013, 218.776
343.370, 232.806
344.726, 194.856
346.082, 313.927
347.438, 302.021
348.794, 357.135
350.150, 363.271
351.505, 348.428
352.860, 388.607
354.215, 301.808
355.570, 334.031
356.924, 282.277
358.278, 379.544
359.632, 426.835
360.986, 519.148
362.339, 678.484
363.693, 716.843
365.046, 841.225
366.399, 818.630
367.751, 925.058
369.104, 985.510
370.456, 1004.985
371.808, 1180.484
373.159, 1062.007
374.511, 1090.553
375.862, 1093.123
377.213, 887.717
378.564, 899.334
379.914, 674.930
381.265, 703.510
382.615, 592.075
383.965, 529.628
385.315, 443.171
386.664, 343.707
388.013, 391.238
389.362, 284.768
390.711, 319.300
392.060, 332.836
393.408, 366.378
394.756, 449.928
396.104, 462.490
397.451, 641.067
398.799, 777.664
400.146, 871.281
401.493, 1137.920
402.840, 1317.205
404.186, 1603.688
405.533, 1681.986
406.879, 1872.923
408.225, 1852.672
409.570, 1634.268
410.916, 1580.597
412.261, 1221.182
413.606, 1077.137
414.951, 780.141
416.295, 710.185
417.639, 652.279
418.983, 535.403
420.327, 744.552
421.671, 743.720
423.014, 949.908
424.357, 1190.116
425.700, 1218.046
427.043, 1649.758
428.386, 1708.177
429.728, 2023.626
431.070, 2321.752
432.412, 2511.657
433.753, 3026.321
435.095, 3120.958
436.436, 3548.022
437.777, 3532.239
439.118, 3599.196
440.458, 4023.664
441.798, 3966.647
443.138, 4505.511
444.478, 4751.819
445.818, 5282.578
447.157, 5769.097
448.496, 6146.692
449.835, 6481.192
451.174, 6346.896
452.513, 6568.630
453.851, 6388.625
455.189, 5826.866
456.527, 5439.553
457.864, 4571.370
459.202, 4202.193
460.539, 3292.724
461.876, 2838.322
463.212, 2330.704
464.549, 1720.152
465.885, 1520.296
467.221, 1170.718
468.557, 1010.707
469.893, 896.542
471.228, 719.758
472.563, 725.928
473.898, 519.335
475.233, 538.198
476.567, 482.904
477.902, 471.198
479.236, 570.531
480.570, 515.912
481.903, 662.348
483.237, 698.830
484.570, 696.364
485.903, 890.949
487.235, 869.593
488.568, 1012.300
489.900, 1158.055
491.232, 1156.868
492.564, 1339.732
493.896, 1359.647
495.227, 1532.615
496.558, 1548.632
497.889, 1665.706
499.220, 1764.833
500.551, 1776.000
501.881, 1989.216
503.211, 1871.467
504.541, 2131.762
505.870, 2223.103
507.200, 2267.479
508.529, 2569.901
509.858, 2520.370
511.187, 2842.885
512.515, 2992.445
513.844, 3272.042
515.172, 3780.689
516.500, 3941.368
517.827, 4590.094
519.155, 4790.862
520.482, 5589.664
521.809, 6483.509
523.136, 7155.390
524.462, 8578.307
525.789, 10011.261
527.115, 12334.253
528.441, 15027.272
529.766, 18530.326
531.092, 24633.404
532.417, 28976.521
533.742, 36629.652
535.067, 41372.816
536.391, 42816.016
537.716, 42639.242
539.040, 35952.492
540.364, 30105.770
541.688, 23469.072
543.011, 17922.402
544.334, 14665.758
545.657, 11079.145
546.980, 9272.558
548.303, 7675.998
549.625, 6351.465
550.947, 5690.959
552.269, 4621.479
553.591, 4424.027
554.913, 3859.600
556.234, 3497.199
557.555, 3281.825
558.876, 2930.476
560.197, 2902.152
561.517, 2552.853
562.837, 2487.587
564.157, 2391.361
565.477, 2152.191
566.797, 2238.119
568.116, 1914.119
569.435, 1880.196
570.754, 1751.303
572.073, 1590.434
573.391, 1598.586
574.709, 1288.761
576.027, 1346.958
577.345, 1114.177
578.663, 945.416
579.980, 1045.677
581.297, 809.958
582.614, 873.259
583.931, 741.581
585.248, 555.924
586.564, 598.301
587.880, 392.744
589.196, 440.276
590.511, 360.893
591.827, 271.613
593.142, 244.407
594.457, 86.279
595.772, 185.216
597.086, 51.224
598.401, 53.284
599.715, 83.366
601.029, 18.532
602.343, 35.419
603.656, 105.296
604.969, 71.186
606.282, 72.079
607.595, 94.974
608.908, 42.880
610.220, 98.781
611.532, 49.694
612.844, 22.605
614.156, 37.508
615.468, 45.596
616.779, 2.713
618.090, 36.844
619.401, 105.990
620.712, 35.848
622.022, 74.318
623.332, 7.499
624.642, 18.307
625.952, 37.038
627.262, 86.608
628.571, 4.912
629.880, 92.292
631.189, 72.097
632.498, 24.947
633.807, 75.364
635.115, 22.582
636.423, 8.084
637.731, 85.670
639.039, 115.344
640.346, 135.401
641.653, 234.424
642.960, 260.468
644.267, 342.358
645.574, 453.481
646.880, 536.054
648.186, 678.584
649.492, 762.539
650.798, 862.347
652.103, 975.013
653.409, 630.905
654.714, 724.544
656.019, 564.104
657.323, 615.456
658.628, 599.619
659.932, 577.333
661.236, 606.611
662.540, 582.390
663.843, 603.751
665.147, 641.975
666.450, 678.016
667.753, 784.065
669.056, 776.686
670.358, 893.912
671.660, 944.690
672.963, 1014.058
674.264, 1082.932
675.566, 953.136
676.868, 982.680
678.169, 855.437
679.470, 714.934
680.771, 677.434
682.071, 454.122
683.372, 501.562
684.672, 378.576
685.972, 324.319
687.271, 358.702
688.571, 255.793
689.870, 375.092
691.169, 404.669
692.468, 398.017
693.767, 478.450
695.065, 461.855
696.364, 615.059
697.662, 570.511
698.960, 634.767
700.257, 801.972
701.555, 771.498
702.852, 1029.782
704.149, 1160.316
705.446, 1346.487
706.742, 1583.707
708.038, 1501.905
709.335, 1607.072
710.631, 1451.280
711.926, 1315.463
713.222, 1168.488
714.517, 919.644
715.812, 902.692
717.107, 724.656
718.402, 635.884
719.696, 638.791
720.990, 506.754
722.284, 542.742
723.578, 534.492
724.872, 562.456
726.165, 583.214
727.458, 552.942
728.751, 558.631
730.044, 520.289
731.336, 475.151
732.629, 492.770
733.921, 372.368
735.213, 305.109
736.504, 288.667
737.796, 246.237
739.087, 231.755
740.378, 171.252
741.669, 203.763
742.960, 211.218
744.250, 194.708
745.540, 265.118
746.830, 192.507
748.120, 278.872
749.410, 326.213
750.699, 345.530
751.988, 506.823
753.277, 485.091
754.566, 555.333
755.854, 703.551
757.143, 601.407
758.431, 726.821
759.719, 654.782
761.006, 660.985
762.294, 696.113
763.581, 624.335
764.868, 684.353
766.155, 637.343
767.442, 624.071
768.728, 725.552
770.014, 604.587
771.300, 642.492
772.586, 523.351
773.872, 440.203
775.157, 364.029
776.442, 253.937
777.727, 223.708
779.012, 151.282
780.297, 135.578
781.581, 98.305
782.865, 54.184
784.149, 59.678
785.433, 35.214
786.716, 53.492
787.999, 3.320
789.282, 67.722
790.565, 3.618
791.848, 29.093
793.130, 61.871
794.413, 19.733
795.695, 50.658
796.977, 34.663
798.258, 63.738
799.540, 78.901
800.821, 17.158
802.102, 54.478
803.382, 31.880
804.663, 29.353
805.943, 42.895
807.224, 14.513
808.504, 58.194
809.783, 40.959
811.063, 11.200
812.342, 18.690
813.621, 26.356
814.900, 4.640
816.179, 12.694
817.457, 37.192
818.736, 19.962
820.014, 17.182
821.292, 17.464
822.569, 10.810
823.847, 12.784
825.124, 29.669
826.401, 35.808
827.678, 15.756
828.954, 5.382
830.231, 28.937
831.507, 14.787
832.783, 29.427
834.059, 4.601
835.334, 22.723
836.610, 4.803
837.885, 44.832
839.160, 56.823
840.435, 109.780
841.709, 39.706
842.983, 124.594
844.258, 63.451
845.532, 107.275
846.805, 84.068
848.079, 87.830
849.352, 132.560
850.625, 70.260
851.898, 113.928
853.171, 122.566
854.443, 58.174
855.715, 96.749
856.988, 55.293
858.259, 116.804
859.531, 101.286
860.803, 102.736
862.074, 106.157
863.345, 92.549
864.616, 94.147
865.886, 128.241
867.157, 92.544
868.427, 113.816
869.697, 130.060
870.967, 62.275
872.236, 134.459
873.506, 116.617
874.775, 105.747
876.044, 185.848
877.313, 101.922
878.581, 145.967
879.849, 147.989
881.118, 151.984
882.386, 175.952
883.653, 99.894
884.921, 187.809
886.188, 173.697
887.455, 112.559
888.722, 180.395
889.989, 142.205
891.255, 170.989
892.522, 155.748
893.788, 138.482
895.054, 169.190
896.319, 131.874
897.585, 175.532
898.850, 198.167
900.115, 149.776
901.380, 238.362
902.645, 194.924
903.909, 223.462
905.174, 222.976
906.438, 240.466
907.701, 246.934
908.965, 269.377
910.229, 255.800
911.492, 340.204
912.755, 273.599
914.018, 387.982
915.280, 385.352
916.543, 320.712
917.805, 470.055
919.067, 453.390
920.329, 606.709
921.590, 701.009
922.852, 658.292
924.113, 990.553
925.374, 1040.793
926.635, 1239.012
927.895, 1629.210
929.156, 1876.392
930.416, 2456.557
931.676, 2950.703
932.936, 3612.762
934.195, 4279.646
935.454, 3971.244
936.714, 3665.908
937.973, 2925.974
939.231, 2194.065
940.490, 1800.715
941.748, 1319.981
943.006, 1071.684
944.264, 953.292
945.522, 699.804
946.780, 708.923
948.037, 553.067
949.294, 587.181
950.551, 620.441
951.808, 476.721
953.064, 524.849
954.320, 508.611
955.577, 427.768
956.832, 527.063
958.088, 459.497
959.344, 631.695
960.599, 595.135
961.854, 661.645
963.109, 815.353
964.364, 917.240
965.618, 1045.566
966.872, 1476.321
968.127, 1694.563
969.380, 2214.215
970.634, 2539.994
971.888, 2641.944
973.141, 2607.875
974.394, 2107.224
975.647, 1934.955
976.900, 1488.123
978.152, 1250.689
979.404, 1207.738
980.656, 1047.444
981.908, 1066.799
983.160, 1066.929
984.411, 1106.306
985.663, 1212.676
986.914, 1213.846
988.165, 1344.264
989.415, 1415.097
990.666, 1377.190
991.916, 1371.631
993.166, 1384.352
994.416, 1367.851
995.665, 1502.059
996.915, 1352.484
998.164, 1352.830
999.413, 1359.191
1000.662, 1198.741
1001.911, 1350.047
1003.159, 1328.537
1004.407, 1331.067
1005.655, 1554.264
1006.903, 1611.688
1008.151, 2052.865
1009.398, 2303.391
1010.646, 2748.854
1011.893, 3433.330
1013.139, 4077.823
1014.386, 4940.264
1015.633, 5738.717
1016.879, 6179.327
1018.125, 6435.399
1019.371, 6535.324
1020.616, 6188.941
1021.862, 5737.284
1023.107, 4901.272
1024.352, 4799.852
1025.597, 4557.395
1026.842, 4425.159
1028.086, 4783.697
1029.330, 4341.054
1030.574, 3969.798
1031.818, 3411.565
1033.062, 2607.351
1034.305, 2318.922
1035.548, 2013.720
1036.791, 1874.524
1038.034, 2044.178
1039.277, 2011.022
1040.519, 2327.819
1041.762, 2478.662
1043.004, 2445.525
1044.246, 2435.359
1045.487, 2151.235
1046.729, 1954.062
1047.970, 1853.951
1049.211, 1612.924
1050.452, 1563.831
1051.692, 1465.745
1052.933, 1214.696
1054.173, 1303.620
1055.413, 1133.547
1056.653, 1150.545
1057.893, 1212.483
1059.132, 1108.425
1060.371, 1280.385
1061.610, 1258.338
1062.849, 1338.487
1064.088, 1598.451
1065.326, 1535.427
1066.565, 1670.401
1067.803, 1743.382
1069.041, 1675.369
1070.278, 1825.361
1071.516, 1676.359
1072.753, 1760.456
1073.990, 1784.466
1075.227, 1622.486
1076.464, 1564.513
1077.700, 1387.545
1078.936, 1205.552
1080.173, 1219.598
1081.408, 1041.651
1082.644, 1059.715
1083.880, 981.788
1085.115, 938.870
1086.350, 1050.969
1087.585, 971.078
1088.820, 1103.777
1090.054, 1227.939
1091.288, 1258.138
1092.522, 1505.354
1093.756, 1703.596
1094.990, 1788.874
1096.224, 2179.175
1097.457, 2295.509
1098.690, 2469.223
1099.923, 2671.673
1101.156, 2516.112
1102.388, 2539.576
1103.621, 2389.073
1104.853, 2139.770
1106.085, 2104.843
1107.316, 1864.427
1108.548, 1710.062
1109.779, 1595.706
1111.010, 1356.509
1112.241, 1309.574
1113.472, 1120.291
1114.703, 964.616
1115.933, 914.368
1117.163, 763.744
1118.393, 680.532
1119.623, 611.398
1120.853, 535.316
1122.082, 533.241
1123.311, 452.128
1124.540, 367.031
1125.769, 362.963
1126.997, 296.906
1128.226, 272.874
1129.454, 228.864
1130.682, 163.867
1131.910, 214.989
1133.138, 171.763
1134.365, 155.821
1135.592, 124.112
1136.819, 105.519
1138.046, 95.441
1139.273, 85.007
1140.499, 82.127
1141.725, 97.368
1142.951, 97.570
1144.177, 58.772
1145.403, 121.503
1146.628, 28.664
1147.854, 49.283
1149.079, 99.431
1150.304, 8.613
1151.528, 91.887
1152.753, 66.234
1153.977, 33.575
1155.201, 78.358
1156.425, 45.609
1157.649, 85.954
1158.872, 41.043
1160.096, 15.627
1161.319, 67.608
1162.542, 31.292
1163.764, 0.332
1164.987, 64.075
1166.209, 5.388
1167.431, 46.723
1168.653, 37.606
1169.875, 25.063
1171.097, 42.386
1172.318, 7.715
1173.539, 11.096
1174.760, 63.336
1175.981, 36.244
1177.202, 18.426
1178.422, 14.907
1179.642, 31.233
1180.862, 59.906
1182.082, 33.368
1183.302, 20.430
1184.521, 31.045
1185.740, 2.514
1186.959, 1.542
1188.178, 29.213
1189.397, 23.196
1190.615, 25.667
1191.834, 15.329
1193.052, 66.389
1194.269, 19.562
1195.487, 6.900
1196.705, 66.391
1197.922, 7.192
1199.139, 3.250
1200.356, 14.220
1201.573, 34.672
1202.789, 5.912
1204.006, 29.509
1205.222, 27.901
1206.438, 0.654
1207.653, 63.827
1208.869, 12.703
1210.084, 20.693
1211.299, 0.216
1212.514, 19.569
1213.729, 16.042
1214.944, 63.809
1216.158, 71.216
1217.372, 41.678
1218.586, 6.640
1219.800, 53.713
1221.014, 26.010
1222.227, 42.517
1223.440, 61.909
1224.654, 32.465
1225.866, 51.097
1227.079, 65.573
1228.292, 24.036
1229.504, 90.620
1230.716, 23.220
1231.928, 60.369
1233.139, 38.706
1234.351, 19.466
1235.562, 7.909
1236.773, 64.296
1237.984, 14.645
1239.195, 39.052
1240.406, 31.392
1241.616, 25.734
1242.826, 28.108
1244.036, 11.480
1245.246, 1.138
1246.456, 25.323
1247.665, 16.663
1248.874, 59.079
1250.083, 4.583
1251.292, 33.246
1252.501, 37.085
1253.709, 4.417
1254.917, 42.897
1256.125, 1.697
1257.333, 8.374
1258.541, 26.988
1259.748, 12.712
1260.956, 18.585
1262.163, 12.120
1263.370, 40.235
1264.576, 8.621
1265.783, 3.023
1266.989, 8.287
1268.195, 30.775
1269.401, 35.998
1270.607, 38.769
1271.813, 48.546
1273.018, 36.723
1274.223, 43.282
1275.428, 40.500
1276.633, 8.648
1277.838, 26.074
1279.042, 51.048
1280.246, 48.843
1281.450, 38.355
1282.654, 4.589
1283.858, 23.792
1285.061, 45.027
1286.265, 13.001
1287.468, 24.958
1288.671, 27.898
1289.873, 67.180
1291.076, 63.713
1292.278, 0.358
1293.480, 56.415
1294.682, 57.484
1295.884, 9.677
1297.086, 11.147
1298.287, 14.959
1299.488, 48.242
1300.689, 41.535
1301.890, 21.292
1303.091, 3.964
1304.291, 4.913
1305.491, 1.383
1306.691, 4.018
1307.891, 25.038
1309.091, 19.674
1310.290, 44.364
1311.490, 41.033
1312.689, 13.355
1313.888, 46.469
1315.086, 18.708
1316.285, 3.725
1317.483, 38.895
1318.681, 1.573
1319.879, 32.942
1321.077, 8.854
1322.275, 19.337
1323.472, 2.196
1324.669, 7.411
1325.866, 28.673
1327.063, 3.114
1328.260, 21.500
1329.456, 37.860
1330.653, 4.195
1331.849, 37.485
1333.045, 42.194
1334.240, 1.931
1335.436, 14.313
1336.631, 5.574
1337.826, 3.785
1339.021, 2.021
1340.216, 2.127
1341.411, 12.282
1342.605, 22.419
1343.799, 42.768
1344.993, 47.878
1346.187, 57.227
1347.381, 56.618
1348.574, 64.112
1349.767, 52.156
1350.961, 44.211
1352.153, 47.226
1353.346, 65.034
1354.539, 35.035
1355.731, 88.001
1356.923, 48.082
1358.115, 17.028
1359.307, 65.092
1360.498, 52.010
1361.690, 20.905
1362.881, 104.756
1364.072, 5.669
1365.263, 42.519
1366.453, 70.356
1367.644, 25.303
1368.834, 30.143
1370.024, 47.928
1371.214, 2.696
1372.404, 28.506
1373.593, 27.337
1374.783, 7.957
1375.972, 98.747
1377.161, 17.938
1378.349, 71.361
1379.538, 70.311
1380.726, 81.250
1381.915, 69.177
1383.103, 89.728
1384.290, 103.575
1385.478, 81.462
1386.665, 70.539
1387.853, 88.355
1389.040, 61.046
1390.227, 96.455
1391.413, 72.598
1392.600, 129.708
1393.786, 106.317
1394.972, 100.986
1396.158, 109.708
1397.344, 59.417
1398.530, 78.216
1399.715, 108.630
1400.900, 78.443
1402.085, 111.386
1403.270, 117.879
1404.455, 98.212
1405.639, 69.007
1406.824, 60.902
1408.008, 47.945
1409.192, 78.109
1410.375, 26.656
1411.559, 78.727
1412.742, 48.389
1413.925, 76.044
1415.108, 146.870
1416.291, 19.888
1417.474, 68.753
1418.656, 110.181
1419.839, 47.805
1421.021, 110.158
1422.202, 92.457
1423.384, 52.240
1424.566, 82.685
1425.747, 16.297
1426.928, 16.504
1428.109, 77.948
1429.290, 65.170
1430.470, 61.378
1431.651, 75.842
1432.831, 67.973
1434.011, 52.222
1435.191, 46.448
1436.370, 50.458
1437.550, 74.490
1438.729, 65.653
1439.908, 82.177
1441.087, 134.705
1442.266, 59.262
1443.444, 124.130
1444.623, 70.408
1445.801, 22.181
1446.979, 138.311
1448.157, 45.803
1449.334, 45.707
1450.512, 62.478
1451.689, 42.172
1452.866, 43.871
1454.043, 99.423
1455.220, 5.792
1456.396, 139.187
1457.573, 82.668
1458.749, 34.711
1459.925, 113.841
1461.100, 51.010
1462.276, 41.228
1463.451, 64.940
1464.627, 53.705
1465.802, 115.205
1466.977, 146.982
1468.151, 38.087
1469.326, 47.043
1470.500, 107.720
1471.674, 41.432
1472.848, 110.519
1474.022, 87.081
1475.195, 45.437
1476.369, 130.828
1477.542, 34.789
1478.715, 61.888
1479.888, 116.115
1481.061, 30.305
1482.233, 54.510
1483.405, 87.150
1484.577, 3.862
1485.749, 92.214
1486.921, 78.280
1488.093, 21.470
1489.264, 76.310
