##NAMES=Scolecite
##RRUFFID=R040111
##IDEAL CHEMISTRY=Ca(Si_3_Al_2_)O_10_&#183;3H_2_O
##LOCALITY=Bombay-Poona area, Mahahashtra Province, India
##OWNER=RRUFF
##SOURCE=National Museums of Canada
##DESCRIPTION=Pale pink prismatic crystals in parallel or near parallel aggregates
##STATUS=The identification of this mineral has been confirmed by X-ray diffraction and chemical analysis
##URL=rruff.info/R040111
##MEASURED CHEMISTRY=Ca_0.98_(Si_3.05_Al_1.95_)O_10_Â·3H_2_O
##PIN_ID=M00424
##ORIENTATION=Laser parallel to -c* (0 0 -1). Fiducial mark perpendicular to laser is parallel to -a [-1 0 0]
75.239, 0.000
76.635, 90.153
78.031, 20.331
79.427, 16.032
80.823, 132.381
82.218, 353.839
83.614, 621.057
85.009, 870.711
86.404, 1306.690
87.798, 1897.695
89.193, 2690.028
90.587, 3511.368
91.981, 4426.643
93.375, 5427.947
94.768, 6133.524
96.161, 6486.764
97.554, 6284.167
98.947, 5750.290
100.340, 5028.851
101.732, 4641.681
103.124, 4569.416
104.516, 4721.832
105.908, 5406.705
107.300, 6534.773
108.691, 8406.815
110.082, 10336.635
111.473, 11555.076
112.864, 11238.999
114.254, 9334.298
115.644, 6544.015
117.034, 4404.094
118.424, 2799.385
119.813, 2083.754
121.203, 1828.093
122.592, 1992.321
123.981, 2649.955
125.369, 3584.349
126.758, 4568.545
128.146, 4859.194
129.534, 4315.278
130.922, 2942.885
132.309, 1806.827
133.696, 836.716
135.083, 429.866
136.470, 118.271
137.857, 120.927
139.243, 91.833
140.630, 135.985
142.016, 232.379
143.401, 332.010
144.787, 390.874
146.172, 594.966
147.557, 948.283
148.942, 1588.818
150.327, 2645.568
151.711, 4057.557
153.096, 6128.657
154.480, 8786.451
155.863, 11913.219
157.247, 14850.100
158.630, 16236.925
160.013, 15673.438
161.396, 13752.733
162.779, 11465.897
164.161, 9183.977
165.544, 7205.015
166.926, 5403.040
168.308, 4214.078
169.689, 3229.148
171.070, 3070.107
172.452, 2717.736
173.833, 2576.816
175.213, 2128.160
176.594, 1617.250
177.974, 1221.458
179.354, 1054.790
180.734, 752.246
182.114, 760.830
183.493, 569.415
184.872, 484.377
186.251, 362.877
187.630, 148.859
189.008, 63.960
190.387, 138.049
191.765, 140.776
193.143, 256.637
194.520, 435.630
195.898, 791.755
197.275, 1178.013
198.652, 1762.402
200.029, 2381.923
201.405, 3109.574
202.782, 3710.354
204.158, 4077.262
205.534, 4034.295
206.909, 3422.450
208.285, 2823.718
209.660, 2303.095
211.035, 1821.580
212.410, 1868.171
213.784, 2150.868
215.159, 2991.665
216.533, 4487.559
217.907, 6515.548
219.281, 9269.630
220.654, 12206.806
222.027, 15047.074
223.400, 15942.433
224.773, 14600.881
226.146, 12673.419
227.518, 10458.250
228.891, 8897.887
230.263, 7952.775
231.634, 7091.456
233.006, 5978.053
234.377, 4658.003
235.748, 3489.398
237.119, 2293.992
238.490, 1651.666
239.860, 1103.416
241.231, 712.965
242.601, 578.348
243.970, 515.356
245.340, 652.479
246.709, 974.509
248.079, 1555.316
249.448, 2349.803
250.816, 3442.889
252.185, 4682.513
253.553, 5838.618
254.921, 6470.164
256.289, 6133.110
257.657, 5149.426
259.024, 3685.079
260.391, 2562.047
261.758, 1617.308
263.125, 918.840
264.492, 334.628
265.858, 18.345
267.224, 138.100
268.590, 378.668
269.956, 308.111
271.321, 290.427
272.687, 252.622
274.052, 62.698
275.416, 472.372
276.781, 909.592
278.146, 1456.954
279.510, 2160.453
280.874, 2605.082
282.237, 2724.834
283.601, 2373.705
284.964, 2070.687
286.327, 1795.777
287.690, 1422.974
289.053, 955.267
290.416, 778.645
291.778, 407.105
293.140, 328.644
294.502, 8.260
295.863, 92.052
297.225, 133.317
298.586, 115.547
299.947, 238.742
301.308, 165.925
302.668, 150.085
304.029, 106.779
305.389, 154.703
306.749, 343.684
308.108, 583.739
309.468, 758.851
310.827, 1098.041
312.186, 1364.320
313.545, 1777.653
314.903, 1927.075
316.262, 2108.588
317.620, 2230.214
318.978, 2222.909
320.336, 2324.689
321.693, 2174.547
323.051, 2186.468
324.408, 1765.470
325.765, 1687.543
327.121, 1360.665
328.478, 1091.829
329.834, 1057.032
331.190, 1004.274
332.546, 886.556
333.902, 934.876
335.257, 828.229
336.612, 924.458
337.967, 989.542
339.322, 1176.573
340.677, 1407.647
342.031, 1636.765
343.385, 2108.925
344.739, 2307.128
346.093, 2766.372
347.446, 3025.657
348.799, 3274.984
350.153, 3440.314
351.505, 3328.603
352.858, 3188.802
354.210, 2830.993
355.563, 2647.227
356.915, 2510.501
358.267, 2456.816
359.618, 2307.170
360.969, 2280.564
362.321, 2069.997
363.672, 1780.468
365.022, 1512.978
366.373, 1388.523
367.723, 1121.105
369.073, 1039.724
370.423, 956.377
371.773, 710.066
373.122, 534.790
374.471, 350.547
375.821, 160.337
377.169, 49.161
378.518, 111.995
379.866, 180.166
381.215, 228.366
382.563, 326.610
383.910, 316.921
385.258, 309.297
386.605, 245.738
387.952, 230.588
389.299, 160.765
390.646, 131.346
391.992, 37.069
393.339, 75.021
394.685, 231.932
396.031, 467.714
397.376, 725.410
398.722, 1139.096
400.067, 1449.816
401.412, 1904.569
402.757, 2400.356
404.101, 2702.220
405.446, 2881.164
406.790, 2996.182
408.134, 2824.267
409.478, 2470.410
410.821, 2098.612
412.165, 1712.870
413.508, 1530.177
414.851, 1499.534
416.193, 1422.938
417.536, 1593.386
418.878, 1744.877
420.220, 2193.409
421.562, 2461.981
422.904, 3337.590
424.245, 4387.237
425.586, 5604.917
426.927, 7320.635
428.268, 8938.896
429.609, 10913.962
430.949, 13096.564
432.289, 14931.646
433.629, 15654.546
434.969, 16043.281
436.309, 15254.200
437.648, 14363.167
438.987, 12919.161
440.326, 11541.182
441.665, 10317.228
443.003, 9415.306
444.342, 8548.406
445.680, 7848.536
447.018, 7389.688
448.355, 6850.865
449.693, 6785.068
451.030, 6924.294
452.367, 7186.544
453.704, 7347.817
455.041, 8063.111
456.377, 8509.201
457.713, 8880.365
459.049, 8788.571
460.385, 8642.536
461.721, 7865.438
463.056, 6479.919
464.391, 5341.121
465.726, 4637.593
467.061, 3651.085
468.395, 2934.253
469.730, 2434.927
471.064, 2008.383
472.398, 1783.667
473.731, 1467.631
475.065, 1230.189
476.398, 1122.123
477.731, 1062.100
479.064, 1029.337
480.397, 932.652
481.729, 888.526
483.062, 890.199
484.394, 873.640
485.725, 807.136
487.057, 794.167
488.389, 795.893
489.720, 737.963
491.051, 791.250
492.382, 856.384
493.712, 828.572
495.043, 901.774
496.373, 932.992
497.703, 1045.232
499.032, 1197.498
500.362, 1180.779
501.691, 1250.089
503.020, 1418.414
504.349, 1494.763
505.678, 1703.146
507.007, 1787.543
508.335, 2090.954
509.663, 2210.378
510.991, 2571.814
512.319, 2821.268
513.646, 3351.732
514.973, 3740.225
516.300, 4368.737
517.627, 5026.268
518.954, 5846.818
520.280, 6960.380
521.607, 8341.961
522.933, 10228.551
524.259, 12142.156
525.584, 15062.771
526.910, 19082.395
528.235, 23717.029
529.560, 30073.672
530.885, 36506.316
532.209, 43201.977
533.534, 49442.629
534.858, 51309.305
536.182, 49002.992
537.506, 42957.621
538.829, 35149.098
540.152, 27500.797
541.476, 21575.801
542.799, 16361.285
544.121, 12993.255
545.444, 10309.588
546.766, 8326.386
548.088, 6804.949
549.410, 5707.259
550.732, 4701.114
552.053, 4089.050
553.375, 3500.082
554.696, 3138.877
556.017, 2741.687
557.337, 2520.508
558.658, 2180.343
559.978, 1819.191
561.298, 1801.056
562.618, 1504.934
563.938, 1441.823
565.257, 1330.725
566.576, 1064.637
567.895, 1122.562
569.214, 921.495
570.533, 781.440
571.851, 672.395
573.170, 777.364
574.488, 684.342
575.805, 652.330
577.123, 520.328
578.440, 503.336
579.758, 545.354
581.075, 590.378
582.391, 655.409
583.708, 673.446
585.024, 627.490
586.341, 735.540
587.657, 719.599
588.972, 864.687
590.288, 811.851
591.603, 879.078
592.918, 938.365
594.233, 1048.704
595.548, 1035.058
596.863, 1057.416
598.177, 1043.779
599.491, 1075.145
600.805, 880.514
602.119, 989.886
603.432, 895.262
604.746, 911.640
606.059, 936.020
607.372, 823.727
608.685, 814.784
609.997, 658.171
611.309, 559.560
612.621, 500.949
613.933, 458.338
615.245, 345.731
616.557, 266.147
617.868, 259.592
619.179, 264.062
620.490, 125.584
621.801, 252.143
623.111, 196.734
624.421, 173.323
625.731, 22.333
627.041, 81.375
628.351, 42.575
629.660, 90.167
630.970, 66.682
632.279, 93.170
633.588, 116.070
634.896, 217.291
636.205, 65.646
637.513, 151.753
638.821, 124.453
640.129, 52.405
641.437, 131.920
642.744, 80.027
644.051, 19.925
645.358, 70.780
646.665, 199.384
647.972, 114.871
649.278, 265.644
650.584, 252.974
651.890, 373.600
653.196, 384.178
654.502, 558.221
655.807, 588.560
657.113, 686.889
658.418, 921.451
659.722, 936.683
661.027, 1132.903
662.331, 1297.750
663.636, 1510.011
664.940, 1643.010
666.244, 2084.454
667.547, 2267.505
668.851, 2625.024
670.154, 3083.130
671.457, 3408.338
672.760, 3854.260
674.062, 3959.102
675.365, 4039.896
676.667, 3863.120
677.969, 3718.974
679.271, 3294.072
680.572, 2759.529
681.874, 2430.280
683.175, 1944.719
684.476, 1549.248
685.777, 1294.467
687.077, 1066.591
688.378, 886.698
689.678, 677.392
690.978, 622.462
692.278, 377.807
693.577, 556.016
694.877, 355.042
696.176, 456.097
697.475, 397.196
698.774, 468.460
700.072, 559.777
701.371, 685.086
702.669, 701.470
703.967, 1004.235
705.265, 1300.926
706.562, 1262.465
707.860, 1201.040
709.157, 1306.923
710.454, 1243.499
711.751, 1329.117
713.047, 1225.651
714.344, 1230.295
715.640, 1151.860
716.936, 1242.464
718.232, 1500.983
719.527, 1499.437
720.823, 1749.000
722.118, 1913.591
723.413, 2195.287
724.708, 2484.629
726.002, 2962.366
727.297, 3094.663
728.591, 3475.248
729.885, 3534.697
731.179, 3350.114
732.472, 3022.001
733.766, 2699.080
735.059, 2325.343
736.352, 2122.504
737.645, 1776.742
738.937, 1609.928
740.230, 1418.065
741.522, 1402.104
742.814, 1275.117
744.106, 1312.203
745.397, 1338.168
746.689, 1281.303
747.980, 1373.285
749.271, 1476.420
750.562, 1628.333
751.853, 1639.476
753.143, 1890.535
754.433, 1866.318
755.723, 1794.076
757.013, 1807.035
758.303, 1648.051
759.592, 1514.728
760.881, 1351.377
762.170, 1212.999
763.459, 976.594
764.748, 782.955
766.036, 850.495
767.325, 544.007
768.613, 635.492
769.901, 535.115
771.188, 381.856
772.476, 432.256
773.763, 260.628
775.050, 290.973
776.337, 235.287
777.624, 216.572
778.910, 260.828
780.196, 132.054
781.482, 102.593
782.768, 42.613
784.054, 113.832
785.339, 77.208
786.625, 27.889
787.910, 112.954
789.195, 58.629
790.479, 83.756
791.764, 27.550
793.048, 57.241
794.332, 39.370
795.616, 37.836
796.900, 34.842
798.183, 135.935
799.467, 103.619
800.750, 132.047
802.033, 50.876
803.316, 39.957
804.598, 128.918
805.880, 22.013
807.163, 23.909
808.445, 14.229
809.726, 19.415
811.008, 36.349
812.289, 39.920
813.570, 41.750
814.851, 19.611
816.132, 62.022
817.413, 35.493
818.693, 54.978
819.973, 20.434
821.253, 47.855
822.533, 13.248
823.813, 40.606
825.092, 40.067
826.371, 3.799
827.650, 19.571
828.929, 2.390
830.208, 22.752
831.486, 5.138
832.764, 29.269
834.042, 3.971
835.320, 53.976
836.598, 88.950
837.875, 75.900
839.152, 117.824
840.429, 176.724
841.706, 140.600
842.983, 46.453
844.259, 171.278
845.536, 83.080
846.812, 96.858
848.088, 139.611
849.363, 170.341
850.639, 170.049
851.914, 110.734
853.189, 117.395
854.464, 167.030
855.739, 274.651
857.013, 76.249
858.288, 91.818
859.562, 184.362
860.836, 196.880
862.110, 77.373
863.383, 163.840
864.656, 122.282
865.930, 212.699
867.203, 106.092
868.475, 119.485
869.748, 3.145
871.020, 120.189
872.292, 130.499
873.564, 98.784
874.836, 87.043
876.108, 67.276
877.379, 146.484
878.650, 55.668
879.922, 142.831
881.192, 12.029
882.463, 87.083
883.733, 89.171
885.004, 21.235
886.274, 1.269
887.544, 108.278
888.813, 126.279
890.083, 102.271
891.352, 108.255
892.621, 114.217
893.890, 196.158
895.159, 158.487
896.427, 107.976
897.695, 146.851
898.964, 83.705
900.232, 113.535
901.499, 70.344
902.767, 117.127
904.034, 55.890
905.301, 68.627
906.568, 153.342
907.835, 167.035
909.102, 71.707
910.368, 51.356
911.634, 163.982
912.900, 131.588
914.166, 230.173
915.432, 126.736
916.697, 3.719
917.962, 176.801
919.227, 169.301
920.492, 163.780
921.757, 81.240
923.021, 45.679
924.285, 198.096
925.550, 120.492
926.813, 186.870
928.077, 182.229
929.341, 162.566
930.604, 283.888
931.867, 306.189
933.130, 321.719
934.393, 424.845
935.655, 323.605
936.918, 446.964
938.180, 354.826
939.442, 302.364
940.703, 282.896
941.965, 243.684
943.226, 155.516
944.488, 180.050
945.749, 232.104
947.009, 146.343
948.270, 93.097
949.530, 132.374
950.791, 194.536
952.051, 222.762
953.311, 185.808
954.570, 108.759
955.830, 112.994
957.089, 127.650
958.348, 148.987
959.607, 134.351
960.866, 81.225
962.124, 96.782
963.383, 54.326
964.641, 45.629
965.899, 56.150
967.156, 58.806
968.414, 62.745
969.671, 136.249
970.928, 129.992
972.185, 302.266
973.442, 255.908
974.699, 321.060
975.955, 326.612
977.211, 170.036
978.468, 262.723
979.723, 254.470
980.979, 316.242
982.234, 500.558
983.490, 325.220
984.745, 539.615
986.000, 634.626
987.254, 645.318
988.509, 995.299
989.763, 1027.177
991.017, 1121.340
992.271, 1317.574
993.525, 1550.803
994.779, 1854.477
996.032, 2010.816
997.285, 2274.746
998.538, 2034.856
999.791, 1976.069
1001.044, 1594.275
1002.296, 1482.635
1003.548, 1301.751
1004.800, 1127.890
1006.052, 1086.099
1007.304, 1043.312
1008.555, 1073.205
1009.807, 1051.238
1011.058, 1309.465
1012.309, 1585.694
1013.559, 1722.730
1014.810, 2050.496
1016.060, 2502.645
1017.310, 3089.852
1018.560, 3795.211
1019.810, 4912.582
1021.060, 6299.867
1022.309, 7372.004
1023.558, 8901.180
1024.807, 8800.282
1026.056, 8219.412
1027.305, 6920.557
1028.553, 5681.951
1029.801, 4467.190
1031.049, 3642.526
1032.297, 3117.359
1033.545, 2801.672
1034.793, 2429.659
1036.040, 2399.160
1037.287, 2442.085
1038.534, 2423.890
1039.781, 2430.900
1041.027, 2162.144
1042.274, 2099.422
1043.520, 1945.330
1044.766, 1542.599
1046.012, 1411.984
1047.257, 1330.271
1048.503, 1355.815
1049.748, 1272.795
1050.993, 1344.129
1052.238, 1393.059
1053.483, 1451.291
1054.727, 1536.186
1055.971, 1626.143
1057.216, 1761.492
1058.459, 1850.811
1059.703, 2078.763
1060.947, 2223.834
1062.190, 2299.258
1063.433, 2490.400
1064.676, 2344.558
1065.919, 2294.230
1067.162, 2362.148
1068.404, 1952.293
1069.646, 1747.790
1070.888, 1552.951
1072.130, 1215.914
1073.372, 1135.918
1074.613, 1187.221
1075.855, 878.468
1077.096, 782.578
1078.337, 951.949
1079.578, 788.141
1080.818, 792.682
1082.059, 834.104
1083.299, 838.197
1084.539, 775.289
1085.779, 905.600
1087.018, 783.698
1088.258, 1036.860
1089.497, 1113.332
1090.736, 1158.512
1091.975, 1289.625
1093.213, 1464.851
1094.452, 1666.991
1095.690, 1860.250
1096.928, 2085.803
1098.166, 2341.375
1099.404, 2483.566
1100.642, 2252.798
1101.879, 2332.310
1103.116, 2115.609
1104.353, 1973.944
1105.590, 1674.449
1106.827, 1610.813
1108.063, 1309.408
1109.299, 1235.769
1110.536, 1121.557
1111.771, 954.991
1113.007, 855.362
1114.243, 785.996
1115.478, 747.600
1116.713, 596.110
1117.948, 625.869
1119.183, 438.271
1120.418, 547.668
1121.652, 545.427
1122.886, 621.974
1124.120, 539.285
1125.354, 410.787
1126.588, 453.381
1127.821, 380.677
1129.055, 442.259
1130.288, 504.692
1131.521, 370.146
1132.753, 168.541
1133.986, 122.029
1135.218, 362.416
1136.450, 110.149
1137.682, 276.249
1138.914, 108.617
1140.146, 182.161
1141.377, 108.035
1142.609, 26.962
1143.840, 15.057
1145.071, 126.631
1146.301, 28.254
1147.532, 130.779
1148.762, 68.428
1149.992, 8.714
1151.222, 107.894
1152.452, 112.537
1153.682, 52.567
1154.911, 67.879
1156.140, 93.882
1157.369, 173.038
1158.598, 67.957
1159.827, 166.020
1161.055, 41.194
1162.284, 12.470
1163.512, 94.677
1164.740, 132.078
1165.967, 116.448
1167.195, 12.882
1168.422, 22.500
1169.650, 78.242
1170.877, 78.065
1172.103, 63.864
1173.330, 45.767
1174.557, 11.756
1175.783, 30.814
1177.009, 30.637
1178.235, 50.307
1179.461, 39.707
1180.686, 7.484
1181.912, 125.424
1183.137, 90.683
1184.362, 31.138
1185.587, 64.972
1186.811, 50.784
1188.036, 71.547
1189.260, 50.035
1190.484, 9.259
1191.708, 84.903
1192.932, 56.752
1194.155, 56.547
1195.378, 17.168
1196.602, 138.981
1197.825, 51.418
1199.047, 205.487
1200.270, 83.305
1201.492, 157.368
1202.715, 47.900
1203.937, 223.465
1205.159, 75.312
1206.380, 106.798
1207.602, 58.774
1208.823, 48.231
1210.044, 207.671
1211.265, 129.103
1212.486, 10.512
1213.707, 5.901
1214.927, 208.465
1216.147, 36.822
1217.367, 116.163
1218.587, 123.487
1219.807, 77.797
1221.027, 81.092
1222.246, 93.446
1223.465, 151.708
1224.684, 62.956
1225.903, 105.316
1227.121, 26.531
1228.340, 48.727
1229.558, 127.905
1230.776, 153.070
1231.994, 78.220
1233.212, 133.357
1234.429, 115.184
1235.646, 43.599
1236.864, 113.702
1238.081, 130.857
1239.297, 111.934
1240.514, 198.000
1241.730, 111.054
1242.947, 41.095
1244.163, 41.121
1245.378, 157.133
1246.594, 136.126
1247.810, 76.200
1249.025, 258.397
1250.240, 132.347
1251.455, 95.319
1252.670, 156.229
1253.885, 83.121
1255.099, 188.996
1256.313, 42.857
1257.527, 125.700
1258.741, 149.515
1259.955, 3.312
1261.168, 88.074
1262.382, 111.812
1263.595, 57.973
1264.808, 148.633
1266.021, 159.271
1267.233, 56.880
1268.446, 106.439
1269.658, 5.029
1270.870, 116.475
1272.082, 96.958
1273.294, 14.407
1274.505, 101.817
1275.716, 137.200
1276.928, 131.734
1278.139, 203.888
1279.349, 123.190
1280.560, 169.452
1281.770, 62.691
1282.981, 15.094
1284.191, 170.043
1285.401, 103.144
1286.610, 40.223
1287.820, 33.272
1289.029, 1.227
1290.239, 10.711
1291.448, 74.033
1292.656, 94.883
1293.865, 63.780
1295.073, 191.617
1296.282, 95.728
1297.490, 59.033
1298.698, 29.771
1299.906, 93.494
1301.113, 1.186
1302.320, 33.153
1303.528, 2.471
1304.735, 0.064
1305.942, 163.629
1307.148, 103.939
1308.355, 323.030
1309.561, 81.526
1310.767, 60.997
1311.973, 74.155
1313.179, 13.671
1314.384, 0.228
1315.590, 14.850
1316.795, 25.172
1318.000, 16.409
1319.205, 137.536
1320.410, 117.488
1321.614, 29.507
1322.819, 134.202
1324.023, 120.207
1325.227, 63.373
1326.431, 120.145
1327.634, 27.776
1328.838, 56.265
1330.041, 52.639
1331.244, 118.901
1332.447, 11.008
1333.650, 41.243
1334.852, 27.527
1336.055, 19.440
1337.257, 72.335
1338.459, 80.973
1339.661, 156.587
1340.862, 68.016
1342.064, 7.793
1343.265, 19.683
1344.466, 55.044
1345.667, 18.641
1346.868, 152.331
1348.068, 103.739
1349.269, 1.604
1350.469, 198.874
1351.669, 18.469
1352.869, 147.845
1354.069, 209.160
1355.268, 60.258
1356.468, 251.291
1357.667, 156.312
1358.866, 64.279
1360.065, 183.801
1361.263, 150.980
1362.462, 212.463
1363.660, 238.970
1364.858, 162.324
1366.056, 88.648
1367.254, 208.025
1368.451, 119.539
1369.649, 73.795
1370.846, 186.234
1372.043, 104.334
1373.240, 212.660
1374.436, 327.258
1375.633, 256.807
1376.829, 205.287
1378.025, 183.519
1379.221, 186.073
1380.417, 207.592
1381.613, 87.668
1382.808, 272.804
1384.003, 124.052
1385.199, 229.512
1386.393, 207.771
1387.588, 254.939
1388.783, 189.800
1389.977, 354.764
1391.171, 79.686
1392.365, 46.562
1393.559, 277.391
1394.753, 89.202
1395.946, 326.993
1397.140, 169.847
1398.333, 200.823
1399.526, 265.767
1400.719, 284.371
1401.911, 169.031
1403.104, 125.094
1404.296, 204.064
1405.488, 302.944
1406.680, 18.019
1407.872, 139.579
1409.063, 348.886
1410.255, 176.858
1411.446, 281.852
1412.637, 215.772
1413.828, 196.941
1415.018, 158.471
1416.209, 333.912
1417.399, 212.495
1418.589, 391.592
1419.779, 130.702
1420.969, 202.649
1422.159, 133.269
1423.348, 288.230
1424.537, 273.298
1425.726, 216.038
1426.915, 183.396
1428.104, 232.118
1429.293, 220.768
1430.481, 120.932
1431.669, 230.228
1432.857, 163.104
1434.045, 163.452
1435.233, 205.878
1436.420, 202.183
1437.608, 239.543
1438.795, 264.624
1439.982, 280.013
1441.169, 324.366
1442.355, 299.541
1443.542, 358.818
1444.728, 236.800
1445.914, 301.994
1447.100, 244.141
1448.286, 358.210
1449.472, 326.193
1450.657, 359.956
1451.842, 446.766
1453.027, 428.479
1454.212, 480.114
1455.397, 351.924
1456.581, 443.283
1457.766, 447.685
1458.950, 341.988
1460.134, 384.222
1461.318, 259.426
1462.501, 358.464
1463.685, 378.743
1464.868, 187.078
1466.051, 259.467
1467.234, 106.827
1468.417, 157.265
1469.600, 204.705
1470.782, 234.204
1471.965, 233.210
1473.147, 240.543
1474.329, 187.383
1475.510, 182.334
1476.692, 124.337
1477.873, 201.446
1479.055, 54.681
1480.236, 240.903
1481.416, 84.124
1482.597, 155.345
1483.778, 142.571
1484.958, 118.824
1486.138, 118.111
1487.318, 91.624
1488.498, 194.934
1489.678, 117.481
1490.857, 161.198
1492.037, 329.036
