##NAMES=Scolecite
##RRUFFID=R050083
##IDEAL CHEMISTRY=Ca(Si_3_Al_2_)O_10_&#183;3H_2_O
##LOCALITY=near Ahmednagar, Maharashtra, India
##OWNER=RRUFF
##SOURCE=Rock Currier
##DESCRIPTION=Colorless acicular single crystals associated with fluorapophyllite
##STATUS=The identification of this mineral has been confirmed by X-ray diffraction and chemical analysis
##URL=rruff.info/R050083
##MEASURED CHEMISTRY=(Ca_.992_Na_.008_)[Al_2_Si_3_O_10_]Â·3H_2_O
##PIN_ID=M00267
##ORIENTATION=Laser parallel to -c* (0 0 -1). Fiducial mark perpendicular to laser is parallel to -a [-1 0 0]
49.184, 0.000
50.590, 0.156
51.996, 38.321
53.401, 26.664
54.807, 30.002
56.212, 48.105
57.617, 2.512
59.021, 88.754
60.426, 154.454
61.830, 234.118
63.234, 284.538
64.637, 341.598
66.041, 309.912
67.444, 216.901
68.847, 101.501
70.250, 108.942
71.652, 160.004
73.054, 320.108
74.456, 438.434
75.858, 480.776
77.260, 537.533
78.661, 517.660
80.062, 531.310
81.463, 518.994
82.863, 378.928
84.264, 432.856
85.664, 378.920
87.064, 254.132
88.463, 53.336
89.863, 26.477
91.262, 52.314
92.661, 7.170
94.059, 6.347
95.458, 239.026
96.856, 339.583
98.254, 582.974
99.652, 675.879
101.049, 657.792
102.446, 616.701
103.843, 630.603
105.240, 656.016
106.637, 900.521
108.033, 1331.050
109.429, 1869.447
110.825, 2784.721
112.220, 3669.922
113.616, 4012.231
115.011, 3595.497
116.406, 2749.648
117.800, 1780.687
119.195, 1188.620
120.589, 767.389
121.983, 493.976
123.377, 439.633
124.770, 465.135
126.163, 550.510
127.556, 812.810
128.949, 1108.037
130.342, 1220.196
131.734, 1137.288
133.126, 725.356
134.518, 477.467
135.909, 219.657
137.301, 141.900
138.692, 66.266
140.083, 48.723
141.473, 90.202
142.864, 33.659
144.254, 117.076
145.644, 146.454
147.034, 105.593
148.423, 272.970
149.812, 345.518
151.201, 549.734
152.590, 873.915
153.979, 1415.981
155.367, 2085.948
156.755, 3122.883
158.143, 4218.093
159.530, 5139.772
160.918, 5482.710
162.305, 5169.355
163.692, 4531.164
165.078, 3662.637
166.465, 2995.545
167.851, 2246.446
169.237, 1697.340
170.623, 1244.225
172.008, 976.103
173.393, 897.792
174.778, 805.805
176.163, 765.422
177.548, 714.282
178.932, 659.727
180.316, 629.685
181.700, 627.312
183.083, 601.930
184.467, 642.542
185.850, 621.147
187.233, 505.747
188.616, 398.341
189.998, 242.924
191.380, 128.496
192.762, 113.056
194.144, 67.604
195.525, 116.142
196.907, 104.668
198.288, 215.181
199.669, 337.683
201.049, 436.174
202.429, 645.653
203.810, 849.119
205.189, 1083.565
206.569, 1063.990
207.949, 1023.404
209.328, 862.808
210.707, 730.201
212.085, 490.586
213.464, 464.961
214.842, 412.798
216.220, 556.042
217.598, 831.454
218.976, 1294.823
220.353, 1981.106
221.730, 2951.997
223.107, 3866.845
224.483, 4529.880
225.860, 4772.817
227.236, 4274.470
228.612, 3694.377
229.988, 3085.360
231.363, 2668.798
232.738, 2410.120
234.113, 2052.048
235.488, 1738.689
236.863, 1296.832
238.237, 893.011
239.611, 530.369
240.985, 364.721
242.359, 232.068
243.732, 113.410
245.105, 117.743
246.478, 178.069
247.851, 181.385
249.223, 344.694
250.595, 555.994
251.967, 856.285
253.339, 1309.566
254.711, 1767.155
256.082, 2126.950
257.453, 2191.156
258.824, 2013.228
260.195, 1527.062
261.565, 1042.260
262.935, 641.435
264.305, 383.595
265.675, 163.746
267.044, 49.887
268.414, 25.984
269.783, 118.881
271.151, 106.829
272.520, 121.831
273.888, 108.890
275.256, 80.004
276.624, 26.838
277.992, 114.660
279.359, 295.465
280.726, 532.255
282.093, 726.031
283.460, 857.792
284.827, 904.539
286.193, 781.269
287.559, 684.974
288.925, 601.657
290.290, 530.329
291.656, 417.989
293.021, 275.638
294.386, 185.276
295.750, 68.903
297.115, 93.517
298.479, 12.119
299.843, 2.705
301.207, 29.727
302.570, 1.660
303.933, 36.686
305.296, 18.552
306.659, 106.671
308.022, 133.372
309.384, 237.577
310.746, 284.894
312.108, 395.026
313.470, 533.456
314.831, 550.890
316.193, 670.325
317.554, 723.764
318.914, 731.204
320.275, 775.639
321.635, 754.074
322.995, 735.504
324.355, 672.914
325.715, 644.199
327.074, 485.364
328.434, 466.473
329.792, 397.575
331.151, 387.671
332.510, 327.763
333.868, 321.075
335.226, 299.931
336.584, 339.008
337.941, 331.076
339.299, 400.129
340.656, 397.147
342.013, 441.146
343.370, 506.134
344.726, 618.116
346.082, 755.095
347.438, 779.070
348.794, 917.041
350.150, 935.008
351.505, 978.973
352.860, 1005.933
354.215, 942.891
355.570, 836.441
356.924, 820.927
358.278, 823.079
359.632, 739.579
360.986, 783.032
362.339, 721.948
363.693, 664.883
365.046, 627.814
366.399, 447.743
367.751, 432.669
369.104, 346.592
370.456, 293.512
371.808, 279.429
373.159, 193.344
374.511, 187.256
375.862, 120.165
377.213, 79.071
378.564, 43.971
379.914, 28.851
381.265, 10.069
382.615, 51.442
383.965, 5.356
385.315, 29.862
386.664, 13.237
388.013, 95.390
389.362, 12.734
390.711, 50.102
392.060, 52.514
393.408, 24.029
394.756, 40.558
396.104, 125.075
397.451, 195.582
398.799, 270.082
400.146, 397.576
401.493, 480.064
402.840, 626.546
404.186, 786.021
405.533, 938.490
406.879, 1019.483
408.225, 1092.489
409.570, 936.743
410.916, 951.006
412.261, 795.443
413.606, 711.873
414.951, 596.297
416.295, 501.715
417.639, 533.130
418.983, 460.553
420.327, 610.992
421.671, 605.434
423.014, 773.875
424.357, 954.312
425.700, 1128.742
427.043, 1492.166
428.386, 1807.388
429.728, 2296.992
431.070, 2823.687
432.412, 3467.555
433.753, 3982.186
435.095, 4289.882
436.436, 4677.398
437.777, 4554.736
439.118, 4243.059
440.458, 4126.050
441.798, 3758.424
443.138, 3578.794
444.478, 3235.161
445.818, 2897.525
447.157, 2746.885
448.496, 2602.243
449.835, 2470.597
451.174, 2447.948
452.513, 2326.297
453.851, 2330.643
455.189, 2349.986
456.527, 2546.266
457.864, 2569.049
459.202, 2693.945
460.539, 2608.079
461.876, 2625.817
463.212, 2247.531
464.549, 1931.228
465.885, 1628.984
467.221, 1355.374
468.557, 1164.373
469.893, 964.565
471.228, 799.011
472.563, 673.871
473.898, 565.654
475.233, 512.209
476.567, 443.147
477.902, 413.897
479.236, 404.818
480.570, 324.003
481.903, 396.642
483.237, 335.032
484.570, 272.860
485.903, 343.358
487.235, 226.498
488.568, 299.983
489.900, 274.443
491.232, 323.931
492.564, 289.325
493.896, 351.713
495.227, 303.107
496.558, 330.510
497.889, 393.923
499.220, 351.338
500.551, 368.755
501.881, 412.183
503.211, 439.610
504.541, 437.045
505.870, 489.489
507.200, 533.931
508.529, 612.388
509.858, 647.851
511.187, 727.321
512.515, 834.792
513.844, 929.264
515.172, 1008.738
516.500, 1193.212
517.827, 1352.689
519.155, 1561.168
520.482, 1918.649
521.809, 2136.131
523.136, 2514.613
524.462, 3148.094
525.789, 3735.574
527.115, 4644.053
528.441, 5605.532
529.766, 7033.014
531.092, 9071.500
532.417, 10989.979
533.742, 13698.462
535.067, 15406.939
536.391, 16815.268
537.716, 16463.424
539.040, 14361.438
540.364, 12219.383
541.688, 9477.182
543.011, 7391.616
544.334, 5862.387
545.657, 4499.203
546.980, 3558.077
548.303, 2961.811
549.625, 2390.748
550.947, 2054.356
552.269, 1607.830
553.591, 1518.799
554.913, 1265.842
556.234, 1135.242
557.555, 984.724
558.876, 940.208
560.197, 779.691
561.517, 710.174
562.837, 632.657
564.157, 578.142
565.477, 539.625
566.797, 526.111
568.116, 459.599
569.435, 376.088
570.754, 370.579
572.073, 335.071
573.391, 294.562
574.709, 338.054
576.027, 337.547
577.345, 295.040
578.663, 299.533
579.980, 231.026
581.297, 248.519
582.614, 192.011
583.931, 220.503
585.248, 204.995
586.564, 195.486
587.880, 216.979
589.196, 243.474
590.511, 251.985
591.827, 249.537
593.142, 297.126
594.457, 341.755
595.772, 268.423
597.086, 292.121
598.401, 269.824
599.715, 346.528
601.029, 301.232
602.343, 304.936
603.656, 267.639
604.969, 364.344
606.282, 281.047
607.595, 250.750
608.908, 320.453
610.220, 223.155
611.532, 198.858
612.844, 210.560
614.156, 178.260
615.468, 154.960
616.779, 134.662
618.090, 99.363
619.401, 86.069
620.712, 34.782
622.022, 77.513
623.332, 3.652
624.642, 13.139
625.952, 23.050
627.262, 4.972
628.571, 4.903
629.880, 13.131
631.189, 23.094
632.498, 71.093
633.807, 52.112
635.115, 64.654
636.423, 50.884
637.731, 19.067
639.039, 44.866
640.346, 20.840
641.653, 77.694
642.960, 11.072
644.267, 15.233
645.574, 19.165
646.880, 30.720
648.186, 26.926
649.492, 49.541
650.798, 50.975
652.103, 67.073
653.409, 82.144
654.714, 105.130
656.019, 145.392
657.323, 171.838
658.628, 222.939
659.932, 266.282
661.236, 341.871
662.540, 390.434
663.843, 481.935
665.147, 547.081
666.450, 582.006
667.753, 710.412
669.056, 861.258
670.358, 882.012
671.660, 1032.163
672.963, 1171.728
674.264, 1247.316
675.566, 1274.880
676.868, 1295.281
678.169, 1245.051
679.470, 1181.602
680.771, 1092.135
682.071, 896.636
683.372, 844.167
684.672, 629.690
685.972, 572.349
687.271, 428.811
688.571, 351.320
689.870, 259.924
691.169, 253.313
692.468, 224.728
693.767, 109.195
695.065, 182.592
696.364, 170.102
697.662, 177.546
698.960, 133.941
700.257, 234.229
701.555, 177.692
702.852, 286.168
704.149, 300.686
705.446, 365.999
706.742, 459.312
708.038, 414.772
709.335, 513.107
710.631, 442.554
711.926, 444.878
713.222, 428.379
714.517, 449.897
715.812, 428.199
717.107, 403.493
718.402, 424.791
719.696, 446.097
720.990, 444.368
722.284, 519.663
723.578, 580.918
724.872, 636.335
726.165, 779.739
727.458, 819.026
728.751, 972.359
730.044, 904.738
731.336, 1001.097
732.629, 941.464
733.921, 858.698
735.213, 762.882
736.504, 663.057
737.796, 586.225
739.087, 521.384
740.378, 478.580
741.669, 444.784
742.960, 385.958
744.250, 306.154
745.540, 401.271
746.830, 356.380
748.120, 446.479
749.410, 426.569
750.699, 460.810
751.988, 557.051
753.277, 470.244
754.566, 553.475
755.854, 565.595
757.143, 513.756
758.431, 540.779
759.719, 509.301
761.006, 472.304
762.294, 456.298
763.581, 371.412
764.868, 292.385
766.155, 319.798
767.442, 224.788
768.728, 237.732
770.014, 210.666
771.300, 218.589
772.586, 191.985
773.872, 195.405
775.157, 140.297
776.442, 90.196
777.727, 67.068
779.012, 77.706
780.297, 49.478
781.581, 46.955
782.865, 44.465
784.149, 35.687
785.433, 24.958
786.716, 25.792
787.999, 16.159
789.282, 6.985
790.565, 0.700
791.848, 27.427
793.130, 25.723
794.413, 40.351
795.695, 5.242
796.977, 12.382
798.258, 26.839
799.540, 34.358
800.821, 36.925
802.102, 15.490
803.382, 39.897
804.663, 27.386
805.943, 14.149
807.224, 25.708
808.504, 28.298
809.783, 0.919
811.063, 1.443
812.342, 34.211
813.621, 84.100
814.900, 22.446
816.179, 22.172
817.457, 55.073
818.736, 47.691
820.014, 12.497
821.292, 20.325
822.569, 4.819
823.847, 6.950
825.124, 0.932
826.401, 29.170
827.678, 21.958
828.954, 25.927
830.231, 14.410
831.507, 22.468
832.783, 23.855
834.059, 26.641
835.334, 32.579
836.610, 23.595
837.885, 23.601
839.160, 11.404
840.435, 34.571
841.709, 21.535
842.983, 6.489
844.258, 46.431
845.532, 38.363
846.805, 24.286
848.079, 39.199
849.352, 11.102
850.625, 26.006
851.898, 35.859
853.171, 75.713
854.443, 20.560
855.715, 18.396
856.988, 8.222
858.259, 115.037
859.531, 71.844
860.803, 28.642
862.074, 82.429
863.345, 32.208
864.616, 76.977
865.886, 15.737
867.157, 9.486
868.427, 95.225
869.697, 85.959
870.967, 55.684
872.236, 51.400
873.506, 79.107
874.775, 49.806
876.044, 62.498
877.313, 16.182
878.581, 16.856
879.849, 42.521
881.118, 29.176
882.386, 15.823
883.653, 18.459
884.921, 14.087
886.188, 43.705
887.455, 58.314
888.722, 56.782
889.989, 65.714
891.255, 56.096
892.522, 40.674
893.788, 36.244
895.054, 41.299
896.319, 33.359
897.585, 57.905
898.850, 50.443
900.115, 50.974
901.380, 66.498
902.645, 10.014
903.909, 7.522
905.174, 16.021
906.438, 4.511
907.701, 27.993
908.965, 15.466
910.229, 48.932
911.492, 7.610
912.755, 54.843
914.018, 89.288
915.280, 12.733
916.543, 56.170
917.805, 7.401
919.067, 34.018
920.329, 68.429
921.590, 87.833
922.852, 72.231
924.113, 95.622
925.374, 58.006
926.635, 114.384
927.895, 35.756
929.156, 145.116
930.416, 142.375
931.676, 178.673
932.936, 176.847
934.195, 205.004
935.454, 124.145
936.714, 214.243
937.973, 219.262
939.231, 118.303
940.490, 192.340
941.748, 122.880
943.006, 107.087
944.264, 137.227
945.522, 52.971
946.780, 116.872
948.037, 75.641
949.294, 75.763
950.551, 29.952
951.808, 72.428
953.064, 83.738
954.320, 32.390
955.577, 11.625
956.832, 97.803
958.088, 74.529
959.344, 69.526
960.599, 78.359
961.854, 33.909
963.109, 20.606
964.364, 25.941
965.618, 8.590
966.872, 44.602
968.127, 60.812
969.380, 82.659
970.634, 96.632
971.888, 103.516
973.141, 95.854
974.394, 118.748
975.647, 98.726
976.900, 146.299
978.152, 143.239
979.404, 111.575
980.656, 152.716
981.908, 178.809
983.160, 162.935
984.411, 181.071
985.663, 184.219
986.914, 190.490
988.165, 179.531
989.415, 231.672
990.666, 257.669
991.916, 322.857
993.166, 391.991
994.416, 499.031
995.665, 602.278
996.915, 592.492
998.164, 616.647
999.413, 584.865
1000.662, 530.967
1001.911, 513.730
1003.159, 399.354
1004.407, 417.688
1005.655, 369.843
1006.903, 285.993
1008.151, 389.102
1009.398, 377.437
1010.646, 447.772
1011.893, 537.969
1013.139, 506.303
1014.386, 623.516
1015.633, 746.848
1016.879, 830.029
1018.125, 1001.152
1019.371, 1228.182
1020.616, 1543.518
1021.862, 2010.891
1023.107, 2192.202
1024.352, 2564.550
1025.597, 2488.347
1026.842, 2136.698
1028.086, 2003.924
1029.330, 1502.117
1030.574, 1332.419
1031.818, 1129.690
1033.062, 938.922
1034.305, 864.185
1035.548, 787.393
1036.791, 711.732
1038.034, 844.162
1039.277, 718.576
1040.519, 811.999
1041.762, 752.395
1043.004, 584.746
1044.246, 674.081
1045.487, 556.438
1046.729, 539.797
1047.970, 559.209
1049.211, 463.867
1050.452, 504.271
1051.692, 536.677
1052.933, 468.924
1054.173, 531.190
1055.413, 496.469
1056.653, 570.702
1057.893, 533.044
1059.132, 551.337
1060.371, 622.758
1061.610, 644.185
1062.849, 707.648
1064.088, 802.366
1065.326, 720.660
1066.565, 805.084
1067.803, 713.059
1069.041, 574.448
1070.278, 638.873
1071.516, 544.299
1072.753, 505.726
1073.990, 403.153
1075.227, 295.616
1076.464, 429.044
1077.700, 292.459
1078.936, 395.337
1080.173, 318.790
1081.408, 276.244
1082.644, 242.807
1083.880, 311.263
1085.115, 267.008
1086.350, 352.468
1087.585, 320.930
1088.820, 405.549
1090.054, 377.033
1091.288, 418.511
1092.522, 592.093
1093.756, 579.634
1094.990, 632.161
1096.224, 817.673
1097.457, 764.245
1098.690, 875.024
1099.923, 906.540
1101.156, 884.152
1102.388, 786.827
1103.621, 799.376
1104.853, 661.906
1106.085, 689.455
1107.316, 543.009
1108.548, 571.686
1109.779, 489.260
1111.010, 370.839
1112.241, 390.526
1113.472, 377.130
1114.703, 289.646
1115.933, 247.282
1117.163, 247.915
1118.393, 254.577
1119.623, 189.201
1120.853, 238.831
1122.082, 211.374
1123.311, 184.035
1124.540, 211.761
1125.769, 181.613
1126.997, 195.298
1128.226, 98.351
1129.454, 195.369
1130.682, 116.014
1131.910, 70.664
1133.138, 109.351
1134.365, 94.995
1135.592, 30.257
1136.819, 98.958
1138.046, 126.804
1139.273, 96.671
1140.499, 89.359
1141.725, 70.970
1142.951, 35.756
1144.177, 56.522
1145.403, 128.161
1146.628, 24.799
1147.854, 66.750
1149.079, 79.803
1150.304, 33.444
1151.528, 39.311
1152.753, 47.966
1153.977, 62.382
1155.201, 50.307
1156.425, 19.937
1157.649, 32.564
1158.872, 22.187
1160.096, 21.808
1161.319, 33.425
1162.542, 50.134
1163.764, 3.896
1164.987, 98.709
1166.209, 24.345
1167.431, 44.871
1168.653, 2.859
1169.875, 40.966
1171.097, 59.540
1172.318, 17.434
1173.539, 74.673
1174.760, 10.569
1175.981, 55.546
1177.202, 60.263
1178.422, 16.051
1179.642, 16.764
1180.862, 15.962
1182.082, 49.768
1183.302, 58.693
1184.521, 17.042
1185.740, 21.568
1186.959, 19.917
1188.178, 38.544
1189.397, 43.243
1190.615, 40.816
1191.834, 77.506
1193.052, 26.102
1194.269, 32.832
1195.487, 5.539
1196.705, 84.024
1197.922, 96.162
1199.139, 56.625
1200.356, 31.288
1201.573, 97.472
1202.789, 41.918
1204.006, 69.662
1205.222, 73.313
1206.438, 76.742
1207.653, 28.526
1208.869, 33.976
1210.084, 24.626
1211.299, 57.202
1212.514, 85.575
1213.729, 70.007
1214.944, 62.368
1216.158, 146.982
1217.372, 125.531
1218.586, 112.583
1219.800, 137.339
1221.014, 39.940
1222.227, 105.371
1223.440, 67.388
1224.654, 5.823
1225.866, 102.965
1227.079, 87.455
1228.292, 30.045
1229.504, 98.315
1230.716, 1.383
1231.928, 103.480
1233.139, 110.726
1234.351, 21.033
1235.562, 56.504
1236.773, 72.734
1237.984, 35.990
1239.195, 46.210
1240.406, 54.314
1241.616, 117.519
1242.826, 48.721
1244.036, 16.083
1245.246, 128.104
1246.456, 43.285
1247.665, 31.461
1248.874, 95.631
1250.083, 80.797
1251.292, 92.013
1252.501, 123.163
1253.709, 39.308
1254.917, 81.443
1256.125, 78.566
1257.333, 41.685
1258.541, 64.816
1259.748, 49.888
1260.956, 60.032
1262.163, 63.104
1263.370, 56.223
1264.576, 96.268
1265.783, 134.305
1266.989, 6.556
1268.195, 65.458
1269.401, 50.464
1270.607, 21.482
1271.813, 61.472
1273.018, 2.452
1274.223, 4.622
1275.428, 81.563
1276.633, 6.289
1277.838, 64.638
1279.042, 137.533
1280.246, 15.574
1281.450, 61.263
1282.654, 27.085
1283.858, 23.089
1285.061, 65.872
1286.265, 20.356
1287.468, 42.493
1288.671, 47.223
1289.873, 84.943
1291.076, 114.953
1292.278, 13.630
1293.480, 26.706
1294.682, 105.966
1295.884, 24.678
1297.086, 74.298
1298.287, 0.096
1299.488, 17.497
1300.689, 93.074
1301.890, 86.601
1303.091, 105.000
1304.291, 93.607
1305.491, 85.086
1306.691, 57.555
1307.891, 44.439
1309.091, 31.417
1310.290, 14.837
1311.490, 3.550
1312.689, 10.942
1313.888, 6.238
1315.086, 18.365
1316.285, 8.975
1317.483, 5.820
1318.681, 7.871
1319.879, 10.573
1321.077, 42.655
1322.275, 26.915
1323.472, 20.864
1324.669, 12.671
1325.866, 23.489
1327.063, 8.343
1328.260, 0.802
1329.456, 88.882
1330.653, 25.965
1331.849, 28.979
1333.045, 35.089
1334.240, 64.514
1335.436, 35.549
1336.631, 56.568
1337.826, 5.460
1339.021, 45.514
1340.216, 59.229
1341.411, 4.186
1342.605, 107.126
1343.799, 31.054
1344.993, 2.940
1346.187, 81.837
1347.381, 22.278
1348.574, 29.584
1349.767, 98.433
1350.961, 19.269
1352.153, 54.577
1353.346, 119.347
1354.539, 8.851
1355.731, 98.636
1356.923, 60.401
1358.115, 112.154
1359.307, 21.897
1360.498, 28.630
1361.690, 43.353
1362.881, 94.065
1364.072, 19.771
1365.263, 48.433
1366.453, 2.123
1367.644, 58.196
1368.834, 7.036
1370.024, 27.692
1371.214, 16.349
1372.404, 73.900
1373.593, 64.775
1374.783, 4.167
1375.972, 86.793
1377.161, 56.988
1378.349, 23.795
1379.538, 88.264
1380.726, 66.727
1381.915, 100.205
1383.103, 0.593
1384.290, 105.674
1385.478, 171.156
1386.665, 90.624
1387.853, 93.958
1389.040, 146.282
1390.227, 118.611
1391.413, 148.957
1392.600, 138.292
1393.786, 60.646
1394.972, 83.880
1396.158, 93.931
1397.344, 111.337
1398.530, 137.445
1399.715, 83.660
1400.900, 56.893
1402.085, 106.591
1403.270, 83.321
1404.455, 86.144
1405.639, 59.282
1406.824, 77.949
1408.008, 78.734
1409.192, 41.757
1410.375, 108.408
1411.559, 137.425
1412.742, 64.431
1413.925, 119.093
1415.108, 124.325
1416.291, 6.115
1417.474, 145.317
1418.656, 20.816
1419.839, 58.186
1421.021, 159.445
1422.202, 51.659
1423.384, 68.934
1424.566, 101.393
1425.747, 11.577
1426.928, 99.768
1428.109, 85.885
1429.290, 26.239
1430.470, 143.538
1431.651, 92.686
1432.831, 2.943
1434.011, 95.167
1435.191, 102.004
1436.370, 38.201
1437.550, 24.786
1438.729, 98.012
1439.908, 67.512
1441.087, 92.568
1442.266, 66.138
1443.444, 119.629
1444.623, 100.387
1445.801, 92.835
1446.979, 159.576
1448.157, 56.419
1449.334, 84.867
1450.512, 100.672
1451.689, 68.619
1452.866, 95.360
1454.043, 144.040
1455.220, 61.656
1456.396, 100.078
1457.573, 105.578
1458.749, 45.037
1459.925, 123.291
1461.100, 131.688
1462.276, 109.912
1463.451, 110.266
1464.627, 59.278
1465.802, 50.455
1466.977, 185.614
1468.151, 106.382
1469.326, 108.780
1470.500, 128.801
1471.674, 72.980
1472.848, 74.573
1474.022, 72.443
1475.195, 11.371
1476.369, 147.817
1477.542, 54.917
1478.715, 148.774
1479.888, 158.870
1481.061, 23.071
1482.233, 120.428
1483.405, 46.797
1484.577, 99.144
1485.749, 146.528
1486.921, 90.888
1488.093, 37.236
1489.264, 180.576
1490.435, 101.916
1491.606, 34.262
1492.777, 88.626
1493.948, 90.197
1495.118, 84.834
1496.288, 120.556
1497.459, 115.839
1498.628, 116.620
1499.798, 125.839
1500.968, 121.768
1502.137, 122.429
1503.306, 104.526
1504.475, 97.737
1505.644, 54.092
1506.813, 84.592
1507.981, 87.404
1509.149, 88.624
1510.318, 19.178
