##NAMES=Scolecite
##RRUFFID=R040111
##IDEAL CHEMISTRY=Ca(Si_3_Al_2_)O_10_&#183;3H_2_O
##LOCALITY=Bombay-Poona area, Mahahashtra Province, India
##OWNER=RRUFF
##SOURCE=National Museums of Canada
##DESCRIPTION=Pale pink prismatic crystals in parallel or near parallel aggregates
##STATUS=The identification of this mineral has been confirmed by X-ray diffraction and chemical analysis
##URL=rruff.info/R040111
##MEASURED CHEMISTRY=Ca_0.98_(Si_3.05_Al_1.95_)O_10_Â·3H_2_O
##PIN_ID=L00238
##ORIENTATION=Laser parallel to (-1 0 -1). Fiducial mark perpendicular to laser is parallel to b [0 1 0]
79.427, 0.000
80.823, 92.894
82.218, 3.111
83.614, 21.984
85.009, 17.862
86.404, 164.899
87.798, 281.722
89.193, 592.281
90.587, 763.372
91.981, 1002.329
93.375, 1140.897
94.768, 1336.086
96.161, 1350.131
97.554, 1547.436
98.947, 1832.481
100.340, 2239.800
101.732, 2791.984
103.124, 3416.689
104.516, 4244.760
105.908, 4935.947
107.300, 5850.983
108.691, 7087.740
110.082, 7789.098
111.473, 7571.962
112.864, 6287.275
114.254, 4841.966
115.644, 3693.867
117.034, 2916.812
118.424, 2284.668
119.813, 1977.319
121.203, 1740.669
122.592, 1666.621
123.981, 1932.096
125.369, 1965.037
126.758, 1927.855
128.146, 1527.098
129.534, 1341.918
130.922, 1097.920
132.309, 1223.092
133.696, 1617.426
135.083, 2442.994
136.470, 3373.685
137.857, 4926.957
139.243, 6571.572
140.630, 8407.553
142.016, 9309.347
143.401, 8873.763
144.787, 7242.774
146.172, 5729.812
147.557, 4714.299
148.942, 4280.631
150.327, 4499.752
151.711, 5187.677
153.096, 6485.415
154.480, 7808.978
155.863, 9398.378
157.247, 10678.620
158.630, 11307.712
160.013, 10391.666
161.396, 8870.486
162.779, 7281.146
164.161, 5754.552
165.544, 4972.755
166.926, 4246.823
168.308, 3771.788
169.689, 3501.679
171.070, 3405.515
172.452, 3348.084
173.833, 3393.890
175.213, 3622.724
176.594, 3845.487
177.974, 4507.098
179.354, 5253.038
180.734, 5869.002
182.114, 6555.989
183.493, 7165.999
184.872, 7282.034
186.251, 7130.093
187.630, 6204.180
189.008, 5265.289
190.387, 4200.360
191.765, 3260.440
193.143, 2638.067
194.520, 2071.769
195.898, 1777.391
197.275, 1509.492
198.652, 1501.888
200.029, 1527.666
201.405, 1603.794
202.782, 1619.759
204.158, 1826.061
205.534, 1766.012
206.909, 1801.565
208.285, 1694.920
209.660, 1570.984
211.035, 1478.163
212.410, 1448.900
213.784, 1473.827
215.159, 1738.724
216.533, 1963.427
217.907, 2343.157
219.281, 2728.911
220.654, 3120.684
222.027, 3185.475
223.400, 2974.280
224.773, 2400.096
226.146, 1828.921
227.518, 1371.750
228.891, 1130.580
230.263, 1010.406
231.634, 1046.229
233.006, 963.047
234.377, 832.863
235.748, 770.675
237.119, 508.484
238.490, 383.290
239.860, 221.092
241.231, 149.892
242.601, 73.688
243.970, 142.482
245.340, 165.000
246.709, 290.221
248.079, 493.842
249.448, 643.416
250.816, 853.943
252.185, 1082.969
253.553, 1253.421
254.921, 1358.242
256.289, 977.385
257.657, 725.811
259.024, 449.488
260.391, 230.389
261.758, 55.490
263.125, 15.770
264.492, 51.790
265.858, 125.214
267.224, 154.532
268.590, 170.766
269.956, 76.930
271.321, 40.013
272.687, 77.017
274.052, 82.958
275.416, 11.846
276.781, 37.327
278.146, 112.556
279.510, 307.835
280.874, 368.158
282.237, 616.519
283.601, 692.914
284.964, 935.340
286.327, 1305.793
287.690, 1341.269
289.053, 1327.767
290.416, 1170.283
291.778, 914.822
293.140, 700.369
294.502, 453.933
295.863, 319.505
297.225, 86.079
298.586, 0.658
299.947, 36.767
301.308, 121.210
302.668, 134.689
304.029, 127.216
305.389, 99.792
306.749, 40.412
308.108, 7.067
309.468, 0.750
310.827, 28.532
312.186, 32.214
313.545, 112.998
314.903, 61.816
316.262, 30.679
317.620, 96.418
318.978, 11.507
320.336, 50.467
321.693, 5.529
323.051, 33.505
324.408, 180.578
325.765, 68.727
327.121, 51.922
328.478, 92.159
329.834, 7.447
331.190, 8.235
332.546, 118.108
333.902, 7.492
335.257, 72.934
336.612, 92.421
337.967, 114.061
339.322, 167.846
340.677, 130.739
342.031, 126.725
343.385, 105.767
344.739, 66.861
346.093, 23.996
347.446, 31.162
348.799, 86.638
350.153, 187.427
351.505, 169.207
352.858, 304.976
354.210, 352.707
355.563, 340.318
356.915, 480.822
358.267, 434.281
359.618, 541.720
360.969, 680.127
362.321, 720.471
363.672, 877.790
365.022, 984.058
366.373, 1042.218
367.723, 1174.303
369.073, 1186.319
370.423, 1271.262
371.773, 1136.145
373.122, 1204.925
374.471, 1112.571
375.821, 966.106
377.169, 999.578
378.518, 748.020
379.866, 670.463
381.215, 754.908
382.563, 594.354
383.910, 560.801
385.258, 566.249
386.605, 586.697
387.952, 520.146
389.299, 497.597
390.646, 594.048
391.992, 695.500
393.339, 722.953
394.685, 836.407
396.031, 1046.862
397.376, 1063.317
398.722, 1356.775
400.067, 1551.234
401.412, 1791.694
402.757, 2076.154
404.101, 2194.616
405.446, 2243.081
406.790, 2219.547
408.134, 2049.030
409.478, 1924.533
410.821, 1653.054
412.165, 1306.589
413.508, 1170.133
414.851, 1047.683
416.193, 967.236
417.536, 874.793
418.878, 931.351
420.220, 915.908
421.562, 992.244
422.904, 1102.025
424.245, 1270.583
425.586, 1356.143
426.927, 1652.133
428.268, 1767.231
429.609, 2064.572
430.949, 2439.886
432.289, 2825.391
433.629, 3032.662
434.969, 3226.988
436.309, 3594.904
437.648, 4029.127
438.987, 4278.656
440.326, 4743.177
441.665, 5262.689
443.003, 6055.194
444.342, 6461.688
445.680, 7171.175
447.018, 7575.654
448.355, 7774.123
449.693, 8033.583
451.030, 8125.035
452.367, 8123.073
453.704, 7512.506
455.041, 7212.708
456.377, 6362.806
457.713, 5643.210
459.049, 4703.031
460.385, 3949.811
461.721, 3289.548
463.056, 2708.669
464.391, 2233.458
465.726, 1870.433
467.061, 1555.080
468.395, 1339.213
469.730, 1227.042
471.064, 972.145
472.398, 943.416
473.731, 864.602
475.065, 829.064
476.398, 850.365
477.731, 899.434
479.064, 947.938
480.397, 968.980
481.729, 991.680
483.062, 1064.114
484.394, 1118.159
485.725, 1217.752
487.057, 1323.127
488.389, 1456.424
489.720, 1562.295
491.051, 1723.090
492.382, 1838.728
493.712, 1957.845
495.043, 2005.334
496.373, 2237.046
497.703, 2261.544
499.032, 2649.633
500.362, 2672.281
501.691, 2877.219
503.020, 2918.351
504.349, 3205.744
505.678, 3291.513
507.007, 3541.751
508.335, 3744.530
509.663, 4026.181
510.991, 4240.940
512.319, 4457.703
513.646, 4929.478
514.973, 5237.258
516.300, 5880.044
517.627, 6433.836
518.954, 6904.634
520.280, 7896.438
521.607, 8873.250
522.933, 10323.067
524.259, 12094.894
525.584, 14431.725
526.910, 17912.562
528.235, 22144.408
529.560, 27772.260
530.885, 33623.117
532.209, 39837.992
533.534, 45696.863
534.858, 47455.742
536.182, 45286.645
537.506, 39814.555
538.829, 32966.469
540.152, 25977.395
541.476, 20596.328
542.799, 15773.272
544.121, 12810.231
545.444, 10233.195
546.766, 8354.170
548.088, 7103.156
549.410, 6249.150
550.732, 5304.154
552.053, 4653.169
553.375, 4065.192
554.696, 3710.227
556.017, 3502.270
557.337, 3238.322
558.658, 2931.385
559.978, 2674.457
561.298, 2578.538
562.618, 2379.631
563.938, 2366.731
565.257, 2365.842
566.576, 2119.963
567.895, 2087.092
569.214, 2033.231
570.533, 1947.380
571.851, 1672.539
573.170, 1585.705
574.488, 1480.881
575.805, 1337.065
577.123, 1226.260
578.440, 1144.462
579.758, 1106.720
581.075, 866.275
582.391, 850.505
583.708, 858.310
585.024, 686.556
586.341, 705.821
587.657, 595.119
588.972, 680.506
590.288, 479.483
591.603, 387.893
592.918, 345.318
594.233, 333.768
595.548, 334.243
596.863, 308.730
598.177, 239.226
599.491, 123.729
600.805, 219.240
602.119, 52.760
603.432, 130.288
604.746, 107.824
606.059, 129.369
607.372, 13.923
608.685, 156.484
609.997, 67.945
611.309, 20.617
612.621, 95.812
613.933, 39.259
615.245, 92.294
616.557, 28.144
617.868, 57.422
619.179, 2.051
620.490, 56.830
621.801, 184.188
623.111, 71.864
624.421, 186.108
625.731, 8.132
627.041, 174.439
628.351, 74.411
629.660, 131.784
630.970, 298.688
632.279, 161.492
633.588, 208.082
634.896, 318.847
636.205, 366.690
637.513, 426.927
638.821, 412.493
640.129, 509.530
641.437, 538.971
642.744, 513.965
644.051, 573.948
645.358, 707.658
646.665, 839.920
647.972, 788.221
649.278, 817.393
650.584, 708.232
651.890, 809.465
653.196, 809.966
654.502, 767.492
655.807, 694.300
657.113, 549.673
658.418, 692.860
659.722, 466.333
661.027, 455.855
662.331, 536.135
663.636, 478.916
664.940, 456.917
666.244, 520.553
667.547, 338.200
668.851, 364.885
670.154, 294.970
671.457, 275.056
672.760, 323.705
674.062, 150.611
675.365, 236.449
676.667, 174.100
677.969, 154.250
679.271, 124.901
680.572, 154.784
681.874, 222.435
683.175, 270.085
684.476, 291.037
685.777, 285.457
687.077, 348.107
688.378, 392.757
689.678, 458.406
690.978, 534.055
692.278, 497.021
693.577, 832.666
694.877, 666.313
696.176, 865.959
697.475, 715.603
698.774, 857.246
700.072, 902.889
701.371, 1040.530
702.669, 1056.170
703.967, 1237.809
705.265, 1256.940
706.562, 1472.082
707.860, 1233.717
709.157, 1282.350
710.454, 1048.980
711.751, 963.609
713.047, 735.236
714.344, 680.862
715.640, 567.484
716.936, 469.105
718.232, 531.725
719.527, 401.341
720.823, 427.997
722.118, 324.607
723.413, 187.218
724.708, 320.823
726.002, 350.428
727.297, 146.028
728.591, 336.627
729.885, 290.223
731.179, 180.814
732.472, 173.405
733.766, 83.991
735.059, 14.574
736.352, 8.848
737.645, 106.712
738.937, 11.730
740.230, 41.807
741.522, 63.341
742.814, 44.871
744.106, 65.603
745.397, 26.124
746.689, 29.323
747.980, 123.767
749.271, 74.206
750.562, 174.642
751.853, 123.071
753.143, 141.496
754.433, 239.916
755.723, 167.332
757.013, 330.741
758.303, 212.146
759.592, 216.546
760.881, 183.941
762.170, 251.330
763.459, 168.715
764.748, 77.094
766.036, 226.870
767.325, 149.238
768.613, 138.821
769.901, 141.493
771.188, 56.845
772.476, 191.767
773.763, 107.894
775.050, 38.675
776.337, 19.723
777.624, 88.476
778.910, 21.333
780.196, 97.829
781.482, 25.125
782.768, 31.003
784.054, 36.916
785.339, 76.870
786.625, 42.883
787.910, 39.178
789.195, 105.037
790.479, 10.211
791.764, 40.410
793.048, 76.653
794.332, 59.956
795.616, 18.312
796.900, 68.299
798.183, 121.096
799.467, 36.577
800.750, 2.900
802.033, 108.643
803.316, 67.736
804.598, 100.896
805.880, 114.398
807.163, 25.683
808.445, 0.956
809.726, 50.794
811.008, 54.407
812.289, 55.400
813.570, 57.739
814.851, 107.869
816.132, 55.012
817.413, 30.057
818.693, 31.110
819.973, 28.153
821.253, 64.184
822.533, 49.202
823.813, 3.790
825.092, 15.192
826.371, 82.159
827.650, 23.116
828.929, 28.059
830.208, 79.988
831.486, 11.908
832.764, 58.812
834.042, 23.705
835.320, 87.586
836.598, 112.455
837.875, 139.341
839.152, 41.217
840.429, 162.082
841.706, 98.938
842.983, 154.784
844.259, 169.619
845.536, 15.445
846.812, 101.257
848.088, 75.064
849.363, 155.860
850.639, 138.665
851.914, 153.473
853.189, 172.271
854.464, 237.061
855.739, 316.840
857.013, 194.609
858.288, 123.370
859.562, 310.122
860.836, 151.866
862.110, 486.601
863.383, 389.325
864.656, 154.046
865.930, 169.757
867.203, 243.459
868.475, 163.156
869.748, 127.843
871.020, 190.521
872.292, 221.189
873.564, 45.853
874.836, 174.515
876.108, 153.170
877.379, 283.814
878.650, 218.450
879.922, 115.096
881.192, 171.730
882.463, 118.357
883.733, 153.979
885.004, 195.593
886.274, 190.197
887.544, 219.793
888.813, 234.334
890.083, 192.578
891.352, 239.167
892.621, 182.181
893.890, 236.753
895.159, 160.318
896.427, 93.888
897.695, 162.095
898.964, 225.367
900.232, 269.915
901.499, 233.455
902.767, 293.988
904.034, 230.514
905.301, 364.034
906.568, 389.548
907.835, 252.054
909.102, 306.551
910.368, 370.043
911.634, 479.534
912.900, 433.021
914.166, 527.498
915.432, 488.970
916.697, 451.435
917.962, 688.892
919.227, 537.352
920.492, 823.803
921.757, 890.261
923.021, 990.716
924.285, 1241.163
925.550, 1510.605
926.813, 1799.098
928.077, 2209.916
929.341, 2975.967
930.604, 3880.402
931.867, 4678.309
933.130, 5145.734
934.393, 5126.367
935.655, 4157.610
936.918, 3351.462
938.180, 2428.788
939.442, 1805.229
940.703, 1498.891
941.965, 1184.402
943.226, 889.854
944.488, 826.401
945.749, 773.663
947.009, 594.965
948.270, 606.874
949.530, 582.252
950.791, 575.700
952.051, 502.450
953.311, 512.682
954.570, 597.910
955.830, 575.283
957.089, 674.005
958.348, 648.378
959.607, 746.495
960.866, 706.623
962.124, 947.537
963.383, 1096.930
964.641, 1299.568
965.899, 1733.975
967.156, 2137.381
968.414, 2687.073
969.671, 3243.298
970.928, 3661.540
972.185, 3857.748
973.442, 3401.162
974.699, 2916.543
975.955, 2283.525
977.211, 1663.511
978.468, 1596.936
979.723, 1247.107
980.979, 1178.352
982.234, 1339.785
983.490, 979.725
984.745, 1252.165
986.000, 1280.385
987.254, 1336.838
988.509, 1628.348
989.763, 1534.806
991.017, 1634.474
992.271, 1736.985
993.525, 1752.464
994.779, 1847.946
996.032, 1755.446
997.285, 1693.634
998.538, 1425.304
999.791, 1567.817
1001.044, 1391.309
1002.296, 1504.738
1003.548, 1413.360
1004.800, 1460.936
1006.052, 1843.646
1007.304, 1934.246
1008.555, 2290.948
1009.807, 2760.789
1011.058, 3232.616
1012.309, 4038.246
1013.559, 4827.879
1014.810, 5795.480
1016.060, 6818.124
1017.310, 7359.973
1018.560, 7637.130
1019.810, 7473.802
1021.060, 6972.674
1022.309, 5971.359
1023.558, 5464.312
1024.807, 5107.310
1026.056, 5123.047
1027.305, 4961.749
1028.553, 4734.455
1029.801, 4109.047
1031.049, 3207.771
1032.297, 2646.530
1033.545, 2322.997
1034.793, 2020.729
1036.040, 1921.461
1037.287, 1987.197
1038.534, 2088.935
1039.781, 2529.676
1041.027, 2425.662
1042.274, 2552.416
1043.520, 2699.178
1044.766, 2224.112
1046.012, 1862.814
1047.257, 1518.820
1048.503, 1560.610
1049.748, 1269.413
1050.993, 1210.302
1052.238, 1240.314
1053.483, 966.333
1054.727, 977.143
1055.971, 1170.314
1057.216, 1026.123
1058.459, 958.004
1059.703, 946.828
1060.947, 1115.423
1062.190, 1243.408
1063.433, 1323.217
1064.676, 1387.214
1065.919, 1537.022
1067.162, 1621.654
1068.404, 1581.753
1069.646, 1833.561
1070.888, 1943.368
1072.130, 2016.175
1073.372, 1860.980
1074.613, 1746.799
1075.855, 1585.617
1077.096, 1428.059
1078.337, 1348.214
1079.578, 1229.576
1080.818, 1192.619
1082.059, 1106.707
1083.299, 1055.724
1084.539, 1025.924
1085.779, 997.143
1087.018, 948.748
1088.258, 1006.746
1089.497, 921.818
1090.736, 968.795
1091.975, 1104.999
1093.213, 1229.125
1094.452, 1362.640
1095.690, 1576.218
1096.928, 1679.298
1098.166, 1900.663
1099.404, 2063.753
1100.642, 1816.879
1101.879, 1864.684
1103.116, 1563.828
1104.353, 1623.163
1105.590, 1410.478
1106.827, 1161.686
1108.063, 1008.112
1109.299, 914.328
1110.536, 948.081
1111.771, 727.430
1113.007, 622.652
1114.243, 605.475
1115.478, 479.714
1116.713, 467.950
1117.948, 418.207
1119.183, 397.226
1120.418, 327.209
1121.652, 392.979
1122.886, 380.530
1124.120, 360.120
1125.354, 211.540
1126.588, 288.117
1127.821, 114.630
1129.055, 195.246
1130.288, 216.666
1131.521, 102.924
1132.753, 88.161
1133.986, 33.062
1135.218, 216.290
1136.450, 124.293
1137.682, 160.308
1138.914, 12.312
1140.146, 3.368
1141.377, 41.299
1142.609, 44.994
1143.840, 159.713
1145.071, 49.548
1146.301, 36.108
1147.532, 120.973
1148.762, 84.602
1149.992, 67.226
1151.222, 18.501
1152.452, 68.508
1153.682, 20.348
1154.911, 63.509
1156.140, 28.034
1157.369, 0.454
1158.598, 6.195
1159.827, 113.638
1161.055, 77.222
1162.284, 21.863
1163.512, 89.812
1164.740, 12.747
1165.967, 7.849
1167.195, 113.049
1168.422, 22.035
1169.650, 163.818
1170.877, 8.239
1172.103, 40.691
1173.330, 66.285
1174.557, 104.526
1175.783, 125.428
1177.009, 61.804
1178.235, 81.547
1179.461, 76.591
1180.686, 8.679
1181.912, 128.098
1183.137, 187.190
1184.362, 107.146
1185.587, 105.077
1186.811, 176.176
1188.036, 63.770
1189.260, 192.104
1190.484, 154.906
1191.708, 53.728
1192.932, 41.521
1194.155, 39.149
1195.378, 153.865
1196.602, 173.402
1197.825, 79.000
1199.047, 50.573
1200.270, 50.000
1201.492, 202.354
1202.715, 16.732
1203.937, 157.095
1205.159, 88.770
1206.380, 103.116
1207.602, 18.564
1208.823, 66.726
1210.044, 123.001
1211.265, 65.265
1212.486, 177.512
1213.707, 84.747
1214.927, 192.966
1216.147, 197.216
1217.367, 123.424
1218.587, 214.724
1219.807, 132.904
1221.027, 115.072
1222.246, 1.774
1223.465, 5.835
1224.684, 26.833
1225.903, 30.701
1227.121, 79.772
1228.340, 73.343
1229.558, 91.130
1230.776, 94.149
1231.994, 84.153
1233.212, 125.138
1234.429, 115.158
1235.646, 102.236
1236.864, 132.173
1238.081, 84.242
1239.297, 106.155
1240.514, 245.055
1241.730, 229.943
1242.947, 139.818
1244.163, 69.679
1245.378, 276.526
1246.594, 159.331
1247.810, 16.161
1249.025, 177.934
1250.240, 102.693
1251.455, 107.438
1252.670, 176.164
1253.885, 89.873
1255.099, 140.564
1256.313, 79.661
1257.527, 115.966
1258.741, 259.568
1259.955, 31.153
1261.168, 148.717
1262.382, 153.248
1263.595, 154.184
1264.808, 86.653
1266.021, 95.104
1267.233, 42.468
1268.446, 78.785
1269.658, 69.318
1270.870, 111.339
1272.082, 73.567
1273.294, 88.767
1274.505, 63.913
1275.716, 110.028
1276.928, 16.118
1278.139, 153.169
1279.349, 3.182
1280.560, 154.155
1281.770, 108.109
1282.981, 52.983
1284.191, 96.887
1285.401, 42.486
1286.610, 16.708
1287.820, 40.111
1289.029, 29.094
1290.239, 27.665
1291.448, 98.394
1292.656, 15.938
1293.865, 72.620
1295.073, 71.306
1296.282, 81.966
1297.490, 70.447
1298.698, 51.843
1299.906, 107.489
1301.113, 0.972
1302.320, 51.335
1303.528, 18.465
1304.735, 46.729
1305.942, 31.103
1307.148, 190.454
1308.355, 2.187
1309.561, 142.110
1310.767, 29.816
1311.973, 6.074
1313.179, 10.134
1314.384, 16.118
1315.590, 38.271
1316.795, 94.136
1318.000, 9.110
1319.205, 51.924
1320.410, 119.972
1321.614, 22.003
1322.819, 30.108
1324.023, 3.064
1325.227, 138.967
1326.431, 123.143
1327.634, 53.033
1328.838, 74.904
1330.041, 77.757
1331.244, 48.587
1332.447, 52.399
1333.650, 70.956
1334.852, 84.729
1336.055, 77.484
1337.257, 90.830
1338.459, 99.122
1339.661, 84.294
1340.862, 123.978
1342.064, 106.645
1343.265, 109.209
1344.466, 140.635
1345.667, 10.037
1346.868, 174.636
1348.068, 173.854
1349.269, 67.424
1350.469, 142.905
1351.669, 201.430
1352.869, 178.173
1354.069, 222.352
1355.268, 208.586
1356.468, 227.650
1357.667, 176.207
1358.866, 153.563
1360.065, 134.491
1361.263, 218.538
1362.462, 122.986
1363.660, 252.427
1364.858, 181.862
1366.056, 156.281
1367.254, 231.696
1368.451, 181.502
1369.649, 112.495
1370.846, 222.238
1372.043, 84.146
1373.240, 239.152
1374.436, 287.965
1375.633, 256.853
1376.829, 164.499
1378.025, 102.121
1379.221, 244.520
1380.417, 161.871
1381.613, 111.995
1382.808, 245.397
1384.003, 191.485
1385.199, 247.828
1386.393, 239.443
1387.588, 282.406
1388.783, 163.416
1389.977, 262.541
1391.171, 134.526
1392.365, 221.976
1393.559, 318.024
1394.753, 209.484
1395.946, 321.528
1397.140, 161.875
1398.333, 229.080
1399.526, 121.288
1400.719, 217.898
1401.911, 255.683
1403.104, 215.676
1404.296, 304.513
1405.488, 246.127
1406.680, 47.448
1407.872, 165.510
1409.063, 383.234
1410.255, 149.569
1411.446, 220.477
1412.637, 114.159
1413.828, 234.069
1415.018, 305.391
1416.209, 306.096
1417.399, 149.618
1418.589, 181.755
1419.779, 227.521
1420.969, 268.697
1422.159, 206.041
1423.348, 289.979
1424.537, 278.509
1425.726, 192.124
1426.915, 194.635
1428.104, 184.137
1429.293, 195.940
1430.481, 245.907
1431.669, 307.983
1432.857, 258.065
1434.045, 159.020
1435.233, 326.519
1436.420, 358.423
1437.608, 252.863
1438.795, 332.284
1439.982, 259.668
1441.169, 285.938
1442.355, 351.000
1443.542, 331.206
1444.728, 397.378
1445.914, 507.255
1447.100, 409.870
1448.286, 447.951
1449.472, 269.003
1450.657, 560.662
1451.842, 441.322
1453.027, 430.187
1454.212, 532.969
1455.397, 405.669
1456.581, 467.326
1457.766, 480.985
1458.950, 394.566
1460.134, 337.081
1461.318, 288.291
1462.501, 239.699
1463.685, 520.075
1464.868, 184.416
1466.051, 465.962
1467.234, 250.741
1468.417, 254.632
1469.600, 303.621
1470.782, 364.736
1471.965, 193.972
1473.147, 346.309
1474.329, 314.667
1475.510, 294.060
1476.692, 355.469
1477.873, 403.907
1479.055, 168.367
1480.236, 266.827
1481.416, 195.286
1482.597, 238.758
1483.778, 186.245
1484.958, 196.770
1486.138, 243.325
1487.318, 173.221
1488.498, 158.589
1489.678, 185.313
1490.857, 117.119
1492.037, 344.035
1493.216, 310.096
1494.395, 137.303
1495.574, 274.619
1496.752, 24.037
1497.931, 393.552
1499.109, 68.168
1500.287, 94.897
1501.465, 20.757
