##NAMES=Senegalite
##RRUFFID=R050239
##IDEAL CHEMISTRY=Al_2_PO_4_(OH)_3_&#183;H_2_O
##LOCALITY=Kourondicko iron ore (magnetite) deposit, Faleme River Basin, Senegal
##OWNER=RRUFF
##SOURCE=Marcus Origlieri
##DESCRIPTION=Colorless prismatic crystals
##STATUS=The identification of this mineral has been confirmed by X-ray diffraction and chemical analysis
##URL=rruff.info/R050239
##MEASURED CHEMISTRY=Al_2.00_P_1.00_O_4_(OH)_3_Â·H_2_O
##PIN_ID=M00172
##ORIENTATION=Laser parallel to -a* (-1 0 0). Fiducial mark perpendicular to laser is parallel to b [0 1 0]
98.41600, 0.0000000E+00
99.64900, 190.3691
100.8830, 471.0293
102.1160, 812.8555
103.3490, 817.4512
104.5820, 810.5332
105.8150, 671.2549
107.0470, 439.7402
108.2800, 70.84277
109.5120, 61.01660
110.7440, 27.88477
111.9760, 13.24805
113.2080, 67.71680
114.4400, 82.95410
115.6710, 213.5020
116.9030, 160.9883
118.1340, 248.1016
119.3650, 326.5830
120.5960, 499.3682
121.8270, 678.7783
123.0580, 961.1182
124.2880, 1180.074
125.5190, 1428.512
126.7490, 1663.310
127.9790, 2069.364
129.2090, 2567.582
130.4390, 3223.879
131.6680, 4138.182
132.8980, 4501.424
134.1270, 4340.574
135.3560, 3792.604
136.5850, 3045.436
137.8140, 2338.023
139.0430, 1772.352
140.2710, 1508.374
141.5000, 998.0371
142.7280, 1003.296
143.9560, 744.1123
145.1840, 724.4482
146.4120, 676.2764
147.6390, 498.5693
148.8670, 527.3008
150.0940, 461.4512
151.3210, 381.9961
152.5490, 432.9219
153.7750, 449.2090
155.0020, 253.8418
156.2290, 292.8086
157.4550, 253.0938
158.6810, 554.6836
159.9080, 542.5684
161.1340, 784.7363
162.3590, 996.1797
163.5850, 970.8848
164.8110, 1212.846
166.0360, 1228.041
167.2610, 1427.500
168.4860, 1237.574
169.7110, 942.3359
170.9360, 766.2852
172.1610, 666.7793
173.3850, 613.2656
174.6100, 575.3379
175.8340, 622.7617
177.0580, 674.6016
178.2820, 813.8945
179.5050, 979.3438
180.7290, 896.8926
181.9520, 924.4980
183.1760, 1230.145
184.3990, 1330.842
185.6220, 1279.596
186.8450, 1089.418
188.0670, 1144.305
189.2900, 885.2656
190.5120, 1030.301
191.7340, 1068.414
192.9560, 1052.605
194.1780, 1254.881
195.4000, 1524.238
196.6220, 1527.678
197.8430, 1630.201
199.0640, 1610.809
200.2860, 1722.502
201.5070, 1920.279
202.7270, 2364.141
203.9480, 2820.086
205.1690, 2607.113
206.3890, 2504.227
207.6090, 1957.418
208.8290, 1446.693
210.0490, 977.0508
211.2690, 809.4883
212.4890, 397.0020
213.7080, 348.5938
214.9280, 317.2637
216.1470, 323.0078
217.3660, 299.8281
218.5850, 269.7207
219.8030, 348.6875
221.0220, 267.7285
222.2400, 583.8379
223.4590, 416.0176
224.6770, 512.2676
225.8950, 814.5859
227.1120, 1025.975
228.3300, 1216.428
229.5480, 1471.947
230.7650, 1549.529
231.9820, 1743.180
233.1990, 2137.893
234.4160, 2154.668
235.6330, 2174.752
236.8490, 2098.539
238.0660, 2089.393
239.2820, 2059.426
240.4980, 1899.334
241.7140, 1712.086
242.9300, 1464.135
244.1460, 1278.855
245.3610, 979.5996
246.5770, 798.6797
247.7920, 607.4590
249.0070, 419.1973
250.2220, 315.0176
251.4370, 161.5117
252.6510, 91.76953
253.8660, 10.82617
255.0800, 2.882813
256.2940, 2.335938
257.5080, 100.2793
258.7220, 243.2500
259.9360, 412.9023
261.1490, 243.7422
262.3630, 337.7598
263.5760, 149.3105
264.7890, 386.2461
266.0020, 252.3555
267.2150, 224.6328
268.4270, 358.0684
269.6400, 526.6523
270.8520, 673.3770
272.0640, 899.2402
273.2760, 1030.230
274.4880, 1437.344
275.7000, 1834.576
276.9120, 1615.920
278.1230, 1714.375
279.3340, 1554.934
280.5450, 1296.592
281.7560, 1469.346
282.9670, 1668.193
284.1780, 1387.131
285.3880, 1630.154
286.5980, 2259.258
287.8090, 2542.445
289.0190, 3093.707
290.2290, 3465.045
291.4380, 3875.453
292.6480, 4473.934
293.8570, 4833.480
295.0670, 4514.094
296.2760, 4181.773
297.4850, 3834.514
298.6930, 3637.602
299.9020, 3302.174
301.1110, 3263.092
302.3190, 3041.066
303.5270, 2861.094
304.7350, 2216.176
305.9430, 1803.312
307.1510, 1698.496
308.3580, 1462.730
309.5660, 1115.012
310.7730, 1490.344
311.9800, 1503.721
313.1870, 1323.139
314.3940, 1622.605
315.6010, 1646.109
316.8070, 1547.650
318.0130, 1707.232
319.2200, 1824.852
320.4260, 2119.508
321.6310, 2222.203
322.8370, 2548.932
324.0430, 2764.691
325.2480, 3157.484
326.4540, 3342.311
327.6590, 3628.168
328.8640, 3750.055
330.0680, 3922.975
331.2730, 3491.928
332.4780, 3259.908
333.6820, 2797.920
334.8860, 2219.965
336.0900, 2042.039
337.2940, 1877.141
338.4980, 1904.271
339.7010, 1881.434
340.9050, 1692.625
342.1080, 1588.844
343.3110, 1418.090
344.5140, 935.3652
345.7170, 719.6660
346.9200, 765.9961
348.1220, 357.3516
349.3240, 221.7363
350.5270, 235.1465
351.7290, 188.5859
352.9310, 124.0488
354.1320, 199.5391
355.3340, 60.05664
356.5350, 202.6016
357.7370, 266.1699
358.9380, 328.7656
360.1390, 320.3828
361.3400, 797.0254
362.5400, 655.6953
363.7410, 839.3867
364.9410, 568.0996
366.1410, 443.8379
367.3410, 657.5977
368.5410, 387.3789
369.7410, 197.1855
370.9400, 25.01367
372.1400, 50.13867
373.3390, 139.2871
374.5380, 186.8672
375.7370, 125.6309
376.9360, 176.8301
378.1350, 103.0508
379.3330, 3.720703
380.5310, 86.50000
381.7300, 155.8086
382.9280, 247.4570
384.1260, 261.8477
385.3230, 350.8477
386.5210, 364.5117
387.7180, 285.1816
388.9160, 172.1934
390.1130, 3.986328
391.3100, 154.7891
392.5060, 82.16992
393.7030, 146.3223
394.9000, 128.9336
396.0960, 299.1602
397.2920, 103.5020
398.4880, 259.8672
399.6840, 245.3496
400.8800, 139.9316
402.0750, 35.54492
403.2710, 23.64453
404.4660, 2.265625
405.6610, 52.12305
406.8560, 40.53516
408.0510, 235.9668
409.2450, 144.4316
410.4400, 499.9219
411.6340, 553.4375
412.8280, 637.9961
414.0220, 744.5781
415.2160, 566.1914
416.4100, 892.8379
417.6030, 1128.541
418.7970, 968.2695
419.9900, 1030.023
421.1830, 925.7949
422.3760, 1055.590
423.5690, 939.4043
424.7610, 933.2422
425.9540, 880.0996
427.1460, 920.9766
428.3380, 992.8691
429.5300, 1178.783
430.7220, 1528.715
431.9140, 1735.664
433.1050, 2011.631
434.2970, 2332.613
435.4880, 2644.482
436.6790, 3201.629
437.8700, 3425.660
439.0610, 3991.709
440.2510, 4547.770
441.4420, 4806.848
442.6320, 5288.949
443.8220, 5572.066
445.0120, 5654.197
446.2020, 5640.346
447.3910, 5207.508
448.5810, 4840.688
449.7700, 4394.879
450.9600, 3969.084
452.1490, 3523.301
453.3370, 3369.531
454.5260, 3330.771
455.7150, 3052.035
456.9030, 2860.314
458.0910, 2745.607
459.2800, 3042.908
460.4670, 3178.227
461.6550, 3367.553
462.8430, 3925.891
464.0300, 4101.244
465.2180, 4401.633
466.4050, 5193.037
467.5920, 5681.465
468.7790, 6327.918
469.9650, 7371.385
471.1520, 7818.863
472.3380, 8483.348
473.5250, 8919.848
474.7110, 8916.363
475.8970, 9275.891
477.0820, 9248.430
478.2680, 9379.977
479.4540, 9505.541
480.6390, 9037.113
481.8240, 8416.699
483.0090, 7834.295
484.1940, 6740.898
485.3780, 5707.535
486.5630, 4869.191
487.7470, 4056.895
488.9320, 3400.637
490.1160, 2758.451
491.3000, 2226.338
492.4830, 2138.295
493.6670, 1796.320
494.8500, 1709.369
496.0340, 1530.441
497.2170, 1287.527
498.4000, 1168.336
499.5820, 1034.545
500.7650, 924.8477
501.9480, 823.9707
503.1300, 758.7051
504.3120, 682.3945
505.4940, 664.3594
506.6760, 572.5039
507.8580, 526.6523
509.0390, 481.8320
510.2210, 560.0098
511.4020, 609.1953
512.5830, 350.3848
513.7640, 446.3438
514.9450, 322.1309
516.1250, 145.4531
517.3060, 316.3027
518.4860, 287.2383
519.6660, 287.5352
520.8460, 265.5039
522.0260, 177.5781
523.2060, 14.13281
524.3850, 214.1309
525.5650, 75.40820
526.7440, 42.31836
527.9230, 121.9102
529.1020, 16.85547
530.2810, 15.34180
531.4590, 22.51953
532.6380, 193.9648
533.8160, 96.12695
534.9940, 172.7070
536.1720, 17.16602
537.3500, 191.2656
538.5270, 181.3828
539.7050, 157.0918
540.8820, 313.2441
542.0590, 51.14258
543.2360, 305.7383
544.4130, 4.771484
545.5900, 217.3672
546.7660, 48.48633
547.9430, 266.1699
549.1190, 482.5234
550.2950, 363.4102
551.4710, 416.5723
552.6470, 684.7988
553.8220, 383.1406
554.9980, 383.3086
556.1730, 364.5449
557.3480, 403.5312
558.5230, 395.1738
559.6980, 368.4785
560.8730, 208.6895
562.0470, 402.8633
563.2220, 94.03516
564.3960, 505.2773
565.5700, 242.7539
566.7440, 457.9219
567.9170, 509.0918
569.0910, 415.2598
570.2640, 240.4258
571.4380, 576.5879
572.6110, 546.7480
573.7840, 818.9062
574.9570, 1013.062
576.1290, 980.2148
577.3020, 1028.363
578.4740, 1194.508
579.6460, 1216.650
580.8180, 1373.789
581.9900, 1509.291
583.1620, 1599.688
584.3330, 1855.441
585.5040, 1864.561
586.6760, 2111.338
587.8470, 2324.365
589.0180, 2583.467
590.1880, 2404.635
591.3590, 2407.727
592.5290, 2282.957
593.7000, 2176.037
594.8700, 2033.146
596.0400, 2021.764
597.2090, 1990.258
598.3790, 2090.770
599.5490, 2251.104
600.7180, 1862.391
601.8870, 2148.674
603.0560, 2029.080
604.2250, 1918.764
605.3940, 2373.316
606.5620, 2104.775
607.7300, 2166.654
608.8990, 2290.176
610.0670, 2173.695
611.2350, 2286.086
612.4020, 2468.186
613.5700, 2419.232
614.7370, 2492.973
615.9050, 2598.275
617.0720, 2852.391
618.2390, 2952.033
619.4060, 3007.336
620.5720, 3054.111
621.7390, 3010.744
622.9050, 3159.986
624.0710, 3015.826
625.2370, 3134.945
626.4030, 3100.633
627.5690, 3047.281
628.7340, 3048.637
629.9000, 2887.770
631.0650, 2911.906
632.2300, 2884.863
633.3950, 2723.805
634.5600, 2577.971
635.7240, 2563.115
636.8890, 2451.025
638.0530, 2351.135
639.2170, 2106.156
640.3810, 2128.561
641.5450, 1736.648
642.7080, 1525.225
643.8720, 1586.775
645.0350, 1702.979
646.1980, 1571.918
647.3610, 1293.150
648.5240, 1264.914
649.6870, 1079.529
650.8490, 920.8262
652.0120, 989.3672
653.1740, 752.3086
654.3360, 771.9805
655.4980, 558.8066
656.6600, 538.8809
657.8210, 738.0938
658.9830, 252.3828
660.1440, 571.1113
661.3050, 575.0859
662.4660, 180.9551
663.6270, 272.5215
664.7870, 425.8125
665.9480, 182.0215
667.1080, 230.4297
668.2680, 239.7539
669.4280, 252.0664
670.5880, 270.6406
671.7480, 397.2363
672.9070, 293.5176
674.0670, 428.8574
675.2260, 461.0488
676.3850, 417.3574
677.5440, 451.7539
678.7030, 377.2148
679.8610, 389.4883
681.0200, 374.8281
682.1780, 324.2051
683.3360, 308.5977
684.4940, 258.4609
685.6520, 82.83203
686.8090, 304.1816
687.9670, 195.5059
689.1240, 71.80273
690.2810, 202.0625
691.4380, 123.2910
692.5950, 5.513672
693.7520, 349.6230
694.9080, 59.72852
696.0650, 28.79297
697.2210, 88.19141
698.3770, 127.7188
699.5330, 141.5977
700.6880, 266.4434
701.8440, 196.2578
702.9990, 143.0391
704.1550, 119.7852
705.3100, 297.4961
706.4650, 253.1758
707.6190, 291.8223
708.7740, 195.4355
709.9290, 382.0137
711.0830, 204.5625
712.2370, 302.0742
713.3910, 309.5527
714.5450, 332.9980
715.6980, 364.4102
716.8520, 244.7891
718.0050, 231.1309
719.1580, 365.4414
720.3110, 318.7148
721.4640, 27.95703
722.6170, 398.1406
723.7700, 402.2910
724.9220, 115.4062
726.0740, 96.48047
727.2260, 213.5137
728.3780, 197.5078
729.5300, 270.7676
730.6810, 184.3887
731.8330, 307.4922
732.9840, 214.3438
734.1350, 24.15820
735.2860, 147.9141
736.4370, 146.6289
737.5880, 168.3535
738.7380, 173.9883
739.8880, 175.5840
741.0390, 161.1406
742.1890, 130.8770
743.3380, 28.79297
744.4880, 76.59375
745.6380, 1.875000
746.7870, 29.39062
747.9360, 73.59766
749.0850, 164.7500
750.2340, 217.9160
751.3830, 102.9883
752.5310, 127.3398
753.6800, 86.32227
754.8280, 211.5645
755.9760, 66.45703
757.1240, 174.2949
758.2720, 124.0918
759.4190, 66.46289
760.5670, 181.8047
761.7140, 292.0410
762.8610, 37.05469
764.0080, 23.46680
765.1550, 77.49219
766.3020, 64.48047
767.4480, 189.4297
768.5950, 181.3281
769.7410, 178.6582
770.8870, 178.8379
772.0330, 10.42773
773.1780, 6.208984
774.3240, 48.43750
775.4690, 90.47852
776.6140, 94.09570
777.7590, 144.6914
778.9040, 179.8887
780.0490, 292.0430
781.1940, 456.1562
782.3380, 158.2344
783.4820, 89.26562
784.6260, 149.8066
785.7700, 20.04883
786.9140, 258.2441
788.0580, 139.0527
789.2010, 265.8105
790.3450, 175.5645
791.4880, 100.5234
792.6310, 192.0938
793.7730, 76.90625
794.9160, 75.33008
796.0590, 72.36523
797.2010, 110.7227
798.3430, 40.49023
799.4850, 207.5879
800.6270, 65.99219
801.7690, 68.97852
802.9100, 235.0820
804.0520, 209.1738
805.1930, 388.2148
806.3340, 400.2168
807.4750, 371.1973
808.6160, 546.2734
809.7560, 294.1914
810.8970, 229.0742
812.0370, 503.0078
813.1770, 421.9277
814.3170, 495.7012
815.4570, 295.7617
816.5960, 456.4551
817.7360, 660.1660
818.8750, 592.8730
820.0140, 327.4473
821.1530, 524.9297
822.2920, 508.4219
823.4310, 754.4004
824.5690, 549.8164
825.7070, 530.1836
826.8460, 806.7852
827.9840, 597.0781
829.1220, 636.2676
830.2590, 621.3008
831.3970, 702.4746
832.5340, 759.5352
833.6710, 910.8164
834.8080, 490.4258
835.9450, 561.3047
837.0820, 481.2773
838.2190, 898.2148
839.3550, 603.1133
840.4910, 657.9062
841.6270, 454.4219
842.7630, 484.2070
843.8990, 605.9570
845.0350, 563.6680
846.1700, 570.3438
847.3060, 498.9766
848.4410, 534.5820
849.5760, 628.1445
850.7100, 566.6680
851.8450, 463.1562
852.9800, 698.6094
854.1140, 628.0312
855.2480, 284.4102
856.3820, 551.7578
857.5160, 485.0664
858.6500, 372.0742
859.7830, 589.3125
860.9170, 496.5156
862.0500, 544.0234
863.1830, 571.2383
864.3160, 393.3359
865.4480, 386.3281
866.5810, 449.3594
867.7130, 219.2070
868.8460, 320.1680
869.9780, 374.0547
871.1100, 378.4023
872.2410, 341.8242
873.3730, 252.1875
874.5050, 362.6914
875.6360, 528.1992
876.7670, 421.6680
877.8980, 306.9766
879.0290, 239.9648
880.1590, 584.0391
881.2900, 45.17188
882.4200, 386.8320
883.5500, 288.8164
884.6800, 244.7578
885.8100, 228.7891
886.9400, 337.0664
888.0690, 160.3594
889.1990, 351.9102
890.3280, 21.85938
891.4570, 331.9492
892.5860, 361.4727
893.7140, 338.2969
894.8430, 85.59766
895.9710, 5.003906
897.1000, 86.75000
898.2280, 154.8516
899.3560, 234.6367
900.4830, 76.80859
901.6110, 57.97266
902.7380, 32.91797
903.8660, 171.9844
904.9930, 8.535156
906.1200, 119.2188
907.2460, 48.12500
908.3730, 9.750000
909.5000, 71.60547
910.6260, 41.15234
911.7520, 200.4570
912.8780, 118.8047
914.0040, 163.1484
915.1290, 366.9297
916.2550, 174.6016
917.3800, 150.2578
918.5050, 160.2148
919.6300, 3.605469
920.7550, 64.75781
921.8800, 32.50391
923.0040, 160.8516
924.1290, 232.4883
925.2530, 92.83594
926.3770, 30.74219
927.5010, 81.12500
928.6250, 40.81250
929.7480, 36.49609
930.8720, 138.9297
931.9950, 103.5234
933.1180, 6.460938
934.2410, 22.69922
935.3640, 33.87109
936.4860, 22.56250
937.6090, 71.78125
938.7310, 61.14844
939.8530, 70.87109
940.9750, 85.66406
942.0970, 77.84375
943.2180, 32.00781
944.3400, 101.1602
945.4610, 161.2383
946.5820, 34.02734
947.7030, 26.13672
948.8240, 136.2344
949.9450, 5.671875
951.0650, 169.3477
952.1860, 130.5703
953.3060, 24.45312
954.4260, 67.51172
955.5460, 32.41406
956.6650, 55.64062
957.7850, 51.73828
958.9040, 124.8359
960.0230, 90.64062
961.1420, 166.9961
962.2610, 70.06641
963.3800, 45.15625
964.4990, 164.2539
965.6170, 70.37109
966.7350, 295.4883
967.8530, 167.6016
968.9710, 20.71094
970.0890, 295.8516
971.2070, 14.99219
972.3240, 104.1211
973.4410, 169.2461
974.5580, 175.3594
975.6750, 95.46875
976.7920, 124.5742
977.9090, 240.6680
979.0250, 73.76172
980.1410, 149.8438
981.2580, 283.9180
982.3740, 405.9922
983.4890, 409.8594
984.6050, 392.1211
985.7200, 432.2539
986.8360, 232.3906
987.9510, 264.5156
989.0660, 440.6484
990.1810, 705.7773
991.2950, 577.9023
992.4100, 840.0312
993.5240, 668.1641
994.6390, 679.2969
995.7530, 842.4219
996.8660, 911.5508
997.9800, 1080.676
999.0940, 1096.805
1000.207, 1096.926
1001.320, 991.0469
1002.433, 1296.949
1003.546, 1183.059
1004.659, 1304.168
1005.772, 1772.289
1006.884, 1670.406
1007.996, 1763.477
1009.108, 1859.598
1010.220, 2103.719
1011.332, 2203.836
1012.444, 2515.957
1013.555, 2595.004
1014.666, 2532.148
1015.777, 2637.102
1016.888, 2905.266
1017.999, 2915.441
1019.110, 3068.629
1020.220, 3173.762
1021.331, 3381.977
1022.441, 3697.871
1023.551, 4236.102
1024.661, 4247.020
1025.770, 4527.254
1026.880, 5216.492
1027.989, 5283.734
1029.098, 6501.363
1030.207, 6813.973
1031.316, 7290.645
1032.425, 8084.621
1033.533, 8521.914
1034.642, 8243.641
1035.750, 8368.316
1036.858, 8611.879
1037.966, 8249.289
1039.073, 7722.027
1040.181, 7004.477
1041.288, 6466.461
1042.396, 5479.250
1043.503, 4809.707
1044.610, 4400.059
1045.716, 3954.777
1046.823, 3339.492
1047.929, 2908.223
1049.036, 2676.957
1050.142, 2352.703
1051.248, 2092.449
1052.353, 2274.203
1053.459, 2438.406
1054.564, 2083.969
1055.670, 2152.324
1056.775, 2318.125
1057.880, 2303.938
1058.985, 2762.727
1060.089, 2875.266
1061.194, 3131.152
1062.298, 3539.770
1063.402, 3757.449
1064.506, 3919.059
1065.610, 4084.973
1066.713, 4122.656
1067.817, 3910.738
1068.920, 4007.484
1070.023, 3060.617
1071.126, 2956.590
1072.229, 2678.539
1073.332, 2449.527
1074.435, 1737.516
1075.537, 1466.516
1076.639, 1165.398
1077.741, 1051.410
1078.843, 687.4258
1079.945, 650.3555
1081.046, 478.2656
1082.148, 680.3008
1083.249, 395.0234
1084.350, 575.0547
1085.451, 325.0547
1086.551, 439.2891
1087.652, 368.8594
1088.752, 148.9805
1089.853, 20.11328
1090.953, 71.53516
1092.053, 140.4414
1093.152, 175.5273
1094.252, 238.6250
1095.351, 237.2617
1096.451, 157.7148
1097.550, 188.6367
1098.649, 171.8125
1099.748, 220.9336
1100.846, 75.05469
1101.945, 227.1602
1103.043, 245.1406
1104.141, 198.2383
1105.239, 362.3750
1106.337, 139.5195
1107.434, 191.6641
1108.532, 151.8125
1109.629, 313.9648
1110.726, 547.1250
1111.823, 394.2812
1112.920, 319.4453
1114.017, 475.6094
1115.113, 315.7852
1116.210, 146.9609
1117.306, 260.0234
1118.402, 279.2070
1119.498, 281.3945
1120.593, 363.7266
1121.689, 165.9180
1122.784, 207.1133
1123.879, 236.3516
1124.974, 311.5547
1126.069, 263.7617
1127.164, 337.0781
1128.259, 291.5195
1129.353, 478.7305
1130.447, 434.9492
1131.541, 614.1641
1132.635, 522.3867
1133.729, 578.3242
1134.822, 684.9414
1135.916, 589.1758
1137.009, 695.4062
1138.102, 670.6406
1139.195, 671.8789
1140.288, 660.1211
1141.380, 1033.363
1142.473, 1025.609
1143.565, 1240.062
1144.657, 1369.316
1145.749, 1543.566
1146.841, 1571.824
1147.932, 1974.090
1149.024, 1937.352
1150.115, 2960.625
1151.206, 2943.898
1152.297, 3220.180
1153.388, 3726.453
1154.479, 3712.734
1155.569, 4030.012
1156.659, 3858.297
1157.750, 3549.590
1158.839, 2891.883
1159.929, 2405.176
1161.019, 1843.477
1162.108, 1481.781
1163.198, 1550.094
1164.287, 1123.422
1165.376, 947.7539
1166.465, 1150.086
1167.553, 983.4258
1168.642, 627.7656
1169.730, 619.1094
1170.818, 760.4570
1171.906, 497.8242
1172.994, 522.2031
1174.082, 425.5898
1175.170, 390.9727
1176.257, 503.3633
1177.344, 420.7969
1178.431, 440.1289
1179.518, 380.5156
1180.605, 493.9023
1181.691, 456.2852
1182.778, 448.6641
1183.864, 391.0469
1184.950, 314.4297
1186.036, 102.8242
1187.122, 299.2305
1188.207, 122.6328
1189.292, 450.0312
1190.378, 149.4336
1191.463, 251.8359
1192.548, 180.2500
1193.632, 89.33203
1194.717, 341.0352
1195.801, 408.4258
1196.886, 12.81641
1197.970, 340.2031
1199.054, 102.4062
1200.137, 326.9336
1201.221, 214.2695
1202.305, 195.6055
1203.388, 453.9414
1204.471, 241.2773
1205.554, 186.6055
1206.637, 319.9336
1207.719, 249.2617
1208.802, 182.5859
1209.884, 68.91016
1210.966, 252.2305
1212.048, 181.5508
1213.130, 106.8672
1214.212, 80.81250
1215.293, 309.4531
1216.374, 164.2578
1217.456, 72.07031
1218.536, 275.0703
1219.617, 207.6797
1220.698, 37.34375
1221.778, 239.3516
1222.859, 149.3672
1223.939, 207.3711
1225.019, 86.62500
1226.099, 35.67578
1227.178, 32.76562
1228.258, 8.882813
1229.337, 125.9766
1230.417, 105.8320
1231.496, 121.6836
1232.574, 6.539063
1233.653, 413.3789
1234.732, 97.21484
1235.810, 320.0508
1236.888, 193.8828
1237.966, 114.7148
1239.044, 310.5391
1240.122, 255.3633
1241.199, 180.1953
1242.277, 228.0312
1243.354, 364.8672
1244.431, 408.6914
1245.508, 192.5195
1246.585, 295.6562
1247.661, 409.9961
1248.738, 132.6445
1249.814, 12.71094
1250.890, 399.9102
1251.966, 96.53516
1253.042, 10.85156
1254.117, 321.7461
1255.193, 86.33594
1256.268, 422.9219
1257.343, 24.51172
1258.418, 167.0898
1259.493, 267.6680
1260.567, 347.2383
1261.642, 559.8086
1262.716, 60.37109
1263.790, 399.9336
1264.864, 190.4961
1265.938, 343.0508
1267.011, 176.6016
1268.085, 492.1523
1269.158, 372.6992
1270.231, 134.2422
1271.304, 281.7812
1272.377, 39.32031
1273.450, 220.8516
1274.522, 154.3867
1275.594, 491.9141
1276.666, 526.4375
1277.738, 331.9648
