##NAMES=Senegalite
##RRUFFID=R050239
##IDEAL CHEMISTRY=Al_2_PO_4_(OH)_3_&#183;H_2_O
##LOCALITY=Kourondicko iron ore (magnetite) deposit, Faleme River Basin, Senegal
##OWNER=RRUFF
##SOURCE=Marcus Origlieri
##DESCRIPTION=Colorless prismatic crystals
##STATUS=The identification of this mineral has been confirmed by X-ray diffraction and chemical analysis
##URL=rruff.info/R050239
##MEASURED CHEMISTRY=Al_2.00_P_1.00_O_4_(OH)_3_Â·H_2_O
##PIN_ID=M00389
##ORIENTATION=Laser parallel to -b* (0 -1 0). Fiducial mark perpendicular to laser is parallel to -c [0 0 -1]
114.4400, 0.0000000E+00
115.6710, 1.427734
116.9030, 64.40039
118.1340, 1.878906
119.3650, 5.330078
120.5960, 137.8945
121.8270, 13.61914
123.0580, 111.9004
124.2880, 66.76562
125.5190, 322.4668
126.7490, 581.6016
127.9790, 643.8457
129.2090, 595.9414
130.4390, 897.6758
131.6680, 941.8730
132.8980, 905.3926
134.1270, 1015.113
135.3560, 898.9238
136.5850, 716.7285
137.8140, 627.4414
139.0430, 501.9883
140.2710, 510.3027
141.5000, 419.4160
142.7280, 389.0020
143.9560, 348.3125
145.1840, 367.1934
146.4120, 395.6191
147.6390, 460.5605
148.8670, 475.9922
150.0940, 378.8984
151.3210, 502.2734
152.5490, 325.0840
153.7750, 371.2891
155.0020, 447.8574
156.2290, 574.7637
157.4550, 587.9844
158.6810, 556.5078
159.9080, 639.5625
161.1340, 763.3906
162.3590, 730.7266
163.5850, 820.3125
164.8110, 905.1387
166.0360, 952.1992
167.2610, 967.4805
168.4860, 772.9805
169.7110, 514.6914
170.9360, 550.6074
172.1610, 436.7246
173.3850, 680.0371
174.6100, 593.5391
175.8340, 427.2734
177.0580, 467.1973
178.2820, 310.2969
179.5050, 517.5664
180.7290, 423.0078
181.9520, 534.6406
183.1760, 456.5039
184.3990, 627.6230
185.6220, 643.9941
186.8450, 592.6836
188.0670, 759.5156
189.2900, 550.3301
190.5120, 922.1445
191.7340, 670.9648
192.9560, 877.8203
194.1780, 1106.711
195.4000, 1073.646
196.6220, 1306.631
197.8430, 1311.672
199.0640, 1512.779
200.2860, 1707.949
201.5070, 1787.195
202.7270, 1820.082
203.9480, 1693.902
205.1690, 1679.371
206.3890, 1279.918
207.6090, 1016.549
208.8290, 766.2578
210.0490, 675.0527
211.2690, 571.9277
212.4890, 463.8867
213.7080, 459.7109
214.9280, 389.0625
216.1470, 463.2754
217.3660, 429.5723
218.5850, 424.9531
219.8030, 527.4219
221.0220, 280.9707
222.2400, 446.6055
223.4590, 327.3262
224.6770, 375.1289
225.8950, 485.0156
227.1120, 410.9805
228.3300, 537.0293
229.5480, 534.1621
230.7650, 601.3750
231.9820, 526.6680
233.1990, 506.0430
234.4160, 556.5020
235.6330, 626.5840
236.8490, 829.0234
238.0660, 760.6230
239.2820, 639.4434
240.4980, 694.2734
241.7140, 508.1816
242.9300, 450.1680
244.1460, 342.2344
245.3610, 255.5430
246.5770, 226.7188
247.7920, 198.1250
249.0070, 259.1387
250.2220, 400.7188
251.4370, 269.8574
252.6510, 287.7969
253.8660, 404.6270
255.0800, 183.4473
256.2940, 236.8457
257.5080, 246.4023
258.7220, 184.2617
259.9360, 255.4922
261.1490, 438.3125
262.3630, 428.6074
263.5760, 556.5430
264.7890, 626.8848
266.0020, 748.3203
267.2150, 719.9980
268.4270, 841.7227
269.6400, 864.4297
270.8520, 1110.723
272.0640, 1122.195
273.2760, 1074.832
274.4880, 1068.621
275.7000, 861.5586
276.9120, 1087.633
278.1230, 739.8398
279.3340, 679.1719
280.5450, 770.1543
281.7560, 623.1934
282.9670, 883.8711
284.1780, 1132.656
285.3880, 1185.545
286.5980, 1575.531
287.8090, 1667.617
289.0190, 1976.797
290.2290, 2205.066
291.4380, 2301.424
292.6480, 2286.428
293.8570, 2176.846
295.0670, 1986.008
296.2760, 1682.699
297.4850, 1394.469
298.6930, 1029.314
299.9020, 761.2324
301.1110, 715.2246
302.3190, 490.2910
303.5270, 450.4258
304.7350, 574.6328
305.9430, 445.9062
307.1510, 381.2461
308.3580, 578.6523
309.5660, 430.7832
310.7730, 470.6602
311.9800, 403.2578
313.1870, 313.9199
314.3940, 408.6426
315.6010, 310.4277
316.8070, 423.2715
318.0130, 719.1719
319.2200, 706.1367
320.4260, 1091.156
321.6310, 1382.234
322.8370, 1670.367
324.0430, 1649.553
325.2480, 1899.795
326.4540, 2062.092
327.6590, 2205.443
328.8640, 2002.846
330.0680, 2152.299
331.2730, 1863.805
332.4780, 1859.357
333.6820, 1247.961
334.8860, 1118.611
336.0900, 785.3125
337.2940, 778.0664
338.4980, 607.8652
339.7010, 694.7148
340.9050, 530.6133
342.1080, 328.5605
343.3110, 448.5586
344.5140, 395.6035
345.7170, 167.6973
346.9200, 321.8398
348.1220, 128.0332
349.3240, 274.2734
350.5270, 137.5605
351.7290, 279.8965
352.9310, 65.27930
354.1320, 83.71094
355.3340, 62.80859
356.5350, 41.29102
357.7370, 105.2715
358.9380, 27.88086
360.1390, 182.5371
361.3400, 340.2383
362.5400, 304.9844
363.7410, 174.7754
364.9410, 17.61133
366.1410, 241.4961
367.3410, 302.4219
368.5410, 81.39453
369.7410, 110.4551
370.9400, 308.5137
372.1400, 156.6602
373.3390, 212.8086
374.5380, 101.4590
375.7370, 194.2402
376.9360, 79.51758
378.1350, 90.42383
379.3330, 34.78125
380.5310, 26.17383
381.7300, 80.50781
382.9280, 83.98828
384.1260, 27.49414
385.3230, 103.8965
386.5210, 1.673828
387.7180, 20.00977
388.9160, 83.36328
390.1130, 129.3105
391.3100, 43.04102
392.5060, 53.84180
393.7030, 25.38086
394.9000, 45.09375
396.0960, 168.7129
397.2920, 117.8984
398.4880, 39.92969
399.6840, 51.20898
400.8800, 42.64258
402.0750, 125.5098
403.2710, 37.59766
404.4660, 169.3184
405.6610, 111.2910
406.8560, 40.67969
408.0510, 91.39062
409.2450, 146.5176
410.4400, 69.70508
411.6340, 228.9453
412.8280, 15.76367
414.0220, 86.57227
415.2160, 170.9551
416.4100, 178.3887
417.6030, 111.8652
418.7970, 182.8086
419.9900, 210.9609
421.1830, 251.5762
422.3760, 376.2383
423.5690, 454.9629
424.7610, 389.6953
425.9540, 513.4883
427.1460, 691.3242
428.3380, 635.2051
429.5300, 597.1270
430.7220, 1034.092
431.9140, 855.0996
433.1050, 1228.146
434.2970, 1404.260
435.4880, 1442.430
436.6790, 1619.674
437.8700, 1513.990
439.0610, 1481.346
440.2510, 1879.748
441.4420, 1810.188
442.6320, 1749.666
443.8220, 1578.236
445.0120, 1567.840
446.2020, 1635.484
447.3910, 1472.166
448.5810, 1122.883
449.7700, 1167.650
450.9600, 1090.469
452.1490, 1179.328
453.3370, 1152.553
454.5260, 1123.154
455.7150, 1121.123
456.9030, 1178.125
458.0910, 1098.168
459.2800, 1135.248
460.4670, 1691.361
461.6550, 1501.512
462.8430, 2026.691
464.0300, 2235.906
465.2180, 2602.158
466.4050, 2861.469
467.5920, 2969.762
468.7790, 3229.117
469.9650, 3683.508
471.1520, 3738.926
472.3380, 4067.381
473.5250, 4294.891
474.7110, 4459.453
475.8970, 4640.045
477.0820, 4459.688
478.2680, 4764.365
479.4540, 4488.072
480.6390, 3948.812
481.8240, 3189.580
483.0090, 2653.381
484.1940, 2228.211
485.3780, 1457.072
486.5630, 1179.986
487.7470, 1006.932
488.9320, 982.9258
490.1160, 518.9512
491.3000, 767.0215
492.4830, 721.1270
493.6670, 473.2559
494.8500, 439.4160
496.0340, 611.6094
497.2170, 354.8340
498.4000, 354.7988
499.5820, 502.3730
500.7650, 309.6836
501.9480, 349.0195
503.1300, 363.3906
504.3120, 197.7891
505.4940, 385.2441
506.6760, 187.7520
507.8580, 242.2852
509.0390, 36.84570
510.2210, 365.4414
511.4020, 31.06055
512.5830, 258.7070
513.7640, 32.37695
514.9450, 316.0723
516.1250, 95.21094
517.3060, 76.51367
518.4860, 113.1680
519.6660, 12.12891
520.8460, 52.58789
522.0260, 169.3281
523.2060, 80.90430
524.3850, 35.45312
525.5650, 48.22070
526.7440, 1.3672000E-02
527.9230, 214.5605
529.1020, 78.62891
530.2810, 188.7363
531.4590, 132.9746
532.6380, 165.1758
533.8160, 165.3828
534.9940, 58.35352
536.1720, 32.33984
537.3500, 239.6641
538.5270, 237.7480
539.7050, 194.2246
540.8820, 245.0664
542.0590, 184.1875
543.2360, 157.0703
544.4130, 271.9727
545.5900, 109.6328
546.7660, 101.5781
547.9430, 289.5410
549.1190, 246.1094
550.2950, 197.1152
551.4710, 354.4414
552.6470, 478.4863
553.8220, 329.5449
554.9980, 443.0273
556.1730, 312.1230
557.3480, 383.2402
558.5230, 438.3750
559.6980, 391.5254
560.8730, 386.6934
562.0470, 401.8809
563.2220, 540.0820
564.3960, 408.2988
565.5700, 388.5332
566.7440, 385.7812
567.9170, 713.0469
569.0910, 510.3281
570.2640, 660.6289
571.4380, 519.9453
572.6110, 430.2754
573.7840, 563.7188
574.9570, 330.3691
576.1290, 541.4922
577.3020, 564.8613
578.4740, 620.6152
579.6460, 485.0176
580.8180, 673.0996
581.9900, 437.5723
583.1620, 548.0195
584.3330, 583.0098
585.5040, 712.4766
586.6760, 663.0625
587.8470, 735.0898
589.0180, 740.0176
590.1880, 770.2598
591.3590, 782.1016
592.5290, 721.0918
593.7000, 823.8633
594.8700, 828.6211
596.0400, 820.1934
597.2090, 976.8672
598.3790, 673.3574
599.5490, 1018.184
600.7180, 1170.744
601.8870, 933.3164
603.0560, 924.8965
604.2250, 1017.490
605.3940, 1103.104
606.5620, 1356.713
607.7300, 1473.730
608.8990, 1656.350
610.0670, 1678.973
611.2350, 2003.799
612.4020, 1717.426
613.5700, 2030.137
614.7370, 2172.832
615.9050, 2383.473
617.0720, 2285.340
618.2390, 2307.604
619.4060, 2425.248
620.5720, 2605.895
621.7390, 2440.547
622.9050, 2277.338
624.0710, 1997.990
625.2370, 1971.146
626.4030, 1723.592
627.5690, 1516.992
628.7340, 1482.797
629.9000, 1509.900
631.0650, 1054.688
632.2300, 1249.084
633.3950, 912.7441
634.5600, 848.4805
635.7240, 818.9336
636.8890, 657.3086
638.0530, 721.8418
639.2170, 562.5117
640.3810, 570.3965
641.5450, 637.5332
642.7080, 554.3516
643.8720, 619.6973
645.0350, 425.2227
646.1980, 618.8809
647.3610, 541.5684
648.5240, 375.8047
649.6870, 414.3340
650.8490, 325.0488
652.0120, 307.3418
653.1740, 302.7441
654.3360, 289.3691
655.4980, 283.5898
656.6600, 350.6582
657.8210, 293.9199
658.9830, 254.5879
660.1440, 325.5859
661.3050, 199.3223
662.4660, 337.9863
663.6270, 29.72266
664.7870, 455.3145
665.9480, 141.9414
667.1080, 344.4941
668.2680, 320.1133
669.4280, 173.0137
670.5880, 261.6133
671.7480, 166.5137
672.9070, 223.0957
674.0670, 194.6328
675.2260, 94.21094
676.3850, 252.7520
677.5440, 390.3203
678.7030, 146.9219
679.8610, 327.5293
681.0200, 178.1250
682.1780, 228.7129
683.3360, 236.4688
684.4940, 126.0293
685.6520, 129.5801
686.8090, 224.1191
687.9670, 313.6387
689.1240, 217.1562
690.2810, 8.341797
691.4380, 145.1250
692.5950, 181.5781
693.7520, 524.2129
694.9080, 330.6387
696.0650, 342.4316
697.2210, 555.9746
698.3770, 625.3496
699.5330, 623.9004
700.6880, 460.0488
701.8440, 544.3750
702.9990, 361.6855
704.1550, 200.2754
705.3100, 360.5488
706.4650, 248.3203
707.6190, 486.5586
708.7740, 100.2012
709.9290, 160.4023
711.0830, 104.5820
712.2370, 77.80078
713.3910, 48.06250
714.5450, 22.99219
715.6980, 89.97461
716.8520, 79.52148
718.0050, 152.7891
719.1580, 15.01367
720.3110, 89.79492
721.4640, 234.3926
722.6170, 143.8867
723.7700, 205.8359
724.9220, 84.42578
726.0740, 129.2969
727.2260, 255.8398
728.3780, 1.636719
729.5300, 11.16406
730.6810, 64.73047
731.8330, 78.41016
732.9840, 80.08203
734.1350, 98.11328
735.2860, 89.42578
736.4370, 49.71484
737.5880, 80.96875
738.7380, 112.3008
739.8880, 109.2070
741.0390, 249.0859
742.1890, 116.5312
743.3380, 109.0703
744.4880, 244.3398
745.6380, 38.84375
746.7870, 169.2773
747.9360, 227.7422
749.0850, 98.72266
750.2340, 203.9648
751.3830, 49.18750
752.5310, 16.82812
753.6800, 250.4375
754.8280, 19.12891
755.9760, 80.91406
757.1240, 221.7422
758.2720, 345.5625
759.4190, 306.0469
760.5670, 117.8281
761.7140, 168.3672
762.8610, 99.05859
764.0080, 24.46484
765.1550, 85.94141
766.3020, 14.08203
767.4480, 105.6133
768.5950, 13.63281
769.7410, 89.28906
770.8870, 214.4062
772.0330, 150.7500
773.1780, 92.04688
774.3240, 53.20703
775.4690, 245.6562
776.6140, 286.3984
777.7590, 139.6602
778.9040, 116.7461
780.0490, 74.82422
781.1940, 105.8398
782.3380, 55.87500
783.4820, 41.07031
784.6260, 184.0586
785.7700, 112.4219
786.9140, 44.48047
788.0580, 140.5273
789.2010, 151.0156
790.3450, 219.6523
791.4880, 254.7422
792.6310, 161.1172
793.7730, 204.4023
794.9160, 201.7383
796.0590, 269.4180
797.2010, 114.7109
798.3430, 217.4492
799.4850, 109.8984
800.6270, 312.3164
801.7690, 518.1172
802.9100, 314.4453
804.0520, 527.5430
805.1930, 261.8711
806.3340, 396.2266
807.4750, 277.9336
808.6160, 184.9961
809.7560, 492.9297
810.8970, 412.0586
812.0370, 521.8672
813.1770, 399.2383
814.3170, 393.1211
815.4570, 271.4766
816.5960, 484.3594
817.7360, 330.1289
818.8750, 490.8633
820.0140, 229.5625
821.1530, 561.2188
822.2920, 321.1875
823.4310, 420.7734
824.5690, 397.3242
825.7070, 452.1484
826.8460, 341.6250
827.9840, 556.3945
829.1220, 477.3828
830.2590, 235.7461
831.3970, 429.0742
832.5340, 192.3633
833.6710, 249.6172
834.8080, 382.1875
835.9450, 408.1797
837.0820, 382.6133
838.2190, 402.9102
839.3550, 354.5977
840.4910, 221.2148
841.6270, 303.2266
842.7630, 183.1562
843.8990, 525.0898
845.0350, 101.9805
846.1700, 346.8242
847.3060, 318.8203
848.4410, 285.5898
849.5760, 484.2188
850.7100, 386.6172
851.8450, 512.5195
852.9800, 320.1562
854.1140, 291.3789
855.2480, 84.06641
856.3820, 294.9180
857.5160, 126.3594
858.6500, 114.8008
859.7830, 246.6641
860.9170, 504.0273
862.0500, 202.2422
863.1830, 441.5234
864.3160, 429.7734
865.4480, 303.3125
866.5810, 157.1992
867.7130, 201.9141
868.8460, 299.8242
869.9780, 331.7227
871.1100, 394.7734
872.2410, 273.6914
873.3730, 409.7617
874.5050, 246.4688
875.6360, 50.40625
876.7670, 50.30078
877.8980, 75.14844
879.0290, 67.42578
880.1590, 85.25781
881.2900, 171.3945
882.4200, 178.6602
883.5500, 166.2930
884.6800, 357.8867
885.8100, 205.2461
886.9400, 36.76953
888.0690, 359.1680
889.1990, 290.5508
890.3280, 124.9531
891.4570, 179.0938
892.5860, 222.8008
893.7140, 218.0977
894.8430, 43.35156
895.9710, 145.5625
897.1000, 291.5898
898.2280, 58.25781
899.3560, 337.3203
900.4830, 270.5820
901.6110, 386.8477
902.7380, 316.6797
903.8660, 141.1719
904.9930, 104.9531
906.1200, 78.09375
907.2460, 203.9258
908.3730, 47.32031
909.5000, 230.6680
910.6260, 151.8203
911.7520, 98.51562
912.8780, 181.1719
914.0040, 215.5820
915.1290, 208.7148
916.2550, 212.1406
917.3800, 139.0508
918.5050, 57.62500
919.6300, 25.04297
920.7550, 85.46094
921.8800, 24.25000
923.0040, 112.7070
924.1290, 325.7109
925.2530, 229.2383
926.3770, 92.88281
927.5010, 56.96484
928.6250, 114.2812
929.7480, 324.5469
930.8720, 151.3203
931.9950, 369.2031
933.1180, 120.1172
934.2410, 179.8477
935.3640, 177.6055
936.4860, 12.35547
937.6090, 40.92578
938.7310, 240.7188
939.8530, 170.3398
940.9750, 153.9258
942.0970, 81.50391
943.2180, 41.03906
944.3400, 47.24609
945.4610, 31.72656
946.5820, 59.17188
947.7030, 12.57812
948.8240, 247.9453
949.9450, 32.71875
951.0650, 208.5625
952.1860, 275.8320
953.3060, 266.0742
954.4260, 315.2930
955.5460, 425.2930
956.6650, 139.4531
957.7850, 339.5781
958.9040, 366.1406
960.0230, 14.21094
961.1420, 281.2461
962.2610, 76.25391
963.3800, 81.24219
964.4990, 342.1992
965.6170, 515.9570
966.7350, 245.4062
967.8530, 248.9258
968.9710, 130.6523
970.0890, 49.50000
971.2070, 143.8047
972.3240, 167.7812
973.4410, 70.53906
974.5580, 79.47266
975.6750, 443.1484
976.7920, 32.83984
977.9090, 423.0000
979.0250, 637.6289
980.1410, 227.8125
981.2580, 164.3945
982.3740, 518.9492
983.4890, 526.4453
984.6050, 209.1289
985.7200, 219.6328
986.8360, 459.1562
987.9510, 265.0312
989.0660, 171.9414
990.1810, 450.1211
991.2950, 536.5430
992.4100, 254.1562
993.5240, 334.6250
994.6390, 575.9805
995.7530, 649.4219
996.8660, 728.5391
997.9800, 418.0938
999.0940, 539.5352
1000.207, 457.8984
1001.320, 748.7773
1002.433, 722.1719
1003.546, 958.4727
1004.659, 1023.758
1005.772, 1018.621
1006.884, 816.2461
1007.996, 995.4609
1009.108, 959.5508
1010.220, 943.0195
1011.332, 1255.465
1012.444, 1285.293
1013.555, 1535.988
1014.666, 1416.895
1015.777, 1842.520
1016.888, 2138.164
1017.999, 2099.734
1019.110, 2271.734
1020.220, 2472.422
1021.331, 2806.453
1022.441, 3051.414
1023.551, 3616.375
1024.661, 3928.641
1025.770, 4151.215
1026.880, 4582.965
1027.989, 4545.672
1029.098, 4403.953
1030.207, 4494.312
1031.316, 4161.352
1032.425, 4044.992
1033.533, 3505.797
1034.642, 2931.598
1035.750, 2789.391
1036.858, 2441.180
1037.966, 2098.707
1039.073, 1919.758
1040.181, 1782.566
1041.288, 1465.484
1042.396, 1271.105
1043.503, 1276.707
1044.610, 1301.117
1045.716, 981.0391
1046.823, 925.3945
1047.929, 610.0703
1049.036, 514.8438
1050.142, 472.2852
1051.248, 705.4102
1052.353, 480.9336
1053.459, 630.0547
1054.564, 719.8945
1055.670, 456.9844
1056.775, 431.0312
1057.880, 675.5859
1058.985, 262.9414
1060.089, 629.7969
1061.194, 441.3164
1062.298, 483.8750
1063.402, 634.3594
1064.506, 304.4688
1065.610, 683.9180
1066.713, 497.8750
1067.817, 464.0703
1068.920, 721.2500
1070.023, 897.0859
1071.126, 483.2734
1072.229, 974.6445
1073.332, 1009.746
1074.435, 731.9727
1075.537, 1035.613
1076.639, 1425.859
1077.741, 1164.320
1078.843, 1414.438
1079.945, 1144.859
1081.046, 1084.688
1082.148, 1200.949
1083.249, 914.6758
1084.350, 722.7930
1085.451, 562.0117
1086.551, 481.2188
1087.652, 419.4141
1088.752, 310.5977
1089.853, 340.4180
1090.953, 16.57422
1092.053, 499.7188
1093.152, 501.5391
1094.252, 314.6562
1095.351, 195.1328
1096.451, 304.6445
1097.550, 135.1758
1098.649, 7.250000
1099.748, 247.3164
1100.846, 185.3711
1101.945, 369.0547
1103.043, 7.269531
1104.141, 75.98828
1105.239, 447.7969
1106.337, 55.82812
1107.434, 58.12500
1108.532, 198.0625
1109.629, 114.0273
1110.726, 244.1758
1111.823, 414.6367
1112.920, 249.5391
1114.017, 329.3789
1115.113, 109.2617
1116.210, 72.13672
1117.306, 302.0000
1118.402, 105.8594
1119.498, 23.70703
1120.593, 15.53906
1121.689, 5.886719
1122.784, 34.98828
1123.879, 180.7852
1124.974, 105.7734
1126.069, 363.5312
1127.164, 128.2852
1128.259, 223.0273
1129.353, 66.76562
1130.447, 116.5078
1131.541, 101.1445
1132.635, 36.21094
1133.729, 17.39453
1134.822, 125.9961
1135.916, 222.5820
1137.009, 182.1641
1138.102, 283.7383
1139.195, 225.3086
1140.288, 141.8672
1141.380, 281.4180
1142.473, 119.9727
1143.565, 235.5234
1144.657, 214.0742
1145.749, 363.6250
1146.841, 306.1758
1147.932, 444.7188
1149.024, 553.2578
1150.115, 694.7930
1151.206, 587.3164
1152.297, 655.8398
1153.388, 543.3633
1154.479, 795.8828
1155.569, 543.3945
1156.659, 624.9023
1157.750, 473.4102
1158.839, 510.9102
1159.929, 552.4062
1161.019, 185.9062
1162.108, 29.59766
1163.198, 99.86719
1164.287, 331.3594
1165.376, 106.8438
1166.465, 109.3242
1167.553, 200.8008
1168.642, 47.73047
1169.730, 420.7070
1170.818, 105.1484
1171.906, 146.4141
1172.994, 41.94141
1174.082, 279.3086
1175.170, 29.67188
1176.257, 184.0391
1177.344, 173.4023
1178.431, 81.23438
1179.518, 4.082031
1180.605, 188.3906
1181.691, 223.6953
1182.778, 103.9961
1183.864, 161.3047
1184.950, 100.6133
1186.036, 86.95312
1187.122, 148.2344
1188.207, 106.5469
1189.292, 79.85156
1190.378, 161.2266
1191.463, 151.6016
1192.548, 195.3242
1193.632, 196.5156
1194.717, 277.7969
1195.801, 137.2031
1196.886, 162.6133
1197.970, 43.01562
1199.054, 54.34375
1200.137, 185.8242
1201.221, 74.23047
1202.305, 263.6562
1203.388, 283.0781
1204.471, 56.49609
1205.554, 128.8984
1206.637, 206.2969
1207.719, 72.30078
1208.802, 61.06250
1209.884, 40.43359
1210.966, 24.80859
1212.048, 228.1914
1213.130, 145.5742
1214.212, 87.03516
1215.293, 68.31641
1216.374, 24.66797
1217.456, 172.0156
1218.536, 226.3633
1219.617, 192.7148
1220.698, 37.06641
1221.778, 313.9648
1222.859, 199.3164
1223.939, 423.6719
1225.019, 403.0273
1226.099, 131.3906
1227.178, 130.2461
1228.258, 122.0586
1229.337, 127.8398
1230.417, 255.1445
1231.496, 216.4492
1232.574, 209.7539
1233.653, 116.5781
1234.732, 71.70312
1235.810, 252.0234
1236.888, 72.85938
1237.966, 186.1719
1239.044, 398.4648
1240.122, 18.25781
1241.199, 129.0430
1242.277, 131.3398
1243.354, 2.359375
1244.431, 80.08203
1245.508, 170.2266
1246.585, 89.38672
1247.661, 146.7266
1248.738, 203.0430
1249.814, 15.02344
1250.890, 10.99609
1251.966, 25.66797
1253.042, 11.32422
1254.117, 52.92578
1255.193, 179.4141
1256.268, 263.7773
1257.343, 300.1484
1258.418, 135.5234
1259.493, 435.7383
1260.567, 331.0508
1261.642, 159.4258
1262.716, 373.8125
1263.790, 554.8555
1264.864, 446.2578
1265.938, 308.6719
1267.011, 266.0859
1268.085, 304.4336
1269.158, 147.9375
1270.231, 381.3711
1271.304, 396.8086
1272.377, 225.2617
1273.450, 534.7148
1274.522, 413.1758
1275.594, 347.6445
1276.666, 415.1211
1277.738, 106.6016
1278.810, 564.0898
1279.882, 328.5898
1280.953, 310.0898
1282.025, 183.6016
1283.096, 356.1250
1284.167, 614.6523
1285.238, 450.1875
1286.308, 401.7266
1287.379, 259.2734
1288.449, 699.8320
1289.519, 321.3906
1290.589, 327.9609
