##NAMES=Serandite
##RRUFFID=R050261
##IDEAL CHEMISTRY=NaMn^2+^_2_Si_3_O_8_(OH)
##LOCALITY=Mont Saint-Hilaire, Rouville County, Quebec, Canada
##OWNER=RRUFF
##SOURCE=Marcus Origlieri
##DESCRIPTION=Orange tabular single crystal associated with aegirine and microcline
##STATUS=The identification of this mineral has been confirmed by X-ray diffraction and chemical analysis
##URL=rruff.info/R050261
##MEASURED CHEMISTRY=Na_0.96_(Mn_0.92_Ca_0.06_Fe_0.01_)_2_Si_3.03_O_8_(OH)
##PIN_ID=L01217
##ORIENTATION=Laser parallel to (0 -1 -1). Fiducial mark perpendicular to laser is parallel to -a [-1 0 0]
93.48000, 0.0000000E+00
94.71400, 8.937988
95.94800, 0.5161130
97.18200, 5.444336
98.41600, 155.7896
99.64900, 155.2842
100.8830, 222.3687
102.1160, 155.3433
103.3490, 353.7744
104.5820, 631.8296
105.8150, 836.0112
107.0470, 1164.930
108.2800, 1602.753
109.5120, 2210.803
110.7440, 2085.214
111.9760, 1700.033
113.2080, 1482.328
114.4400, 1756.161
115.6710, 1877.629
116.9030, 1999.629
118.1340, 2028.032
119.3650, 2086.819
120.5960, 2181.970
121.8270, 2427.808
123.0580, 2109.432
124.2880, 1606.652
125.5190, 1309.325
126.7490, 921.4253
127.9790, 1008.930
129.2090, 1113.819
130.4390, 1308.073
131.6680, 1570.892
132.8980, 1962.756
134.1270, 2324.845
135.3560, 2751.122
136.5850, 3355.960
137.8140, 3497.551
139.0430, 3561.280
140.2710, 3153.185
141.5000, 2490.260
142.7280, 1903.504
143.9560, 1213.913
145.1840, 847.4819
146.4120, 349.2046
147.6390, 116.0791
148.8670, 31.89697
150.0940, 146.7251
151.3210, 81.40723
152.5490, 48.94629
153.7750, 30.65576
155.0020, 65.39990
156.2290, 76.29102
157.4550, 101.3286
158.6810, 209.5142
159.9080, 384.8418
161.1340, 532.3091
162.3590, 726.9126
163.5850, 962.6494
164.8110, 1132.516
166.0360, 1126.509
167.2610, 1098.592
168.4860, 936.6689
169.7110, 837.1587
170.9360, 736.9028
172.1610, 648.8433
173.3850, 532.6011
174.6100, 267.4272
175.8340, 232.3267
177.0580, 115.3018
178.2820, 1.644531
179.5050, 88.49023
180.7290, 32.29199
181.9520, 92.00732
183.1760, 69.38623
184.3990, 219.8472
185.6220, 259.3911
186.8450, 322.0190
188.0670, 403.7319
189.2900, 554.5308
190.5120, 697.4131
191.7340, 822.3809
192.9560, 1103.431
194.1780, 1217.566
195.4000, 1406.738
196.6220, 1613.922
197.8430, 1868.182
199.0640, 1988.524
200.2860, 2278.952
201.5070, 2618.461
202.7270, 2780.052
203.9480, 2813.724
205.1690, 2539.474
206.3890, 2297.300
207.6090, 1995.200
208.8290, 1764.174
210.0490, 1588.218
211.2690, 1528.321
212.4890, 1521.496
213.7080, 1392.740
214.9280, 1360.140
216.1470, 1420.748
217.3660, 1298.462
218.5850, 1536.265
219.8030, 1596.179
221.0220, 1701.191
222.2400, 1715.279
223.4590, 1913.421
224.6770, 2035.616
225.8950, 2331.865
227.1120, 1969.166
228.3300, 1841.519
229.5480, 1582.923
230.7650, 1426.376
231.9820, 1226.879
233.1990, 1043.431
234.4160, 897.0288
235.6330, 772.6733
236.8490, 675.3643
238.0660, 444.1001
239.2820, 343.8789
240.4980, 220.1060
241.7140, 117.4648
242.9300, 28.10645
244.1460, 118.9458
245.3610, 126.6543
246.5770, 103.1836
247.7920, 175.5391
249.0070, 36.75830
250.2220, 52.16650
251.4370, 84.22412
252.6510, 187.4028
253.8660, 314.7026
255.0800, 467.1006
256.2940, 523.5996
257.5080, 875.2026
258.7220, 1089.907
259.9360, 1556.693
261.1490, 1819.564
262.3630, 1760.518
263.5760, 1679.579
264.7890, 1611.723
266.0020, 1550.943
267.2150, 1663.236
268.4270, 1657.501
269.6400, 1576.780
270.8520, 1753.134
272.0640, 1746.573
273.2760, 1786.083
274.4880, 1795.669
275.7000, 1816.329
276.9120, 1815.076
278.1230, 1794.893
279.3340, 1795.777
280.5450, 1871.752
281.7560, 1962.782
282.9670, 1997.865
284.1780, 2219.983
285.3880, 2317.148
286.5980, 2497.365
287.8090, 2665.641
289.0190, 2798.962
290.2290, 2871.337
291.4380, 2784.759
292.6480, 2706.235
293.8570, 2631.756
295.0670, 2524.492
296.2760, 2495.816
297.4850, 2521.948
298.6930, 2421.316
299.9020, 2243.083
301.1110, 2185.889
302.3190, 2111.732
303.5270, 1977.615
304.7350, 1725.533
305.9430, 1504.486
307.1510, 1282.474
308.3580, 1019.494
309.5660, 947.5488
310.7730, 824.6348
311.9800, 612.7510
313.1870, 520.8984
314.3940, 502.0762
315.6010, 365.2280
316.8070, 336.3428
318.0130, 408.4819
319.2200, 367.6523
320.4260, 434.8535
321.6310, 401.0835
322.8370, 415.3433
324.0430, 429.5200
325.2480, 584.8359
326.4540, 718.2764
327.6590, 685.6475
328.8640, 710.0459
330.0680, 835.4697
331.2730, 821.9199
332.4780, 774.3950
333.6820, 832.2627
334.8860, 784.9854
336.0900, 789.9980
337.2940, 864.5869
338.4980, 705.3745
339.7010, 807.3584
340.9050, 655.1509
342.1080, 759.9795
343.3110, 635.2710
344.5140, 780.5391
345.7170, 798.8433
346.9200, 864.7046
348.1220, 1061.635
349.3240, 1103.407
350.5270, 1171.198
351.7290, 1368.005
352.9310, 1588.830
354.1320, 1560.671
355.3340, 1688.529
356.5350, 1870.402
357.7370, 1951.291
358.9380, 2249.194
360.1390, 2439.112
361.3400, 2399.043
362.5400, 2593.987
363.7410, 2803.943
364.9410, 2940.911
366.1410, 2944.890
367.3410, 2894.879
368.5410, 2708.879
369.7410, 2544.890
370.9400, 2196.909
372.1400, 1873.938
373.3390, 1512.977
374.5380, 1338.023
375.7370, 910.0801
376.9360, 888.1436
378.1350, 776.2158
379.3330, 602.2954
380.5310, 505.3828
381.7300, 396.4766
382.9280, 164.5771
384.1260, 229.6836
385.3230, 206.8140
386.5210, 107.9663
387.7180, 143.1523
388.9160, 1.983887
390.1130, 173.7817
391.3100, 68.00342
392.5060, 54.73389
393.7030, 385.3579
394.9000, 63.98291
396.0960, 142.5962
397.2920, 136.6641
398.4880, 76.95459
399.6840, 264.0977
400.8800, 291.4067
402.0750, 413.7554
403.2710, 575.9795
404.4660, 611.8213
405.6610, 874.3765
406.8560, 985.7319
408.0510, 1287.680
409.2450, 1498.502
410.4400, 1770.141
411.6340, 2138.104
412.8280, 2403.746
414.0220, 2736.885
415.2160, 3142.712
416.4100, 3349.948
417.6030, 3481.371
418.7970, 3519.243
419.9900, 3469.455
421.1830, 3270.096
422.3760, 2921.345
423.5690, 2623.208
424.7610, 2171.400
425.9540, 1836.765
427.1460, 1635.787
428.3380, 1373.329
429.5300, 1149.540
430.7220, 960.8794
431.9140, 755.7900
433.1050, 609.6875
434.2970, 522.2627
435.4880, 349.3853
436.6790, 369.3926
437.8700, 306.4170
439.0610, 314.6953
440.2510, 235.6694
441.4420, 236.2603
442.6320, 249.6675
443.8220, 149.6880
445.0120, 144.6362
446.2020, 296.7412
447.3910, 250.7451
448.5810, 374.2041
449.7700, 327.7510
450.9600, 243.4399
452.1490, 299.2998
453.3370, 446.7686
454.5260, 426.1519
455.7150, 473.5967
456.9030, 715.1855
458.0910, 793.6250
459.2800, 952.5078
460.4670, 1161.623
461.6550, 1414.115
462.8430, 1298.197
464.0300, 1247.262
465.2180, 1137.330
466.4050, 942.3599
467.5920, 722.3730
468.7790, 478.3677
469.9650, 383.3481
471.1520, 130.3105
472.3380, 192.2534
473.5250, 150.1777
474.7110, 100.0815
475.8970, 69.03467
477.0820, 113.1890
478.2680, 132.4268
479.4540, 44.76025
480.6390, 3.866699
481.8240, 64.53125
483.0090, 18.03467
484.1940, 17.57666
485.3780, 49.90479
486.5630, 32.41699
487.7470, 2.4413999E-02
488.9320, 39.56299
490.1160, 31.80078
491.3000, 133.1812
492.4830, 370.5586
493.6670, 254.9370
494.8500, 419.2944
496.0340, 340.6406
497.2170, 439.9819
498.4000, 295.3149
499.5820, 308.6353
500.7650, 416.9316
501.9480, 254.2026
503.1300, 387.4473
504.3120, 367.6880
505.4940, 377.9087
506.6760, 464.1250
507.8580, 422.3252
509.0390, 729.5254
510.2210, 648.6973
511.4020, 633.8779
512.5830, 742.0479
513.7640, 492.2085
514.9450, 495.3403
516.1250, 319.4507
517.3060, 323.5400
518.4860, 266.6118
519.6660, 201.6636
520.8460, 255.7192
522.0260, 176.7441
523.2060, 247.7388
524.3850, 257.7104
525.5650, 202.6504
526.7440, 183.5591
527.9230, 212.4355
529.1020, 168.2808
530.2810, 236.0933
531.4590, 120.8726
532.6380, 57.64746
533.8160, 148.3955
534.9940, 47.13330
536.1720, 103.8398
537.3500, 112.5103
538.5270, 25.14258
539.7050, 20.72363
540.8820, 11.74854
542.0590, 29.29004
543.2360, 28.91162
544.4130, 70.38623
545.5900, 14.64111
546.7660, 22.83789
547.9430, 89.02246
549.1190, 1.997070
550.2950, 19.95898
551.4710, 25.85596
552.6470, 127.3042
553.8220, 73.60156
554.9980, 44.99219
556.1730, 11.46777
557.3480, 43.99463
558.5230, 13.40234
559.6980, 5.745117
560.8730, 46.98242
562.0470, 11.19238
563.2220, 1.298828
564.3960, 87.66797
565.5700, 52.24414
566.7440, 47.10059
567.9170, 118.9004
569.0910, 208.6543
570.2640, 54.36816
571.4380, 22.02490
572.6110, 134.6152
573.7840, 34.16064
574.9570, 84.64404
576.1290, 29.07520
577.3020, 124.4424
578.4740, 22.23730
579.6460, 5.992188
580.8180, 69.14502
581.9900, 199.2432
583.1620, 99.29834
584.3330, 127.3013
585.5040, 134.2583
586.6760, 120.1685
587.8470, 128.0298
589.0180, 220.8428
590.1880, 197.6128
591.3590, 161.3398
592.5290, 140.0195
593.7000, 208.6538
594.8700, 226.2437
596.0400, 208.7891
597.2090, 171.2915
598.3790, 94.74854
599.5490, 132.1523
600.7180, 299.5063
601.8870, 181.8203
603.0560, 287.0874
604.2250, 305.3140
605.3940, 272.4971
606.5620, 294.6387
607.7300, 295.7383
608.8990, 378.7959
610.0670, 436.8115
611.2350, 391.8340
612.4020, 458.8145
613.5700, 374.8193
614.7370, 506.6660
615.9050, 480.4717
617.0720, 531.7588
618.2390, 584.4424
619.4060, 480.6572
620.5720, 575.2578
621.7390, 662.8262
622.9050, 653.6416
624.0710, 759.0000
625.2370, 876.4941
626.4030, 1225.869
627.5690, 1315.930
628.7340, 1374.140
629.9000, 1046.898
631.0650, 1092.605
632.2300, 1134.787
633.3950, 1342.287
634.5600, 1365.095
635.7240, 1373.229
636.8890, 1510.694
638.0530, 1622.294
639.2170, 1809.092
640.3810, 1895.363
641.5450, 2141.311
642.7080, 2241.260
643.8720, 2527.322
645.0350, 2661.180
646.1980, 3065.097
647.3610, 3294.147
648.5240, 3710.926
649.6870, 4140.520
650.8490, 4642.610
652.0120, 5314.771
653.1740, 6067.588
654.3360, 6819.008
655.4980, 8173.848
656.6600, 9445.159
657.8210, 11389.90
658.9830, 13469.01
660.1440, 16171.10
661.3050, 19230.25
662.4660, 23179.36
663.6270, 27622.05
664.7870, 33043.07
665.9480, 38331.05
667.1080, 43798.00
668.2680, 47864.92
669.4280, 49977.75
670.5880, 48671.55
671.7480, 44465.08
672.9070, 38082.05
674.0670, 31174.58
675.2260, 25273.01
676.3850, 20121.25
677.5440, 15881.47
678.7030, 13067.20
679.8610, 10898.68
681.0200, 9117.281
682.1780, 7573.680
683.3360, 6591.009
684.4940, 5769.488
685.6520, 5172.258
686.8090, 4748.281
687.9670, 4232.474
689.1240, 3919.037
690.2810, 3611.693
691.4380, 3394.502
692.5950, 3405.948
693.7520, 3313.684
694.9080, 3369.890
696.0650, 3709.370
697.2210, 3892.408
698.3770, 4202.224
699.5330, 4566.559
700.6880, 5089.516
701.8440, 5456.010
702.9990, 5957.857
704.1550, 6095.057
705.3100, 6284.891
706.4650, 5882.518
707.6190, 5439.449
708.7740, 4765.824
709.9290, 4210.494
711.0830, 3618.998
712.2370, 3232.895
713.3910, 3073.768
714.5450, 2728.924
715.6980, 2592.498
716.8520, 2474.146
718.0050, 2523.742
719.1580, 2459.050
720.3110, 2643.646
721.4640, 2509.600
722.6170, 2348.706
723.7700, 2138.159
724.9220, 1759.647
726.0740, 1549.939
727.2260, 1208.295
728.3780, 1017.155
729.5300, 972.8887
730.6810, 728.4424
731.8330, 742.7852
732.9840, 513.4814
734.1350, 580.2236
735.2860, 510.8652
736.4370, 444.3242
737.5880, 389.8926
738.7380, 326.9785
739.8880, 357.7939
741.0390, 353.1953
742.1890, 233.9668
743.3380, 207.7168
744.4880, 215.4248
745.6380, 307.1328
746.7870, 182.8193
747.9360, 311.4873
749.0850, 98.13477
750.2340, 95.76172
751.3830, 77.36816
752.5310, 172.9541
753.6800, 188.5215
754.8280, 52.92969
755.9760, 56.57715
757.1240, 110.0967
758.2720, 9.364258
759.4190, 48.15234
760.5670, 69.34766
761.7140, 94.10645
762.8610, 34.54395
764.0080, 71.03418
765.1550, 18.33789
766.3020, 9.706055
767.4480, 6.055664
768.5950, 139.6016
769.7410, 66.35547
770.8870, 73.16895
772.0330, 0.9560550
773.1780, 38.93945
774.3240, 61.87793
775.4690, 49.86719
776.6140, 38.90234
777.7590, 3.023438
778.9040, 29.93262
780.0490, 16.82910
781.1940, 82.28418
782.3380, 15.45605
783.4820, 83.65039
784.6260, 39.90137
785.7700, 101.1855
786.9140, 43.46777
788.0580, 141.8887
789.2010, 65.32812
790.3450, 77.80762
791.4880, 104.6641
792.6310, 31.87012
793.7730, 42.42676
794.9160, 52.00977
796.0590, 42.62207
797.2010, 142.2588
798.3430, 95.02930
799.4850, 36.31250
800.6270, 42.40820
801.7690, 38.85059
802.9100, 37.10645
804.0520, 117.3584
805.1930, 0.6083980
806.3340, 73.85449
807.4750, 104.0986
808.6160, 129.3418
809.7560, 169.5830
810.8970, 120.8281
812.0370, 57.92578
813.1770, 92.30566
814.3170, 51.53809
815.4570, 53.77246
816.5960, 256.0156
817.7360, 101.2695
818.8750, 257.5410
820.0140, 137.8379
821.1530, 2.841797
822.2920, 197.4844
823.4310, 268.8232
824.5690, 274.1768
825.7070, 212.5713
826.8460, 233.9863
827.9840, 101.4170
829.1220, 366.8623
830.2590, 248.3613
831.3970, 266.9014
832.5340, 311.4561
833.6710, 180.0352
834.8080, 189.6289
835.9450, 239.2412
837.0820, 269.8770
838.2190, 294.5488
839.3550, 259.2432
840.4910, 391.9619
841.6270, 373.7305
842.7630, 328.5127
843.8990, 438.3135
845.0350, 370.1250
846.1700, 535.9453
847.3060, 381.7832
848.4410, 510.6445
849.5760, 470.5176
850.7100, 503.4111
851.8450, 553.3223
852.9800, 568.2568
854.1140, 476.2041
855.2480, 558.1885
856.3820, 568.2012
857.5160, 530.2314
858.6500, 500.2764
859.7830, 636.3369
860.9170, 717.4160
862.0500, 538.5107
863.1830, 645.6211
864.3160, 673.7471
865.4480, 618.9062
866.5810, 709.0957
867.7130, 590.3066
868.8460, 533.5352
869.9780, 634.7773
871.1100, 699.0371
872.2410, 538.3135
873.3730, 710.6064
874.5050, 678.9502
875.6360, 675.3105
876.7670, 678.6895
877.8980, 646.1240
879.0290, 701.5830
880.1590, 628.0576
881.2900, 658.5488
882.4200, 806.1133
883.5500, 802.6934
884.6800, 841.3008
885.8100, 890.8760
886.9400, 988.4678
888.0690, 1093.011
889.1990, 1136.688
890.3280, 1400.380
891.4570, 1580.221
892.5860, 1836.853
893.7140, 2357.703
894.8430, 2671.592
895.9710, 3174.316
897.1000, 3429.604
898.2280, 4079.563
899.3560, 4345.355
900.4830, 4424.820
901.6110, 4274.645
902.7380, 4021.283
903.8660, 3603.826
904.9930, 3268.348
906.1200, 2831.553
907.2460, 2632.443
908.3730, 2132.023
909.5000, 1813.276
910.6260, 1805.179
911.7520, 1702.928
912.8780, 1657.459
914.0040, 1559.505
915.1290, 1432.856
916.2550, 1379.190
917.3800, 1473.391
918.5050, 1367.797
919.6300, 1198.164
920.7550, 1270.392
921.8800, 1158.885
923.0040, 1256.546
924.1290, 1125.738
925.2530, 1101.861
926.3770, 1073.313
927.5010, 1114.147
928.6250, 1238.544
929.7480, 1054.467
930.8720, 1049.943
931.9950, 1049.036
933.1180, 979.1582
934.2410, 1007.233
935.3640, 954.3350
936.4860, 859.8545
937.6090, 881.0146
938.7310, 931.2021
939.8530, 1000.448
940.9750, 1159.686
942.0970, 1084.987
943.2180, 1010.316
944.3400, 1010.676
945.4610, 1103.064
946.5820, 1285.482
947.7030, 1335.095
948.8240, 1431.571
949.9450, 1470.076
951.0650, 1721.613
952.1860, 1791.178
953.3060, 1927.773
954.4260, 1943.396
955.5460, 2236.045
956.6650, 2644.666
957.7850, 2732.394
958.9040, 3061.165
960.0230, 3392.974
961.1420, 3735.812
962.2610, 3964.678
963.3800, 4346.569
964.4990, 4730.490
965.6170, 5323.438
966.7350, 5557.411
967.8530, 6171.414
968.9710, 6828.443
970.0890, 7119.500
971.2070, 7430.580
972.3240, 7832.689
973.4410, 8311.822
974.5580, 8605.980
975.6750, 8798.163
976.7920, 8874.374
977.9090, 8775.606
979.0250, 8861.862
980.1410, 8647.141
981.2580, 8315.443
982.3740, 8042.773
983.4890, 7528.125
984.6050, 6880.502
985.7200, 6509.172
986.8360, 6230.594
987.9510, 5885.125
989.0660, 5474.598
990.1810, 5230.093
991.2950, 5303.615
992.4100, 5202.156
993.5240, 5241.725
994.6390, 5546.826
995.7530, 5661.438
996.8660, 5813.070
997.9800, 6142.725
999.0940, 6261.596
1000.207, 6882.729
1001.320, 7108.434
1002.433, 6902.240
1003.546, 6843.000
1004.659, 6764.229
1005.772, 6719.083
1006.884, 6793.052
1007.996, 7068.527
1009.108, 7422.461
1010.220, 8037.602
1011.332, 9184.653
1012.444, 10016.14
1013.555, 11307.19
1014.666, 12961.51
1015.777, 15071.25
1016.888, 17081.24
1017.999, 19224.27
1019.110, 21048.43
1020.220, 22397.46
1021.331, 23130.93
1022.441, 23260.02
1023.551, 21814.09
1024.661, 20248.71
1025.770, 17987.05
1026.880, 15710.26
1027.989, 13711.59
1029.098, 11647.42
1030.207, 10032.39
1031.316, 8659.768
1032.425, 7372.370
1033.533, 6618.356
1034.642, 5716.824
1035.750, 5051.620
1036.858, 4404.150
1037.966, 4273.529
1039.073, 3521.098
1040.181, 3372.559
1041.288, 3003.734
1042.396, 2501.623
1043.503, 2588.217
1044.610, 2404.764
1045.716, 2131.704
1046.823, 1927.920
1047.929, 1834.810
1049.036, 1783.795
1050.142, 1861.747
1051.248, 1572.547
1052.353, 1608.966
1053.459, 1456.046
1054.564, 1420.732
1055.670, 1510.925
1056.775, 1231.255
1057.880, 1199.831
1058.985, 1192.927
1060.089, 1266.425
1061.194, 1089.616
1062.298, 1003.366
1063.402, 1148.404
1064.506, 1005.820
1065.610, 949.2207
1066.713, 938.9727
1067.817, 952.8252
1068.920, 856.8359
1070.023, 920.1377
1071.126, 764.4873
1072.229, 795.0752
1073.332, 814.1465
1074.435, 706.9961
1075.537, 639.9844
1076.639, 674.4287
1077.741, 582.7861
1078.843, 618.8721
1079.945, 620.8740
1081.046, 646.2812
1082.148, 548.7490
1083.249, 552.4609
1084.350, 614.2793
1085.451, 636.9580
1086.551, 645.7637
1087.652, 544.5703
1088.752, 358.1387
1089.853, 475.8105
1090.953, 481.2617
1092.053, 477.2568
1093.152, 436.3887
1094.252, 403.9355
1095.351, 384.6807
1096.451, 226.0332
1097.550, 242.7725
1098.649, 302.1006
1099.748, 186.9561
1100.846, 298.2939
1101.945, 302.2900
1103.043, 277.9629
1104.141, 182.0439
1105.239, 192.8145
1106.337, 128.7158
1107.434, 41.45801
1108.532, 264.0693
1109.629, 200.6689
1110.726, 107.2559
1111.823, 239.8291
1112.920, 261.3887
1114.017, 162.2900
1115.113, 90.82129
1116.210, 237.8086
1117.306, 5.655273
1118.402, 198.8701
1119.498, 20.60742
1120.593, 66.40918
1121.689, 166.5332
1122.784, 110.2070
1123.879, 109.6133
1124.974, 216.6396
1126.069, 10.62207
1127.164, 84.72754
1128.259, 198.0605
1129.353, 72.37695
1130.447, 76.02441
1131.541, 62.78320
1132.635, 19.59180
1133.729, 60.56934
1134.822, 160.7129
1135.916, 2.162109
1137.009, 71.93750
1138.102, 52.01855
1139.195, 105.9219
1140.288, 75.05957
1141.380, 33.25879
1142.473, 142.8018
1143.565, 20.96387
1144.657, 76.83789
1145.749, 16.90137
1146.841, 196.3418
1147.932, 178.2822
1149.024, 23.11426
1150.115, 80.44727
1151.206, 120.9854
1152.297, 18.50195
1153.388, 115.9932
1154.479, 136.4619
1155.569, 57.09180
1156.659, 146.7100
1157.750, 127.4385
1158.839, 89.72949
1159.929, 8.873047
1161.019, 7.289063
1162.108, 77.55078
1163.198, 0.5507810
1164.287, 21.58887
1165.376, 75.67676
1166.465, 31.15625
1167.553, 10.98926
1168.642, 140.7705
1169.730, 109.5059
1170.818, 69.78418
1171.906, 32.15430
1172.994, 42.58203
1174.082, 134.9229
1175.170, 154.4014
1176.257, 67.85254
1177.344, 4.273438
1178.431, 90.65137
1179.518, 70.99902
1180.605, 82.31543
1181.691, 33.39648
1182.778, 106.1748
1183.864, 20.05859
1184.950, 3.000977
1186.036, 61.01074
1187.122, 133.0117
1188.207, 40.15625
1189.292, 103.6299
1190.378, 42.38379
1191.463, 89.10156
1192.548, 8.212891
1193.632, 133.4141
1194.717, 58.01172
1195.801, 64.42676
1196.886, 84.95312
1197.970, 210.4229
1199.054, 158.7676
1200.137, 92.08203
1201.221, 81.36133
1202.305, 64.39355
1203.388, 148.7617
1204.471, 203.8857
1205.554, 168.9785
1206.637, 70.04004
1207.719, 81.06445
1208.802, 146.0547
1209.884, 166.0117
1210.966, 76.93652
1212.048, 69.82715
1213.130, 50.68066
1214.212, 250.4941
1215.293, 53.27734
1216.374, 223.0215
1217.456, 211.7344
1218.536, 61.41797
1219.617, 29.93848
1220.698, 10.36719
1221.778, 14.13965
1222.859, 128.5928
1223.939, 63.01367
1225.019, 218.3955
1226.099, 81.74707
1227.178, 216.0605
1228.258, 83.34375
1229.337, 184.5908
1230.417, 80.80469
1231.496, 146.9824
1232.574, 225.1260
1233.653, 122.2393
1234.732, 194.3174
1235.810, 160.3643
1236.888, 196.3770
1237.966, 299.3574
1239.044, 357.3086
1240.122, 234.2275
1241.199, 312.1162
1242.277, 275.9727
1243.354, 141.7998
1244.431, 293.5908
1245.508, 115.3525
1246.585, 220.0801
1247.661, 218.5078
1248.738, 164.1719
1249.814, 145.7207
1250.890, 83.31934
1251.966, 168.8818
1253.042, 288.4131
1254.117, 89.91309
1255.193, 142.4033
1256.268, 326.3496
1257.343, 326.7773
1258.418, 230.1748
1259.493, 158.5420
1260.567, 227.6855
1261.642, 282.5576
1262.716, 379.8730
1263.790, 296.0771
1264.864, 344.3408
1265.938, 407.1250
1267.011, 326.2744
1268.085, 293.2998
1269.158, 355.8086
1270.231, 161.8516
