##NAMES=Serandite
##RRUFFID=R050261
##IDEAL CHEMISTRY=NaMn^2+^_2_Si_3_O_8_(OH)
##LOCALITY=Mont Saint-Hilaire, Rouville County, Quebec, Canada
##OWNER=RRUFF
##SOURCE=Marcus Origlieri
##DESCRIPTION=Orange tabular single crystal associated with aegirine and microcline
##STATUS=The identification of this mineral has been confirmed by X-ray diffraction and chemical analysis
##URL=rruff.info/R050261
##MEASURED CHEMISTRY=Na_0.96_(Mn_0.92_Ca_0.06_Fe_0.01_)_2_Si_3.03_O_8_(OH)
##PIN_ID=L01850
##ORIENTATION=Laser parallel to -b* (0 -1 0). Fiducial mark perpendicular to laser is parallel to c [0 0 1]
93.48000, 0.0000000E+00
94.71400, 0.7739260
95.94800, 30.24658
97.18200, 314.7979
98.41600, 546.1294
99.64900, 914.9023
100.8830, 1181.164
102.1160, 1508.586
103.3490, 2047.810
104.5820, 2368.644
105.8150, 2590.508
107.0470, 2613.976
108.2800, 2659.482
109.5120, 2593.450
110.7440, 2902.133
111.9760, 2322.409
113.2080, 2045.943
114.4400, 1913.504
115.6710, 2106.009
116.9030, 1920.476
118.1340, 1604.028
119.3650, 1184.874
120.5960, 782.6807
121.8270, 779.8496
123.0580, 667.5630
124.2880, 675.1040
125.5190, 650.5264
126.7490, 835.8760
127.9790, 1125.188
129.2090, 1441.493
130.4390, 1887.819
131.6680, 2245.206
132.8980, 2352.689
134.1270, 2383.905
135.3560, 2343.028
136.5850, 2298.800
137.8140, 2105.114
139.0430, 1869.530
140.2710, 1548.041
141.5000, 1039.964
142.7280, 706.2773
143.9560, 431.9580
145.1840, 230.9854
146.4120, 25.65967
147.6390, 64.00781
148.8670, 31.02637
150.0940, 187.2236
151.3210, 349.7397
152.5490, 502.4980
153.7750, 739.4766
155.0020, 951.6660
156.2290, 1054.061
157.4550, 1157.654
158.6810, 1158.438
159.9080, 1170.409
161.1340, 1137.559
162.3590, 1041.285
163.5850, 960.5288
164.8110, 764.0371
166.0360, 714.8574
167.2610, 514.9971
168.4860, 396.4727
169.7110, 306.3110
170.9360, 266.3999
172.1610, 33.80664
173.3850, 124.6270
174.6100, 136.9639
175.8340, 169.2090
177.0580, 131.3589
178.2820, 225.4131
179.5050, 149.3735
180.7290, 219.2422
181.9520, 270.0225
183.1760, 91.71631
184.3990, 45.67627
185.6220, 98.15430
186.8450, 390.7202
188.0670, 430.3667
189.2900, 597.0801
190.5120, 991.8535
191.7340, 1056.687
192.9560, 1428.581
194.1780, 1569.508
195.4000, 1724.466
196.6220, 1743.489
197.8430, 1807.574
199.0640, 1704.722
200.2860, 1869.932
201.5070, 1766.204
202.7270, 1768.537
203.9480, 1793.929
205.1690, 1454.381
206.3890, 1291.892
207.6090, 1152.360
208.8290, 1117.733
210.0490, 1238.983
211.2690, 1258.081
212.4890, 1458.131
213.7080, 1548.249
214.9280, 1511.433
216.1470, 1810.680
217.3660, 1847.991
218.5850, 1855.363
219.8030, 1994.795
221.0220, 2012.286
222.2400, 1880.834
223.4590, 1847.438
224.6770, 1756.098
225.8950, 1615.810
227.1120, 1439.575
228.3300, 1169.391
229.5480, 1100.257
230.7650, 861.1729
231.9820, 778.1357
233.1990, 612.1465
234.4160, 504.2026
235.6330, 373.3042
236.8490, 268.4492
238.0660, 230.7856
239.2820, 220.0400
240.4980, 293.3535
241.7140, 304.9604
242.9300, 336.0679
244.1460, 431.2915
245.3610, 482.1934
246.5770, 576.6499
247.7920, 780.1426
249.0070, 816.0049
250.2220, 1006.783
251.4370, 1225.913
252.6510, 1368.875
253.8660, 1531.162
255.0800, 1752.684
256.2940, 1805.251
257.5080, 1905.923
258.7220, 2032.686
259.9360, 2405.538
261.1490, 2554.480
262.3630, 2431.451
263.5760, 2455.455
264.7890, 2302.479
266.0020, 2424.532
267.2150, 2541.562
268.4270, 2388.585
269.6400, 2562.647
270.8520, 2331.759
272.0640, 2462.919
273.2760, 2492.141
274.4880, 2395.404
275.7000, 2546.733
276.9120, 2616.264
278.1230, 2739.616
279.3340, 2897.121
280.5450, 3037.478
281.7560, 3177.686
282.9670, 3438.684
284.1780, 3416.411
285.3880, 3572.180
286.5980, 3515.012
287.8090, 3305.907
289.0190, 3428.852
290.2290, 3266.847
291.4380, 2991.888
292.6480, 2888.997
293.8570, 2822.131
295.0670, 2666.199
296.2760, 2478.420
297.4850, 2247.684
298.6930, 1962.995
299.9020, 1852.343
301.1110, 1561.727
302.3190, 1530.144
303.5270, 1248.595
304.7350, 1052.080
305.9430, 960.5957
307.1510, 826.1411
308.3580, 594.7178
309.5660, 540.3228
310.7730, 451.9575
311.9800, 295.6172
313.1870, 242.3013
314.3940, 243.0078
315.6010, 222.7339
316.8070, 336.4800
318.0130, 224.2437
319.2200, 365.4727
320.4260, 388.1528
321.6310, 558.3652
322.8370, 726.3345
324.0430, 738.8193
325.2480, 800.9849
326.4540, 869.7949
327.6590, 972.0615
328.8640, 968.8828
330.0680, 1074.792
331.2730, 1021.713
332.4780, 989.6460
333.6820, 955.5903
334.8860, 962.5459
336.0900, 932.5122
337.2940, 860.4888
338.4980, 847.4756
339.7010, 718.4722
340.9050, 591.4785
342.1080, 609.4937
343.3110, 533.5181
344.5140, 620.5503
345.7170, 716.5908
346.9200, 776.6392
348.1220, 845.6938
349.3240, 867.7559
350.5270, 922.8237
351.7290, 1110.898
352.9310, 1288.979
354.1320, 1302.067
355.3340, 1639.162
356.5350, 1822.265
357.7370, 1908.376
358.9380, 2130.495
360.1390, 2303.622
361.3400, 2412.756
362.5400, 2537.896
363.7410, 2485.042
364.9410, 2470.194
366.1410, 2324.833
367.3410, 2026.515
368.5410, 1856.683
369.7410, 1573.855
370.9400, 1197.031
372.1400, 946.2109
373.3390, 686.3936
374.5380, 479.5796
375.7370, 264.7681
376.9360, 175.9590
378.1350, 111.1514
379.3330, 93.34570
380.5310, 38.54150
381.7300, 13.73633
382.9280, 84.07471
384.1260, 138.9468
385.3230, 147.7749
386.5210, 163.8735
387.7180, 132.9536
388.9160, 118.1045
390.1130, 51.32129
391.3100, 45.57373
392.5060, 115.8013
393.7030, 110.0503
394.9000, 49.01758
396.0960, 20.54492
397.2920, 142.3364
398.4880, 162.6421
399.6840, 260.5366
400.8800, 410.6782
402.0750, 523.9766
403.2710, 737.8003
404.4660, 982.7568
405.6610, 1164.095
406.8560, 1460.061
408.0510, 1708.896
409.2450, 1951.117
410.4400, 2164.765
411.6340, 2346.561
412.8280, 2659.881
414.0220, 2602.607
415.2160, 2774.957
416.4100, 2791.134
417.6030, 2697.398
418.7970, 2720.408
419.9900, 2433.823
421.1830, 2333.361
422.3760, 2006.452
423.5690, 1749.523
424.7610, 1550.626
425.9540, 1261.142
427.1460, 1226.893
428.3380, 976.6216
429.5300, 790.2124
430.7220, 592.4829
431.9140, 585.6455
433.1050, 541.8115
434.2970, 432.6489
435.4880, 433.4551
436.6790, 340.4141
437.8700, 396.4829
439.0610, 354.6333
440.2510, 268.0342
441.4420, 252.2373
442.6320, 294.1943
443.8220, 195.7681
445.0120, 142.3638
446.2020, 202.3774
447.3910, 177.9917
448.5810, 170.7725
449.7700, 307.1772
450.9600, 344.0864
452.1490, 278.7021
453.3370, 362.6396
454.5260, 369.8438
455.7150, 377.9912
456.9030, 362.1938
458.0910, 430.2847
459.2800, 556.4468
460.4670, 458.4336
461.6550, 590.3599
462.8430, 556.2896
464.0300, 465.2256
465.2180, 405.1748
466.4050, 406.1299
467.5920, 354.3770
468.7790, 328.1113
469.9650, 307.1050
471.1520, 286.1489
472.3380, 237.1895
473.5250, 248.2075
474.7110, 191.2026
475.8970, 185.1758
477.0820, 257.1255
478.2680, 392.0752
479.4540, 291.0029
480.6390, 434.9199
481.8240, 331.8301
483.0090, 228.7163
484.1940, 397.5771
485.3780, 437.4136
486.5630, 398.2256
487.7470, 689.0122
488.9320, 504.7734
490.1160, 612.5195
491.3000, 654.2402
492.4830, 606.9419
493.6670, 683.6479
494.8500, 561.3589
496.0340, 481.0791
497.2170, 581.8057
498.4000, 648.5303
499.5820, 566.2549
500.7650, 658.9556
501.9480, 681.6436
503.1300, 712.3032
504.3120, 742.9492
505.4940, 688.5679
506.6760, 877.1592
507.8580, 941.7456
509.0390, 929.3042
510.2210, 938.8325
511.4020, 805.3315
512.5830, 777.8022
513.7640, 732.2461
514.9450, 732.6597
516.1250, 739.0435
517.3060, 727.4023
518.4860, 687.7305
519.6660, 731.0273
520.8460, 618.3086
522.0260, 686.5811
523.2060, 742.6753
524.3850, 696.0234
525.5650, 587.0718
526.7440, 520.8369
527.9230, 454.0190
529.1020, 482.1982
530.2810, 399.1274
531.4590, 334.8784
532.6380, 279.4731
533.8160, 188.3501
534.9940, 170.5791
536.1720, 115.1641
537.3500, 85.03613
538.5270, 144.2036
539.7050, 14.09766
540.8820, 154.9385
542.0590, 12.75195
543.2360, 54.50928
544.4130, 31.22314
545.5900, 77.11328
546.7660, 102.4463
547.9430, 13.03076
549.1190, 148.4224
550.2950, 56.84082
551.4710, 86.21436
552.6470, 9.453613
553.8220, 53.80957
554.9980, 7.975098
556.1730, 1.828125
557.3480, 46.74756
558.5230, 21.24219
559.6980, 59.82227
560.8730, 129.9863
562.0470, 52.28418
563.2220, 125.3247
564.3960, 26.89551
565.5700, 29.58789
566.7440, 94.84473
567.9170, 37.23633
569.0910, 119.4258
570.2640, 11.78271
571.4380, 19.92969
572.6110, 116.0186
573.7840, 115.0684
574.9570, 141.0781
576.1290, 75.04883
577.3020, 129.9756
578.4740, 61.86230
579.6460, 113.7031
580.8180, 96.50098
581.9900, 19.25684
583.1620, 125.9531
584.3330, 163.6113
585.5040, 159.2324
586.6760, 117.8164
587.8470, 153.3594
589.0180, 133.8193
590.1880, 175.3350
591.3590, 120.7676
592.5290, 145.1602
593.7000, 115.5146
594.8700, 206.8291
596.0400, 216.1074
597.2090, 198.3525
598.3790, 220.5625
599.5490, 198.7393
600.7180, 235.8809
601.8870, 253.9883
603.0560, 336.0635
604.2250, 353.1885
605.3940, 505.1514
606.5620, 392.3145
607.7300, 405.2559
608.8990, 359.2295
610.0670, 494.4863
611.2350, 310.3262
612.4020, 515.3320
613.5700, 509.1719
614.7370, 583.0088
615.9050, 532.8418
617.0720, 559.6543
618.2390, 650.5752
619.4060, 621.5674
620.5720, 733.8896
621.7390, 602.3008
622.9050, 703.7949
624.0710, 774.2646
625.2370, 888.8262
626.4030, 905.3096
627.5690, 973.6836
628.7340, 1015.069
629.9000, 1170.457
631.0650, 1250.889
632.2300, 1359.941
633.3950, 1513.698
634.5600, 1592.039
635.7240, 1758.385
636.8890, 1864.984
638.0530, 2037.743
639.2170, 2214.677
640.3810, 2371.452
641.5450, 2628.580
642.7080, 2892.486
643.8720, 3191.330
645.0350, 3680.258
646.1980, 4101.161
647.3610, 4379.285
648.5240, 5058.042
649.6870, 5774.714
650.8490, 6573.349
652.0120, 7683.948
653.1740, 9048.147
654.3360, 10541.67
655.4980, 12937.16
656.6600, 15747.50
657.8210, 19136.92
658.9830, 23814.29
660.1440, 28476.75
661.3050, 33968.07
662.4660, 38597.34
663.6270, 42558.73
664.7870, 45351.70
665.9480, 46545.88
667.1080, 45963.08
668.2680, 42942.00
669.4280, 39196.21
670.5880, 34178.31
671.7480, 28696.98
672.9070, 23625.08
674.0670, 19188.23
675.2260, 15438.52
676.3850, 12639.22
677.5440, 10350.43
678.7030, 8701.329
679.8610, 7450.721
681.0200, 6459.320
682.1780, 5559.502
683.3360, 4998.847
684.4940, 4493.527
685.6520, 4099.035
686.8090, 3746.122
687.9670, 3481.541
689.1240, 3300.053
690.2810, 3280.139
691.4380, 3279.759
692.5950, 3367.190
693.7520, 3345.059
694.9080, 3778.480
696.0650, 3881.239
697.2210, 4192.144
698.3770, 4297.906
699.5330, 4731.887
700.6880, 4857.420
701.8440, 4834.791
702.9990, 4743.566
704.1550, 4444.322
705.3100, 4076.008
706.4650, 3704.240
707.6190, 3284.199
708.7740, 3037.146
709.9290, 2655.191
711.0830, 2280.521
712.2370, 2082.920
713.3910, 1890.279
714.5450, 1950.929
715.6980, 1813.571
716.8520, 1940.033
718.0050, 1822.348
719.1580, 1676.553
720.3110, 1643.470
721.4640, 1389.545
722.6170, 1520.827
723.7700, 1122.455
724.9220, 1051.022
726.0740, 795.1328
727.2260, 756.6035
728.3780, 598.8691
729.5300, 600.4697
730.6810, 488.5283
731.8330, 387.8408
732.9840, 306.7920
734.1350, 287.4385
735.2860, 338.1025
736.4370, 364.6719
737.5880, 312.3135
738.7380, 295.9199
739.8880, 308.5088
741.0390, 181.1973
742.1890, 150.8662
743.3380, 102.5166
744.4880, 64.58203
745.6380, 164.7607
746.7870, 89.35547
747.9360, 33.93262
749.0850, 152.4883
750.2340, 51.02734
751.3830, 80.54883
752.5310, 71.05273
753.6800, 61.53906
754.8280, 56.14551
755.9760, 60.53711
757.1240, 20.85352
758.2720, 21.77539
759.4190, 40.44629
760.5670, 79.83398
761.7140, 75.10059
762.8610, 42.35156
764.0080, 50.58789
765.1550, 65.80957
766.3020, 52.72266
767.4480, 17.78613
768.5950, 20.37793
769.7410, 8.474609
770.8870, 98.35254
772.0330, 102.3027
773.1780, 119.7959
774.3240, 109.4385
775.4690, 81.62402
776.6140, 88.87109
777.7590, 2.183594
778.9040, 44.51270
780.0490, 34.11914
781.1940, 43.25879
782.3380, 7.325195
783.4820, 5.875000
784.6260, 84.53809
785.7700, 11.96973
786.9140, 30.46973
788.0580, 32.81152
789.2010, 57.97852
790.3450, 11.07520
791.4880, 34.38965
792.6310, 18.84961
793.7730, 18.69727
794.9160, 46.74121
796.0590, 11.17578
797.2010, 60.39551
798.3430, 92.00000
799.4850, 23.34863
800.6270, 29.30859
801.7690, 90.98145
802.9100, 61.30078
804.0520, 48.57910
805.1930, 22.14453
806.3340, 36.12207
807.4750, 48.61328
808.6160, 77.37109
809.7560, 69.16113
810.8970, 32.98047
812.0370, 76.81348
813.1770, 32.32520
814.3170, 37.46387
815.4570, 129.6055
816.5960, 0.2519530
817.7360, 28.09766
818.8750, 49.04883
820.0140, 46.20801
821.1530, 89.37500
822.2920, 59.55371
823.4310, 57.76953
824.5690, 14.99023
825.7070, 222.2344
826.8460, 143.4805
827.9840, 105.7373
829.1220, 132.0000
830.2590, 21.28711
831.3970, 45.58398
832.5340, 50.90430
833.6710, 2.515625
834.8080, 130.6191
835.9450, 32.01074
837.0820, 31.43945
838.2190, 194.9238
839.3550, 289.4453
840.4910, 82.97363
841.6270, 220.5195
842.7630, 99.09766
843.8990, 219.6865
845.0350, 151.2920
846.1700, 199.9541
847.3060, 150.6377
848.4410, 159.3398
849.5760, 241.0537
850.7100, 345.7793
851.8450, 358.9053
852.9800, 240.2666
854.1140, 399.0293
855.2480, 265.8076
856.3820, 197.5996
857.5160, 224.4053
858.6500, 248.2334
859.7830, 315.0742
860.9170, 365.9268
862.0500, 369.5215
863.1830, 391.6699
864.3160, 362.5605
865.4480, 396.4648
866.5810, 363.3809
867.7130, 223.3164
868.8460, 457.2666
869.9780, 307.2314
871.1100, 382.2100
872.2410, 252.2002
873.3730, 303.2080
874.5050, 442.2578
875.6360, 393.3223
876.7670, 536.3994
877.8980, 481.5078
879.0290, 467.6309
880.1590, 459.7305
881.2900, 623.7100
882.4200, 569.9082
883.5500, 771.0527
884.6800, 685.9170
885.8100, 908.1797
886.9400, 1165.265
888.0690, 1425.496
889.1990, 1738.712
890.3280, 2070.913
891.4570, 2515.113
892.5860, 2956.188
893.7140, 3408.177
894.8430, 3840.816
895.9710, 4335.352
897.1000, 4276.781
898.2280, 4358.234
899.3560, 4341.596
900.4830, 3903.051
901.6110, 3640.610
902.7380, 3235.142
903.8660, 2868.656
904.9930, 2471.107
906.1200, 2219.348
907.2460, 1889.018
908.3730, 1803.513
909.5000, 1686.010
910.6260, 1562.250
911.7520, 1491.318
912.8780, 1391.032
914.0040, 1267.249
915.1290, 1227.945
916.2550, 1115.854
917.3800, 1248.859
918.5050, 1304.771
919.6300, 1202.699
920.7550, 1002.394
921.8800, 1188.458
923.0040, 1175.611
924.1290, 1039.798
925.2530, 1086.012
926.3770, 1094.646
927.5010, 993.9453
928.6250, 1023.287
929.7480, 1046.769
930.8720, 995.1592
931.9950, 992.5830
933.1180, 843.9248
934.2410, 999.4131
935.3640, 934.9473
936.4860, 835.3447
937.6090, 1019.221
938.7310, 849.8643
939.8530, 973.5361
940.9750, 1177.551
942.0970, 1288.301
943.2180, 1197.213
944.3400, 1060.572
945.4610, 1200.521
946.5820, 1281.364
947.7030, 1426.063
948.8240, 1525.992
949.9450, 1631.949
951.0650, 1815.933
952.1860, 1951.906
953.3060, 2257.229
954.4260, 2463.477
955.5460, 2861.393
956.6650, 3016.516
957.7850, 3335.677
958.9040, 3678.861
960.0230, 4070.073
961.1420, 4342.312
962.2610, 4682.579
963.3800, 5271.875
964.4990, 5494.196
965.6170, 6359.545
966.7350, 6617.921
967.8530, 7168.320
968.9710, 7544.748
970.0890, 8049.213
971.2070, 8388.703
972.3240, 8586.223
973.4410, 9011.766
974.5580, 9003.331
975.6750, 9141.927
976.7920, 8969.548
977.9090, 8930.210
979.0250, 8626.899
980.1410, 8243.614
981.2580, 7791.369
982.3740, 7237.152
983.4890, 6872.961
984.6050, 6325.793
985.7200, 6046.652
986.8360, 5825.532
987.9510, 5469.438
989.0660, 5461.368
990.1810, 5199.320
991.2950, 5285.299
992.4100, 5338.298
993.5240, 5405.321
994.6390, 5656.368
995.7530, 5748.441
996.8660, 5925.537
997.9800, 5949.658
999.0940, 6110.803
1000.207, 6241.971
1001.320, 6171.881
1002.433, 6129.242
1003.546, 6244.480
1004.659, 6391.737
1005.772, 6748.018
1006.884, 7278.006
1007.996, 7737.316
1009.108, 8794.660
1010.220, 9970.030
1011.332, 11231.19
1012.444, 13185.14
1013.555, 15097.57
1014.666, 17075.91
1015.777, 19232.66
1016.888, 20870.16
1017.999, 21777.47
1019.110, 22312.17
1020.220, 21989.72
1021.331, 20999.30
1022.441, 19125.90
1023.551, 17352.52
1024.661, 15090.16
1025.770, 13106.83
1026.880, 11308.38
1027.989, 9669.709
1029.098, 8451.856
1030.207, 7092.645
1031.316, 6061.102
1032.425, 5433.275
1033.533, 4785.926
1034.642, 4244.958
1035.750, 3921.155
1036.858, 3455.189
1037.966, 3278.224
1039.073, 2844.156
1040.181, 2691.111
1041.288, 2549.112
1042.396, 2206.508
1043.503, 2135.467
1044.610, 2003.857
1045.716, 1899.452
1046.823, 1840.949
1047.929, 1699.042
1049.036, 1487.676
1050.142, 1695.585
1051.248, 1395.110
1052.353, 1389.902
1053.459, 1202.658
1054.564, 1344.902
1055.670, 1315.953
1056.775, 1147.049
1057.880, 1299.598
1058.985, 1117.815
1060.089, 1222.272
1061.194, 1043.352
1062.298, 1159.960
1063.402, 962.6689
1064.506, 935.8809
1065.610, 850.4365
1066.713, 987.5117
1067.817, 915.9961
1068.920, 950.5137
1070.023, 976.9609
1071.126, 894.4941
1072.229, 817.4375
1073.332, 815.5693
1074.435, 750.3721
1075.537, 744.3994
1076.639, 713.9883
1077.741, 709.4639
1078.843, 714.6885
1079.945, 733.9365
1081.046, 761.5869
1082.148, 798.5645
1083.249, 650.2686
1084.350, 523.8877
1085.451, 638.7725
1086.551, 620.4355
1087.652, 592.4873
1088.752, 581.2744
1089.853, 468.0225
1090.953, 447.6875
1092.053, 539.3516
1093.152, 429.3008
1094.252, 384.2861
1095.351, 376.2178
1096.451, 204.3740
1097.550, 393.0322
1098.649, 325.9346
1099.748, 339.7275
1100.846, 254.8301
1101.945, 447.7930
1103.043, 296.4404
1104.141, 335.4355
1105.239, 125.0752
1106.337, 185.7119
1107.434, 315.6660
1108.532, 122.6543
1109.629, 115.3730
1110.726, 274.3750
1111.823, 171.9883
1112.920, 184.7646
1114.017, 187.3809
1115.113, 291.9766
1116.210, 258.7080
1117.306, 283.5771
1118.402, 296.1533
1119.498, 431.7227
1120.593, 372.2852
1121.689, 475.1885
1122.784, 513.7354
1123.879, 488.2744
1124.974, 434.8047
1126.069, 415.5801
1127.164, 438.4316
1128.259, 265.1748
1129.353, 225.4336
1130.447, 346.0342
1131.541, 141.8320
1132.635, 23.70312
1133.729, 4.120117
1134.822, 116.3154
1135.916, 25.75000
1137.009, 70.19922
1138.102, 19.39746
1139.195, 124.9941
1140.288, 99.31641
1141.380, 65.93457
1142.473, 70.55176
1143.565, 12.31152
1144.657, 101.2148
1145.749, 69.27539
1146.841, 58.61621
1147.932, 51.93262
1149.024, 80.63672
1150.115, 10.66016
1151.206, 34.14355
1152.297, 146.0400
1153.388, 92.17480
1154.479, 68.53809
1155.569, 114.4941
1156.659, 110.0605
1157.750, 9.915039
1158.839, 180.9873
1159.929, 108.8740
1161.019, 141.7451
1162.108, 35.14648
1163.198, 61.33203
1164.287, 115.5732
1165.376, 24.89844
1166.465, 8.858398
1167.553, 53.47949
1168.642, 62.08105
1169.730, 145.8408
1170.818, 166.4072
1171.906, 101.9561
1172.994, 69.51270
1174.082, 29.04492
1175.170, 44.37695
1176.257, 36.22168
1177.344, 42.13477
1178.431, 73.53027
1179.518, 1.262695
1180.605, 164.0312
1181.691, 63.08203
1182.778, 0.8271480
1183.864, 25.22754
1184.950, 37.74121
1186.036, 33.83691
1187.122, 1.845703
1188.207, 8.036133
1189.292, 97.79492
1190.378, 11.96484
1191.463, 30.30469
1192.548, 91.37109
1193.632, 72.02344
1194.717, 1.653320
1195.801, 115.2441
1196.886, 90.18945
1197.970, 19.28809
1199.054, 176.7344
1200.137, 77.84082
1201.221, 21.50098
1202.305, 55.80957
1203.388, 63.90723
1204.471, 123.2988
1205.554, 222.4814
1206.637, 198.6436
1207.719, 13.78125
1208.802, 199.8828
1209.884, 21.04102
1210.966, 250.9805
1212.048, 80.97559
1213.130, 147.9453
1214.212, 30.88965
1215.293, 107.8008
1216.374, 174.6855
1217.456, 71.54590
1218.536, 136.3779
1219.617, 7.184570
1220.698, 181.9463
1221.778, 327.6836
1222.859, 101.3965
1223.939, 94.08203
1225.019, 107.7393
1226.099, 66.37012
1227.178, 176.9707
1228.258, 116.5469
1229.337, 143.0957
1230.417, 4.618164
1231.496, 103.0918
1232.574, 217.5391
1233.653, 95.95996
1234.732, 270.3525
1235.810, 215.7207
1236.888, 106.0625
1237.966, 97.37598
1239.044, 19.33887
1240.122, 93.88379
1241.199, 218.0791
1242.277, 19.75293
1243.354, 45.35449
1244.431, 199.4268
1245.508, 155.4717
1246.585, 121.4902
1247.661, 295.4814
1248.738, 247.4482
1249.814, 202.3877
1250.890, 109.3018
1251.966, 208.1865
1253.042, 238.0459
1254.117, 195.8799
1255.193, 134.6875
1256.268, 114.4678
1257.343, 139.2188
1258.418, 63.94238
1259.493, 169.6553
1260.567, 121.3486
1261.642, 327.0234
1262.716, 165.9648
1263.790, 248.4492
1264.864, 197.0557
1265.938, 191.6367
1267.011, 298.1924
1268.085, 196.0342
1269.158, 269.5508
1270.231, 119.0283
