##NAMES=Serandite
##RRUFFID=R050261
##IDEAL CHEMISTRY=NaMn^2+^_2_Si_3_O_8_(OH)
##LOCALITY=Mont Saint-Hilaire, Rouville County, Quebec, Canada
##OWNER=RRUFF
##SOURCE=Marcus Origlieri
##DESCRIPTION=Orange tabular single crystal associated with aegirine and microcline
##STATUS=The identification of this mineral has been confirmed by X-ray diffraction and chemical analysis
##URL=rruff.info/R050261
##MEASURED CHEMISTRY=Na_0.96_(Mn_0.92_Ca_0.06_Fe_0.01_)_2_Si_3.03_O_8_(OH)
##PIN_ID=L01881
##ORIENTATION=Laser parallel to (1 1 0). Fiducial mark perpendicular to laser is parallel to -c [0 0 -1]
93.48000, 0.0000000E+00
94.71400, 38.68689
95.94800, 2.562134
97.18200, 3.391235
98.41600, 37.82141
99.64900, 93.77490
100.8830, 214.9275
102.1160, 287.3326
103.3490, 458.1028
104.5820, 732.6052
105.8150, 964.3855
107.0470, 1330.101
108.2800, 1587.982
109.5120, 2036.575
110.7440, 2266.280
111.9760, 2361.990
113.2080, 2383.615
114.4400, 2702.079
115.6710, 3260.316
116.9030, 3898.258
118.1340, 4238.852
119.3650, 4438.042
120.5960, 4425.777
121.8270, 3843.811
123.0580, 2973.933
124.2880, 2040.660
125.5190, 1193.818
126.7490, 766.3787
127.9790, 596.3147
129.2090, 489.5962
130.4390, 655.2129
131.6680, 879.1631
132.8980, 1128.433
134.1270, 1336.012
135.3560, 1706.881
136.5850, 1975.015
137.8140, 2208.391
139.0430, 2194.989
140.2710, 2261.791
141.5000, 1963.782
142.7280, 1557.009
143.9560, 1128.354
145.1840, 764.8352
146.4120, 465.4604
147.6390, 241.2261
148.8670, 75.90723
150.0940, 17.83521
151.3210, 57.66724
152.5490, 67.39111
153.7750, 11.98706
155.0020, 16.46069
156.2290, 69.02637
157.4550, 109.7537
158.6810, 259.5884
159.9080, 421.5181
161.1340, 596.5100
162.3590, 760.5596
163.5850, 899.6641
164.8110, 1199.819
166.0360, 1367.231
167.2610, 1762.015
168.4860, 1951.899
169.7110, 2228.883
170.9360, 2406.030
172.1610, 2415.361
173.3850, 2155.835
174.6100, 1878.368
175.8340, 1570.931
177.0580, 1280.488
178.2820, 1115.028
179.5050, 994.5559
180.7290, 956.0730
181.9520, 852.5825
183.1760, 735.0852
184.3990, 585.5833
185.6220, 369.0784
186.8450, 285.5715
188.0670, 175.0640
189.2900, 57.55640
190.5120, 23.04932
191.7340, 1.456299
192.9560, 2.039795
194.1780, 14.53760
195.4000, 23.04199
196.6220, 28.55640
197.8430, 72.10474
199.0640, 65.71753
200.2860, 20.36328
201.5070, 105.0474
202.7270, 129.7676
203.9480, 85.48584
205.1690, 163.2009
206.3890, 55.76758
207.6090, 117.4658
208.8290, 145.1602
210.0490, 199.8501
211.2690, 209.5352
212.4890, 310.2153
213.7080, 299.8901
214.9280, 321.5596
216.1470, 304.2229
217.3660, 308.8796
218.5850, 356.6340
219.8030, 395.7397
221.0220, 464.6509
222.2400, 531.2891
223.4590, 627.7046
224.6770, 715.2729
225.8950, 795.8252
227.1120, 924.4187
228.3300, 1009.906
229.5480, 1187.433
230.7650, 1335.951
231.9820, 1480.460
233.1990, 1626.959
234.4160, 1702.448
235.6330, 1841.927
236.8490, 1779.939
238.0660, 1765.402
239.2820, 1735.676
240.4980, 1553.145
241.7140, 1364.897
242.9300, 1266.539
244.1460, 1132.067
245.3610, 959.0447
246.5770, 812.0176
247.7920, 813.8992
249.0070, 743.2944
250.2220, 785.4309
251.4370, 847.7417
252.6510, 777.8315
253.8660, 897.5757
255.0800, 935.8555
256.2940, 1083.446
257.5080, 1249.223
258.7220, 1353.845
259.9360, 1462.736
261.1490, 1466.950
262.3630, 1527.665
263.5760, 1398.696
264.7890, 1276.767
266.0020, 1204.875
267.2150, 1133.018
268.4270, 941.1880
269.6400, 876.3442
270.8520, 768.5303
272.0640, 734.7434
273.2760, 669.9819
274.4880, 591.2441
275.7000, 676.5283
276.9120, 611.8325
278.1230, 641.1553
279.3340, 604.4949
280.5450, 621.8501
281.7560, 708.2197
282.9670, 653.6018
284.1780, 698.9958
285.3880, 766.3999
286.5980, 752.8140
287.8090, 809.2363
289.0190, 757.6655
290.2290, 658.1021
291.4380, 614.5439
292.6480, 568.9915
293.8570, 594.4438
295.0670, 464.1958
296.2760, 421.5107
297.4850, 403.0342
298.6930, 278.3301
299.9020, 263.3613
301.1110, 235.4797
302.3190, 236.5010
303.5270, 207.1440
304.7350, 110.8335
305.9430, 129.6206
307.1510, 94.85840
308.3580, 49.43628
309.5660, 61.79004
310.7730, 87.23999
311.9800, 12.71777
313.1870, 10.15674
314.3940, 73.58862
315.6010, 38.01318
316.8070, 9.570557
318.0130, 67.83301
319.2200, 31.22681
320.4260, 155.6108
321.6310, 117.9846
322.8370, 221.3481
324.0430, 162.7017
325.2480, 271.0449
326.4540, 252.3779
327.6590, 255.7007
328.8640, 278.0132
330.0680, 277.3154
331.2730, 284.6077
332.4780, 283.8892
333.6820, 270.1606
334.8860, 243.4219
336.0900, 202.6724
337.2940, 184.8923
338.4980, 96.11621
339.7010, 78.33496
340.9050, 103.5432
342.1080, 10.74072
343.3110, 27.92603
344.5140, 32.90015
345.7170, 20.25000
346.9200, 0.6115720
348.1220, 31.51074
349.3240, 22.62061
350.5270, 9.281006
351.7290, 7.793457
352.9310, 18.85376
354.1320, 18.90137
355.3340, 63.93652
356.5350, 156.9595
357.7370, 200.9707
358.9380, 209.9697
360.1390, 231.9570
361.3400, 260.6772
362.5400, 334.8955
363.7410, 301.8457
364.9410, 343.7700
366.1410, 349.6780
367.3410, 336.5742
368.5410, 305.4487
369.7410, 282.3105
370.9400, 208.1606
372.1400, 216.9995
373.3390, 99.82690
374.5380, 59.64307
375.7370, 95.44824
376.9360, 6.757568
378.1350, 53.98291
379.3330, 51.23999
380.5310, 64.52881
381.7300, 88.88184
382.9280, 73.32031
384.1260, 64.85181
385.3230, 55.43018
386.5210, 54.33496
387.7180, 42.71069
388.9160, 61.40869
390.1130, 74.15552
391.3100, 85.95874
392.5060, 91.82544
393.7030, 69.75903
394.9000, 70.74878
396.0960, 33.79590
397.2920, 26.88110
398.4880, 15.99854
399.6840, 22.13501
400.8800, 57.69800
402.0750, 12.52466
403.2710, 58.33521
404.4660, 64.13867
405.6610, 136.9346
406.8560, 201.7229
408.0510, 229.5034
409.2450, 336.2759
410.4400, 345.0400
411.6340, 384.7961
412.8280, 474.5435
414.0220, 509.2825
415.2160, 561.9551
416.4100, 610.7351
417.6030, 619.4482
418.7970, 646.1523
419.9900, 606.8479
421.1830, 643.5342
422.3760, 567.2117
423.5690, 484.8796
424.7610, 496.5386
425.9540, 374.1882
427.1460, 392.8284
428.3380, 224.4595
429.5300, 221.0811
430.7220, 178.6936
431.9140, 69.29663
433.1050, 95.89062
434.2970, 124.4751
435.4880, 108.0503
436.6790, 98.32520
437.8700, 24.17285
439.0610, 42.71606
440.2510, 6.250488
441.4420, 10.23071
442.6320, 14.26538
443.8220, 22.25415
445.0120, 36.80786
446.2020, 28.59668
447.3910, 16.01025
448.5810, 21.35205
449.7700, 9.298584
450.9600, 14.97607
452.1490, 11.68335
453.3370, 46.58228
454.5260, 37.83838
455.7150, 120.0842
456.9030, 133.3210
458.0910, 123.5488
459.2800, 240.7676
460.4670, 276.3152
461.6550, 317.5159
462.8430, 334.7075
464.0300, 366.8906
465.2180, 356.0645
466.4050, 322.2300
467.5920, 367.3867
468.7790, 396.5347
469.9650, 349.6743
471.1520, 360.8057
472.3380, 415.9282
473.5250, 420.0422
474.7110, 452.6094
475.8970, 555.2461
477.0820, 516.3352
478.2680, 541.4167
479.4540, 600.4897
480.6390, 715.5552
481.8240, 716.6128
483.0090, 809.6621
484.1940, 851.7046
485.3780, 972.6494
486.5630, 1110.677
487.7470, 1134.083
488.9320, 1232.097
490.1160, 1368.407
491.3000, 1556.406
492.4830, 1697.405
493.6670, 1818.108
494.8500, 1832.752
496.0340, 1742.730
497.2170, 1700.696
498.4000, 1655.663
499.5820, 1515.630
500.7650, 1434.592
501.9480, 1320.555
503.1300, 1210.523
504.3120, 1167.486
505.4940, 1098.462
506.6760, 998.4341
507.8580, 953.4004
509.0390, 885.3604
510.2210, 807.3145
511.4020, 732.2632
512.5830, 686.2070
513.7640, 674.1548
514.9450, 622.1182
516.1250, 579.1021
517.3060, 582.0903
518.4860, 541.0879
519.6660, 555.3674
520.8460, 635.6592
522.0260, 740.1062
523.2060, 735.7197
524.3850, 717.7964
525.5650, 842.8489
526.7440, 851.4238
527.9230, 820.5955
529.1020, 716.8289
530.2810, 728.7788
531.4590, 708.5891
532.6380, 744.5225
533.8160, 728.7524
534.9940, 728.6221
536.1720, 749.8799
537.3500, 764.6741
538.5270, 772.6589
539.7050, 813.5713
540.8820, 774.0820
542.0590, 761.3582
543.2360, 713.5132
544.4130, 740.1924
545.5900, 740.0737
546.7660, 777.2573
547.9430, 750.4563
549.1190, 724.6562
550.2950, 688.8665
551.4710, 660.1763
552.6470, 629.1252
553.8220, 609.5024
554.9980, 567.7170
556.1730, 571.9329
557.3480, 546.1572
558.5230, 476.3843
559.6980, 471.6121
560.8730, 451.8408
562.0470, 401.0710
563.2220, 372.3013
564.3960, 343.5359
565.5700, 316.7751
566.7440, 357.0303
567.9170, 315.2900
569.0910, 338.5513
570.2640, 320.8325
571.4380, 279.1160
572.6110, 281.4053
573.7840, 219.7083
574.9570, 231.0117
576.1290, 292.3162
577.3020, 202.6216
578.4740, 278.9282
579.6460, 176.9409
580.8180, 255.2383
581.9900, 271.6353
583.1620, 200.0288
584.3330, 192.7751
585.5040, 194.4456
586.6760, 153.2146
587.8470, 178.3625
589.0180, 166.4639
590.1880, 171.4675
591.3590, 200.0200
592.5290, 185.2314
593.7000, 203.5271
594.8700, 186.0024
596.0400, 220.3088
597.2090, 213.6497
598.3790, 207.9932
599.5490, 195.3386
600.7180, 231.6863
601.8870, 204.0396
603.0560, 263.3955
604.2250, 236.7532
605.3940, 233.1133
606.5620, 225.4756
607.7300, 300.8401
608.8990, 282.2065
610.0670, 341.5757
611.2350, 299.9468
612.4020, 391.3201
613.5700, 398.6956
614.7370, 441.0728
615.9050, 481.4526
617.0720, 477.8350
618.2390, 511.2190
619.4060, 546.6055
620.5720, 477.9939
621.7390, 564.3845
622.9050, 663.7771
624.0710, 604.2808
625.2370, 674.7068
626.4030, 765.2153
627.5690, 779.7100
628.7340, 892.2695
629.9000, 963.7305
631.0650, 1051.252
632.2300, 1161.220
633.3950, 1291.649
634.5600, 1290.158
635.7240, 1405.601
636.8890, 1547.121
638.0530, 1646.744
639.2170, 1796.866
640.3810, 2000.444
641.5450, 2210.554
642.7080, 2375.541
643.8720, 2705.247
645.0350, 2942.923
646.1980, 3260.895
647.3610, 3641.353
648.5240, 3969.812
649.6870, 4544.273
650.8490, 5101.878
652.0120, 5972.548
653.1740, 6860.969
654.3360, 7736.280
655.4980, 9346.914
656.6600, 11117.41
657.8210, 13360.30
658.9830, 16200.32
660.1440, 19817.41
661.3050, 23979.29
662.4660, 29214.91
663.6270, 34571.98
664.7870, 41078.12
665.9480, 46539.66
667.1080, 50976.31
668.2680, 53443.80
669.4280, 52373.50
670.5880, 48878.15
671.7480, 42631.85
672.9070, 35747.52
674.0670, 28973.50
675.2260, 23176.04
676.3850, 18627.62
677.5440, 14865.38
678.7030, 12278.12
679.8610, 10473.72
681.0200, 8767.907
682.1780, 7528.873
683.3360, 6740.514
684.4940, 6026.453
685.6520, 5402.421
686.8090, 4970.485
687.9670, 4656.440
689.1240, 4543.443
690.2810, 4440.264
691.4380, 4228.141
692.5950, 4245.102
693.7520, 4563.073
694.9080, 4882.882
696.0650, 5373.419
697.2210, 5914.426
698.3770, 6632.209
699.5330, 7256.123
700.6880, 8104.954
701.8440, 8733.727
702.9990, 9349.996
704.1550, 9410.502
705.3100, 9042.558
706.4650, 8509.022
707.6190, 7480.894
708.7740, 6526.963
709.9290, 5539.861
711.0830, 4822.447
712.2370, 4107.412
713.3910, 3431.729
714.5450, 3000.427
715.6980, 2667.118
716.8520, 2308.888
718.0050, 2164.695
719.1580, 1864.461
720.3110, 1788.125
721.4640, 1582.787
722.6170, 1306.451
723.7700, 1194.983
724.9220, 1118.647
726.0740, 1014.320
727.2260, 907.9866
728.3780, 846.8948
729.5300, 752.3196
730.6810, 710.9841
731.8330, 660.6511
732.9840, 584.3191
734.1350, 470.9797
735.2860, 490.6326
736.4370, 498.2773
737.5880, 416.9141
738.7380, 453.5432
739.8880, 315.1638
741.0390, 330.7764
742.1890, 368.3809
743.3380, 243.9768
744.4880, 240.5645
745.6380, 211.1440
746.7870, 249.7151
747.9360, 255.2778
749.0850, 149.8320
750.2340, 184.3782
751.3830, 147.9158
752.5310, 108.4451
753.6800, 119.9661
754.8280, 94.47827
755.9760, 83.98218
757.1240, 91.47754
758.2720, 71.96460
759.4190, 93.44287
760.5670, 54.91284
761.7140, 18.37427
762.8610, 37.82593
764.0080, 19.26880
765.1550, 23.70190
766.3020, 12.12524
767.4480, 36.53906
768.5950, 23.94336
769.7410, 16.66162
770.8870, 47.70947
772.0330, 31.07153
773.1780, 64.42432
774.3240, 30.76807
775.4690, 11.10229
776.6140, 17.57446
777.7590, 19.72437
778.9040, 16.98730
780.0490, 30.72388
781.1940, 7.507324
782.3380, 57.27368
783.4820, 1.898682
784.6260, 75.05591
785.7700, 84.20410
786.9140, 80.88745
788.0580, 18.47363
789.2010, 11.59326
790.3450, 20.29834
791.4880, 66.21680
792.6310, 87.18726
793.7730, 21.22021
794.9160, 43.28076
796.0590, 29.38110
797.2010, 1.486328
798.3430, 26.66211
799.4850, 85.84131
800.6270, 45.08301
801.7690, 61.36523
802.9100, 19.69702
804.0520, 69.05640
805.1930, 18.46899
806.3340, 41.09082
807.4750, 36.35913
808.6160, 50.15454
809.7560, 36.34155
810.8970, 40.87378
812.0370, 17.44507
813.1770, 18.04297
814.3170, 4.667725
815.4570, 4.312256
816.5960, 1.976318
817.7360, 11.65894
818.8750, 21.63525
820.0140, 19.08179
821.1530, 55.82593
822.2920, 17.38403
823.4310, 42.41699
824.5690, 17.74292
825.7070, 26.10767
826.8460, 62.01147
827.9840, 31.12109
829.1220, 10.22070
830.2590, 7.309082
831.3970, 42.38599
832.5340, 20.54688
833.6710, 3.494629
834.8080, 46.52271
835.9450, 10.54150
837.0820, 27.75586
838.2190, 40.54858
839.3550, 2.461914
840.4910, 6.487549
841.6270, 47.53076
842.7630, 6.612305
843.8990, 6.289063
845.0350, 64.81958
846.1700, 2.024658
847.3060, 10.14282
848.4410, 42.32861
849.5760, 76.45117
850.7100, 62.22290
851.8450, 39.98608
852.9800, 11.74170
854.1140, 2.488525
855.2480, 8.225342
856.3820, 54.95361
857.5160, 54.67407
858.6500, 45.38672
859.7830, 29.90796
860.9170, 59.77173
862.0500, 46.44409
863.1830, 51.10889
864.3160, 95.76636
865.4480, 66.41650
866.5810, 71.05933
867.7130, 129.6951
868.8460, 92.32324
869.9780, 114.9443
871.1100, 152.5583
872.2410, 96.16553
873.3730, 145.7656
874.5050, 119.3586
875.6360, 180.9451
876.7670, 163.5247
877.8980, 165.0979
879.0290, 139.6643
880.1590, 180.4036
881.2900, 229.7795
882.4200, 274.3328
883.5500, 333.8801
884.6800, 403.4268
885.8100, 520.9678
886.9400, 633.5110
888.0690, 776.0493
889.1990, 891.5952
890.3280, 1007.140
891.4570, 1140.679
892.5860, 1462.218
893.7140, 1704.752
894.8430, 1995.280
895.9710, 2217.803
897.1000, 2394.332
898.2280, 2607.752
899.3560, 2641.247
900.4830, 2550.665
901.6110, 2482.094
902.7380, 2193.467
903.8660, 1994.950
904.9930, 1706.374
906.1200, 1559.353
907.2460, 1338.868
908.3730, 1237.311
909.5000, 1139.822
910.6260, 994.2527
911.7520, 951.5806
912.8780, 942.4077
914.0040, 844.7771
915.1290, 812.6111
916.2550, 806.5691
917.3800, 850.8044
918.5050, 795.0696
919.6300, 868.0374
920.7550, 840.5220
921.8800, 828.0154
923.0040, 851.5076
924.1290, 870.8586
925.2530, 775.1733
926.3770, 813.7341
927.5010, 780.4038
928.6250, 815.7563
929.7480, 904.2434
930.8720, 918.3416
931.9950, 903.3145
933.1180, 907.2261
934.2410, 895.3774
935.3640, 935.8223
936.4860, 896.8259
937.6090, 982.8110
938.7310, 981.4153
939.8530, 1045.926
940.9750, 1277.618
942.0970, 1237.136
943.2180, 1286.731
944.3400, 1281.308
945.4610, 1521.944
946.5820, 1612.307
947.7030, 1777.152
948.8240, 1825.972
949.9450, 2077.643
951.0650, 2243.353
952.1860, 2397.224
953.3060, 2686.500
954.4260, 2967.016
955.5460, 3164.868
956.6650, 3586.430
957.7850, 3905.961
958.9040, 4277.400
960.0230, 4635.946
961.1420, 5021.443
962.2610, 5624.124
963.3800, 6128.754
964.4990, 6576.300
965.6170, 7268.836
966.7350, 7754.534
967.8530, 8298.506
968.9710, 8704.005
970.0890, 9152.729
971.2070, 9711.327
972.3240, 10012.01
973.4410, 10111.75
974.5580, 10586.99
975.6750, 10556.00
976.7920, 10646.46
977.9090, 10564.51
979.0250, 10414.15
980.1410, 10352.60
981.2580, 10145.22
982.3740, 9868.152
983.4890, 9888.094
984.6050, 9807.929
985.7200, 9570.792
986.8360, 9495.678
987.9510, 9277.485
989.0660, 9182.255
990.1810, 8880.069
991.2950, 8670.987
992.4100, 8839.910
993.5240, 8797.843
994.6390, 8883.912
995.7530, 8921.871
996.8660, 8957.839
997.9800, 9166.816
999.0940, 9513.799
1000.207, 9520.792
1001.320, 9626.795
1002.433, 9725.803
1003.546, 9693.819
1004.659, 9757.849
1005.772, 9895.884
1006.884, 10441.93
1007.996, 10909.99
1009.108, 12028.05
1010.220, 12893.12
1011.332, 14530.20
1012.444, 16276.29
1013.555, 18352.39
1014.666, 20897.63
1015.777, 23602.73
1016.888, 26521.86
1017.999, 28930.11
1019.110, 31120.25
1020.220, 32596.16
1021.331, 32631.51
1022.441, 31429.49
1023.551, 29175.68
1024.661, 26316.87
1025.770, 23131.04
1026.880, 19780.28
1027.989, 16742.49
1029.098, 14349.70
1030.207, 12247.51
1031.316, 10461.58
1032.425, 8947.811
1033.533, 7971.555
1034.642, 6922.822
1035.750, 6208.082
1036.858, 5494.209
1037.966, 4915.567
1039.073, 4533.492
1040.181, 4128.792
1041.288, 3724.905
1042.396, 3498.219
1043.503, 3146.600
1044.610, 2882.037
1045.716, 2844.402
1046.823, 2592.837
1047.929, 2429.216
1049.036, 2245.674
1050.142, 2254.102
1051.248, 2181.527
1052.353, 2024.081
1053.459, 1979.393
1054.564, 1802.503
1055.670, 1776.168
1056.775, 1681.592
1057.880, 1576.590
1058.985, 1472.067
1060.089, 1430.691
1061.194, 1393.670
1062.298, 1361.223
1063.402, 1335.924
1064.506, 1303.928
1065.610, 1253.354
1066.713, 1219.946
1067.817, 1133.491
1068.920, 1108.319
1070.023, 1020.242
1071.126, 962.0991
1072.229, 1021.828
1073.332, 979.7705
1074.435, 875.2964
1075.537, 943.0723
1076.639, 886.2981
1077.741, 905.0176
1078.843, 803.4414
1079.945, 773.4753
1081.046, 688.5332
1082.148, 713.4248
1083.249, 757.2598
1084.350, 611.1650
1085.451, 630.1016
1086.551, 590.0601
1087.652, 448.1226
1088.752, 506.1567
1089.853, 479.3281
1090.953, 473.4136
1092.053, 551.3757
1093.152, 402.4551
1094.252, 391.4353
1095.351, 447.5896
1096.451, 336.5767
1097.550, 246.5676
1098.649, 321.7334
1099.748, 264.7319
1100.846, 244.7664
1101.945, 289.7808
1103.043, 276.4031
1104.141, 216.5901
1105.239, 229.6138
1106.337, 208.2793
1107.434, 160.3071
1108.532, 152.4104
1109.629, 89.46558
1110.726, 94.52710
1111.823, 101.6926
1112.920, 104.7783
1114.017, 117.5332
1115.113, 148.2869
1116.210, 153.2844
1117.306, 194.3059
1118.402, 228.4170
1119.498, 222.3955
1120.593, 252.6633
1121.689, 192.7795
1122.784, 200.8960
1123.879, 165.0542
1124.974, 245.6504
1126.069, 139.7678
1127.164, 181.0056
1128.259, 225.2400
1129.353, 159.8525
1130.447, 124.1218
1131.541, 68.36011
1132.635, 49.48438
1133.729, 53.72412
1134.822, 41.90332
1135.916, 50.02515
1137.009, 47.89355
1138.102, 29.17627
1139.195, 59.29419
1140.288, 11.70728
1141.380, 21.22266
1142.473, 50.33618
1143.565, 24.60010
1144.657, 38.73145
1145.749, 6.139404
1146.841, 26.91992
1147.932, 44.22217
1149.024, 28.61328
1150.115, 12.51416
1151.206, 38.41113
1152.297, 6.354980
1153.388, 54.30347
1154.479, 24.28003
1155.569, 45.00146
1156.659, 22.99048
1157.750, 2.061035
1158.839, 76.05176
1159.929, 23.04565
1161.019, 46.96973
1162.108, 18.00854
1163.198, 97.94043
1164.287, 28.11182
1165.376, 15.81860
1166.465, 28.74561
1167.553, 48.33105
1168.642, 3.562988
1169.730, 11.54785
1170.818, 59.40332
1171.906, 13.72290
1172.994, 28.13843
1174.082, 14.14429
1175.170, 4.006104
1176.257, 23.86206
1177.344, 12.27148
1178.431, 28.55908
1179.518, 14.39917
1180.605, 27.24023
1181.691, 31.07666
1182.778, 8.057617
1183.864, 13.02466
1184.950, 34.21704
1186.036, 2.562744
1187.122, 9.665527
1188.207, 97.90942
1189.292, 44.78491
1190.378, 13.47266
1191.463, 15.84668
1192.548, 121.8142
1193.632, 16.46851
1194.717, 13.88525
1195.801, 2.258789
1196.886, 23.75513
1197.970, 20.59790
1199.054, 14.56299
1200.137, 8.116455
1201.221, 20.65894
1202.305, 81.19287
1203.388, 12.71826
1204.471, 31.76587
1205.554, 74.71777
1206.637, 41.80664
1207.719, 17.36914
1208.802, 4.042969
1209.884, 16.44043
1210.966, 15.90503
1212.048, 57.20679
1213.130, 0.4228520
1214.212, 59.92896
1215.293, 55.27148
1216.374, 53.60449
1217.456, 34.07251
1218.536, 41.21484
1219.617, 19.49121
1220.698, 36.75806
1221.778, 73.01367
1222.859, 45.25977
1223.939, 103.4949
1225.019, 0.2795410
1226.099, 113.9248
1227.178, 160.1191
1228.258, 35.30322
1229.337, 99.47559
1230.417, 71.63794
1231.496, 86.78955
1232.574, 12.93042
1233.653, 40.05518
1234.732, 92.16846
1235.810, 13.27148
1236.888, 67.35815
1237.966, 101.4331
1239.044, 110.4978
1240.122, 127.8413
1241.199, 60.59424
1242.277, 119.6257
1243.354, 32.64648
1244.431, 6.654053
1245.508, 38.35986
1246.585, 54.41870
1247.661, 37.53052
1248.738, 140.3125
1249.814, 53.14453
1250.890, 130.9636
1251.966, 123.7710
1253.042, 81.56665
1254.117, 24.35010
1255.193, 105.1177
1256.268, 8.119385
1257.343, 67.61328
1258.418, 25.33301
1259.493, 60.03687
1260.567, 67.72778
1261.642, 128.4087
1262.716, 68.07812
1263.790, 82.73486
1264.864, 152.3787
1265.938, 19.01025
1267.011, 58.62402
1268.085, 118.2239
1269.158, 38.81177
1270.231, 32.38477
1271.304, 151.9419
