##NAMES=Serandite
##RRUFFID=R050261
##IDEAL CHEMISTRY=NaMn^2+^_2_Si_3_O_8_(OH)
##LOCALITY=Mont Saint-Hilaire, Rouville County, Quebec, Canada
##OWNER=RRUFF
##SOURCE=Marcus Origlieri
##DESCRIPTION=Orange tabular single crystal associated with aegirine and microcline
##STATUS=The identification of this mineral has been confirmed by X-ray diffraction and chemical analysis
##URL=rruff.info/R050261
##MEASURED CHEMISTRY=Na_0.96_(Mn_0.92_Ca_0.06_Fe_0.01_)_2_Si_3.03_O_8_(OH)
##PIN_ID=L01881
##ORIENTATION=Laser parallel to (1 1 0). Fiducial mark perpendicular to laser is parallel to -c [0 0 -1]
93.48000, 0.0000000E+00
94.71400, 3.576904
95.94800, 7.616943
97.18200, 36.22388
98.41600, 66.09497
99.64900, 163.2656
100.8830, 43.68457
102.1160, 116.3818
103.3490, 168.9971
104.5820, 380.4438
105.8150, 599.8750
107.0470, 996.6318
108.2800, 1289.258
109.5120, 1740.615
110.7440, 1989.414
111.9760, 1749.254
113.2080, 1683.818
114.4400, 1937.863
115.6710, 2356.196
116.9030, 2802.661
118.1340, 3438.129
119.3650, 3983.489
120.5960, 4132.657
121.8270, 3910.636
123.0580, 3279.353
124.2880, 2526.643
125.5190, 1764.141
126.7490, 1257.177
127.9790, 1291.404
129.2090, 1412.824
130.4390, 1691.436
131.6680, 2027.237
132.8980, 2439.236
134.1270, 2919.438
135.3560, 3435.835
136.5850, 4134.416
137.8140, 4700.174
139.0430, 5055.102
140.2710, 5271.195
141.5000, 5355.445
142.7280, 4837.851
143.9560, 3828.404
145.1840, 2866.102
146.4120, 2056.942
147.6390, 1431.250
148.8670, 968.9844
150.0940, 576.6118
151.3210, 498.5728
152.5490, 474.9038
153.7750, 502.7798
155.0020, 507.3696
156.2290, 681.5044
157.4550, 642.6509
158.6810, 786.9951
159.9080, 954.9497
161.1340, 1223.054
162.3590, 1543.296
163.5850, 1862.671
164.8110, 2172.172
166.0360, 2312.794
167.2610, 2407.526
168.4860, 2439.336
169.7110, 2578.319
170.9360, 2518.578
172.1610, 2556.038
173.3850, 2326.640
174.6100, 1938.313
175.8340, 1523.032
177.0580, 1179.800
178.2820, 984.6221
179.5050, 922.5010
180.7290, 716.4380
181.9520, 713.4360
183.1760, 576.4937
184.3990, 480.6128
185.6220, 350.7925
186.8450, 297.2212
188.0670, 246.3306
189.2900, 240.6885
190.5120, 361.1050
191.7340, 427.5791
192.9560, 476.1099
194.1780, 499.6973
195.4000, 564.3398
196.6220, 590.0425
197.8430, 613.8276
199.0640, 478.7148
200.2860, 335.7783
201.5070, 288.1040
202.7270, 427.5972
203.9480, 291.2202
205.1690, 325.9043
206.3890, 51.38428
207.6090, 48.64600
208.8290, 122.8813
210.0490, 97.08984
211.2690, 157.2729
212.4890, 90.43066
213.7080, 42.56201
214.9280, 160.6694
216.1470, 11.75244
217.3660, 75.81152
218.5850, 66.84668
219.8030, 68.85840
221.0220, 86.84717
222.2400, 43.81396
223.4590, 21.23438
224.6770, 53.26465
225.8950, 156.2427
227.1120, 190.1851
228.3300, 390.0903
229.5480, 453.9868
230.7650, 624.8647
231.9820, 707.7417
233.1990, 824.6416
234.4160, 966.5649
235.6330, 1006.510
236.8490, 1099.478
238.0660, 961.4658
239.2820, 971.4751
240.4980, 893.9385
241.7140, 682.0229
242.9300, 501.1406
244.1460, 429.5205
245.3610, 449.2402
246.5770, 330.8086
247.7920, 388.7744
249.0070, 366.0596
250.2220, 408.4199
251.4370, 309.6074
252.6510, 374.0537
253.8660, 366.2622
255.0800, 447.3667
256.2940, 645.5083
257.5080, 820.7637
258.7220, 986.1230
259.9360, 1238.579
261.1490, 1254.868
262.3630, 1305.753
263.5760, 1275.458
264.7890, 1056.236
266.0020, 977.0825
267.2150, 779.9932
268.4270, 756.9648
269.6400, 664.9893
270.8520, 659.0581
272.0640, 668.1665
273.2760, 604.3115
274.4880, 454.4932
275.7000, 475.7085
276.9120, 397.9580
278.1230, 396.0244
279.3340, 446.5547
280.5450, 463.9004
281.7560, 522.2759
282.9670, 638.6807
284.1780, 602.1133
285.3880, 795.5742
286.5980, 806.0605
287.8090, 875.5742
289.0190, 911.1123
290.2290, 903.6748
291.4380, 991.2607
292.6480, 882.8706
293.8570, 963.5024
295.0670, 925.1553
296.2760, 936.8140
297.4850, 1022.434
298.6930, 924.0068
299.9020, 1000.389
301.1110, 915.9829
302.3190, 841.1113
303.5270, 701.7886
304.7350, 722.0664
305.9430, 560.8042
307.1510, 543.9429
308.3580, 414.9009
309.5660, 372.2383
310.7730, 223.4316
311.9800, 284.6055
313.1870, 273.9282
314.3940, 289.3535
315.6010, 143.0234
316.8070, 228.7056
318.0130, 73.40088
319.2200, 88.10889
320.4260, 212.8271
321.6310, 327.5581
322.8370, 366.2993
324.0430, 394.0513
325.2480, 461.8140
326.4540, 494.5864
327.6590, 626.3687
328.8640, 590.1611
330.0680, 656.9624
331.2730, 634.7725
332.4780, 628.5913
333.6820, 545.4180
334.8860, 461.2534
336.0900, 522.0957
337.2940, 430.9463
338.4980, 412.8032
339.7010, 294.6675
340.9050, 274.5376
342.1080, 154.4141
343.3110, 131.2969
344.5140, 90.18506
345.7170, 145.0771
346.9200, 87.97363
348.1220, 192.8721
349.3240, 287.7725
350.5270, 402.6748
351.7290, 463.3174
352.9310, 575.0356
354.1320, 692.1284
355.3340, 834.1807
356.5350, 1001.137
357.7370, 1183.080
358.9380, 1410.951
360.1390, 1675.378
361.3400, 1959.036
362.5400, 2178.810
363.7410, 2466.875
364.9410, 2639.865
366.1410, 2873.194
367.3410, 2905.992
368.5410, 2843.910
369.7410, 2650.830
370.9400, 2320.751
372.1400, 1933.674
373.3390, 1532.598
374.5380, 1243.524
375.7370, 1006.452
376.9360, 730.3818
378.1350, 523.3140
379.3330, 524.2466
380.5310, 285.1816
381.7300, 175.1177
382.9280, 82.05566
384.1260, 35.00488
385.3230, 6.076172
386.5210, 91.14209
387.7180, 15.24951
388.9160, 135.3643
390.1130, 58.54736
391.3100, 176.7627
392.5060, 8.071289
393.7030, 58.39062
394.9000, 16.74561
396.0960, 18.11719
397.2920, 35.49268
398.4880, 48.10498
399.6840, 109.7222
400.8800, 247.3442
402.0750, 366.9717
403.2710, 414.6040
404.4660, 636.2402
405.6610, 745.8809
406.8560, 963.5234
408.0510, 1189.169
409.2450, 1467.818
410.4400, 1699.468
411.6340, 1975.121
412.8280, 2332.775
414.0220, 2631.430
415.2160, 2997.087
416.4100, 3193.745
417.6030, 3458.402
418.7970, 3520.741
419.9900, 3598.721
421.1830, 3460.380
422.3760, 3235.040
423.5690, 2994.697
424.7610, 2615.356
425.9540, 2313.015
427.1460, 1987.672
428.3380, 1664.329
429.5300, 1314.984
430.7220, 1230.638
431.9140, 980.2910
433.1050, 808.9424
434.2970, 532.5923
435.4880, 480.2402
436.6790, 330.8862
437.8700, 248.5303
439.0610, 89.17139
440.2510, 83.81152
441.4420, 25.44873
442.6320, 31.07275
443.8220, 2.711914
445.0120, 6.152344
446.2020, 21.92383
447.3910, 74.49219
448.5810, 80.94043
449.7700, 150.5190
450.9600, 81.78857
452.1490, 55.53809
453.3370, 20.34229
454.5260, 52.18262
455.7150, 13.64453
456.9030, 11.73145
458.0910, 159.4414
459.2800, 249.5044
460.4670, 349.5625
461.6550, 354.6167
462.8430, 294.6675
464.0300, 331.7144
465.2180, 285.8057
466.4050, 415.7954
467.5920, 253.8291
468.7790, 311.8579
469.9650, 362.8833
471.1520, 255.9038
472.3380, 419.9194
473.5250, 325.9302
474.7110, 364.9360
475.8970, 436.9375
477.0820, 337.9341
478.2680, 454.9268
479.4540, 577.9160
480.6390, 587.9019
481.8240, 747.9004
483.0090, 817.9043
484.1940, 1020.903
485.3780, 1124.900
486.5630, 1358.891
487.7470, 1383.876
488.9320, 1494.857
490.1160, 1746.832
491.3000, 1747.802
492.4830, 1971.768
493.6670, 2285.745
494.8500, 2321.725
496.0340, 2296.704
497.2170, 2205.716
498.4000, 2156.750
499.5820, 1876.808
500.7650, 1773.890
501.9480, 1566.971
503.1300, 1449.073
504.3120, 1387.171
505.4940, 1242.280
506.6760, 1190.415
507.8580, 1220.555
509.0390, 1150.724
510.2210, 1211.914
511.4020, 1144.137
512.5830, 1116.381
513.7640, 1093.641
514.9450, 1112.895
516.1250, 1109.143
517.3060, 1056.397
518.4860, 1137.646
519.6660, 1196.895
520.8460, 1374.159
522.0260, 1522.453
523.2060, 1616.751
524.3850, 1913.069
525.5650, 2037.381
526.7440, 2154.255
527.9230, 2119.671
529.1020, 2142.226
530.2810, 2067.082
531.4590, 1863.973
532.6380, 1788.330
533.8160, 1560.560
534.9940, 1468.726
536.1720, 1307.031
537.3500, 1296.695
538.5270, 1254.290
539.7050, 1203.287
540.8820, 1151.523
542.0590, 1125.845
543.2360, 1068.160
544.4130, 982.4692
545.5900, 857.7739
546.7660, 887.0752
547.9430, 723.3784
549.1190, 713.6768
550.2950, 743.9839
551.4710, 637.2905
552.6470, 493.5967
553.8220, 689.9180
554.9980, 481.2402
556.1730, 454.5557
557.3480, 529.8618
558.5230, 282.1606
559.6980, 298.4512
560.8730, 365.7334
562.0470, 259.0122
563.2220, 276.2827
564.3960, 285.5566
565.5700, 281.8398
566.7440, 290.1235
567.9170, 185.3989
569.0910, 222.6646
570.2640, 157.9224
571.4380, 145.1704
572.6110, 94.41016
573.7840, 91.76416
574.9570, 166.8623
576.1290, 118.0752
577.3020, 106.2856
578.4740, 166.4873
579.6460, 112.6797
580.8180, 191.8628
581.9900, 177.0371
583.1620, 73.18018
584.3330, 48.48242
585.5040, 7.476563
586.6760, 17.99023
587.8470, 42.86816
589.0180, 3.854492
590.1880, 48.96777
591.3590, 49.60010
592.5290, 113.0073
593.7000, 109.2446
594.8700, 95.63525
596.0400, 15.94580
597.2090, 22.32666
598.3790, 63.49609
599.5490, 21.42773
600.7180, 67.34326
601.8870, 54.24951
603.0560, 142.1484
604.2250, 92.03857
605.3940, 82.92041
606.5620, 281.7925
607.7300, 187.6567
608.8990, 225.5117
610.0670, 208.3574
611.2350, 240.1943
612.4020, 229.0225
613.5700, 200.8413
614.7370, 256.6514
615.9050, 210.4512
617.0720, 353.4585
618.2390, 444.4185
619.4060, 409.6157
620.5720, 472.8271
621.7390, 578.6216
622.9050, 526.5835
624.0710, 524.6133
625.2370, 514.9062
626.4030, 626.6860
627.5690, 669.4482
628.7340, 743.1836
629.9000, 878.1348
631.0650, 868.8711
632.2300, 1048.044
633.3950, 1178.598
634.5600, 1249.684
635.7240, 1391.489
636.8890, 1513.555
638.0530, 1628.631
639.2170, 1790.844
640.3810, 1925.250
641.5450, 2085.265
642.7080, 2333.310
643.8720, 2616.180
645.0350, 2828.264
646.1980, 3148.134
647.3610, 3543.212
648.5240, 3907.100
649.6870, 4436.924
650.8490, 5047.471
652.0120, 5843.479
653.1740, 6776.763
654.3360, 7994.727
655.4980, 9169.487
656.6600, 11257.88
657.8210, 13527.59
658.9830, 16534.25
660.1440, 19913.23
661.3050, 23868.88
662.4660, 28103.00
663.6270, 32887.45
664.7870, 37856.22
665.9480, 43264.63
667.1080, 47561.28
668.2680, 50389.84
669.4280, 50823.38
670.5880, 48077.07
671.7480, 42965.89
672.9070, 36746.47
674.0670, 29966.76
675.2260, 24041.06
676.3850, 19367.10
677.5440, 15611.47
678.7030, 12592.04
679.8610, 10629.96
681.0200, 8896.414
682.1780, 7669.902
683.3360, 6941.334
684.4940, 6111.070
685.6520, 5464.975
686.8090, 4961.921
687.9670, 4561.543
689.1240, 4267.297
690.2810, 4036.756
691.4380, 3976.021
692.5950, 3972.215
693.7520, 4138.141
694.9080, 4294.364
696.0650, 4601.308
697.2210, 5018.267
698.3770, 5526.261
699.5330, 6233.139
700.6880, 6864.947
701.8440, 7453.067
702.9990, 8006.425
704.1550, 8208.208
705.3100, 8074.841
706.4650, 7763.794
707.6190, 6985.564
708.7740, 6163.406
709.9290, 5280.178
711.0830, 4539.039
712.2370, 3916.663
713.3910, 3438.694
714.5450, 2990.328
715.6980, 2714.545
716.8520, 2479.141
718.0050, 2179.981
719.1580, 2180.709
720.3110, 2053.559
721.4640, 1891.992
722.6170, 1686.407
723.7700, 1622.777
724.9220, 1485.615
726.0740, 1300.475
727.2260, 1129.794
728.3780, 975.0903
729.5300, 829.4590
730.6810, 742.1978
731.8330, 562.8472
732.9840, 620.2544
734.1350, 627.6553
735.2860, 595.3389
736.4370, 511.7275
737.5880, 557.4570
738.7380, 433.8086
739.8880, 444.1377
741.0390, 431.4434
742.1890, 344.7266
743.3380, 307.9878
744.4880, 237.2261
745.6380, 220.4414
746.7870, 205.9883
747.9360, 253.8047
749.0850, 229.9526
750.2340, 248.0781
751.3830, 307.1812
752.5310, 181.2622
753.6800, 262.3203
754.8280, 110.3560
755.9760, 119.3677
757.1240, 68.35596
758.2720, 65.31738
759.4190, 31.74707
760.5670, 2.870117
761.7140, 90.96338
762.8610, 50.77295
764.0080, 145.5557
765.1550, 147.3154
766.3020, 151.0527
767.4480, 96.76709
768.5950, 145.4585
769.7410, 55.12646
770.8870, 31.23096
772.0330, 62.35498
773.1780, 117.9146
774.3240, 45.54883
775.4690, 23.07568
776.6140, 7.345215
777.7590, 31.26904
778.9040, 60.06055
780.0490, 54.36572
781.1940, 79.64502
782.3380, 3.900391
783.4820, 56.88135
784.6260, 42.26953
785.7700, 58.16846
786.9140, 57.68555
788.0580, 117.5640
789.2010, 77.67529
790.3450, 50.86523
791.4880, 40.88135
792.6310, 65.60254
793.7730, 22.69922
794.9160, 66.95068
796.0590, 3.577637
797.2010, 65.82959
798.3430, 109.3057
799.4850, 21.87500
800.6270, 75.48975
801.7690, 36.82275
802.9100, 28.88965
804.0520, 48.34912
805.1930, 64.56543
806.3340, 68.75928
807.4750, 37.93213
808.6160, 26.08105
809.7560, 63.20605
810.8970, 61.69092
812.0370, 14.65234
813.1770, 6.347656
814.3170, 80.67920
815.4570, 52.77930
816.5960, 8.062988
817.7360, 79.87988
818.8750, 64.67578
820.0140, 71.45020
821.1530, 12.20459
822.2920, 0.9355470
823.4310, 17.36084
824.5690, 14.30664
825.7070, 48.04785
826.8460, 12.45410
827.9840, 11.89258
829.1220, 74.36279
830.2590, 20.89648
831.3970, 57.53418
832.5340, 149.9458
833.6710, 107.3403
834.8080, 91.71729
835.9450, 122.0767
837.0820, 10.58008
838.2190, 41.73535
839.3550, 37.96680
840.4910, 61.70996
841.6270, 28.50537
842.7630, 53.66455
843.8990, 90.81641
845.0350, 65.95264
846.1700, 76.07227
847.3060, 47.17676
848.4410, 99.26270
849.5760, 0.3349610
850.7100, 80.38721
851.8450, 31.57520
852.9800, 75.43066
854.1140, 9.422363
855.2480, 29.39648
856.3820, 0.3549800
857.5160, 147.2949
858.6500, 139.2217
859.7830, 205.1353
860.9170, 290.0356
862.0500, 220.9307
863.1830, 209.8149
864.3160, 107.6875
865.4480, 241.5522
866.5810, 182.4048
867.7130, 295.2832
868.8460, 191.1665
869.9780, 300.0498
871.1100, 331.9419
872.2410, 341.8257
873.3730, 339.6968
874.5050, 421.5723
875.6360, 438.4351
876.7670, 565.2861
877.8980, 354.1455
879.0290, 369.9946
880.1590, 513.8398
881.2900, 538.6748
882.4200, 707.4976
883.5500, 922.3521
884.6800, 997.2119
885.8100, 1151.062
886.9400, 1427.902
888.0690, 1485.730
889.1990, 1875.548
890.3280, 2058.355
891.4570, 2387.936
892.5860, 2861.543
893.7140, 3282.894
894.8430, 3646.235
895.9710, 4201.977
897.1000, 4584.542
898.2280, 4940.027
899.3560, 4850.255
900.4830, 4795.989
901.6110, 4549.733
902.7380, 4046.486
903.8660, 3486.004
904.9930, 2893.720
906.1200, 2437.979
907.2460, 2016.840
908.3730, 1798.170
909.5000, 1613.766
910.6260, 1486.780
911.7520, 1318.234
912.8780, 1196.586
914.0040, 1198.542
915.1290, 1212.871
916.2550, 1053.150
917.3800, 969.5854
918.5050, 895.7896
919.6300, 775.1895
920.7550, 830.3633
921.8800, 877.7246
923.0040, 875.1323
924.1290, 834.8154
925.2530, 917.0254
926.3770, 867.9453
927.5010, 883.1704
928.6250, 787.5825
929.7480, 791.3447
930.8720, 773.7651
931.9950, 808.2251
933.1180, 795.3535
934.2410, 820.7974
935.3640, 801.7598
936.4860, 902.4028
937.6090, 1084.688
938.7310, 1169.326
939.8530, 1157.745
940.9750, 1234.246
942.0970, 1225.769
943.2180, 1276.133
944.3400, 1399.409
945.4610, 1482.925
946.5820, 1594.070
947.7030, 1705.580
948.8240, 1855.668
949.9450, 2041.441
951.0650, 2207.018
952.1860, 2539.230
953.3060, 2712.908
954.4260, 2990.531
955.5460, 3458.192
956.6650, 3753.533
957.7850, 4043.687
958.9040, 4440.781
960.0230, 4873.183
961.1420, 5390.439
962.2610, 5928.970
963.3800, 6547.582
964.4990, 7174.321
965.6170, 8069.461
966.7350, 8454.169
967.8530, 9340.137
968.9710, 9769.071
970.0890, 10597.96
971.2070, 11244.94
972.3240, 11839.98
973.4410, 12498.70
974.5580, 12889.15
975.6750, 13428.17
976.7920, 13937.32
977.9090, 14134.13
979.0250, 14200.13
980.1410, 14351.04
981.2580, 14387.00
982.3740, 13957.87
983.4890, 13539.95
984.6050, 12947.61
985.7200, 12228.65
986.8360, 11688.09
987.9510, 10940.14
989.0660, 10554.92
990.1810, 10174.81
991.2950, 9752.556
992.4100, 9651.702
993.5240, 9548.862
994.6390, 9377.032
995.7530, 9331.209
996.8660, 9499.396
997.9800, 9522.591
999.0940, 9626.792
1000.207, 9735.007
1001.320, 9993.613
1002.433, 10029.68
1003.546, 10206.60
1004.659, 10235.69
1005.772, 10595.94
1006.884, 10787.22
1007.996, 11648.49
1009.108, 12424.77
1010.220, 13601.16
1011.332, 14983.18
1012.444, 16807.58
1013.555, 18679.73
1014.666, 21459.22
1015.777, 24117.54
1016.888, 26676.75
1017.999, 29241.85
1019.110, 31414.39
1020.220, 32830.74
1021.331, 32909.10
1022.441, 32064.45
1023.551, 30387.82
1024.661, 27452.27
1025.770, 24319.65
1026.880, 20929.04
1027.989, 17890.85
1029.098, 15350.78
1030.207, 13023.52
1031.316, 11021.45
1032.425, 9717.382
1033.533, 8497.686
1034.642, 7367.061
1035.750, 6475.070
1036.858, 5763.607
1037.966, 5098.292
1039.073, 4574.788
1040.181, 4103.376
1041.288, 3975.882
1042.396, 3639.729
1043.503, 3360.293
1044.610, 3093.949
1045.716, 2885.534
1046.823, 2719.164
1047.929, 2596.932
1049.036, 2456.558
1050.142, 2256.190
1051.248, 2208.144
1052.353, 1996.795
1053.459, 1865.475
1054.564, 1851.129
1055.670, 1753.942
1056.775, 1670.661
1057.880, 1656.229
1058.985, 1601.323
1060.089, 1632.793
1061.194, 1525.901
1062.298, 1478.830
1063.402, 1368.775
1064.506, 1277.714
1065.610, 1265.604
1066.713, 1189.394
1067.817, 1238.830
1068.920, 1089.076
1070.023, 1100.223
1071.126, 1189.465
1072.229, 1218.311
1073.332, 1057.859
1074.435, 1032.914
1075.537, 971.9512
1076.639, 881.0088
1077.741, 990.0557
1078.843, 804.1045
1079.945, 850.1875
1081.046, 785.5459
1082.148, 716.1582
1083.249, 807.4082
1084.350, 737.8867
1085.451, 836.0176
1086.551, 742.2451
1087.652, 696.3984
1088.752, 573.6172
1089.853, 541.1152
1090.953, 477.7764
1092.053, 467.1016
1093.152, 391.2754
1094.252, 378.4648
1095.351, 358.6631
1096.451, 357.2910
1097.550, 354.7041
1098.649, 426.1592
1099.748, 469.6406
1100.846, 424.8789
1101.945, 295.2695
1103.043, 377.6416
1104.141, 242.8975
1105.239, 212.1416
1106.337, 132.3867
1107.434, 86.25586
1108.532, 159.9160
1109.629, 97.19922
1110.726, 145.7656
1111.823, 316.0459
1112.920, 306.3281
1114.017, 245.9639
1115.113, 116.2432
1116.210, 187.5215
1117.306, 162.7998
1118.402, 289.0762
1119.498, 237.3604
1120.593, 144.7207
1121.689, 271.0020
1122.784, 254.2812
1123.879, 265.8623
1124.974, 417.8320
1126.069, 385.2793
1127.164, 356.5703
1128.259, 349.9307
1129.353, 156.3760
1130.447, 187.6406
1131.541, 64.89941
1132.635, 96.84277
1133.729, 71.63672
1134.822, 52.47070
1135.916, 86.33203
1137.009, 77.75879
1138.102, 37.84668
1139.195, 66.09180
1140.288, 157.1963
1141.380, 19.27148
1142.473, 80.65918
1143.565, 26.36328
1144.657, 33.61816
1145.749, 9.376953
1146.841, 95.36621
1147.932, 159.6494
1149.024, 61.75586
1150.115, 9.100586
1151.206, 110.0645
1152.297, 71.04199
1153.388, 209.8809
1154.479, 100.7139
1155.569, 45.54297
1156.659, 131.3633
1157.750, 131.1797
1158.839, 83.00879
1159.929, 2.242188
1161.019, 32.48535
1162.108, 18.75879
1163.198, 82.04980
1164.287, 39.47168
1165.376, 24.11621
1166.465, 0.1835940
1167.553, 61.39941
1168.642, 28.97461
1169.730, 82.54102
1170.818, 57.35645
1171.906, 70.33789
1172.994, 7.183594
1174.082, 38.29297
1175.170, 70.80469
1176.257, 124.6318
1177.344, 76.06055
1178.431, 49.48047
1179.518, 155.8916
1180.605, 149.2959
1181.691, 12.69141
1182.778, 91.07617
1183.864, 122.4521
1184.950, 49.17969
1186.036, 68.14355
1187.122, 48.54102
1188.207, 2.730469
1189.292, 1.015625
1190.378, 2.217773
1191.463, 34.27930
1192.548, 79.63672
1193.632, 80.83008
1194.717, 84.01074
1195.801, 116.1836
1196.886, 43.65527
1197.970, 12.46191
1199.054, 33.43555
1200.137, 68.62598
1201.221, 0.3212890
1202.305, 25.29297
1203.388, 13.70020
1204.471, 100.6758
1205.554, 295.6416
1206.637, 103.5957
1207.719, 198.5381
1208.802, 162.4697
1209.884, 107.3906
1210.966, 45.29980
1212.048, 49.80469
1213.130, 27.37598
1214.212, 31.84375
1215.293, 7.639648
1216.374, 94.41309
1217.456, 113.1816
1218.536, 98.93848
1219.617, 123.5068
1220.698, 140.4150
1221.778, 118.1348
1222.859, 189.8447
1223.939, 223.5391
1225.019, 123.2227
1226.099, 25.89844
1227.178, 75.58203
1228.258, 68.25391
1229.337, 62.91211
1230.417, 142.5547
1231.496, 86.18555
1232.574, 90.80176
1233.653, 119.4033
1234.732, 167.9941
1235.810, 225.5703
1236.888, 150.1338
1237.966, 185.6855
1239.044, 190.8320
1240.122, 40.25098
1241.199, 176.2236
1242.277, 137.6943
1243.354, 43.15430
1244.431, 137.5986
1245.508, 186.0312
1246.585, 369.4482
1247.661, 278.8535
1248.738, 307.2451
1249.814, 112.6221
1250.890, 154.9854
1251.966, 159.3350
1253.042, 60.67285
1254.117, 24.99414
1255.193, 92.31152
1256.268, 129.6133
1257.343, 69.91504
1258.418, 228.2090
1259.493, 232.4893
1260.567, 346.7559
1261.642, 271.0088
1262.716, 337.8662
1263.790, 260.2490
1264.864, 177.7793
1265.938, 168.1318
1267.011, 123.6611
1268.085, 85.47656
1269.158, 118.6406
1270.231, 135.7930
