##NAMES=Serandite
##RRUFFID=R050261
##IDEAL CHEMISTRY=NaMn^2+^_2_Si_3_O_8_(OH)
##LOCALITY=Mont Saint-Hilaire, Rouville County, Quebec, Canada
##OWNER=RRUFF
##SOURCE=Marcus Origlieri
##DESCRIPTION=Orange tabular single crystal associated with aegirine and microcline
##STATUS=The identification of this mineral has been confirmed by X-ray diffraction and chemical analysis
##URL=rruff.info/R050261
##MEASURED CHEMISTRY=Na_0.96_(Mn_0.92_Ca_0.06_Fe_0.01_)_2_Si_3.03_O_8_(OH)
##PIN_ID=L01880
##ORIENTATION=Laser parallel to (1 0 1). Fiducial mark perpendicular to laser is parallel to b [0 1 0]
93.48000, 0.0000000E+00
94.71400, 5.795532
95.94800, 13.24170
97.18200, 36.23157
98.41600, 145.1533
99.64900, 283.4479
100.8830, 442.0288
102.1160, 685.0200
103.3490, 1013.678
104.5820, 1386.471
105.8150, 1780.463
107.0470, 2152.886
108.2800, 2649.540
109.5120, 3295.313
110.7440, 3823.364
111.9760, 3577.802
113.2080, 3577.700
114.4400, 3969.104
115.6710, 4652.042
116.9030, 4986.517
118.1340, 4774.521
119.3650, 3846.040
120.5960, 2939.325
121.8270, 2189.570
123.0580, 1566.838
124.2880, 1078.744
125.5190, 824.3220
126.7490, 736.5227
127.9790, 846.3032
129.2090, 1129.624
130.4390, 1439.460
131.6680, 1900.814
132.8980, 2152.683
134.1270, 2424.050
135.3560, 2462.879
136.5850, 2604.132
137.8140, 2534.777
139.0430, 2385.783
140.2710, 1723.125
141.5000, 1175.780
142.7280, 705.7256
143.9560, 293.9436
145.1840, 88.41016
146.4120, 82.88818
147.6390, 151.9568
148.8670, 195.8020
150.0940, 140.4348
151.3210, 3.060059
152.5490, 162.7576
153.7750, 457.6379
155.0020, 627.6917
156.2290, 896.9092
157.4550, 1104.284
158.6810, 1464.806
159.9080, 1791.469
161.1340, 2066.266
162.3590, 2256.190
163.5850, 2303.237
164.8110, 2272.399
166.0360, 2455.738
167.2610, 2277.618
168.4860, 2197.800
169.7110, 2089.352
170.9360, 1909.250
172.1610, 1576.418
173.3850, 1248.805
174.6100, 1061.246
175.8340, 938.6873
177.0580, 844.1335
178.2820, 760.5884
179.5050, 606.0557
180.7290, 383.5371
181.9520, 287.0254
183.1760, 263.5225
184.3990, 175.0305
185.6220, 257.5527
186.8450, 425.0908
188.0670, 415.6465
189.2900, 578.2212
190.5120, 623.8159
191.7340, 725.4316
192.9560, 796.0691
194.1780, 709.6638
195.4000, 663.1333
196.6220, 671.6191
197.8430, 438.1907
199.0640, 377.8665
200.2860, 352.6418
201.5070, 391.5122
202.7270, 310.4668
203.9480, 268.4553
205.1690, 129.4617
206.3890, 69.48535
207.6090, 35.47412
208.8290, 17.41772
210.0490, 23.65454
211.2690, 11.74170
212.4890, 37.84326
213.7080, 43.95898
214.9280, 109.0879
216.1470, 58.23022
217.3660, 57.38428
218.5850, 114.5508
219.8030, 266.7285
221.0220, 349.9175
222.2400, 488.1167
223.4590, 619.3259
224.6770, 659.5325
225.8950, 798.7456
227.1120, 911.9675
228.3300, 1019.198
229.5480, 1162.436
230.7650, 1331.680
231.9820, 1468.933
233.1990, 1461.191
234.4160, 1500.455
235.6330, 1455.725
236.8490, 1413.000
238.0660, 1390.253
239.2820, 1259.389
240.4980, 1153.980
241.7140, 1017.028
242.9300, 1012.755
244.1460, 851.1003
245.3610, 847.7686
246.5770, 864.3962
247.7920, 897.1796
249.0070, 1070.386
250.2220, 1174.008
251.4370, 1399.264
252.6510, 1445.573
253.8660, 1708.087
255.0800, 1761.430
256.2940, 2005.846
257.5080, 2162.332
258.7220, 2252.886
259.9360, 2333.506
261.1490, 2264.189
262.3630, 2094.931
263.5760, 1840.732
264.7890, 1794.587
266.0020, 1660.494
267.2150, 1520.273
268.4270, 1474.847
269.6400, 1326.481
270.8520, 1228.173
272.0640, 1230.921
273.2760, 1273.721
274.4880, 1316.570
275.7000, 1366.466
276.9120, 1504.406
278.1230, 1620.371
279.3340, 1851.412
280.5450, 1942.471
281.7560, 2165.566
282.9670, 2339.693
284.1780, 2502.852
285.3880, 2574.503
286.5980, 2688.256
287.8090, 2632.499
289.0190, 2636.766
290.2290, 2623.058
291.4380, 2573.372
292.6480, 2540.366
293.8570, 2390.669
295.0670, 2305.077
296.2760, 2210.946
297.4850, 2150.085
298.6930, 1973.350
299.9020, 1797.608
301.1110, 1665.040
302.3190, 1438.111
303.5270, 1293.014
304.7350, 1130.752
305.9430, 1086.821
307.1510, 850.4148
308.3580, 794.2783
309.5660, 778.4794
310.7730, 676.0200
311.9800, 660.5959
313.1870, 551.1389
314.3940, 612.6833
315.6010, 632.2294
316.8070, 676.7760
318.0130, 744.3213
319.2200, 784.8645
320.4260, 847.7103
321.6310, 994.9436
322.8370, 984.4794
324.0430, 1079.012
325.2480, 1186.542
326.4540, 1148.070
327.6590, 1248.594
328.8640, 1177.115
330.0680, 1120.633
331.2730, 1052.148
332.4780, 933.6586
333.6820, 813.1660
334.8860, 705.6694
336.0900, 638.1689
337.2940, 545.6646
338.4980, 485.1560
339.7010, 355.6429
340.9050, 319.1265
342.1080, 297.6064
343.3110, 294.0819
344.5140, 270.5530
345.7170, 290.0186
346.9200, 228.4784
348.1220, 307.9321
349.3240, 333.3793
350.5270, 404.8201
351.7290, 510.2542
352.9310, 572.8698
354.1320, 721.9385
355.3340, 942.3521
356.5350, 1053.759
357.7370, 1243.158
358.9380, 1404.550
360.1390, 1583.935
361.3400, 1803.313
362.5400, 1906.684
363.7410, 1968.047
364.9410, 1935.402
366.1410, 1929.751
367.3410, 1661.091
368.5410, 1460.424
369.7410, 1263.749
370.9400, 986.0675
372.1400, 783.3777
373.3390, 562.6804
374.5380, 393.9753
375.7370, 267.2627
376.9360, 189.5425
378.1350, 111.8143
379.3330, 3.921509
380.5310, 35.67737
381.7300, 102.4619
382.9280, 127.3260
384.1260, 114.3265
385.3230, 135.3978
386.5210, 146.5522
387.7180, 164.8000
388.9160, 132.1534
390.1130, 142.5970
391.3100, 125.1377
392.5060, 80.76770
393.7030, 100.4646
394.9000, 76.23987
396.0960, 27.08105
397.2920, 24.03687
398.4880, 103.1387
399.6840, 168.3278
400.8800, 203.3337
402.0750, 337.4261
403.2710, 468.5146
404.4660, 585.5991
405.6610, 797.6790
406.8560, 926.7542
408.0510, 1169.824
409.2450, 1404.889
410.4400, 1570.949
411.6340, 1745.004
412.8280, 2000.054
414.0220, 2180.101
415.2160, 2255.143
416.4100, 2289.180
417.6030, 2297.212
418.7970, 2177.240
419.9900, 2056.261
421.1830, 1898.277
422.3760, 1639.287
423.5690, 1433.291
424.7610, 1255.289
425.9540, 1094.281
427.1460, 920.2319
428.3380, 780.2432
429.5300, 625.2141
430.7220, 489.1782
431.9140, 388.1350
433.1050, 327.0847
434.2970, 205.0270
435.4880, 142.9615
436.6790, 156.8994
437.8700, 113.8519
439.0610, 87.82727
440.2510, 38.81470
441.4420, 35.78589
442.6320, 10.73950
443.8220, 24.33386
445.0120, 2.453003
446.2020, 0.3939210
447.3910, 12.79199
448.5810, 1.991455
449.7700, 10.27710
450.9600, 1.425049
452.1490, 3.905151
453.3370, 6.729614
454.5260, 80.33484
455.7150, 87.92993
456.9030, 134.5156
458.0910, 219.0922
459.2800, 253.6597
460.4670, 288.2180
461.6550, 342.8942
462.8430, 338.3071
464.0300, 396.8379
465.2180, 457.3595
466.4050, 427.8721
467.5920, 476.3750
468.7790, 503.8691
469.9650, 555.3540
471.1520, 579.8296
472.3380, 682.2961
473.5250, 733.7531
474.7110, 777.2007
475.8970, 937.6394
477.0820, 989.0696
478.2680, 1109.490
479.4540, 1211.904
480.6390, 1304.309
481.8240, 1439.704
483.0090, 1608.564
484.1940, 1827.471
485.3780, 2013.847
486.5630, 2280.218
487.7470, 2538.578
488.9320, 2742.932
490.1160, 2906.277
491.3000, 3037.615
492.4830, 3085.944
493.6670, 2994.268
494.8500, 2865.583
496.0340, 2650.912
497.2170, 2492.235
498.4000, 2352.566
499.5820, 2168.901
500.7650, 1995.240
501.9480, 1965.570
503.1300, 1843.901
504.3120, 1804.224
505.4940, 1712.545
506.6760, 1601.874
507.8580, 1563.205
509.0390, 1545.547
510.2210, 1524.892
511.4020, 1380.238
512.5830, 1333.598
513.7640, 1276.955
514.9450, 1135.317
516.1250, 1113.683
517.3060, 1139.049
518.4860, 1099.430
519.6660, 1075.806
520.8460, 1165.184
522.0260, 1218.072
523.2060, 1352.012
524.3850, 1263.719
525.5650, 1291.836
526.7440, 1246.744
527.9230, 1126.306
529.1020, 1040.156
530.2810, 981.8466
531.4590, 854.5632
532.6380, 753.6116
533.8160, 667.7463
534.9940, 666.6549
536.1720, 578.3240
537.3500, 549.4402
538.5270, 618.8151
539.7050, 514.0269
540.8820, 515.4878
542.0590, 565.9470
543.2360, 489.4089
544.4130, 517.8723
545.5900, 446.3353
546.7660, 488.8091
547.9430, 437.2806
549.1190, 409.7717
550.2950, 353.2604
551.4710, 381.7596
552.6470, 288.2571
553.8220, 335.7623
554.9980, 296.2734
556.1730, 247.7822
557.3480, 239.2976
558.5230, 247.8146
559.6980, 163.3295
560.8730, 193.8422
562.0470, 183.3518
563.2220, 140.8665
564.3960, 126.3783
565.5700, 109.8873
566.7440, 172.3988
567.9170, 143.9106
569.0910, 86.41956
570.2640, 116.9252
571.4380, 58.43066
572.6110, 116.9336
573.7840, 47.43457
574.9570, 71.93274
576.1290, 82.42737
577.3020, 83.91833
578.4740, 34.40552
579.6460, 76.88855
580.8180, 40.36768
581.9900, 88.08093
583.1620, 53.69775
584.3330, 98.33154
585.5040, 91.80347
586.6760, 39.64661
587.8470, 41.66724
589.0180, 68.86023
590.1880, 66.73169
591.3590, 74.86975
592.5290, 73.82751
593.7000, 81.93335
594.8700, 59.35767
596.0400, 61.75146
597.2090, 56.18066
598.3790, 75.46191
599.5490, 92.03430
600.7180, 121.4569
601.8870, 156.8770
603.0560, 167.2942
604.2250, 207.7086
605.3940, 191.1201
606.5620, 186.5287
607.7300, 247.9343
608.8990, 265.3374
610.0670, 246.7371
611.2350, 289.1338
612.4020, 340.5275
613.5700, 387.9181
614.7370, 368.3057
615.9050, 387.7021
617.0720, 430.2568
618.2390, 440.6387
619.4060, 514.3678
620.5720, 570.9401
621.7390, 588.3081
622.9050, 634.8656
624.0710, 700.6423
625.2370, 779.9612
626.4030, 789.9700
627.5690, 847.4102
628.7340, 936.1689
629.9000, 1046.737
631.0650, 1117.372
632.2300, 1298.037
633.3950, 1329.961
634.5600, 1486.565
635.7240, 1703.952
636.8890, 1785.549
638.0530, 2009.878
639.2170, 2215.923
640.3810, 2478.195
641.5450, 2757.696
642.7080, 3010.168
643.8720, 3382.692
645.0350, 3742.493
646.1980, 4161.596
647.3610, 4777.490
648.5240, 5332.063
649.6870, 6097.302
650.8490, 7047.777
652.0120, 8111.064
653.1740, 9611.829
654.3360, 11532.09
655.4980, 13831.28
656.6600, 17001.41
657.8210, 20737.23
658.9830, 25652.16
660.1440, 31134.97
661.3050, 36953.79
662.4660, 42800.12
663.6270, 48679.27
664.7870, 53466.61
665.9480, 56487.24
667.1080, 56920.61
668.2680, 54463.30
669.4280, 49369.99
670.5880, 42810.82
671.7480, 35447.26
672.9070, 28948.63
674.0670, 23558.93
675.2260, 18903.48
676.3850, 15327.84
677.5440, 12759.32
678.7030, 10773.65
679.8610, 9205.877
681.0200, 8091.679
682.1780, 7043.208
683.3360, 6400.515
684.4940, 5818.436
685.6520, 5309.937
686.8090, 5069.593
687.9670, 4976.102
689.1240, 4807.732
690.2810, 4907.178
691.4380, 4991.897
692.5950, 5378.662
693.7520, 5943.901
694.9080, 6499.597
696.0650, 7264.978
697.2210, 8150.273
698.3770, 8831.915
699.5330, 9522.522
700.6880, 9932.947
701.8440, 10223.98
702.9990, 10015.47
704.1550, 9384.920
705.3100, 8434.341
706.4650, 7545.314
707.6190, 6477.690
708.7740, 5555.002
709.9290, 4799.891
711.0830, 4089.299
712.2370, 3522.844
713.3910, 3064.252
714.5450, 2800.470
715.6980, 2479.680
716.8520, 2258.868
718.0050, 2019.041
719.1580, 1857.199
720.3110, 1696.343
721.4640, 1531.476
722.6170, 1382.599
723.7700, 1183.716
724.9220, 1113.837
726.0740, 967.9564
727.2260, 836.0726
728.3780, 851.1895
729.5300, 694.3038
730.6810, 607.4180
731.8330, 572.5288
732.9840, 522.6377
734.1350, 531.7417
735.2860, 478.8309
736.4370, 449.9055
737.5880, 394.9647
738.7380, 358.0085
739.8880, 314.9912
741.0390, 286.0676
742.1890, 268.0490
743.3380, 243.0317
744.4880, 234.8323
745.6380, 225.9513
746.7870, 201.8882
747.9360, 203.8094
749.0850, 171.7155
750.2340, 109.6061
751.3830, 137.4811
752.5310, 89.34070
753.6800, 82.18506
754.8280, 44.01355
755.9760, 84.82495
757.1240, 20.62097
758.2720, 38.39807
759.4190, 91.15771
760.5670, 40.90186
761.7140, 16.62891
762.8610, 0.3364260
764.0080, 6.018433
765.1550, 66.67810
766.3020, 17.32141
767.4480, 35.94543
768.5950, 27.55212
769.7410, 24.14087
770.8870, 8.711182
772.0330, 30.26013
773.1780, 48.20874
774.3240, 30.27124
775.4690, 47.26648
776.6140, 26.85498
777.7590, 30.48352
778.9040, 41.84595
780.0490, 17.84155
781.1940, 35.43567
782.3380, 7.304321
783.4820, 44.07422
784.6260, 24.89294
785.7700, 51.75073
786.9140, 30.66138
788.0580, 18.61377
789.2010, 63.60144
790.3450, 7.648193
791.4880, 31.72461
792.6310, 30.84302
793.7730, 14.00293
794.9160, 73.19543
796.0590, 4.548462
797.2010, 25.73022
798.3430, 5.952881
799.4850, 2.385742
800.6270, 0.2500000
801.7690, 34.13855
802.9100, 22.56982
804.0520, 34.03735
805.1930, 54.54749
806.3340, 38.29797
807.4750, 10.28101
808.6160, 17.34656
809.7560, 16.00818
810.8970, 1.297363
812.0370, 18.42114
813.1770, 63.17371
814.3170, 32.98413
815.4570, 46.83618
816.5960, 13.73706
817.7360, 30.33093
818.8750, 3.618530
820.0140, 0.5932620
821.1530, 6.408203
822.2920, 36.60962
823.4310, 46.33057
824.5690, 69.74561
825.7070, 45.11975
826.8460, 38.03076
827.9840, 15.77734
829.1220, 28.43140
830.2590, 20.67578
831.3970, 10.04846
832.5340, 24.24390
833.6710, 7.568848
834.8080, 9.082764
835.9450, 13.71851
837.0820, 52.33850
838.2190, 22.05530
839.3550, 29.52112
840.4910, 33.08313
841.6270, 14.36902
842.7630, 7.845703
843.8990, 37.65686
845.0350, 48.14600
846.1700, 8.377808
847.3060, 16.07861
848.4410, 1.478760
849.5760, 6.741699
850.7100, 59.36072
851.8450, 44.76160
852.9800, 55.15039
854.1140, 79.52747
855.2480, 72.89307
856.3820, 79.43701
857.5160, 105.5898
858.6500, 78.92139
859.7830, 110.2417
860.9170, 122.5510
862.0500, 104.8496
863.1830, 142.1371
864.3160, 120.4138
865.4480, 151.6798
866.5810, 128.9351
867.7130, 114.1797
868.8460, 147.4138
869.9780, 260.6377
871.1100, 252.8511
872.2410, 255.0570
873.3730, 300.2542
874.5050, 296.4415
875.6360, 301.6194
876.7670, 377.7876
877.8980, 359.9463
879.0290, 441.0959
880.1590, 537.2361
881.2900, 581.3683
882.4200, 616.4919
883.5500, 719.6094
884.6800, 820.7183
885.8100, 970.8218
886.9400, 1162.917
888.0690, 1391.004
889.1990, 1639.085
890.3280, 1915.927
891.4570, 2369.039
892.5860, 2566.094
893.7140, 2932.791
894.8430, 3360.635
895.9710, 3579.672
897.1000, 3608.518
898.2280, 3600.143
899.3560, 3375.222
900.4830, 3139.612
901.6110, 2690.570
902.7380, 2529.206
903.8660, 2133.032
904.9930, 1872.786
906.1200, 1629.507
907.2460, 1591.961
908.3730, 1501.729
909.5000, 1312.705
910.6260, 1314.462
911.7520, 1183.480
912.8780, 1175.772
914.0040, 1120.831
915.1290, 1162.650
916.2550, 1179.491
917.3800, 1111.272
918.5050, 1133.844
919.6300, 1096.276
920.7550, 1088.375
921.8800, 1025.099
923.0040, 980.1456
924.1290, 910.9502
925.2530, 965.9342
926.3770, 996.4337
927.5010, 945.4285
928.6250, 1067.485
929.7480, 1033.605
930.8720, 1014.021
931.9950, 1082.329
933.1180, 1079.759
934.2410, 1075.167
935.3640, 1219.087
936.4860, 1286.184
937.6090, 1266.136
938.7310, 1342.828
939.8530, 1505.823
940.9750, 1554.549
942.0970, 1603.322
943.2180, 1745.991
944.3400, 1944.125
945.4610, 2132.368
946.5820, 2271.721
947.7030, 2567.858
948.8240, 2790.208
949.9450, 2994.477
951.0650, 3320.904
952.1860, 3735.436
953.3060, 4055.390
954.4260, 4464.611
955.5460, 4989.048
956.6650, 5391.865
957.7850, 6065.101
958.9040, 6798.175
960.0230, 7391.392
961.1420, 8061.492
962.2610, 8882.775
963.3800, 9587.777
964.4990, 10575.73
965.6170, 11215.20
966.7350, 12043.21
967.8530, 12930.54
968.9710, 13446.96
970.0890, 14225.02
971.2070, 14831.13
972.3240, 15235.42
973.4410, 15611.08
974.5580, 16006.30
975.6750, 15961.54
976.7920, 15903.81
977.9090, 15903.54
979.0250, 15541.86
980.1410, 15396.25
981.2580, 14771.06
982.3740, 14258.36
983.4890, 13989.51
984.6050, 13259.79
985.7200, 12764.26
986.8360, 12223.73
987.9510, 11746.22
989.0660, 11519.72
990.1810, 11342.24
991.2950, 10966.77
992.4100, 11034.30
993.5240, 10723.85
994.6390, 10848.41
995.7530, 10922.99
996.8660, 10996.58
997.9800, 10869.18
999.0940, 10957.80
1000.207, 10977.42
1001.320, 11195.07
1002.433, 11164.73
1003.546, 11371.39
1004.659, 11522.08
1005.772, 12113.28
1006.884, 12807.23
1007.996, 13649.96
1009.108, 15116.74
1010.220, 16642.49
1011.332, 18663.26
1012.444, 21091.04
1013.555, 23857.83
1014.666, 26406.80
1015.777, 29405.66
1016.888, 31912.00
1017.999, 33450.84
1019.110, 33823.29
1020.220, 33344.14
1021.331, 31257.02
1022.441, 28588.45
1023.551, 25539.35
1024.661, 21933.26
1025.770, 18954.44
1026.880, 16007.37
1027.989, 13602.32
1029.098, 11757.28
1030.207, 10080.06
1031.316, 8744.884
1032.425, 7678.402
1033.533, 6786.832
1034.642, 6123.829
1035.750, 5434.579
1036.858, 4880.435
1037.966, 4421.442
1039.073, 4018.817
1040.181, 3771.485
1041.288, 3545.037
1042.396, 3245.200
1043.503, 2987.400
1044.610, 2896.975
1045.716, 2726.227
1046.823, 2563.502
1047.929, 2429.841
1049.036, 2308.156
1050.142, 2174.430
1051.248, 2035.085
1052.353, 1957.796
1053.459, 1885.976
1054.564, 1825.004
1055.670, 1704.375
1056.775, 1704.846
1057.880, 1574.329
1058.985, 1542.767
1060.089, 1541.617
1061.194, 1468.143
1062.298, 1394.765
1063.402, 1316.832
1064.506, 1276.871
1065.610, 1217.951
1066.713, 1195.586
1067.817, 1136.334
1068.920, 1088.947
1070.023, 1068.740
1071.126, 1038.602
1072.229, 954.0571
1073.332, 978.3311
1074.435, 939.5710
1075.537, 863.4653
1076.639, 865.1169
1077.741, 789.0342
1078.843, 797.7236
1079.945, 734.6404
1081.046, 735.4971
1082.148, 701.6997
1083.249, 619.1897
1084.350, 571.5586
1085.451, 608.4531
1086.551, 525.5562
1087.652, 472.5239
1088.752, 524.5396
1089.853, 477.3137
1090.953, 433.4238
1092.053, 426.5986
1093.152, 389.4548
1094.252, 387.4902
1095.351, 351.6260
1096.451, 305.7598
1097.550, 304.7896
1098.649, 268.7310
1099.748, 259.5098
1100.846, 223.8445
1101.945, 250.0298
1103.043, 241.7236
1104.141, 244.5955
1105.239, 234.7720
1106.337, 187.1121
1107.434, 126.3645
1108.532, 153.4302
1109.629, 128.6790
1110.726, 120.0994
1111.823, 144.0437
1112.920, 80.44482
1114.017, 148.9795
1115.113, 154.5417
1116.210, 125.9036
1117.306, 160.2278
1118.402, 37.56372
1119.498, 143.9724
1120.593, 205.2805
1121.689, 121.0220
1122.784, 205.9626
1123.879, 190.3374
1124.974, 161.5679
1126.069, 171.8384
1127.164, 122.4058
1128.259, 128.7727
1129.353, 109.3132
1130.447, 38.97070
1131.541, 80.36841
1132.635, 67.60693
1133.729, 22.27100
1134.822, 15.71216
1135.916, 30.62671
1137.009, 23.98120
1138.102, 13.95581
1139.195, 23.31689
1140.288, 3.178955
1141.380, 12.86597
1142.473, 30.23193
1143.565, 47.46802
1144.657, 13.79663
1145.749, 9.912354
1146.841, 2.691406
1147.932, 21.04175
1149.024, 59.03198
1150.115, 22.55200
1151.206, 17.82642
1152.297, 31.07227
1153.388, 19.84570
1154.479, 27.43506
1155.569, 34.68555
1156.659, 11.25098
1157.750, 12.84790
1158.839, 5.843750
1159.929, 13.89185
1161.019, 41.71411
1162.108, 41.69165
1163.198, 35.40234
1164.287, 49.93994
1165.376, 42.13647
1166.465, 37.15552
1167.553, 37.18311
1168.642, 23.23657
1169.730, 28.28101
1170.818, 13.70483
1171.906, 10.46655
1172.994, 2.604248
1174.082, 2.510742
1175.170, 8.672852
1176.257, 2.132813
1177.344, 2.981689
1178.431, 0.7202150
1179.518, 4.540527
1180.605, 1.614258
1181.691, 38.71680
1182.778, 5.970459
1183.864, 14.15552
1184.950, 27.43945
1186.036, 29.25244
1187.122, 11.93555
1188.207, 15.55518
1189.292, 69.23755
1190.378, 2.416016
1191.463, 28.22461
1192.548, 12.12109
1193.632, 4.088379
1194.717, 35.48657
1195.801, 11.89233
1196.886, 1.345215
1197.970, 12.21924
1199.054, 56.81470
1200.137, 10.34985
1201.221, 6.065918
1202.305, 20.27588
1203.388, 0.6096190
1204.471, 30.98218
1205.554, 20.45435
1206.637, 20.12866
1207.719, 7.663574
1208.802, 3.317383
1209.884, 33.13257
1210.966, 52.44189
1212.048, 7.737793
1213.130, 3.016602
1214.212, 6.275146
1215.293, 70.51416
1216.374, 21.73926
1217.456, 57.94775
1218.536, 50.15723
1219.617, 2.335693
1220.698, 36.56274
1221.778, 23.70239
1222.859, 21.12280
1223.939, 11.01514
1225.019, 49.08154
1226.099, 52.13086
1227.178, 84.16431
1228.258, 5.182129
1229.337, 40.17529
1230.417, 40.84790
1231.496, 59.08057
1232.574, 5.008301
1233.653, 9.871826
1234.732, 67.72778
1235.810, 32.56665
1236.888, 55.38647
1237.966, 8.187988
1239.044, 11.03638
1240.122, 2.703857
1241.199, 5.330322
1242.277, 3.872070
1243.354, 26.74268
1244.431, 26.37109
1245.508, 45.97803
1246.585, 56.56616
1247.661, 55.13525
1248.738, 40.68506
1249.814, 64.21436
1250.890, 23.72437
1251.966, 18.21118
1253.042, 51.67212
1254.117, 87.11304
1255.193, 11.53467
1256.268, 5.928711
1257.343, 57.29102
1258.418, 36.63403
1259.493, 31.41284
1260.567, 52.26538
1261.642, 14.54907
1262.716, 6.031006
1263.790, 48.25366
1264.864, 24.45825
1265.938, 56.63330
1267.011, 0.2785640
1268.085, 83.15894
1269.158, 43.25781
1270.231, 21.28784
