##NAMES=Serandite
##RRUFFID=R050261
##IDEAL CHEMISTRY=NaMn^2+^_2_Si_3_O_8_(OH)
##LOCALITY=Mont Saint-Hilaire, Rouville County, Quebec, Canada
##OWNER=RRUFF
##SOURCE=Marcus Origlieri
##DESCRIPTION=Orange tabular single crystal associated with aegirine and microcline
##STATUS=The identification of this mineral has been confirmed by X-ray diffraction and chemical analysis
##URL=rruff.info/R050261
##MEASURED CHEMISTRY=Na_0.96_(Mn_0.92_Ca_0.06_Fe_0.01_)_2_Si_3.03_O_8_(OH)
##PIN_ID=L01881
##ORIENTATION=Laser parallel to (1 1 0). Fiducial mark perpendicular to laser is parallel to -c [0 0 -1]
93.48000, 0.0000000E+00
94.71400, 6.024414
95.94800, 71.31543
97.18200, 15.79590
98.41600, 53.18677
99.64900, 45.55786
100.8830, 116.4338
102.1160, 235.2256
103.3490, 289.9106
104.5820, 547.9121
105.8150, 775.9297
107.0470, 1026.498
108.2800, 1411.246
109.5120, 1681.964
110.7440, 1949.631
111.9760, 1753.966
113.2080, 1496.720
114.4400, 1739.698
115.6710, 2228.750
116.9030, 2621.749
118.1340, 2929.593
119.3650, 3160.194
120.5960, 3134.481
121.8270, 2857.393
123.0580, 2266.881
124.2880, 2153.192
125.5190, 930.1758
126.7490, 506.5044
127.9790, 497.0098
129.2090, 517.6958
130.4390, 859.5630
131.6680, 1152.609
132.8980, 1587.848
134.1270, 2078.282
135.3560, 2580.903
136.5850, 3264.701
137.8140, 3618.668
139.0430, 3982.799
140.2710, 3981.088
141.5000, 3870.529
142.7280, 3236.119
143.9560, 2463.853
145.1840, 1715.729
146.4120, 957.7417
147.6390, 557.8950
148.8670, 194.1890
150.0940, 81.61987
151.3210, 38.18384
152.5490, 33.87744
153.7750, 235.0144
155.0020, 282.1575
156.2290, 372.2605
157.4550, 437.7212
158.6810, 760.9131
159.9080, 1019.185
161.1340, 1376.606
162.3590, 1747.169
163.5850, 2015.864
164.8110, 2256.686
166.0360, 2482.633
167.2610, 2645.676
168.4860, 2796.812
169.7110, 2840.149
170.9360, 2857.772
172.1610, 2621.575
173.3850, 2233.530
174.6100, 1972.529
175.8340, 1556.570
177.0580, 1066.658
178.2820, 937.7966
179.5050, 829.9888
180.7290, 625.2383
181.9520, 737.5459
183.1760, 665.9133
184.3990, 797.3418
185.6220, 830.8311
186.8450, 960.3813
188.0670, 1084.993
189.2900, 1364.667
190.5120, 1592.401
191.7340, 1816.197
192.9560, 1960.053
194.1780, 2002.144
195.4000, 2047.950
196.6220, 1924.990
197.8430, 1764.091
199.0640, 1598.286
200.2860, 1377.610
201.5070, 1136.064
202.7270, 920.5967
203.9480, 716.6763
205.1690, 581.8101
206.3890, 375.4912
207.6090, 231.2212
208.8290, 176.0002
210.0490, 18.82788
211.2690, 56.70435
212.4890, 65.62866
213.7080, 28.39941
214.9280, 72.38062
216.1470, 88.31470
217.3660, 81.20288
218.5850, 136.0449
219.8030, 165.8411
221.0220, 89.59253
222.2400, 189.2996
223.4590, 47.96216
224.6770, 22.41870
225.8950, 97.84302
227.1120, 85.30615
228.3300, 225.7769
229.5480, 301.2346
230.7650, 273.6477
231.9820, 386.0232
233.1990, 450.4373
234.4160, 534.8960
235.6330, 476.3989
236.8490, 548.9443
238.0660, 558.5334
239.2820, 561.1643
240.4980, 436.9629
241.7140, 365.1536
242.9300, 247.4226
244.1460, 271.5613
245.3610, 244.9028
246.5770, 367.2417
247.7920, 317.7507
249.0070, 454.1702
250.2220, 575.1230
251.4370, 799.8687
252.6510, 973.1216
253.8660, 1179.862
255.0800, 1391.592
256.2940, 1608.470
257.5080, 1845.153
258.7220, 2028.939
259.9360, 2309.821
261.1490, 2422.793
262.3630, 2298.850
263.5760, 2189.988
264.7890, 1939.203
266.0020, 1772.491
267.2150, 1547.848
268.4270, 1439.705
269.6400, 1323.763
270.8520, 1288.313
272.0640, 1221.916
273.2760, 1227.565
274.4880, 1204.261
275.7000, 1183.001
276.9120, 1262.976
278.1230, 1317.614
279.3340, 1457.484
280.5450, 1572.396
281.7560, 1728.348
282.9670, 1853.341
284.1780, 2133.372
285.3880, 2323.443
286.5980, 2474.551
287.8090, 2590.696
289.0190, 2837.883
290.2290, 2835.107
291.4380, 3120.367
292.6480, 3235.674
293.8570, 3397.018
295.0670, 3435.398
296.2760, 3638.819
297.4850, 3642.283
298.6930, 3565.782
299.9020, 3596.322
301.1110, 3303.912
302.3190, 3313.868
303.5270, 3135.580
304.7350, 2850.618
305.9430, 2575.628
307.1510, 2310.260
308.3580, 2100.548
309.5660, 1882.229
310.7730, 1760.850
311.9800, 1635.831
313.1870, 1551.236
314.3940, 1522.903
315.6010, 1488.649
316.8070, 1534.422
318.0130, 1585.224
319.2200, 1670.051
320.4260, 1821.903
321.6310, 1945.796
322.8370, 2058.714
324.0430, 2273.656
325.2480, 2454.623
326.4540, 2556.614
327.6590, 2671.628
328.8640, 2712.667
330.0680, 2785.729
331.2730, 2640.814
332.4780, 2482.922
333.6820, 2208.052
334.8860, 1836.205
336.0900, 1685.380
337.2940, 1356.576
338.4980, 1121.794
339.7010, 935.0337
340.9050, 750.2939
342.1080, 587.5747
343.3110, 571.8762
344.5140, 543.1978
345.7170, 368.5388
346.9200, 440.8982
348.1220, 405.2764
349.3240, 510.6733
350.5270, 581.0884
351.7290, 629.5210
352.9310, 750.9717
354.1320, 902.4399
355.3340, 1134.926
356.5350, 1472.429
357.7370, 1741.949
358.9380, 2160.940
360.1390, 2469.624
361.3400, 3005.742
362.5400, 3367.136
363.7410, 3887.354
364.9410, 4171.252
366.1410, 4359.355
367.3410, 4379.177
368.5410, 4008.733
369.7410, 3688.416
370.9400, 3190.116
372.1400, 2657.831
373.3390, 2050.562
374.5380, 1623.308
375.7370, 1263.070
376.9360, 1001.850
378.1350, 716.6448
379.3330, 457.4561
380.5310, 361.2834
381.7300, 231.1262
382.9280, 170.9846
384.1260, 0.8581540
385.3230, 35.24365
386.5210, 123.3345
387.7180, 71.45532
388.9160, 168.5811
390.1130, 177.7612
391.3100, 48.00171
392.5060, 99.24463
393.7030, 68.51367
394.9000, 79.79590
396.0960, 7.097656
397.2920, 69.61230
398.4880, 102.3440
399.6840, 234.0972
400.8800, 337.8713
402.0750, 458.6660
403.2710, 598.4805
404.4660, 800.4202
405.6610, 1033.167
406.8560, 1296.039
408.0510, 1604.929
409.2450, 1957.836
410.4400, 2437.762
411.6340, 2746.705
412.8280, 3272.665
414.0220, 3906.642
415.2160, 4297.633
416.4100, 4784.644
417.6030, 5010.670
418.7970, 5200.709
419.9900, 5238.767
421.1830, 4893.839
422.3760, 4644.926
423.5690, 4332.027
424.7610, 3743.144
425.9540, 3272.276
427.1460, 2922.421
428.3380, 2349.581
429.5300, 1871.755
430.7220, 1547.943
431.9140, 1200.430
433.1050, 984.6450
434.2970, 821.9199
435.4880, 708.1748
436.6790, 527.0388
437.8700, 428.6882
439.0610, 386.4924
440.2510, 152.4351
441.4420, 94.30835
442.6320, 117.3679
443.8220, 33.75000
445.0120, 23.69580
446.2020, 23.84448
447.3910, 63.25293
448.5810, 24.88281
449.7700, 51.81006
450.9600, 6.801758
452.1490, 6.541992
453.3370, 50.64429
454.5260, 113.0950
455.7150, 121.0410
456.9030, 217.1675
458.0910, 238.4468
459.2800, 385.7346
460.4670, 500.4456
461.6550, 503.8450
462.8430, 747.1565
464.0300, 825.7959
465.2180, 824.1221
466.4050, 789.4551
467.5920, 746.7949
468.7790, 825.1416
469.9650, 830.4944
471.1520, 812.8538
472.3380, 778.2190
473.5250, 835.5903
474.7110, 939.9683
475.8970, 1338.354
477.0820, 1355.790
478.2680, 1433.862
479.4540, 1614.541
480.6390, 1526.947
481.8240, 1631.358
483.0090, 1909.775
484.1940, 2204.199
485.3780, 2459.630
486.5630, 2736.068
487.7470, 2934.514
488.9320, 3435.982
490.1160, 3893.457
491.3000, 4176.952
492.4830, 4481.454
493.6670, 4604.979
494.8500, 4536.510
496.0340, 4399.047
497.2170, 4059.592
498.4000, 3512.146
499.5820, 3174.708
500.7650, 2879.285
501.9480, 2506.873
503.1300, 2414.474
504.3120, 2054.090
505.4940, 2019.750
506.6760, 1841.436
507.8580, 1750.157
509.0390, 1585.905
510.2210, 1561.687
511.4020, 1466.485
512.5830, 1538.304
513.7640, 1389.136
514.9450, 1378.983
516.1250, 1312.848
517.3060, 1306.732
518.4860, 1407.631
519.6660, 1459.544
520.8460, 1631.460
522.0260, 1748.386
523.2060, 1955.325
524.3850, 2139.279
525.5650, 2298.235
526.7440, 2203.595
527.9230, 2074.252
529.1020, 1934.290
530.2810, 1782.131
531.4590, 1599.845
532.6380, 1340.708
533.8160, 1188.711
534.9940, 1039.008
536.1720, 905.7236
537.3500, 847.2805
538.5270, 743.2637
539.7050, 666.3169
540.8820, 645.3738
542.0590, 592.4302
543.2360, 537.4917
544.4130, 564.5537
545.5900, 544.6208
546.7660, 548.6902
547.9430, 518.7581
549.1190, 519.8296
550.2950, 498.5576
551.4710, 478.2449
552.6470, 438.1108
553.8220, 417.2095
554.9980, 343.3096
556.1730, 267.4197
557.3480, 315.5403
558.5230, 225.6572
559.6980, 231.7698
560.8730, 106.8794
562.0470, 159.9841
563.2220, 142.0881
564.3960, 157.1946
565.5700, 121.3176
566.7440, 122.4531
567.9170, 115.6033
569.0910, 63.74829
570.2640, 81.88721
571.4380, 82.01929
572.6110, 2.855469
573.7840, 62.25049
574.9570, 43.34888
576.1290, 31.56079
577.3020, 13.49463
578.4740, 22.53589
579.6460, 5.434570
580.8180, 24.42798
581.9900, 16.54492
583.1620, 41.49609
584.3330, 3.419922
585.5040, 33.25342
586.6760, 31.67114
587.8470, 16.27148
589.0180, 0.4846190
590.1880, 61.25610
591.3590, 30.61621
592.5290, 36.62231
593.7000, 33.01562
594.8700, 23.66089
596.0400, 4.325684
597.2090, 0.9733890
598.3790, 90.60156
599.5490, 88.22021
600.7180, 14.82837
601.8870, 32.42236
603.0560, 96.00391
604.2250, 38.42456
605.3940, 54.10547
606.5620, 59.62451
607.7300, 49.14038
608.8990, 164.6370
610.0670, 194.1228
611.2350, 98.59644
612.4020, 189.0588
613.5700, 220.5093
614.7370, 205.1741
615.9050, 254.3599
617.0720, 187.2971
618.2390, 289.6982
619.4060, 283.1123
620.5720, 314.5256
621.7390, 407.0466
622.9050, 470.6592
624.0710, 473.3823
625.2370, 601.2712
626.4030, 660.3655
627.5690, 690.6001
628.7340, 771.8687
629.9000, 774.1504
631.0650, 997.7180
632.2300, 961.8250
633.3950, 1129.771
634.5600, 1156.777
635.7240, 1258.272
636.8890, 1369.885
638.0530, 1653.281
639.2170, 1750.764
640.3810, 1929.553
641.5450, 2087.948
642.7080, 2305.558
643.8720, 2604.119
645.0350, 2813.615
646.1980, 3269.706
647.3610, 3575.535
648.5240, 4128.707
649.6870, 4594.126
650.8490, 5302.410
652.0120, 6096.112
653.1740, 6978.585
654.3360, 8354.659
655.4980, 9800.714
656.6600, 11817.93
657.8210, 14298.00
658.9830, 17308.14
660.1440, 21119.68
661.3050, 25332.82
662.4660, 30835.70
663.6270, 36329.02
664.7870, 42316.61
665.9480, 47065.83
667.1080, 51132.12
668.2680, 53055.41
669.4280, 51708.07
670.5880, 47702.48
671.7480, 42050.50
672.9070, 35116.89
674.0670, 28566.82
675.2260, 22875.10
676.3850, 18317.97
677.5440, 14996.48
678.7030, 12246.43
679.8610, 10347.96
681.0200, 8859.806
682.1780, 7492.683
683.3360, 6703.759
684.4940, 5975.740
685.6520, 5366.060
686.8090, 4965.779
687.9670, 4528.456
689.1240, 4399.993
690.2810, 4123.784
691.4380, 4011.377
692.5950, 4206.988
693.7520, 4221.260
694.9080, 4422.505
696.0650, 4734.977
697.2210, 5184.372
698.3770, 5703.685
699.5330, 6051.221
700.6880, 6740.366
701.8440, 7124.308
702.9990, 7489.958
704.1550, 7536.046
705.3100, 7234.104
706.4650, 6844.726
707.6190, 6020.960
708.7740, 5321.912
709.9290, 4671.822
711.0830, 4088.704
712.2370, 3573.046
713.3910, 3177.262
714.5450, 2798.007
715.6980, 2571.828
716.8520, 2497.949
718.0050, 2399.365
719.1580, 2439.511
720.3110, 2303.500
721.4640, 2082.542
722.6170, 2060.378
723.7700, 1717.874
724.9220, 1529.178
726.0740, 1318.466
727.2260, 1134.373
728.3780, 942.7720
729.5300, 812.4133
730.6810, 762.1321
731.8330, 624.4629
732.9840, 610.0107
734.1350, 616.1909
735.2860, 587.8564
736.4370, 490.3228
737.5880, 551.6162
738.7380, 426.8818
739.8880, 313.7051
741.0390, 450.8193
742.1890, 354.0015
743.3380, 300.8354
744.4880, 312.9629
745.6380, 161.0625
746.7870, 210.1348
747.9360, 207.1792
749.0850, 222.1968
750.2340, 167.1860
751.3830, 193.1484
752.5310, 108.0835
753.6800, 99.98975
754.8280, 159.8657
755.9760, 165.7139
757.1240, 155.4146
758.2720, 152.1807
759.4190, 123.0957
760.5670, 98.83350
761.7140, 83.54248
762.8610, 65.22070
764.0080, 48.86621
765.1550, 39.47900
766.3020, 24.94385
767.4480, 34.57129
768.5950, 14.94971
769.7410, 40.47363
770.8870, 38.13721
772.0330, 43.18359
773.1780, 87.47119
774.3240, 15.72949
775.4690, 20.94873
776.6140, 17.13037
777.7590, 7.726563
778.9040, 17.36670
780.0490, 47.42188
781.1940, 76.44580
782.3380, 85.56006
783.4820, 22.34570
784.6260, 3.215820
785.7700, 18.95605
786.9140, 61.81787
788.0580, 6.437012
789.2010, 45.73828
790.3450, 11.10693
791.4880, 21.52295
792.6310, 37.99268
793.7730, 41.52393
794.9160, 24.11768
796.0590, 26.29395
797.2010, 25.53369
798.3430, 12.19873
799.4850, 24.97705
800.6270, 32.80713
801.7690, 12.30762
802.9100, 34.38965
804.0520, 3.555664
805.1930, 36.54053
806.3340, 74.58008
807.4750, 7.695801
808.6160, 1.850586
809.7560, 56.04248
810.8970, 61.70166
812.0370, 17.42041
813.1770, 74.11230
814.3170, 45.22070
815.4570, 45.39014
816.5960, 2.4901999E-02
817.7360, 53.52930
818.8750, 7.940918
820.0140, 11.55420
821.1530, 11.97705
822.2920, 2.543945
823.4310, 45.85938
824.5690, 10.76074
825.7070, 89.41406
826.8460, 14.85889
827.9840, 43.10840
829.1220, 30.66504
830.2590, 10.47852
831.3970, 43.32275
832.5340, 48.21387
833.6710, 47.84668
834.8080, 58.88623
835.9450, 3.906738
837.0820, 117.9043
838.2190, 13.11621
839.3550, 27.16309
840.4910, 83.24414
841.6270, 68.24268
842.7630, 78.58447
843.8990, 6.159668
845.0350, 64.88477
846.1700, 82.59229
847.3060, 98.28467
848.4410, 19.95947
849.5760, 70.62402
850.7100, 150.2725
851.8450, 36.90625
852.9800, 87.53760
854.1140, 27.15625
855.2480, 88.76270
856.3820, 154.3608
857.5160, 160.9575
858.6500, 164.5430
859.7830, 218.1313
860.9170, 117.7124
862.0500, 217.2808
863.1830, 128.8374
864.3160, 132.3843
865.4480, 203.9238
866.5810, 239.4712
867.7130, 246.8340
868.8460, 183.5698
869.9780, 267.1226
871.1100, 272.6665
872.2410, 289.2109
873.3730, 321.7583
874.5050, 397.2998
875.6360, 377.8330
876.7670, 348.3594
877.8980, 478.8760
879.0290, 510.3818
880.1590, 640.8940
881.2900, 586.3960
882.4200, 625.8813
883.5500, 645.3647
884.6800, 704.8394
885.8100, 928.3047
886.9400, 1076.761
888.0690, 1155.210
889.1990, 1456.424
890.3280, 1622.586
891.4570, 1795.007
892.5860, 2172.429
893.7140, 2401.817
894.8430, 2817.187
895.9710, 3163.429
897.1000, 3393.579
898.2280, 3605.601
899.3560, 3688.437
900.4830, 3586.049
901.6110, 3361.505
902.7380, 3036.910
903.8660, 2655.290
904.9930, 2296.366
906.1200, 1953.885
907.2460, 1791.544
908.3730, 1620.126
909.5000, 1352.199
910.6260, 1274.137
911.7520, 1187.273
912.8780, 1136.306
914.0040, 1091.019
915.1290, 1038.112
916.2550, 1025.304
917.3800, 943.8877
918.5050, 971.8438
919.6300, 1012.187
920.7550, 933.7744
921.8800, 947.0000
923.0040, 925.9609
924.1290, 947.0361
925.2530, 834.6787
926.3770, 918.5283
927.5010, 842.7612
928.6250, 964.9990
929.7480, 994.0547
930.8720, 1043.243
931.9950, 1029.336
933.1180, 1089.022
934.2410, 1006.086
935.3640, 1173.395
936.4860, 1196.261
937.6090, 1190.823
938.7310, 1318.755
939.8530, 1393.610
940.9750, 1503.444
942.0970, 1579.938
943.2180, 1713.604
944.3400, 1871.867
945.4610, 1993.726
946.5820, 2173.044
947.7030, 2336.041
948.8240, 2693.451
949.9450, 2950.230
951.0650, 3286.551
952.1860, 3712.285
953.3060, 4123.695
954.4260, 4502.066
955.5460, 5004.236
956.6650, 5617.489
957.7850, 6274.392
958.9040, 7004.462
960.0230, 7657.418
961.1420, 8695.073
962.2610, 9556.456
963.3800, 10628.02
964.4990, 11575.55
965.6170, 12711.41
966.7350, 13773.28
967.8530, 14844.91
968.9710, 15920.60
970.0890, 17232.35
971.2070, 18426.87
972.3240, 19708.79
973.4410, 20671.89
974.5580, 21392.28
975.6750, 22443.21
976.7920, 22895.16
977.9090, 23576.54
979.0250, 23665.29
980.1410, 23444.31
981.2580, 22962.37
982.3740, 21592.43
983.4890, 20348.34
984.6050, 18635.45
985.7200, 17164.58
986.8360, 15574.65
987.9510, 14419.81
989.0660, 13307.90
990.1810, 12503.10
991.2950, 11959.31
992.4100, 11309.55
993.5240, 11067.80
994.6390, 11227.09
995.7530, 11379.41
996.8660, 11199.73
997.9800, 11164.08
999.0940, 10662.44
1000.207, 10453.82
1001.320, 10756.22
1002.433, 10595.64
1003.546, 9974.329
1004.659, 9384.113
1005.772, 9574.520
1006.884, 9750.924
1007.996, 9838.661
1009.108, 10374.71
1010.220, 10880.49
1011.332, 12056.10
1012.444, 12872.73
1013.555, 14370.39
1014.666, 16019.07
1015.777, 17716.78
1016.888, 19461.49
1017.999, 20978.22
1019.110, 22683.98
1020.220, 23262.75
1021.331, 23460.54
1022.441, 22767.35
1023.551, 21172.94
1024.661, 18836.79
1025.770, 16886.65
1026.880, 14562.54
1027.989, 12460.45
1029.098, 10807.38
1030.207, 9435.272
1031.316, 8005.767
1032.425, 7108.750
1033.533, 6159.753
1034.642, 5502.574
1035.750, 4885.644
1036.858, 4483.481
1037.966, 4200.968
1039.073, 3705.099
1040.181, 3562.252
1041.288, 3306.443
1042.396, 2993.656
1043.503, 2777.046
1044.610, 2602.146
1045.716, 2504.585
1046.823, 2361.520
1047.929, 2242.421
1049.036, 2208.977
1050.142, 2076.358
1051.248, 2073.751
1052.353, 1908.192
1053.459, 1852.656
1054.564, 1864.146
1055.670, 1787.667
1056.775, 1774.208
1057.880, 1691.775
1058.985, 1583.380
1060.089, 1602.030
1061.194, 1470.047
1062.298, 1549.761
1063.402, 1409.690
1064.506, 1269.454
1065.610, 1365.306
1066.713, 1209.119
1067.817, 1267.600
1068.920, 1179.228
1070.023, 1238.949
1071.126, 1213.900
1072.229, 1166.631
1073.332, 1159.540
1074.435, 1070.540
1075.537, 966.6987
1076.639, 901.3374
1077.741, 888.8364
1078.843, 872.3838
1079.945, 880.5264
1081.046, 942.9043
1082.148, 776.0601
1083.249, 668.2461
1084.350, 622.2627
1085.451, 711.7793
1086.551, 650.0674
1087.652, 533.4277
1088.752, 539.1543
1089.853, 483.0498
1090.953, 444.7031
1092.053, 490.0156
1093.152, 492.8521
1094.252, 373.3271
1095.351, 461.7090
1096.451, 357.1885
1097.550, 331.6035
1098.649, 278.0342
1099.748, 300.5000
1100.846, 175.9805
1101.945, 252.9829
1103.043, 271.4849
1104.141, 224.8394
1105.239, 271.6831
1106.337, 183.2393
1107.434, 177.9111
1108.532, 182.7383
1109.629, 150.1104
1110.726, 75.12109
1111.823, 138.0000
1112.920, 191.7812
1114.017, 104.6279
1115.113, 83.52832
1116.210, 149.9175
1117.306, 130.0679
1118.402, 220.5854
1119.498, 199.4336
1120.593, 186.1494
1121.689, 289.8726
1122.784, 191.8364
1123.879, 295.4287
1124.974, 237.3237
1126.069, 170.1499
1127.164, 186.9043
1128.259, 181.7271
1129.353, 122.6929
1130.447, 164.6343
1131.541, 50.62158
1132.635, 45.48779
1133.729, 55.98877
1134.822, 17.16992
1135.916, 20.12207
1137.009, 65.67236
1138.102, 64.61230
1139.195, 46.57275
1140.288, 25.18652
1141.380, 12.53857
1142.473, 55.93750
1143.565, 59.02002
1144.657, 2.765625
1145.749, 87.72461
1146.841, 60.19385
1147.932, 46.19775
1149.024, 67.49756
1150.115, 54.27539
1151.206, 14.17334
1152.297, 41.94531
1153.388, 25.71777
1154.479, 29.25391
1155.569, 11.52051
1156.659, 133.4087
1157.750, 82.20850
1158.839, 43.97412
1159.929, 13.73877
1161.019, 86.41943
1162.108, 19.69189
1163.198, 51.02881
1164.287, 102.7476
1165.376, 25.53516
1166.465, 0.1718750
1167.553, 44.12305
1168.642, 13.43701
1169.730, 54.24219
1170.818, 17.97949
1171.906, 8.910156
1172.994, 28.76953
1174.082, 4.772949
1175.170, 46.10400
1176.257, 29.76416
1177.344, 35.57910
1178.431, 13.94141
1179.518, 26.31494
1180.605, 56.70410
1181.691, 24.99219
1182.778, 44.72217
1183.864, 90.69678
1184.950, 86.51953
1186.036, 50.26025
1187.122, 71.19336
1188.207, 45.74512
1189.292, 16.29004
1190.378, 10.82910
1191.463, 2.769043
1192.548, 14.88184
1193.632, 1.789063
1194.717, 23.40381
1195.801, 11.01807
1196.886, 31.38721
1197.970, 5.133789
1199.054, 6.669434
1200.137, 7.222168
1201.221, 1.208496
1202.305, 15.37549
1203.388, 40.01807
1204.471, 37.40186
1205.554, 11.77637
1206.637, 63.72656
1207.719, 76.41260
1208.802, 28.15723
1209.884, 20.81738
1210.966, 11.37598
1212.048, 119.5566
1213.130, 116.7256
1214.212, 0.8837890
1215.293, 53.97852
1216.374, 45.11182
1217.456, 33.81104
1218.536, 10.22705
1219.617, 8.750488
1220.698, 19.96387
1221.778, 76.21045
1222.859, 12.16260
1223.939, 44.09570
1225.019, 134.0151
1226.099, 51.92236
1227.178, 136.8149
1228.258, 106.7305
1229.337, 74.59570
1230.417, 147.4482
1231.496, 18.28662
1232.574, 96.10498
1233.653, 37.07812
1234.732, 3.692871
1235.810, 81.43750
1236.888, 59.20898
1237.966, 32.93018
1239.044, 1.366211
1240.122, 29.30664
1241.199, 38.95996
1242.277, 65.59619
1243.354, 53.21582
1244.431, 43.81982
1245.508, 2.406250
1246.585, 31.37500
1247.661, 1.497070
1248.738, 68.99951
1249.814, 104.4844
1250.890, 106.5669
1251.966, 50.40674
1253.042, 23.84131
1254.117, 72.25146
1255.193, 63.35596
1256.268, 145.9668
1257.343, 97.27295
1258.418, 65.56201
1259.493, 73.83203
1260.567, 65.08447
1261.642, 96.31836
1262.716, 33.55273
1263.790, 106.7446
1264.864, 0.6640630
1265.938, 37.51953
1267.011, 23.65088
1268.085, 5.182617
1269.158, 34.64111
1270.231, 26.14209
