##NAMES=Serandite
##RRUFFID=R050261
##IDEAL CHEMISTRY=NaMn^2+^_2_Si_3_O_8_(OH)
##LOCALITY=Mont Saint-Hilaire, Rouville County, Quebec, Canada
##OWNER=RRUFF
##SOURCE=Marcus Origlieri
##DESCRIPTION=Orange tabular single crystal associated with aegirine and microcline
##STATUS=The identification of this mineral has been confirmed by X-ray diffraction and chemical analysis
##URL=rruff.info/R050261
##MEASURED CHEMISTRY=Na_0.96_(Mn_0.92_Ca_0.06_Fe_0.01_)_2_Si_3.03_O_8_(OH)
##PIN_ID=L01880
##ORIENTATION=Laser parallel to (1 0 1). Fiducial mark perpendicular to laser is parallel to b [0 1 0]
93.48000, 0.0000000E+00
94.71400, 1.259827
95.94800, 16.41223
97.18200, 5.115112
98.41600, 68.05737
99.64900, 148.2661
100.8830, 266.6891
102.1160, 391.1370
103.3490, 568.1052
104.5820, 842.7227
105.8150, 1140.436
107.0470, 1572.888
108.2800, 2128.474
109.5120, 2525.693
110.7440, 3480.977
111.9760, 3578.914
113.2080, 4028.325
114.4400, 4749.208
115.6710, 5845.553
116.9030, 6660.336
118.1340, 6474.534
119.3650, 5291.120
120.5960, 3861.725
121.8270, 2685.491
123.0580, 1839.117
124.2880, 1259.320
125.5190, 892.9371
126.7490, 679.9725
127.9790, 641.3961
129.2090, 627.1716
130.4390, 796.2902
131.6680, 987.7471
132.8980, 1170.525
134.1270, 1237.601
135.3560, 1235.948
136.5850, 1227.539
137.8140, 1126.354
139.0430, 992.3726
140.2710, 760.5773
141.5000, 518.9530
142.7280, 328.4862
143.9560, 145.1646
145.1840, 60.97363
146.4120, 49.09692
147.6390, 88.05444
148.8670, 71.90710
150.0940, 81.66199
151.3210, 9.325562
152.5490, 53.09570
153.7750, 126.5964
155.0020, 233.1738
156.2290, 328.9332
157.4550, 494.0974
158.6810, 793.5549
159.9080, 982.1174
161.1340, 1357.697
162.3590, 1695.286
163.5850, 1955.886
164.8110, 2326.564
166.0360, 2556.530
167.2610, 2885.787
168.4860, 2984.177
169.7110, 3023.696
170.9360, 2689.306
172.1610, 2358.992
173.3850, 2003.704
174.6100, 1676.393
175.8340, 1448.055
177.0580, 1264.692
178.2820, 1150.309
179.5050, 968.9092
180.7290, 773.4924
181.9520, 601.0574
183.1760, 408.6053
184.3990, 299.1379
185.6220, 243.6573
186.8450, 119.1648
188.0670, 79.66150
189.2900, 37.14832
190.5120, 33.62622
191.7340, 10.09558
192.9560, 70.55701
194.1780, 38.97668
195.4000, 54.33301
196.6220, 168.6696
197.8430, 155.0056
199.0640, 232.3470
200.2860, 224.6842
201.5070, 345.0165
202.7270, 435.3440
203.9480, 486.6663
205.1690, 454.9832
206.3890, 431.2942
207.6090, 507.5991
208.8290, 565.8975
210.0490, 597.1892
211.2690, 593.4736
212.4890, 537.7506
213.7080, 599.0200
214.9280, 603.2812
216.1470, 642.6362
217.3660, 719.5748
218.5850, 771.0295
219.8030, 845.4135
221.0220, 952.5730
222.2400, 1094.651
223.4590, 1300.282
224.6770, 1472.865
225.8950, 1683.104
227.1120, 1806.920
228.3300, 2016.730
229.5480, 2233.532
230.7650, 2464.325
231.9820, 2548.107
233.1990, 2710.884
234.4160, 2718.121
235.6330, 2584.750
236.8490, 2485.481
238.0660, 2379.751
239.2820, 2192.428
240.4980, 2000.109
241.7140, 1801.540
242.9300, 1631.094
244.1460, 1509.625
245.3610, 1434.193
246.5770, 1411.944
247.7920, 1446.794
249.0070, 1426.347
250.2220, 1543.575
251.4370, 1702.604
252.6510, 1896.553
253.8660, 2022.368
255.0800, 2217.053
256.2940, 2330.780
257.5080, 2309.546
258.7220, 2399.349
259.9360, 2299.186
261.1490, 2141.055
262.3630, 1839.954
263.5760, 1561.880
264.7890, 1356.831
266.0020, 1137.806
267.2150, 1020.704
268.4270, 795.5195
269.6400, 680.3567
270.8520, 614.2180
272.0640, 491.1019
273.2760, 431.0063
274.4880, 423.9292
275.7000, 393.8690
276.9120, 395.8240
278.1230, 369.7925
279.3340, 362.7729
280.5450, 400.7640
281.7560, 425.7643
282.9670, 438.7726
284.1780, 443.5328
285.3880, 411.8088
286.5980, 419.8351
287.8090, 430.8655
289.0190, 397.8994
290.2290, 416.9355
291.4380, 400.9739
292.6480, 384.7024
293.8570, 384.7585
295.0670, 353.1135
296.2760, 346.7141
297.4850, 329.5852
298.6930, 266.9419
299.9020, 282.9796
301.1110, 213.0422
302.3190, 195.5586
303.5270, 184.5907
304.7350, 130.6130
305.9430, 156.6285
307.1510, 132.6373
308.3580, 134.6393
309.5660, 50.63403
310.7730, 102.6216
311.9800, 84.60022
313.1870, 35.56897
314.3940, 79.52698
315.6010, 94.47363
316.8070, 81.40881
318.0130, 173.3319
319.2200, 142.2428
320.4260, 168.1416
321.6310, 135.0283
322.8370, 290.9031
324.0430, 265.7660
325.2480, 301.6172
326.4540, 292.4564
327.6590, 220.2839
328.8640, 271.0999
330.0680, 229.9041
331.2730, 221.6967
332.4780, 180.4777
333.6820, 127.2469
334.8860, 75.00488
336.0900, 83.75122
337.2940, 26.48596
338.4980, 23.20850
339.7010, 1.082031
340.9050, 18.39001
342.1080, 27.72034
343.3110, 41.01746
344.5140, 46.45886
345.7170, 47.87231
346.9200, 38.31592
348.1220, 22.78735
349.3240, 21.93665
350.5270, 2.801392
351.7290, 8.338623
352.9310, 4.103882
354.1320, 16.52979
355.3340, 19.94189
356.5350, 56.34070
357.7370, 69.72852
358.9380, 93.10571
360.1390, 108.2041
361.3400, 139.8265
362.5400, 128.1611
363.7410, 129.4561
364.9410, 132.6996
366.1410, 104.8922
367.3410, 95.04736
368.5410, 68.17517
369.7410, 65.28491
370.9400, 41.38354
372.1400, 28.70361
373.3390, 2.554199
374.5380, 6.620117
375.7370, 22.32739
376.9360, 23.29602
378.1350, 58.28577
379.3330, 56.59998
380.5310, 83.39038
381.7300, 55.53918
382.9280, 62.76794
384.1260, 55.07129
385.3230, 99.41577
386.5210, 60.82410
387.7180, 73.27869
388.9160, 69.78687
390.1130, 38.34814
391.3100, 37.94629
392.5060, 47.58191
393.7030, 9.260376
394.9000, 20.96155
396.0960, 18.30786
397.2920, 25.56677
398.4880, 68.81702
399.6840, 69.06079
400.8800, 92.79199
402.0750, 78.52844
403.2710, 135.7521
404.4660, 176.9686
405.6610, 218.1779
406.8560, 278.3800
408.0510, 294.5750
409.2450, 333.7623
410.4400, 382.9421
411.6340, 391.1149
412.8280, 424.2810
414.0220, 462.4403
415.2160, 442.5930
416.4100, 423.7385
417.6030, 422.8774
418.7970, 386.1393
419.9900, 317.1344
421.1830, 316.2522
422.3760, 291.3629
423.5690, 244.4667
424.7610, 259.5635
425.9540, 194.6532
427.1460, 147.7361
428.3380, 181.8120
429.5300, 132.8812
430.7220, 67.94336
431.9140, 97.99866
433.1050, 47.04736
434.2970, 64.08923
435.4880, 45.12439
436.6790, 11.15881
437.8700, 11.19739
439.0610, 15.23718
440.2510, 35.28052
441.4420, 0.3184810
442.6320, 44.34534
443.8220, 14.36560
445.0120, 4.621094
446.2020, 16.37903
447.3910, 30.37268
448.5810, 29.91101
449.7700, 45.34106
450.9600, 43.31592
452.1490, 38.28479
453.3370, 40.24756
454.5260, 55.51440
455.7150, 68.75330
456.9030, 101.1003
458.0910, 117.0396
459.2800, 153.9734
460.4670, 188.9012
461.6550, 215.8237
462.8430, 203.7408
464.0300, 248.6526
465.2180, 251.5590
466.4050, 313.4603
467.5920, 292.3564
468.7790, 377.2476
469.9650, 424.1338
471.1520, 456.0151
472.3380, 513.8916
473.5250, 550.7637
474.7110, 572.6307
475.8970, 644.4937
477.0820, 699.4420
478.2680, 738.2058
479.4540, 856.0555
480.6390, 907.8157
481.8240, 1008.491
483.0090, 1086.054
484.1940, 1267.513
485.3780, 1363.368
486.5630, 1502.373
487.7470, 1646.020
488.9320, 1902.562
490.1160, 2069.692
491.3000, 2141.783
492.4830, 2195.922
493.6670, 2174.250
494.8500, 2083.226
496.0340, 1946.971
497.2170, 1846.304
498.4000, 1685.754
499.5820, 1503.578
500.7650, 1418.404
501.9480, 1321.237
503.1300, 1215.075
504.3120, 1154.926
505.4940, 1054.782
506.6760, 983.6448
507.8580, 874.5092
509.0390, 753.3838
510.2210, 659.2751
511.4020, 633.1743
512.5830, 505.0825
513.7640, 435.9911
514.9450, 338.7142
516.1250, 375.4141
517.3060, 297.3562
518.4860, 301.5020
519.6660, 334.6057
520.8460, 303.5271
522.0260, 313.5685
523.2060, 300.9449
524.3850, 409.0901
525.5650, 386.8010
526.7440, 362.0144
527.9230, 462.4640
529.1020, 467.3606
530.2810, 421.4956
531.4590, 462.8804
532.6380, 478.2751
533.8160, 519.7230
534.9940, 559.5994
536.1720, 571.9435
537.3500, 574.5095
538.5270, 612.2738
539.7050, 623.2537
540.8820, 657.4155
542.0590, 668.5867
543.2360, 677.7683
544.4130, 662.9563
545.5900, 661.1517
546.7660, 657.3538
547.9430, 640.4928
549.1190, 631.8297
550.2950, 600.0159
551.4710, 587.2579
552.6470, 545.5076
553.8220, 488.7638
554.9980, 480.0341
556.1730, 434.8143
557.3480, 479.6171
558.5230, 381.9220
559.6980, 390.2334
560.8730, 386.5555
562.0470, 345.8842
563.2220, 342.2264
564.3960, 307.5852
565.5700, 267.9619
566.7440, 275.3510
567.9170, 281.7567
569.0910, 258.1780
570.2640, 262.0908
571.4380, 250.0535
572.6110, 248.5138
573.7840, 242.9852
574.9570, 240.8019
576.1290, 193.9469
577.3020, 218.4373
578.4740, 192.8199
579.6460, 184.2245
580.8180, 230.7017
581.9900, 212.2283
583.1620, 185.4438
584.3330, 170.9832
585.5040, 170.5054
586.6760, 164.8337
587.8470, 175.3558
589.0180, 180.7040
590.1880, 195.2787
591.3590, 215.8596
592.5290, 205.4468
593.7000, 196.0405
594.8700, 227.6404
596.0400, 216.2466
597.2090, 245.8594
598.3790, 264.4783
599.5490, 275.5236
600.7180, 250.7351
601.8870, 307.3729
603.0560, 348.0172
604.2250, 355.6675
605.3940, 329.3242
606.5620, 340.9873
607.7300, 355.6566
608.8990, 393.3323
610.0670, 396.0140
611.2350, 440.7019
612.4020, 427.3962
613.5700, 448.0967
614.7370, 487.8032
615.9050, 544.5159
617.0720, 547.2350
618.2390, 603.9602
619.4060, 635.6914
620.5720, 693.4286
621.7390, 706.1731
622.9050, 768.9249
624.0710, 828.6892
625.2370, 894.4822
626.4030, 938.2836
627.5690, 1019.108
628.7340, 1079.972
629.9000, 1134.860
631.0650, 1279.784
632.2300, 1371.939
633.3950, 1486.873
634.5600, 1556.970
635.7240, 1772.999
636.8890, 1989.976
638.0530, 2105.542
639.2170, 2381.008
640.3810, 2615.248
641.5450, 2856.149
642.7080, 3151.701
643.8720, 3399.599
645.0350, 3787.022
646.1980, 4320.600
647.3610, 4861.956
648.5240, 5493.351
649.6870, 6107.098
650.8490, 7156.870
652.0120, 8219.929
653.1740, 9752.769
654.3360, 11632.02
655.4980, 13864.88
656.6600, 16858.78
657.8210, 20577.96
658.9830, 25511.84
660.1440, 31091.33
661.3050, 37356.76
662.4660, 43730.32
663.6270, 50055.39
664.7870, 55401.58
665.9480, 58924.28
667.1080, 59326.55
668.2680, 56697.65
669.4280, 50910.32
670.5880, 43803.07
671.7480, 36450.89
672.9070, 29718.27
674.0670, 23865.66
675.2260, 19336.44
676.3850, 15763.90
677.5440, 12960.41
678.7030, 11029.62
679.8610, 9520.385
681.0200, 8241.452
682.1780, 7167.825
683.3360, 6676.347
684.4940, 6113.038
685.6520, 5651.570
686.8090, 5455.984
687.9670, 5261.483
689.1240, 5176.892
690.2810, 5322.609
691.4380, 5542.237
692.5950, 5959.743
693.7520, 6609.896
694.9080, 7341.049
696.0650, 8285.203
697.2210, 9167.679
698.3770, 10042.18
699.5330, 10918.46
700.6880, 11638.96
701.8440, 11833.93
702.9990, 11551.60
704.1550, 10710.59
705.3100, 9625.206
706.4650, 8387.955
707.6190, 7350.335
708.7740, 6265.804
709.9290, 5285.206
711.0830, 4469.922
712.2370, 3777.210
713.3910, 3338.586
714.5450, 2920.957
715.6980, 2647.323
716.8520, 2412.685
718.0050, 2155.032
719.1580, 1908.891
720.3110, 1711.764
721.4640, 1588.174
722.6170, 1384.530
723.7700, 1193.448
724.9220, 1131.786
726.0740, 989.1141
727.2260, 914.4695
728.3780, 834.7867
729.5300, 716.0981
730.6810, 652.4037
731.8330, 670.7034
732.9840, 568.9974
734.1350, 524.2852
735.2860, 452.5669
736.4370, 466.8427
737.5880, 393.1121
738.7380, 416.3752
739.8880, 347.6322
741.0390, 301.8828
742.1890, 324.1270
743.3380, 242.3646
744.4880, 242.5956
745.6380, 246.8201
746.7870, 213.0380
747.9360, 194.2490
749.0850, 162.4531
750.2340, 116.6506
751.3830, 122.8413
752.5310, 113.0250
753.6800, 123.2018
754.8280, 137.3715
755.9760, 117.5341
757.1240, 110.6456
758.2720, 106.8379
759.4190, 66.97900
760.5670, 74.11279
761.7140, 50.23914
762.8610, 14.35828
764.0080, 43.46948
765.1550, 26.57300
766.3020, 15.66882
767.4480, 16.75659
768.5950, 13.83618
769.7410, 18.09277
770.8870, 42.95789
772.0330, 15.99963
773.1780, 7.023193
774.3240, 23.03687
775.4690, 21.95813
776.6140, 3.976563
777.7590, 9.2770001E-03
778.9040, 26.05420
780.0490, 20.12561
781.1940, 41.22021
782.3380, 17.34937
783.4820, 19.50085
784.6260, 0.3242190
785.7700, 31.86389
786.9140, 53.08240
788.0580, 21.34253
789.2010, 25.62744
790.3450, 5.939941
791.4880, 3.966431
792.6310, 69.61121
793.7730, 6.003784
794.9160, 9.586060
796.0590, 52.83423
797.2010, 30.29712
798.3430, 28.79053
799.4850, 30.31409
800.6270, 37.86877
801.7690, 23.45850
802.9100, 15.07605
804.0520, 7.717041
805.1930, 20.37793
806.3340, 2.934814
807.4750, 29.76709
808.6160, 46.50061
809.7560, 7.275146
810.8970, 23.06970
812.0370, 3.107178
813.1770, 25.26929
814.3170, 18.42053
815.4570, 35.43921
816.5960, 3.665894
817.7360, 1.243530
818.8750, 6.170044
820.0140, 14.88330
821.1530, 4.926025
822.2920, 11.95483
823.4310, 7.027710
824.5690, 18.96997
825.7070, 7.043091
826.8460, 12.07605
827.9840, 5.868408
829.1220, 14.79993
830.2590, 19.27917
831.3970, 19.38428
832.5340, 19.51575
833.6710, 19.32703
834.8080, 13.15930
835.9450, 6.018921
837.0820, 10.78418
838.2190, 17.42334
839.3550, 28.65515
840.4910, 33.91724
841.6270, 12.21216
842.7630, 30.52844
843.8990, 24.87549
845.0350, 10.74988
846.1700, 41.63477
847.3060, 15.05566
848.4410, 8.498779
849.5760, 28.03992
850.7100, 35.56934
851.8450, 38.08997
852.9800, 25.60156
854.1140, 10.89587
855.2480, 3.412109
856.3820, 3.942993
857.5160, 7.511353
858.6500, 18.95642
859.7830, 5.607178
860.9170, 19.81396
862.0500, 27.22705
863.1830, 12.63147
864.3160, 50.02747
865.4480, 30.41528
866.5810, 42.79517
867.7130, 32.16711
868.8460, 39.48413
869.9780, 66.88733
871.1100, 57.23572
872.2410, 104.5767
873.3730, 116.9100
874.5050, 104.2358
875.6360, 130.5544
876.7670, 167.8656
877.8980, 139.1696
879.0290, 192.4664
880.1590, 167.7560
881.2900, 238.0406
882.4200, 252.3208
883.5500, 276.5940
884.6800, 356.8611
885.8100, 410.1227
886.9400, 519.3787
888.0690, 576.6289
889.1990, 722.8729
890.3280, 834.1168
891.4570, 1070.354
892.5860, 1218.586
893.7140, 1500.811
894.8430, 1579.030
895.9710, 1756.246
897.1000, 1852.455
898.2280, 1923.659
899.3560, 1835.846
900.4830, 1723.045
901.6110, 1610.239
902.7380, 1403.418
903.8660, 1261.594
904.9930, 1173.749
906.1200, 905.6898
907.2460, 857.8756
908.3730, 776.9099
909.5000, 781.0215
910.6260, 736.2004
911.7520, 658.8029
912.8780, 678.5095
914.0040, 740.4442
915.1290, 676.7209
916.2550, 712.3477
917.3800, 653.6282
918.5050, 739.3865
919.6300, 738.9895
920.7550, 692.8264
921.8800, 726.6248
923.0040, 737.0837
924.1290, 774.5183
925.2530, 757.6692
926.3770, 777.0425
927.5010, 827.0090
928.6250, 828.3677
929.7480, 862.7065
930.8720, 918.7737
931.9950, 938.1622
933.1180, 993.9547
934.2410, 1088.837
935.3640, 1088.620
936.4860, 1176.920
937.6090, 1240.126
938.7310, 1366.854
939.8530, 1396.040
940.9750, 1501.428
942.0970, 1637.275
943.2180, 1729.068
944.3400, 1918.809
945.4610, 2079.015
946.5820, 2168.230
947.7030, 2429.089
948.8240, 2714.265
949.9450, 2858.414
951.0650, 3141.860
952.1860, 3485.759
953.3060, 3877.360
954.4260, 4264.628
955.5460, 4725.818
956.6650, 5153.815
957.7850, 5667.974
958.9040, 6178.253
960.0230, 6848.451
961.1420, 7470.741
962.2610, 8228.724
963.3800, 8932.799
964.4990, 9584.995
965.6170, 10204.55
966.7350, 10749.10
967.8530, 11424.66
968.9710, 11924.90
970.0890, 12365.12
971.2070, 12720.56
972.3240, 12917.79
973.4410, 12905.55
974.5580, 13139.63
975.6750, 13036.39
976.7920, 12748.53
977.9090, 12619.54
979.0250, 12317.91
980.1410, 12378.21
981.2580, 12099.57
982.3740, 12003.62
983.4890, 11972.10
984.6050, 11610.50
985.7200, 11621.91
986.8360, 11422.32
987.9510, 11139.75
989.0660, 10971.20
990.1810, 10910.13
991.2950, 10820.07
992.4100, 10663.47
993.5240, 10654.93
994.6390, 10866.84
995.7530, 10911.34
996.8660, 11123.85
997.9800, 11271.34
999.0940, 11201.87
1000.207, 11279.41
1001.320, 11277.96
1002.433, 11208.51
1003.546, 11403.09
1004.659, 11612.67
1005.772, 12187.27
1006.884, 12798.88
1007.996, 13801.49
1009.108, 15104.11
1010.220, 16850.74
1011.332, 19018.38
1012.444, 21199.02
1013.555, 24068.68
1014.666, 26951.70
1015.777, 30211.82
1016.888, 32666.50
1017.999, 34613.27
1019.110, 35050.19
1020.220, 34431.06
1021.331, 32360.90
1022.441, 29643.63
1023.551, 26030.71
1024.661, 22678.45
1025.770, 19341.20
1026.880, 16419.96
1027.989, 13956.72
1029.098, 11896.92
1030.207, 10051.69
1031.316, 8811.483
1032.425, 7806.288
1033.533, 6795.560
1034.642, 6159.372
1035.750, 5456.267
1036.858, 4878.093
1037.966, 4492.137
1039.073, 4083.031
1040.181, 3716.522
1041.288, 3462.060
1042.396, 3212.959
1043.503, 3047.583
1044.610, 2878.578
1045.716, 2645.485
1046.823, 2537.971
1047.929, 2344.938
1049.036, 2229.937
1050.142, 2156.894
1051.248, 2055.890
1052.353, 1904.880
1053.459, 1842.877
1054.564, 1740.029
1055.670, 1703.290
1056.775, 1619.402
1057.880, 1576.659
1058.985, 1522.850
1060.089, 1438.167
1061.194, 1427.557
1062.298, 1329.798
1063.402, 1283.282
1064.506, 1278.823
1065.610, 1159.000
1066.713, 1205.259
1067.817, 1195.102
1068.920, 1093.347
1070.023, 1044.476
1071.126, 993.7389
1072.229, 989.2808
1073.332, 964.6753
1074.435, 906.0200
1075.537, 862.4680
1076.639, 850.9358
1077.741, 785.9520
1078.843, 735.4491
1079.945, 771.1504
1081.046, 659.5508
1082.148, 699.0031
1083.249, 647.4666
1084.350, 614.9767
1085.451, 574.5519
1086.551, 520.8093
1087.652, 607.0948
1088.752, 476.7288
1089.853, 519.3351
1090.953, 397.9209
1092.053, 418.4902
1093.152, 378.9719
1094.252, 339.5166
1095.351, 356.0370
1096.451, 376.6515
1097.550, 329.2158
1098.649, 285.8379
1099.748, 300.5831
1100.846, 276.3179
1101.945, 270.7043
1103.043, 253.2949
1104.141, 247.6221
1105.239, 236.2703
1106.337, 181.9226
1107.434, 183.6660
1108.532, 214.2650
1109.629, 142.4424
1110.726, 192.1895
1111.823, 163.8898
1112.920, 86.17603
1114.017, 151.9712
1115.113, 157.9506
1116.210, 162.2247
1117.306, 85.95923
1118.402, 149.2537
1119.498, 141.2145
1120.593, 144.0688
1121.689, 213.9053
1122.784, 140.8771
1123.879, 137.9053
1124.974, 122.9049
1126.069, 135.6465
1127.164, 170.4269
1128.259, 148.2794
1129.353, 105.5292
1130.447, 51.54028
1131.541, 29.30908
1132.635, 90.22266
1133.729, 8.047852
1134.822, 41.23926
1135.916, 70.09961
1137.009, 36.32568
1138.102, 52.26221
1139.195, 32.14136
1140.288, 27.97449
1141.380, 49.77112
1142.473, 26.58154
1143.565, 14.39441
1144.657, 18.26184
1145.749, 15.73267
1146.841, 18.27393
1147.932, 4.588745
1149.024, 4.627563
1150.115, 10.82422
1151.206, 8.074219
1152.297, 7.355835
1153.388, 13.30847
1154.479, 34.02917
1155.569, 18.74438
1156.659, 45.45435
1157.750, 0.2763670
1158.839, 50.64111
1159.929, 13.65198
1161.019, 47.97754
1162.108, 42.71960
1163.198, 0.5273440
1164.287, 31.82983
1165.376, 1.882202
1166.465, 24.40747
1167.553, 12.37500
1168.642, 5.755981
1169.730, 0.1777340
1170.818, 47.60339
1171.906, 15.05652
1172.994, 4.479126
1174.082, 31.98889
1175.170, 37.37903
1176.257, 32.10950
1177.344, 11.22803
1178.431, 5.246948
1179.518, 2.716675
1180.605, 22.34094
1181.691, 13.84973
1182.778, 25.30505
1183.864, 32.17517
1184.950, 0.2518310
1186.036, 35.08997
1187.122, 10.38562
1188.207, 0.1423340
1189.292, 2.691895
1190.378, 26.69141
1191.463, 33.93140
1192.548, 3.721924
1193.632, 1.735840
1194.717, 34.40405
1195.801, 39.04041
1196.886, 12.54846
1197.970, 5.267822
1199.054, 31.01941
1200.137, 24.42383
1201.221, 38.85535
1202.305, 2.135010
1203.388, 13.46167
1204.471, 29.67139
1205.554, 7.979248
1206.637, 8.185303
1207.719, 2.560181
1208.802, 10.62048
1209.884, 3.779907
1210.966, 40.93799
1212.048, 30.80505
1213.130, 30.38855
1214.212, 24.38550
1215.293, 11.54150
1216.374, 2.359863
1217.456, 18.24438
1218.536, 7.439575
1219.617, 15.10815
1220.698, 22.20068
1221.778, 29.21399
1222.859, 52.25134
1223.939, 40.25208
1225.019, 49.50793
1226.099, 29.22131
1227.178, 43.18909
1228.258, 33.14575
1229.337, 16.09082
1230.417, 18.02295
1231.496, 1.942749
1232.574, 51.84424
1233.653, 12.26465
1234.732, 42.59961
1235.810, 32.54712
1236.888, 27.26831
1237.966, 66.07324
1239.044, 9.866943
1240.122, 37.64380
1241.199, 52.40796
1242.277, 9.159546
1243.354, 35.89368
1244.431, 19.61450
1245.508, 11.32007
1246.585, 57.00781
1247.661, 11.68250
1248.738, 0.6608890
1249.814, 32.97168
1250.890, 38.59021
1251.966, 15.80542
1253.042, 22.76697
1254.117, 15.67676
1255.193, 66.84644
1256.268, 11.64355
1257.343, 42.83496
1258.418, 17.29907
1259.493, 26.74487
1260.567, 65.17468
1261.642, 35.59082
1262.716, 52.99194
1263.790, 32.62158
1264.864, 45.72241
1265.938, 0.9449460
1267.011, 35.43018
1268.085, 42.71924
1269.158, 54.02124
1270.231, 63.10486
