##NAMES=Serandite
##RRUFFID=R050261
##IDEAL CHEMISTRY=NaMn^2+^_2_Si_3_O_8_(OH)
##LOCALITY=Mont Saint-Hilaire, Rouville County, Quebec, Canada
##OWNER=RRUFF
##SOURCE=Marcus Origlieri
##DESCRIPTION=Orange tabular single crystal associated with aegirine and microcline
##STATUS=The identification of this mineral has been confirmed by X-ray diffraction and chemical analysis
##URL=rruff.info/R050261
##MEASURED CHEMISTRY=Na_0.96_(Mn_0.92_Ca_0.06_Fe_0.01_)_2_Si_3.03_O_8_(OH)
##PIN_ID=L01850
##ORIENTATION=Laser parallel to -b* (0 -1 0). Fiducial mark perpendicular to laser is parallel to c [0 0 1]
93.48000, 0.0000000E+00
94.71400, 39.82568
95.94800, 96.93384
97.18200, 16.43750
98.41600, 46.64575
99.64900, 189.2251
100.8830, 244.9141
102.1160, 424.0322
103.3490, 565.2729
104.5820, 831.7217
105.8150, 1142.711
107.0470, 1521.135
108.2800, 1998.520
109.5120, 2673.029
110.7440, 3146.434
111.9760, 3178.539
113.2080, 3099.183
114.4400, 3619.234
115.6710, 4097.577
116.9030, 4135.107
118.1340, 3784.720
119.3650, 3195.331
120.5960, 2609.143
121.8270, 1989.774
123.0580, 1564.578
124.2880, 1278.134
125.5190, 807.3848
126.7490, 533.2827
127.9790, 547.7832
129.2090, 630.8457
130.4390, 932.4482
131.6680, 1036.588
132.8980, 1037.253
134.1270, 1111.429
135.3560, 1277.090
136.5850, 1284.194
137.8140, 1338.708
139.0430, 1187.599
140.2710, 982.8403
141.5000, 761.4072
142.7280, 530.2822
143.9560, 270.4434
145.1840, 69.87402
146.4120, 15.44141
147.6390, 102.5151
148.8670, 12.36084
150.0940, 3.989258
151.3210, 61.58838
152.5490, 187.3618
153.7750, 236.3228
155.0020, 360.4624
156.2290, 454.3394
157.4550, 594.2456
158.6810, 689.8745
159.9080, 917.6533
161.1340, 1114.575
162.3590, 1342.634
163.5850, 1668.826
164.8110, 1833.144
166.0360, 1887.719
167.2610, 2111.831
168.4860, 2093.128
169.7110, 2012.802
170.9360, 1931.730
172.1610, 1726.916
173.3850, 1608.379
174.6100, 1175.062
175.8340, 947.7969
177.0580, 814.5195
178.2820, 596.2363
179.5050, 439.9536
180.7290, 472.6772
181.9520, 490.4097
183.1760, 574.1543
184.3990, 649.4766
185.6220, 724.6958
186.8450, 876.4971
188.0670, 1005.322
189.2900, 1170.171
190.5120, 1282.046
191.7340, 1400.950
192.9560, 1472.880
194.1780, 1587.827
195.4000, 1411.792
196.6220, 1255.795
197.8430, 1201.830
199.0640, 1126.896
200.2860, 997.9927
201.5070, 833.1201
202.7270, 727.8643
203.9480, 589.4673
205.1690, 445.6865
206.3890, 354.9351
207.6090, 185.2129
208.8290, 141.5195
210.0490, 77.85352
211.2690, 141.2158
212.4890, 101.6045
213.7080, 141.0190
214.9280, 126.4595
216.1470, 150.9248
217.3660, 192.4150
218.5850, 214.9287
219.8030, 405.4663
221.0220, 457.0278
222.2400, 578.6104
223.4590, 633.2153
224.6770, 801.8428
225.8950, 828.4897
227.1120, 937.1577
228.3300, 1178.846
229.5480, 1227.554
230.7650, 1361.281
231.9820, 1289.027
233.1990, 1382.790
234.4160, 1486.571
235.6330, 1192.371
236.8490, 1363.684
238.0660, 1279.112
239.2820, 1254.635
240.4980, 1069.048
241.7140, 1161.527
242.9300, 1137.162
244.1460, 1142.650
245.3610, 1154.043
246.5770, 1364.898
247.7920, 1606.061
249.0070, 1844.793
250.2220, 2116.145
251.4370, 2488.080
252.6510, 2715.659
253.8660, 3146.886
255.0800, 3361.707
256.2940, 3568.532
257.5080, 3843.859
258.7220, 3977.223
259.9360, 4079.697
261.1490, 4063.271
262.3630, 3712.943
263.5760, 3627.704
264.7890, 3356.551
266.0020, 3123.478
267.2150, 2955.441
268.4270, 2775.131
269.6400, 2712.579
270.8520, 2558.750
272.0640, 2477.984
273.2760, 2497.279
274.4880, 2422.631
275.7000, 2422.306
276.9120, 2355.496
278.1230, 2465.005
279.3340, 2481.562
280.5450, 2614.163
281.7560, 2833.806
282.9670, 2915.491
284.1780, 3101.214
285.3880, 3277.974
286.5980, 3301.768
287.8090, 3429.597
289.0190, 3516.459
290.2290, 3735.350
291.4380, 3834.272
292.6480, 3756.115
293.8570, 3930.640
295.0670, 3803.562
296.2760, 3844.552
297.4850, 3825.031
298.6930, 3684.106
299.9020, 3549.342
301.1110, 3342.462
302.3190, 3098.623
303.5270, 2837.804
304.7350, 2560.011
305.9430, 2486.244
307.1510, 2227.494
308.3580, 2087.761
309.5660, 2018.045
310.7730, 1814.346
311.9800, 1742.662
313.1870, 1780.990
314.3940, 1866.330
315.6010, 1823.679
316.8070, 1902.038
318.0130, 1987.403
319.2200, 2201.774
320.4260, 2268.150
321.6310, 2542.531
322.8370, 2553.916
324.0430, 2745.307
325.2480, 2886.702
326.4540, 2818.101
327.6590, 2867.505
328.8640, 2703.913
330.0680, 2561.325
331.2730, 2379.742
332.4780, 2175.163
333.6820, 1848.588
334.8860, 1634.017
336.0900, 1319.449
337.2940, 1126.187
338.4980, 1032.324
339.7010, 786.7671
340.9050, 647.2129
342.1080, 569.6606
343.3110, 413.1128
344.5140, 485.5669
345.7170, 343.0239
346.9200, 326.4834
348.1220, 258.9438
349.3240, 263.4072
350.5270, 289.8726
351.7290, 263.3394
352.9310, 264.8081
354.1320, 273.2783
355.3340, 291.7500
356.5350, 379.2227
357.7370, 472.6973
358.9380, 429.1719
360.1390, 415.6484
361.3400, 432.1250
362.5400, 542.6021
363.7410, 484.0796
364.9410, 558.5576
366.1410, 457.0356
367.3410, 403.5146
368.5410, 419.9937
369.7410, 322.4736
370.9400, 317.9526
372.1400, 192.4321
373.3390, 215.9111
374.5380, 154.3911
375.7370, 97.87012
376.9360, 2.650879
378.1350, 24.81787
379.3330, 5.282715
380.5310, 90.26074
381.7300, 160.8501
382.9280, 63.52979
384.1260, 163.3091
385.3230, 38.16602
386.5210, 139.0405
387.7180, 223.9844
388.9160, 186.0400
390.1130, 88.19336
391.3100, 105.3960
392.5060, 127.6587
393.7030, 99.99268
394.9000, 140.3867
396.0960, 113.8501
397.2920, 87.72119
398.4880, 78.00439
399.6840, 35.34375
400.8800, 61.69189
402.0750, 229.0464
403.2710, 177.4072
404.4660, 287.7749
405.6610, 229.1484
406.8560, 344.5288
408.0510, 451.9136
409.2450, 494.3027
410.4400, 528.6978
411.6340, 649.0962
412.8280, 735.4995
414.0220, 713.9062
415.2160, 739.3159
416.4100, 787.7295
417.6030, 587.1455
418.7970, 717.5649
419.9900, 794.9863
421.1830, 626.4097
422.3760, 639.8350
423.5690, 575.2617
424.7610, 536.6909
425.9540, 564.1201
427.1460, 393.5513
428.3380, 349.9824
429.5300, 224.4155
430.7220, 195.8481
431.9140, 169.2812
433.1050, 127.3140
434.2970, 123.2778
435.4880, 97.57959
436.6790, 130.0132
437.8700, 100.4526
439.0610, 142.8926
440.2510, 57.33203
441.4420, 154.7651
442.6320, 73.19727
443.8220, 93.62598
445.0120, 164.6416
446.2020, 224.0684
447.3910, 177.6919
448.5810, 243.5449
449.7700, 246.0117
450.9600, 284.4287
452.1490, 412.8447
453.3370, 463.2573
454.5260, 349.9907
455.7150, 554.3984
456.9030, 530.8032
458.0910, 585.2051
459.2800, 748.6045
460.4670, 832.0000
461.6550, 841.3931
462.8430, 857.7832
464.0300, 975.1699
465.2180, 1030.554
466.4050, 1102.934
467.5920, 1180.115
468.7790, 1243.714
469.9650, 1318.055
471.1520, 1381.422
472.3380, 1464.788
473.5250, 1530.150
474.7110, 1784.510
475.8970, 1764.868
477.0820, 1983.226
478.2680, 1997.580
479.4540, 2199.932
480.6390, 2423.281
481.8240, 2695.629
483.0090, 2947.036
484.1940, 3146.357
485.3780, 3524.722
486.5630, 3699.086
487.7470, 4016.450
488.9320, 4398.817
490.1160, 4636.183
491.3000, 4697.555
492.4830, 4953.930
493.6670, 4934.320
494.8500, 4639.711
496.0340, 4648.100
497.2170, 4309.495
498.4000, 4125.888
499.5820, 3831.283
500.7650, 3654.673
501.9480, 3380.058
503.1300, 3055.439
504.3120, 2863.830
505.4940, 2733.230
506.6760, 2608.634
507.8580, 2581.062
509.0390, 2175.523
510.2210, 2204.980
511.4020, 2030.435
512.5830, 2020.891
513.7640, 1802.355
514.9450, 1763.854
516.1250, 1815.359
517.3060, 1687.860
518.4860, 1861.375
519.6660, 1832.050
520.8460, 1895.999
522.0260, 1978.038
523.2060, 1904.574
524.3850, 1873.923
525.5650, 1704.925
526.7440, 1590.023
527.9230, 1248.424
529.1020, 1086.869
530.2810, 918.0024
531.4590, 695.5034
532.6380, 546.8740
533.8160, 416.2183
534.9940, 302.2275
536.1720, 191.8379
537.3500, 147.0562
538.5270, 146.8350
539.7050, 43.12549
540.8820, 143.9922
542.0590, 121.9878
543.2360, 47.60645
544.4130, 199.3071
545.5900, 99.01660
546.7660, 157.7285
547.9430, 218.4453
549.1190, 330.1665
550.2950, 251.9058
551.4710, 209.6445
552.6470, 265.3843
553.8220, 256.1328
554.9980, 249.8818
556.1730, 239.6313
557.3480, 247.3872
558.5230, 65.15479
559.6980, 160.9219
560.8730, 318.6895
562.0470, 158.4556
563.2220, 210.2241
564.3960, 167.9951
565.5700, 95.76660
566.7440, 176.5371
567.9170, 97.30664
569.0910, 174.0752
570.2640, 129.8423
571.4380, 81.60889
572.6110, 145.3740
573.7840, 110.1377
574.9570, 81.90869
576.1290, 211.6782
577.3020, 114.4482
578.4740, 117.2173
579.6460, 123.9839
580.8180, 91.74854
581.9900, 57.08643
583.1620, 87.84766
584.3330, 37.47021
585.5040, 89.77197
586.6760, 4.940918
587.8470, 31.34717
589.0180, 35.65039
590.1880, 1.971680
591.3590, 111.7046
592.5290, 7.377441
593.7000, 94.04785
594.8700, 15.28369
596.0400, 192.3755
597.2090, 85.03320
598.3790, 88.68750
599.5490, 60.33838
600.7180, 161.9868
601.8870, 180.6323
603.0560, 167.2744
604.2250, 173.9131
605.3940, 179.3350
606.5620, 202.1812
607.7300, 188.8096
608.8990, 193.4346
610.0670, 199.0566
611.2350, 163.6738
612.4020, 221.9199
613.5700, 282.5308
614.7370, 251.1367
615.9050, 355.2261
617.0720, 317.6523
618.2390, 427.2607
619.4060, 314.8506
620.5720, 530.2246
621.7390, 535.8774
622.9050, 573.0688
624.0710, 663.3994
625.2370, 609.0400
626.4030, 654.5283
627.5690, 768.6338
628.7340, 850.6069
629.9000, 958.9536
631.0650, 1046.724
632.2300, 1131.951
633.3950, 1263.311
634.5600, 1331.060
635.7240, 1402.479
636.8890, 1566.642
638.0530, 1717.949
639.2170, 1836.495
640.3810, 2027.000
641.5450, 2348.510
642.7080, 2647.157
643.8720, 2786.730
645.0350, 3291.406
646.1980, 3472.618
647.3610, 3810.518
648.5240, 4443.910
649.6870, 5187.577
650.8490, 5921.505
652.0120, 6953.081
653.1740, 8010.651
654.3360, 9626.299
655.4980, 11671.85
656.6600, 14270.64
657.8210, 17762.13
658.9830, 21773.26
660.1440, 26214.87
661.3050, 31098.57
662.4660, 35569.01
663.6270, 39991.00
664.7870, 43105.61
665.9480, 44601.54
667.1080, 44760.05
668.2680, 42365.54
669.4280, 38996.44
670.5880, 33982.76
671.7480, 29278.58
672.9070, 24328.50
674.0670, 19697.15
675.2260, 16004.69
676.3850, 12834.37
677.5440, 10936.93
678.7030, 8984.889
679.8610, 7796.626
681.0200, 6893.400
682.1780, 6109.165
683.3360, 5591.156
684.4940, 5025.837
685.6520, 4734.685
686.8090, 4521.983
687.9670, 4486.316
689.1240, 4424.758
690.2810, 4554.418
691.4380, 4791.061
692.5950, 5421.415
693.7520, 6030.027
694.9080, 6699.731
696.0650, 7578.511
697.2210, 8294.585
698.3770, 9316.133
699.5330, 9767.663
700.6880, 10297.18
701.8440, 10196.99
702.9990, 10121.06
704.1550, 9628.563
705.3100, 8574.011
706.4650, 7824.441
707.6190, 6804.853
708.7740, 5851.248
709.9290, 5014.628
711.0830, 4332.988
712.2370, 3889.333
713.3910, 3442.301
714.5450, 3036.610
715.6980, 2711.275
716.8520, 2639.550
718.0050, 2388.807
719.1580, 2243.046
720.3110, 2059.268
721.4640, 1810.474
722.6170, 1708.662
723.7700, 1522.835
724.9220, 1256.401
726.0740, 1208.538
727.2260, 1068.458
728.3780, 881.1294
729.5300, 732.1675
730.6810, 707.2349
731.8330, 632.2847
732.9840, 496.3179
734.1350, 503.0098
735.2860, 465.0073
736.4370, 497.9883
737.5880, 513.9512
738.7380, 355.8965
739.8880, 348.8242
741.0390, 337.7354
742.1890, 296.6289
743.3380, 246.5049
744.4880, 135.3638
745.6380, 253.2046
746.7870, 272.0283
747.9360, 183.8345
749.0850, 155.6235
750.2340, 28.39600
751.3830, 100.1440
752.5310, 154.8755
753.6800, 35.58936
754.8280, 20.28125
755.9760, 89.94824
757.1240, 111.5972
758.2720, 21.22949
759.4190, 76.83691
760.5670, 29.57373
761.7140, 16.03418
762.8610, 76.46338
764.0080, 15.94287
765.1550, 30.39648
766.3020, 4.827148
767.4480, 19.22754
768.5950, 8.397461
769.7410, 1.540039
770.8870, 35.75391
772.0330, 7.499512
773.1780, 14.72461
774.3240, 7.6172002E-02
775.4690, 17.09033
776.6140, 10.23242
777.7590, 89.34717
778.9040, 86.44531
780.0490, 57.52637
781.1940, 24.40967
782.3380, 26.39160
783.4820, 3.418457
784.6260, 78.47852
785.7700, 118.6108
786.9140, 47.16309
788.0580, 24.91943
789.2010, 4.655273
790.3450, 27.63672
791.4880, 124.9722
792.6310, 12.40381
793.7730, 27.12939
794.9160, 44.35693
796.0590, 102.8955
797.2010, 38.48389
798.3430, 81.15430
799.4850, 2.136719
800.6270, 11.40137
801.7690, 0.3559570
802.9100, 13.85986
804.0520, 1.055176
805.1930, 72.22363
806.3340, 18.37695
807.4750, 107.4888
808.6160, 83.43750
809.7560, 37.45654
810.8970, 71.47900
812.0370, 15.60205
813.1770, 72.28369
814.3170, 95.84619
815.4570, 25.94775
816.5960, 83.27588
817.7360, 106.4321
818.8750, 74.12402
820.0140, 18.80029
821.1530, 21.54150
822.2920, 32.08252
823.4310, 1.310547
824.5690, 2.726074
825.7070, 53.16504
826.8460, 124.3477
827.9840, 149.8452
829.1220, 22.67139
830.2590, 112.7808
831.3970, 25.21777
832.5340, 16.35986
833.6710, 37.96436
834.8080, 134.3936
835.9450, 59.73779
837.0820, 63.06836
838.2190, 2.613770
839.3550, 10.31348
840.4910, 28.96631
841.6270, 88.23291
842.7630, 84.48730
843.8990, 116.7832
845.0350, 97.95703
846.1700, 114.1738
847.3060, 179.3784
848.4410, 124.5713
849.5760, 34.24707
850.7100, 45.90576
851.8450, 10.95264
852.9800, 37.17285
854.1140, 42.28809
855.2480, 97.39209
856.3820, 58.48535
857.5160, 189.5693
858.6500, 60.64209
859.7830, 67.70508
860.9170, 155.7578
862.0500, 156.8218
863.1830, 138.8765
864.3160, 60.92822
865.4480, 163.9775
866.5810, 163.0195
867.7130, 280.0547
868.8460, 224.0815
869.9780, 143.1040
871.1100, 301.1201
872.2410, 245.1279
873.3730, 175.1289
874.5050, 327.1221
875.6360, 391.1074
876.7670, 319.0864
877.8980, 380.0576
879.0290, 381.0220
880.1590, 491.9795
881.2900, 371.9302
882.4200, 472.8936
883.5500, 401.8584
884.6800, 510.8369
885.8100, 465.8096
886.9400, 549.1465
888.0690, 661.1089
889.1990, 775.0654
890.3280, 682.5303
891.4570, 965.6484
892.5860, 916.5791
893.7140, 946.5190
894.8430, 1158.666
895.9710, 1075.528
897.1000, 1014.845
898.2280, 1161.027
899.3560, 920.8901
900.4830, 861.9019
901.6110, 842.2896
902.7380, 829.8008
903.8660, 762.9365
904.9930, 591.6602
906.1200, 670.0156
907.2460, 659.0391
908.3730, 756.7607
909.5000, 810.8105
910.6260, 730.1094
911.7520, 759.2568
912.8780, 784.1582
914.0040, 926.0938
915.1290, 897.0176
916.2550, 965.1318
917.3800, 935.6592
918.5050, 1000.404
919.6300, 893.6074
920.7550, 838.1172
921.8800, 979.1592
923.0040, 868.9551
924.1290, 776.4912
925.2530, 783.3760
926.3770, 897.2588
927.5010, 963.0596
928.6250, 993.9521
929.7480, 919.6006
930.8720, 951.5576
931.9950, 942.8711
933.1180, 1084.710
934.2410, 1120.456
935.3640, 1256.467
936.4860, 1304.955
937.6090, 1415.881
938.7310, 1533.493
939.8530, 1600.591
940.9750, 1715.719
942.0970, 1851.482
943.2180, 1988.880
944.3400, 2234.828
945.4610, 2415.707
946.5820, 2857.896
947.7030, 3029.234
948.8240, 3448.457
949.9450, 3855.851
951.0650, 4178.867
952.1860, 4537.145
953.3060, 5220.408
954.4260, 5693.688
955.5460, 6309.734
956.6650, 7143.092
957.7850, 7763.276
958.9040, 8714.006
960.0230, 9742.699
961.1420, 10854.28
962.2610, 11854.65
963.3800, 13066.04
964.4990, 14048.72
965.6170, 15226.14
966.7350, 16247.22
967.8530, 17291.73
968.9710, 18273.69
970.0890, 19110.18
971.2070, 20081.68
972.3240, 20199.19
973.4410, 20893.41
974.5580, 20721.37
975.6750, 20636.90
976.7920, 20343.48
977.9090, 19685.07
979.0250, 18720.69
980.1410, 18119.32
981.2580, 17092.97
982.3740, 16074.63
983.4890, 15339.31
984.6050, 14468.37
985.7200, 13717.08
986.8360, 13247.42
987.9510, 12884.20
989.0660, 12197.99
990.1810, 11954.81
991.2950, 11410.63
992.4100, 11121.48
993.5240, 10624.34
994.6390, 10579.22
995.7530, 10449.11
996.8660, 10208.04
997.9800, 10039.99
999.0940, 9808.964
1000.207, 9421.954
1001.320, 9297.506
1002.433, 9075.529
1003.546, 8670.208
1004.659, 8750.271
1005.772, 8703.358
1006.884, 8571.481
1007.996, 8693.601
1009.108, 8738.772
1010.220, 9300.928
1011.332, 9848.098
1012.444, 10750.29
1013.555, 11546.49
1014.666, 12229.71
1015.777, 13209.26
1016.888, 13623.10
1017.999, 13915.85
1019.110, 13850.14
1020.220, 13678.62
1021.331, 12686.95
1022.441, 11642.29
1023.551, 10260.65
1024.661, 9148.030
1025.770, 8000.049
1026.880, 7108.468
1027.989, 6266.902
1029.098, 5425.639
1030.207, 4929.669
1031.316, 4482.865
1032.425, 4059.397
1033.533, 3599.917
1034.642, 3385.488
1035.750, 3224.084
1036.858, 2943.169
1037.966, 2719.978
1039.073, 2525.645
1040.181, 2558.337
1041.288, 2272.104
1042.396, 2342.841
1043.503, 2279.635
1044.610, 2156.455
1045.716, 1991.294
1046.823, 1942.156
1047.929, 1964.041
1049.036, 1867.349
1050.142, 1818.355
1051.248, 1866.319
1052.353, 1696.314
1053.459, 1758.333
1054.564, 1691.939
1055.670, 1753.188
1056.775, 1711.802
1057.880, 1533.957
1058.985, 1525.133
1060.089, 1479.426
1061.194, 1399.686
1062.298, 1417.968
1063.402, 1464.217
1064.506, 1281.584
1065.610, 1292.967
1066.713, 1295.012
1067.817, 1209.663
1068.920, 1255.142
1070.023, 1348.622
1071.126, 1041.344
1072.229, 1151.859
1073.332, 1178.397
1074.435, 1066.949
1075.537, 1168.517
1076.639, 923.1318
1077.741, 949.1904
1078.843, 835.8750
1079.945, 875.5732
1081.046, 873.2939
1082.148, 904.0615
1083.249, 756.8379
1084.350, 743.7090
1085.451, 734.5381
1086.551, 546.6904
1087.652, 541.5439
1088.752, 475.4111
1089.853, 415.8613
1090.953, 477.2012
1092.053, 395.1182
1093.152, 448.1455
1094.252, 522.3018
1095.351, 331.3311
1096.451, 530.0527
1097.550, 359.1641
1098.649, 410.6709
1099.748, 433.6963
1100.846, 321.2588
1101.945, 193.3223
1103.043, 133.5645
1104.141, 207.7344
1105.239, 226.8301
1106.337, 185.9355
1107.434, 322.6357
1108.532, 88.92285
1109.629, 125.0605
1110.726, 254.0879
1111.823, 129.2441
1112.920, 86.41016
1114.017, 198.5840
1115.113, 92.89355
1116.210, 80.08496
1117.306, 358.3877
1118.402, 266.6035
1119.498, 330.3301
1120.593, 267.7012
1121.689, 562.4014
1122.784, 650.6484
1123.879, 746.3096
1124.974, 594.7461
1126.069, 517.0635
1127.164, 259.5381
1128.259, 171.0078
1129.353, 171.9414
1130.447, 135.3564
1131.541, 92.65430
1132.635, 26.89551
1133.729, 37.40723
1134.822, 28.92383
1135.916, 46.43750
1137.009, 152.9209
1138.102, 0.2382810
1139.195, 48.70020
1140.288, 1.576172
1141.380, 57.75195
1142.473, 50.27734
1143.565, 7.612305
1144.657, 22.95117
1145.749, 111.4521
1146.841, 99.20215
1147.932, 48.74805
1149.024, 100.4492
1150.115, 17.83203
1151.206, 8.816406
1152.297, 142.4854
1153.388, 30.94824
1154.479, 61.21777
1155.569, 48.48926
1156.659, 21.96387
1157.750, 19.30469
1158.839, 47.57520
1159.929, 11.15234
1161.019, 18.88086
1162.108, 62.44141
1163.198, 19.79980
1164.287, 27.95312
1165.376, 44.28516
1166.465, 57.58789
1167.553, 37.17285
1168.642, 81.94824
1169.730, 60.73926
1170.818, 89.00586
1171.906, 0.3447270
1172.994, 22.75977
1174.082, 42.41797
1175.170, 43.26758
1176.257, 52.44141
1177.344, 78.61328
1178.431, 37.60449
1179.518, 27.18164
1180.605, 0.9716800
1181.691, 22.37500
1182.778, 107.8008
1183.864, 116.9434
1184.950, 121.9180
1186.036, 114.7168
1187.122, 39.87988
1188.207, 19.21484
1189.292, 118.1924
1190.378, 4.188477
1191.463, 102.1543
1192.548, 72.11426
1193.632, 43.75391
1194.717, 8.737305
1195.801, 45.71680
1196.886, 4.374023
1197.970, 4.524414
1199.054, 20.16504
1200.137, 156.0498
1201.221, 28.01465
1202.305, 86.83691
1203.388, 107.2207
1204.471, 47.05859
1205.554, 78.88965
1206.637, 102.1279
1207.719, 4.943359
1208.802, 91.84375
1209.884, 130.6396
1210.966, 87.65820
1212.048, 34.43945
1213.130, 69.21680
1214.212, 25.98535
1215.293, 82.87891
1216.374, 11.70703
1217.456, 176.4443
1218.536, 125.1748
1219.617, 107.8945
1220.698, 160.6035
1221.778, 133.3057
1222.859, 34.99609
1223.939, 16.32617
1225.019, 2.323242
1226.099, 8.047852
1227.178, 37.55273
1228.258, 15.14258
1229.337, 67.76855
1230.417, 2.669922
1231.496, 155.8682
1232.574, 30.39453
1233.653, 5.906250
1234.732, 89.39746
1235.810, 93.87695
1236.888, 18.34473
1237.966, 39.79492
1239.044, 126.2314
1240.122, 4.344727
1241.199, 110.0498
1242.277, 87.43262
1243.354, 122.8037
1244.431, 55.16211
1245.508, 141.5078
1246.585, 64.84180
1247.661, 102.1621
1248.738, 106.5303
1249.814, 58.69238
1250.890, 30.90039
1251.966, 229.0908
1253.042, 34.26855
1254.117, 54.42969
1255.193, 85.57617
1256.268, 50.71094
1257.343, 3.168945
1258.418, 26.05371
1259.493, 17.01758
1260.567, 109.0664
1261.642, 69.09961
1262.716, 140.5742
1263.790, 4.421875
1264.864, 92.92285
1265.938, 65.87793
1267.011, 115.8174
1268.085, 74.72559
1269.158, 43.63867
1270.231, 142.4980
