##NAMES=Serandite
##RRUFFID=R050261
##IDEAL CHEMISTRY=NaMn^2+^_2_Si_3_O_8_(OH)
##LOCALITY=Mont Saint-Hilaire, Rouville County, Quebec, Canada
##OWNER=RRUFF
##SOURCE=Marcus Origlieri
##DESCRIPTION=Orange tabular single crystal associated with aegirine and microcline
##STATUS=The identification of this mineral has been confirmed by X-ray diffraction and chemical analysis
##URL=rruff.info/R050261
##MEASURED CHEMISTRY=Na_0.96_(Mn_0.92_Ca_0.06_Fe_0.01_)_2_Si_3.03_O_8_(OH)
##PIN_ID=L01880
##ORIENTATION=Laser parallel to (1 0 1). Fiducial mark perpendicular to laser is parallel to b [0 1 0]
93.48000, 0.0000000E+00
94.71400, 27.32336
95.94800, 8.761841
97.18200, 120.4463
98.41600, 224.4758
99.64900, 521.2783
100.8830, 861.4414
102.1160, 1188.859
103.3490, 1752.507
104.5820, 2263.024
105.8150, 2521.458
107.0470, 2671.752
108.2800, 2883.141
109.5120, 3197.448
110.7440, 3286.535
111.9760, 2975.145
113.2080, 2908.080
114.4400, 3035.188
115.6710, 3316.342
116.9030, 3496.438
118.1340, 3016.383
119.3650, 2217.101
120.5960, 1361.669
121.8270, 918.6289
123.0580, 593.4597
124.2880, 337.3567
125.5190, 238.3879
126.7490, 304.7222
127.9790, 446.3528
129.2090, 811.2715
130.4390, 1497.471
131.6680, 2081.953
132.8980, 2645.725
134.1270, 3051.786
135.3560, 3272.117
136.5850, 3547.702
137.8140, 3630.525
139.0430, 3413.575
140.2710, 2910.841
141.5000, 1903.312
142.7280, 1129.980
143.9560, 613.8354
145.1840, 270.8677
146.4120, 5.071045
147.6390, 97.55176
148.8670, 93.99365
150.0940, 85.25610
151.3210, 106.3723
152.5490, 321.6042
153.7750, 581.7405
155.0020, 833.2959
156.2290, 1062.464
157.4550, 1439.930
158.6810, 1762.571
159.9080, 2043.379
161.1340, 2211.981
162.3590, 2300.664
163.5850, 2363.694
164.8110, 2274.073
166.0360, 2163.577
167.2610, 2045.273
168.4860, 1886.819
169.7110, 1807.396
170.9360, 1522.866
172.1610, 1207.569
173.3850, 980.3962
174.6100, 835.2671
175.8340, 736.1777
177.0580, 786.1335
178.2820, 678.1382
179.5050, 676.1948
180.7290, 588.3052
181.9520, 623.4661
183.1760, 536.6794
184.3990, 706.9448
185.6220, 917.2634
186.8450, 1105.635
188.0670, 1424.060
189.2900, 1686.539
190.5120, 2108.070
191.7340, 2223.654
192.9560, 2211.291
194.1780, 2168.963
195.4000, 1953.626
196.6220, 1666.327
197.8430, 1418.108
199.0640, 1215.007
200.2860, 995.0713
201.5070, 885.3398
202.7270, 676.4893
203.9480, 586.4355
205.1690, 331.1113
206.3890, 170.8237
207.6090, 2.437256
208.8290, 72.67212
210.0490, 30.88062
211.2690, 98.06348
212.4890, 109.2214
213.7080, 85.35474
214.9280, 100.4634
216.1470, 149.5481
217.3660, 80.60938
218.5850, 28.35278
219.8030, 33.33740
221.0220, 138.3442
222.2400, 210.3728
223.4590, 215.4224
224.6770, 246.4763
225.8950, 311.5078
227.1120, 405.4863
228.3300, 353.4050
229.5480, 498.2888
230.7650, 535.1953
231.9820, 507.1240
233.1990, 529.0740
234.4160, 615.0454
235.6330, 561.0371
236.8490, 578.0488
238.0660, 548.0803
239.2820, 443.9221
240.4980, 475.8823
241.7140, 445.7312
242.9300, 431.8774
244.1460, 495.2883
245.3610, 559.5220
246.5770, 562.4456
247.7920, 698.5137
249.0070, 781.6333
250.2220, 994.7847
251.4370, 1089.159
252.6510, 1280.925
253.8660, 1442.896
255.0800, 1611.987
256.2940, 1844.188
257.5080, 2127.492
258.7220, 2199.890
259.9360, 2450.378
261.1490, 2425.948
262.3630, 2391.597
263.5760, 2328.318
264.7890, 2335.109
266.0020, 2183.966
267.2150, 2129.823
268.4270, 1984.638
269.6400, 1892.512
270.8520, 1816.438
272.0640, 1759.407
273.2760, 1724.421
274.4880, 1795.477
275.7000, 1820.574
276.9120, 1959.711
278.1230, 2268.885
279.3340, 2440.097
280.5450, 2747.344
281.7560, 3080.624
282.9670, 3301.938
284.1780, 3492.283
285.3880, 3669.659
286.5980, 3914.065
287.8090, 4062.500
289.0190, 4119.965
290.2290, 4140.457
291.4380, 4238.975
292.6480, 4073.517
293.8570, 4058.621
295.0670, 4064.869
296.2760, 3920.430
297.4850, 3787.789
298.6930, 3597.620
299.9020, 3336.554
301.1110, 3108.878
302.3190, 2768.752
303.5270, 2528.718
304.7350, 2085.798
305.9430, 1856.585
307.1510, 1680.970
308.3580, 1470.004
309.5660, 1307.865
310.7730, 1185.640
311.9800, 1045.174
313.1870, 967.1768
314.3940, 987.4529
315.6010, 911.6172
316.8070, 965.2727
318.0130, 1017.938
319.2200, 1101.614
320.4260, 1234.299
321.6310, 1372.994
322.8370, 1474.697
324.0430, 1606.409
325.2480, 1730.130
326.4540, 1793.859
327.6590, 1827.596
328.8640, 1883.341
330.0680, 1903.093
331.2730, 1781.851
332.4780, 1695.617
333.6820, 1613.389
334.8860, 1471.550
336.0900, 1281.952
337.2940, 1194.741
338.4980, 1031.537
339.7010, 879.3372
340.9050, 835.1431
342.1080, 772.9536
343.3110, 773.7690
344.5140, 741.5881
345.7170, 757.4106
346.9200, 820.2356
348.1220, 882.0615
349.3240, 1002.889
350.5270, 1171.716
351.7290, 1268.543
352.9310, 1549.215
354.1320, 1664.528
355.3340, 2092.366
356.5350, 2418.599
357.7370, 2830.354
358.9380, 3199.100
360.1390, 3619.203
361.3400, 3982.090
362.5400, 4327.007
363.7410, 4524.833
364.9410, 4586.659
366.1410, 4393.483
367.3410, 3968.309
368.5410, 3499.133
369.7410, 2895.956
370.9400, 2422.779
372.1400, 1910.603
373.3390, 1493.426
374.5380, 1100.249
375.7370, 783.0730
376.9360, 567.8965
378.1350, 395.7202
379.3330, 287.5439
380.5310, 142.3669
381.7300, 122.1899
382.9280, 31.98755
384.1260, 44.20142
385.3230, 118.4351
386.5210, 83.72852
387.7180, 140.0662
388.9160, 130.4810
390.1130, 69.96997
391.3100, 84.50391
392.5060, 81.09131
393.7030, 43.73193
394.9000, 10.07031
396.0960, 25.89502
397.2920, 111.1936
398.4880, 239.4971
399.6840, 325.8042
400.8800, 472.1150
402.0750, 586.4287
403.2710, 778.3862
404.4660, 984.3904
405.6610, 1275.384
406.8560, 1485.705
408.0510, 1917.027
409.2450, 2248.349
410.4400, 2769.671
411.6340, 3090.994
412.8280, 3514.317
414.0220, 3866.640
415.2160, 4125.962
416.4100, 4190.283
417.6030, 4262.604
418.7970, 4113.924
419.9900, 3966.243
421.1830, 3799.560
422.3760, 3426.875
423.5690, 3034.187
424.7610, 2693.498
425.9540, 2267.806
427.1460, 1957.111
428.3380, 1670.414
429.5300, 1372.787
430.7220, 1116.166
431.9140, 949.9479
433.1050, 717.2371
434.2970, 529.5220
435.4880, 420.1274
436.6790, 371.0549
437.8700, 287.3385
439.0610, 224.1013
440.2510, 137.9229
441.4420, 99.21277
442.6320, 60.17383
443.8220, 22.20398
445.0120, 23.03113
446.2020, 31.75256
447.3910, 48.79407
448.5810, 27.67896
449.7700, 68.60840
450.9600, 110.3268
452.1490, 59.41064
453.3370, 89.55615
454.5260, 5.779541
455.7150, 2.963257
456.9030, 52.67664
458.0910, 21.37756
459.2800, 116.0573
460.4670, 146.7311
461.6550, 221.3987
462.8430, 171.0599
464.0300, 239.7147
465.2180, 229.3632
466.4050, 283.0049
467.5920, 263.6399
468.7790, 304.2683
469.9650, 320.8898
471.1520, 347.5042
472.3380, 414.1116
473.5250, 431.7119
474.7110, 506.3060
475.8970, 615.8937
477.0820, 703.4755
478.2680, 784.0525
479.4540, 909.6245
480.6390, 1060.197
481.8240, 1239.060
483.0090, 1458.494
484.1940, 1697.914
485.3780, 1982.478
486.5630, 2302.036
487.7470, 2634.588
488.9320, 2922.145
490.1160, 3195.697
491.3000, 3262.252
492.4830, 3431.814
493.6670, 3040.382
494.8500, 2868.945
496.0340, 2441.510
497.2170, 2313.092
498.4000, 2057.683
499.5820, 1856.301
500.7650, 1749.939
501.9480, 1630.601
503.1300, 1608.284
504.3120, 1507.998
505.4940, 1426.729
506.6760, 1498.464
507.8580, 1523.200
509.0390, 1504.951
510.2210, 1512.705
511.4020, 1374.461
512.5830, 1381.236
513.7640, 1203.018
514.9450, 1127.808
516.1250, 1060.595
517.3060, 1099.392
518.4860, 1088.182
519.6660, 1114.978
520.8460, 1177.769
522.0260, 1294.561
523.2060, 1290.362
524.3850, 1477.162
525.5650, 1323.168
526.7440, 1324.425
527.9230, 1207.281
529.1020, 1067.168
530.2810, 955.5906
531.4590, 883.5903
532.6380, 826.2273
533.8160, 715.9900
534.9940, 639.9476
536.1720, 563.0801
537.3500, 485.1738
538.5270, 520.0323
539.7050, 472.8237
540.8820, 438.6085
542.0590, 384.3862
543.2360, 372.9231
544.4130, 378.9252
545.5900, 354.6860
546.7660, 331.4449
547.9430, 332.1963
549.1190, 281.9399
550.2950, 283.6814
551.4710, 267.4148
552.6470, 286.1398
553.8220, 266.7446
554.9980, 177.5647
556.1730, 233.2639
557.3480, 197.9541
558.5230, 162.6353
559.6980, 200.3071
560.8730, 125.9697
562.0470, 131.6235
563.2220, 68.26880
564.3960, 120.9044
565.5700, 81.53064
566.7440, 77.14966
567.9170, 110.7593
569.0910, 86.35852
570.2640, 38.94812
571.4380, 38.52673
572.6110, 14.09436
573.7840, 63.64624
574.9570, 55.18762
576.1290, 23.71790
577.3020, 16.76611
578.4740, 66.72217
579.6460, 76.19934
580.8180, 68.66504
581.9900, 64.11926
583.1620, 6.562012
584.3330, 23.57605
585.5040, 61.10742
586.6760, 108.0696
587.8470, 3.048218
589.0180, 84.72595
590.1880, 73.80371
591.3590, 7.292114
592.5290, 28.13989
593.7000, 36.16785
594.8700, 40.29016
596.0400, 83.65930
597.2090, 85.56714
598.3790, 111.2062
599.5490, 95.96045
600.7180, 121.0272
601.8870, 98.48279
603.0560, 151.7302
604.2250, 166.9684
605.3940, 173.1973
606.5620, 237.4166
607.7300, 198.6267
608.8990, 255.8270
610.0670, 274.0178
611.2350, 239.1991
612.4020, 267.3706
613.5700, 324.5322
614.7370, 326.8977
615.9050, 407.2678
617.0720, 441.6863
618.2390, 499.4469
619.4060, 504.1250
620.5720, 599.9731
621.7390, 625.9077
622.9050, 641.3945
624.0710, 689.1418
625.2370, 760.1448
626.4030, 855.6672
627.5690, 887.2081
628.7340, 962.2286
629.9000, 1008.834
631.0650, 1184.476
632.2300, 1292.717
633.3950, 1457.056
634.5600, 1551.545
635.7240, 1683.830
636.8890, 1891.720
638.0530, 2066.464
639.2170, 2215.569
640.3810, 2503.587
641.5450, 2766.913
642.7080, 2993.719
643.8720, 3470.326
645.0350, 3886.112
646.1980, 4272.891
647.3610, 4732.910
648.5240, 5509.190
649.6870, 6210.894
650.8490, 6959.097
652.0120, 8182.130
653.1740, 9559.973
654.3360, 11353.57
655.4980, 13601.61
656.6600, 16440.85
657.8210, 20231.12
658.9830, 24834.45
660.1440, 30353.84
661.3050, 36856.13
662.4660, 43377.84
663.6270, 50554.66
664.7870, 56907.71
665.9480, 60484.23
667.1080, 61456.67
668.2680, 59229.74
669.4280, 53931.69
670.5880, 46263.71
671.7480, 38400.50
672.9070, 31534.63
674.0670, 25028.67
675.2260, 20277.08
676.3850, 16578.99
677.5440, 13447.02
678.7030, 11289.92
679.8610, 9784.806
681.0200, 8422.652
682.1780, 7337.548
683.3360, 6620.221
684.4940, 5933.977
685.6520, 5285.805
686.8090, 4983.550
687.9670, 4559.284
689.1240, 4278.071
690.2810, 4100.685
691.4380, 4127.324
692.5950, 4146.909
693.7520, 4428.376
694.9080, 4596.850
696.0650, 5021.251
697.2210, 5507.712
698.3770, 6077.101
699.5330, 6566.450
700.6880, 6894.940
701.8440, 7187.391
702.9990, 7059.669
704.1550, 6606.015
705.3100, 5978.785
706.4650, 5340.106
707.6190, 4690.244
708.7740, 3982.484
709.9290, 3397.651
711.0830, 2982.800
712.2370, 2629.346
713.3910, 2310.419
714.5450, 2070.412
715.6980, 1864.059
716.8520, 1775.358
718.0050, 1681.287
719.1580, 1566.194
720.3110, 1464.080
721.4640, 1334.972
722.6170, 1189.111
723.7700, 1064.588
724.9220, 911.4093
726.0740, 768.2162
727.2260, 732.2344
728.3780, 681.0447
729.5300, 657.8540
730.6810, 546.3955
731.8330, 523.2346
732.9840, 381.0808
734.1350, 411.9421
735.2860, 405.7966
736.4370, 403.6417
737.5880, 322.4692
738.7380, 335.2834
739.8880, 240.0767
741.0390, 326.8491
742.1890, 294.6006
743.3380, 296.3314
744.4880, 158.0414
745.6380, 175.7306
746.7870, 184.3989
747.9360, 130.0466
749.0850, 150.6737
750.2340, 146.2803
751.3830, 129.8663
752.5310, 76.43176
753.6800, 72.80786
754.8280, 60.49548
755.9760, 26.99329
757.1240, 31.46460
758.2720, 3.089355
759.4190, 20.68018
760.5670, 44.68298
761.7140, 23.02209
762.8610, 11.33508
764.0080, 36.61865
765.1550, 33.87793
766.3020, 23.88757
767.4480, 26.30005
768.5950, 18.53784
769.7410, 28.41968
770.8870, 30.35046
772.0330, 29.66895
773.1780, 14.33606
774.3240, 24.38220
775.4690, 22.47437
776.6140, 44.61157
777.7590, 11.80493
778.9040, 49.03748
780.0490, 25.32825
781.1940, 22.66467
782.3380, 26.04517
783.4820, 26.47119
784.6260, 14.94263
785.7700, 67.45337
786.9140, 27.03040
788.0580, 19.65247
789.2010, 81.31506
790.3450, 47.05078
791.4880, 43.84106
792.6310, 3.683838
793.7730, 55.55798
794.9160, 9.510010
796.0590, 42.44580
797.2010, 3.548096
798.3430, 27.48401
799.4850, 50.55786
800.6270, 21.68530
801.7690, 9.850830
802.9100, 2.047485
804.0520, 33.27112
805.1930, 6.462036
806.3340, 25.82666
807.4750, 43.15405
808.6160, 23.52881
809.7560, 3.059326
810.8970, 60.37512
812.0370, 18.86536
813.1770, 27.38916
814.3170, 9.049194
815.4570, 24.46753
816.5960, 22.86719
817.7360, 25.63599
818.8750, 9.610352
820.0140, 13.04626
821.1530, 28.26965
822.2920, 17.43225
823.4310, 17.83704
824.5690, 14.08850
825.7070, 19.67749
826.8460, 29.52783
827.9840, 16.71680
829.1220, 22.88879
830.2590, 45.04431
831.3970, 36.18457
832.5340, 46.52136
833.6710, 26.41931
834.8080, 36.51392
835.9450, 39.59375
837.0820, 1.659180
838.2190, 2.708374
839.3550, 35.74207
840.4910, 13.76172
841.6270, 13.23303
842.7630, 5.811035
843.8990, 42.72449
845.0350, 11.68347
846.1700, 4.628906
847.3060, 1.885132
848.4410, 51.48022
849.5760, 24.38989
850.7100, 72.28760
851.8450, 83.17383
852.9800, 91.05066
854.1140, 113.9247
855.2480, 88.78796
856.3820, 78.64038
857.5160, 122.4824
858.6500, 116.3142
859.7830, 158.1393
860.9170, 133.9562
862.0500, 112.7633
863.1830, 187.5608
864.3160, 170.3529
865.4480, 188.1355
866.5810, 213.0547
867.7130, 206.6740
868.8460, 240.4299
869.9780, 254.1768
871.1100, 272.9199
872.2410, 296.6541
873.3730, 395.3921
874.5050, 416.1256
875.6360, 357.8512
876.7670, 449.5687
877.8980, 455.2778
879.0290, 522.9789
880.1590, 591.6719
881.2900, 678.3572
882.4200, 782.8844
883.5500, 796.7258
884.6800, 1028.423
885.8100, 1147.114
886.9400, 1298.798
888.0690, 1654.476
889.1990, 1887.933
890.3280, 2248.371
891.4570, 2741.743
892.5860, 3054.760
893.7140, 3526.845
894.8430, 4004.745
895.9710, 4529.543
897.1000, 4770.775
898.2280, 4610.730
899.3560, 4524.415
900.4830, 4080.563
901.6110, 3809.679
902.7380, 3240.300
903.8660, 3000.323
904.9930, 2518.294
906.1200, 2273.656
907.2460, 2001.913
908.3730, 1863.008
909.5000, 1746.305
910.6260, 1679.992
911.7520, 1575.810
912.8780, 1485.252
914.0040, 1490.768
915.1290, 1423.962
916.2550, 1370.663
917.3800, 1269.559
918.5050, 1245.266
919.6300, 1262.967
920.7550, 1123.425
921.8800, 1094.612
923.0040, 1061.359
924.1290, 987.5952
925.2530, 1024.987
926.3770, 996.5601
927.5010, 975.3640
928.6250, 998.7258
929.7480, 997.8586
930.8720, 1005.979
931.9950, 1056.031
933.1180, 1071.003
934.2410, 1128.708
935.3640, 1085.712
936.4860, 1184.214
937.6090, 1224.508
938.7310, 1238.336
939.8530, 1312.245
940.9750, 1434.558
942.0970, 1535.014
943.2180, 1642.323
944.3400, 1599.111
945.4610, 1891.460
946.5820, 1997.924
947.7030, 2159.039
948.8240, 2439.665
949.9450, 2652.183
951.0650, 2928.812
952.1860, 3309.450
953.3060, 3619.115
954.4260, 3943.724
955.5460, 4436.542
956.6650, 4825.267
957.7850, 5472.907
958.9040, 6054.624
960.0230, 6640.343
961.1420, 7383.000
962.2610, 8095.824
963.3800, 9153.612
964.4990, 9750.450
965.6170, 10834.41
966.7350, 11490.35
967.8530, 12396.34
968.9710, 13262.28
970.0890, 14195.28
971.2070, 15060.31
972.3240, 15802.19
973.4410, 16438.10
974.5580, 16887.17
975.6750, 17493.17
976.7920, 17801.74
977.9090, 17733.76
979.0250, 17099.96
980.1410, 16805.04
981.2580, 15935.12
982.3740, 15055.21
983.4890, 14058.48
984.6050, 13078.70
985.7200, 12146.00
986.8360, 11428.33
987.9510, 10843.66
989.0660, 10231.01
990.1810, 9744.375
991.2950, 9623.750
992.4100, 9413.143
993.5240, 9319.562
994.6390, 9271.157
995.7530, 9111.460
996.8660, 9259.937
997.9800, 9290.431
999.0940, 9326.938
1000.207, 9440.466
1001.320, 9502.003
1002.433, 9519.559
1003.546, 9690.134
1004.659, 10008.92
1005.772, 10611.53
1006.884, 11214.04
1007.996, 12067.51
1009.108, 13285.33
1010.220, 14723.05
1011.332, 16640.74
1012.444, 18805.45
1013.555, 21607.17
1014.666, 24595.90
1015.777, 27241.90
1016.888, 29873.68
1017.999, 31988.87
1019.110, 32792.67
1020.220, 32431.66
1021.331, 31106.48
1022.441, 28531.32
1023.551, 25393.30
1024.661, 21877.19
1025.770, 18854.55
1026.880, 16064.59
1027.989, 13672.65
1029.098, 11753.98
1030.207, 9975.942
1031.316, 8703.921
1032.425, 7542.917
1033.533, 6562.930
1034.642, 5806.959
1035.750, 5338.003
1036.858, 4849.378
1037.966, 4323.572
1039.073, 4061.606
1040.181, 3708.373
1041.288, 3325.255
1042.396, 3048.938
1043.503, 2965.100
1044.610, 2689.383
1045.716, 2492.703
1046.823, 2367.042
1047.929, 2190.351
1049.036, 2095.095
1050.142, 1936.503
1051.248, 1892.916
1052.353, 1801.404
1053.459, 1677.725
1054.564, 1631.593
1055.670, 1565.155
1056.775, 1504.744
1057.880, 1368.414
1058.985, 1374.531
1060.089, 1289.258
1061.194, 1276.390
1062.298, 1236.186
1063.402, 1146.859
1064.506, 1094.367
1065.610, 1061.157
1066.713, 1013.944
1067.817, 1031.703
1068.920, 990.8672
1070.023, 876.9961
1071.126, 946.9290
1072.229, 896.9756
1073.332, 861.8345
1074.435, 676.8679
1075.537, 763.8044
1076.639, 692.7898
1077.741, 714.1772
1078.843, 643.2935
1079.945, 583.5098
1081.046, 549.6875
1082.148, 494.6033
1083.249, 553.5063
1084.350, 444.5266
1085.451, 439.7727
1086.551, 490.8601
1087.652, 340.1372
1088.752, 350.1946
1089.853, 383.3555
1090.953, 357.9775
1092.053, 302.6313
1093.152, 374.0015
1094.252, 257.4141
1095.351, 192.6577
1096.451, 234.3989
1097.550, 266.8655
1098.649, 236.5088
1099.748, 251.6699
1100.846, 237.0593
1101.945, 228.6904
1103.043, 190.9185
1104.141, 158.2156
1105.239, 194.4829
1106.337, 138.2747
1107.434, 189.6514
1108.532, 97.62695
1109.629, 127.3127
1110.726, 89.69360
1111.823, 86.09717
1112.920, 57.98560
1114.017, 120.5637
1115.113, 64.95972
1116.210, 71.69263
1117.306, 157.1606
1118.402, 117.8142
1119.498, 127.3262
1120.593, 170.6692
1121.689, 194.3525
1122.784, 189.9001
1123.879, 183.6960
1124.974, 149.9138
1126.069, 228.6770
1127.164, 222.5227
1128.259, 195.9910
1129.353, 129.4968
1130.447, 67.80786
1131.541, 57.21729
1132.635, 23.55786
1133.729, 4.871094
1134.822, 76.48950
1135.916, 41.98828
1137.009, 4.656738
1138.102, 74.39087
1139.195, 31.56494
1140.288, 9.297363
1141.380, 2.431396
1142.473, 18.53735
1143.565, 51.78076
1144.657, 12.31714
1145.749, 15.78345
1146.841, 37.80518
1147.932, 52.51001
1149.024, 92.14844
1150.115, 8.192627
1151.206, 8.758301
1152.297, 51.37305
1153.388, 43.40991
1154.479, 6.558594
1155.569, 0.3657230
1156.659, 16.00293
1157.750, 5.944580
1158.839, 5.829834
1159.929, 12.54663
1161.019, 9.562500
1162.108, 7.015381
1163.198, 39.15356
1164.287, 29.34912
1165.376, 21.55493
1166.465, 6.612549
1167.553, 7.284668
1168.642, 1.171631
1169.730, 20.11572
1170.818, 32.89575
1171.906, 14.94629
1172.994, 46.01587
1174.082, 36.63135
1175.170, 7.217041
1176.257, 6.107666
1177.344, 10.20361
1178.431, 32.11572
1179.518, 5.034912
1180.605, 34.13452
1181.691, 16.39062
1182.778, 13.54663
1183.864, 45.63379
1184.950, 2.927246
1186.036, 19.77124
1187.122, 20.53125
1188.207, 8.170898
1189.292, 3.738770
1190.378, 13.87134
1191.463, 19.25928
1192.548, 11.41577
1193.632, 25.92065
1194.717, 54.38916
1195.801, 34.28491
1196.886, 39.82178
1197.970, 66.60742
1199.054, 7.781250
1200.137, 33.34717
1201.221, 7.948486
1202.305, 10.49292
1203.388, 80.85010
1204.471, 23.21680
1205.554, 52.54370
1206.637, 47.85669
1207.719, 6.153564
1208.802, 26.45874
1209.884, 13.71948
1210.966, 25.01855
1212.048, 2.244385
1213.130, 75.44580
1214.212, 83.63232
1215.293, 24.80371
1216.374, 65.95728
1217.456, 24.15356
1218.536, 94.27075
1219.617, 59.37500
1220.698, 12.46240
1221.778, 12.58154
1222.859, 22.62476
1223.939, 0.2951660
1225.019, 57.64355
1226.099, 4.379639
1227.178, 0.5656740
1228.258, 18.48291
1229.337, 88.37671
1230.417, 36.25195
1231.496, 0.1071780
1232.574, 79.93091
1233.653, 65.73486
1234.732, 75.51904
1235.810, 20.28345
1236.888, 54.02319
1237.966, 18.25757
1239.044, 26.41821
1240.122, 9.070313
1241.199, 56.69189
1242.277, 22.29297
1243.354, 6.867676
1244.431, 64.41016
1245.508, 29.93140
1246.585, 50.42773
1247.661, 9.097656
1248.738, 46.33472
1249.814, 84.74463
1250.890, 36.13330
1251.966, 45.49780
1253.042, 32.83911
1254.117, 15.84473
1255.193, 8.424561
1256.268, 9.245361
1257.343, 62.85083
1258.418, 15.01904
1259.493, 20.15869
1260.567, 79.26709
1261.642, 96.35278
1262.716, 21.41772
1263.790, 14.45190
1264.864, 58.45288
1265.938, 13.23535
1267.011, 32.59351
1268.085, 34.25928
1269.158, 19.31519
1270.231, 32.13818
1271.304, 34.37500
