##NAMES=Serandite
##RRUFFID=R050261
##IDEAL CHEMISTRY=NaMn^2+^_2_Si_3_O_8_(OH)
##LOCALITY=Mont Saint-Hilaire, Rouville County, Quebec, Canada
##OWNER=RRUFF
##SOURCE=Marcus Origlieri
##DESCRIPTION=Orange tabular single crystal associated with aegirine and microcline
##STATUS=The identification of this mineral has been confirmed by X-ray diffraction and chemical analysis
##URL=rruff.info/R050261
##MEASURED CHEMISTRY=Na_0.96_(Mn_0.92_Ca_0.06_Fe_0.01_)_2_Si_3.03_O_8_(OH)
##PIN_ID=L01713
##ORIENTATION=Laser parallel to -a* (-1 0 0). Fiducial mark perpendicular to laser is parallel to b [0 1 0]
93.48000, 0.0000000E+00
94.71400, 4.879639
95.94800, 46.56909
97.18200, 2.563721
98.41600, 166.5493
99.64900, 252.0386
100.8830, 480.8970
102.1160, 644.5996
103.3490, 865.3723
104.5820, 1031.150
105.8150, 1224.391
107.0470, 1438.760
108.2800, 1761.349
109.5120, 2052.526
110.7440, 2229.923
111.9760, 1969.287
113.2080, 2040.822
114.4400, 2450.338
115.6710, 3018.166
116.9030, 3319.595
118.1340, 3037.169
119.3650, 2437.065
120.5960, 2012.156
121.8270, 1714.063
123.0580, 1566.646
124.2880, 1635.974
125.5190, 1811.106
126.7490, 1991.090
127.9790, 2339.967
129.2090, 2788.772
130.4390, 3336.532
131.6680, 3684.263
132.8980, 4018.417
134.1270, 3927.885
135.3560, 3747.941
136.5850, 3257.006
137.8140, 2717.292
139.0430, 2056.334
140.2710, 1610.677
141.5000, 1102.312
142.7280, 656.2261
143.9560, 374.4072
145.1840, 180.8459
146.4120, 40.53247
147.6390, 95.46899
148.8670, 57.69604
150.0940, 201.1443
151.3210, 299.7971
152.5490, 466.6348
153.7750, 671.6492
155.0020, 971.8372
156.2290, 1090.196
157.4550, 1290.726
158.6810, 1520.422
159.9080, 1675.282
161.1340, 1702.302
162.3590, 1447.478
163.5850, 1262.808
164.8110, 1073.287
166.0360, 741.9124
167.2610, 588.6492
168.4860, 376.4131
169.7110, 204.2415
170.9360, 75.15283
172.1610, 66.84082
173.3850, 178.7332
174.6100, 149.5198
175.8340, 161.1970
177.0580, 204.7632
178.2820, 176.2168
179.5050, 105.5588
180.7290, 119.7905
181.9520, 28.91235
183.1760, 36.07520
184.3990, 161.1714
185.6220, 261.3755
186.8450, 450.6868
188.0670, 615.0962
189.2900, 808.5923
190.5120, 1063.171
191.7340, 1400.833
192.9560, 1604.579
194.1780, 1974.405
195.4000, 2361.313
196.6220, 2669.304
197.8430, 2904.858
199.0640, 3078.532
200.2860, 3227.083
201.5070, 3268.395
202.7270, 3281.895
203.9480, 3106.431
205.1690, 3034.952
206.3890, 2794.531
207.6090, 2628.033
208.8290, 2649.438
210.0490, 2598.757
211.2690, 2606.067
212.4890, 2681.493
213.7080, 2735.932
214.9280, 2875.491
216.1470, 2966.140
217.3660, 3097.882
218.5850, 3226.727
219.8030, 3477.672
221.0220, 3516.695
222.2400, 3514.788
223.4590, 3390.952
224.6770, 3115.184
225.8950, 2946.484
227.1120, 2556.850
228.3300, 2408.282
229.5480, 2174.777
230.7650, 1776.336
231.9820, 1554.957
233.1990, 1271.639
234.4160, 1045.381
235.6330, 844.1816
236.8490, 639.0400
238.0660, 565.9561
239.2820, 433.9307
240.4980, 412.6260
241.7140, 391.5842
242.9300, 377.3408
244.1460, 481.5093
245.3610, 450.0083
246.5770, 585.7742
247.7920, 743.7620
249.0070, 836.9453
250.2220, 1137.292
251.4370, 1394.787
252.6510, 1648.415
253.8660, 1911.166
255.0800, 2231.040
256.2940, 2327.028
257.5080, 2493.134
258.7220, 2573.345
259.9360, 2635.648
261.1490, 2769.029
262.3630, 2522.475
263.5760, 2473.975
264.7890, 2415.532
266.0020, 2500.159
267.2150, 2527.847
268.4270, 2408.590
269.6400, 2420.404
270.8520, 2327.277
272.0640, 2185.226
273.2760, 1923.234
274.4880, 1747.302
275.7000, 1667.437
276.9120, 1572.630
278.1230, 1435.887
279.3340, 1327.145
280.5450, 1327.208
281.7560, 1217.063
282.9670, 1209.793
284.1780, 1175.490
285.3880, 1124.252
286.5980, 1132.072
287.8090, 1003.950
289.0190, 930.8872
290.2290, 893.8779
291.4380, 869.9231
292.6480, 741.8845
293.8570, 651.0354
295.0670, 636.2371
296.2760, 541.4871
297.4850, 547.7844
298.6930, 419.1270
299.9020, 350.5139
301.1110, 260.9431
302.3190, 280.4128
303.5270, 135.9226
304.7350, 106.4724
305.9430, 16.93848
307.1510, 14.68701
308.3580, 19.34937
309.5660, 63.95361
310.7730, 15.22827
311.9800, 23.53027
313.1870, 4.678223
314.3940, 114.1450
315.6010, 130.0007
316.8070, 222.8882
318.0130, 304.3999
319.2200, 334.1580
320.4260, 485.1797
321.6310, 547.7063
322.8370, 680.1230
324.0430, 733.1365
325.2480, 886.6406
326.4540, 1016.563
327.6590, 984.5144
328.8640, 1181.881
330.0680, 1129.210
331.2730, 1199.490
332.4780, 1178.773
333.6820, 1049.169
334.8860, 1114.823
336.0900, 1103.610
337.2940, 980.1733
338.4980, 1072.721
339.7010, 1042.843
340.9050, 1034.301
342.1080, 1053.924
343.3110, 1097.788
344.5140, 1101.669
345.7170, 1271.396
346.9200, 1294.914
348.1220, 1398.439
349.3240, 1430.983
350.5270, 1553.545
351.7290, 1643.124
352.9310, 1782.721
354.1320, 1876.337
355.3340, 2018.972
356.5350, 2095.624
357.7370, 2221.295
358.9380, 2283.572
360.1390, 2421.690
361.3400, 2361.413
362.5400, 2318.151
363.7410, 2272.906
364.9410, 2295.675
366.1410, 2036.460
367.3410, 1852.259
368.5410, 1572.072
369.7410, 1488.898
370.9400, 1245.737
372.1400, 1037.589
373.3390, 784.4524
374.5380, 678.3284
375.7370, 593.2153
376.9360, 458.1138
378.1350, 438.0227
379.3330, 312.9651
380.5310, 270.9614
381.7300, 188.0955
382.9280, 152.2375
384.1260, 106.3733
385.3230, 83.04517
386.5210, 113.9768
387.7180, 58.32153
388.9160, 47.75635
390.1130, 24.41528
391.3100, 101.2278
392.5060, 75.32300
393.7030, 139.9626
394.9000, 238.2302
396.0960, 194.0894
397.2920, 267.8284
398.4880, 309.5215
399.6840, 503.6831
400.8800, 510.1536
402.0750, 698.6318
403.2710, 960.0002
404.4660, 1149.590
405.6610, 1387.153
406.8560, 1611.548
408.0510, 2009.420
409.2450, 2229.840
410.4400, 2673.490
411.6340, 2878.053
412.8280, 3129.933
414.0220, 3246.609
415.2160, 3279.925
416.4100, 3287.669
417.6030, 3253.170
418.7970, 2993.441
419.9900, 2656.468
421.1830, 2379.897
422.3760, 2087.053
423.5690, 1861.242
424.7610, 1600.272
425.9540, 1406.271
427.1460, 1192.541
428.3380, 1051.407
429.5300, 805.3696
430.7220, 750.3652
431.9140, 662.8528
433.1050, 487.6514
434.2970, 516.8643
435.4880, 456.2246
436.6790, 502.1755
437.8700, 362.2847
439.0610, 303.2021
440.2510, 277.0059
441.4420, 253.6018
442.6320, 284.0833
443.8220, 198.3706
445.0120, 265.3838
446.2020, 127.4905
447.3910, 212.7405
448.5810, 157.1045
449.7700, 246.9321
450.9600, 167.0505
452.1490, 220.8418
453.3370, 256.3564
454.5260, 266.2458
455.7150, 232.9836
456.9030, 250.6343
458.0910, 232.1704
459.2800, 253.0327
460.4670, 201.6938
461.6550, 170.3501
462.8430, 140.0227
464.0300, 110.7056
465.2180, 99.23877
466.4050, 34.11646
467.5920, 97.84521
468.7790, 61.57275
469.9650, 91.30151
471.1520, 20.01367
472.3380, 38.70068
473.5250, 60.36328
474.7110, 69.00269
475.8970, 51.61816
477.0820, 2.208984
478.2680, 2.227051
479.4540, 39.30786
480.6390, 51.81567
481.8240, 22.70361
483.0090, 90.73438
484.1940, 43.83862
485.3780, 14.53271
486.5630, 17.88062
487.7470, 59.20410
488.9320, 150.5315
490.1160, 205.8586
491.3000, 268.3726
492.4830, 314.0574
493.6670, 351.8032
494.8500, 382.0759
496.0340, 333.3201
497.2170, 355.5352
498.4000, 413.7292
499.5820, 504.9133
500.7650, 568.0867
501.9480, 680.2388
503.1300, 783.3782
504.3120, 934.4995
505.4940, 1040.617
506.6760, 1129.708
507.8580, 1136.877
509.0390, 1205.853
510.2210, 1029.883
511.4020, 936.8865
512.5830, 762.8567
513.7640, 653.8101
514.9450, 533.7505
516.1250, 466.6594
517.3060, 364.5522
518.4860, 304.4114
519.6660, 256.4036
520.8460, 204.1406
522.0260, 196.9570
523.2060, 169.7373
524.3850, 173.3269
525.5650, 180.1843
526.7440, 151.8506
527.9230, 156.4775
529.1020, 156.0640
530.2810, 48.61060
531.4590, 107.1064
532.6380, 94.55859
533.8160, 29.96558
534.9940, 122.3154
536.1720, 28.62158
537.3500, 3.131104
538.5270, 15.95752
539.7050, 61.86499
540.8820, 52.28101
542.0590, 87.99438
543.2360, 55.23145
544.4130, 36.57275
545.5900, 71.01025
546.7660, 101.5618
547.9430, 50.24438
549.1190, 57.03223
550.2950, 80.92871
551.4710, 67.94751
552.6470, 18.08228
553.8220, 70.30713
554.9980, 18.64990
556.1730, 76.08423
557.3480, 18.64062
558.5230, 14.28955
559.6980, 42.02930
560.8730, 5.874023
562.0470, 27.80615
563.2220, 9.163330
564.3960, 63.05249
565.5700, 69.87939
566.7440, 36.64551
567.9170, 61.34180
569.0910, 78.97461
570.2640, 135.5474
571.4380, 133.0681
572.6110, 99.53589
573.7840, 151.9468
574.9570, 116.3059
576.1290, 107.6104
577.3020, 136.8579
578.4740, 124.0522
579.6460, 139.0989
580.8180, 148.2781
581.9900, 172.3123
583.1620, 188.2954
584.3330, 232.2288
585.5040, 295.1133
586.6760, 269.9521
587.8470, 232.7434
589.0180, 202.4866
590.1880, 272.1794
591.3590, 254.8269
592.5290, 374.4260
593.7000, 300.9800
594.8700, 251.4941
596.0400, 447.9614
597.2090, 444.3831
598.3790, 328.7600
599.5490, 343.0913
600.7180, 410.3767
601.8870, 458.6167
603.0560, 440.8110
604.2250, 550.9592
605.3940, 469.0618
606.5620, 541.1184
607.7300, 572.0615
608.8990, 633.0371
610.0670, 629.9543
611.2350, 707.8247
612.4020, 737.4629
613.5700, 705.1172
614.7370, 726.0576
615.9050, 742.1592
617.0720, 740.6157
618.2390, 792.1958
619.4060, 815.6238
620.5720, 857.9609
621.7390, 1033.332
622.9050, 1014.152
624.0710, 1100.932
625.2370, 1226.204
626.4030, 1269.618
627.5690, 1326.648
628.7340, 1381.199
629.9000, 1503.530
631.0650, 1674.560
632.2300, 1810.273
633.3950, 1926.174
634.5600, 2063.382
635.7240, 2141.292
636.8890, 2425.328
638.0530, 2724.783
639.2170, 2864.924
640.3810, 3158.910
641.5450, 3418.466
642.7080, 3774.023
643.8720, 4059.345
645.0350, 4509.115
646.1980, 5039.410
647.3610, 5662.258
648.5240, 6372.944
649.6870, 7283.373
650.8490, 8226.677
652.0120, 9601.963
653.1740, 11373.64
654.3360, 13504.45
655.4980, 16225.91
656.6600, 19600.85
657.8210, 24039.81
658.9830, 29077.73
660.1440, 34971.48
661.3050, 41196.23
662.4660, 47272.96
663.6270, 53135.50
664.7870, 56956.98
665.9480, 57759.44
667.1080, 56378.71
668.2680, 51334.95
669.4280, 44973.12
670.5880, 37659.16
671.7480, 31071.95
672.9070, 25131.56
674.0670, 20433.85
675.2260, 16443.55
676.3850, 13656.60
677.5440, 11479.01
678.7030, 9592.510
679.8610, 8273.014
681.0200, 7418.012
682.1780, 6549.663
683.3360, 5942.266
684.4940, 5399.938
685.6520, 5112.352
686.8090, 4819.751
687.9670, 4566.278
689.1240, 4383.288
690.2810, 4478.710
691.4380, 4598.862
692.5950, 4744.059
693.7520, 5052.897
694.9080, 5574.901
696.0650, 6198.223
697.2210, 6790.075
698.3770, 7373.130
699.5330, 7977.375
700.6880, 8104.818
701.8440, 8261.820
702.9990, 7795.055
704.1550, 7337.214
705.3100, 6782.490
706.4650, 5924.759
707.6190, 5254.719
708.7740, 4695.042
709.9290, 4229.229
711.0830, 4041.344
712.2370, 3588.929
713.3910, 3671.162
714.5450, 3544.942
715.6980, 3618.533
716.8520, 3654.496
718.0050, 3562.259
719.1580, 3364.174
720.3110, 3032.162
721.4640, 2623.318
722.6170, 2254.545
723.7700, 1836.927
724.9220, 1565.541
726.0740, 1388.021
727.2260, 1159.315
728.3780, 1015.455
729.5300, 891.8569
730.6810, 634.1587
731.8330, 619.7454
732.9840, 629.1855
734.1350, 487.3916
735.2860, 580.9067
736.4370, 494.3984
737.5880, 413.8496
738.7380, 439.2954
739.8880, 379.7188
741.0390, 307.1196
742.1890, 291.4990
743.3380, 320.8572
744.4880, 232.1938
745.6380, 221.5098
746.7870, 123.8059
747.9360, 201.0815
749.0850, 149.3369
750.2340, 128.5732
751.3830, 163.7910
752.5310, 52.99170
753.6800, 65.17090
754.8280, 66.33105
755.9760, 26.47266
757.1240, 23.59570
758.2720, 118.7002
759.4190, 65.78955
760.5670, 63.86230
761.7140, 38.07324
762.8610, 57.94385
764.0080, 9.039551
765.1550, 4.052246
766.3020, 108.0903
767.4480, 86.77832
768.5950, 83.78857
769.7410, 64.64551
770.8870, 20.95312
772.0330, 10.70752
773.1780, 63.35254
774.3240, 18.98584
775.4690, 20.39453
776.6140, 66.80225
777.7590, 66.26123
778.9040, 27.76904
780.0490, 63.30615
781.1940, 44.88867
782.3380, 102.5068
783.4820, 11.18945
784.6260, 91.89014
785.7700, 41.64746
786.9140, 5.564453
788.0580, 19.23242
789.2010, 9.952637
790.3450, 66.87061
791.4880, 87.73193
792.6310, 7.642578
793.7730, 77.56348
794.9160, 96.52588
796.0590, 81.53809
797.2010, 62.92188
798.3430, 46.78223
799.4850, 3.215820
800.6270, 19.10498
801.7690, 26.55029
802.9100, 6.877930
804.0520, 25.76221
805.1930, 27.64746
806.3340, 22.52979
807.4750, 65.41406
808.6160, 84.30469
809.7560, 96.19727
810.8970, 117.0938
812.0370, 80.00049
813.1770, 101.9106
814.3170, 127.8315
815.4570, 95.77100
816.5960, 141.7334
817.7360, 50.73096
818.8750, 162.7627
820.0140, 227.8369
821.1530, 165.9458
822.2920, 182.0869
823.4310, 218.2681
824.5690, 182.4985
825.7070, 232.7651
826.8460, 219.0698
827.9840, 268.4199
829.1220, 281.8120
830.2590, 287.2339
831.3970, 193.6992
832.5340, 238.1958
833.6710, 277.7383
834.8080, 348.3125
835.9450, 358.9180
837.0820, 318.5615
838.2190, 355.2344
839.3550, 381.9434
840.4910, 323.6787
841.6270, 372.4316
842.7630, 314.2021
843.8990, 384.9961
845.0350, 459.8096
846.1700, 430.6401
847.3060, 363.4868
848.4410, 388.3472
849.5760, 437.2256
850.7100, 404.1187
851.8450, 413.0288
852.9800, 489.9556
854.1140, 440.8975
855.2480, 483.8550
856.3820, 438.8291
857.5160, 436.8184
858.6500, 476.8223
859.7830, 461.8403
860.9170, 536.8721
862.0500, 445.9175
863.1830, 467.9780
864.3160, 324.0527
865.4480, 481.1484
866.5810, 404.2617
867.7130, 479.4131
868.8460, 480.5801
869.9780, 478.7646
871.1100, 465.9673
872.2410, 536.1865
873.3730, 497.4233
874.5050, 447.7139
875.6360, 470.0225
876.7670, 536.3652
877.8980, 482.7358
879.0290, 471.1250
880.1590, 579.5317
881.2900, 556.9688
882.4200, 592.4238
883.5500, 654.8916
884.6800, 719.3901
885.8100, 761.9238
886.9400, 805.4980
888.0690, 1020.098
889.1990, 1211.482
890.3280, 1496.955
891.4570, 1820.486
892.5860, 2250.911
893.7140, 2540.352
894.8430, 2978.169
895.9710, 3382.890
897.1000, 3581.640
898.2280, 3665.096
899.3560, 3679.915
900.4830, 3450.370
901.6110, 3365.213
902.7380, 2798.699
903.8660, 2623.609
904.9930, 2296.803
906.1200, 1941.288
907.2460, 1724.570
908.3730, 1659.537
909.5000, 1435.791
910.6260, 1257.915
911.7520, 1287.607
912.8780, 1214.591
914.0040, 1250.706
915.1290, 1177.243
916.2550, 1124.757
917.3800, 1065.489
918.5050, 1130.778
919.6300, 1172.525
920.7550, 1181.697
921.8800, 1132.010
923.0040, 1163.557
924.1290, 1150.209
925.2530, 1072.857
926.3770, 1168.093
927.5010, 1108.178
928.6250, 1180.583
929.7480, 1096.487
930.8720, 1197.355
931.9950, 1077.230
933.1180, 1140.283
934.2410, 1065.302
935.3640, 1099.295
936.4860, 1153.335
937.6090, 1249.406
938.7310, 1246.506
939.8530, 1384.631
940.9750, 1237.792
942.0970, 1384.009
943.2180, 1405.253
944.3400, 1467.523
945.4610, 1553.828
946.5820, 1623.159
947.7030, 1844.517
948.8240, 1950.900
949.9450, 2134.309
951.0650, 2242.744
952.1860, 2527.205
953.3060, 2736.692
954.4260, 3054.202
955.5460, 3330.738
956.6650, 3724.295
957.7850, 4116.876
958.9040, 4509.482
960.0230, 4966.108
961.1420, 5482.760
962.2610, 5791.434
963.3800, 6360.131
964.4990, 6954.852
965.6170, 7249.593
966.7350, 7802.356
967.8530, 8391.140
968.9710, 8967.952
970.0890, 9359.785
971.2070, 9871.636
972.3240, 9923.509
973.4410, 10222.49
974.5580, 10451.40
975.6750, 10441.33
976.7920, 10252.28
977.9090, 9969.644
979.0250, 9522.889
980.1410, 9033.926
981.2580, 8613.352
982.3740, 8153.389
983.4890, 7664.762
984.6050, 7329.168
985.7200, 7104.546
986.8360, 6636.653
987.9510, 6504.773
989.0660, 6426.911
990.1810, 6614.171
991.2950, 6498.342
992.4100, 6701.526
993.5240, 7034.728
994.6390, 7203.942
995.7530, 7352.411
996.8660, 7764.942
997.9800, 8036.338
999.0940, 7964.672
1000.207, 7951.777
1001.320, 7768.265
1002.433, 7408.265
1003.546, 7330.321
1004.659, 7216.292
1005.772, 7327.312
1006.884, 7611.388
1007.996, 8202.981
1009.108, 8879.150
1010.220, 10022.84
1011.332, 11166.05
1012.444, 12645.30
1013.555, 14432.36
1014.666, 16355.95
1015.777, 18105.19
1016.888, 20103.42
1017.999, 21423.61
1019.110, 22315.28
1020.220, 22342.50
1021.331, 21532.83
1022.441, 20080.23
1023.551, 18306.60
1024.661, 16264.57
1025.770, 14345.59
1026.880, 12398.92
1027.989, 10911.71
1029.098, 9323.170
1030.207, 8060.139
1031.316, 7100.646
1032.425, 6192.361
1033.533, 5512.202
1034.642, 4777.869
1035.750, 4259.910
1036.858, 3811.328
1037.966, 3547.117
1039.073, 3194.651
1040.181, 2892.002
1041.288, 2597.878
1042.396, 2349.607
1043.503, 2205.610
1044.610, 1953.333
1045.716, 1890.002
1046.823, 1806.615
1047.929, 1613.819
1049.036, 1663.328
1050.142, 1466.538
1051.248, 1369.900
1052.353, 1397.210
1053.459, 1332.759
1054.564, 1246.524
1055.670, 1197.437
1056.775, 1108.547
1057.880, 996.3291
1058.985, 1020.833
1060.089, 1052.499
1061.194, 985.8818
1062.298, 912.3701
1063.402, 826.2495
1064.506, 806.4028
1065.610, 768.7871
1066.713, 786.9355
1067.817, 758.7124
1068.920, 776.3232
1070.023, 737.8755
1071.126, 721.5479
1072.229, 700.0806
1073.332, 675.8223
1074.435, 643.3867
1075.537, 624.6938
1076.639, 577.8779
1077.741, 563.6387
1078.843, 520.3301
1079.945, 507.5684
1081.046, 568.6909
1082.148, 507.8140
1083.249, 477.0820
1084.350, 406.5684
1085.451, 465.6172
1086.551, 411.5454
1087.652, 508.4346
1088.752, 310.1787
1089.853, 415.0342
1090.953, 327.7466
1092.053, 404.6597
1093.152, 335.8062
1094.252, 248.5903
1095.351, 214.6235
1096.451, 204.4507
1097.550, 209.1211
1098.649, 269.1172
1099.748, 218.7085
1100.846, 193.7095
1101.945, 104.3916
1103.043, 144.7319
1104.141, 147.2324
1105.239, 81.75488
1106.337, 211.0059
1107.434, 183.3159
1108.532, 110.7598
1109.629, 20.25488
1110.726, 56.95654
1111.823, 114.3311
1112.920, 28.17773
1114.017, 130.0137
1115.113, 54.95410
1116.210, 54.37549
1117.306, 68.36182
1118.402, 270.5410
1119.498, 259.1836
1120.593, 258.1021
1121.689, 124.2207
1122.784, 273.2051
1123.879, 309.9121
1124.974, 283.7832
1126.069, 283.2510
1127.164, 108.0508
1128.259, 99.48730
1129.353, 138.2671
1130.447, 12.82861
1131.541, 2.736328
1132.635, 83.68994
1133.729, 18.81738
1134.822, 11.24365
1135.916, 37.09277
1137.009, 31.34570
1138.102, 23.36719
1139.195, 141.0566
1140.288, 16.12598
1141.380, 60.02295
1142.473, 35.14404
1143.565, 10.42725
1144.657, 60.11133
1145.749, 37.50000
1146.841, 24.86230
1147.932, 13.23584
1149.024, 45.11572
1150.115, 49.83105
1151.206, 73.55615
1152.297, 10.29541
1153.388, 74.07959
1154.479, 8.673828
1155.569, 80.99170
1156.659, 96.66016
1157.750, 44.03271
1158.839, 43.32227
1159.929, 68.75146
1161.019, 12.19580
1162.108, 3.933594
1163.198, 69.85645
1164.287, 70.96436
1165.376, 83.21582
1166.465, 40.50635
1167.553, 58.17725
1168.642, 2.094238
1169.730, 49.84912
1170.818, 8.797363
1171.906, 32.21680
1172.994, 26.01221
1174.082, 51.93213
1175.170, 11.83105
1176.257, 46.02441
1177.344, 56.06445
1178.431, 32.82568
1179.518, 78.10352
1180.605, 0.5395510
1181.691, 64.88037
1182.778, 0.6474610
1183.864, 81.39014
1184.950, 55.86523
1186.036, 43.26025
1187.122, 32.55273
1188.207, 56.71680
1189.292, 96.43457
1190.378, 72.59717
1191.463, 131.2397
1192.548, 104.4600
1193.632, 53.89307
1194.717, 76.40186
1195.801, 16.27344
1196.886, 20.50293
1197.970, 30.03516
1199.054, 25.98340
1200.137, 28.07422
1201.221, 87.24756
1202.305, 130.5615
1203.388, 18.40625
1204.471, 72.95947
1205.554, 133.5459
1206.637, 158.9824
1207.719, 19.35010
1208.802, 92.63232
1209.884, 132.8784
1210.966, 156.0190
1212.048, 151.0903
1213.130, 112.0947
1214.212, 84.02637
1215.293, 153.8999
1216.374, 177.7031
1217.456, 181.5488
1218.536, 210.9600
1219.617, 178.7041
1220.698, 207.2329
1221.778, 153.6919
1222.859, 107.0806
1223.939, 172.3975
1225.019, 115.6440
1226.099, 149.8174
1227.178, 180.9199
1228.258, 111.9521
1229.337, 186.9106
1230.417, 43.80029
1231.496, 151.6074
1232.574, 226.3433
1233.653, 181.0083
1234.732, 168.6064
1235.810, 226.0439
1236.888, 204.5005
1237.966, 164.8867
1239.044, 145.1948
1240.122, 112.0381
1241.199, 156.9468
1242.277, 275.0107
1243.354, 268.6333
1244.431, 235.5918
1245.508, 126.1621
1246.585, 206.6421
1247.661, 151.0962
1248.738, 270.7656
1249.814, 196.3677
1250.890, 141.8979
1251.966, 162.2490
1253.042, 219.6382
1254.117, 170.9561
1255.193, 258.2026
1256.268, 169.3789
1257.343, 246.2446
1258.418, 153.9907
1259.493, 131.8125
1260.567, 295.6372
1261.642, 294.6313
1262.716, 159.1880
1263.790, 167.1738
1264.864, 293.0435
1265.938, 184.9404
1267.011, 335.7290
1268.085, 215.4058
1269.158, 58.49365
1270.231, 206.9619
