##NAMES=Serandite
##RRUFFID=R050261
##IDEAL CHEMISTRY=NaMn^2+^_2_Si_3_O_8_(OH)
##LOCALITY=Mont Saint-Hilaire, Rouville County, Quebec, Canada
##OWNER=RRUFF
##SOURCE=Marcus Origlieri
##DESCRIPTION=Orange tabular single crystal associated with aegirine and microcline
##STATUS=The identification of this mineral has been confirmed by X-ray diffraction and chemical analysis
##URL=rruff.info/R050261
##MEASURED CHEMISTRY=Na_0.96_(Mn_0.92_Ca_0.06_Fe_0.01_)_2_Si_3.03_O_8_(OH)
##PIN_ID=L00791
##ORIENTATION=Laser parallel to -c* (0 0 -1). Fiducial mark perpendicular to laser is parallel to -a [-1 0 0]
93.48000, 0.0000000E+00
94.71400, 0.1276860
95.94800, 19.15234
97.18200, 0.2458500
98.41600, 4.372559
99.64900, 149.2561
100.8830, 308.8047
102.1160, 442.5078
103.3490, 714.7034
104.5820, 1184.438
105.8150, 1876.144
107.0470, 2866.766
108.2800, 3701.056
109.5120, 4394.163
110.7440, 4464.360
111.9760, 3589.750
113.2080, 2970.395
114.4400, 2908.341
115.6710, 2893.611
116.9030, 2824.236
118.1340, 2645.212
119.3650, 2459.522
120.5960, 2484.479
121.8270, 2306.537
123.0580, 1726.766
124.2880, 1181.875
125.5190, 639.4548
126.7490, 393.4751
127.9790, 288.9084
129.2090, 419.7290
130.4390, 575.9155
131.6680, 834.4561
132.8980, 1073.348
134.1270, 1417.579
135.3560, 1977.129
136.5850, 2373.974
137.8140, 2636.094
139.0430, 2673.472
140.2710, 2391.382
141.5000, 1867.222
142.7280, 1267.277
143.9560, 850.5369
145.1840, 442.9880
146.4120, 197.6174
147.6390, 38.58154
148.8670, 53.61597
150.0940, 157.4922
151.3210, 100.2158
152.5490, 2.792236
153.7750, 70.77319
155.0020, 177.4751
156.2290, 268.3093
157.4550, 341.2710
158.6810, 491.3560
159.9080, 777.5603
161.1340, 1051.880
162.3590, 1361.312
163.5850, 1609.852
164.8110, 1758.497
166.0360, 1723.244
167.2610, 1591.118
168.4860, 1251.169
169.7110, 999.5122
170.9360, 861.0527
172.1610, 689.7659
173.3850, 465.6250
174.6100, 333.5750
175.8340, 222.5454
177.0580, 140.5400
178.2820, 83.56177
179.5050, 21.61475
180.7290, 24.53223
181.9520, 120.8186
183.1760, 60.96704
184.3990, 28.14893
185.6220, 47.36670
186.8450, 5.377441
188.0670, 93.91797
189.2900, 131.2537
190.5120, 249.6311
191.7340, 395.0498
192.9560, 592.5107
194.1780, 888.0063
195.4000, 1052.475
196.6220, 1266.904
197.8430, 1506.378
199.0640, 1577.898
200.2860, 1740.465
201.5070, 1986.077
202.7270, 2064.733
203.9480, 2049.434
205.1690, 1855.179
206.3890, 1440.967
207.6090, 1336.796
208.8290, 1284.668
210.0490, 1239.580
211.2690, 1217.532
212.4890, 1260.523
213.7080, 1284.551
214.9280, 1341.479
216.1470, 1478.718
217.3660, 1516.856
218.5850, 1580.029
219.8030, 1728.237
221.0220, 2037.479
222.2400, 2248.753
223.4590, 2465.061
224.6770, 2677.399
225.8950, 2733.770
227.1120, 2732.171
228.3300, 2485.601
229.5480, 2244.061
230.7650, 1889.549
231.9820, 1608.064
233.1990, 1290.607
234.4160, 1105.176
235.6330, 972.7715
236.8490, 677.3916
238.0660, 509.0364
239.2820, 437.8979
240.4980, 223.2065
241.7140, 142.9602
242.9300, 129.2122
244.1460, 70.37256
245.3610, 111.2039
246.5770, 121.8694
247.7920, 249.4272
249.0070, 317.9182
250.2220, 464.9202
251.4370, 509.2166
252.6510, 594.5986
253.8660, 680.0422
255.0800, 873.7139
256.2940, 964.4541
257.5080, 1073.259
258.7220, 1259.129
259.9360, 1536.067
261.1490, 1825.070
262.3630, 2497.140
263.5760, 2478.281
264.7890, 2313.492
266.0020, 1647.771
267.2150, 1654.090
268.4270, 1677.291
269.6400, 1759.482
270.8520, 1769.748
272.0640, 1677.071
273.2760, 1707.464
274.4880, 1588.919
275.7000, 1606.433
276.9120, 1565.010
278.1230, 1581.642
279.3340, 1635.323
280.5450, 1740.052
281.7560, 1893.826
282.9670, 2075.643
284.1780, 2339.502
285.3880, 2458.399
286.5980, 2641.332
287.8090, 2721.303
289.0190, 2757.314
290.2290, 2698.362
291.4380, 2644.444
292.6480, 2488.557
293.8570, 2339.511
295.0670, 2087.958
296.2760, 1979.951
297.4850, 1792.614
298.6930, 1600.778
299.9020, 1517.061
301.1110, 1361.369
302.3190, 1195.702
303.5270, 1075.058
304.7350, 897.4363
305.9430, 693.8372
307.1510, 640.2607
308.3580, 491.7031
309.5660, 441.1628
310.7730, 400.6409
311.9800, 268.1355
313.1870, 276.6470
314.3940, 216.1731
315.6010, 140.7129
316.8070, 186.2666
318.0130, 145.8330
319.2200, 211.4102
320.4260, 183.9971
321.6310, 246.5942
322.8370, 230.2009
324.0430, 312.8174
325.2480, 422.4431
326.4540, 522.0779
327.6590, 595.7212
328.8640, 727.3735
330.0680, 762.0342
331.2730, 815.7026
332.4780, 893.2852
333.6820, 1002.969
334.8860, 1000.660
336.0900, 958.3584
337.2940, 881.0632
338.4980, 839.7747
339.7010, 808.4919
340.9050, 766.2158
342.1080, 641.9456
343.3110, 610.6816
344.5140, 548.4238
345.7170, 511.1709
346.9200, 577.9233
348.1220, 513.6807
349.3240, 476.4426
350.5270, 540.2090
351.7290, 528.5894
352.9310, 541.7534
354.1320, 633.5312
355.3340, 699.3125
356.5350, 816.0969
357.7370, 994.8840
358.9380, 1106.674
360.1390, 1223.466
361.3400, 1403.261
362.5400, 1543.058
363.7410, 1828.856
364.9410, 2010.656
366.1410, 2123.458
367.3410, 2178.260
368.5410, 2224.064
369.7410, 1918.868
370.9400, 1752.673
372.1400, 1428.477
373.3390, 1175.282
374.5380, 821.0872
375.7370, 628.8916
376.9360, 427.6956
378.1350, 259.4990
379.3330, 202.3015
380.5310, 42.10303
381.7300, 52.90308
382.9280, 32.29810
384.1260, 25.52246
385.3230, 96.75122
386.5210, 129.0220
387.7180, 154.3535
388.9160, 113.7612
390.1130, 58.22510
391.3100, 117.7173
392.5060, 49.27051
393.7030, 71.81567
394.9000, 41.23340
396.0960, 73.55103
397.2920, 21.78882
398.4880, 56.94360
399.6840, 79.10181
400.8800, 110.5098
402.0750, 206.0032
403.2710, 316.9199
404.4660, 400.0234
405.6610, 539.3452
406.8560, 645.9082
408.0510, 814.5215
409.2450, 1010.251
410.4400, 1252.727
411.6340, 1499.938
412.8280, 1675.717
414.0220, 2067.937
415.2160, 2304.521
416.4100, 2627.185
417.6030, 2645.978
418.7970, 2649.216
419.9900, 2636.785
421.1830, 2467.987
422.3760, 2344.319
423.5690, 2082.660
424.7610, 1839.260
425.9540, 1651.439
427.1460, 1471.192
428.3380, 1294.568
429.5300, 1087.245
430.7220, 1014.121
431.9140, 823.4077
433.1050, 684.4617
434.2970, 642.0215
435.4880, 563.1737
436.6790, 509.4427
437.8700, 434.5729
439.0610, 405.1853
440.2510, 407.0187
441.4420, 344.6534
442.6320, 338.2341
443.8220, 378.2310
445.0120, 306.1309
446.2020, 327.8890
447.3910, 381.6211
448.5810, 291.3901
449.7700, 324.3544
450.9600, 277.5948
452.1490, 322.6531
453.3370, 343.9017
454.5260, 427.0221
455.7150, 457.2695
456.9030, 513.1672
458.0910, 614.2512
459.2800, 645.5682
460.4670, 684.6527
461.6550, 802.5217
462.8430, 833.3735
464.0300, 782.2076
465.2180, 766.0240
466.4050, 622.8225
467.5920, 534.6028
468.7790, 428.3647
469.9650, 425.1084
471.1520, 283.8334
472.3380, 302.5396
473.5250, 255.2268
474.7110, 228.8949
475.8970, 216.5444
477.0820, 228.4978
478.2680, 241.7417
479.4540, 282.3765
480.6390, 302.9485
481.8240, 320.5016
483.0090, 352.0483
484.1940, 354.5778
485.3780, 348.0930
486.5630, 343.5879
487.7470, 355.0696
488.9320, 358.5361
490.1160, 432.9856
491.3000, 461.4213
492.4830, 505.8455
493.6670, 504.2549
494.8500, 473.6537
496.0340, 562.0415
497.2170, 468.4188
498.4000, 484.7899
499.5820, 394.1487
500.7650, 380.5002
501.9480, 436.8462
503.1300, 469.1797
504.3120, 412.5066
505.4940, 459.8119
506.6760, 475.0940
507.8580, 488.3611
509.0390, 571.6217
510.2210, 602.8770
511.4020, 648.1172
512.5830, 723.3506
513.7640, 732.5679
514.9450, 731.5100
516.1250, 608.9587
517.3060, 672.1316
518.4860, 603.2881
519.6660, 550.4348
520.8460, 619.5745
522.0260, 644.6930
523.2060, 661.7991
524.3850, 637.8798
525.5650, 636.7563
526.7440, 646.9521
527.9230, 517.9539
529.1020, 464.8690
530.2810, 368.1365
531.4590, 314.8899
532.6380, 251.0306
533.8160, 196.4777
534.9940, 162.9933
536.1720, 120.1553
537.3500, 97.11072
538.5270, 79.05579
539.7050, 80.00464
540.8820, 9.764404
542.0590, 37.48340
543.2360, 34.16821
544.4130, 3.181641
545.5900, 13.41992
546.7660, 9.019043
547.9430, 28.51001
549.1190, 29.06348
550.2950, 30.67993
551.4710, 42.36060
552.6470, 6.111572
553.8220, 30.91443
554.9980, 37.78223
556.1730, 35.28149
557.3480, 28.69202
558.5230, 14.73010
559.6980, 5.825195
560.8730, 26.97278
562.0470, 5.184448
563.2220, 10.55139
564.3960, 10.24243
565.5700, 34.88843
566.7440, 14.49597
567.9170, 28.48889
569.0910, 44.58386
570.2640, 31.07104
571.4380, 23.51868
572.6110, 10.92493
573.7840, 17.28564
574.9570, 34.60291
576.1290, 53.88123
577.3020, 47.12390
578.4740, 54.32971
579.6460, 31.49988
580.8180, 74.63013
581.9900, 91.72705
583.1620, 96.79248
584.3330, 61.82678
585.5040, 66.82605
586.6760, 76.79102
587.8470, 77.72290
589.0180, 73.62146
590.1880, 59.48657
591.3590, 134.3163
592.5290, 174.1167
593.7000, 124.8894
594.8700, 151.6326
596.0400, 117.3474
597.2090, 197.0322
598.3790, 157.6898
599.5490, 102.3191
600.7180, 139.9175
601.8870, 220.4869
603.0560, 266.0293
604.2250, 256.5444
605.3940, 247.0323
606.5620, 237.4932
607.7300, 242.9270
608.8990, 254.3336
610.0670, 326.7130
611.2350, 362.0657
612.4020, 341.3911
613.5700, 384.6896
614.7370, 378.9612
615.9050, 415.2056
617.0720, 419.4672
618.2390, 444.6578
619.4060, 524.8217
620.5720, 543.0583
621.7390, 567.3116
622.9050, 645.4548
624.0710, 609.9993
625.2370, 675.2883
626.4030, 679.3333
627.5690, 771.8419
628.7340, 788.9908
629.9000, 787.5364
631.0650, 912.9723
632.2300, 991.9922
633.3950, 1047.153
634.5600, 1242.281
635.7240, 1235.448
636.8890, 1379.679
638.0530, 1446.875
639.2170, 1579.778
640.3810, 1779.774
641.5450, 1963.236
642.7080, 2142.969
643.8720, 2374.238
645.0350, 2514.933
646.1980, 2813.467
647.3610, 3076.694
648.5240, 3493.897
649.6870, 3848.447
650.8490, 4275.597
652.0120, 4898.840
653.1740, 5492.886
654.3360, 6524.342
655.4980, 7334.376
656.6600, 8568.704
657.8210, 10240.73
658.9830, 12400.12
660.1440, 14968.31
661.3050, 17746.18
662.4660, 21727.01
663.6270, 26785.11
664.7870, 32364.27
665.9480, 38326.34
667.1080, 44154.55
668.2680, 48846.62
669.4280, 50747.96
670.5880, 48467.01
671.7480, 43185.14
672.9070, 36745.18
674.0670, 30131.15
675.2260, 23741.15
676.3850, 18863.39
677.5440, 15170.21
678.7030, 12199.77
679.8610, 10052.33
681.0200, 8470.433
682.1780, 7344.264
683.3360, 6161.981
684.4940, 5632.249
685.6520, 4799.304
686.8090, 4412.110
687.9670, 4037.649
689.1240, 3687.109
690.2810, 3463.426
691.4380, 3205.968
692.5950, 3105.746
693.7520, 2978.927
694.9080, 3036.641
696.0650, 3074.963
697.2210, 3206.177
698.3770, 3425.233
699.5330, 3758.815
700.6880, 4154.039
701.8440, 4649.599
702.9990, 4958.002
704.1550, 5112.364
705.3100, 5104.441
706.4650, 4890.907
707.6190, 4386.771
708.7740, 3935.982
709.9290, 3409.861
711.0830, 2983.512
712.2370, 2503.722
713.3910, 2191.135
714.5450, 1956.012
715.6980, 1804.266
716.8520, 1639.372
718.0050, 1473.593
719.1580, 1380.308
720.3110, 1349.800
721.4640, 1267.474
722.6170, 1186.174
723.7700, 1050.426
724.9220, 966.7444
726.0740, 817.1733
727.2260, 680.5977
728.3780, 578.9539
729.5300, 603.0839
730.6810, 531.9065
731.8330, 445.8802
732.9840, 386.6328
734.1350, 308.4823
735.2860, 324.1733
736.4370, 339.1439
737.5880, 368.9753
738.7380, 314.5034
739.8880, 315.3499
741.0390, 258.1469
742.1890, 257.0469
743.3380, 191.9336
744.4880, 157.8066
745.6380, 209.6669
746.7870, 150.5144
747.9360, 128.3490
749.0850, 66.17114
750.2340, 113.9810
751.3830, 103.7788
752.5310, 132.5647
753.6800, 120.9429
754.8280, 38.10181
755.9760, 82.85303
757.1240, 51.59326
758.2720, 21.32300
759.4190, 18.04053
760.5670, 33.25439
761.7140, 7.412354
762.8610, 5.936523
764.0080, 22.69165
765.1550, 11.68970
766.3020, 7.094971
767.4480, 1.477783
768.5950, 13.96509
769.7410, 24.43164
770.8870, 11.92676
772.0330, 28.51440
773.1780, 30.33325
774.3240, 32.56494
775.4690, 49.17065
776.6140, 29.81470
777.7590, 48.48633
778.9040, 57.19482
780.0490, 30.94336
781.1940, 56.71826
782.3380, 2.468750
783.4820, 18.64771
784.6260, 28.17822
785.7700, 61.02563
786.9140, 67.91089
788.0580, 30.83691
789.2010, 65.78296
790.3450, 31.76758
791.4880, 22.77148
792.6310, 66.78955
793.7730, 22.84399
794.9160, 36.91113
796.0590, 60.99707
797.2010, 75.11401
798.3430, 18.26807
799.4850, 56.43066
800.6270, 11.38086
801.7690, 64.80762
802.9100, 1.975342
804.0520, 6.242188
805.1930, 29.46167
806.3340, 35.69116
807.4750, 39.06738
808.6160, 2.173096
809.7560, 20.58618
810.8970, 29.65259
812.0370, 53.10034
813.1770, 17.14453
814.3170, 6.391602
815.4570, 15.36304
816.5960, 100.1223
817.7360, 22.88599
818.8750, 82.66138
820.0140, 78.44458
821.1530, 25.23682
822.2920, 73.04443
823.4310, 9.864258
824.5690, 77.70190
825.7070, 86.56299
826.8460, 115.4478
827.9840, 68.35669
829.1220, 83.29370
830.2590, 110.2495
831.3970, 122.2312
832.5340, 116.2402
833.6710, 150.2615
834.8080, 124.3083
835.9450, 128.3774
837.0820, 107.4670
838.2190, 197.5828
839.3550, 133.7192
840.4910, 179.8728
841.6270, 203.0437
842.7630, 147.2285
843.8990, 191.4304
845.0350, 178.6477
846.1700, 181.8792
847.3060, 175.1255
848.4410, 174.3887
849.5760, 196.6709
850.7100, 233.9712
851.8450, 266.2874
852.9800, 268.6177
854.1140, 177.9636
855.2480, 267.3245
856.3820, 191.7029
857.5160, 260.0950
858.6500, 264.5000
859.7830, 280.9185
860.9170, 276.3525
862.0500, 327.8018
863.1830, 316.2659
864.3160, 268.7446
865.4480, 332.2390
866.5810, 304.7500
867.7130, 307.2747
868.8460, 316.8123
869.9780, 277.3677
871.1100, 315.9370
872.2410, 313.5210
873.3730, 341.1250
874.5050, 293.7434
875.6360, 352.3774
876.7670, 366.0278
877.8980, 284.6924
879.0290, 308.3733
880.1590, 336.0688
881.2900, 451.7791
882.4200, 483.5044
883.5500, 483.2446
884.6800, 512.0005
885.8100, 539.7734
886.9400, 602.5645
888.0690, 773.3752
889.1990, 890.2078
890.3280, 1059.065
891.4570, 1201.900
892.5860, 1536.809
893.7140, 1741.738
894.8430, 2253.585
895.9710, 2619.418
897.1000, 3090.352
898.2280, 3526.883
899.3560, 3913.662
900.4830, 4028.680
901.6110, 4014.230
902.7380, 3789.148
903.8660, 3537.663
904.9930, 3200.281
906.1200, 2777.316
907.2460, 2384.202
908.3730, 2205.116
909.5000, 2075.997
910.6260, 1856.811
911.7520, 1768.661
912.8780, 1695.800
914.0040, 1567.851
915.1290, 1497.443
916.2550, 1434.834
917.3800, 1391.593
918.5050, 1327.984
919.6300, 1319.543
920.7550, 1258.432
921.8800, 1275.344
923.0040, 1222.927
924.1290, 1220.918
925.2530, 1085.825
926.3770, 1116.926
927.5010, 1020.635
928.6250, 1062.787
929.7480, 1014.647
930.8720, 1121.812
931.9950, 985.6143
933.1180, 1105.622
934.2410, 1026.960
935.3640, 948.3411
936.4860, 968.4578
937.6090, 1101.516
938.7310, 1075.683
939.8530, 1038.715
940.9750, 1100.910
942.0970, 1054.880
943.2180, 1056.197
944.3400, 1084.483
945.4610, 1107.733
946.5820, 1253.362
947.7030, 1248.801
948.8240, 1352.857
949.9450, 1512.229
951.0650, 1525.757
952.1860, 1624.313
953.3060, 1796.899
954.4260, 1934.512
955.5460, 2160.153
956.6650, 2333.826
957.7850, 2543.516
958.9040, 2753.237
960.0230, 3033.984
961.1420, 3295.757
962.2610, 3701.557
963.3800, 3963.384
964.4990, 4392.237
965.6170, 4758.122
966.7350, 5243.033
967.8530, 5658.969
968.9710, 6095.932
970.0890, 6457.920
971.2070, 6941.936
972.3240, 7309.976
973.4410, 7674.041
974.5580, 7808.132
975.6750, 8045.467
976.7920, 8297.385
977.9090, 8233.551
979.0250, 8285.741
980.1410, 8197.954
981.2580, 7979.195
982.3740, 7411.460
983.4890, 7029.751
984.6050, 6404.068
985.7200, 6316.407
986.8360, 5949.771
987.9510, 5610.159
989.0660, 5402.570
990.1810, 5238.009
991.2950, 5098.692
992.4100, 5153.960
993.5240, 5073.472
994.6390, 5088.007
995.7530, 5331.567
996.8660, 5443.149
997.9800, 5694.755
999.0940, 5960.387
1000.207, 5997.040
1001.320, 6202.715
1002.433, 6257.416
1003.546, 6242.813
1004.659, 6088.561
1005.772, 6143.332
1006.884, 6133.439
1007.996, 6339.256
1009.108, 6680.095
1010.220, 7046.137
1011.332, 7893.014
1012.444, 8868.228
1013.555, 10069.15
1014.666, 11529.09
1015.777, 13123.06
1016.888, 15404.08
1017.999, 17471.10
1019.110, 19379.33
1020.220, 21010.88
1021.331, 21664.63
1022.441, 21744.88
1023.551, 20895.88
1024.661, 19235.91
1025.770, 17140.90
1026.880, 14985.95
1027.989, 12867.28
1029.098, 10925.17
1030.207, 9462.490
1031.316, 8162.426
1032.425, 7176.053
1033.533, 5998.165
1034.642, 5394.267
1035.750, 4785.319
1036.858, 4318.420
1037.966, 3831.003
1039.073, 3474.301
1040.181, 3118.966
1041.288, 2915.657
1042.396, 2610.479
1043.503, 2534.612
1044.610, 2283.385
1045.716, 2184.306
1046.823, 2076.678
1047.929, 1917.386
1049.036, 1802.876
1050.142, 1729.387
1051.248, 1644.416
1052.353, 1607.701
1053.459, 1553.332
1054.564, 1478.341
1055.670, 1402.026
1056.775, 1307.559
1057.880, 1301.742
1058.985, 1261.901
1060.089, 1263.421
1061.194, 1230.708
1062.298, 1098.258
1063.402, 1152.560
1064.506, 1094.112
1065.610, 1033.389
1066.713, 1041.862
1067.817, 1100.260
1068.920, 959.5718
1070.023, 1030.869
1071.126, 942.8411
1072.229, 963.8755
1073.332, 965.1731
1074.435, 894.3398
1075.537, 851.4565
1076.639, 804.6108
1077.741, 865.3369
1078.843, 793.4736
1079.945, 817.8979
1081.046, 728.6523
1082.148, 724.4438
1083.249, 739.2734
1084.350, 769.0833
1085.451, 684.7729
1086.551, 635.3630
1087.652, 682.7595
1088.752, 584.1702
1089.853, 558.4290
1090.953, 577.7161
1092.053, 573.8730
1093.152, 513.1411
1094.252, 585.5542
1095.351, 449.8813
1096.451, 433.3621
1097.550, 469.6611
1098.649, 417.0676
1099.748, 383.4702
1100.846, 397.6260
1101.945, 335.8831
1103.043, 379.5549
1104.141, 332.8677
1105.239, 279.0178
1106.337, 364.2771
1107.434, 317.3691
1108.532, 218.5823
1109.629, 265.6736
1110.726, 275.9988
1111.823, 245.3381
1112.920, 237.7849
1114.017, 220.4849
1115.113, 208.7727
1116.210, 331.0298
1117.306, 297.0388
1118.402, 407.4226
1119.498, 480.6699
1120.593, 544.8232
1121.689, 535.5894
1122.784, 522.1433
1123.879, 543.4343
1124.974, 594.7766
1126.069, 513.9785
1127.164, 503.1472
1128.259, 427.3000
1129.353, 267.5667
1130.447, 216.0159
1131.541, 120.0940
1132.635, 77.16333
1133.729, 59.64795
1134.822, 27.09814
1135.916, 45.89575
1137.009, 33.69409
1138.102, 39.10010
1139.195, 25.95728
1140.288, 13.96313
1141.380, 8.246338
1142.473, 35.53027
1143.565, 11.70557
1144.657, 34.29028
1145.749, 60.02588
1146.841, 11.82056
1147.932, 8.066650
1149.024, 12.87207
1150.115, 4.296387
1151.206, 12.54541
1152.297, 15.82422
1153.388, 24.58594
1154.479, 35.16748
1155.569, 17.98682
1156.659, 48.44556
1157.750, 15.94507
1158.839, 3.530762
1159.929, 43.01099
1161.019, 18.40747
1162.108, 25.19092
1163.198, 1.821777
1164.287, 9.473633
1165.376, 8.115723
1166.465, 53.81616
1167.553, 5.568848
1168.642, 10.65332
1169.730, 22.14380
1170.818, 7.023682
1171.906, 8.252441
1172.994, 42.57764
1174.082, 1.500000
1175.170, 23.34424
1176.257, 8.667969
1177.344, 30.34277
1178.431, 34.39844
1179.518, 61.50098
1180.605, 60.66577
1181.691, 19.89233
1182.778, 22.99585
1183.864, 91.30762
1184.950, 0.6984860
1186.036, 58.12231
1187.122, 38.61011
1188.207, 16.15137
1189.292, 1.264648
1190.378, 51.35327
1191.463, 78.03320
1192.548, 2.790283
1193.632, 28.41528
1194.717, 32.40527
1195.801, 35.72021
1196.886, 45.17749
1197.970, 31.86230
1199.054, 25.12427
1200.137, 45.83618
1201.221, 18.22852
1202.305, 15.66406
1203.388, 54.52393
1204.471, 14.35791
1205.554, 49.84229
1206.637, 2.109619
1207.719, 29.58032
1208.802, 18.23999
1209.884, 49.86572
1210.966, 31.46387
1212.048, 31.03174
1213.130, 30.56860
1214.212, 32.06006
1215.293, 37.89404
1216.374, 43.99194
1217.456, 62.40649
1218.536, 61.79395
1219.617, 94.41602
1220.698, 88.69238
1221.778, 120.7925
1222.859, 95.07300
1223.939, 66.32715
1225.019, 82.55273
1226.099, 59.78613
1227.178, 24.92090
1228.258, 70.05444
1229.337, 71.15942
1230.417, 126.2358
1231.496, 102.2866
1232.574, 50.30981
1233.653, 89.30200
1234.732, 128.2666
1235.810, 102.2043
1236.888, 142.1147
1237.966, 112.9993
1239.044, 141.8562
1240.122, 85.68701
1241.199, 82.95142
1242.277, 70.26367
1243.354, 53.00781
1244.431, 92.72021
1245.508, 99.40405
1246.585, 179.0603
1247.661, 77.69019
1248.738, 99.29053
1249.814, 120.8630
1250.890, 51.40771
1251.966, 62.91943
1253.042, 121.4009
1254.117, 66.85425
1255.193, 103.2771
1256.268, 109.6714
1257.343, 112.0381
1258.418, 88.37622
1259.493, 69.68604
1260.567, 124.9648
1261.642, 125.2158
1262.716, 66.43872
1263.790, 86.63037
1264.864, 135.1194
1265.938, 49.25415
1267.011, 88.35449
1268.085, 109.1106
1269.158, 119.1533
1270.231, 192.1682
