##NAMES=Serandite
##RRUFFID=R050261
##IDEAL CHEMISTRY=NaMn^2+^_2_Si_3_O_8_(OH)
##LOCALITY=Mont Saint-Hilaire, Rouville County, Quebec, Canada
##OWNER=RRUFF
##SOURCE=Marcus Origlieri
##DESCRIPTION=Orange tabular single crystal associated with aegirine and microcline
##STATUS=The identification of this mineral has been confirmed by X-ray diffraction and chemical analysis
##URL=rruff.info/R050261
##MEASURED CHEMISTRY=Na_0.96_(Mn_0.92_Ca_0.06_Fe_0.01_)_2_Si_3.03_O_8_(OH)
##PIN_ID=L01850
##ORIENTATION=Laser parallel to -b* (0 -1 0). Fiducial mark perpendicular to laser is parallel to c [0 0 1]
93.48000, 0.0000000E+00
94.71400, 39.49268
95.94800, 127.6484
97.18200, 37.60645
98.41600, 13.13672
99.64900, 47.36963
100.8830, 258.3271
102.1160, 233.1387
103.3490, 518.1104
104.5820, 915.1748
105.8150, 1309.605
107.0470, 1639.292
108.2800, 1898.818
109.5120, 2430.848
110.7440, 2463.274
111.9760, 2138.998
113.2080, 2225.928
114.4400, 2637.991
115.6710, 3574.111
116.9030, 4322.218
118.1340, 4554.245
119.3650, 3906.122
120.5960, 3005.379
121.8270, 1941.292
123.0580, 1315.079
124.2880, 959.5708
125.5190, 572.7588
126.7490, 459.5933
127.9790, 565.0322
129.2090, 639.0352
130.4390, 763.5732
131.6680, 1096.637
132.8980, 1273.215
134.1270, 1481.295
135.3560, 1554.854
136.5850, 1775.856
137.8140, 1959.267
139.0430, 2150.056
140.2710, 1856.196
141.5000, 1353.667
142.7280, 823.4468
143.9560, 418.5171
145.1840, 175.8608
146.4120, 35.46240
147.6390, 82.69238
148.8670, 112.4331
150.0940, 110.3115
151.3210, 3.201660
152.5490, 103.9180
153.7750, 301.8281
155.0020, 307.9243
156.2290, 429.1982
157.4550, 574.6436
158.6810, 518.2529
159.9080, 681.0195
161.1340, 937.9385
162.3590, 1027.004
163.5850, 1303.209
164.8110, 1372.551
166.0360, 1628.049
167.2610, 1969.905
168.4860, 2216.023
169.7110, 2322.480
170.9360, 2238.242
172.1610, 1973.262
173.3850, 1739.490
174.6100, 1270.972
175.8340, 962.5786
177.0580, 877.1929
178.2820, 897.8149
179.5050, 677.4512
180.7290, 617.1055
181.9520, 503.7778
183.1760, 620.4717
184.3990, 597.1899
185.6220, 768.9365
186.8450, 1010.712
188.0670, 1252.519
189.2900, 1579.359
190.5120, 1892.232
191.7340, 2293.141
192.9560, 2490.086
194.1780, 2563.070
195.4000, 2367.035
196.6220, 2280.024
197.8430, 1936.056
199.0640, 1799.144
200.2860, 1716.272
201.5070, 1657.441
202.7270, 1577.649
203.9480, 1320.897
205.1690, 904.1865
206.3890, 513.5146
207.6090, 399.8813
208.8290, 287.2871
210.0490, 164.7300
211.2690, 218.2095
212.4890, 339.7246
213.7080, 168.2764
214.9280, 303.8623
216.1470, 193.4824
217.3660, 168.1357
218.5850, 233.8223
219.8030, 272.5410
221.0220, 325.2915
222.2400, 441.0732
223.4590, 456.8848
224.6770, 591.7266
225.8950, 612.5981
227.1120, 673.4980
228.3300, 668.4263
229.5480, 667.3813
230.7650, 790.3633
231.9820, 952.3726
233.1990, 844.4062
234.4160, 963.4663
235.6330, 914.5513
236.8490, 891.6597
238.0660, 919.3682
239.2820, 835.9595
240.4980, 911.6885
241.7140, 747.1763
242.9300, 773.2549
244.1460, 750.4985
245.3610, 828.1099
246.5770, 919.7578
247.7920, 1016.621
249.0070, 1234.748
250.2220, 1477.926
251.4370, 1784.048
252.6510, 2027.587
253.8660, 2494.783
255.0800, 2853.184
256.2940, 3314.710
257.5080, 3860.805
258.7220, 4140.554
259.9360, 4509.405
261.1490, 4660.354
262.3630, 4081.394
263.5760, 3918.521
264.7890, 3784.730
266.0020, 3611.020
267.2150, 3527.344
268.4270, 3381.079
269.6400, 3354.984
270.8520, 3116.412
272.0640, 2945.908
273.2760, 2768.469
274.4880, 2544.093
275.7000, 2403.774
276.9120, 2320.513
278.1230, 2298.305
279.3340, 2372.151
280.5450, 2453.045
281.7560, 2603.986
282.9670, 2853.974
284.1780, 2872.003
285.3880, 3178.075
286.5980, 3341.188
287.8090, 3239.336
289.0190, 3402.523
290.2290, 3569.746
291.4380, 3567.002
292.6480, 3613.126
293.8570, 3751.831
295.0670, 3805.914
296.2760, 3792.892
297.4850, 3879.300
298.6930, 3746.812
299.9020, 3668.305
301.1110, 3473.947
302.3190, 3042.569
303.5270, 2798.155
304.7350, 2673.769
305.9430, 2245.419
307.1510, 1988.101
308.3580, 1920.815
309.5660, 1840.553
310.7730, 1635.312
311.9800, 1585.098
313.1870, 1555.904
314.3940, 1581.727
315.6010, 1451.565
316.8070, 1568.422
318.0130, 1704.291
319.2200, 1632.171
320.4260, 1876.061
321.6310, 2018.960
322.8370, 2315.869
324.0430, 2478.786
325.2480, 2796.713
326.4540, 2753.648
327.6590, 2989.593
328.8640, 2799.546
330.0680, 2848.508
331.2730, 2687.478
332.4780, 2392.456
333.6820, 2078.442
334.8860, 1856.436
336.0900, 1633.437
337.2940, 1386.445
338.4980, 1130.461
339.7010, 1057.484
340.9050, 730.5137
342.1080, 728.5513
343.3110, 587.5947
344.5140, 502.6445
345.7170, 537.7012
346.9200, 458.7632
348.1220, 504.8311
349.3240, 433.9043
350.5270, 523.9834
351.7290, 534.0669
352.9310, 689.1558
354.1320, 629.2500
355.3340, 741.3477
356.5350, 769.4507
357.7370, 866.5581
358.9380, 904.6694
360.1390, 1041.785
361.3400, 1086.905
362.5400, 1276.029
363.7410, 1391.156
364.9410, 1296.288
366.1410, 1189.422
367.3410, 1293.560
368.5410, 1021.701
369.7410, 949.8457
370.9400, 849.9937
372.1400, 681.1440
373.3390, 462.2979
374.5380, 364.4541
375.7370, 266.6133
376.9360, 117.7754
378.1350, 227.9404
379.3330, 63.10693
380.5310, 14.72363
381.7300, 0.5644530
382.9280, 136.4258
384.1260, 69.37939
385.3230, 139.3579
386.5210, 175.4014
387.7180, 153.5278
388.9160, 158.7295
390.1130, 148.0098
391.3100, 95.47363
392.5060, 146.7739
393.7030, 41.25977
394.9000, 53.77344
396.0960, 159.3223
397.2920, 99.95996
398.4880, 49.65674
399.6840, 49.38916
400.8800, 42.84229
402.0750, 149.0767
403.2710, 208.3198
404.4660, 297.5708
405.6610, 244.8291
406.8560, 365.0942
408.0510, 490.3662
409.2450, 523.6445
410.4400, 730.9282
411.6340, 811.2173
412.8280, 984.5122
414.0220, 1132.812
415.2160, 1172.117
416.4100, 1239.427
417.6030, 1216.741
418.7970, 1231.059
419.9900, 1285.380
421.1830, 1243.704
422.3760, 1165.032
423.5690, 1017.362
424.7610, 966.6948
425.9540, 808.0293
427.1460, 745.3657
428.3380, 615.7036
429.5300, 495.0430
430.7220, 351.3833
431.9140, 236.7246
433.1050, 279.0669
434.2970, 293.4092
435.4880, 41.75146
436.6790, 189.0854
437.8700, 69.42676
439.0610, 115.7749
440.2510, 108.0854
441.4420, 81.44385
442.6320, 126.8369
443.8220, 84.91406
445.0120, 42.26514
446.2020, 141.6021
447.3910, 208.8462
448.5810, 185.0420
449.7700, 204.3647
450.9600, 250.2197
452.1490, 236.0708
453.3370, 269.6636
454.5260, 339.2051
455.7150, 278.2427
456.9030, 335.5483
458.0910, 456.9014
459.2800, 534.1753
460.4670, 555.4668
461.6550, 691.7534
462.8430, 786.0352
464.0300, 742.3110
465.2180, 866.5820
466.4050, 788.8472
467.5920, 849.1064
468.7790, 1022.361
469.9650, 975.6094
471.1520, 1135.852
472.3380, 1149.090
473.5250, 1138.322
474.7110, 1290.550
475.8970, 1166.773
477.0820, 1335.991
478.2680, 1618.202
479.4540, 1624.406
480.6390, 1779.623
481.8240, 1926.833
483.0090, 2016.040
484.1940, 2175.260
485.3780, 2457.477
486.5630, 2765.689
487.7470, 2994.897
488.9320, 3367.103
490.1160, 3788.301
491.3000, 4183.493
492.4830, 4300.693
493.6670, 4277.900
494.8500, 4293.109
496.0340, 4022.333
497.2170, 3793.563
498.4000, 3543.804
499.5820, 3243.047
500.7650, 3149.310
501.9480, 2801.595
503.1300, 2677.883
504.3120, 2526.175
505.4940, 2352.491
506.6760, 2362.962
507.8580, 2265.104
509.0390, 2341.420
510.2210, 2048.758
511.4020, 1908.118
512.5830, 1892.479
513.7640, 1677.863
514.9450, 1638.261
516.1250, 1595.662
517.3060, 1506.078
518.4860, 1551.523
519.6660, 1678.959
520.8460, 1622.388
522.0260, 1692.836
523.2060, 1945.720
524.3850, 2075.324
525.5650, 1854.115
526.7440, 1540.792
527.9230, 1414.325
529.1020, 1163.684
530.2810, 938.3091
531.4590, 746.6055
532.6380, 562.4893
533.8160, 255.4155
534.9940, 172.2979
536.1720, 117.3242
537.3500, 137.5854
538.5270, 80.59570
539.7050, 97.09229
540.8820, 165.5068
542.0590, 115.9102
543.2360, 90.85254
544.4130, 142.2432
545.5900, 140.6270
546.7660, 221.0049
547.9430, 114.3779
549.1190, 215.7476
550.2950, 164.1094
551.4710, 241.4648
552.6470, 203.8174
553.8220, 261.1631
554.9980, 274.5024
556.1730, 202.8354
557.3480, 122.1660
558.5230, 237.4883
559.6980, 227.8027
560.8730, 116.1084
562.0470, 152.4058
563.2220, 164.6943
564.3960, 123.9751
565.5700, 179.2471
566.7440, 136.5098
567.9170, 122.7632
569.0910, 138.0083
570.2640, 85.24365
571.4380, 89.46973
572.6110, 125.6860
573.7840, 39.89160
574.9570, 122.0884
576.1290, 72.27490
577.3020, 198.6157
578.4740, 62.78125
579.6460, 150.7178
580.8180, 4.129395
581.9900, 85.00195
583.1620, 68.94629
584.3330, 47.88281
585.5040, 57.02881
586.6760, 70.97412
587.8470, 3.030273
589.0180, 34.05615
590.1880, 20.12061
591.3590, 28.57520
592.5290, 6.652344
593.7000, 17.50244
594.8700, 7.662109
596.0400, 1.147949
597.2090, 49.93701
598.3790, 33.71436
599.5490, 3.521973
600.7180, 54.21777
601.8870, 152.9453
603.0560, 111.6602
604.2250, 172.9399
605.3940, 152.0527
606.5620, 193.7290
607.7300, 206.3921
608.8990, 182.0430
610.0670, 153.7427
611.2350, 207.3662
612.4020, 203.5356
613.5700, 332.1328
614.7370, 341.9316
615.9050, 790.0195
617.0720, 558.9966
618.2390, 591.5044
619.4060, 338.0103
620.5720, 399.4058
621.7390, 429.4502
622.9050, 461.3716
624.0710, 531.8735
625.2370, 527.1362
626.4030, 586.1147
627.5690, 698.0586
628.7340, 732.2148
629.9000, 805.9668
631.0650, 884.2397
632.2300, 926.8843
633.3950, 1021.495
634.5600, 1088.818
635.7240, 1118.500
636.8890, 1358.284
638.0530, 1412.469
639.2170, 1665.377
640.3810, 1741.840
641.5450, 1926.233
642.7080, 2096.024
643.8720, 2270.115
645.0350, 2556.898
646.1980, 2877.261
647.3610, 3192.896
648.5240, 3630.151
649.6870, 4075.794
650.8490, 4758.873
652.0120, 5379.749
653.1740, 6405.902
654.3360, 7188.242
655.4980, 8591.522
656.6600, 10377.95
657.8210, 12717.04
658.9830, 15432.38
660.1440, 18936.87
661.3050, 23024.82
662.4660, 27739.88
663.6270, 33455.72
664.7870, 39196.87
665.9480, 43941.18
667.1080, 46499.34
668.2680, 45948.44
669.4280, 42704.46
670.5880, 37223.64
671.7480, 31010.18
672.9070, 25320.38
674.0670, 20100.35
675.2260, 16254.39
676.3850, 13258.91
677.5440, 10909.91
678.7030, 9078.921
679.8610, 7665.981
681.0200, 6739.997
682.1780, 5755.011
683.3360, 5059.188
684.4940, 4791.152
685.6520, 4325.089
686.8090, 3980.433
687.9670, 3822.782
689.1240, 3727.736
690.2810, 3773.663
691.4380, 3687.190
692.5950, 3853.191
693.7520, 4052.226
694.9080, 4459.194
696.0650, 4966.030
697.2210, 5475.706
698.3770, 6438.354
699.5330, 6943.976
700.6880, 7659.572
701.8440, 8290.139
702.9990, 8361.878
704.1550, 8242.415
705.3100, 7631.918
706.4650, 6757.379
707.6190, 5980.989
708.7740, 4997.398
709.9290, 4388.778
711.0830, 3803.132
712.2370, 3321.458
713.3910, 2929.860
714.5450, 2873.133
715.6980, 2635.378
716.8520, 2665.602
718.0050, 2658.798
719.1580, 2634.684
720.3110, 2502.877
721.4640, 2296.994
722.6170, 1922.048
723.7700, 1690.389
724.9220, 1395.428
726.0740, 1218.445
727.2260, 982.5269
728.3780, 950.6294
729.5300, 783.5742
730.6810, 823.9590
731.8330, 659.3184
732.9840, 597.9058
734.1350, 471.5146
735.2860, 416.5986
736.4370, 376.3838
737.5880, 340.1094
738.7380, 250.8501
739.8880, 304.5596
741.0390, 300.2437
742.1890, 230.9033
743.3380, 286.5381
744.4880, 273.1465
745.6380, 360.7305
746.7870, 204.2900
747.9360, 155.8252
749.0850, 286.3340
750.2340, 71.81885
751.3830, 232.2739
752.5310, 117.7041
753.6800, 73.10791
754.8280, 105.4824
755.9760, 179.8306
757.1240, 143.1543
758.2720, 21.54688
759.4190, 67.69287
760.5670, 78.90234
761.7140, 40.91455
762.8610, 46.19922
764.0080, 65.28320
765.1550, 39.33789
766.3020, 57.36133
767.4480, 89.35645
768.5950, 49.86035
769.7410, 15.73633
770.8870, 15.84961
772.0330, 3.984375
773.1780, 50.22363
774.3240, 20.69824
775.4690, 27.83496
776.6140, 8.226563
777.7590, 65.66406
778.9040, 81.25000
780.0490, 8.776367
781.1940, 14.42090
782.3380, 88.11426
783.4820, 73.10547
784.6260, 6.299805
785.7700, 36.54102
786.9140, 91.44141
788.0580, 83.42969
789.2010, 17.49805
790.3450, 86.61426
791.4880, 58.81445
792.6310, 27.08105
793.7730, 62.39941
794.9160, 121.7852
796.0590, 44.72949
797.2010, 27.21973
798.3430, 91.31348
799.4850, 76.07031
800.6270, 156.4346
801.7690, 2.220703
802.9100, 36.91016
804.0520, 19.65039
805.1930, 19.42969
806.3340, 34.24121
807.4750, 69.11816
808.6160, 6.948242
809.7560, 7.011719
810.8970, 134.9971
812.0370, 94.98633
813.1770, 4.957031
814.3170, 7.098633
815.4570, 143.8164
816.5960, 87.71289
817.7360, 139.5889
818.8750, 120.4463
820.0140, 46.28613
821.1530, 100.1055
822.2920, 145.9062
823.4310, 0.6884770
824.5690, 1.550781
825.7070, 58.18652
826.8460, 55.90527
827.9840, 11.39453
829.1220, 21.28223
830.2590, 4.939453
831.3970, 11.57715
832.5340, 23.80273
833.6710, 139.7871
834.8080, 77.36230
835.9450, 136.9219
837.0820, 138.4648
838.2190, 63.99414
839.3550, 6.507813
840.4910, 46.00293
841.6270, 45.48340
842.7630, 76.95020
843.8990, 3.403320
845.0350, 173.8389
846.1700, 63.26172
847.3060, 75.67090
848.4410, 110.0654
849.5760, 8.449219
850.7100, 33.81738
851.8450, 103.1738
852.9800, 50.51660
854.1140, 30.84863
855.2480, 51.83301
856.3820, 199.4561
857.5160, 135.7402
858.6500, 199.0127
859.7830, 88.29590
860.9170, 123.5859
862.0500, 111.8662
863.1830, 185.1357
864.3160, 240.3994
865.4480, 291.6670
866.5810, 223.9346
867.7130, 275.2031
868.8460, 237.4688
869.9780, 240.7256
871.1100, 209.9795
872.2410, 244.2295
873.3730, 359.4717
874.5050, 237.7061
875.6360, 226.9395
876.7670, 297.1699
877.8980, 147.3926
879.0290, 344.6074
880.1590, 452.8164
881.2900, 384.0195
882.4200, 369.2178
883.5500, 346.4209
884.6800, 384.5557
885.8100, 482.7695
886.9400, 702.4199
888.0690, 732.6230
889.1990, 707.6064
890.3280, 655.2812
891.4570, 956.2119
892.5860, 888.4004
893.7140, 1065.483
894.8430, 1303.794
895.9710, 1293.438
897.1000, 1434.245
898.2280, 1337.453
899.3560, 1328.887
900.4830, 1312.601
901.6110, 1192.954
902.7380, 1067.584
903.8660, 1097.532
904.9930, 956.0986
906.1200, 959.0752
907.2460, 902.0703
908.3730, 888.3447
909.5000, 848.2441
910.6260, 808.0244
911.7520, 734.4004
912.8780, 867.0371
914.0040, 914.1025
915.1290, 911.2383
916.2550, 895.9590
917.3800, 1005.364
918.5050, 869.1836
919.6300, 833.1699
920.7550, 764.9863
921.8800, 885.1865
923.0040, 706.9863
924.1290, 816.3535
925.2530, 773.9072
926.3770, 841.1729
927.5010, 727.2354
928.6250, 773.3438
929.7480, 722.2959
930.8720, 821.5820
931.9950, 818.6123
933.1180, 907.4951
934.2410, 980.8945
935.3640, 1032.277
936.4860, 993.7441
937.6090, 1143.969
938.7310, 1222.081
939.8530, 1201.343
940.9750, 1338.686
942.0970, 1495.167
943.2180, 1523.527
944.3400, 1784.545
945.4610, 1879.944
946.5820, 2128.597
947.7030, 2341.217
948.8240, 2623.361
949.9450, 2833.042
951.0650, 3103.750
952.1860, 3629.436
953.3060, 3857.176
954.4260, 4287.934
955.5460, 4838.524
956.6650, 5616.320
957.7850, 6050.133
958.9040, 6877.531
960.0230, 7494.912
961.1420, 8496.679
962.2610, 9428.465
963.3800, 10104.64
964.4990, 11273.33
965.6170, 12352.98
966.7350, 13374.68
967.8530, 14375.51
968.9710, 15263.49
970.0890, 16291.50
971.2070, 17167.51
972.3240, 17827.54
973.4410, 18436.60
974.5580, 18934.47
975.6750, 19104.54
976.7920, 19007.64
977.9090, 18844.76
979.0250, 18044.73
980.1410, 17018.90
981.2580, 15948.08
982.3740, 14903.28
983.4890, 14107.50
984.6050, 12998.63
985.7200, 12072.89
986.8360, 11585.17
987.9510, 11062.46
989.0660, 10611.78
990.1810, 9818.396
991.2950, 9617.750
992.4100, 9157.124
993.5240, 9056.516
994.6390, 8817.930
995.7530, 8816.360
996.8660, 8419.826
997.9800, 8477.323
999.0940, 8442.839
1000.207, 8226.397
1001.320, 7801.982
1002.433, 7634.594
1003.546, 7283.229
1004.659, 7332.883
1005.772, 7266.594
1006.884, 7221.325
1007.996, 7400.078
1009.108, 7389.074
1010.220, 7864.516
1011.332, 8314.327
1012.444, 8857.160
1013.555, 9730.012
1014.666, 10699.99
1015.777, 12092.23
1016.888, 13201.38
1017.999, 13533.32
1019.110, 13926.36
1020.220, 13873.36
1021.331, 13350.37
1022.441, 12416.40
1023.551, 11049.46
1024.661, 9874.250
1025.770, 8783.347
1026.880, 7332.464
1027.989, 6674.129
1029.098, 5732.305
1030.207, 4942.806
1031.316, 4425.023
1032.425, 3951.896
1033.533, 3732.961
1034.642, 3464.269
1035.750, 3190.613
1036.858, 2979.731
1037.966, 2758.951
1039.073, 2567.768
1040.181, 2444.211
1041.288, 2324.255
1042.396, 2290.761
1043.503, 2179.878
1044.610, 2061.348
1045.716, 2025.974
1046.823, 1831.621
1047.929, 1738.350
1049.036, 1697.108
1050.142, 1714.898
1051.248, 1654.718
1052.353, 1608.589
1053.459, 1676.479
1054.564, 1554.705
1055.670, 1594.660
1056.775, 1429.531
1057.880, 1534.584
1058.985, 1462.665
1060.089, 1399.797
1061.194, 1335.967
1062.298, 1395.131
1063.402, 1176.167
1064.506, 1319.028
1065.610, 1361.348
1066.713, 1164.687
1067.817, 1295.217
1068.920, 1061.617
1070.023, 1083.912
1071.126, 1249.359
1072.229, 930.8291
1073.332, 986.4912
1074.435, 1023.011
1075.537, 941.5586
1076.639, 914.1445
1077.741, 786.7490
1078.843, 920.3721
1079.945, 778.0098
1081.046, 765.6621
1082.148, 881.3301
1083.249, 820.0410
1084.350, 658.3955
1085.451, 720.1084
1086.551, 640.1924
1087.652, 540.5205
1088.752, 465.2773
1089.853, 581.6582
1090.953, 521.4736
1092.053, 468.3984
1093.152, 513.2100
1094.252, 457.1641
1095.351, 510.2090
1096.451, 385.1133
1097.550, 463.2441
1098.649, 493.4404
1099.748, 214.4941
1100.846, 293.9131
1101.945, 384.9072
1103.043, 287.9482
1104.141, 296.9141
1105.239, 227.8613
1106.337, 181.8193
1107.434, 171.2764
1108.532, 152.6309
1109.629, 175.8525
1110.726, 152.9355
1111.823, 256.9424
1112.920, 243.9600
1114.017, 313.1592
1115.113, 163.2539
1116.210, 178.3789
1117.306, 430.7197
1118.402, 353.8594
1119.498, 636.9404
1120.593, 653.1211
1121.689, 831.2959
1122.784, 812.4961
1123.879, 999.8721
1124.974, 825.0742
1126.069, 886.3076
1127.164, 631.4629
1128.259, 592.9453
1129.353, 390.3809
1130.447, 322.5957
1131.541, 196.4355
1132.635, 80.82031
1133.729, 132.7100
1134.822, 152.7744
1135.916, 33.94922
1137.009, 111.7168
1138.102, 58.44531
1139.195, 106.8154
1140.288, 12.87402
1141.380, 28.68359
1142.473, 95.50293
1143.565, 32.75391
1144.657, 69.94629
1145.749, 5.859375
1146.841, 16.64648
1147.932, 64.77832
1149.024, 29.49512
1150.115, 112.7109
1151.206, 23.02051
1152.297, 31.15430
1153.388, 91.29102
1154.479, 111.9775
1155.569, 25.20020
1156.659, 67.93066
1157.750, 52.18652
1158.839, 62.67480
1159.929, 6.441406
1161.019, 234.1328
1162.108, 28.92676
1163.198, 19.46484
1164.287, 63.23926
1165.376, 79.73730
1166.465, 131.1709
1167.553, 56.46777
1168.642, 92.63477
1169.730, 11.24316
1170.818, 27.69043
1171.906, 35.37793
1172.994, 49.74805
1174.082, 31.65723
1175.170, 49.28906
1176.257, 22.59082
1177.344, 69.62598
1178.431, 54.30664
1179.518, 32.53418
1180.605, 7.403320
1181.691, 23.23633
1182.778, 12.27930
1183.864, 89.10254
1184.950, 70.07910
1186.036, 81.69336
1187.122, 61.54102
1188.207, 39.39453
1189.292, 33.11328
1190.378, 36.82617
1191.463, 106.6211
1192.548, 10.68066
1193.632, 6.999023
1194.717, 67.37109
1195.801, 122.3652
1196.886, 196.0518
1197.970, 138.3506
1199.054, 63.16016
1200.137, 5.025391
1201.221, 33.45703
1202.305, 69.92969
1203.388, 11.39355
1204.471, 86.84375
1205.554, 199.2842
1206.637, 131.7139
1207.719, 183.3076
1208.802, 159.7158
1209.884, 56.11230
1210.966, 74.50000
1212.048, 57.87500
1213.130, 48.23926
1214.212, 6.600586
1215.293, 60.94141
1216.374, 14.26953
1217.456, 6.657227
1218.536, 68.62695
1219.617, 10.98535
1220.698, 57.56934
1221.778, 36.48047
1222.859, 97.93457
1223.939, 39.14844
1225.019, 26.34766
1226.099, 60.53125
1227.178, 25.70215
1228.258, 24.85449
1229.337, 38.37891
1230.417, 21.11035
1231.496, 62.21289
1232.574, 55.29980
1233.653, 77.37305
1234.732, 103.4326
1235.810, 153.4785
1236.888, 16.50879
1237.966, 45.51660
1239.044, 85.50684
1240.122, 72.48242
1241.199, 118.4424
1242.277, 107.9980
1243.354, 55.31738
1244.431, 84.23145
1245.508, 80.12891
1246.585, 43.01172
1247.661, 83.89258
1248.738, 100.7568
1249.814, 80.60449
1250.890, 85.03516
1251.966, 84.19238
1253.042, 51.07129
1254.117, 89.86328
1255.193, 85.63672
1256.268, 107.3936
1257.343, 15.86719
1258.418, 1.356445
1259.493, 101.4805
1260.567, 51.87988
1261.642, 23.69238
1262.716, 13.23730
1263.790, 33.74902
1264.864, 134.2354
1265.938, 96.29492
1267.011, 48.08496
1268.085, 82.44043
1269.158, 98.77734
1270.231, 211.8740
