##NAMES=Shortite
##RRUFFID=R050248
##IDEAL CHEMISTRY=Na_2_Ca_2_(CO_3_)_3_
##LOCALITY=Stauffer mine, Green River, Wyoming, USA
##OWNER=RRUFF
##SOURCE=Marcus Origlieri
##DESCRIPTION=Colorless wedge-shaped single crystal
##STATUS=The identification of this mineral has been confirmed by X-ray diffraction and chemical analysis
##URL=rruff.info/R050248
##MEASURED CHEMISTRY=Na_2.00_Ca_2.00_(CO_3_)_3_ ; CO2 not measured but estimated by difference and stoichiometry.
##PIN_ID=L00721
##ORIENTATION=Laser parallel to b* (0 1 0). Fiducial mark perpendicular to laser is parallel to -c [0 0 -1]
108.2800, 0.0000000E+00
109.5120, 116.8838
110.7440, 2.713867
111.9760, 4.948242
113.2080, 91.51367
114.4400, 184.2070
115.6710, 42.50098
116.9030, 41.26074
118.1340, 182.6738
119.3650, 191.1348
120.5960, 184.1777
121.8270, 245.4316
123.0580, 241.6055
124.2880, 437.4590
125.5190, 337.8047
126.7490, 487.4814
127.9790, 756.3535
129.2090, 1009.300
130.4390, 1329.216
131.6680, 1775.008
132.8980, 2251.040
134.1270, 2486.921
135.3560, 3455.913
136.5850, 4311.527
137.8140, 5100.725
139.0430, 4927.463
140.2710, 4274.715
141.5000, 3682.453
142.7280, 3102.640
143.9560, 2332.252
145.1840, 1697.270
146.4120, 1150.652
147.6390, 807.3662
148.8670, 704.3936
150.0940, 593.7109
151.3210, 573.2988
152.5490, 432.1406
153.7750, 480.2227
155.0020, 506.5361
156.2290, 349.0674
157.4550, 428.8076
158.6810, 406.7451
159.9080, 412.8730
161.1340, 262.1836
162.3590, 362.6748
163.5850, 397.3750
164.8110, 298.2842
166.0360, 396.3633
167.2610, 580.5928
168.4860, 543.9883
169.7110, 652.6104
170.9360, 484.4414
172.1610, 499.4033
173.3850, 521.5273
174.6100, 444.7617
175.8340, 519.1045
177.0580, 613.5527
178.2820, 764.1113
179.5050, 803.9053
180.7290, 922.8076
181.9520, 995.7705
183.1760, 944.6807
184.3990, 999.5635
185.6220, 928.4395
186.8450, 972.3398
188.0670, 949.4258
189.2900, 1168.531
190.5120, 1194.666
191.7340, 1379.832
192.9560, 1636.035
194.1780, 2096.279
195.4000, 2523.568
196.6220, 2940.902
197.8430, 3280.340
199.0640, 3505.850
200.2860, 3366.413
201.5070, 3198.026
202.7270, 3265.689
203.9480, 3070.401
205.1690, 2962.161
206.3890, 2648.973
207.6090, 2365.832
208.8290, 2044.742
210.0490, 1658.702
211.2690, 1443.709
212.4890, 1130.767
213.7080, 1035.909
214.9280, 888.2217
216.1470, 769.5410
217.3660, 508.9023
218.5850, 462.3750
219.8030, 636.8115
221.0220, 396.9463
222.2400, 628.6523
223.4590, 355.2432
224.6770, 451.8730
225.8950, 288.5410
227.1120, 293.2920
228.3300, 255.9395
229.5480, 323.5010
230.7650, 258.8252
231.9820, 245.1387
233.1990, 309.0244
234.4160, 331.3398
235.6330, 407.2744
236.8490, 278.3467
238.0660, 232.3301
239.2820, 291.3457
240.4980, 308.3994
241.7140, 250.4922
242.9300, 337.6172
244.1460, 278.7715
245.3610, 333.9541
246.5770, 382.5527
247.7920, 534.7871
249.0070, 504.6846
250.2220, 695.0977
251.4370, 580.5156
252.6510, 848.9785
253.8660, 897.2637
255.0800, 1165.908
256.2940, 1236.596
257.5080, 1565.276
258.7220, 1964.582
259.9360, 2345.213
261.1490, 2790.573
262.3630, 3185.134
263.5760, 3781.377
264.7890, 4087.771
266.0020, 4697.887
267.2150, 4629.576
268.4270, 4299.388
269.6400, 3812.319
270.8520, 3328.355
272.0640, 2968.493
273.2760, 2350.725
274.4880, 1828.046
275.7000, 1481.449
276.9120, 1123.932
278.1230, 967.4893
279.3340, 779.1201
280.5450, 568.8184
281.7560, 545.5820
282.9670, 505.4053
284.1780, 346.2881
285.3880, 275.8193
286.5980, 349.4141
287.8090, 362.4658
289.0190, 365.3008
290.2290, 300.4561
291.4380, 376.6562
292.6480, 304.0078
293.8570, 213.2949
295.0670, 30.62012
296.2760, 93.98438
297.4850, 135.3975
298.6930, 219.8467
299.9020, 142.3320
301.1110, 119.8613
302.3190, 48.42383
303.5270, 114.0186
304.7350, 131.6445
305.9430, 114.3018
307.1510, 130.0859
308.3580, 138.7012
309.5660, 91.44238
310.7730, 73.21289
311.9800, 28.00977
313.1870, 34.83203
314.3940, 60.67871
315.6010, 30.55273
316.8070, 129.4492
318.0130, 83.90137
319.2200, 4.155273
320.4260, 101.5684
321.6310, 250.5498
322.8370, 141.5518
324.0430, 105.5732
325.2480, 56.61133
326.4540, 80.58984
327.6590, 74.46973
328.8640, 98.55371
330.0680, 97.71094
331.2730, 24.16699
332.4780, 5.028320
333.6820, 10.59375
334.8860, 126.3105
336.0900, 73.89844
337.2940, 48.09863
338.4980, 168.3232
339.7010, 165.5596
340.9050, 55.81250
342.1080, 70.10840
343.3110, 1.320313
344.5140, 30.97266
345.7170, 66.27930
346.9200, 52.40332
348.1220, 50.05176
349.3240, 26.30371
350.5270, 63.89160
351.7290, 14.85840
352.9310, 62.75977
354.1320, 23.74414
355.3340, 4.7851998E-02
356.5350, 6.918945
357.7370, 13.80664
358.9380, 34.61621
360.1390, 34.04688
361.3400, 70.48730
362.5400, 131.0498
363.7410, 51.50684
364.9410, 7.938477
366.1410, 27.38965
367.3410, 215.8457
368.5410, 157.3115
369.7410, 135.7871
370.9400, 134.4746
372.1400, 78.96484
373.3390, 96.17090
374.5380, 153.1768
375.7370, 100.6582
376.9360, 142.1357
378.1350, 130.6172
379.3330, 109.1035
380.5310, 68.59473
381.7300, 6.085938
382.9280, 7.418945
384.1260, 125.0791
385.3230, 127.5820
386.5210, 147.9092
387.7180, 49.57129
388.9160, 5.056641
390.1130, 0.5458980
391.3100, 69.03516
392.5060, 0.8789060
393.7030, 34.99219
394.9000, 23.54395
396.0960, 73.91797
397.2920, 174.3867
398.4880, 164.9697
399.6840, 194.5762
400.8800, 164.0986
402.0750, 213.7842
403.2710, 77.34473
404.4660, 131.9219
405.6610, 57.51270
406.8560, 231.1182
408.0510, 33.26660
409.2450, 169.6562
410.4400, 89.88281
411.6340, 112.4316
412.8280, 108.9902
414.0220, 125.5576
415.2160, 136.1143
416.4100, 132.5264
417.6030, 159.3086
418.7970, 131.9072
419.9900, 142.5117
421.1830, 149.1230
422.3760, 136.0928
423.5690, 78.66406
424.7610, 130.2910
425.9540, 39.92188
427.1460, 39.55762
428.3380, 36.49805
429.5300, 36.15918
430.7220, 61.98828
431.9140, 1.520508
433.1050, 52.11719
434.2970, 141.7725
435.4880, 20.37402
436.6790, 194.9756
437.8700, 84.57812
439.0610, 48.18359
440.2510, 157.3105
441.4420, 85.91602
442.6320, 124.5234
443.8220, 152.3652
445.0120, 129.9727
446.2020, 192.5801
447.3910, 102.2090
448.5810, 109.8145
449.7700, 167.4199
450.9600, 74.02539
452.1490, 147.6289
453.3370, 132.8711
454.5260, 46.47266
455.7150, 132.1367
456.9030, 173.7480
458.0910, 203.2520
459.2800, 126.8574
460.4670, 90.53711
461.6550, 72.16992
462.8430, 42.33398
464.0300, 152.1738
465.2180, 51.93164
466.4050, 125.4316
467.5920, 97.92969
468.7790, 4.576172
469.9650, 58.58984
471.1520, 136.7246
472.3380, 40.29102
473.5250, 159.7559
474.7110, 116.2656
475.8970, 120.6621
477.0820, 44.97070
478.2680, 32.50781
479.4540, 163.0664
480.6390, 58.22461
481.8240, 202.6387
483.0090, 183.0469
484.1940, 47.45117
485.3780, 33.85156
486.5630, 131.2090
487.7470, 95.59375
488.9320, 100.9727
490.1160, 94.98242
491.3000, 205.8574
492.4830, 0.7832030
493.6670, 173.6094
494.8500, 89.94141
496.0340, 10.15430
497.2170, 194.4609
498.4000, 9.261719
499.5820, 264.0137
500.7650, 242.9238
501.9480, 57.18555
503.1300, 216.4395
504.3120, 45.70312
505.4940, 245.9609
506.6760, 132.9492
507.8580, 271.2539
509.0390, 260.5215
510.2210, 122.7852
511.4020, 60.04883
512.5830, 11.29883
513.7640, 129.5332
514.9450, 41.75977
516.1250, 227.9766
517.3060, 99.20312
518.4860, 132.4219
519.6660, 154.6309
520.8460, 99.83398
522.0260, 122.2012
523.2060, 258.9180
524.3850, 178.0938
525.5650, 215.0645
526.7440, 307.0547
527.9230, 187.2363
529.1020, 149.0020
530.2810, 149.1406
531.4590, 223.2500
532.6380, 175.8633
533.8160, 158.3301
534.9940, 142.2695
536.1720, 138.3691
537.3500, 116.4453
538.5270, 58.52734
539.7050, 316.6016
540.8820, 5.333984
542.0590, 58.69922
543.2360, 67.27344
544.4130, 243.1445
545.5900, 125.0996
546.7660, 120.0449
547.9430, 97.97656
549.1190, 201.9043
550.2950, 126.8340
551.4710, 183.1816
552.6470, 165.0801
553.8220, 167.7383
554.9980, 114.8672
556.1730, 211.7520
557.3480, 222.6270
558.5230, 296.4902
559.6980, 237.3457
560.8730, 141.1895
562.0470, 69.02734
563.2220, 39.85156
564.3960, 118.6621
565.5700, 161.4648
566.7440, 161.2559
567.9170, 167.0391
569.0910, 10.81250
570.2640, 250.9766
571.4380, 40.12305
572.6110, 3.146484
573.7840, 243.8262
574.9570, 53.52148
576.1290, 192.2070
577.3020, 186.7734
578.4740, 190.4395
579.6460, 211.4355
580.8180, 12.26172
581.9900, 124.3477
583.1620, 132.9453
584.3330, 7.468750
585.5040, 235.1426
586.6760, 76.84961
587.8470, 69.37891
589.0180, 196.8984
590.1880, 281.6387
591.3590, 155.2266
592.5290, 129.7070
593.7000, 30.17969
594.8700, 274.6309
596.0400, 71.91406
597.2090, 138.5605
598.3790, 22.97656
599.5490, 122.3730
600.7180, 292.4941
601.8870, 10.33203
603.0560, 360.6836
604.2250, 90.26367
605.3940, 44.73438
606.5620, 219.0508
607.7300, 126.4199
608.8990, 142.7598
610.0670, 126.7109
611.2350, 2.552734
612.4020, 8.699219
613.5700, 372.1777
614.7370, 32.88281
615.9050, 135.3184
617.0720, 348.0586
618.2390, 78.70703
619.4060, 55.47266
620.5720, 5.236328
621.7390, 266.9004
622.9050, 267.2617
624.0710, 265.4746
625.2370, 140.7910
626.4030, 184.8398
627.5690, 223.9238
628.7340, 152.9980
629.9000, 76.58984
631.0650, 140.4102
632.2300, 288.4082
633.3950, 59.63867
634.5600, 103.6191
635.7240, 210.6191
636.8890, 238.4941
638.0530, 149.7773
639.2170, 136.5156
640.3810, 142.4746
641.5450, 282.4316
642.7080, 104.3770
643.8720, 161.6172
645.0350, 252.7754
646.1980, 26.68164
647.3610, 106.9961
648.5240, 304.8750
649.6870, 191.4043
650.8490, 12.64258
652.0120, 267.4824
653.1740, 215.0215
654.3360, 254.8340
655.4980, 196.7754
656.6600, 294.5918
657.8210, 246.1914
658.9830, 290.2168
660.1440, 192.9551
661.3050, 84.68164
662.4660, 38.39258
663.6270, 207.0859
664.7870, 191.7656
665.9480, 301.6543
667.1080, 122.3066
668.2680, 309.9453
669.4280, 222.7832
670.5880, 159.7617
671.7480, 205.6289
672.9070, 183.5566
674.0670, 154.1406
675.2260, 161.8125
676.3850, 96.41797
677.5440, 213.0117
678.7030, 191.6113
679.8610, 150.1738
681.0200, 397.4785
682.1780, 147.9922
683.3360, 51.37109
684.4940, 193.0898
685.6520, 197.5352
686.8090, 278.9648
687.9670, 207.1133
689.1240, 173.1348
690.2810, 200.5312
691.4380, 353.9531
692.5950, 404.3613
693.7520, 536.5703
694.9080, 477.9453
696.0650, 593.3066
697.2210, 322.7012
698.3770, 441.0293
699.5330, 255.4316
700.6880, 210.2891
701.8440, 185.7812
702.9990, 237.9688
704.1550, 271.2227
705.3100, 246.0410
706.4650, 468.5078
707.6190, 614.2129
708.7740, 550.3223
709.9290, 544.3613
711.0830, 386.5332
712.2370, 332.8848
713.3910, 431.1387
714.5450, 162.8457
715.6980, 492.0059
716.8520, 247.9863
718.0050, 328.1113
719.1580, 274.2246
720.3110, 331.8047
721.4640, 366.0449
722.6170, 178.1074
723.7700, 135.9688
724.9220, 110.9980
726.0740, 168.0098
727.2260, 199.0020
728.3780, 95.99805
729.5300, 129.9785
730.6810, 295.9434
731.8330, 248.8887
732.9840, 163.1797
734.1350, 28.90625
735.2860, 102.4238
736.4370, 272.5254
737.5880, 157.4707
738.7380, 20.85352
739.8880, 226.0352
741.0390, 265.7129
742.1890, 271.8379
743.3380, 123.1445
744.4880, 259.6816
745.6380, 141.7090
746.7870, 146.7852
747.9360, 58.96094
749.0850, 50.08984
750.2340, 203.7695
751.3830, 86.38086
752.5310, 8.445313
753.6800, 103.8711
754.8280, 38.50781
755.9760, 46.53320
757.1240, 293.2988
758.2720, 129.6406
759.4190, 196.0000
760.5670, 104.5547
761.7140, 141.1465
762.8610, 106.1660
764.0080, 105.3262
765.1550, 178.4941
766.3020, 179.4102
767.4480, 82.15234
768.5950, 214.5410
769.7410, 251.6035
770.8870, 147.0176
772.0330, 274.2480
773.1780, 255.1484
774.3240, 199.9551
775.4690, 99.02148
776.6140, 253.6523
777.7590, 202.9727
778.9040, 250.7656
780.0490, 246.5527
781.1940, 52.53711
782.3380, 89.94141
783.4820, 192.1289
784.6260, 86.17188
785.7700, 6.474609
786.9140, 33.53906
788.0580, 83.85156
789.2010, 176.0215
790.3450, 11.01758
791.4880, 185.6504
792.6310, 85.62109
793.7730, 48.33594
794.9160, 153.6250
796.0590, 203.5527
797.2010, 244.3906
798.3430, 272.2480
799.4850, 310.4141
800.6270, 248.0938
801.7690, 387.8496
802.9100, 126.2793
804.0520, 182.9941
805.1930, 189.0566
806.3340, 1.917969
807.4750, 101.2773
808.6160, 123.8965
809.7560, 107.5156
810.8970, 301.7363
812.0370, 315.5527
813.1770, 220.2656
814.3170, 233.6074
815.4570, 182.0977
816.5960, 309.5625
817.7360, 239.0078
818.8750, 212.4434
820.0140, 122.8555
821.1530, 215.8184
822.2920, 286.2129
823.4310, 189.2148
824.5690, 30.56641
825.7070, 44.58594
826.8460, 405.0117
827.9840, 188.2871
829.1220, 234.6348
830.2590, 44.13477
831.3970, 234.6309
832.5340, 255.2441
833.6710, 178.3789
834.8080, 363.4922
835.9450, 169.9160
837.0820, 56.99023
838.2190, 141.5391
839.3550, 138.1406
840.4910, 227.7695
841.6270, 53.05859
842.7630, 134.7168
843.8990, 74.63672
845.0350, 140.7969
846.1700, 18.69531
847.3060, 132.5664
848.4410, 166.4160
849.5760, 1.455078
850.7100, 61.03125
851.8450, 222.8125
852.9800, 26.57227
854.1140, 319.5176
855.2480, 235.0176
856.3820, 200.8281
857.5160, 164.5078
858.6500, 359.9355
859.7830, 191.5645
860.9170, 535.1230
862.0500, 445.5527
863.1830, 972.1152
864.3160, 814.6621
865.4480, 718.6445
866.5810, 670.0508
867.7130, 546.5312
868.8460, 380.5859
869.9780, 343.0332
871.1100, 84.67188
872.2410, 150.3926
873.3730, 265.7734
874.5050, 75.34180
875.6360, 118.1289
876.7670, 202.5918
877.8980, 131.1738
879.0290, 88.12305
880.1590, 307.8945
881.2900, 151.2461
882.4200, 142.4004
883.5500, 114.5508
884.6800, 282.0801
885.8100, 312.8164
886.9400, 323.9492
888.0690, 99.90234
889.1990, 180.4961
890.3280, 337.5469
891.4570, 117.5898
892.5860, 160.3398
893.7140, 27.31836
894.8430, 0.8593750
895.9710, 220.0625
897.1000, 6.832031
898.2280, 106.0996
899.3560, 318.6895
900.4830, 148.6680
901.6110, 118.4434
902.7380, 155.3574
903.8660, 188.2578
904.9930, 69.98242
906.1200, 221.6758
907.2460, 242.2871
908.3730, 94.06445
909.5000, 116.8574
910.6260, 53.40625
911.7520, 150.9336
912.8780, 230.4707
914.0040, 1.951172
915.1290, 102.3906
916.2550, 68.84375
917.3800, 154.9199
918.5050, 266.9258
919.6300, 189.2598
920.7550, 74.16016
921.8800, 237.7617
923.0040, 149.3691
924.1290, 4.222656
925.2530, 277.4316
926.3770, 57.70117
927.5010, 210.8555
928.6250, 188.6055
929.7480, 191.6797
930.8720, 194.6641
931.9950, 352.7246
933.1180, 201.7617
934.2410, 11.77734
935.3640, 218.7598
936.4860, 329.7207
937.6090, 46.65820
938.7310, 236.3457
939.8530, 116.2305
940.9750, 128.0918
942.0970, 79.74414
943.2180, 220.2168
944.3400, 7.761719
945.4610, 101.7969
946.5820, 148.8711
947.7030, 168.5117
948.8240, 245.1270
949.9450, 375.7227
951.0650, 350.0801
952.1860, 291.8105
953.3060, 344.3359
954.4260, 267.8379
955.5460, 244.0332
956.6650, 300.5078
957.7850, 60.95703
958.9040, 253.3809
960.0230, 46.04492
961.1420, 180.8008
962.2610, 264.1465
963.3800, 189.4668
964.4990, 248.7695
965.6170, 68.23438
966.7350, 99.49023
967.8530, 234.7188
968.9710, 433.8730
970.0890, 129.4570
971.2070, 207.5234
972.3240, 87.40430
973.4410, 69.91992
974.5580, 58.39453
975.6750, 139.5898
976.7920, 44.03320
977.9090, 30.78906
979.0250, 98.43555
980.1410, 238.7070
981.2580, 223.7734
982.3740, 242.9883
983.4890, 161.4258
984.6050, 120.7148
985.7200, 257.4473
986.8360, 368.4609
987.9510, 158.3281
989.0660, 25.07812
990.1810, 179.4238
991.2950, 308.0430
992.4100, 26.48828
993.5240, 209.1797
994.6390, 334.6875
995.7530, 256.2207
996.8660, 61.26562
997.9800, 258.2910
999.0940, 41.71680
1000.207, 228.7344
1001.320, 290.1094
1002.433, 64.02344
1003.546, 277.0645
1004.659, 197.0508
1005.772, 5.171875
1006.884, 269.4746
1007.996, 175.0898
1009.108, 178.7402
1010.220, 186.5488
1011.332, 153.7461
1012.444, 58.70703
1013.555, 19.67969
1014.666, 190.4082
1015.777, 41.49609
1016.888, 230.8613
1017.999, 30.43555
1019.110, 202.8379
1020.220, 366.7832
1021.331, 178.7070
1022.441, 330.1230
1023.551, 159.8672
1024.661, 79.73242
1025.770, 158.2344
1026.880, 394.0137
1027.989, 250.9434
1029.098, 240.2363
1030.207, 65.83008
1031.316, 168.8789
1032.425, 211.3145
1033.533, 107.0156
1034.642, 253.3848
1035.750, 168.9453
1036.858, 81.30273
1037.966, 263.1484
1039.073, 272.1289
1040.181, 275.2520
1041.288, 273.0430
1042.396, 114.5762
1043.503, 262.7344
1044.610, 128.5527
1045.716, 195.3965
1046.823, 375.3594
1047.929, 230.3457
1049.036, 193.2988
1050.142, 461.1289
1051.248, 258.3125
1052.353, 300.2930
1053.459, 370.2461
1054.564, 127.5078
1055.670, 429.9414
1056.775, 454.0527
1057.880, 481.2344
1058.985, 633.9102
1060.089, 688.2109
1061.194, 787.5684
1062.298, 826.7285
1063.402, 898.0547
1064.506, 1482.629
1065.610, 2771.039
1066.713, 3990.197
1067.817, 5997.395
1068.920, 9674.555
1070.023, 14608.70
1071.126, 15863.52
1072.229, 12136.61
1073.332, 8933.340
1074.435, 5821.047
1075.537, 3260.203
1076.639, 2056.299
1077.741, 1434.283
1078.843, 1016.092
1079.945, 951.7949
1081.046, 1108.562
1082.148, 1084.967
1083.249, 1344.875
1084.350, 2503.105
1085.451, 4674.973
1086.551, 7159.820
1087.652, 10869.65
1088.752, 19317.46
1089.853, 26336.26
1090.953, 22376.40
1092.053, 15006.34
1093.152, 9836.383
1094.252, 5767.977
1095.351, 2639.680
1096.451, 1404.725
1097.550, 750.3906
1098.649, 603.8906
1099.748, 330.1777
1100.846, 345.8008
1101.945, 92.40625
1103.043, 401.6602
1104.141, 114.2207
1105.239, 39.25977
1106.337, 207.2031
1107.434, 30.92188
1108.532, 207.2441
1109.629, 225.9922
1110.726, 144.6602
1111.823, 54.60156
1112.920, 294.0762
1114.017, 48.45508
1115.113, 22.97461
1116.210, 3.662109
1117.306, 219.8789
1118.402, 109.5820
1119.498, 233.8516
1120.593, 160.8965
1121.689, 11.67773
1122.784, 343.7695
1123.879, 336.9688
1124.974, 149.9629
1126.069, 182.1270
1127.164, 273.2734
1128.259, 190.8203
1129.353, 146.1543
1130.447, 228.2520
1131.541, 23.64062
1132.635, 321.7031
1133.729, 37.74609
1134.822, 36.83203
1135.916, 19.82422
1137.009, 227.0742
1138.102, 18.47656
1139.195, 127.6055
1140.288, 380.6641
1141.380, 435.3281
1142.473, 155.2773
1143.565, 137.9805
1144.657, 236.6484
1145.749, 188.2500
1146.841, 103.9805
1147.932, 13.64062
1149.024, 228.8203
1150.115, 62.73828
1151.206, 238.3516
1152.297, 308.0000
1153.388, 250.9062
1154.479, 327.0117
1155.569, 322.6445
1156.659, 149.3477
1157.750, 119.6914
1158.839, 182.5391
1159.929, 296.2383
1161.019, 145.3828
1162.108, 220.5156
1163.198, 122.8672
1164.287, 239.6836
1165.376, 448.8203
1166.465, 88.64844
1167.553, 259.6953
1168.642, 78.72656
1169.730, 190.7969
1170.818, 51.43750
1171.906, 126.0430
1172.994, 58.57812
1174.082, 38.17188
1175.170, 346.3984
1176.257, 29.16406
1177.344, 67.73828
1178.431, 273.2812
1179.518, 192.0547
1180.605, 169.6641
1181.691, 173.9375
1182.778, 43.23438
1183.864, 13.88672
1184.950, 71.72266
1186.036, 166.9258
1187.122, 174.1094
1188.207, 251.2734
1189.292, 208.4258
1190.378, 229.4219
1191.463, 156.6836
1192.548, 195.7930
1193.632, 142.8945
1194.717, 80.97266
1195.801, 133.1133
1196.886, 240.0820
1197.970, 237.1133
1199.054, 221.1289
1200.137, 357.3906
1201.221, 83.37500
1202.305, 220.3398
1203.388, 165.2891
1204.471, 298.2266
1205.554, 18.14453
1206.637, 159.2695
1207.719, 229.1523
1208.802, 64.02734
1209.884, 360.9844
1210.966, 280.9648
1212.048, 62.82031
1213.130, 259.6523
1214.212, 94.47266
1215.293, 262.2734
1216.374, 216.0586
1217.456, 230.9922
1218.536, 242.8594
1219.617, 190.5078
1220.698, 238.2344
1221.778, 134.9414
1222.859, 245.6289
1223.939, 223.6758
1225.019, 284.3359
1226.099, 11.01562
1227.178, 203.8633
1228.258, 74.46875
1229.337, 153.0547
1230.417, 352.8984
1231.496, 275.3711
1232.574, 387.5977
1233.653, 313.1211
1234.732, 339.3438
1235.810, 368.2812
1236.888, 353.9062
1237.966, 342.4727
1239.044, 334.9336
1240.122, 273.7969
1241.199, 254.9141
1242.277, 152.9297
1243.354, 185.8086
1244.431, 135.6836
1245.508, 119.3750
1246.585, 199.6875
1247.661, 77.13281
1248.738, 262.2734
1249.814, 219.8203
1250.890, 95.20703
1251.966, 245.8906
1253.042, 326.5586
1254.117, 35.08594
1255.193, 210.3125
1256.268, 300.0312
1257.343, 76.33984
1258.418, 125.6289
1259.493, 259.6211
1260.567, 191.1875
1261.642, 199.8320
1262.716, 209.2734
1263.790, 251.9531
1264.864, 169.5156
1265.938, 235.4062
1267.011, 318.9727
1268.085, 265.3281
1269.158, 21.95703
1270.231, 186.2344
1271.304, 104.3750
1272.377, 29.21484
1273.450, 36.73828
1274.522, 34.46875
1275.594, 8.152344
1276.666, 4.386719
1277.738, 53.99219
1278.810, 167.9922
1279.882, 181.5508
1280.953, 169.7969
1282.025, 70.51562
1283.096, 53.46484
1284.167, 110.4023
