##NAMES=Shortite
##RRUFFID=R050248
##IDEAL CHEMISTRY=Na_2_Ca_2_(CO_3_)_3_
##LOCALITY=Stauffer mine, Green River, Wyoming, USA
##OWNER=RRUFF
##SOURCE=Marcus Origlieri
##DESCRIPTION=Colorless wedge-shaped single crystal
##STATUS=The identification of this mineral has been confirmed by X-ray diffraction and chemical analysis
##URL=rruff.info/R050248
##MEASURED CHEMISTRY=Na_2.00_Ca_2.00_(CO_3_)_3_ ; CO2 not measured but estimated by difference and stoichiometry.
##PIN_ID=L01144
##ORIENTATION=Laser parallel to a* (1 0 0). Fiducial mark perpendicular to laser is parallel to -b [0 -1 0]
102.9200, 0.0000000E+00
104.1590, 0.6435550
105.3980, 40.09375
106.6360, 128.7197
107.8750, 7.693359
109.1130, 91.05957
110.3510, 172.8086
111.5890, 185.7510
112.8270, 44.31055
114.0650, 97.06152
115.3020, 132.6729
116.5390, 74.88379
117.7770, 33.48926
119.0130, 239.3213
120.2500, 221.2441
121.4870, 122.1455
122.7230, 109.9258
123.9590, 237.5020
125.1950, 138.7959
126.4310, 398.7412
127.6670, 330.2832
128.9030, 505.3740
130.1380, 530.9756
131.3730, 587.0498
132.6080, 690.5664
133.8430, 781.4990
135.0780, 813.8193
136.3120, 920.5078
137.5470, 1001.543
138.7810, 873.9072
140.0150, 883.5811
141.2480, 842.5391
142.4820, 656.7578
143.7160, 716.2139
144.9490, 691.8926
146.1820, 665.7803
147.4150, 561.8682
148.6480, 512.1455
149.8800, 633.6074
151.1130, 497.2480
152.3450, 536.0615
153.5770, 508.0439
154.8090, 648.1963
156.0410, 587.5166
157.2720, 573.9922
158.5040, 578.6211
159.7350, 503.4004
160.9660, 492.3271
162.1970, 700.3955
163.4270, 705.5996
164.6580, 590.9365
165.8880, 909.3994
167.1180, 713.9873
168.3480, 739.6934
169.5780, 701.5146
170.8080, 677.4600
172.0370, 701.5264
173.2670, 689.6982
174.4960, 609.9707
175.7250, 591.3408
176.9540, 456.7773
178.1820, 417.1904
179.4110, 416.5996
180.6390, 461.0244
181.8670, 536.4668
183.0950, 391.9355
184.3230, 360.4375
185.5500, 322.9756
186.7780, 320.5557
188.0050, 322.1797
189.2320, 560.8613
190.4590, 470.5908
191.6850, 579.3936
192.9120, 667.2676
194.1380, 559.2139
195.3650, 681.2334
196.5910, 787.3340
197.8160, 735.5000
199.0420, 703.7295
200.2680, 657.0098
201.4930, 742.4268
202.7180, 729.8975
203.9430, 601.4160
205.1680, 426.0146
206.3930, 479.1611
207.6170, 515.9531
208.8410, 433.7959
210.0660, 354.6826
211.2890, 362.6514
212.5130, 288.6992
213.7370, 321.7910
214.9600, 339.0352
216.1840, 283.3232
217.4070, 343.6680
218.6300, 230.0371
219.8520, 266.4463
221.0750, 404.8936
222.2970, 481.3906
223.5200, 395.9248
224.7420, 291.4980
225.9640, 338.1064
227.1850, 427.7539
228.4070, 280.4365
229.6280, 312.1582
230.8490, 435.9160
232.0700, 438.7080
233.2910, 612.5342
234.5120, 436.3945
235.7320, 471.2910
236.9530, 500.2188
238.1730, 549.2617
239.3930, 465.2461
240.6130, 528.4121
241.8320, 367.4600
243.0520, 541.5381
244.2710, 397.6484
245.4900, 313.7900
246.7090, 455.9619
247.9280, 368.1641
249.1470, 333.3965
250.3650, 383.4248
251.5840, 483.2881
252.8020, 491.6123
254.0200, 580.1680
255.2370, 575.2734
256.4550, 621.2031
257.6720, 774.2891
258.8900, 686.5166
260.1070, 671.8730
261.3240, 719.3467
262.5400, 622.9307
263.7570, 846.6201
264.9730, 679.4053
266.1900, 693.2803
267.4060, 579.2412
268.6220, 486.2812
269.8370, 498.3984
271.0530, 473.5879
272.2680, 389.8652
273.4830, 389.8164
274.6980, 263.2236
275.9130, 190.6914
277.1280, 255.2178
278.3420, 135.8008
279.5570, 227.3809
280.7710, 85.07031
281.9850, 195.8105
283.1990, 169.5986
284.4120, 181.4043
285.6260, 169.2871
286.8390, 99.23242
288.0520, 178.3271
289.2650, 258.3574
290.4780, 188.4287
291.6910, 271.3965
292.9030, 268.5459
294.1160, 125.7324
295.3280, 198.9551
296.5400, 181.2227
297.7510, 137.8770
298.9630, 92.68945
300.1740, 200.0586
301.3860, 89.46191
302.5970, 180.8955
303.8080, 240.3613
305.0180, 86.85645
306.2290, 172.1904
307.4390, 200.7529
308.6500, 29.03613
309.8600, 172.7324
311.0700, 166.7812
312.2790, 68.45508
313.4890, 157.1572
314.6980, 214.8857
315.9080, 160.6387
317.1170, 243.4141
318.3250, 69.52637
319.5340, 267.3496
320.7430, 65.19434
321.9510, 65.07812
323.1590, 75.98340
324.3670, 220.2578
325.5750, 158.8945
326.7830, 213.8652
327.9900, 69.85645
329.1980, 0.1308590
330.4050, 111.9229
331.6120, 179.1191
332.8190, 234.2148
334.0250, 63.32910
335.2320, 19.46484
336.4380, 179.6201
337.6440, 275.7959
338.8500, 186.8643
340.0560, 144.0771
341.2620, 194.3096
342.4670, 307.5605
343.6730, 132.8281
344.8780, 164.1143
346.0830, 195.4170
347.2870, 332.7363
348.4920, 104.0791
349.6970, 161.4375
350.9010, 64.81348
352.1050, 124.2012
353.3090, 199.6035
354.5130, 73.20020
355.7160, 170.6318
356.9200, 131.0781
358.1230, 26.53906
359.3260, 136.0117
360.5290, 215.5000
361.7320, 175.9990
362.9340, 158.5107
364.1370, 178.0342
365.3390, 60.57031
366.5410, 153.1182
367.7430, 192.6777
368.9450, 138.2490
370.1460, 41.16895
371.3480, 11.42871
372.5490, 9.038086
373.7500, 106.6572
374.9510, 187.2881
376.1520, 9.070313
377.3520, 161.5811
378.5520, 166.2422
379.7530, 120.9121
380.9530, 85.59277
382.1530, 108.3096
383.3520, 113.0303
384.5520, 300.7695
385.7510, 154.5156
386.9500, 106.2725
388.1490, 218.0400
389.3480, 225.8164
390.5470, 412.6055
391.7450, 286.4023
392.9440, 413.2080
394.1420, 281.6826
395.3400, 359.5186
396.5380, 126.3867
397.7350, 273.2764
398.9330, 16.81348
400.1300, 177.1123
401.3270, 276.0605
402.5240, 278.0273
403.7210, 199.0127
404.9180, 215.0156
406.1140, 224.0342
407.3110, 160.6904
408.5070, 216.7393
409.7030, 226.8037
410.8990, 227.8809
412.0940, 155.9717
413.2900, 223.0752
414.4850, 162.1924
415.6800, 64.66602
416.8750, 15.19238
418.0700, 31.95312
419.2650, 69.11035
420.4590, 100.2783
421.6530, 7.456055
422.8470, 64.35547
424.0410, 14.81641
425.2350, 69.99805
426.4290, 12.18945
427.6220, 62.61035
428.8160, 55.57227
430.0090, 108.3799
431.2020, 42.42090
432.3940, 79.76660
433.5870, 18.96191
434.7790, 35.83496
435.9720, 187.3574
437.1640, 58.55664
438.3560, 83.76270
439.5470, 161.8984
440.7390, 117.8828
441.9300, 2.712891
443.1220, 154.4580
444.3130, 129.6348
445.5040, 187.8271
446.6940, 97.02344
447.8850, 134.2295
449.0750, 85.55859
450.2660, 203.1680
451.4560, 23.41895
452.6460, 71.57617
453.8350, 2.558594
455.0250, 43.69238
456.2140, 303.3438
457.4040, 30.48535
458.5930, 59.62988
459.7820, 135.7773
460.9700, 107.0430
462.1590, 211.0850
463.3470, 100.2148
464.5350, 44.24219
465.7240, 157.3779
466.9110, 154.4863
468.0990, 1.571289
469.2870, 35.62402
470.4740, 80.67773
471.6610, 133.7334
472.8480, 124.4326
474.0350, 21.49512
475.2220, 69.55664
476.4090, 103.6211
477.5950, 173.6855
478.7810, 94.74902
479.9670, 80.81836
481.1530, 2.886719
482.3390, 51.94922
483.5240, 189.0107
484.7100, 156.0732
485.8950, 93.13574
487.0800, 106.1992
488.2650, 152.2617
489.4490, 54.32324
490.6340, 82.66016
491.8180, 296.7207
493.0030, 149.7803
494.1870, 158.8389
495.3700, 357.8965
496.5540, 27.95215
497.7380, 365.0039
498.9210, 296.0537
500.1040, 171.1084
501.2870, 151.1611
502.4700, 286.2109
503.6530, 212.2598
504.8350, 93.30859
506.0180, 257.3535
507.2000, 299.3984
508.3820, 150.4414
509.5640, 108.4834
510.7450, 163.5234
511.9270, 244.5605
513.1080, 244.5967
514.2890, 252.6338
515.4700, 321.7344
516.6510, 270.7832
517.8320, 412.8320
519.0130, 319.7344
520.1930, 362.7773
521.3730, 135.8145
522.5530, 229.8555
523.7330, 397.1055
524.9130, 208.1426
526.0920, 336.9707
527.2710, 222.0020
528.4510, 144.0273
529.6300, 199.5859
530.8080, 339.6367
531.9870, 104.5703
533.1660, 268.6113
534.3440, 182.6484
535.5220, 29.31836
536.7000, 257.6816
537.8780, 169.3555
539.0560, 111.3457
540.2330, 85.33008
541.4110, 206.8516
542.5880, 276.6211
543.7650, 194.5859
544.9420, 86.19531
546.1180, 189.1504
547.2950, 132.0938
548.4710, 33.14844
549.6470, 156.0762
550.8230, 105.9941
551.9990, 132.9082
553.1750, 150.8105
554.3500, 241.7090
555.5260, 132.6016
556.7010, 33.51758
557.8760, 208.3203
559.0510, 201.5430
560.2250, 103.3809
561.4000, 170.2129
562.5740, 280.0352
563.7480, 255.8477
564.9220, 299.7090
566.0960, 355.5059
567.2700, 115.2930
568.4430, 208.0703
569.6170, 104.8711
570.7900, 38.36719
571.9630, 235.3477
573.1360, 131.9473
574.3080, 133.6445
575.4810, 111.3359
576.6530, 294.1602
577.8250, 165.8320
578.9980, 387.4961
580.1690, 4.156250
581.3410, 72.83008
582.5130, 130.1074
583.6840, 209.2480
584.8550, 123.8555
586.0260, 282.8398
587.1970, 118.4297
588.3680, 220.7324
589.5380, 106.4434
590.7080, 6.195313
591.8790, 12.73242
593.0490, 146.6348
594.2190, 219.9961
595.3880, 216.0938
596.5580, 27.58594
597.7270, 146.2070
598.8960, 117.6738
600.0650, 165.1309
601.2340, 102.1816
602.4030, 188.3047
603.5710, 139.7324
604.7400, 33.85156
605.9080, 107.5215
607.0760, 104.8848
608.2440, 377.8887
609.4120, 146.5469
610.5790, 166.9902
611.7460, 163.3164
612.9140, 50.36719
614.0810, 302.0020
615.2480, 78.13281
616.4140, 72.67383
617.5810, 285.9121
618.7470, 171.2188
619.9130, 120.2754
621.0790, 216.4824
622.2450, 164.2422
623.4110, 120.4277
624.5770, 232.8203
625.7420, 298.3027
626.9070, 162.5098
628.0720, 241.6602
629.2370, 173.8008
630.4020, 4.251953
631.5660, 372.3633
632.7310, 194.4648
633.8950, 160.7793
635.0590, 310.8574
636.2230, 259.9277
637.3870, 259.8125
638.5500, 317.9941
639.7140, 216.2910
640.8770, 228.3438
642.0400, 131.3848
643.2030, 87.44922
644.3660, 159.0293
645.5280, 168.0371
646.6910, 327.1230
647.8530, 142.5234
649.0150, 365.9883
650.1770, 151.9785
651.3390, 187.0312
652.5000, 7.031250
653.6620, 325.1602
654.8230, 84.41992
655.9840, 193.3066
657.1450, 302.7305
658.3060, 99.58984
659.4660, 263.6094
660.6270, 246.8711
661.7870, 148.5273
662.9470, 72.44922
664.1070, 196.7051
665.2670, 2.167969
666.4260, 475.7422
667.5860, 240.4297
668.7450, 42.42578
669.9040, 314.0840
671.0630, 24.72852
672.2220, 202.5879
673.3800, 356.1992
674.5390, 143.2070
675.6970, 131.4473
676.8550, 1.033203
678.0130, 202.0156
679.1710, 182.5547
680.3290, 166.0801
681.4860, 25.86914
682.6430, 250.6270
683.8000, 33.10742
684.9570, 347.5684
686.1140, 305.0176
687.2710, 97.45117
688.4270, 322.5781
689.5840, 246.9805
690.7400, 319.3691
691.8960, 448.1094
693.0520, 411.4688
694.2070, 529.2324
695.3630, 643.5723
696.5180, 501.5547
697.6730, 208.5059
698.8280, 318.4434
699.9830, 282.7949
701.1380, 457.1934
702.2920, 323.4453
703.4470, 423.8086
704.6010, 413.0430
705.7550, 619.3262
706.9090, 631.5293
708.0620, 1019.717
709.2160, 1223.496
710.3690, 1118.232
711.5220, 1022.689
712.6750, 777.3438
713.8280, 630.7363
714.9810, 757.8574
716.1340, 411.3105
717.2860, 493.4922
718.4380, 413.2090
719.5900, 127.7754
720.7420, 213.8242
721.8940, 440.8867
723.0450, 248.9414
724.1970, 16.73828
725.3480, 244.3926
726.4990, 24.69922
727.6500, 107.7227
728.8010, 205.8984
729.9510, 302.5547
731.1020, 154.3184
732.2520, 178.3125
733.4020, 166.2949
734.5520, 305.9961
735.7020, 108.4648
736.8510, 145.6348
738.0010, 302.5820
739.1500, 85.48438
740.2990, 330.3750
741.4480, 226.2480
742.5970, 191.1035
743.7450, 209.4062
744.8940, 249.3164
746.0420, 364.1211
747.1900, 158.5449
748.3380, 120.5781
749.4860, 222.3750
750.6330, 161.1582
751.7810, 0.7324220
752.9280, 221.2207
754.0750, 75.38867
755.2220, 287.5234
756.3690, 128.8027
757.5160, 11.47266
758.6620, 214.1250
759.8090, 48.11719
760.9550, 377.0859
762.1010, 101.0254
763.2470, 77.67383
764.3920, 141.7324
765.5380, 228.4531
766.6830, 188.0039
767.8280, 77.83398
768.9730, 179.1191
770.1180, 303.6641
771.2630, 101.7148
772.4070, 259.2227
773.5520, 296.9902
774.6960, 156.1895
775.8400, 137.5898
776.9840, 1.595703
778.1280, 175.8125
779.2710, 189.2324
780.4140, 157.2285
781.5580, 44.02148
782.7010, 240.3691
783.8440, 145.8262
784.9860, 68.13281
786.1290, 53.42773
787.2710, 161.8320
788.4140, 144.5762
789.5560, 363.7969
790.6980, 2.996094
791.8390, 52.58203
792.9810, 302.5137
794.1220, 47.60938
795.2640, 248.6816
796.4050, 131.0430
797.5460, 70.64648
798.6860, 19.80469
799.8270, 1.214844
800.9680, 70.52539
802.1080, 73.45312
803.2480, 117.5625
804.3880, 288.8496
805.5280, 118.6426
806.6670, 241.9707
807.8070, 201.8359
808.9460, 112.9023
810.0850, 237.1074
811.2240, 72.24414
812.3630, 7.085938
813.5020, 240.4219
814.6400, 70.59375
815.7790, 303.2324
816.9170, 227.1523
818.0550, 108.7227
819.1930, 110.7363
820.3300, 270.7383
821.4680, 214.3301
822.6050, 388.6035
823.7430, 391.0664
824.8800, 97.53320
826.0170, 386.1133
827.1530, 215.5156
828.2900, 88.89844
829.4260, 244.6641
830.5620, 83.23438
831.6990, 256.5449
832.8340, 196.2012
833.9700, 40.49219
835.1060, 43.24219
836.2410, 165.9688
837.3760, 151.2090
838.5120, 276.6250
839.6470, 153.1602
840.7810, 203.4512
841.9160, 168.6348
843.0500, 198.7207
844.1850, 198.1152
845.3190, 47.83594
846.4530, 141.8535
847.5870, 114.5176
848.7200, 66.77930
849.8540, 125.0039
850.9870, 223.0469
852.1200, 106.1992
853.2530, 167.0957
854.3860, 11.58594
855.5190, 87.25000
856.6510, 192.0898
857.7840, 320.4785
858.9160, 188.5410
860.0480, 128.8301
861.1800, 169.1074
862.3110, 123.6621
863.4430, 187.1328
864.5740, 145.6719
865.7060, 139.3262
866.8370, 198.4922
867.9680, 197.1133
869.0980, 309.3145
870.2290, 43.64258
871.3590, 262.8047
872.4900, 158.1973
873.6200, 300.9902
874.7500, 347.9688
875.8790, 298.8320
877.0090, 223.9277
878.1380, 210.3516
879.2680, 117.9883
880.3970, 182.5312
881.5260, 272.9121
882.6550, 62.42969
883.7830, 153.2188
884.9120, 294.5078
886.0400, 291.2637
887.1680, 280.5254
888.2960, 154.6777
889.4240, 100.0312
890.5520, 103.2520
891.6790, 66.06445
892.8070, 277.9492
893.9340, 220.2363
895.0610, 122.0137
896.1880, 123.9316
897.3140, 1.443359
898.4410, 192.6152
899.5670, 90.29688
900.6940, 176.4258
901.8200, 237.6230
902.9450, 143.0586
904.0710, 31.29688
905.1970, 364.1758
906.3220, 99.02734
907.4470, 245.9590
908.5730, 158.7598
909.6980, 61.72461
910.8220, 68.89648
911.9470, 135.6680
913.0710, 283.5586
914.1960, 226.5254
915.3200, 84.53320
916.4440, 129.0898
917.5680, 377.0898
918.6910, 198.6250
919.8150, 397.0430
920.9380, 228.1094
922.0610, 197.0703
923.1840, 111.8574
924.3070, 322.1562
925.4300, 291.9434
926.5520, 174.0234
927.6750, 220.9902
928.7970, 326.3086
929.9190, 287.0547
931.0410, 155.3203
932.1630, 92.40039
933.2840, 193.1934
934.4060, 233.5508
935.5270, 379.5039
936.6480, 264.2637
937.7690, 341.0117
938.8900, 132.9277
940.0100, 76.03320
941.1310, 140.7852
942.2510, 196.8301
943.3710, 170.8496
944.4910, 105.6133
945.6110, 117.5840
946.7310, 281.1152
947.8500, 38.28906
948.9690, 171.5664
950.0890, 216.9785
951.2080, 144.7930
952.3260, 374.5840
953.4450, 161.0742
954.5640, 110.5508
955.6820, 57.26172
956.8000, 50.94531
957.9180, 283.6016
959.0360, 192.2285
960.1540, 187.5117
961.2710, 366.0996
962.3890, 268.6621
963.5060, 127.8281
964.6230, 27.66211
965.7400, 251.3887
966.8570, 139.8223
967.9730, 436.2266
969.0900, 363.9668
970.2060, 356.6836
971.3220, 211.9844
972.4380, 165.1602
973.5540, 131.4355
974.6700, 185.1660
975.7850, 205.3906
976.9010, 374.5254
978.0160, 145.6973
979.1310, 62.84375
980.2460, 230.6426
981.3600, 69.55078
982.4750, 159.7637
983.5890, 163.4805
984.7030, 201.6172
985.8170, 170.6621
986.9310, 377.3418
988.0450, 120.2500
989.1590, 352.5840
990.2720, 212.0996
991.3850, 85.01758
992.4980, 157.9023
993.6110, 48.51953
994.7240, 22.99219
995.8370, 44.11133
996.9490, 105.7539
998.0620, 222.4199
999.1740, 279.7402
1000.286, 79.84180
1001.398, 276.1758
1002.509, 82.70312
1003.621, 55.21875
1004.732, 81.01953
1005.843, 224.3809
1006.954, 160.6055
1008.065, 111.4316
1009.176, 237.9883
1010.286, 72.31641
1011.397, 301.2715
1012.507, 171.5449
1013.617, 191.5332
1014.727, 312.6895
1015.837, 191.4473
1016.946, 120.1094
1018.056, 207.3809
1019.165, 116.5156
1020.274, 272.0469
1021.383, 256.1270
1022.492, 200.1406
1023.601, 154.7324
1024.709, 77.86523
1025.817, 50.25586
1026.926, 262.6562
1028.034, 67.58203
1029.141, 163.2266
1030.249, 92.09961
1031.357, 167.6055
1032.464, 276.3535
1033.571, 55.12500
1034.678, 173.7637
1035.785, 110.4570
1036.892, 158.0078
1037.999, 287.9902
1039.105, 235.5098
1040.211, 152.2012
1041.317, 248.6680
1042.423, 184.2051
1043.529, 76.89258
1044.635, 227.3340
1045.740, 108.4199
1046.845, 44.24023
1047.951, 123.1738
1049.056, 259.0781
1050.160, 316.0918
1051.265, 298.2969
1052.370, 387.3457
1053.474, 344.5020
1054.578, 241.6250
1055.682, 135.5977
1056.786, 334.4707
1057.890, 128.7266
1058.993, 285.7637
1060.097, 505.5410
1061.200, 681.6074
1062.303, 480.7188
1063.406, 274.6836
1064.509, 452.1523
1065.612, 498.5000
1066.714, 816.2480
1067.816, 1222.523
1068.919, 1464.385
1070.021, 1975.721
1071.122, 1599.898
1072.224, 1571.959
1073.326, 1097.082
1074.427, 1108.516
1075.528, 861.1621
1076.629, 710.1348
1077.730, 658.3496
1078.831, 881.5918
1079.931, 1011.256
1081.032, 1337.062
1082.132, 1945.943
1083.232, 2943.723
1084.332, 6062.406
1085.432, 12237.98
1086.531, 18136.46
1087.631, 25757.52
1088.730, 34713.51
1089.829, 33514.21
1090.928, 24982.91
1092.027, 16415.96
1093.126, 9541.545
1094.224, 5178.080
1095.323, 2601.457
1096.421, 1353.916
1097.519, 1118.312
1098.617, 597.6230
1099.715, 532.5508
1100.812, 453.9180
1101.910, 371.1660
1103.007, 203.4062
1104.104, 239.5762
1105.201, 269.5273
1106.298, 67.36328
1107.394, 308.3496
1108.491, 394.3965
1109.587, 273.6016
1110.683, 330.3535
1111.779, 144.7363
1112.875, 315.7793
1113.971, 101.1484
1115.066, 169.3516
1116.162, 132.2598
1117.257, 270.8145
1118.352, 221.5215
1119.447, 353.4375
1120.542, 350.8926
1121.636, 402.7734
1122.731, 548.6055
1123.825, 389.8828
1124.919, 54.43945
1126.013, 228.7285
1127.107, 104.5977
1128.200, 160.5312
1129.294, 527.7832
1130.387, 0.4980470
1131.480, 371.1992
1132.573, 95.34375
1133.666, 226.0137
1134.759, 229.4473
1135.851, 14.56836
1136.944, 296.5410
1138.036, 8.904297
1139.128, 83.78906
1140.220, 140.8125
1141.312, 325.3047
1142.403, 42.12695
1143.495, 366.5723
1144.586, 170.7656
1145.677, 24.76172
1146.768, 59.62891
1147.859, 171.8066
1148.950, 109.6719
1150.040, 412.4473
1151.130, 94.57617
1152.221, 283.8379
1153.311, 155.3730
1154.401, 224.4707
1155.490, 61.36133
1156.580, 203.9102
1157.669, 85.26758
1158.759, 276.4082
1159.848, 166.8613
1160.937, 106.6934
1162.025, 258.2090
1163.114, 518.0312
1164.202, 42.91016
1165.291, 108.9004
1166.379, 209.6445
1167.467, 145.1055
1168.555, 65.40625
1169.642, 276.3398
1170.730, 15.25586
1171.817, 322.8262
1172.905, 82.70508
1173.992, 171.3750
1175.078, 320.5859
1176.165, 146.4434
1177.252, 284.8008
1178.338, 130.2734
1179.425, 100.3398
1180.511, 114.4023
1181.597, 387.1270
1182.682, 295.8359
1183.768, 216.5332
1184.854, 357.2109
1185.939, 187.8770
1187.024, 92.14062
1188.109, 113.7715
1189.194, 226.9766
1190.279, 217.5801
1191.363, 34.83008
1192.448, 128.7168
1193.532, 321.2461
1194.616, 15.23828
1195.700, 211.3203
1196.784, 337.7949
1197.867, 59.27539
1198.951, 198.7344
1200.034, 34.18164
1201.117, 66.61133
1202.200, 5.101563
1203.283, 329.4941
1204.366, 211.8770
1205.448, 435.3652
1206.531, 40.72070
1207.613, 204.0566
1208.695, 235.3828
1209.777, 163.6973
1210.859, 228.9473
1211.940, 39.25000
1213.022, 102.5332
1214.103, 47.80469
1215.184, 422.6152
1216.265, 102.8555
1217.346, 205.0820
1218.427, 94.29688
1219.507, 189.5000
1220.587, 90.69336
1221.668, 14.12891
1222.748, 66.02148
1223.828, 111.1543
1224.907, 230.2734
1225.987, 19.37891
1227.066, 71.46875
1228.146, 152.5586
1229.225, 306.6348
1230.304, 116.6992
1231.382, 342.7539
1232.461, 228.7930
1233.540, 341.7793
1234.618, 150.7930
1235.696, 125.9785
1236.774, 385.3652
1237.852, 337.3457
1238.930, 112.3145
1240.007, 140.2715
1241.085, 254.2168
1242.162, 151.8770
1243.239, 276.8164
1244.316, 27.70703
1245.393, 86.98438
1246.469, 94.96484
1247.546, 239.4023
1248.622, 201.1523
1249.698, 505.8984
1250.774, 241.6328
1251.850, 180.7891
1252.926, 191.5000
1254.001, 202.2031
1255.077, 250.8398
1256.152, 398.5391
1257.227, 225.2344
1258.302, 154.7148
1259.377, 342.4062
1260.451, 367.2266
1261.526, 380.8945
1262.600, 121.1211
1263.674, 27.79297
1264.748, 61.45703
1265.822, 193.1016
1266.896, 199.7734
1267.969, 14.38281
1269.043, 178.2695
1270.116, 153.7930
1271.189, 388.4258
1272.262, 301.3906
1273.335, 359.0000
1274.407, 67.50781
1275.480, 109.0781
1276.552, 118.1016
1277.624, 250.5859
1278.696, 62.19141
1279.768, 36.33203
