##NAMES=Shortite
##RRUFFID=R040184
##IDEAL CHEMISTRY=Na_2_Ca_2_(CO_3_)_3_
##LOCALITY=Green River, Wyoming, USA
##OWNER=RRUFF
##SOURCE=University of Arizona Mineral Museum
##DESCRIPTION=Colorless single crystal fragments
##STATUS=The identification of this mineral has been confirmed by X-ray diffraction and chemical analysis
##URL=rruff.info/R040184
##MEASURED CHEMISTRY=(Na_1.47_Ca_0.27_[box]_0.26_)_Î£=2_Ca_2.00_(CO_3_)_3_
##PIN_ID=L00388
##ORIENTATION=Laser parallel to -c* (0 0 -1). Fiducial mark perpendicular to laser is parallel to a [1 0 0]
114.726, 0.000
116.123, 21.480
117.519, 63.978
118.915, 6.878
120.311, 53.591
121.706, 6.467
123.102, 27.446
124.497, 36.142
125.892, 75.485
127.286, 96.372
128.681, 115.723
130.075, 164.474
131.469, 138.572
132.862, 258.975
134.256, 328.648
135.649, 437.561
137.042, 595.693
138.435, 557.026
139.827, 573.542
141.219, 373.220
142.611, 298.048
144.003, 191.012
145.394, 80.098
146.786, 143.298
148.177, 97.602
149.567, 122.004
150.958, 99.499
152.348, 205.079
153.738, 129.739
155.128, 180.476
156.517, 189.284
157.907, 157.158
159.296, 140.171
160.685, 107.232
162.073, 116.336
163.462, 146.499
164.850, 114.700
166.237, 124.937
167.625, 157.215
169.012, 211.540
170.400, 204.899
171.786, 190.294
173.173, 186.719
174.559, 104.173
175.946, 132.655
177.332, 97.164
178.717, 108.699
180.103, 112.262
181.488, 87.869
182.873, 128.514
184.258, 80.182
185.642, 85.871
187.026, 76.583
188.410, 116.322
189.794, 91.081
191.178, 92.869
192.561, 163.688
193.944, 223.531
195.327, 321.394
196.709, 371.273
198.092, 447.161
199.474, 417.044
200.856, 376.923
202.237, 343.299
203.618, 240.133
205.000, 229.995
206.380, 186.847
207.761, 138.697
209.142, 92.555
210.522, 71.023
211.902, 84.906
213.281, 76.798
214.661, 99.698
216.040, 30.611
217.419, 99.535
218.798, 1.470
220.176, 0.415
221.554, 68.388
222.932, 0.010
224.310, 52.974
225.688, 25.391
227.065, 81.422
228.442, 87.471
229.819, 81.527
231.196, 134.591
232.572, 161.664
233.948, 206.745
235.324, 156.833
236.700, 231.953
238.075, 225.079
239.450, 184.212
240.825, 227.352
242.200, 126.498
243.574, 184.668
244.948, 109.955
246.322, 78.135
247.696, 99.811
249.070, 82.002
250.443, 112.206
251.816, 72.417
253.189, 83.634
254.561, 101.876
255.933, 119.140
257.306, 122.409
258.677, 124.699
260.049, 200.213
261.420, 168.520
262.791, 161.831
264.162, 164.144
265.533, 108.459
266.903, 143.606
268.274, 109.918
269.643, 73.624
271.013, 80.936
272.383, 41.562
273.752, 45.876
275.121, 79.193
276.490, 94.521
277.858, 64.860
279.226, 25.200
280.595, 18.957
281.962, 87.749
283.330, 66.567
284.697, 21.356
286.064, 63.199
287.431, 42.218
288.798, 68.710
290.164, 38.663
291.530, 87.646
292.896, 49.654
294.262, 1.314
295.627, 81.740
296.993, 0.185
298.358, 20.907
299.722, 65.018
301.087, 62.146
302.451, 34.289
303.815, 17.553
305.179, 56.616
306.543, 18.909
307.906, 22.104
309.269, 84.309
310.632, 36.525
311.995, 39.751
313.357, 8.986
314.719, 48.231
316.081, 62.772
317.443, 20.043
318.804, 52.358
320.166, 34.644
321.527, 82.937
322.887, 29.306
324.248, 72.611
325.608, 71.258
326.968, 4.574
328.328, 101.897
329.688, 17.775
331.047, 75.556
332.406, 42.891
333.765, 13.770
335.124, 81.350
336.482, 32.599
337.840, 114.950
339.198, 74.999
340.556, 123.358
341.913, 118.720
343.271, 85.085
344.628, 172.453
345.984, 75.916
347.341, 123.290
348.697, 96.723
350.053, 40.111
351.409, 103.502
352.765, 41.895
354.120, 91.290
355.475, 110.690
356.830, 104.089
358.185, 116.489
359.539, 45.891
360.894, 97.293
362.248, 43.807
363.601, 73.212
364.955, 41.619
366.308, 35.016
367.661, 143.414
369.014, 78.469
370.367, 23.872
371.719, 45.276
373.071, 4.318
374.423, 65.084
375.775, 76.488
377.126, 83.893
378.478, 29.609
379.828, 53.184
381.179, 17.585
382.530, 52.763
383.880, 62.163
385.230, 33.804
386.580, 125.208
387.929, 62.616
389.279, 28.351
390.628, 57.757
391.977, 15.862
393.325, 30.267
394.674, 13.852
396.022, 94.256
397.370, 37.659
398.718, 25.931
400.065, 50.355
401.413, 5.094
402.760, 30.461
404.106, 47.858
405.453, 34.410
406.799, 73.805
408.146, 23.302
409.491, 97.693
410.837, 5.076
412.182, 7.540
413.528, 81.919
414.873, 14.703
416.217, 70.734
417.562, 27.105
418.906, 55.600
420.250, 7.032
421.594, 45.390
422.938, 124.752
424.281, 17.112
425.624, 108.592
426.967, 5.053
428.310, 60.492
429.652, 67.837
430.994, 26.180
432.336, 83.660
433.678, 73.995
435.020, 74.824
436.361, 53.153
437.702, 122.479
439.043, 98.805
440.383, 42.128
441.724, 103.448
443.064, 132.769
444.404, 9.107
445.743, 73.531
447.083, 24.851
448.422, 98.225
449.761, 12.213
451.100, 21.532
452.438, 95.849
453.777, 36.166
455.115, 142.605
456.453, 34.905
457.790, 72.217
459.128, 61.521
460.465, 19.828
461.802, 140.511
463.139, 56.816
464.475, 66.119
465.811, 80.069
467.147, 13.634
468.483, 94.818
469.819, 41.108
471.154, 146.395
472.489, 86.678
473.824, 124.959
475.159, 33.310
476.493, 0.586
477.827, 80.017
479.161, 18.283
480.495, 112.546
481.829, 42.855
483.162, 12.111
484.495, 123.363
485.828, 14.326
487.161, 106.906
488.493, 60.317
489.825, 32.541
491.157, 97.353
492.489, 35.569
493.820, 62.781
495.151, 4.989
496.482, 22.792
497.813, 113.526
499.144, 3.302
500.474, 115.867
501.804, 36.058
503.134, 73.219
504.464, 66.532
505.793, 14.684
507.123, 116.832
508.451, 28.401
509.780, 83.538
511.109, 108.706
512.437, 48.833
513.765, 67.964
515.093, 21.815
516.421, 50.288
517.748, 56.486
519.075, 55.586
520.402, 160.682
521.729, 17.867
523.055, 156.951
524.382, 62.131
525.708, 69.213
527.034, 150.290
528.359, 15.133
529.685, 121.919
531.010, 82.115
532.335, 141.157
533.659, 114.107
534.984, 53.139
536.308, 117.165
537.632, 27.187
538.956, 11.003
540.279, 108.995
541.603, 1.013
542.926, 107.967
544.249, 12.917
545.571, 98.883
546.894, 64.844
548.216, 9.799
549.538, 138.746
550.860, 46.314
552.181, 89.589
553.503, 16.487
554.824, 90.386
556.145, 124.279
557.465, 16.834
558.786, 50.031
560.106, 19.889
561.426, 5.447
562.746, 126.388
564.065, 19.216
565.385, 119.038
566.704, 31.854
568.023, 102.665
569.341, 118.470
570.660, 38.329
571.978, 89.129
573.296, 61.923
574.614, 43.155
575.931, 93.937
577.248, 28.712
578.565, 114.537
579.882, 44.931
581.199, 111.042
582.515, 84.791
583.831, 30.617
585.147, 115.361
586.463, 17.792
587.779, 72.553
589.094, 82.267
590.409, 26.975
591.724, 121.677
593.038, 26.629
594.353, 106.136
595.667, 113.797
596.981, 106.892
598.295, 195.647
599.608, 70.289
600.922, 68.171
602.235, 58.800
603.547, 38.414
604.860, 140.029
606.172, 19.363
607.485, 180.464
608.797, 94.041
610.108, 66.618
611.420, 154.355
612.731, 34.922
614.042, 83.601
615.353, 141.166
616.664, 164.725
617.974, 178.371
619.284, 10.916
620.594, 160.026
621.904, 71.554
623.213, 87.075
624.523, 159.642
625.832, 26.040
627.141, 199.314
628.449, 89.808
629.758, 91.294
631.066, 141.774
632.374, 50.248
633.681, 179.181
634.989, 20.648
636.296, 139.784
637.603, 79.379
638.910, 56.797
640.217, 135.229
641.523, 121.562
642.829, 53.959
644.135, 155.151
645.441, 24.533
646.747, 160.914
648.052, 70.280
649.357, 155.641
650.662, 152.195
651.967, 13.551
653.271, 206.134
654.575, 32.573
655.879, 165.906
657.183, 89.484
658.486, 61.803
659.790, 105.326
661.093, 30.631
662.396, 105.929
663.698, 146.297
665.001, 26.419
666.303, 104.790
667.605, 60.115
668.907, 119.369
670.209, 145.538
671.510, 47.777
672.811, 171.029
674.112, 47.734
675.413, 126.974
676.713, 102.370
678.013, 47.595
679.313, 176.704
680.613, 49.767
681.913, 104.970
683.212, 106.194
684.511, 6.410
685.810, 183.940
687.109, 35.301
688.407, 109.470
689.706, 136.703
691.004, 98.926
692.302, 357.085
693.599, 327.237
694.897, 481.290
696.194, 473.044
697.491, 163.412
698.788, 277.768
700.084, 20.106
701.380, 149.766
702.677, 165.865
703.972, 120.957
705.268, 281.712
706.564, 226.792
707.859, 506.164
709.154, 1030.230
710.449, 1369.167
711.743, 1245.220
713.037, 563.266
714.332, 416.436
715.626, 388.446
716.919, 245.322
718.213, 379.185
719.506, 174.199
720.799, 99.094
722.092, 201.095
723.384, 67.486
724.677, 228.475
725.969, 51.457
727.261, 102.198
728.553, 172.166
729.844, 17.287
731.136, 138.181
732.427, 70.131
733.718, 53.949
735.008, 131.886
736.299, 4.761
737.589, 130.684
738.879, 47.600
740.169, 65.388
741.458, 153.291
742.748, 57.995
744.037, 186.887
745.326, 67.772
746.614, 119.651
747.903, 181.524
749.191, 41.893
750.479, 116.753
751.767, 0.607
753.055, 39.450
754.342, 189.287
755.629, 6.118
756.916, 72.137
758.203, 114.936
759.490, 65.642
760.776, 135.447
762.062, 5.190
763.348, 156.174
764.634, 96.959
765.919, 24.358
767.204, 225.155
768.489, 34.797
769.774, 122.480
771.059, 173.233
772.343, 42.981
773.627, 161.722
774.911, 1.920
776.195, 152.004
777.479, 146.722
778.762, 53.435
780.045, 175.140
781.328, 21.322
782.611, 159.362
783.893, 100.040
785.175, 100.712
786.457, 190.547
787.739, 0.866
789.021, 123.784
790.302, 74.271
791.583, 13.912
792.864, 213.555
794.145, 58.133
795.425, 77.756
796.706, 169.374
797.986, 29.922
799.266, 170.534
800.545, 60.958
801.825, 125.559
803.104, 110.154
804.383, 14.745
805.662, 163.599
806.940, 61.873
808.219, 73.449
809.497, 128.943
810.775, 25.483
812.053, 161.088
813.330, 13.653
814.608, 86.196
815.885, 128.790
817.162, 23.323
818.438, 178.850
819.715, 125.196
820.991, 43.713
822.267, 184.002
823.543, 25.492
824.818, 155.992
826.094, 104.564
827.369, 15.953
828.644, 188.490
829.919, 28.949
831.193, 77.401
832.468, 212.882
833.742, 22.675
835.016, 191.654
836.289, 61.648
837.563, 62.061
838.836, 160.169
840.109, 24.578
841.382, 222.845
842.654, 55.593
843.927, 55.998
845.199, 167.518
846.471, 79.913
847.743, 245.304
849.014, 139.577
850.286, 15.965
851.557, 107.348
852.828, 89.729
854.099, 166.131
855.369, 146.327
856.639, 110.695
857.909, 143.061
859.179, 88.656
860.449, 245.014
861.718, 219.503
862.988, 26.131
864.257, 227.212
865.525, 105.646
866.794, 127.980
868.062, 167.320
869.331, 84.657
870.599, 232.989
871.866, 155.331
873.134, 57.669
874.401, 280.003
875.668, 1.667
876.935, 254.653
878.202, 80.972
879.468, 23.774
880.735, 249.520
882.001, 29.811
883.267, 181.886
884.532, 124.168
885.798, 92.489
887.063, 229.708
888.328, 77.058
889.593, 101.987
890.857, 206.268
892.122, 111.469
893.386, 263.741
894.650, 220.021
895.913, 285.256
897.177, 208.528
898.440, 33.800
899.703, 181.067
900.966, 171.331
902.229, 125.504
903.491, 204.771
904.754, 85.596
906.016, 173.750
907.278, 132.009
908.539, 20.017
909.801, 231.268
911.062, 69.515
912.323, 176.760
913.584, 191.002
914.844, 21.006
916.105, 242.250
917.365, 5.512
918.625, 61.556
919.885, 182.784
921.144, 43.111
922.404, 194.085
923.663, 72.279
924.922, 98.374
926.180, 181.561
927.439, 19.170
928.697, 223.354
929.955, 181.534
931.213, 71.661
932.471, 303.835
933.728, 100.232
934.985, 216.401
936.242, 190.566
937.499, 25.729
938.756, 275.886
940.012, 125.574
941.269, 159.727
942.525, 230.888
943.780, 63.840
945.036, 264.995
946.291, 133.127
947.546, 133.276
948.801, 222.425
950.056, 151.432
951.311, 176.575
952.565, 264.709
953.819, 82.847
955.073, 250.982
956.327, 35.085
957.580, 163.024
958.834, 259.123
960.087, 53.229
961.339, 296.333
962.592, 61.490
963.845, 55.589
965.097, 260.474
966.349, 14.568
967.601, 165.796
968.852, 189.712
970.104, 5.796
971.355, 266.886
972.606, 45.101
973.857, 153.961
975.107, 121.098
976.358, 83.845
977.608, 156.166
978.858, 46.715
980.108, 94.719
981.357, 142.753
982.607, 33.762
983.856, 123.769
985.105, 181.004
986.353, 8.992
987.602, 202.110
988.850, 21.921
990.098, 78.062
991.346, 132.811
992.594, 39.189
993.841, 265.726
995.089, 36.640
996.336, 75.634
997.583, 172.133
998.829, 14.878
1000.076, 270.100
1001.322, 219.137
1002.568, 86.121
1003.814, 252.260
1005.060, 13.754
1006.305, 80.228
1007.550, 250.642
1008.795, 11.618
1010.040, 264.590
1011.285, 38.755
1012.529, 152.723
1013.773, 208.701
1015.017, 43.790
1016.261, 286.768
1017.505, 140.159
1018.748, 87.130
1019.991, 361.104
1021.234, 85.231
1022.477, 208.200
1023.719, 189.123
1024.962, 126.085
1026.204, 345.545
1027.446, 171.062
1028.688, 178.017
1029.929, 221.133
1031.170, 117.095
1032.411, 276.894
1033.652, 192.256
1034.893, 59.231
1036.134, 325.185
1037.374, 58.226
1038.614, 239.172
1039.854, 299.132
1041.094, 132.868
1042.333, 360.820
1043.572, 242.088
1044.811, 202.123
1046.050, 286.087
1047.289, 121.762
1048.527, 355.577
1049.766, 310.579
1051.004, 185.611
1052.241, 488.594
1053.479, 156.084
1054.717, 298.070
1055.954, 391.052
1057.191, 194.167
1058.428, 268.945
1059.664, 341.921
1060.901, 262.155
1062.137, 556.121
1063.373, 427.220
1064.609, 598.986
1065.844, 668.941
1067.080, 387.620
1068.315, 1106.543
1069.550, 1392.485
1070.785, 1404.610
1072.019, 1104.544
1073.254, 462.583
1074.488, 668.508
1075.722, 614.428
1076.955, 466.849
1078.189, 948.764
1079.422, 738.673
1080.656, 1034.627
1081.889, 1487.531
1083.121, 1589.442
1084.354, 2744.352
1085.586, 5368.256
1086.818, 16620.072
1088.050, 45411.980
1089.282, 48993.891
1090.514, 25756.336
1091.745, 8908.234
1092.976, 3380.117
1094.207, 2010.005
1095.438, 1153.888
1096.668, 854.200
1097.899, 893.069
1099.129, 407.933
1100.359, 498.992
1101.588, 487.848
1102.818, 215.697
1104.047, 585.555
1105.276, 335.124
1106.505, 202.329
1107.734, 410.156
1108.962, 112.919
1110.191, 294.037
1111.419, 266.840
1112.647, 138.610
1113.874, 339.513
1115.102, 61.121
1116.329, 219.934
1117.556, 309.744
1118.783, 106.294
1120.010, 343.633
1121.236, 253.610
1122.463, 136.392
1123.689, 403.441
1124.914, 143.031
1126.140, 212.802
1127.366, 349.500
1128.591, 46.263
1129.816, 313.363
1131.041, 119.983
1132.266, 75.809
1133.490, 358.174
1134.714, 65.330
1135.938, 263.208
1137.162, 372.717
1138.386, 48.575
1139.609, 437.127
1140.833, 143.467
1142.056, 200.135
1143.279, 330.634
1144.501, 1.713
1145.724, 324.926
1146.946, 355.937
1148.168, 39.559
1149.390, 390.715
1150.612, 73.318
1151.833, 167.911
1153.054, 374.882
1154.275, 8.457
1155.496, 290.256
1156.717, 222.912
1157.937, 67.456
1159.158, 315.459
1160.378, 98.147
1161.598, 85.669
1162.817, 274.738
1164.037, 21.238
1165.256, 270.724
1166.475, 210.531
1167.694, 28.002
1168.913, 408.700
1170.131, 162.521
1171.349, 175.938
1172.567, 384.842
1173.785, 1.239
1175.003, 283.620
1176.220, 243.305
1177.438, 162.670
1178.655, 368.025
1179.872, 34.310
1181.088, 126.639
1182.305, 276.437
1183.521, 56.058
1184.737, 300.138
1185.953, 167.118
1187.169, 17.649
1188.384, 367.555
1189.599, 71.316
1190.814, 126.493
1192.029, 290.903
1193.244, 2.312
1194.459, 217.441
1195.673, 149.869
1196.887, 141.972
1198.101, 311.062
1199.314, 35.521
1200.528, 196.579
1201.741, 421.624
1202.954, 124.217
1204.167, 290.231
1205.380, 316.306
1206.592, 95.507
1207.805, 393.479
1209.017, 127.180
1210.229, 164.122
1211.440, 384.051
1212.652, 77.360
1213.863, 347.259
1215.074, 267.188
1216.285, 135.560
1217.496, 363.428
1218.707, 136.651
1219.917, 265.489
1221.127, 388.312
1222.337, 17.900
1223.547, 367.690
1224.756, 230.494
1225.966, 155.624
1227.175, 462.370
1228.384, 187.029
1229.592, 190.917
1230.801, 447.619
1232.009, 156.945
1233.217, 295.625
1234.425, 310.286
1235.633, 46.359
1236.841, 452.997
1238.048, 229.625
1239.255, 199.326
1240.462, 461.934
1241.669, 71.532
1242.876, 364.119
1244.082, 329.695
1245.288, 130.288
1246.494, 481.843
1247.700, 217.387
1248.906, 175.306
1250.111, 388.827
1251.316, 90.350
1252.521, 352.873
1253.726, 420.371
1254.931, 108.495
1256.135, 431.959
1257.339, 199.409
1258.543, 167.920
1259.747, 598.322
1260.951, 233.576
1262.154, 221.339
1263.357, 466.676
1264.560, 57.988
1265.763, 416.601
1266.966, 277.894
1268.168, 125.310
1269.371, 471.570
1270.573, 221.840
1271.775, 212.071
1272.976, 344.281
1274.178, 8.718
1275.379, 524.454
1276.580, 170.610
1277.781, 51.648
1278.982, 559.757
1280.182, 154.716
1281.383, 195.789
1282.583, 354.831
1283.783, 52.091
1284.982, 239.050
1286.182, 215.002
1287.381, 66.123
1288.580, 377.987
1289.779, 212.287
1290.978, 129.073
1292.177, 442.842
1293.375, 11.696
1294.573, 270.268
1295.771, 374.812
1296.969, 11.498
1298.166, 391.312
1299.364, 136.525
1300.561, 113.153
1301.758, 535.024
1302.955, 58.413
1304.151, 153.962
1305.348, 390.385
1306.544, 45.265
1307.740, 304.173
1308.936, 336.178
1310.132, 8.580
1311.327, 445.271
1312.522, 128.466
1313.717, 97.795
1314.912, 404.494
1316.107, 72.784
1317.301, 196.047
1318.496, 376.678
1319.690, 25.152
1320.884, 434.979
1322.077, 280.086
1323.271, 20.173
1324.464, 359.992
1325.657, 66.013
1326.850, 143.030
1328.043, 302.937
1329.235, 34.089
1330.428, 274.851
1331.620, 295.959
1332.812, 64.172
1334.004, 483.354
1335.195, 126.088
1336.387, 122.865
1337.578, 395.909
1338.769, 124.356
1339.960, 346.305
1341.150, 335.965
1342.341, 14.403
1343.531, 367.697
1344.721, 272.275
1345.911, 52.833
1347.100, 422.227
1348.290, 6.738
1349.479, 130.229
1350.668, 310.757
1351.857, 30.210
1353.046, 373.510
1354.234, 229.109
1355.422, 85.516
1356.610, 332.559
1357.798, 168.938
1358.986, 59.307
1360.174, 535.554
1361.361, 89.901
1362.548, 365.133
1363.735, 377.565
1364.922, 23.886
1366.108, 526.492
1367.295, 169.888
1368.481, 0.800
1369.667, 361.473
1370.853, 11.031
1372.038, 2.364
1373.224, 478.705
1374.409, 52.573
1375.594, 312.685
1376.779, 392.626
1377.963, 75.762
1379.148, 481.411
1380.332, 328.043
1381.516, 158.208
1382.700, 492.593
1383.884, 213.157
1385.067, 219.688
1386.251, 578.816
1387.434, 7.992
1388.617, 378.469
1389.799, 306.798
1390.982, 88.189
1392.164, 484.950
1393.346, 185.294
1394.528, 177.315
1395.710, 602.617
1396.892, 43.168
1398.073, 249.311
1399.254, 556.789
1400.435, 58.199
1401.616, 488.896
1402.797, 398.004
1403.977, 70.712
1405.157, 528.381
1406.338, 213.144
1407.517, 92.073
1408.697, 710.425
1409.877, 133.560
1411.056, 269.635
1412.235, 655.247
1413.414, 168.781
1414.593, 173.357
1415.771, 421.719
1416.949, 560.927
1418.128, 596.877
1419.306, 216.884
1420.483, 373.417
1421.661, 315.418
1422.838, 248.945
1424.016, 474.724
1425.193, 567.824
1426.369, 26.248
1427.546, 505.359
1428.723, 419.013
1429.899, 67.194
1431.075, 501.489
1432.251, 238.669
1433.426, 134.962
1434.602, 552.645
1435.777, 69.395
1436.952, 296.702
1438.127, 604.603
1439.302, 91.667
1440.477, 518.929
1441.651, 325.399
1442.825, 63.228
1443.999, 598.476
1445.173, 242.206
1446.347, 290.763
1447.520, 558.284
1448.693, 114.898
1449.866, 262.120
1451.039, 469.436
1452.212, 36.673
1453.384, 541.579
1454.557, 347.754
1455.729, 14.689
1456.901, 611.505
1458.072, 326.779
1459.244, 181.229
1460.415, 647.694
1461.586, 93.171
1462.757, 218.821
1463.928, 514.831
1465.099, 51.114
1466.269, 447.449
1467.439, 373.709
1468.609, 89.932
1469.779, 596.109
1470.949, 232.282
1472.118, 111.736
1473.288, 698.007
1474.457, 103.527
1475.625, 299.932
1476.794, 595.447
1477.963, 91.719
1479.131, 347.382
1480.299, 502.523
1481.467, 58.666
1482.635, 555.091
1483.803, 271.471
1484.970, 96.427
1486.137, 622.720
1487.304, 147.146
1488.471, 153.595
1489.638, 490.315
1490.804, 2.879
1491.970, 213.075
1493.136, 609.928
1494.302, 26.835
1495.468, 494.190
1496.634, 451.693
1497.799, 99.370
1498.964, 567.282
1500.129, 234.979
1501.294, 113.385
1502.458, 662.221
1503.623, 61.501
1504.787, 107.616
1505.951, 655.274
1507.115, 75.469
1508.279, 346.203
1509.442, 507.624
1510.605, 57.686
1511.768, 601.152
1512.931, 333.297
1514.094, 1.938
1515.257, 729.602
1516.419, 0.000
##END=



