##NAMES=Shortite
##RRUFFID=R050248
##IDEAL CHEMISTRY=Na_2_Ca_2_(CO_3_)_3_
##LOCALITY=Stauffer mine, Green River, Wyoming, USA
##OWNER=RRUFF
##SOURCE=Marcus Origlieri
##DESCRIPTION=Colorless wedge-shaped single crystal
##STATUS=The identification of this mineral has been confirmed by X-ray diffraction and chemical analysis
##URL=rruff.info/R050248
##MEASURED CHEMISTRY=Na_2.00_Ca_2.00_(CO_3_)_3_ ; CO2 not measured but estimated by difference and stoichiometry.
##PIN_ID=L00721
##ORIENTATION=Laser parallel to b* (0 1 0). Fiducial mark perpendicular to laser is parallel to -c [0 0 -1]
108.2800, 0.0000000E+00
109.5120, 20.23242
110.7440, 80.13184
111.9760, 8.393555
113.2080, 0.8320310
114.4400, 14.50879
115.6710, 44.07715
116.9030, 49.49707
118.1340, 45.29590
119.3650, 23.11328
120.5960, 109.6592
121.8270, 103.6768
123.0580, 29.04980
124.2880, 184.5518
125.5190, 262.0850
126.7490, 351.5400
127.9790, 330.8301
129.2090, 533.8721
130.4390, 633.5947
131.6680, 831.9346
132.8980, 905.8369
134.1270, 993.2549
135.3560, 1361.148
136.5850, 1530.482
137.8140, 1829.223
139.0430, 1674.347
140.2710, 1442.844
141.5000, 1332.689
142.7280, 1145.861
143.9560, 756.3350
145.1840, 772.0947
146.4120, 563.1172
147.6390, 652.3838
148.8670, 455.8750
150.0940, 446.5752
151.3210, 378.4668
152.5490, 458.5381
153.7750, 668.7812
155.0020, 700.1836
156.2290, 790.7412
157.4550, 836.4492
158.6810, 1031.305
159.9080, 1292.300
161.1340, 1592.430
162.3590, 1973.688
163.5850, 2244.067
164.8110, 2660.566
166.0360, 3385.182
167.2610, 3957.906
168.4860, 4263.770
169.7110, 4031.834
170.9360, 3578.109
172.1610, 3172.527
173.3850, 2514.016
174.6100, 2084.571
175.8340, 1676.190
177.0580, 1323.869
178.2820, 1204.606
179.5050, 963.4414
180.7290, 968.3779
181.9520, 776.3584
183.1760, 781.3516
184.3990, 619.3965
185.6220, 647.4834
186.8450, 682.5615
188.0670, 758.6875
189.2900, 654.8193
190.5120, 824.9619
191.7340, 787.1182
192.9560, 860.2910
194.1780, 1052.494
195.4000, 1357.732
196.6220, 1365.005
197.8430, 1378.316
199.0640, 1443.654
200.2860, 1307.019
201.5070, 1409.411
202.7270, 1403.872
203.9480, 1236.447
205.1690, 1228.046
206.3890, 1107.720
207.6090, 1028.476
208.8290, 857.2588
210.0490, 784.0732
211.2690, 601.9160
212.4890, 671.7812
213.7080, 510.6680
214.9280, 543.6348
216.1470, 541.6230
217.3660, 343.6270
218.5850, 416.6533
219.8030, 464.7012
221.0220, 411.7920
222.2400, 371.9883
223.4590, 368.1670
224.6770, 376.1982
225.8950, 502.5645
227.1120, 442.7832
228.3300, 505.9121
229.5480, 548.4961
230.7650, 562.8369
231.9820, 614.0078
233.1990, 634.1035
234.4160, 781.5957
235.6330, 604.7646
236.8490, 955.9395
238.0660, 888.1211
239.2820, 701.3154
240.4980, 838.5205
241.7140, 938.7314
242.9300, 981.9502
244.1460, 1111.174
245.3610, 1090.400
246.5770, 1336.629
247.7920, 1674.859
249.0070, 1825.091
250.2220, 1905.830
251.4370, 2274.113
252.6510, 2419.446
253.8660, 2785.646
255.0800, 3281.538
256.2940, 3614.933
257.5080, 4011.866
258.7220, 4350.890
259.9360, 4737.453
261.1490, 4801.379
262.3630, 4889.240
263.5760, 4837.111
264.7890, 4805.121
266.0020, 4494.275
267.2150, 4022.472
268.4270, 3659.750
269.6400, 3165.104
270.8520, 2669.709
272.0640, 2326.324
273.2760, 2032.873
274.4880, 1761.514
275.7000, 1410.171
276.9120, 1212.875
278.1230, 1029.627
279.3340, 916.9473
280.5450, 871.9824
281.7560, 798.9717
282.9670, 719.8809
284.1780, 548.4375
285.3880, 694.5879
286.5980, 484.8506
287.8090, 467.1426
289.0190, 288.2061
290.2290, 414.4590
291.4380, 175.7080
292.6480, 413.0332
293.8570, 286.2021
295.0670, 370.6836
296.2760, 155.1895
297.4850, 247.9873
298.6930, 187.2178
299.9020, 308.7725
301.1110, 195.2666
302.3190, 278.5488
303.5270, 107.0283
304.7350, 319.4746
305.9430, 241.8945
307.1510, 131.3467
308.3580, 18.00000
309.5660, 300.1494
310.7730, 23.68066
311.9800, 194.7090
313.1870, 80.13574
314.3940, 73.91211
315.6010, 42.57910
316.8070, 140.0312
318.0130, 213.7734
319.2200, 216.4453
320.4260, 140.9180
321.6310, 169.6680
322.8370, 176.4082
324.0430, 74.88672
325.2480, 214.3672
326.4540, 211.1387
327.6590, 14.32422
328.8640, 33.02832
330.0680, 111.6211
331.2730, 193.1211
332.4780, 67.48535
333.6820, 2.677734
334.8860, 38.70410
336.0900, 8.216797
337.2940, 7.905273
338.4980, 128.4023
339.7010, 144.1934
340.9050, 85.68750
342.1080, 126.8721
343.3110, 105.8818
344.5140, 82.67578
345.7170, 13.84277
346.9200, 60.36719
348.1220, 76.17969
349.3240, 15.06055
350.5270, 124.4033
351.7290, 108.6904
352.9310, 69.73828
354.1320, 162.3223
355.3340, 105.0752
356.5350, 88.29688
357.7370, 52.33301
358.9380, 12.07910
360.1390, 118.3652
361.3400, 110.7236
362.5400, 187.0723
363.7410, 232.4180
364.9410, 21.75488
366.1410, 99.08301
367.3410, 31.65332
368.5410, 8.385742
369.7410, 28.07031
370.9400, 66.36621
372.1400, 64.65234
373.3390, 238.9971
374.5380, 70.25000
375.7370, 109.9229
376.9360, 183.1289
378.1350, 23.41406
379.3330, 77.59180
380.5310, 64.74023
381.7300, 105.9160
382.9280, 117.8135
384.1260, 23.16113
385.3230, 130.2686
386.5210, 125.3682
387.7180, 102.4570
388.9160, 74.07031
390.1130, 63.97656
391.3100, 6.411133
392.5060, 124.9219
393.7030, 112.0830
394.9000, 17.08789
396.0960, 72.27051
397.2920, 84.31250
398.4880, 11.24219
399.6840, 16.38965
400.8800, 27.35742
402.0750, 60.81152
403.2710, 31.61035
404.4660, 32.77344
405.6610, 21.04004
406.8560, 155.8457
408.0510, 63.58008
409.2450, 39.62793
410.4400, 118.4111
411.6340, 207.1592
412.8280, 109.8965
414.0220, 20.86328
415.2160, 35.57812
416.4100, 158.3271
417.6030, 61.01758
418.7970, 208.6992
419.9900, 106.3662
421.1830, 176.0225
422.3760, 9.200195
423.5690, 30.41406
424.7610, 52.08105
425.9540, 83.66699
427.1460, 8.410156
428.3380, 43.46289
429.5300, 25.02930
430.7220, 26.97754
431.9140, 100.1084
433.1050, 51.58594
434.2970, 60.38086
435.4880, 49.07715
436.6790, 93.50098
437.8700, 30.63281
439.0610, 25.72852
440.2510, 81.92773
441.4420, 119.3418
442.6320, 31.07227
443.8220, 50.64258
445.0120, 106.0176
446.2020, 105.1279
447.3910, 78.01953
448.5810, 11.84766
449.7700, 97.32715
450.9600, 60.65137
452.1490, 23.98145
453.3370, 97.19629
454.5260, 29.17090
455.7150, 143.3047
456.9030, 48.68066
458.0910, 78.47168
459.2800, 158.3682
460.4670, 69.09082
461.6550, 48.19629
462.8430, 142.7930
464.0300, 74.69238
465.2180, 78.48926
466.4050, 218.2119
467.5920, 183.1582
468.7790, 76.36816
469.9650, 35.22266
471.1520, 95.33008
472.3380, 129.9541
473.5250, 225.6377
474.7110, 37.79395
475.8970, 74.71875
477.0820, 5.695313
478.2680, 154.3096
479.4540, 113.3203
480.6390, 227.2363
481.8240, 91.21777
483.0090, 361.7812
484.1940, 120.1113
485.3780, 157.4170
486.5630, 91.92578
487.7470, 238.1963
488.9320, 231.1816
490.1160, 146.6133
491.3000, 96.46680
492.4830, 333.5273
493.6670, 63.69727
494.8500, 241.6914
496.0340, 129.8086
497.2170, 125.4941
498.4000, 6.747070
499.5820, 42.78516
500.7650, 116.7979
501.9480, 149.4980
503.1300, 196.4746
504.3120, 220.2549
505.4940, 211.2197
506.6760, 194.4541
507.8580, 241.3252
509.0390, 114.2188
510.2210, 74.28711
511.4020, 86.45312
512.5830, 193.2227
513.7640, 261.1650
514.9450, 159.8965
516.1250, 196.0781
517.3060, 71.93555
518.4860, 282.9883
519.6660, 155.6172
520.8460, 179.7500
522.0260, 193.3262
523.2060, 177.0605
524.3850, 193.8496
525.5650, 233.3633
526.7440, 263.2793
527.9230, 303.5605
529.1020, 207.0820
530.2810, 96.77734
531.4590, 246.1484
532.6380, 93.50391
533.8160, 72.75000
534.9940, 200.0449
536.1720, 339.4395
537.3500, 95.57031
538.5270, 167.8574
539.7050, 197.0879
540.8820, 88.06641
542.0590, 167.0117
543.2360, 304.7461
544.4130, 372.8848
545.5900, 193.0059
546.7660, 342.1602
547.9430, 216.3672
549.1190, 74.38281
550.2950, 229.6328
551.4710, 119.4746
552.6470, 274.3379
553.8220, 327.1758
554.9980, 131.9883
556.1730, 215.5938
557.3480, 179.2246
558.5230, 242.9707
559.6980, 228.7969
560.8730, 241.4902
562.0470, 243.5781
563.2220, 160.8164
564.3960, 251.9121
565.5700, 177.3086
566.7440, 249.3594
567.9170, 110.9043
569.0910, 114.8027
570.2640, 185.1133
571.4380, 178.3145
572.6110, 193.4902
573.7840, 200.4863
574.9570, 116.1113
576.1290, 136.3281
577.3020, 212.4609
578.4740, 88.74609
579.6460, 236.7109
580.8180, 229.6465
581.9900, 249.2812
583.1620, 76.47461
584.3330, 110.7129
585.5040, 153.2383
586.6760, 42.34180
587.8470, 14.23438
589.0180, 49.18750
590.1880, 12.47266
591.3590, 42.20703
592.5290, 112.6992
593.7000, 133.7891
594.8700, 206.7930
596.0400, 143.5527
597.2090, 81.53906
598.3790, 19.72266
599.5490, 14.33203
600.7180, 4.181641
601.8870, 20.38672
603.0560, 136.2734
604.2250, 152.8262
605.3940, 172.6426
606.5620, 213.2539
607.7300, 127.2617
608.8990, 59.83594
610.0670, 139.0508
611.2350, 71.74414
612.4020, 41.72266
613.5700, 163.3672
614.7370, 242.1172
615.9050, 230.7266
617.0720, 151.6289
618.2390, 47.57422
619.4060, 40.91406
620.5720, 59.45703
621.7390, 38.27344
622.9050, 132.7344
624.0710, 261.8457
625.2370, 202.1465
626.4030, 135.4746
627.5690, 272.2227
628.7340, 313.2539
629.9000, 113.1270
631.0650, 37.43750
632.2300, 13.87891
633.3950, 333.4238
634.5600, 271.8906
635.7240, 290.8926
636.8890, 53.37500
638.0530, 136.0566
639.2170, 193.2441
640.3810, 404.1816
641.5450, 350.7871
642.7080, 188.8672
643.8720, 130.3242
645.0350, 42.21680
646.1980, 111.0449
647.3610, 315.1426
648.5240, 181.8203
649.6870, 134.6465
650.8490, 2.154297
652.0120, 369.6074
653.1740, 151.0762
654.3360, 241.6973
655.4980, 82.12305
656.6600, 153.5996
657.8210, 100.6875
658.9830, 196.1211
660.1440, 69.70117
661.3050, 246.0547
662.4660, 293.7207
663.6270, 92.12695
664.7870, 195.2168
665.9480, 93.57227
667.1080, 15.81250
668.2680, 176.1797
669.4280, 128.3633
670.5880, 106.6973
671.7480, 217.8438
672.9070, 295.5625
674.0670, 223.3887
675.2260, 168.9434
676.3850, 217.1270
677.5440, 182.1152
678.7030, 190.0156
679.8610, 8.058594
681.0200, 255.5625
682.1780, 83.39453
683.3360, 188.9902
684.4940, 138.2070
685.6520, 102.8262
686.8090, 131.7051
687.9670, 141.5332
689.1240, 172.0371
690.2810, 203.8125
691.4380, 340.2949
692.5950, 269.2578
693.7520, 424.4902
694.9080, 271.9473
696.0650, 277.6191
697.2210, 369.8770
698.3770, 163.4980
699.5330, 208.4707
700.6880, 278.9629
701.8440, 269.5078
702.9990, 210.8906
704.1550, 334.3926
705.3100, 56.80078
706.4650, 440.2461
707.6190, 616.3164
708.7740, 716.4023
709.9290, 550.2227
711.0830, 645.5215
712.2370, 579.1133
713.3910, 655.7227
714.5450, 638.9902
715.6980, 674.0137
716.8520, 765.4785
718.0050, 1080.348
719.1580, 999.3262
720.3110, 545.9160
721.4640, 718.1660
722.6170, 295.8730
723.7700, 304.9375
724.9220, 301.9102
726.0740, 208.8438
727.2260, 156.9258
728.3780, 166.2969
729.5300, 56.98438
730.6810, 122.7773
731.8330, 297.5195
732.9840, 119.3262
734.1350, 55.32617
735.2860, 140.1191
736.4370, 8.625000
737.5880, 95.66797
738.7380, 64.55664
739.8880, 139.5664
741.0390, 74.54102
742.1890, 215.1719
743.3380, 62.21289
744.4880, 106.9414
745.6380, 69.69141
746.7870, 167.6895
747.9360, 176.8574
749.0850, 239.5801
750.2340, 104.7617
751.3830, 1.066406
752.5310, 83.29297
753.6800, 26.68555
754.8280, 212.3789
755.9760, 46.77734
757.1240, 97.09375
758.2720, 5.000000
759.4190, 181.4961
760.5670, 38.69922
761.7140, 185.8984
762.8610, 108.7676
764.0080, 37.80078
765.1550, 246.1387
766.3020, 255.6914
767.4480, 47.10352
768.5950, 114.5645
769.7410, 221.5586
770.8870, 126.0762
772.0330, 231.5625
773.1780, 192.2793
774.3240, 28.35156
775.4690, 229.4941
776.6140, 138.7266
777.7590, 34.60156
778.9040, 277.9336
780.0490, 129.1660
781.1940, 51.35156
782.3380, 180.3555
783.4820, 189.4414
784.6260, 120.6367
785.7700, 334.6738
786.9140, 113.3535
788.0580, 318.9082
789.2010, 83.31836
790.3450, 30.26367
791.4880, 195.8203
792.6310, 255.5820
793.7730, 220.7793
794.9160, 195.2305
796.0590, 214.2559
797.2010, 146.8105
798.3430, 232.2148
799.4850, 141.2793
800.6270, 189.4863
801.7690, 28.87109
802.9100, 197.3125
804.0520, 255.1289
805.1930, 179.7949
806.3340, 221.7734
807.4750, 81.67578
808.6160, 311.4238
809.7560, 304.5293
810.8970, 165.5977
812.0370, 102.8008
813.1770, 185.2988
814.3170, 131.7734
815.4570, 259.6582
816.5960, 203.3672
817.7360, 253.2695
818.8750, 216.6895
820.0140, 55.30078
821.1530, 144.0879
822.2920, 27.70312
823.4310, 216.6992
824.5690, 383.0859
825.7070, 69.98438
826.8460, 271.5293
827.9840, 311.1016
829.1220, 169.1699
830.2590, 99.92969
831.3970, 383.1113
832.5340, 285.1602
833.6710, 26.25391
834.8080, 232.5996
835.9450, 132.5762
837.0820, 14.50586
838.2190, 285.9023
839.3550, 238.3418
840.4910, 225.0137
841.6270, 283.2227
842.7630, 223.5684
843.8990, 241.7773
845.0350, 264.7344
846.1700, 115.5039
847.3060, 296.9102
848.4410, 165.9375
849.5760, 157.0801
850.7100, 152.0430
851.8450, 236.8906
852.9800, 179.9766
854.1140, 207.5156
855.2480, 48.93555
856.3820, 135.7363
857.5160, 226.1875
858.6500, 463.4805
859.7830, 177.4805
860.9170, 357.1602
862.0500, 118.9863
863.1830, 478.4961
864.3160, 466.4922
865.4480, 414.5781
866.5810, 393.8770
867.7130, 394.0020
868.8460, 284.6523
869.9780, 338.0625
871.1100, 246.8301
872.2410, 293.0000
873.3730, 302.9121
874.5050, 356.9160
875.6360, 322.0957
876.7670, 288.7988
877.8980, 337.5586
879.0290, 155.7168
880.1590, 303.5312
881.2900, 290.4043
882.4200, 119.4922
883.5500, 261.8730
884.6800, 184.4004
885.8100, 242.1680
886.9400, 109.7324
888.0690, 37.92383
889.1990, 135.1758
890.3280, 118.1445
891.4570, 293.4141
892.5860, 163.2207
893.7140, 302.9883
894.8430, 117.3125
895.9710, 160.0762
897.1000, 316.5801
898.2280, 125.7012
899.3560, 55.45117
900.4830, 43.03906
901.6110, 178.5723
902.7380, 24.08398
903.8660, 52.52930
904.9930, 48.42188
906.1200, 108.4043
907.2460, 151.9102
908.3730, 90.40039
909.5000, 167.5723
910.6260, 139.0391
911.7520, 122.2402
912.8780, 8.919922
914.0040, 142.8633
915.1290, 1.042969
916.2550, 165.1426
917.3800, 140.4492
918.5050, 26.25781
919.6300, 5.931641
920.7550, 177.0469
921.8800, 295.9199
923.0040, 219.2969
924.1290, 216.1660
925.2530, 57.36133
926.3770, 78.78516
927.5010, 193.3711
928.6250, 207.0137
929.7480, 210.6211
930.8720, 155.1055
931.9950, 73.63672
933.1180, 116.8496
934.2410, 78.29297
935.3640, 36.43945
936.4860, 121.7207
937.6090, 202.2930
938.7310, 305.5430
939.8530, 177.8477
940.9750, 32.96094
942.0970, 235.1992
943.2180, 327.8301
944.3400, 241.0059
945.4610, 309.1504
946.5820, 204.0391
947.7030, 95.63477
948.8240, 123.5625
949.9450, 12.25977
951.0650, 44.77734
952.1860, 21.20508
953.3060, 108.1621
954.4260, 179.0664
955.5460, 234.2637
956.6650, 74.79883
957.7850, 215.8750
958.9040, 339.6484
960.0230, 121.4102
961.1420, 263.5039
962.2610, 16.20117
963.3800, 124.8594
964.4990, 0.2636720
965.6170, 82.33398
966.7350, 106.8809
967.8530, 210.3906
968.9710, 132.2129
970.0890, 60.66016
971.2070, 101.1660
972.3240, 211.9668
973.4410, 196.7520
974.5580, 135.0664
975.6750, 247.4180
976.7920, 54.69141
977.9090, 223.9258
979.0250, 45.81836
980.1410, 111.8496
981.2580, 155.4727
982.3740, 339.5254
983.4890, 202.2930
984.6050, 343.2109
985.7200, 44.97461
986.8360, 193.0234
987.9510, 77.97656
989.0660, 98.70898
990.1810, 288.7441
991.2950, 57.43945
992.4100, 104.2266
993.5240, 167.1758
994.6390, 264.8457
995.7530, 208.5117
996.8660, 45.56250
997.9800, 50.34180
999.0940, 35.20117
1000.207, 181.6074
1001.320, 138.0039
1002.433, 139.0898
1003.546, 202.4121
1004.659, 44.70703
1005.772, 166.1445
1006.884, 42.36719
1007.996, 322.6973
1009.108, 164.8574
1010.220, 110.4082
1011.332, 24.50391
1012.444, 41.56055
1013.555, 221.2168
1014.666, 281.8184
1015.777, 148.6406
1016.888, 167.0566
1017.999, 133.9570
1019.110, 87.68945
1020.220, 36.51953
1021.331, 339.2812
1022.441, 78.36914
1023.551, 196.7031
1024.661, 49.04883
1025.770, 20.34570
1026.880, 173.6152
1027.989, 138.4434
1029.098, 367.0215
1030.207, 154.7383
1031.316, 386.4785
1032.425, 368.5137
1033.533, 182.9316
1034.642, 291.5566
1035.750, 227.3438
1036.858, 25.78320
1037.966, 225.0449
1039.073, 112.9648
1040.181, 97.81250
1041.288, 178.7598
1042.396, 304.4609
1043.503, 279.4727
1044.610, 222.3926
1045.716, 273.3008
1046.823, 122.0332
1047.929, 23.11133
1049.036, 121.3789
1050.142, 301.2422
1051.248, 268.0098
1052.353, 306.0723
1053.459, 29.86719
1054.564, 215.3672
1055.670, 234.4082
1056.775, 200.4512
1057.880, 349.3340
1058.985, 74.51172
1060.089, 415.8516
1061.194, 268.5566
1062.298, 491.2969
1063.402, 506.1016
1064.506, 976.5625
1065.610, 1191.180
1066.713, 2018.426
1067.817, 2611.832
1068.920, 3958.031
1070.023, 5528.846
1071.126, 5695.891
1072.229, 4441.533
1073.332, 2854.939
1074.435, 1982.648
1075.537, 1527.176
1076.639, 805.7070
1077.741, 719.3633
1078.843, 951.4902
1079.945, 725.6328
1081.046, 792.8516
1082.148, 1096.336
1083.249, 1731.035
1084.350, 2800.029
1085.451, 5388.738
1086.551, 8575.461
1087.652, 12146.75
1088.752, 19612.95
1089.853, 24887.55
1090.953, 20229.10
1092.053, 13142.26
1093.152, 8430.184
1094.252, 4861.291
1095.351, 2485.582
1096.451, 1276.963
1097.550, 945.7773
1098.649, 684.1152
1099.748, 467.6543
1100.846, 316.7129
1101.945, 338.1250
1103.043, 117.3672
1104.141, 148.6621
1105.239, 125.8652
1106.337, 344.1113
1107.434, 213.6445
1108.532, 226.0293
1109.629, 227.5781
1110.726, 214.4844
1111.823, 98.17578
1112.920, 230.5605
1114.017, 304.8438
1115.113, 244.9082
1116.210, 176.6191
1117.306, 188.3223
1118.402, 201.7832
1119.498, 154.0977
1120.593, 265.9434
1121.689, 314.0781
1122.784, 118.0508
1123.879, 386.4844
1124.974, 154.1562
1126.069, 156.8555
1127.164, 118.8789
1128.259, 69.48047
1129.353, 91.60547
1130.447, 61.40234
1131.541, 123.3633
1132.635, 358.8555
1133.729, 43.43750
1134.822, 275.0391
1135.916, 225.8789
1137.009, 174.0312
1138.102, 259.7852
1139.195, 184.1250
1140.288, 393.3984
1141.380, 117.1953
1142.473, 305.5000
1143.565, 226.4141
1144.657, 218.3828
1145.749, 71.57812
1146.841, 12.78516
1147.932, 269.9219
1149.024, 254.3086
1150.115, 191.3125
1151.206, 276.2188
1152.297, 112.9844
1153.388, 196.3516
1154.479, 293.6055
1155.569, 234.1641
1156.659, 236.4297
1157.750, 65.33594
1158.839, 174.5352
1159.929, 96.07812
1161.019, 105.5742
1162.108, 180.6133
1163.198, 311.4531
1164.287, 265.8477
1165.376, 347.0469
1166.465, 142.1328
1167.553, 167.2383
1168.642, 69.12500
1169.730, 428.2969
1170.818, 216.9609
1171.906, 339.7188
1172.994, 252.4102
1174.082, 233.6406
1175.170, 281.1055
1176.257, 225.4883
1177.344, 158.8750
1178.431, 430.4414
1179.518, 102.1445
1180.605, 558.8945
1181.691, 239.2188
1182.778, 252.3789
1183.864, 117.3828
1184.950, 136.8086
1186.036, 364.9688
1187.122, 212.2812
1188.207, 241.0859
1189.292, 300.0391
1190.378, 224.2656
1191.463, 286.7695
1192.548, 244.5742
1193.632, 225.3477
1194.717, 314.2344
1195.801, 120.9648
1196.886, 332.6641
1197.970, 162.9023
1199.054, 164.7734
1200.137, 96.40234
1201.221, 116.5039
1202.305, 308.5742
1203.388, 231.1172
1204.471, 289.6328
1205.554, 362.1289
1206.637, 306.5977
1207.719, 209.0391
1208.802, 91.46094
1209.884, 42.83984
1210.966, 64.79297
1212.048, 83.50391
1213.130, 166.7148
1214.212, 132.9062
1215.293, 169.0781
1216.374, 294.2188
1217.456, 177.3398
1218.536, 343.4922
1219.617, 223.5586
1220.698, 136.6055
1221.778, 312.6211
1222.859, 177.6133
1223.939, 354.6836
1225.019, 207.6250
1226.099, 53.53906
1227.178, 304.4258
1228.258, 255.2969
1229.337, 217.1484
1230.417, 189.9727
1231.496, 29.76953
1232.574, 226.5547
1233.653, 423.8477
1234.732, 137.2461
1235.810, 103.5195
1236.888, 206.6328
1237.966, 99.59375
1239.044, 110.7578
1240.122, 242.3516
1241.199, 193.8750
1242.277, 186.4922
1243.354, 260.7812
1244.431, 137.5195
1245.508, 181.7656
1246.585, 278.0312
1247.661, 288.3203
1248.738, 355.6719
1249.814, 238.8086
1250.890, 183.2148
1251.966, 116.8125
1253.042, 76.30078
1254.117, 43.05469
1255.193, 92.08594
1256.268, 7.898438
1257.343, 113.2930
1258.418, 101.7695
1259.493, 186.4141
1260.567, 129.3086
1261.642, 8.910156
1262.716, 297.2266
1263.790, 449.8945
1264.864, 435.0000
1265.938, 398.0742
1267.011, 219.3125
1268.085, 189.3477
1269.158, 162.7578
1270.231, 190.7461
1271.304, 479.2891
1272.377, 324.2266
1273.450, 422.1719
1274.522, 128.0742
1275.594, 141.3359
1276.666, 54.33203
1277.738, 272.1562
1278.810, 60.94922
1279.882, 37.85156
1280.953, 151.2188
1282.025, 65.93359
1283.096, 162.4062
1284.167, 5.980469
