##NAMES=Shortite
##RRUFFID=R050248
##IDEAL CHEMISTRY=Na_2_Ca_2_(CO_3_)_3_
##LOCALITY=Stauffer mine, Green River, Wyoming, USA
##OWNER=RRUFF
##SOURCE=Marcus Origlieri
##DESCRIPTION=Colorless wedge-shaped single crystal
##STATUS=The identification of this mineral has been confirmed by X-ray diffraction and chemical analysis
##URL=rruff.info/R050248
##MEASURED CHEMISTRY=Na_2.00_Ca_2.00_(CO_3_)_3_ ; CO2 not measured but estimated by difference and stoichiometry.
##PIN_ID=L01144
##ORIENTATION=Laser parallel to a* (1 0 0). Fiducial mark perpendicular to laser is parallel to -b [0 -1 0]
102.9200, 0.0000000E+00
104.1590, 178.2334
105.3980, 59.27539
106.6360, 15.07812
107.8750, 168.5449
109.1130, 139.5791
110.3510, 192.7852
111.5890, 34.65527
112.8270, 190.1299
114.0650, 141.4287
115.3020, 110.9531
116.5390, 306.2393
117.7770, 326.9160
119.0130, 157.6875
120.2500, 235.3154
121.4870, 408.5996
122.7230, 255.3701
123.9590, 404.4766
125.1950, 494.7852
126.4310, 569.1836
127.6670, 756.5762
128.9030, 982.8789
130.1380, 1139.018
131.3730, 1226.940
132.6080, 1363.595
133.8430, 1708.932
135.0780, 1637.904
136.3120, 1985.473
137.5470, 1951.613
138.7810, 2040.290
140.0150, 2001.476
141.2480, 1845.118
142.4820, 1810.178
143.7160, 1710.621
144.9490, 1706.417
146.1820, 1840.550
147.4150, 1948.003
148.6480, 2123.758
149.8800, 2157.803
151.1130, 2387.131
152.3450, 2378.728
153.5770, 2467.582
154.8090, 2346.689
156.0410, 2104.051
157.2720, 2021.653
158.5040, 1632.541
159.7350, 1510.719
160.9660, 1243.108
162.1970, 1022.702
163.4270, 883.5000
164.6580, 646.4893
165.8880, 580.1445
167.1180, 636.0205
168.3480, 541.5488
169.5780, 571.3135
170.8080, 565.6289
172.0370, 637.5117
173.2670, 575.8730
174.4960, 464.3721
175.7250, 475.6426
176.9540, 449.7139
178.1820, 486.3760
179.4110, 456.0078
180.6390, 382.6416
181.8670, 438.2939
183.0950, 483.9785
184.3230, 510.7061
185.5500, 388.4824
186.7780, 419.3154
188.0050, 435.3047
189.2320, 434.3594
190.4590, 486.4893
191.6850, 561.7012
192.9120, 403.9932
194.1380, 597.3701
195.3650, 640.8418
196.5910, 610.4902
197.8160, 882.2129
199.0420, 804.0225
200.2680, 866.9033
201.4930, 932.8535
202.7180, 977.8955
203.9430, 903.0049
205.1680, 817.2314
206.3930, 762.6260
207.6170, 738.4150
208.8410, 644.7422
210.0660, 517.6924
211.2890, 533.4473
212.5130, 462.2861
213.7370, 504.1855
214.9600, 446.4883
216.1840, 237.5996
217.4070, 409.7666
218.6300, 346.9873
219.8520, 346.2607
221.0750, 428.6357
222.2970, 335.1875
223.5200, 317.7314
224.7420, 465.3271
225.9640, 317.9746
227.1850, 484.6699
228.4070, 439.4121
229.6280, 628.2002
230.8490, 563.0342
232.0700, 659.9131
233.2910, 486.8350
234.5120, 666.9805
235.7320, 673.7803
236.9530, 603.7930
238.1730, 606.3389
239.3930, 688.6895
240.6130, 681.7617
241.8320, 929.8760
243.0520, 755.0293
244.2710, 550.2197
245.4900, 905.4482
246.7090, 997.7139
247.9280, 1027.016
249.1470, 1092.352
250.3650, 1266.590
251.5840, 1564.251
252.8020, 1818.186
254.0200, 2260.932
255.2370, 3082.592
256.4550, 3636.541
257.6720, 4654.746
258.8900, 5249.179
260.1070, 5919.816
261.3240, 6530.644
262.5400, 7210.647
263.7570, 7274.812
264.9730, 7062.127
266.1900, 6648.584
267.4060, 5963.172
268.6220, 5100.885
269.8370, 4224.715
271.0530, 3432.083
272.2680, 2763.127
273.4830, 2184.270
274.6980, 1632.508
275.9130, 1327.836
277.1280, 1108.871
278.3420, 898.3789
279.5570, 930.9648
280.7710, 680.6289
281.9850, 472.9160
283.1990, 719.7227
284.4120, 531.5957
285.6260, 442.0625
286.8390, 423.0625
288.0520, 273.9395
289.2650, 392.0566
290.4780, 164.2305
291.6910, 229.8984
292.9030, 290.0605
294.1160, 322.3926
295.3280, 164.8438
296.5400, 245.2734
297.7510, 225.7500
298.9630, 272.2715
300.1740, 109.3613
301.3860, 58.97656
302.5970, 249.6348
303.8080, 285.3340
305.0180, 99.07422
306.2290, 142.8086
307.4390, 70.16602
308.6500, 81.75195
309.8600, 248.6426
311.0700, 19.23828
312.2790, 272.7168
313.4890, 232.7051
314.6980, 323.7344
315.9080, 134.7969
317.1170, 108.6367
318.3250, 115.7598
319.5340, 255.5879
320.7430, 51.48633
321.9510, 325.7090
323.1590, 133.7188
324.3670, 2.539063
325.5750, 23.04492
326.7830, 187.3398
327.9900, 149.6777
329.1980, 90.04883
330.4050, 195.4414
331.6120, 110.8594
332.8190, 97.30273
334.0250, 165.7715
335.2320, 44.27930
336.4380, 92.81055
337.6440, 244.5566
338.8500, 160.3828
340.0560, 3.802734
341.2620, 270.8164
342.4670, 52.45508
343.6730, 148.1250
344.8780, 212.3477
346.0830, 64.04492
347.2870, 115.7617
348.4920, 265.4961
349.6970, 178.2500
350.9010, 257.0195
352.1050, 205.8086
353.3090, 167.6113
354.5130, 265.4277
355.7160, 168.2617
356.9200, 100.1094
358.1230, 202.9746
359.3260, 145.8281
360.5290, 153.6953
361.7320, 48.57617
362.9340, 42.52734
364.1370, 29.06445
365.3390, 23.71484
366.5410, 36.79492
367.7430, 92.13672
368.9450, 100.0801
370.1460, 86.96680
371.3480, 64.98438
372.5490, 82.05469
373.7500, 181.9043
374.9510, 202.8887
376.1520, 121.8848
377.3520, 246.8906
378.5520, 255.9043
379.7530, 43.92188
380.9530, 68.93555
382.1530, 126.9590
383.3520, 224.9746
384.5520, 213.9961
385.7510, 267.0215
386.9500, 341.0605
388.1490, 294.1094
389.3480, 300.1621
390.5470, 399.2246
391.7450, 326.3066
392.9440, 341.3945
394.1420, 402.4902
395.3400, 212.6172
396.5380, 315.7734
397.7350, 350.9551
398.9330, 458.1699
400.1300, 416.4062
401.3270, 304.6660
402.5240, 342.9512
403.7210, 379.2539
404.9180, 319.5762
406.1140, 315.8906
407.3110, 162.0898
408.5070, 216.4629
409.7030, 299.0527
410.8990, 243.4590
412.0940, 45.14062
413.2900, 174.9609
414.4850, 121.5879
415.6800, 298.8145
416.8750, 154.2305
418.0700, 180.4980
419.2650, 235.9395
420.4590, 24.65039
421.6530, 78.85742
422.8470, 93.31250
424.0410, 185.7090
425.2350, 20.81641
426.4290, 205.6895
427.6220, 139.1621
428.8160, 18.35547
430.0090, 96.11914
431.2020, 135.3984
432.3940, 188.0215
433.5870, 90.44727
434.7790, 7.878906
435.9720, 1.685547
437.1640, 87.74414
438.3560, 22.17969
439.5470, 155.6191
440.7390, 88.06250
441.9300, 102.5098
443.1220, 11.03711
444.3130, 126.5547
445.5040, 94.21094
446.6940, 196.6582
447.8850, 74.16992
449.0750, 125.3770
450.2660, 7.990234
451.4560, 66.80859
452.6460, 233.5254
453.8350, 74.14062
455.0250, 107.9590
456.2140, 64.25195
457.4040, 137.3301
458.5930, 92.13672
459.7820, 7.566406
460.9700, 97.71484
462.1590, 16.00586
463.3470, 22.04883
464.5350, 139.2285
465.7240, 30.53125
466.9110, 100.0566
468.0990, 36.34766
469.2870, 183.8027
470.4740, 95.39062
471.6610, 285.6914
472.8480, 150.8848
474.0350, 111.0742
475.2220, 133.2637
476.4090, 223.4512
477.5950, 216.1602
478.7810, 90.34570
479.9670, 129.4746
481.1530, 39.62305
482.3390, 11.71875
483.5240, 76.74609
484.7100, 187.8203
485.8950, 56.89062
487.0800, 30.96289
488.2650, 254.0234
489.4490, 149.0859
490.6340, 218.1504
491.8180, 241.2090
493.0030, 147.2695
494.1870, 94.32617
495.3700, 270.3770
496.5540, 116.4277
497.7380, 305.4746
498.9210, 186.5176
500.1040, 117.5547
501.2870, 255.6113
502.4700, 304.6875
503.6530, 155.7598
504.8350, 307.8262
506.0180, 94.67969
507.2000, 175.9844
508.3820, 277.4395
509.5640, 293.9141
510.7450, 413.9570
511.9270, 356.0039
513.1080, 156.8359
514.2890, 403.8965
515.4700, 558.8867
516.6510, 275.6074
517.8320, 385.6504
519.0130, 340.6875
520.1930, 105.0488
521.3730, 210.0723
522.5530, 240.0918
523.7330, 344.1016
524.9130, 270.1074
526.0920, 240.2500
527.2710, 349.2441
528.4510, 402.2598
529.6300, 299.2402
530.8080, 213.3008
531.9870, 344.2676
533.1660, 454.8477
534.3440, 167.8008
535.5220, 179.7461
536.7000, 128.6836
537.8780, 228.6133
539.0560, 152.5352
540.2330, 261.7266
541.4110, 109.6309
542.5880, 216.5293
543.7650, 227.4199
544.9420, 156.2988
546.1180, 263.1680
547.2950, 39.03125
548.4710, 198.8750
549.6470, 226.7129
550.8230, 28.53516
551.9990, 98.33984
553.1750, 65.13477
554.3500, 57.91406
555.5260, 133.6816
556.7010, 255.0098
557.8760, 129.7598
559.0510, 36.49805
560.2250, 248.2188
561.4000, 8.929688
562.5740, 77.00000
563.7480, 196.6738
564.9220, 33.33594
566.0960, 197.9824
567.2700, 80.06445
568.4430, 163.6914
569.6170, 245.3047
570.7900, 169.3828
571.9630, 163.9766
573.1360, 216.7441
574.3080, 180.3164
575.4810, 91.88086
576.6530, 193.9922
577.8250, 121.6465
578.9980, 90.17773
580.1690, 150.6250
581.3410, 163.1309
582.5130, 103.6270
583.6840, 180.1113
584.8550, 21.06445
586.0260, 57.61328
587.1970, 196.9688
588.3680, 71.40234
589.5380, 87.82227
590.7080, 160.2754
591.8790, 25.12891
593.0490, 166.7734
594.2190, 290.1406
595.3880, 211.2988
596.5580, 76.64453
597.7270, 2.021484
598.8960, 2.460938
600.0650, 92.77930
601.2340, 158.8457
602.4030, 183.4863
603.5710, 46.63672
604.7400, 219.8613
605.9080, 130.5781
607.0760, 69.70703
608.2440, 204.8828
609.4120, 22.14258
610.5790, 86.33203
611.7460, 5.628906
612.9140, 60.91797
614.0810, 303.1621
615.2480, 187.2500
616.4140, 105.7852
617.5810, 33.14648
618.7470, 188.8809
619.9130, 129.0156
621.0790, 203.9785
622.2450, 160.9395
623.4110, 107.7070
624.5770, 92.68164
625.7420, 165.6445
626.9070, 223.8086
628.0720, 255.4629
629.2370, 256.7168
630.4020, 98.58594
631.5660, 257.9531
632.7310, 301.5918
633.8950, 126.7070
635.0590, 270.3125
636.2230, 139.3242
637.3870, 173.5312
638.5500, 196.3965
639.7140, 175.2656
640.8770, 206.3633
642.0400, 111.4199
643.2030, 226.5723
644.3660, 107.3926
645.5280, 241.3848
646.6910, 204.2285
647.8530, 146.3457
649.0150, 1.847656
650.1770, 380.9219
651.3390, 264.3535
652.5000, 411.8555
653.6620, 258.7129
654.8230, 252.4492
655.9840, 34.70117
657.1450, 142.9883
658.3060, 439.0898
659.4660, 50.75000
660.6270, 231.3926
661.7870, 148.0215
662.9470, 136.9766
664.1070, 318.6465
665.2670, 10.71289
666.4260, 226.9980
667.5860, 104.6777
668.7450, 258.6367
669.9040, 93.19531
671.0630, 189.7383
672.2220, 18.61719
673.3800, 221.1445
674.5390, 182.9844
675.6970, 276.4395
676.8550, 406.8750
678.0130, 306.5176
679.1710, 63.18945
680.3290, 221.7598
681.4860, 181.1289
682.6430, 438.4824
683.8000, 228.8242
684.9570, 161.1465
686.1140, 494.0781
687.2710, 550.5566
688.4270, 428.9141
689.5840, 726.1699
690.7400, 972.2090
691.8960, 1116.453
693.0520, 1177.600
694.2070, 1408.547
695.3630, 1145.070
696.5180, 1014.283
697.6730, 991.0723
698.8280, 673.7129
699.9830, 596.8730
701.1380, 316.5957
702.2920, 680.0684
703.4470, 582.1875
704.6010, 475.8691
705.7550, 273.2441
706.9090, 693.3047
708.0620, 668.9316
709.2160, 1000.877
710.3690, 817.9277
711.5220, 862.3086
712.6750, 840.6074
713.8280, 709.6426
714.9810, 466.6641
716.1340, 310.6719
717.2860, 323.1387
718.4380, 489.1133
719.5900, 515.0703
720.7420, 325.0098
721.8940, 471.3594
723.0450, 229.1875
724.1970, 308.0957
725.3480, 465.0098
726.4990, 542.8672
727.6500, 607.6582
728.8010, 692.4707
729.9510, 656.5957
731.1020, 425.6133
732.2520, 316.4453
733.4020, 312.2539
734.5520, 234.4746
735.7020, 295.2676
736.8510, 116.5605
738.0010, 149.8203
739.1500, 46.63477
740.2990, 17.99414
741.4480, 38.74023
742.5970, 235.3770
743.7450, 88.97852
744.8940, 92.58984
746.0420, 175.1387
747.1900, 106.8535
748.3380, 132.5273
749.4860, 122.0684
750.6330, 119.7051
751.7810, 128.0254
752.9280, 211.1992
754.0750, 58.04102
755.2220, 191.1309
756.3690, 401.5527
757.5160, 135.6895
758.6620, 128.6738
759.8090, 114.7734
760.9550, 273.1816
762.1010, 218.8730
763.2470, 205.2520
764.3920, 115.1426
765.5380, 108.1855
766.6830, 5.386719
767.8280, 14.12305
768.9730, 69.80469
770.1180, 36.31055
771.2630, 132.8848
772.4070, 38.62305
773.5520, 154.2129
774.6960, 107.4180
775.8400, 231.8398
776.9840, 232.7305
778.1280, 67.51367
779.2710, 82.95117
780.4140, 110.1348
781.5580, 288.1992
782.7010, 143.1465
783.8440, 178.4473
784.9860, 111.8672
786.1290, 186.3516
787.2710, 271.8379
788.4140, 26.32812
789.5560, 59.54492
790.6980, 9.185547
791.8390, 210.8730
792.9810, 168.0684
794.1220, 287.1914
795.2640, 91.08203
796.4050, 302.1504
797.5460, 285.3828
798.6860, 372.3672
799.8270, 113.8828
800.9680, 179.8496
802.1080, 232.6504
803.2480, 181.9473
804.3880, 186.8008
805.5280, 117.9453
806.6670, 282.4863
807.8070, 350.7344
808.9460, 183.2578
810.0850, 143.9219
811.2240, 122.1777
812.3630, 299.4062
813.5020, 289.6113
814.6400, 158.7891
815.7790, 149.2383
816.9170, 169.7285
818.0550, 387.7012
819.1930, 238.9648
820.3300, 242.9590
821.4680, 230.5430
822.6050, 68.34961
823.7430, 299.3125
824.8800, 197.7031
826.0170, 281.6699
827.1530, 288.6270
828.2900, 322.4570
829.4260, 437.5391
830.5620, 152.3945
831.6990, 146.9355
832.8340, 267.9609
833.9700, 84.51172
835.1060, 154.6602
836.2410, 297.3418
837.3760, 99.58398
838.5120, 133.2344
839.6470, 260.1250
840.7810, 116.7949
841.9160, 171.5781
843.0500, 395.0977
844.1850, 105.5898
845.3190, 51.04883
846.4530, 326.4727
847.5870, 155.4863
848.7200, 178.8535
849.8540, 272.3555
850.9870, 272.1270
852.1200, 312.9336
853.2530, 127.1719
854.3860, 335.6523
855.5190, 417.9316
856.6510, 389.1582
857.7840, 139.9414
858.9160, 49.31836
860.0480, 26.12500
861.1800, 183.1758
862.3110, 252.1953
863.4430, 337.2656
864.5740, 245.2285
865.7060, 177.2910
866.8370, 293.2285
867.9680, 361.8027
869.0980, 391.6504
870.2290, 150.4688
871.3590, 300.3652
872.4900, 176.1211
873.6200, 320.4141
874.7500, 236.0977
875.8790, 101.0215
877.0090, 97.11914
878.1380, 244.5059
879.2680, 257.1113
880.3970, 371.1504
881.5260, 279.4922
882.6550, 201.0078
883.7830, 301.4023
884.9120, 309.5137
886.0400, 195.5488
887.1680, 61.86914
888.2960, 84.45703
889.4240, 159.7637
890.5520, 95.50195
891.6790, 127.5332
892.8070, 86.22461
893.9340, 118.3535
895.0610, 95.41797
896.1880, 258.8906
897.3140, 186.9199
898.4410, 323.3828
899.5670, 131.8594
900.6940, 90.80273
901.8200, 34.99219
902.9450, 26.34375
904.0710, 10.90039
905.1970, 32.37500
906.3220, 98.33398
907.4470, 147.9824
908.5730, 177.6562
909.6980, 292.1094
910.8220, 213.5449
911.9470, 3.255859
913.0710, 124.5234
914.1960, 149.9375
915.3200, 242.3438
916.4440, 241.9883
917.5680, 301.6621
918.6910, 174.9902
919.8150, 141.4629
920.9380, 2.615234
922.0610, 6.972656
923.1840, 51.41211
924.3070, 293.0898
925.4300, 45.64844
926.5520, 320.8242
927.6750, 134.0762
928.7970, 224.1777
929.9190, 196.3770
931.0410, 148.1113
932.1630, 406.2402
933.2840, 157.3418
934.4060, 308.4062
935.5270, 150.0957
936.6480, 186.9766
937.7690, 395.8730
938.8900, 160.5918
940.0100, 77.29492
941.1310, 222.6699
942.2510, 316.3906
943.3710, 215.0859
944.4910, 354.6250
945.6110, 376.9844
946.7310, 281.2227
947.8500, 338.7969
948.9690, 285.9570
950.0890, 196.6250
951.2080, 268.8320
952.3260, 145.0859
953.4450, 222.5078
954.5640, 56.89453
955.6820, 234.2383
956.8000, 214.5547
957.9180, 342.2109
959.0360, 162.4609
960.1540, 257.5898
961.2710, 253.7695
962.3890, 52.07031
963.5060, 213.0117
964.6230, 47.06250
965.7400, 91.76953
966.8570, 207.4102
967.9730, 76.33984
969.0900, 164.6445
970.2060, 458.1992
971.3220, 130.0234
972.4380, 266.2734
973.5540, 201.6328
974.6700, 69.64844
975.7850, 214.4922
976.9010, 324.8828
978.0160, 312.4531
979.1310, 412.7617
980.2460, 402.0234
981.3600, 124.0938
982.4750, 305.6680
983.5890, 232.5195
984.7030, 9.523438
985.8170, 154.3086
986.9310, 493.6758
988.0450, 212.4531
989.1590, 253.9688
990.2720, 259.1523
991.3850, 119.7539
992.4980, 209.4336
993.6110, 97.58203
994.7240, 410.8047
995.8370, 363.5547
996.9490, 40.52734
998.0620, 495.5781
999.1740, 239.4766
1000.286, 262.1367
1001.398, 104.1133
1002.509, 277.9102
1003.621, 313.7344
1004.732, 243.0625
1005.843, 303.3008
1006.954, 31.42188
1008.065, 286.7109
1009.176, 82.43750
1010.286, 116.3359
1011.397, 205.1953
1012.507, 335.6641
1013.617, 320.0312
1014.727, 250.8438
1015.837, 270.2578
1016.946, 245.5117
1018.056, 92.91016
1019.165, 2.199219
1020.274, 255.2930
1021.383, 194.2734
1022.492, 59.66406
1023.601, 203.0273
1024.709, 21.92188
1025.817, 55.28516
1026.926, 355.6094
1028.034, 392.8477
1029.141, 159.4336
1030.249, 79.64453
1031.357, 213.1172
1032.464, 28.57812
1033.571, 272.6641
1034.678, 195.9414
1035.785, 115.7969
1036.892, 24.13672
1037.999, 112.4805
1039.105, 149.8242
1040.211, 293.4141
1041.317, 142.5703
1042.423, 26.05469
1043.529, 524.2109
1044.635, 444.3672
1045.740, 132.4453
1046.845, 409.0781
1047.951, 281.8750
1049.056, 160.6836
1050.160, 497.8438
1051.265, 617.0742
1052.370, 488.9141
1053.474, 885.5781
1054.578, 630.1562
1055.682, 667.1641
1056.786, 552.5234
1057.890, 985.7070
1058.993, 697.7070
1060.097, 1286.074
1061.200, 1538.805
1062.303, 1555.605
1063.406, 2458.320
1064.509, 4121.742
1065.612, 7202.547
1066.714, 12599.93
1067.816, 17509.73
1068.919, 22939.02
1070.021, 28052.43
1071.122, 27204.34
1072.224, 22254.82
1073.326, 16452.02
1074.427, 10899.48
1075.528, 6149.289
1076.629, 3346.648
1077.730, 2169.191
1078.831, 1687.070
1079.931, 1400.656
1081.032, 1835.109
1082.132, 2077.539
1083.232, 4360.641
1084.332, 6931.469
1085.432, 10712.80
1086.531, 15056.30
1087.631, 20460.95
1088.730, 26838.07
1089.829, 25803.68
1090.928, 21047.90
1092.027, 15823.19
1093.126, 10287.40
1094.224, 5456.848
1095.323, 2819.973
1096.421, 1518.785
1097.519, 705.7734
1098.617, 741.0195
1099.715, 451.7188
1100.812, 293.8477
1101.910, 456.3164
1103.007, 455.1953
1104.104, 321.5820
1105.201, 358.4258
1106.298, 422.9297
1107.394, 261.6055
1108.491, 234.1094
1109.587, 366.3672
1110.683, 170.0547
1111.779, 344.7656
1112.875, 187.3945
1113.971, 129.3828
1115.066, 75.95703
1116.162, 91.33984
1117.257, 130.3906
1118.352, 17.37891
1119.447, 274.8125
1120.542, 167.9805
1121.636, 604.2930
1122.731, 130.5977
1123.825, 453.3711
1124.919, 284.4102
1126.013, 154.9766
1127.107, 349.2266
1128.200, 484.7930
1129.294, 206.9258
1130.387, 237.6289
1131.480, 215.8516
1132.573, 200.1562
1133.666, 475.5586
1134.759, 217.6289
1135.851, 305.8320
1136.944, 93.04297
1138.036, 30.03125
1139.128, 100.2578
1140.220, 174.3359
1141.312, 362.4531
1142.403, 346.6875
1143.495, 398.6367
1144.586, 158.1445
1145.677, 270.9688
1146.768, 272.6875
1147.859, 54.54297
1148.950, 270.0039
1150.040, 24.92969
1151.130, 233.8281
1152.221, 9.621094
1153.311, 33.62109
1154.401, 100.1992
1155.490, 138.4609
1156.580, 181.6680
1157.669, 88.73047
1158.759, 31.17969
1159.848, 40.40234
1160.937, 56.32812
1162.025, 34.07422
1163.114, 14.13281
1164.202, 28.46875
1165.291, 169.8477
1166.379, 165.6172
1167.467, 21.03906
1168.555, 184.7773
1169.642, 68.57422
1170.730, 21.11719
1171.817, 166.1719
1172.905, 132.6367
1173.992, 9.148438
1175.078, 190.8203
1176.165, 82.76953
1177.252, 74.89453
1178.338, 241.9688
1179.425, 47.81641
1180.511, 219.1367
1181.597, 269.4961
1182.682, 90.50391
1183.768, 330.6133
1184.854, 183.4180
1185.939, 308.0898
1187.024, 125.7500
1188.109, 161.3867
1189.194, 10.99219
1190.279, 107.5977
1191.363, 121.1641
1192.448, 306.7070
1193.532, 169.2344
1194.616, 371.7461
1195.700, 5.234375
1196.784, 238.6953
1197.867, 191.1367
1198.951, 232.7148
1200.034, 225.1367
1201.117, 127.5938
1202.200, 129.7109
1203.283, 98.97656
1204.366, 186.5391
1205.448, 129.9258
1206.531, 206.2891
1207.613, 367.7188
1208.695, 87.05078
1209.777, 150.4688
1210.859, 340.7617
1211.940, 413.8633
1213.022, 351.1211
1214.103, 158.3633
1215.184, 29.41406
1216.265, 79.76953
1217.346, 90.92969
1218.427, 352.8750
1219.507, 22.05078
1220.587, 165.1758
1221.668, 30.26953
1222.748, 137.3438
1223.828, 22.60156
1224.907, 291.4180
1225.987, 276.4414
1227.066, 609.4531
1228.146, 168.4492
1229.225, 282.4375
1230.304, 316.4062
1231.382, 387.3594
1232.461, 209.3086
1233.540, 126.2383
1234.618, 146.1562
1235.696, 211.0547
1236.774, 254.0312
1237.852, 205.9336
1238.930, 20.76562
1240.007, 465.6367
1241.085, 136.1680
1242.162, 293.0078
1243.239, 279.5977
1244.316, 263.9258
1245.393, 305.0234
1246.469, 399.1797
1247.546, 368.8672
1248.622, 277.1758
1249.698, 365.9336
1250.774, 334.3711
1251.850, 328.1016
1252.926, 119.3672
1254.001, 237.0742
1255.077, 133.7695
1256.152, 247.1133
1257.227, 52.78906
1258.302, 285.3516
1259.377, 8.886719
1260.451, 83.52734
1261.526, 81.07812
1262.600, 317.5469
1263.674, 197.1484
1264.748, 90.67969
1265.822, 56.26172
1266.896, 198.2500
1267.969, 365.9336
1269.043, 88.96875
1270.116, 349.2969
1271.189, 290.8438
1272.262, 339.8672
1273.335, 524.3945
1274.407, 438.6406
1275.480, 257.1484
1276.552, 149.6523
1277.624, 171.9180
1278.696, 214.4727
1279.768, 194.9297
