##NAMES=Shortite
##RRUFFID=R040184
##IDEAL CHEMISTRY=Na_2_Ca_2_(CO_3_)_3_
##LOCALITY=Green River, Wyoming, USA
##OWNER=RRUFF
##SOURCE=University of Arizona Mineral Museum
##DESCRIPTION=Colorless single crystal fragments
##STATUS=The identification of this mineral has been confirmed by X-ray diffraction and chemical analysis
##URL=rruff.info/R040184
##MEASURED CHEMISTRY=(Na_1.47_Ca_0.27_[box]_0.26_)_Î£=2_Ca_2.00_(CO_3_)_3_
##PIN_ID=L00189
##ORIENTATION=Laser parallel to -a* (-1 0 0). Fiducial mark perpendicular to laser is parallel to b [0 1 0]
117.519, 0.000
118.915, 2.337
120.311, 52.905
121.706, 37.787
123.102, 205.810
124.497, 266.223
125.892, 399.932
127.286, 590.803
128.681, 828.611
130.075, 1385.497
131.469, 1921.447
132.862, 3127.589
134.256, 4520.991
135.649, 6253.684
137.042, 7554.677
138.435, 7806.330
139.827, 6855.824
141.219, 4629.060
142.611, 2723.563
144.003, 1551.475
145.394, 865.758
146.786, 576.383
148.177, 407.331
149.567, 315.574
150.958, 265.088
152.348, 201.850
153.738, 168.838
155.128, 141.034
156.517, 62.421
157.907, 7.012
159.296, 7.720
160.685, 38.401
162.073, 36.390
163.462, 19.258
164.850, 36.014
166.237, 60.375
167.625, 41.872
169.012, 85.468
170.400, 41.143
171.786, 80.959
173.173, 110.846
174.559, 116.791
175.946, 308.003
177.332, 522.272
178.717, 757.629
180.103, 1003.039
181.488, 1142.535
182.873, 1159.062
184.258, 956.664
185.642, 819.303
187.026, 810.971
188.410, 822.659
189.794, 1008.436
191.178, 1407.225
192.561, 1867.027
193.944, 2738.869
195.327, 3647.785
196.709, 4440.750
198.092, 4992.735
199.474, 4825.725
200.856, 4771.726
202.237, 4403.696
203.618, 4265.650
205.000, 3882.599
206.380, 3419.547
207.761, 2809.497
209.142, 2134.452
210.522, 1673.413
211.902, 1251.380
213.281, 966.742
214.661, 730.707
216.040, 605.679
217.419, 464.661
218.798, 338.634
220.176, 289.616
221.554, 242.605
222.932, 191.602
224.310, 205.819
225.688, 43.369
227.065, 144.319
228.442, 68.283
229.819, 121.258
231.196, 106.249
232.572, 102.110
233.948, 128.010
235.324, 56.922
236.700, 111.576
238.075, 138.467
239.450, 152.885
240.825, 226.371
242.200, 152.319
243.574, 294.302
244.948, 266.953
246.322, 366.898
247.696, 343.851
249.070, 468.175
250.443, 614.856
251.816, 725.798
253.189, 810.751
254.561, 985.005
255.933, 1166.343
257.306, 1399.315
258.677, 1765.296
260.049, 2391.957
261.420, 3167.922
262.791, 4249.899
264.162, 5510.017
265.533, 6581.999
266.903, 7056.983
268.274, 6542.298
269.643, 5544.562
271.013, 4257.966
272.383, 3029.926
273.752, 2157.270
275.121, 1614.137
276.490, 1206.098
277.858, 905.048
279.226, 803.005
280.595, 592.122
281.962, 527.929
283.330, 436.104
284.697, 343.995
286.064, 349.373
287.431, 189.898
288.798, 202.537
290.164, 202.262
291.530, 208.058
292.896, 171.913
294.262, 97.812
295.627, 136.742
296.993, 77.715
298.358, 89.763
299.722, 60.777
301.087, 20.817
302.451, 96.932
303.815, 38.009
305.179, 64.026
306.543, 59.622
307.906, 13.364
309.269, 73.669
310.632, 18.725
311.995, 79.800
313.357, 6.893
314.719, 8.997
316.081, 63.145
317.443, 61.287
318.804, 77.443
320.166, 30.610
321.527, 26.789
322.887, 38.802
324.248, 46.230
325.608, 5.068
326.968, 19.090
328.328, 22.784
329.688, 26.139
331.047, 5.909
332.406, 37.412
333.765, 4.650
335.124, 47.067
336.482, 34.315
337.840, 43.692
339.198, 27.947
340.556, 19.214
341.913, 26.483
343.271, 4.753
344.628, 70.024
345.984, 99.704
347.341, 31.541
348.697, 13.786
350.053, 42.031
351.409, 40.276
352.765, 19.414
354.120, 15.823
355.475, 9.100
356.830, 38.131
358.185, 29.421
359.539, 2.329
360.894, 7.895
362.248, 2.545
363.601, 26.673
364.955, 15.966
366.308, 5.744
367.661, 11.537
369.014, 4.310
370.367, 53.886
371.719, 28.079
373.071, 74.269
374.423, 43.456
375.775, 37.641
377.126, 6.842
378.478, 10.986
379.828, 35.178
381.179, 16.665
382.530, 29.490
383.880, 49.635
385.230, 16.143
386.580, 58.281
387.929, 3.405
389.279, 71.788
390.628, 54.902
391.977, 2.351
393.325, 22.457
394.674, 55.986
396.022, 29.331
397.370, 20.389
398.718, 42.520
400.065, 89.639
401.413, 18.661
402.760, 65.844
404.106, 52.629
405.453, 40.635
406.799, 57.627
408.146, 10.799
409.491, 48.831
410.837, 21.809
412.182, 33.803
413.528, 21.758
414.873, 68.784
416.217, 6.888
417.562, 22.800
418.906, 44.253
420.250, 24.825
421.594, 50.156
422.938, 53.134
424.281, 41.025
425.624, 27.946
426.967, 9.178
428.310, 29.830
429.652, 17.307
430.994, 74.465
432.336, 24.086
433.678, 30.941
435.020, 55.825
436.361, 34.529
437.702, 97.322
439.043, 69.155
440.383, 16.977
441.724, 127.037
443.064, 1.818
444.404, 123.642
445.743, 35.409
447.083, 40.214
448.422, 103.982
449.761, 50.751
451.100, 84.527
452.438, 90.423
453.777, 115.184
455.115, 133.072
456.453, 42.825
457.790, 37.574
459.128, 28.396
460.465, 86.135
461.802, 98.028
463.139, 30.755
464.475, 67.476
465.811, 53.218
467.147, 7.936
468.483, 92.881
469.819, 64.777
471.154, 125.614
472.489, 74.298
473.824, 54.975
475.159, 85.646
476.493, 41.703
477.827, 83.797
479.161, 57.451
480.495, 64.098
481.829, 123.018
483.162, 82.653
484.495, 22.371
485.828, 1.992
487.161, 131.718
488.493, 70.329
489.825, 98.098
491.157, 126.313
492.489, 30.609
493.820, 52.207
495.151, 24.950
496.482, 52.531
497.813, 28.208
499.144, 54.774
500.474, 64.806
501.804, 96.394
503.134, 123.939
504.464, 60.619
505.793, 86.151
507.123, 124.479
508.451, 68.092
509.780, 129.632
511.109, 98.133
512.437, 37.626
513.765, 91.859
515.093, 0.390
516.421, 64.151
517.748, 38.706
519.075, 48.162
520.402, 128.414
521.729, 7.958
523.055, 104.053
524.382, 35.518
525.708, 35.923
527.034, 110.711
528.359, 47.193
529.685, 72.028
531.010, 70.404
532.335, 74.774
533.659, 63.136
534.984, 66.490
536.308, 48.838
537.632, 85.102
538.956, 99.423
540.279, 104.749
541.603, 51.672
542.926, 76.984
544.249, 9.290
545.571, 112.584
546.894, 77.873
548.216, 13.909
549.538, 122.180
550.860, 10.444
552.181, 69.385
553.503, 6.631
554.824, 12.866
556.145, 68.091
557.465, 47.309
558.786, 8.660
560.106, 60.532
561.426, 17.718
562.746, 3.105
564.065, 61.057
565.385, 77.252
566.704, 16.414
568.023, 42.529
569.341, 64.680
570.660, 48.824
571.978, 57.966
573.296, 38.101
574.614, 19.244
575.931, 6.077
577.248, 9.897
578.565, 76.210
579.882, 35.049
581.199, 31.339
582.515, 51.424
583.831, 43.618
585.147, 91.739
586.463, 18.636
587.779, 136.770
589.094, 8.985
590.409, 6.812
591.724, 43.232
593.038, 35.283
594.353, 8.667
595.667, 121.360
596.981, 41.382
598.295, 43.397
599.608, 46.753
600.922, 107.809
602.235, 39.951
603.547, 80.910
604.860, 45.184
606.172, 61.129
607.485, 153.756
608.797, 51.688
610.108, 22.892
611.420, 126.000
612.731, 23.049
614.042, 62.057
615.353, 106.953
616.664, 35.828
617.974, 57.648
619.284, 16.522
620.594, 82.387
621.904, 74.194
623.213, 49.045
624.523, 53.889
625.832, 6.136
627.141, 53.989
628.449, 19.813
629.758, 87.629
631.066, 134.438
632.374, 121.255
633.681, 66.168
634.989, 18.060
636.296, 130.711
637.603, 61.644
638.910, 3.402
640.217, 67.285
641.523, 35.128
642.829, 82.633
644.135, 26.437
645.441, 69.156
646.747, 19.499
648.052, 42.205
649.357, 36.084
650.662, 98.693
651.967, 20.382
653.271, 138.927
654.575, 32.612
655.879, 115.207
657.183, 35.134
658.486, 48.495
659.790, 94.384
661.093, 22.062
662.396, 56.870
663.698, 85.469
665.001, 34.088
666.303, 49.727
667.605, 87.357
668.907, 76.981
670.209, 83.783
671.510, 45.445
672.811, 112.667
674.112, 36.382
675.413, 107.919
676.713, 17.511
678.013, 13.094
679.313, 154.345
680.613, 44.917
681.913, 78.402
683.212, 62.993
684.511, 49.724
685.810, 104.265
687.109, 75.146
688.407, 146.711
689.706, 171.277
691.004, 219.966
692.302, 392.607
693.599, 607.188
694.897, 798.939
696.194, 649.479
697.491, 318.105
698.788, 304.891
700.084, 74.410
701.380, 133.599
702.677, 143.343
703.972, 120.951
705.268, 227.177
706.564, 267.663
707.859, 628.802
709.154, 769.275
710.449, 711.315
711.743, 572.491
713.037, 219.944
714.332, 108.353
715.626, 63.677
716.919, 109.164
718.213, 72.435
719.506, 130.092
720.799, 53.532
722.092, 134.951
723.384, 42.604
724.677, 209.958
725.969, 138.356
727.261, 242.908
728.553, 469.292
729.844, 593.029
731.136, 692.243
732.427, 443.416
733.718, 165.657
735.008, 227.019
736.299, 17.611
737.589, 105.879
738.879, 37.222
740.169, 54.603
741.458, 31.936
742.748, 60.483
744.037, 160.967
745.326, 45.434
746.614, 99.089
747.903, 109.365
749.191, 69.605
750.479, 146.001
751.767, 79.341
753.055, 122.804
754.342, 117.040
755.629, 18.853
756.916, 118.393
758.203, 123.581
759.490, 1.968
760.776, 126.198
762.062, 4.583
763.348, 117.738
764.634, 3.927
765.919, 23.270
767.204, 35.451
768.489, 43.492
769.774, 98.834
771.059, 88.993
772.343, 110.064
773.627, 116.209
774.911, 73.187
776.195, 97.421
777.479, 125.546
778.762, 70.638
780.045, 64.743
781.328, 62.885
782.611, 95.142
783.893, 112.581
785.175, 116.515
786.457, 65.576
787.739, 41.123
789.021, 92.388
790.302, 130.014
791.583, 28.067
792.864, 148.372
794.145, 36.131
795.425, 44.162
796.706, 143.154
797.986, 86.172
799.266, 103.067
800.545, 20.792
801.825, 68.042
803.104, 25.962
804.383, 80.849
805.662, 126.817
806.940, 59.702
808.219, 65.657
809.497, 55.529
810.775, 68.472
812.053, 148.935
813.330, 2.844
814.608, 51.766
815.885, 18.833
817.162, 78.740
818.438, 145.642
819.715, 107.806
820.991, 85.663
822.267, 93.624
823.543, 12.500
824.818, 61.368
826.094, 16.698
827.369, 46.148
828.644, 104.092
829.919, 67.078
831.193, 105.734
832.468, 69.467
833.742, 86.555
835.016, 150.317
836.289, 54.271
837.563, 38.077
838.836, 85.895
840.109, 5.591
841.382, 201.427
842.654, 76.202
843.927, 44.971
845.199, 54.812
846.471, 61.564
847.743, 25.312
849.014, 77.130
850.286, 54.862
851.557, 14.597
852.828, 104.324
854.099, 68.044
855.369, 21.758
856.639, 52.465
857.909, 168.164
859.179, 208.933
860.449, 529.620
861.718, 1098.305
862.988, 1427.983
864.257, 1441.656
865.525, 683.432
866.794, 329.096
868.062, 206.754
869.331, 69.411
870.599, 112.062
871.866, 193.708
873.134, 39.648
874.401, 124.937
875.668, 14.456
876.935, 107.056
878.202, 85.645
879.468, 10.772
880.735, 209.795
882.001, 46.642
883.267, 147.887
884.532, 36.410
885.798, 97.126
887.063, 133.644
888.328, 7.157
889.593, 78.465
890.857, 101.964
892.122, 9.658
893.386, 115.774
894.650, 93.893
895.913, 40.479
897.177, 62.888
898.440, 10.810
899.703, 146.587
900.966, 76.980
902.229, 101.361
903.491, 65.748
904.754, 24.129
906.016, 107.506
907.278, 48.876
908.539, 85.667
909.801, 169.042
911.062, 40.411
912.323, 67.451
913.584, 118.808
914.844, 48.474
916.105, 98.821
917.365, 7.885
918.625, 107.033
919.885, 97.225
921.144, 33.447
922.404, 140.767
923.663, 98.082
924.922, 127.395
926.180, 100.701
927.439, 51.003
928.697, 160.300
929.955, 158.591
931.213, 146.877
932.471, 117.140
933.728, 35.390
934.985, 129.663
936.242, 58.931
937.499, 114.192
938.756, 119.434
940.012, 27.566
941.269, 165.811
942.525, 115.061
943.780, 13.136
945.036, 117.374
946.291, 138.474
947.546, 61.603
948.801, 174.830
950.056, 175.052
951.311, 43.270
952.565, 143.850
953.819, 100.055
955.073, 172.079
956.327, 75.277
957.580, 55.470
958.834, 132.622
960.087, 67.794
961.339, 106.918
962.592, 129.092
963.845, 70.273
965.097, 105.185
966.349, 2.296
967.601, 131.422
968.852, 106.585
970.104, 100.256
971.355, 175.843
972.606, 54.940
973.857, 94.031
975.107, 73.868
976.358, 43.905
977.608, 122.785
978.858, 25.970
980.108, 36.041
981.357, 74.083
982.607, 48.147
983.856, 8.193
985.105, 133.370
986.353, 66.569
987.602, 125.417
988.850, 60.275
990.098, 30.711
991.346, 60.063
992.594, 81.052
993.841, 150.143
995.089, 53.984
996.336, 77.884
997.583, 148.874
998.829, 17.358
1000.076, 90.610
1001.322, 150.953
1002.568, 128.683
1003.814, 185.676
1005.060, 91.620
1006.305, 125.374
1007.550, 161.341
1008.795, 57.326
1010.040, 214.308
1011.285, 91.558
1012.529, 91.551
1013.773, 174.589
1015.017, 49.773
1016.261, 176.779
1017.505, 168.960
1018.748, 155.956
1019.991, 249.937
1021.234, 153.250
1022.477, 136.244
1023.719, 163.341
1024.962, 227.527
1026.204, 184.080
1027.446, 138.229
1028.688, 218.198
1029.929, 132.373
1031.170, 135.708
1032.411, 224.231
1033.652, 200.384
1034.893, 23.160
1036.134, 227.109
1037.374, 155.528
1038.614, 214.165
1039.854, 213.140
1041.094, 121.192
1042.333, 263.039
1043.572, 196.366
1044.811, 285.416
1046.050, 332.193
1047.289, 286.467
1048.527, 490.386
1049.766, 475.846
1051.004, 466.766
1052.241, 547.843
1053.479, 318.028
1054.717, 414.167
1055.954, 399.074
1057.191, 418.180
1058.428, 640.186
1059.664, 710.163
1060.901, 846.169
1062.137, 1260.020
1063.373, 1603.173
1064.609, 2389.147
1065.844, 4672.031
1067.080, 10954.188
1068.315, 25676.059
1069.550, 31598.047
1070.785, 22709.734
1072.019, 10361.593
1073.254, 4293.875
1074.488, 2433.720
1075.722, 1706.558
1076.955, 1286.553
1078.189, 1336.377
1079.422, 1245.197
1080.656, 1448.152
1081.889, 1710.969
1083.121, 2034.069
1084.354, 3570.982
1085.586, 7322.712
1086.818, 25694.510
1088.050, 52646.297
1089.282, 48327.887
1090.514, 22940.447
1091.745, 8132.217
1092.976, 3184.105
1094.207, 1770.221
1095.438, 1309.968
1096.668, 606.189
1097.899, 600.013
1099.129, 414.735
1100.359, 507.593
1101.588, 414.308
1102.818, 260.149
1104.047, 399.872
1105.276, 180.563
1106.505, 258.689
1107.734, 298.364
1108.962, 137.004
1110.191, 226.041
1111.419, 202.688
1112.647, 152.974
1113.874, 159.896
1115.102, 43.218
1116.329, 184.846
1117.556, 197.839
1118.783, 156.068
1120.010, 231.367
1121.236, 175.866
1122.463, 151.909
1123.689, 206.152
1124.914, 17.578
1126.140, 26.566
1127.366, 185.325
1128.591, 79.724
1129.816, 199.287
1131.041, 136.716
1132.266, 52.772
1133.490, 216.854
1134.714, 22.790
1135.938, 120.439
1137.162, 174.170
1138.386, 58.992
1139.609, 274.957
1140.833, 54.522
1142.056, 98.286
1143.279, 325.950
1144.501, 71.806
1145.724, 253.450
1146.946, 195.129
1148.168, 47.353
1149.390, 203.112
1150.612, 106.559
1151.833, 166.066
1153.054, 220.649
1154.275, 77.131
1155.496, 200.025
1156.717, 114.003
1157.937, 34.297
1159.158, 186.103
1160.378, 93.745
1161.598, 58.146
1162.817, 159.978
1164.037, 69.597
1165.256, 190.806
1166.475, 110.845
1167.694, 40.295
1168.913, 176.938
1170.131, 87.590
1171.349, 68.786
1172.567, 157.338
1173.785, 14.265
1175.003, 141.869
1176.220, 24.485
1177.438, 29.560
1178.655, 234.008
1179.872, 76.865
1181.088, 132.908
1182.305, 183.097
1183.521, 10.450
1184.737, 185.444
1185.953, 115.270
1187.169, 96.233
1188.384, 244.339
1189.599, 36.378
1190.814, 16.295
1192.029, 129.533
1193.244, 32.815
1194.459, 102.704
1195.673, 9.739
1196.887, 162.614
1198.101, 99.453
1199.314, 61.346
1200.528, 30.191
1201.741, 263.169
1202.954, 61.689
1204.167, 115.436
1205.380, 121.762
1206.592, 77.606
1207.805, 224.425
1209.017, 81.897
1210.229, 96.553
1211.440, 248.394
1212.652, 11.722
1213.863, 245.330
1215.074, 119.036
1216.285, 162.050
1217.496, 202.605
1218.707, 44.608
1219.917, 213.125
1221.127, 206.625
1222.337, 85.646
1223.547, 254.107
1224.756, 166.080
1225.966, 121.076
1227.175, 219.787
1228.384, 44.945
1229.592, 128.958
1230.801, 211.300
1232.009, 186.861
1233.217, 206.164
1234.425, 185.705
1235.633, 3.805
1236.841, 308.045
1238.048, 66.276
1239.255, 72.476
1240.462, 267.662
1241.669, 30.835
1242.876, 138.212
1244.082, 174.355
1245.288, 96.231
1246.494, 219.349
1247.700, 130.454
1248.906, 157.890
1250.111, 221.966
1251.316, 40.027
1252.521, 195.072
1253.726, 198.103
1254.931, 75.117
1256.135, 297.115
1257.339, 15.094
1258.543, 98.053
1259.747, 331.984
1260.951, 164.741
1262.154, 75.640
1263.357, 213.521
1264.560, 11.386
1265.763, 214.661
1266.966, 57.449
1268.168, 16.300
1269.371, 272.093
1270.573, 66.556
1271.775, 84.496
1272.976, 201.149
1274.178, 5.745
1275.379, 285.566
1276.580, 12.106
1277.781, 19.122
1278.982, 369.544
1280.182, 16.973
1281.383, 106.812
1282.583, 118.242
1283.783, 46.568
1284.982, 161.836
1286.182, 112.099
1287.381, 60.569
1288.580, 85.890
1289.779, 134.059
1290.978, 104.735
1292.177, 160.282
1293.375, 106.022
1294.573, 167.261
1295.771, 150.464
1296.969, 12.482
1298.166, 151.771
1299.364, 50.679
1300.561, 23.655
1301.758, 188.605
1302.955, 64.741
1304.151, 99.143
1305.348, 153.933
1306.544, 83.460
1307.740, 95.718
1308.936, 271.266
1310.132, 22.033
1311.327, 127.139
1312.522, 77.471
1313.717, 72.096
1314.912, 180.642
1316.107, 92.012
1317.301, 127.561
1318.496, 183.914
1319.690, 65.421
1320.884, 218.507
1322.077, 98.592
1323.271, 21.971
1324.464, 231.697
1325.657, 107.075
1326.850, 111.432
1328.043, 223.218
1329.235, 15.454
1330.428, 220.622
1331.620, 155.684
1332.812, 43.157
1334.004, 279.510
1335.195, 1.067
1336.387, 104.065
1337.578, 249.622
1338.769, 44.572
1339.960, 188.789
1341.150, 223.935
1342.341, 4.617
1343.531, 183.110
1344.721, 146.542
1345.911, 26.303
1347.100, 251.023
1348.290, 50.757
1349.479, 161.358
1350.668, 163.259
1351.857, 24.106
1353.046, 327.233
1354.234, 149.269
1355.422, 34.814
1356.610, 259.777
1357.798, 167.689
1358.986, 90.063
1360.174, 304.699
1361.361, 84.432
1362.548, 259.437
1363.735, 207.152
1364.922, 66.559
1366.108, 361.684
1367.295, 69.050
1368.481, 20.712
1369.667, 122.372
1370.853, 26.554
1372.038, 41.238
1373.224, 204.232
1374.409, 0.312
1375.594, 238.373
1376.779, 135.433
1377.963, 20.845
1379.148, 319.173
1380.332, 248.719
1381.516, 222.975
1382.700, 311.614
1383.884, 199.952
1385.067, 148.624
1386.251, 427.411
1387.434, 36.290
1388.617, 364.624
1389.799, 263.078
1390.982, 121.202
1392.164, 449.695
1393.346, 228.036
1394.528, 376.009
1395.710, 604.211
1396.892, 382.146
1398.073, 779.850
1399.254, 1297.272
1400.435, 914.903
1401.616, 1070.435
1402.797, 647.678
1403.977, 405.146
1405.157, 513.027
1406.338, 314.434
1407.517, 101.994
1408.697, 330.066
1409.877, 177.883
1411.056, 182.946
1412.235, 429.294
1413.414, 89.847
1414.593, 427.373
1415.771, 205.882
1416.949, 119.845
1418.128, 476.535
1419.306, 93.453
1420.483, 140.141
1421.661, 286.979
1422.838, 94.023
1424.016, 207.591
1425.193, 344.083
1426.369, 69.676
1427.546, 327.540
1428.723, 198.805
1429.899, 133.582
1431.075, 424.475
1432.251, 61.656
1433.426, 87.088
1434.602, 362.728
1435.777, 11.113
1436.952, 145.559
1438.127, 317.965
1439.302, 113.422
1440.477, 280.158
1441.651, 236.301
1442.825, 202.363
1443.999, 318.245
1445.173, 174.104
1446.347, 195.564
1447.520, 329.588
1448.693, 63.872
1449.866, 239.972
1451.039, 304.900
1452.212, 41.415
1453.384, 387.894
1454.557, 273.845
1455.729, 148.592
1456.901, 464.060
1458.072, 340.182
1459.244, 236.227
1460.415, 402.201
1461.586, 198.116
1462.757, 294.014
1463.928, 449.844
1465.099, 54.672
1466.269, 450.464
1467.439, 346.315
1468.609, 155.356
1469.779, 550.549
1470.949, 245.394
1472.118, 370.691
1473.288, 795.387
1474.457, 396.760
1475.625, 742.158
1476.794, 757.143
1477.963, 320.093
1479.131, 421.730
1480.299, 366.721
1481.467, 71.288
1482.635, 346.584
1483.803, 341.840
1484.970, 117.232
1486.137, 431.007
1487.304, 64.274
1488.471, 109.508
1489.638, 454.429
1490.804, 19.596
1491.970, 204.696
1493.136, 359.729
1494.302, 57.605
1495.468, 197.598
1496.634, 213.189
1497.799, 48.827
1498.964, 395.243
1500.129, 111.848
1501.294, 88.891
1502.458, 484.128
1503.623, 90.803
1504.787, 265.964
1505.951, 492.829
1507.115, 336.311
1508.279, 857.148
1509.442, 1493.739
1510.605, 1565.260
1511.768, 1715.064
1512.931, 1055.354
1514.094, 439.009
1515.257, 544.274
1516.419, 322.075
1517.581, 143.415
1518.743, 329.962
1519.905, 2.139
1521.066, 0.000
##END=



