##NAMES=Shortite
##RRUFFID=R040184
##IDEAL CHEMISTRY=Na_2_Ca_2_(CO_3_)_3_
##LOCALITY=Green River, Wyoming, USA
##OWNER=RRUFF
##SOURCE=University of Arizona Mineral Museum
##DESCRIPTION=Colorless single crystal fragments
##STATUS=The identification of this mineral has been confirmed by X-ray diffraction and chemical analysis
##URL=rruff.info/R040184
##MEASURED CHEMISTRY=(Na_1.47_Ca_0.27_[box]_0.26_)_Î£=2_Ca_2.00_(CO_3_)_3_
##PIN_ID=L00388
##ORIENTATION=Laser parallel to -c* (0 0 -1). Fiducial mark perpendicular to laser is parallel to a [1 0 0]
116.123, 0.000
117.519, 132.031
118.915, 36.322
120.311, 119.548
121.706, 9.146
123.102, 57.391
124.497, 6.506
125.892, 62.711
127.286, 88.642
128.681, 41.019
130.075, 217.627
131.469, 112.293
132.862, 403.879
134.256, 487.269
135.649, 781.368
137.042, 1018.096
138.435, 1216.385
139.827, 1257.183
141.219, 875.440
142.611, 658.115
144.003, 450.169
145.394, 410.571
146.786, 469.293
148.177, 438.306
149.567, 767.587
150.958, 707.113
152.348, 1133.863
153.738, 1234.821
155.128, 1414.980
156.517, 1269.330
157.907, 1149.852
159.296, 955.527
160.685, 761.336
162.073, 776.350
163.462, 731.510
164.850, 803.795
166.237, 850.173
167.625, 1058.664
169.012, 1485.263
170.400, 1684.976
171.786, 1832.755
173.173, 1589.661
174.559, 1037.632
175.946, 826.721
177.332, 543.892
178.717, 474.089
180.103, 372.341
181.488, 423.707
182.873, 343.094
184.258, 389.525
185.642, 445.986
187.026, 309.452
188.410, 499.006
189.794, 465.619
191.178, 712.331
192.561, 718.161
193.944, 1036.039
195.327, 1417.989
196.709, 1742.951
198.092, 2319.912
199.474, 3022.840
200.856, 3632.739
202.237, 4138.608
203.618, 4190.441
205.000, 3900.246
206.380, 2929.100
207.761, 2236.682
209.142, 1474.425
210.522, 1092.155
211.902, 840.656
213.281, 595.853
214.661, 424.558
216.040, 312.522
217.419, 358.315
218.798, 213.221
220.176, 217.862
221.554, 199.448
222.932, 110.538
224.310, 265.250
225.688, 103.222
227.065, 257.503
228.442, 148.868
229.819, 263.594
231.196, 287.388
232.572, 229.951
233.948, 381.560
235.324, 301.238
236.700, 376.774
238.075, 349.302
239.450, 412.183
240.825, 417.788
242.200, 348.367
243.574, 516.065
244.948, 342.470
246.322, 511.875
247.696, 449.273
249.070, 501.205
250.443, 675.053
251.816, 652.883
253.189, 992.701
254.561, 1049.310
255.933, 1356.736
257.306, 1812.397
258.677, 2245.733
260.049, 3276.038
261.420, 3862.263
262.791, 4747.581
264.162, 5270.407
265.533, 5177.070
266.903, 4587.499
268.274, 3467.245
269.643, 2698.471
271.013, 1836.835
272.383, 1347.221
273.752, 961.068
275.121, 744.346
276.490, 709.781
277.858, 427.158
279.226, 389.266
280.595, 272.177
281.962, 284.921
283.330, 219.641
284.697, 183.055
286.064, 269.826
287.431, 74.945
288.798, 195.038
290.164, 134.897
291.530, 128.734
292.896, 198.913
294.262, 21.141
295.627, 138.341
296.993, 39.534
298.358, 92.759
299.722, 29.196
301.087, 17.311
302.451, 163.693
303.815, 69.853
305.179, 49.210
306.543, 15.129
307.906, 9.923
309.269, 66.804
310.632, 16.031
311.995, 100.623
313.357, 4.108
314.719, 41.420
316.081, 72.009
317.443, 7.267
318.804, 106.285
320.166, 30.454
321.527, 93.800
322.887, 65.270
324.248, 14.477
325.608, 100.692
326.968, 15.064
328.328, 3.510
329.688, 77.854
331.047, 39.078
332.406, 28.373
333.765, 22.583
335.124, 127.211
336.482, 4.966
337.840, 127.349
339.198, 28.034
340.556, 42.123
341.913, 93.677
343.271, 31.813
344.628, 121.941
345.984, 18.447
347.341, 183.649
348.697, 83.236
350.053, 78.308
351.409, 187.375
352.765, 53.098
354.120, 120.924
355.475, 92.238
356.830, 95.234
358.185, 130.216
359.539, 8.347
360.894, 141.296
362.248, 57.375
363.601, 189.293
364.955, 63.597
366.308, 89.880
367.661, 152.752
369.014, 29.078
370.367, 7.748
371.719, 20.165
373.071, 105.606
374.423, 130.361
375.775, 103.480
377.126, 115.198
378.478, 6.685
379.828, 124.152
381.179, 62.813
382.530, 28.861
383.880, 158.479
385.230, 4.470
386.580, 113.097
387.929, 13.689
389.279, 38.549
390.628, 101.059
391.977, 87.623
393.325, 92.086
394.674, 27.699
396.022, 130.555
397.370, 7.957
398.718, 54.735
400.065, 142.077
401.413, 79.283
402.760, 136.188
404.106, 99.451
405.453, 78.097
406.799, 138.311
408.146, 18.016
409.491, 246.145
410.837, 69.712
412.182, 53.797
413.528, 90.872
414.873, 58.202
416.217, 146.235
417.562, 91.753
418.906, 141.694
420.250, 61.640
421.594, 32.562
422.938, 152.436
424.281, 43.654
425.624, 179.650
426.967, 5.557
428.310, 127.438
429.652, 109.162
430.994, 52.156
432.336, 129.041
433.678, 14.323
435.020, 163.660
436.361, 33.226
437.702, 65.771
439.043, 230.288
440.383, 109.786
441.724, 263.206
443.064, 97.674
444.404, 11.125
445.743, 123.843
447.083, 11.253
448.422, 108.451
449.761, 53.821
451.100, 128.171
452.438, 182.504
453.777, 82.821
455.115, 171.461
456.453, 23.833
457.790, 128.636
459.128, 94.298
460.465, 67.490
461.802, 197.146
463.139, 94.312
464.475, 170.789
465.811, 110.916
467.147, 49.021
468.483, 201.824
469.819, 44.605
471.154, 255.971
472.489, 70.991
473.824, 149.995
475.159, 90.275
476.493, 77.260
477.827, 259.776
479.161, 31.645
480.495, 159.564
481.829, 175.075
483.162, 106.952
484.495, 170.345
485.828, 78.401
487.161, 319.352
488.493, 78.462
489.825, 133.026
491.157, 201.102
492.489, 1.240
493.820, 227.322
495.151, 60.167
496.482, 38.771
497.813, 131.465
499.144, 57.019
500.474, 203.723
501.804, 64.600
503.134, 207.084
504.464, 173.960
505.793, 49.400
507.123, 329.453
508.451, 48.273
509.780, 265.642
511.109, 209.388
512.437, 52.715
513.765, 292.361
515.093, 89.010
516.421, 164.286
517.748, 165.012
519.075, 123.245
520.402, 277.187
521.729, 128.532
523.055, 345.623
524.382, 68.155
525.708, 69.217
527.034, 310.315
528.359, 89.474
529.685, 183.043
531.010, 92.959
532.335, 281.009
533.659, 234.011
534.984, 69.992
536.308, 214.948
537.632, 62.886
538.956, 123.554
540.279, 221.444
541.603, 63.190
542.926, 182.764
544.249, 53.589
545.571, 306.169
546.894, 151.948
548.216, 83.295
549.538, 251.776
550.860, 13.505
552.181, 252.132
553.503, 122.752
554.824, 58.078
556.145, 183.700
557.465, 62.600
558.786, 179.957
560.106, 87.514
561.426, 111.878
562.746, 165.391
564.065, 61.832
565.385, 297.158
566.704, 40.607
568.023, 194.711
569.341, 204.127
570.660, 52.831
571.978, 206.939
573.296, 85.180
574.614, 151.335
575.931, 185.676
577.248, 21.160
578.565, 162.119
579.882, 152.117
581.199, 171.167
582.515, 133.389
583.831, 27.608
585.147, 295.788
586.463, 19.942
587.779, 167.628
589.094, 64.641
590.409, 86.391
591.724, 200.440
593.038, 71.052
594.353, 286.465
595.667, 159.883
596.981, 184.787
598.295, 205.715
599.608, 16.507
600.922, 282.565
602.235, 183.229
603.547, 68.850
604.860, 236.579
606.172, 30.905
607.485, 267.984
608.797, 156.326
610.108, 148.056
611.420, 313.880
612.731, 55.284
614.042, 281.205
615.353, 77.366
616.664, 178.902
617.974, 207.532
619.284, 17.789
620.594, 392.974
621.904, 57.303
623.213, 271.154
624.523, 212.541
625.832, 94.594
627.141, 373.398
628.449, 61.376
629.758, 186.845
631.066, 268.095
632.374, 25.503
633.681, 322.076
634.989, 11.139
636.296, 284.516
637.603, 172.686
638.910, 204.035
640.217, 307.581
641.523, 12.686
642.829, 233.984
644.135, 267.349
645.441, 106.616
646.747, 318.487
648.052, 46.611
649.357, 295.829
650.662, 276.077
651.967, 55.264
653.271, 488.032
654.575, 14.555
655.879, 391.561
657.183, 172.281
658.486, 35.392
659.790, 321.425
661.093, 11.500
662.396, 215.587
663.698, 227.629
665.001, 33.692
666.303, 313.253
667.605, 10.364
668.907, 262.673
670.209, 294.784
671.510, 54.805
672.811, 339.510
674.112, 25.762
675.413, 287.735
676.713, 195.802
678.013, 100.744
679.313, 268.536
680.613, 45.808
681.913, 283.310
683.212, 254.915
684.511, 117.785
685.810, 277.336
687.109, 89.556
688.407, 256.108
689.706, 265.152
691.004, 273.978
692.302, 866.403
693.599, 981.691
694.897, 1576.055
696.194, 1310.668
697.491, 665.497
698.788, 679.825
700.084, 146.683
701.380, 379.940
702.677, 253.650
703.972, 169.514
705.268, 532.866
706.564, 135.094
707.859, 591.665
709.154, 1046.305
710.449, 1401.324
711.743, 1495.498
713.037, 1030.096
714.332, 1474.267
715.626, 1948.841
716.919, 1483.087
718.213, 1057.469
719.506, 452.027
720.799, 342.412
722.092, 340.944
723.384, 4.730
724.677, 511.773
725.969, 174.454
727.261, 256.678
728.553, 355.166
729.844, 130.683
731.136, 330.143
732.427, 142.592
733.718, 206.573
735.008, 491.025
736.299, 87.636
737.589, 410.062
738.879, 75.420
740.169, 178.353
741.458, 252.754
742.748, 29.341
744.037, 509.720
745.326, 143.765
746.614, 278.090
747.903, 232.431
749.191, 6.376
750.479, 355.696
751.767, 70.007
753.055, 294.366
754.342, 358.650
755.629, 9.020
756.916, 365.257
758.203, 119.494
759.490, 173.437
760.776, 287.653
762.062, 59.050
763.348, 403.469
764.634, 107.655
765.919, 102.155
767.204, 456.316
768.489, 70.123
769.774, 254.636
771.059, 228.537
772.343, 73.187
773.627, 347.301
774.911, 49.080
776.195, 245.809
777.479, 59.526
778.762, 123.562
780.045, 397.588
781.328, 28.571
782.611, 245.896
783.893, 189.552
785.175, 93.513
786.457, 437.708
787.739, 78.820
789.021, 395.624
790.302, 178.938
791.583, 17.202
792.864, 368.477
794.145, 82.304
795.425, 146.116
796.706, 139.379
797.986, 153.171
799.266, 337.004
800.545, 39.316
801.825, 214.446
803.104, 267.819
804.383, 101.561
805.662, 325.779
806.940, 40.828
808.219, 182.862
809.497, 266.622
810.775, 120.295
812.053, 363.959
813.330, 47.447
814.608, 201.091
815.885, 261.935
817.162, 25.566
818.438, 519.186
819.715, 197.050
820.991, 60.648
822.267, 407.227
823.543, 59.200
824.818, 354.323
826.094, 329.290
827.369, 82.794
828.644, 426.091
829.919, 79.570
831.193, 403.042
832.468, 218.512
833.742, 61.965
835.016, 465.021
836.289, 118.755
837.563, 292.177
838.836, 277.541
840.109, 38.781
841.382, 424.515
842.654, 98.338
843.927, 191.678
845.199, 375.251
846.471, 28.569
847.743, 291.877
849.014, 165.730
850.286, 129.019
851.557, 402.316
852.828, 115.605
854.099, 428.885
855.369, 233.653
856.639, 96.911
857.909, 480.185
859.179, 13.558
860.449, 406.793
861.718, 340.132
862.988, 13.367
864.257, 536.587
865.525, 160.290
866.794, 253.492
868.062, 236.693
869.331, 159.883
870.599, 463.064
871.866, 206.395
873.134, 89.561
874.401, 422.717
875.668, 24.136
876.935, 577.898
878.202, 101.469
879.468, 114.573
880.735, 497.669
882.001, 88.895
883.267, 464.078
884.532, 207.094
885.798, 240.181
887.063, 493.187
888.328, 106.354
889.593, 399.140
890.857, 292.138
892.122, 214.854
893.386, 607.833
894.650, 40.807
895.913, 263.321
897.177, 496.284
898.440, 99.293
899.703, 612.241
900.966, 175.181
902.229, 287.599
903.491, 450.541
904.754, 133.211
906.016, 466.140
907.278, 189.058
908.539, 140.783
909.801, 573.696
911.062, 146.545
912.323, 329.443
913.584, 432.332
914.844, 94.924
916.105, 547.805
917.365, 70.578
918.625, 243.320
919.885, 316.173
921.144, 58.761
922.404, 611.592
923.663, 24.412
924.922, 246.983
926.180, 489.785
927.439, 1.018
928.697, 431.764
929.955, 324.238
931.213, 146.970
932.471, 529.725
933.728, 30.169
934.985, 552.903
936.242, 315.631
937.499, 88.190
938.756, 490.897
940.012, 8.159
941.269, 260.845
942.525, 453.529
943.780, 25.365
945.036, 497.287
946.291, 219.724
947.546, 252.357
948.801, 484.989
950.056, 137.611
951.311, 430.224
952.565, 379.875
953.819, 162.473
955.073, 655.064
956.327, 27.522
957.580, 410.094
958.834, 339.633
960.087, 2.190
961.339, 375.117
962.592, 217.612
963.845, 80.145
965.097, 432.772
966.349, 124.708
967.601, 400.175
968.852, 232.146
970.104, 75.424
971.355, 456.957
972.606, 71.001
973.857, 271.334
975.107, 169.095
976.358, 28.585
977.608, 444.239
978.858, 76.271
980.108, 148.551
981.357, 431.742
982.607, 35.986
983.856, 217.071
985.105, 239.141
986.353, 71.373
987.602, 343.957
988.850, 33.827
990.098, 78.363
991.346, 107.741
992.594, 29.919
993.841, 481.881
995.089, 84.050
996.336, 186.229
997.583, 378.888
998.829, 11.049
1000.076, 533.194
1001.322, 480.162
1002.568, 262.298
1003.814, 604.805
1005.060, 23.080
1006.305, 249.028
1007.550, 397.283
1008.795, 129.375
1010.040, 550.896
1011.285, 133.941
1012.529, 276.007
1013.773, 537.501
1015.017, 39.544
1016.261, 621.634
1017.505, 275.551
1018.748, 347.617
1019.991, 649.679
1021.234, 122.707
1022.477, 504.748
1023.719, 477.184
1024.962, 219.203
1026.204, 718.916
1027.446, 53.065
1028.688, 424.864
1029.929, 556.913
1031.170, 79.257
1032.411, 564.898
1033.652, 367.645
1034.893, 139.583
1036.134, 601.514
1037.374, 129.243
1038.614, 480.977
1039.854, 572.889
1041.094, 314.972
1042.333, 706.859
1043.572, 299.958
1044.811, 462.161
1046.050, 684.023
1047.289, 157.195
1048.527, 868.827
1049.766, 651.243
1051.004, 433.233
1052.241, 1055.084
1053.479, 328.457
1054.717, 660.246
1055.954, 782.084
1057.191, 525.459
1058.428, 797.249
1059.664, 839.072
1060.901, 861.666
1062.137, 1293.459
1063.373, 1165.734
1064.609, 1957.310
1065.844, 2959.096
1067.080, 5111.317
1068.315, 13833.080
1069.550, 24054.828
1070.785, 23856.182
1072.019, 12867.905
1073.254, 4950.261
1074.488, 3001.978
1075.722, 2043.678
1076.955, 1345.830
1078.189, 1677.518
1079.422, 1219.192
1080.656, 1641.326
1081.889, 2012.975
1083.121, 1894.637
1084.354, 3396.286
1085.586, 5697.919
1086.818, 17059.836
1088.050, 46351.484
1089.282, 50942.570
1090.514, 27865.326
1091.745, 10176.953
1092.976, 3967.527
1094.207, 2569.127
1095.438, 1430.709
1096.668, 1133.274
1097.899, 1254.823
1099.129, 346.329
1100.359, 938.556
1101.588, 690.086
1102.818, 272.062
1104.047, 913.560
1105.276, 294.557
1106.505, 637.141
1107.734, 718.596
1108.962, 119.442
1110.191, 591.981
1111.419, 263.387
1112.647, 105.113
1113.874, 617.198
1115.102, 39.159
1116.329, 412.938
1117.556, 474.486
1118.783, 281.104
1120.010, 663.577
1121.236, 270.450
1122.463, 281.852
1123.689, 683.771
1124.914, 83.200
1126.140, 405.274
1127.366, 626.188
1128.591, 12.644
1129.816, 750.704
1131.041, 19.657
1132.266, 170.747
1133.490, 613.736
1134.714, 104.481
1135.938, 406.674
1137.162, 565.984
1138.386, 86.688
1139.609, 749.969
1140.833, 240.452
1142.056, 221.385
1143.279, 750.251
1144.501, 1.141
1145.724, 702.584
1146.946, 532.866
1148.168, 76.320
1149.390, 796.524
1150.612, 117.251
1151.833, 387.951
1153.054, 711.158
1154.275, 98.190
1155.496, 743.494
1156.717, 384.479
1157.937, 15.003
1159.158, 717.018
1160.378, 277.483
1161.598, 377.925
1162.817, 652.474
1164.037, 17.101
1165.256, 733.244
1166.475, 395.259
1167.694, 35.550
1168.913, 696.527
1170.131, 117.444
1171.349, 317.640
1172.567, 538.749
1173.785, 21.102
1175.003, 698.544
1176.220, 231.410
1177.438, 191.451
1178.655, 741.119
1179.872, 91.786
1181.088, 421.759
1182.305, 662.741
1183.521, 77.347
1184.737, 572.336
1185.953, 326.444
1187.169, 246.215
1188.384, 575.951
1189.599, 17.557
1190.814, 107.224
1192.029, 448.218
1193.244, 7.987
1194.459, 477.493
1195.673, 180.091
1196.887, 279.577
1198.101, 699.032
1199.314, 5.157
1200.528, 324.530
1201.741, 884.143
1202.954, 4.417
1204.167, 783.677
1205.380, 537.404
1206.592, 136.682
1207.805, 955.848
1209.017, 223.121
1210.229, 462.215
1211.440, 752.096
1212.652, 152.406
1213.863, 811.396
1215.074, 460.582
1216.285, 380.471
1217.496, 889.354
1218.707, 74.787
1219.917, 603.592
1221.127, 662.359
1222.337, 62.348
1223.547, 951.033
1224.756, 410.105
1225.966, 240.686
1227.175, 939.254
1228.384, 243.264
1229.592, 472.176
1230.801, 890.625
1232.009, 249.746
1233.217, 668.117
1234.425, 626.443
1235.633, 107.695
1236.841, 1075.961
1238.048, 184.207
1239.255, 392.818
1240.462, 891.012
1241.669, 139.869
1242.876, 628.004
1244.082, 736.109
1245.288, 219.748
1246.494, 967.795
1247.700, 275.809
1248.906, 514.762
1250.111, 882.713
1251.316, 120.908
1252.521, 708.797
1253.726, 596.656
1254.931, 126.672
1256.135, 1044.461
1257.339, 252.217
1258.543, 237.037
1259.747, 1094.711
1260.951, 219.951
1262.154, 348.133
1263.357, 715.703
1264.560, 123.258
1265.763, 741.314
1266.966, 368.801
1268.168, 248.088
1269.371, 935.492
1270.573, 202.348
1271.775, 649.994
1272.976, 867.221
1274.178, 33.221
1275.379, 1180.369
1276.580, 466.674
1277.781, 53.559
1278.982, 1130.594
1280.182, 137.115
1281.383, 334.072
1282.583, 680.979
1283.783, 27.293
1284.982, 705.533
1286.182, 422.314
1287.381, 71.035
1288.580, 816.213
1289.779, 281.742
1290.978, 438.215
1292.177, 754.623
1293.375, 46.094
1294.573, 473.367
1295.771, 619.074
1296.969, 4.742
1298.166, 691.523
1299.364, 151.199
1300.561, 287.195
1301.758, 1043.152
1302.955, 88.080
1304.151, 443.992
1305.348, 679.676
1306.544, 174.678
1307.740, 410.844
1308.936, 714.484
1310.132, 79.918
1311.327, 775.479
1312.522, 209.791
1313.717, 255.031
1314.912, 759.633
1316.107, 194.779
1317.301, 469.850
1318.496, 492.652
1319.690, 17.557
1320.884, 752.357
1322.077, 416.775
1323.271, 261.490
1324.464, 735.746
1325.657, 150.355
1326.850, 444.914
1328.043, 603.656
1329.235, 11.885
1330.428, 572.500
1331.620, 506.633
1332.812, 60.896
1334.004, 714.494
1335.195, 117.857
1336.387, 371.930
1337.578, 764.625
1338.769, 151.404
1339.960, 631.916
1341.150, 576.348
1342.341, 49.893
1343.531, 882.281
1344.721, 346.029
1345.911, 179.607
1347.100, 781.588
1348.290, 14.932
1349.479, 388.482
1350.668, 565.207
1351.857, 71.473
1353.046, 841.305
1354.234, 216.105
1355.422, 129.262
1356.610, 881.586
1357.798, 354.643
1358.986, 177.662
1360.174, 1100.617
1361.361, 46.467
1362.548, 725.242
1363.735, 698.068
1364.922, 130.662
1366.108, 1111.836
1367.295, 304.490
1368.481, 56.812
1369.667, 818.584
1370.853, 28.943
1372.038, 302.645
1373.224, 894.625
1374.409, 111.990
1375.594, 779.248
1376.779, 619.389
1377.963, 14.082
1379.148, 889.018
1380.332, 604.715
1381.516, 309.330
1382.700, 914.176
1383.884, 239.180
1385.067, 534.615
1386.251, 1068.797
1387.434, 27.092
1388.617, 907.508
1389.799, 601.883
1390.982, 175.883
1392.164, 1209.582
1393.346, 344.377
1394.528, 418.518
1395.710, 1302.369
1396.892, 34.598
1398.073, 649.332
1399.254, 991.744
1400.435, 55.441
1401.616, 856.145
1402.797, 630.619
1403.977, 264.885
1405.157, 1098.436
1406.338, 500.033
1407.517, 274.232
1408.697, 1353.182
1409.877, 75.146
1411.056, 707.084
1412.235, 1281.094
1413.414, 295.270
1414.593, 1526.682
1415.771, 1679.137
1416.949, 1521.801
1418.128, 3284.047
1419.306, 2333.605
1420.483, 1777.070
1421.661, 1829.551
1422.838, 791.293
1424.016, 1058.252
1425.193, 1141.582
1426.369, 101.955
1427.546, 1122.814
1428.723, 655.340
1429.899, 208.266
1431.075, 1250.273
1432.251, 370.980
1433.426, 446.168
1434.602, 1268.582
1435.777, 117.098
1436.952, 765.703
1438.127, 1067.484
1439.302, 307.898
1440.477, 1127.996
1441.651, 597.574
1442.825, 328.645
1443.999, 1496.711
1445.173, 297.006
1446.347, 697.410
1447.520, 1198.598
1448.693, 443.666
1449.866, 753.691
1451.039, 1192.912
1452.212, 253.410
1453.384, 1161.566
1454.557, 729.369
1455.729, 268.525
1456.901, 1248.105
1458.072, 541.451
1459.244, 312.361
1460.415, 1450.992
1461.586, 218.146
1462.757, 825.152
1463.928, 1058.568
1465.099, 156.514
1466.269, 1163.625
1467.439, 761.549
1468.609, 229.289
1469.779, 1346.797
1470.949, 284.137
1472.118, 566.885
1473.288, 1363.959
1474.457, 79.002
1475.625, 686.125
1476.794, 1119.777
1477.963, 226.805
1479.131, 943.262
1480.299, 860.129
1481.467, 46.623
1482.635, 1004.094
1483.803, 671.535
1484.970, 178.039
1486.137, 1335.543
1487.304, 222.654
1488.471, 550.477
1489.638, 1297.814
1490.804, 53.908
1491.970, 792.381
1493.136, 1220.457
1494.302, 11.131
1495.468, 977.625
1496.634, 862.434
1497.799, 261.617
1498.964, 1091.076
1500.129, 384.650
1501.294, 223.236
1502.458, 1443.105
1503.623, 213.289
1504.787, 406.693
1505.951, 912.605
1507.115, 105.738
1508.279, 597.295
1509.442, 887.090
1510.605, 82.871
1511.768, 1155.246
1512.931, 730.334
1514.094, 1.916
1515.257, 1134.023
1516.419, 0.000
##END=



