##NAMES=Shortite
##RRUFFID=R050248
##IDEAL CHEMISTRY=Na_2_Ca_2_(CO_3_)_3_
##LOCALITY=Stauffer mine, Green River, Wyoming, USA
##OWNER=RRUFF
##SOURCE=Marcus Origlieri
##DESCRIPTION=Colorless wedge-shaped single crystal
##STATUS=The identification of this mineral has been confirmed by X-ray diffraction and chemical analysis
##URL=rruff.info/R050248
##MEASURED CHEMISTRY=Na_2.00_Ca_2.00_(CO_3_)_3_ ; CO2 not measured but estimated by difference and stoichiometry.
##PIN_ID=L00721
##ORIENTATION=Laser parallel to b* (0 1 0). Fiducial mark perpendicular to laser is parallel to -c [0 0 -1]
108.2800, 0.0000000E+00
109.5120, 131.4067
110.7440, 128.4160
111.9760, 1.404297
113.2080, 92.58252
114.4400, 57.12744
115.6710, 5.331055
116.9030, 71.81592
118.1340, 11.28613
119.3650, 27.86426
120.5960, 100.3828
121.8270, 87.71191
123.0580, 191.7495
124.2880, 198.4121
125.5190, 151.6309
126.7490, 148.3457
127.9790, 177.5063
129.2090, 240.0659
130.4390, 267.9844
131.6680, 360.2271
132.8980, 306.7686
134.1270, 367.5884
135.3560, 582.6719
136.5850, 582.0005
137.8140, 565.5601
139.0430, 813.3335
140.2710, 626.3066
141.5000, 591.4639
142.7280, 449.7905
143.9560, 369.2754
145.1840, 419.9082
146.4120, 348.6748
147.6390, 246.5625
148.8670, 306.5605
150.0940, 322.6611
151.3210, 186.8569
152.5490, 321.1416
153.7750, 241.5107
155.0020, 319.9600
156.2290, 251.5400
157.4550, 298.2432
158.6810, 300.0088
159.9080, 236.8623
161.1340, 280.9102
162.3590, 421.0059
163.5850, 374.1626
164.8110, 434.4199
166.0360, 401.7588
167.2610, 539.1479
168.4860, 562.5713
169.7110, 440.0767
170.9360, 473.6611
172.1610, 384.2739
173.3850, 337.9165
174.6100, 324.5889
175.8340, 244.2900
177.0580, 255.0298
178.2820, 208.8076
179.5050, 228.6118
180.7290, 318.4463
181.9520, 114.3008
183.1760, 181.1475
184.3990, 221.9893
185.6220, 140.8242
186.8450, 315.6592
188.0670, 182.4990
189.2900, 293.3457
190.5120, 376.2012
191.7340, 399.0713
192.9560, 460.9531
194.1780, 516.8516
195.4000, 528.7656
196.6220, 721.6963
197.8430, 811.6455
199.0640, 846.6123
200.2860, 677.6055
201.5070, 724.6250
202.7270, 614.6641
203.9480, 671.8330
205.1690, 684.8555
206.3890, 642.9082
207.6090, 409.9805
208.8290, 454.0732
210.0490, 264.1846
211.2690, 241.4395
212.4890, 368.2764
213.7080, 428.3682
214.9280, 213.4785
216.1470, 324.6445
217.3660, 225.8330
218.5850, 162.2383
219.8030, 204.4121
221.0220, 234.4873
222.2400, 175.6797
223.4590, 232.8906
224.6770, 128.7812
225.8950, 120.0225
227.1120, 34.28027
228.3300, 188.5586
229.5480, 118.8711
230.7650, 162.9365
231.9820, 247.2344
233.1990, 227.5479
234.4160, 161.9053
235.6330, 310.3086
236.8490, 246.7305
238.0660, 415.1650
239.2820, 262.6123
240.4980, 300.0762
241.7140, 276.5557
242.9300, 335.0479
244.1460, 294.5586
245.3610, 220.1328
246.5770, 264.6680
247.7920, 159.2129
249.0070, 274.7695
250.2220, 308.3369
251.4370, 342.0039
252.6510, 373.5918
253.8660, 314.4951
255.0800, 476.8770
256.2940, 593.3428
257.5080, 548.9814
258.7220, 403.3975
259.9360, 472.1064
261.1490, 477.8984
262.3630, 397.6904
263.5760, 374.6240
264.7890, 453.6182
266.0020, 370.6670
267.2150, 359.7676
268.4270, 280.9268
269.6400, 256.6895
270.8520, 285.3721
272.0640, 227.6533
273.2760, 190.9717
274.4880, 229.3223
275.7000, 379.7051
276.9120, 300.1172
278.1230, 303.5576
279.3340, 291.0264
280.5450, 92.52051
281.7560, 125.0391
282.9670, 192.5811
284.1780, 336.1455
285.3880, 151.7305
286.5980, 221.3359
287.8090, 168.9609
289.0190, 146.6055
290.2290, 173.2676
291.4380, 145.0176
292.6480, 107.7129
293.8570, 9.424805
295.0670, 131.1514
296.2760, 164.8926
297.4850, 72.35156
298.6930, 106.4082
299.9020, 102.1816
301.1110, 111.9688
302.3190, 182.3975
303.5270, 56.20898
304.7350, 131.0322
305.9430, 127.8672
307.1510, 176.7305
308.3580, 77.60547
309.5660, 57.49316
310.7730, 34.39160
311.9800, 44.70117
313.1870, 91.20801
314.3940, 81.87402
315.6010, 186.0371
316.8070, 87.95801
318.0130, 1.884766
319.2200, 149.8203
320.4260, 163.7637
321.6310, 1.286133
322.8370, 130.6719
324.0430, 125.6367
325.2480, 1.390625
326.4540, 70.58789
327.6590, 29.42676
328.8640, 80.56055
330.0680, 122.5566
331.2730, 71.44336
332.4780, 140.5234
333.6820, 143.5244
334.8860, 86.53320
336.0900, 46.54883
337.2940, 32.57129
338.4980, 17.40039
339.7010, 185.6328
340.9050, 144.6729
342.1080, 212.7168
343.3110, 45.76855
344.5140, 109.8262
345.7170, 176.0410
346.9200, 117.1094
348.1220, 290.8447
349.3240, 55.90625
350.5270, 37.97461
351.7290, 83.95117
352.9310, 114.1094
354.1320, 90.17773
355.3340, 2.250000
356.5350, 123.3184
357.7370, 73.65918
358.9380, 197.3174
360.1390, 168.2900
361.3400, 51.53711
362.5400, 131.6094
363.7410, 47.68164
364.9410, 36.75879
366.1410, 102.8223
367.3410, 188.8906
368.5410, 128.9785
369.7410, 74.06641
370.9400, 40.72070
372.1400, 218.8184
373.3390, 27.91992
374.5380, 237.0254
375.7370, 80.11523
376.9360, 140.2100
378.1350, 66.05273
379.3330, 19.84277
380.5310, 113.2617
381.7300, 209.3701
382.9280, 104.4805
384.1260, 106.5967
385.3230, 38.71582
386.5210, 102.8389
387.7180, 139.9639
388.9160, 144.0928
390.1130, 70.21973
391.3100, 1.349609
392.5060, 160.4834
393.7030, 102.6191
394.9000, 142.7578
396.0960, 165.8037
397.2920, 3.2226998E-02
398.4880, 154.1328
399.6840, 169.3047
400.8800, 17.51367
402.0750, 213.6631
403.2710, 86.84961
404.4660, 45.04395
405.6610, 99.24219
406.8560, 78.44727
408.0510, 11.66016
409.2450, 54.61816
410.4400, 57.10840
411.6340, 119.7695
412.8280, 127.6875
414.0220, 193.4219
415.2160, 155.4697
416.4100, 154.9023
417.6030, 157.1475
418.7970, 131.2754
419.9900, 84.64746
421.1830, 99.90137
422.3760, 42.15820
423.5690, 22.41797
424.7610, 62.67969
425.9540, 111.9443
427.1460, 152.2119
428.3380, 105.4805
429.5300, 197.7520
430.7220, 188.0244
431.9140, 46.29980
433.1050, 159.5762
434.2970, 11.14551
435.4880, 156.1240
436.6790, 67.39453
437.8700, 100.6660
439.0610, 93.93848
440.2510, 121.2129
441.4420, 152.7871
442.6320, 18.23828
443.8220, 119.5166
445.0120, 3.204102
446.2020, 169.0693
447.3910, 57.34180
448.5810, 155.6172
449.7700, 121.3350
450.9600, 126.6123
452.1490, 138.6328
453.3370, 164.9092
454.5260, 111.2432
455.7150, 130.0186
456.9030, 64.29590
458.0910, 85.20410
459.2800, 43.48145
460.4670, 117.7578
461.6550, 65.03711
462.8430, 89.31738
464.0300, 190.5957
465.2180, 182.9600
466.4050, 105.2393
467.5920, 114.5176
468.7790, 25.76758
469.9650, 180.0430
471.1520, 134.3857
472.3380, 260.6631
473.5250, 144.9404
474.7110, 26.77930
475.8970, 33.47852
477.0820, 153.8828
478.2680, 110.1797
479.4540, 124.4639
480.6390, 183.7324
481.8240, 183.4697
483.0090, 162.7363
484.1940, 34.00293
485.3780, 126.2666
486.5630, 163.5303
487.7470, 7.793945
488.9320, 75.05273
490.1160, 19.68848
491.3000, 67.56934
492.4830, 173.8262
493.6670, 20.08398
494.8500, 181.3555
496.0340, 175.6113
497.2170, 36.86816
498.4000, 40.12305
499.5820, 14.62012
500.7650, 35.37500
501.9480, 18.15137
503.1300, 1.902344
504.3120, 51.78906
505.4940, 46.45898
506.6760, 54.13867
507.8580, 84.85547
509.0390, 32.09766
510.2210, 56.33887
511.4020, 32.54883
512.5830, 0.2441410
513.7640, 60.06055
514.9450, 49.36719
516.1250, 127.4922
517.3060, 53.88965
518.4860, 71.11133
519.6660, 18.16504
520.8460, 41.03613
522.0260, 131.4707
523.2060, 160.6670
524.3850, 170.8604
525.5650, 108.0518
526.7440, 219.4395
527.9230, 45.62598
529.1020, 77.88770
530.2810, 176.0684
531.4590, 91.24805
532.6380, 190.4785
533.8160, 141.7324
534.9940, 127.9443
536.1720, 51.11719
537.3500, 96.72754
538.5270, 81.38086
539.7050, 121.5020
540.8820, 198.6055
542.0590, 115.7061
543.2360, 179.6943
544.4130, 151.7998
545.5900, 229.1094
546.7660, 97.20996
547.9430, 97.30664
549.1190, 75.40234
550.2950, 27.49121
551.4710, 224.5791
552.6470, 25.33887
553.8220, 15.71777
554.9980, 233.7686
556.1730, 178.8154
557.3480, 93.85742
558.5230, 45.89648
559.6980, 36.92969
560.8730, 184.9609
562.0470, 150.9863
563.2220, 176.0078
564.3960, 141.0234
565.5700, 162.0361
566.7440, 113.0488
567.9170, 114.0576
569.0910, 51.06250
570.2640, 145.0635
571.4380, 162.0635
572.6110, 76.06348
573.7840, 244.0576
574.9570, 141.0479
576.1290, 48.96191
577.3020, 157.9424
578.4740, 168.9199
579.6460, 109.8926
580.8180, 62.86133
581.9900, 142.8242
583.1620, 20.79590
584.3330, 132.7607
585.5040, 187.8418
586.6760, 87.16504
587.8470, 192.1143
589.0180, 193.0566
590.1880, 56.00586
591.3590, 200.2881
592.5290, 3.176758
593.7000, 114.0518
594.8700, 39.92480
596.0400, 194.7900
597.2090, 80.95312
598.3790, 217.8252
599.5490, 116.7061
600.7180, 108.5820
601.8870, 217.9463
603.0560, 222.0215
604.2250, 203.8789
605.3940, 32.73047
606.5620, 68.61914
607.7300, 71.45898
608.8990, 104.2910
610.0670, 212.1201
611.2350, 256.2725
612.4020, 355.0938
613.5700, 168.0020
614.7370, 91.81348
615.9050, 76.70508
617.0720, 27.87793
618.2390, 54.32422
619.4060, 57.12402
620.5720, 224.0664
621.7390, 249.9404
622.9050, 203.8906
624.0710, 117.6689
625.2370, 251.4395
626.4030, 291.2061
627.5690, 192.2861
628.7340, 209.8867
629.9000, 173.6338
631.0650, 99.39258
632.2300, 87.33301
633.3950, 197.3584
634.5600, 292.0781
635.7240, 138.3652
636.8890, 209.4014
638.0530, 158.1191
639.2170, 176.0576
640.3810, 237.4746
641.5450, 134.4033
642.7080, 122.5645
643.8720, 156.6885
645.0350, 237.7021
646.1980, 118.3701
647.3610, 161.0869
648.5240, 73.90332
649.6870, 31.44824
650.8490, 140.1670
652.0120, 134.7744
653.1740, 61.08887
654.3360, 125.9990
655.4980, 118.5830
656.6600, 43.39746
657.8210, 200.2861
658.9830, 18.84277
660.1440, 165.6680
661.3050, 37.20215
662.4660, 122.7334
663.6270, 99.25586
664.7870, 143.7695
665.9480, 43.27441
667.1080, 232.0332
668.2680, 73.66504
669.4280, 163.1445
670.5880, 184.9346
671.7480, 80.39551
672.9070, 56.10254
674.0670, 86.54688
675.2260, 146.9814
676.3850, 60.59375
677.5440, 127.9014
678.7030, 30.43164
679.8610, 104.2617
681.0200, 254.8516
682.1780, 157.8506
683.3360, 144.1963
684.4940, 44.73438
685.6520, 131.3838
686.8090, 155.7646
687.9670, 170.4600
689.1240, 285.7822
690.2810, 273.8486
691.4380, 264.5029
692.5950, 365.3779
693.7520, 323.4570
694.9080, 486.7139
696.0650, 333.9629
697.2210, 364.4844
698.3770, 260.7139
699.5330, 296.2354
700.6880, 382.1631
701.8440, 371.3877
702.9990, 462.6025
704.1550, 460.8154
705.3100, 635.3809
706.4650, 714.5762
707.6190, 1072.111
708.7740, 998.3779
709.9290, 1320.240
711.0830, 867.7148
712.2370, 607.8848
713.3910, 330.0566
714.5450, 548.2197
715.6980, 366.3770
716.8520, 363.8477
718.0050, 359.0293
719.1580, 304.4336
720.3110, 269.5537
721.4640, 108.9570
722.6170, 204.8809
723.7700, 76.97070
724.9220, 249.0498
726.0740, 259.1201
727.2260, 133.1816
728.3780, 189.2324
729.5300, 21.82910
730.6810, 179.8555
731.8330, 284.1318
732.9840, 169.5176
734.1350, 109.4609
735.2860, 38.89648
736.4370, 223.8896
737.5880, 140.8574
738.7380, 152.8145
739.8880, 16.76172
741.0390, 57.95410
742.1890, 182.6230
743.3380, 130.5400
744.4880, 99.33594
745.6380, 193.2305
746.7870, 128.1689
747.9360, 237.4102
749.0850, 33.45898
750.2340, 240.3379
751.3830, 89.31250
752.5310, 130.5176
753.6800, 101.5586
754.8280, 131.3750
755.9760, 127.4062
757.1240, 128.1719
758.2720, 34.98438
759.4190, 92.78125
760.5670, 73.53711
761.7140, 224.6016
762.8610, 215.3398
764.0080, 273.3945
765.1550, 38.10742
766.3020, 213.8809
767.4480, 160.7695
768.5950, 43.42578
769.7410, 66.39648
770.8870, 45.03125
772.0330, 143.6504
773.1780, 14.27148
774.3240, 42.37305
775.4690, 185.9629
776.6140, 4.458984
777.7590, 188.4512
778.9040, 2.001953
780.0490, 191.5703
781.1940, 176.1113
782.3380, 37.64258
783.4820, 119.1602
784.6260, 106.1523
785.7700, 51.22852
786.9140, 215.3047
788.0580, 236.7109
789.2010, 154.1680
790.3450, 22.41406
791.4880, 23.12305
792.6310, 207.2305
793.7730, 60.57227
794.9160, 23.28320
796.0590, 270.0137
797.2010, 112.7949
798.3430, 187.0742
799.4850, 238.1699
800.6270, 179.4297
801.7690, 204.8242
802.9100, 173.0586
804.0520, 56.08008
805.1930, 84.28906
806.3340, 161.5156
807.4750, 42.70117
808.6160, 127.9902
809.7560, 6.759766
810.8970, 137.3750
812.0370, 139.4629
813.1770, 185.5859
814.3170, 244.4043
815.4570, 77.52148
816.5960, 14.36328
817.7360, 59.88672
818.8750, 30.87695
820.0140, 175.2930
821.1530, 69.83203
822.2920, 40.90820
823.4310, 102.9844
824.5690, 26.01367
825.7070, 112.9844
826.8460, 80.94336
827.9840, 248.8906
829.1220, 109.8223
830.2590, 134.9414
831.3970, 240.8633
832.5340, 164.7852
833.6710, 50.68359
834.8080, 321.5664
835.9450, 227.4414
837.0820, 198.0215
838.2190, 319.1191
839.3550, 180.9551
840.4910, 317.6074
841.6270, 8.582031
842.7630, 134.2070
843.8990, 40.26562
845.0350, 113.5215
846.1700, 6.269531
847.3060, 5.888672
848.4410, 146.6055
849.5760, 138.8242
850.7100, 212.7148
851.8450, 258.3848
852.9800, 53.45508
854.1140, 120.0938
855.2480, 64.83789
856.3820, 196.5156
857.5160, 60.11523
858.6500, 131.7031
859.7830, 210.2793
860.9170, 169.7871
862.0500, 282.3418
863.1830, 201.8828
864.3160, 241.4102
865.4480, 236.9258
866.5810, 354.0469
867.7130, 234.1875
868.8460, 40.68945
869.9780, 213.6191
871.1100, 23.89648
872.2410, 127.2695
873.3730, 172.7285
874.5050, 174.1523
875.6360, 261.9355
876.7670, 130.8398
877.8980, 158.5566
879.0290, 142.9355
880.1590, 226.3105
881.2900, 147.6191
882.4200, 118.9590
883.5500, 44.44922
884.6800, 87.76172
885.8100, 124.7344
886.9400, 100.0859
888.0690, 41.62695
889.1990, 78.88281
890.3280, 135.0840
891.4570, 42.69141
892.5860, 221.3926
893.7140, 119.0215
894.8430, 219.0762
895.9710, 317.1758
897.1000, 56.18164
898.2280, 131.7305
899.3560, 54.08984
900.4830, 197.6113
901.6110, 115.7773
902.7380, 86.29102
903.8660, 103.7871
904.9930, 88.21289
906.1200, 163.0977
907.2460, 150.8789
908.3730, 164.3262
909.5000, 18.82227
910.6260, 324.5469
911.7520, 183.9102
912.8780, 46.86328
914.0040, 231.9316
915.1290, 125.3281
916.2550, 234.3027
917.3800, 206.2637
918.5050, 213.8730
919.6300, 18.80859
920.7550, 100.6934
921.8800, 99.73828
923.0040, 174.0371
924.1290, 119.9297
925.2530, 125.8828
926.3770, 146.4746
927.5010, 136.0098
928.6250, 155.8555
929.7480, 149.4512
930.8720, 145.8359
931.9950, 142.0918
933.1180, 143.5566
934.2410, 111.3516
935.3640, 121.2441
936.4860, 85.90625
937.6090, 216.6660
938.7310, 142.4141
939.8530, 220.8887
940.9750, 95.47070
942.0970, 125.1895
943.2180, 92.57227
944.3400, 87.26562
945.4610, 81.68945
946.5820, 219.3594
947.7030, 118.0156
948.8240, 2.339844
949.9450, 264.3086
951.0650, 197.7832
952.1860, 16.93555
953.3060, 9.689453
954.4260, 87.24609
955.5460, 2.820313
956.6650, 54.48047
957.7850, 100.4062
958.9040, 108.8828
960.0230, 144.0215
961.1420, 205.5117
962.2610, 276.8574
963.3800, 272.7656
964.4990, 74.78906
965.6170, 304.2832
966.7350, 115.7656
967.8530, 183.2363
968.9710, 150.4121
970.0890, 310.8613
971.2070, 51.70117
972.3240, 12.31055
973.4410, 124.0586
974.5580, 21.58203
975.6750, 145.0215
976.7920, 264.9922
977.9090, 50.57031
979.0250, 64.47461
980.1410, 132.7227
981.2580, 91.27734
982.3740, 5.789063
983.4890, 33.57617
984.6050, 66.60352
985.7200, 177.9883
986.8360, 18.14062
987.9510, 163.9609
989.0660, 74.04492
990.1810, 253.2637
991.2950, 225.3691
992.4100, 137.3691
993.5240, 164.5527
994.6390, 99.95703
995.7530, 293.3906
996.8660, 241.5605
997.9800, 188.6035
999.0940, 122.6543
1000.207, 117.8789
1001.320, 3.091797
1002.433, 163.9219
1003.546, 8.544922
1004.659, 160.3398
1005.772, 121.3418
1006.884, 111.4922
1007.996, 129.4434
1009.108, 27.38477
1010.220, 124.3125
1011.332, 18.74609
1012.444, 263.7109
1013.555, 112.5938
1014.666, 149.4844
1015.777, 250.3691
1016.888, 76.46875
1017.999, 192.1934
1019.110, 331.1465
1020.220, 99.95312
1021.331, 28.64844
1022.441, 292.0840
1023.551, 128.0645
1024.661, 25.23047
1025.770, 18.36328
1026.880, 48.24609
1027.989, 126.3984
1029.098, 145.1172
1030.207, 151.8223
1031.316, 23.41992
1032.425, 66.09570
1033.533, 22.43555
1034.642, 28.09961
1035.750, 18.67969
1036.858, 28.00586
1037.966, 142.0645
1039.073, 150.9238
1040.181, 147.5684
1041.288, 29.78516
1042.396, 138.8320
1043.503, 246.9395
1044.610, 39.53516
1045.716, 80.35352
1046.823, 103.5781
1047.929, 62.14648
1049.036, 226.2539
1050.142, 154.8008
1051.248, 365.3379
1052.353, 205.8652
1053.459, 115.8945
1054.564, 49.40234
1055.670, 23.45898
1056.775, 279.2910
1057.880, 102.7461
1058.985, 190.2109
1060.089, 345.7520
1061.194, 154.4590
1062.298, 159.0859
1063.402, 302.0312
1064.506, 313.4785
1065.610, 477.9141
1066.713, 642.3379
1067.817, 529.7070
1068.920, 716.1055
1070.023, 766.3457
1071.126, 890.1094
1072.229, 679.9570
1073.332, 846.7715
1074.435, 522.3809
1075.537, 456.7363
1076.639, 453.9434
1077.741, 414.1152
1078.843, 498.7812
1079.945, 702.0801
1081.046, 1001.359
1082.148, 1331.934
1083.249, 2089.201
1084.350, 4225.459
1085.451, 8344.500
1086.551, 12578.58
1087.652, 18265.68
1088.752, 30710.40
1089.853, 38796.77
1090.953, 31578.02
1092.053, 16851.21
1093.152, 8203.400
1094.252, 3971.934
1095.351, 2172.100
1096.451, 1412.252
1097.550, 830.3516
1098.649, 585.4824
1099.748, 288.5898
1100.846, 489.6992
1101.945, 277.1914
1103.043, 334.2793
1104.141, 236.6328
1105.239, 127.6191
1106.337, 232.6699
1107.434, 62.60547
1108.532, 225.6309
1109.629, 62.65625
1110.726, 387.3848
1111.823, 168.8945
1112.920, 248.1094
1114.017, 333.9824
1115.113, 147.2832
1116.210, 203.7266
1117.306, 67.47461
1118.402, 295.4180
1119.498, 164.9395
1120.593, 186.8613
1121.689, 29.60156
1122.784, 160.7285
1123.879, 72.50000
1124.974, 96.43945
1126.069, 41.31055
1127.164, 31.26367
1128.259, 92.11328
1129.353, 121.3066
1130.447, 124.6250
1131.541, 79.44336
1132.635, 186.2480
1133.729, 183.4121
1134.822, 196.1953
1135.916, 36.47852
1137.009, 11.26367
1138.102, 76.00000
1139.195, 143.7070
1140.288, 145.4199
1141.380, 164.7637
1142.473, 118.6328
1143.565, 0.7753910
1144.657, 210.6484
1145.749, 310.9219
1146.841, 139.9844
1147.932, 59.77148
1149.024, 72.22852
1150.115, 57.83984
1151.206, 162.4395
1152.297, 155.2188
1153.388, 179.6465
1154.479, 32.29883
1155.569, 39.27734
1156.659, 264.7148
1157.750, 28.23242
1158.839, 224.9375
1159.929, 161.4375
1161.019, 232.9219
1162.108, 71.41602
1163.198, 125.7324
1164.287, 197.2402
1165.376, 265.0117
1166.465, 298.6484
1167.553, 66.26562
1168.642, 13.25195
1169.730, 40.12695
1170.818, 133.4961
1171.906, 245.2422
1172.994, 149.2070
1174.082, 161.5430
1175.170, 156.0156
1176.257, 75.99219
1177.344, 182.2812
1178.431, 262.9844
1179.518, 4.023438
1180.605, 346.8086
1181.691, 278.0684
1182.778, 202.3125
1183.864, 356.5508
1184.950, 101.7598
1186.036, 231.7812
1187.122, 223.5801
1188.207, 234.8066
1189.292, 206.9180
1190.378, 116.0918
1191.463, 76.31250
1192.548, 92.46680
1193.632, 12.39453
1194.717, 244.7188
1195.801, 341.9941
1196.886, 287.0898
1197.970, 290.1758
1199.054, 213.2500
1200.137, 133.3125
1201.221, 41.36523
1202.305, 18.86523
1203.388, 24.27344
1204.471, 44.47852
1205.554, 128.9453
1206.637, 294.4199
1207.719, 411.4785
1208.802, 10.46484
1209.884, 148.4375
1210.966, 261.4004
1212.048, 316.3496
1213.130, 470.2949
1214.212, 287.2285
1215.293, 79.15234
1216.374, 248.0645
1217.456, 238.9727
1218.536, 183.8691
1219.617, 34.75781
1220.698, 102.6348
1221.778, 125.6172
1222.859, 241.4727
1223.939, 49.31445
1225.019, 217.1465
1226.099, 282.9668
1227.178, 102.2246
1228.258, 291.5117
1229.337, 314.2402
1230.417, 167.9590
1231.496, 40.66797
1232.574, 217.3633
1233.653, 207.0488
1234.732, 94.74219
1235.810, 258.4277
1236.888, 31.89648
1237.966, 197.4922
1239.044, 340.1328
1240.122, 283.4980
1241.199, 269.4102
1242.277, 81.04102
1243.354, 260.8379
1244.431, 109.4453
1245.508, 276.0488
1246.585, 269.6504
1247.661, 231.0273
1248.738, 238.6133
1249.814, 272.1914
1250.890, 212.9609
1251.966, 82.40430
1253.042, 8.951172
1254.117, 43.28320
1255.193, 156.7012
1256.268, 96.90039
1257.343, 195.2949
1258.418, 51.68164
1259.493, 59.82422
1260.567, 176.6250
1261.642, 295.8789
1262.716, 157.3301
1263.790, 207.7734
1264.864, 276.2090
1265.938, 176.0664
1267.011, 202.0137
1268.085, 179.2207
1269.158, 380.6191
1270.231, 133.0117
1271.304, 93.39062
1272.377, 271.7363
1273.450, 86.54297
1274.522, 63.09961
1275.594, 36.20898
1276.666, 99.55078
1277.738, 208.5527
1278.810, 222.5996
1279.882, 218.7422
1280.953, 75.00195
1282.025, 87.56445
1283.096, 118.8027
1284.167, 37.63477
