##NAMES=Shortite
##RRUFFID=R050248
##IDEAL CHEMISTRY=Na_2_Ca_2_(CO_3_)_3_
##LOCALITY=Stauffer mine, Green River, Wyoming, USA
##OWNER=RRUFF
##SOURCE=Marcus Origlieri
##DESCRIPTION=Colorless wedge-shaped single crystal
##STATUS=The identification of this mineral has been confirmed by X-ray diffraction and chemical analysis
##URL=rruff.info/R050248
##MEASURED CHEMISTRY=Na_2.00_Ca_2.00_(CO_3_)_3_ ; CO2 not measured but estimated by difference and stoichiometry.
##PIN_ID=L01884
##ORIENTATION=Laser parallel to c* (0 0 1). Fiducial mark perpendicular to laser is parallel to a [1 0 0]
102.9200, 0.0000000E+00
104.1590, 0.4365230
105.3980, 13.14331
106.6360, 75.84302
107.8750, 107.8933
109.1130, 24.28052
110.3510, 20.19922
111.5890, 88.61548
112.8270, 80.12207
114.0650, 105.8701
115.3020, 89.50806
116.5390, 117.7585
117.7770, 215.4031
119.0130, 380.2698
120.2500, 374.2185
121.4870, 423.1316
122.7230, 624.9062
123.9590, 832.4497
125.1950, 1152.680
126.4310, 1808.529
127.6670, 2609.934
128.9030, 3764.847
130.1380, 4841.225
131.3730, 5423.041
132.6080, 6084.274
133.8430, 6982.896
135.0780, 8516.883
136.3120, 9622.211
137.5470, 9829.859
138.7810, 9108.803
140.0150, 8521.022
141.2480, 7221.486
142.4820, 5652.166
143.7160, 4003.041
144.9490, 2641.098
146.1820, 1717.321
147.4150, 1151.699
148.6480, 801.2236
149.8800, 617.8862
151.1130, 448.6804
152.3450, 354.5994
153.5770, 353.6372
154.8090, 334.7878
156.0410, 191.0757
157.2720, 190.5574
158.5040, 78.15723
159.7350, 116.9792
160.9660, 89.94287
162.1970, 120.0808
163.4270, 180.2874
164.6580, 197.5837
165.8880, 270.0125
167.1180, 298.5608
168.3480, 327.2512
169.5780, 473.0049
170.8080, 510.7910
172.0370, 562.6467
173.2670, 714.6343
174.4960, 817.6396
175.7250, 914.6670
176.9540, 1016.697
178.1820, 1271.676
179.4110, 1431.619
180.6390, 1634.533
181.8670, 1624.429
183.0950, 1739.320
184.3230, 1783.212
185.5500, 1903.111
186.7780, 2040.020
188.0050, 2294.942
189.2320, 2676.348
190.4590, 3178.860
191.6850, 3744.853
192.9120, 4432.864
194.1380, 5296.903
195.3650, 6287.996
196.5910, 6918.114
197.8160, 7339.255
199.0420, 7323.421
200.2680, 7385.607
201.4930, 7144.824
202.7180, 6885.082
203.9430, 6171.358
205.1680, 5478.663
206.3930, 4829.990
207.6170, 4281.461
208.8410, 3545.575
210.0660, 2801.736
211.2890, 2318.081
212.5130, 1860.443
213.7370, 1420.055
214.9600, 1123.527
216.1840, 859.9846
217.4070, 768.3228
218.6300, 592.6704
219.8520, 490.5017
221.0750, 468.8472
222.2970, 299.2085
223.5200, 350.6826
224.7420, 248.1191
225.9640, 176.4788
227.1850, 212.6221
228.4070, 156.2236
229.6280, 198.9573
230.8490, 179.7490
232.0700, 206.6016
233.2910, 208.2773
234.5120, 245.6121
235.7320, 242.9570
236.9530, 277.2246
238.1730, 225.8364
239.3930, 353.2156
240.6130, 408.0901
241.8320, 476.9861
243.0520, 606.3655
244.2710, 656.6953
245.4900, 720.0315
246.7090, 809.3740
247.9280, 950.2031
249.1470, 1214.553
250.3650, 1443.017
251.5840, 1743.561
252.8020, 2101.363
254.0200, 2406.251
255.2370, 2827.326
256.4550, 3604.557
257.6720, 4319.342
258.8900, 5141.828
260.1070, 5992.418
261.3240, 6616.108
262.5400, 7427.882
263.7570, 8456.736
264.9730, 9051.662
266.1900, 9243.668
267.4060, 8868.734
268.6220, 8348.861
269.8370, 7514.058
271.0530, 6151.337
272.2680, 4906.649
273.4830, 3686.981
274.6980, 2804.271
275.9130, 2242.720
277.1280, 1669.269
278.3420, 1297.756
279.5570, 1060.273
280.7710, 815.8193
281.9850, 714.4482
283.1990, 547.3228
284.4120, 459.3228
285.6260, 372.6582
286.8390, 330.6602
288.0520, 290.6846
289.2650, 216.3867
290.4780, 306.1055
291.6910, 212.1748
292.9030, 213.9253
294.1160, 215.6909
295.3280, 192.4697
296.5400, 177.4146
297.7510, 115.8584
298.9630, 106.9697
300.1740, 88.95068
301.3860, 13.78955
302.5970, 78.63818
303.8080, 74.49707
305.0180, 33.11377
306.2290, 53.99414
307.4390, 84.88086
308.6500, 59.77344
309.8600, 43.68115
311.0700, 4.405762
312.2790, 17.48926
313.4890, 21.52393
314.6980, 34.65527
315.9080, 19.74219
317.1170, 62.16992
318.3250, 57.08350
319.5340, 37.99805
320.7430, 22.91455
321.9510, 17.15576
323.1590, 25.24072
324.3670, 33.45410
325.5750, 21.42285
326.7830, 10.52002
327.9900, 41.61719
329.1980, 19.27832
330.4050, 18.17480
331.6120, 21.55225
332.8190, 28.65771
334.0250, 37.23291
335.2320, 52.65625
336.4380, 95.04199
337.6440, 32.92188
338.8500, 6.802734
340.0560, 12.68359
341.2620, 16.29785
342.4670, 74.44141
343.6730, 2.317871
344.8780, 10.19287
346.0830, 84.06836
347.2870, 28.05762
348.4920, 12.97510
349.6970, 24.11426
350.9010, 0.7387700
352.1050, 17.58936
353.3090, 86.43750
354.5130, 16.72510
355.7160, 18.90674
356.9200, 40.02979
358.1230, 66.76758
359.3260, 15.44775
360.5290, 13.31543
361.7320, 47.93750
362.9340, 15.79492
364.1370, 94.51074
365.3390, 25.20996
366.5410, 25.90723
367.7430, 6.602539
368.9450, 22.29053
370.1460, 56.97461
371.3480, 16.64893
372.5490, 14.42188
373.7500, 60.96338
374.9510, 42.38965
376.1520, 11.77783
377.3520, 35.62061
378.5520, 2.610352
379.7530, 13.95312
380.9530, 45.51416
382.1530, 81.07227
383.3520, 22.62842
384.5520, 77.18164
385.7510, 36.71289
386.9500, 129.2261
388.1490, 95.73682
389.3480, 4.245117
390.5470, 60.74951
391.7450, 63.25830
392.9440, 84.76172
394.1420, 73.26367
395.3400, 91.77344
396.5380, 91.24561
397.7350, 118.8076
398.9330, 80.37451
400.1300, 94.90332
401.3270, 60.43506
402.5240, 130.9722
403.7210, 99.51074
404.9180, 114.1279
406.1140, 66.66943
407.3110, 41.20996
408.5070, 133.7520
409.7030, 64.02246
410.8990, 102.5625
412.0940, 101.1011
413.2900, 111.1440
414.4850, 33.67871
415.6800, 35.21045
416.8750, 38.97656
418.0700, 6.409668
419.2650, 37.94873
420.4590, 33.45947
421.6530, 81.96533
422.8470, 81.46826
424.0410, 61.96729
425.2350, 37.92334
426.4290, 27.41260
427.6220, 62.93994
428.8160, 15.58154
430.0090, 119.8711
431.2020, 26.31885
432.3940, 70.75879
433.5870, 60.19385
434.7790, 27.62402
435.9720, 97.04492
437.1640, 61.46094
438.3560, 55.87207
439.5470, 52.27783
440.7390, 14.75049
441.9300, 31.13770
443.1220, 7.516602
444.3130, 164.9531
445.5040, 94.31006
446.6940, 105.7979
447.8850, 17.14307
449.0750, 110.8682
450.2660, 56.26904
451.4560, 110.5889
452.6460, 65.22266
453.8350, 106.5303
455.0250, 109.8203
456.2140, 80.57227
457.4040, 102.6289
458.5930, 128.0430
459.7820, 92.63867
460.9700, 109.9072
462.1590, 87.16895
463.3470, 79.58984
464.5350, 55.67432
465.7240, 71.29102
466.9110, 90.48145
468.0990, 106.2324
469.2870, 138.5610
470.4740, 84.44629
471.6610, 53.66357
472.8480, 70.86865
474.0350, 27.06543
475.2220, 72.25293
476.4090, 52.04785
477.5950, 33.22314
478.7810, 7.372070
479.9670, 62.77197
481.1530, 84.91064
482.3390, 71.04297
483.5240, 124.1694
484.7100, 117.3833
485.8950, 106.4966
487.0800, 88.55762
488.2650, 70.65918
489.4490, 90.72461
490.6340, 30.19287
491.8180, 119.4214
493.0030, 95.01660
494.1870, 76.89551
495.3700, 121.9619
496.5540, 152.0220
497.7380, 147.6812
498.9210, 37.65381
500.1040, 150.1494
501.2870, 82.18506
502.4700, 65.04297
503.6530, 102.0703
504.8350, 76.54297
506.0180, 137.0264
507.2000, 106.0376
508.3820, 106.0439
509.5640, 124.0444
510.7450, 53.89258
511.9270, 162.8833
513.1080, 112.9072
514.2890, 72.89014
515.4700, 62.86133
516.6510, 150.8345
517.8320, 145.7998
519.0130, 148.5381
520.1930, 131.8579
521.3730, 121.0869
522.5530, 150.9858
523.7330, 166.9346
524.9130, 94.87939
526.0920, 157.8193
527.2710, 62.75488
528.4510, 96.68701
529.6300, 63.61523
530.8080, 37.53857
531.9870, 87.98047
533.1660, 171.4321
534.3440, 147.3428
535.5220, 74.24951
536.7000, 148.1519
537.8780, 40.04980
539.0560, 74.94385
540.2330, 5.106445
541.4110, 127.7690
542.5880, 135.6411
543.7650, 80.50781
544.9420, 65.37061
546.1180, 26.22852
547.2950, 76.08154
548.4710, 45.94385
549.6470, 182.8018
550.8230, 48.34473
551.9990, 126.4800
553.1750, 104.3008
554.3500, 60.88330
555.5260, 125.8896
556.7010, 87.63379
557.8760, 14.38623
559.0510, 3.844727
560.2250, 22.00293
561.4000, 146.7041
562.5740, 48.34033
563.7480, 121.0703
564.9220, 140.7954
566.0960, 3.517090
567.2700, 38.17529
568.4430, 27.60889
569.6170, 76.31250
570.7900, 73.88232
571.9630, 122.3032
573.1360, 93.65479
574.3080, 81.34277
575.4810, 98.02881
576.6530, 115.3770
577.8250, 185.0552
578.9980, 107.7295
580.1690, 59.39990
581.3410, 20.06689
582.5130, 92.93750
583.6840, 106.3018
584.8550, 17.80420
586.0260, 127.4551
587.1970, 12.10254
588.3680, 95.74512
589.5380, 16.36670
590.7080, 16.25684
591.8790, 36.87549
593.0490, 31.50830
594.2190, 57.08447
595.3880, 14.67334
596.5580, 123.2598
597.7270, 53.84521
598.8960, 70.43018
600.0650, 63.01904
601.2340, 90.60791
602.4030, 96.19434
603.5710, 131.7778
604.7400, 77.35840
605.9080, 21.92285
607.0760, 112.5000
608.2440, 111.0796
609.4120, 36.66260
610.5790, 12.24707
611.7460, 50.83057
612.9140, 28.41992
614.0810, 104.0063
615.2480, 85.21582
616.4140, 36.80811
617.5810, 128.4087
618.7470, 91.78760
619.9130, 95.58105
621.0790, 113.1914
622.2450, 86.79883
623.4110, 75.40967
624.5770, 24.01758
625.7420, 83.62793
626.9070, 47.23584
628.0720, 89.84180
629.2370, 134.4541
630.4020, 61.75342
631.5660, 141.1523
632.7310, 94.76953
633.8950, 129.3921
635.0590, 57.01318
636.2230, 188.6313
637.3870, 137.2480
638.5500, 128.8682
639.7140, 158.4253
640.8770, 26.05908
642.0400, 136.1328
643.2030, 114.7700
644.3660, 142.4062
645.5280, 14.05371
646.6910, 46.69971
647.8530, 85.34326
649.0150, 117.9854
650.1770, 59.62500
651.3390, 132.2646
652.5000, 10.47119
653.6620, 78.12207
654.8230, 38.77051
655.9840, 19.42090
657.1450, 105.0693
658.3060, 57.33643
659.4660, 107.0000
660.6270, 20.67432
661.7870, 71.34961
662.9470, 130.0244
664.1070, 39.75342
665.2670, 69.45898
666.4260, 99.12891
667.5860, 53.79639
668.7450, 31.46338
669.9040, 48.12793
671.0630, 32.74609
672.2220, 24.51807
673.3800, 79.14404
674.5390, 46.80469
675.6970, 133.4639
676.8550, 89.12158
678.0130, 78.77832
679.1710, 5.444824
680.3290, 113.0562
681.4860, 39.70703
682.6430, 29.35791
683.8000, 110.0068
684.9570, 64.65479
686.1140, 120.2241
687.2710, 236.1260
688.4270, 308.7705
689.5840, 398.4131
690.7400, 417.0815
691.8960, 590.7217
693.0520, 711.3608
694.2070, 723.4922
695.3630, 710.7310
696.5180, 644.4404
697.6730, 494.8394
698.8280, 385.5674
699.9830, 235.1807
701.1380, 163.8262
702.2920, 235.3364
703.4470, 420.9810
704.6010, 387.6250
705.7550, 527.8066
706.9090, 644.4497
708.0620, 729.0493
709.2160, 741.4912
710.3690, 763.3447
711.5220, 634.9971
712.6750, 505.6504
713.8280, 303.7065
714.9810, 155.3584
716.1340, 177.0156
717.2860, 164.6714
718.4380, 133.3276
719.5900, 187.9829
720.7420, 209.5645
721.8940, 181.2222
723.0450, 193.8813
724.1970, 308.4707
725.3480, 404.1343
726.4990, 401.6602
727.6500, 572.3223
728.8010, 628.5947
729.9510, 574.1855
731.1020, 586.8506
732.2520, 418.1948
733.4020, 332.8599
734.5520, 293.4443
735.7020, 146.1089
736.8510, 110.7739
738.0010, 144.4385
739.1500, 11.10352
740.2990, 31.76807
741.4480, 102.4326
742.5970, 101.0972
743.7450, 50.76221
744.8940, 133.4087
746.0420, 77.07275
747.1900, 117.7378
748.3380, 110.4023
749.4860, 67.99072
750.6330, 77.65527
751.7810, 23.32031
752.9280, 56.98486
754.0750, 41.60693
755.2220, 18.93213
756.3690, 28.59766
757.5160, 84.12646
758.6620, 54.80762
759.8090, 73.42188
760.9550, 54.25146
762.1010, 77.93164
763.2470, 98.61230
764.3920, 118.2915
765.5380, 55.97168
766.6830, 63.47461
767.8280, 11.84619
768.9730, 124.8257
770.1180, 62.49854
771.2630, 66.17090
772.4070, 120.8428
773.5520, 25.51465
774.6960, 102.1855
775.8400, 75.85645
776.9840, 118.5273
778.1280, 41.19775
779.2710, 7.516113
780.4140, 72.14941
781.5580, 85.81445
782.7010, 135.4795
783.8440, 120.0425
784.9860, 71.78564
786.1290, 81.44922
787.2710, 97.11279
788.4140, 117.7754
789.5560, 9.562012
790.6980, 21.61230
791.8390, 33.26807
792.9810, 75.48291
794.1220, 116.1382
795.2640, 8.207031
796.4050, 66.44141
797.5460, 18.08936
798.6860, 92.73633
799.8270, 83.38330
800.9680, 2.029297
802.1080, 4.674316
803.2480, 60.31787
804.3880, 107.9614
805.5280, 139.6040
806.6670, 77.24707
807.8070, 91.86621
808.9460, 83.50732
810.0850, 55.61084
811.2240, 69.25098
812.3630, 43.42822
813.5020, 96.52979
814.6400, 29.16797
815.7790, 8.806641
816.9170, 43.38379
818.0550, 91.02539
819.1930, 68.66699
820.3300, 88.30811
821.4680, 122.9492
822.6050, 84.58936
823.7430, 49.77002
824.8800, 146.8423
826.0170, 96.45410
827.1530, 25.93457
828.2900, 138.6768
829.4260, 72.28809
830.5620, 103.8994
831.6990, 39.47119
832.8340, 1.136230
833.9700, 111.7412
835.1060, 70.34814
836.2410, 159.9580
837.3760, 91.49463
838.5120, 10.88672
839.6470, 89.72412
840.7810, 178.3340
841.9160, 137.9438
843.0500, 118.5557
844.1850, 45.16650
845.3190, 77.77832
846.4530, 128.3896
847.5870, 28.00049
848.7200, 134.6113
849.8540, 3.777832
850.9870, 84.82861
852.1200, 35.17529
853.2530, 82.78174
854.3860, 110.3872
855.5190, 117.9922
856.6510, 224.5972
857.7840, 467.2026
858.9160, 806.8076
860.0480, 842.4126
861.1800, 1169.018
862.3110, 1456.623
863.4430, 1497.229
864.5740, 1315.835
865.7060, 1000.447
866.8370, 803.0596
867.9680, 494.6724
869.0980, 260.2949
870.2290, 95.91699
871.3590, 127.5396
872.4900, 57.16211
873.6200, 89.78564
874.7500, 132.4092
875.8790, 58.03223
877.0090, 96.65625
878.1380, 105.2798
879.2680, 80.90332
880.3970, 82.52734
881.5260, 72.15137
882.6550, 89.77588
883.7830, 125.3999
884.9120, 123.0244
886.0400, 103.1357
887.1680, 66.27539
888.2960, 48.90186
889.4240, 20.47266
890.5520, 16.85938
891.6790, 93.74414
892.8070, 11.65283
893.9340, 42.32324
895.0610, 92.91895
896.1880, 14.48535
897.3140, 27.10107
898.4410, 45.68750
899.5670, 52.27441
900.6940, 19.86133
901.8200, 26.55176
902.9450, 20.01953
904.0710, 118.9014
905.1970, 48.47363
906.3220, 112.0498
907.4470, 154.6260
908.5730, 64.20361
909.6980, 39.78125
910.8220, 49.36084
911.9470, 74.94141
913.0710, 48.52246
914.1960, 7.879883
915.3200, 74.27295
916.4440, 46.86572
917.5680, 87.46094
918.6910, 111.0566
919.8150, 73.65234
920.9380, 110.2500
922.0610, 144.8477
923.1840, 78.45117
924.3070, 109.0562
925.4300, 55.90625
926.5520, 56.66943
927.6750, 7.753906
928.7970, 76.81738
929.9190, 150.3901
931.0410, 16.35645
932.1630, 143.9307
933.2840, 26.50586
934.4060, 81.08203
935.5270, 36.66113
936.6480, 125.1846
937.7690, 105.7314
938.8900, 45.31348
940.0100, 67.89600
941.1310, 135.4800
942.2510, 47.93555
943.3710, 84.62500
944.4910, 86.18652
945.6110, 87.76465
946.7310, 166.3438
947.8500, 116.9248
948.9690, 158.0732
950.0890, 26.08936
951.2080, 167.6606
952.3260, 114.2461
953.4450, 70.83252
954.5640, 116.4209
955.6820, 53.00928
956.8000, 16.60010
957.9180, 108.1914
959.0360, 63.52734
960.1540, 24.12158
961.2710, 23.71729
962.3890, 87.55713
963.5060, 41.15576
964.6230, 133.7568
965.7400, 158.3584
966.8570, 125.3599
967.9730, 12.89258
969.0900, 126.4990
970.2060, 65.10791
971.3220, 36.28125
972.4380, 25.31348
973.5540, 128.0464
974.6700, 54.64746
975.7850, 53.25049
976.9010, 89.86572
978.0160, 132.4829
979.1310, 125.8755
980.2460, 112.7222
981.3600, 119.3447
982.4750, 82.26709
983.5890, 49.59619
984.7030, 72.82178
985.8170, 17.54785
986.9310, 51.07764
988.0450, 69.70459
989.1590, 90.33496
990.2720, 155.9663
991.3850, 21.60010
992.4980, 60.25000
993.6110, 36.91064
994.7240, 114.5732
995.8370, 126.2373
996.9490, 159.9038
998.0620, 30.57227
999.1740, 88.24658
1000.286, 25.92334
1001.398, 124.6016
1002.509, 166.2822
1003.621, 184.9648
1004.732, 69.66455
1005.843, 94.36670
1006.954, 56.07031
1008.065, 53.77588
1009.176, 35.48438
1010.286, 25.51367
1011.397, 15.00195
1012.507, 25.62256
1013.617, 16.33984
1014.727, 37.05908
1015.837, 48.64453
1016.946, 105.5049
1018.056, 94.23145
1019.165, 93.96045
1020.274, 132.6909
1021.383, 89.42432
1022.492, 97.15967
1023.601, 92.47607
1024.709, 152.0239
1025.817, 83.76660
1026.926, 31.34863
1028.034, 42.39307
1029.141, 55.13672
1030.249, 94.80225
1031.357, 101.5518
1032.464, 121.4058
1033.571, 188.0581
1034.678, 110.8154
1035.785, 105.7515
1036.892, 16.51465
1037.999, 72.28467
1039.105, 132.7944
1040.211, 73.57275
1041.317, 61.35400
1042.423, 105.1382
1043.529, 187.3599
1044.635, 103.1494
1045.740, 226.9419
1046.845, 171.4170
1047.951, 260.5986
1049.056, 219.4019
1050.160, 385.5449
1051.265, 393.3530
1052.370, 345.1636
1053.474, 360.9771
1054.578, 451.7935
1055.682, 404.9019
1056.786, 462.7231
1057.890, 438.5474
1058.993, 582.8242
1060.097, 741.6562
1061.200, 1104.933
1062.303, 1612.771
1063.406, 2759.612
1064.509, 5419.459
1065.612, 10400.31
1066.714, 16275.17
1067.816, 20909.40
1068.919, 28711.26
1070.021, 33107.12
1071.122, 29656.00
1072.224, 22877.87
1073.326, 15325.75
1074.427, 8600.622
1075.528, 4361.526
1076.629, 2478.410
1077.730, 1863.346
1078.831, 1554.236
1079.931, 1615.128
1081.032, 1856.025
1082.132, 2665.925
1083.232, 4753.827
1084.332, 10331.73
1085.432, 21304.64
1086.531, 28445.55
1087.631, 39099.46
1088.730, 52802.39
1089.829, 52206.31
1090.928, 41818.23
1092.027, 29559.17
1093.126, 16715.12
1094.224, 7520.065
1095.323, 3316.023
1096.421, 1786.985
1097.519, 1156.950
1098.617, 755.9180
1099.715, 625.8999
1100.812, 374.8945
1101.910, 305.8926
1103.007, 352.8945
1104.104, 263.9814
1105.201, 188.9888
1106.298, 103.4917
1107.394, 182.5098
1108.491, 127.8677
1109.587, 156.8911
1110.683, 108.9258
1111.779, 196.9639
1112.875, 124.0039
1113.971, 138.0474
1115.066, 155.0942
1116.162, 123.1436
1117.257, 40.19873
1118.352, 104.5151
1119.447, 152.5762
1120.542, 240.6392
1121.636, 229.8770
1122.731, 214.7754
1123.825, 221.1631
1124.919, 142.9785
1126.013, 144.0571
1127.107, 83.13770
1128.200, 131.2212
1129.294, 42.30762
1130.387, 91.10791
1131.480, 139.1997
1132.573, 72.29346
1133.666, 69.39062
1134.759, 22.49023
1135.851, 140.9214
1136.944, 68.02588
1138.036, 94.13281
1139.128, 124.2422
1140.220, 102.3540
1141.312, 109.4683
1142.403, 156.5850
1143.495, 127.7041
1144.586, 141.0254
1145.677, 97.94922
1146.768, 113.0752
1147.859, 147.2041
1148.950, 101.3350
1150.040, 56.46826
1151.130, 69.60400
1152.221, 113.7422
1153.311, 87.88281
1154.401, 101.7241
1155.490, 126.1768
1156.580, 88.33594
1157.669, 115.4976
1158.759, 106.5859
1159.848, 56.75586
1160.937, 155.9287
1162.025, 86.10889
1163.114, 37.29102
1164.202, 109.4756
1165.291, 18.66211
1166.379, 53.85107
1167.467, 89.14844
1168.555, 32.35059
1169.642, 13.90234
1170.730, 29.29736
1171.817, 77.49902
1172.905, 14.70312
1173.992, 8.090820
1175.078, 39.11377
1176.165, 100.3198
1177.252, 62.47168
1178.338, 93.70752
1179.425, 111.8921
1180.511, 5.921387
1181.597, 237.2637
1182.682, 37.45166
1183.768, 104.6416
1184.854, 83.83350
1185.939, 22.97266
1187.024, 4.211914
1188.109, 39.39941
1189.194, 84.58887
1190.279, 103.7949
1191.363, 32.00488
1192.448, 67.21875
1193.532, 120.4346
1194.616, 6.652832
1195.700, 87.87305
1196.784, 7.933594
1197.867, 5.841309
1198.951, 116.3813
1200.034, 34.60693
1201.117, 79.83350
1202.200, 29.06250
1203.283, 82.29297
1204.366, 53.52686
1205.448, 164.7622
1206.531, 128.0127
1207.613, 34.73535
1208.695, 112.5010
1209.777, 24.73877
1210.859, 27.14941
1211.940, 10.39160
1213.022, 51.63623
1214.103, 44.64307
1215.184, 158.1304
1216.265, 101.3799
1217.346, 10.63135
1218.427, 111.8853
1219.507, 129.1401
1220.587, 67.64697
1221.668, 96.90625
1222.748, 99.16699
1223.828, 29.42969
1224.907, 68.69434
1225.987, 90.96045
1227.066, 95.22803
1228.146, 53.49756
1229.225, 185.7686
1230.304, 102.2905
1231.382, 164.5649
1232.461, 113.8408
1233.540, 65.11816
1234.618, 21.40479
1235.696, 5.599609
1236.774, 69.97949
1237.852, 36.72363
1238.930, 100.5547
1240.007, 126.6318
1241.085, 25.91260
1242.162, 236.1958
1243.239, 73.47949
1244.316, 189.7646
1245.393, 91.05127
1246.469, 131.3394
1247.546, 128.6294
1248.622, 175.9238
1249.698, 143.2197
1250.774, 154.5166
1251.850, 28.81592
1252.926, 50.88379
1254.001, 25.75977
1255.077, 29.66602
1256.152, 21.92676
1257.227, 60.18848
1258.302, 121.4517
1259.377, 8.283203
1260.451, 173.9766
1261.526, 66.23779
1262.600, 134.4995
1263.674, 153.7637
1264.748, 50.97070
1265.822, 155.2671
1266.896, 150.5068
1267.969, 81.74756
1269.043, 88.98926
1270.116, 59.23340
1271.189, 130.4785
1272.262, 97.72510
1273.335, 95.97314
1274.407, 137.2231
1275.480, 118.4751
1276.552, 135.7280
1277.624, 93.98291
1278.696, 22.23877
1279.768, 33.49707
