##NAMES=Shortite
##RRUFFID=R040184
##IDEAL CHEMISTRY=Na_2_Ca_2_(CO_3_)_3_
##LOCALITY=Green River, Wyoming, USA
##OWNER=RRUFF
##SOURCE=University of Arizona Mineral Museum
##DESCRIPTION=Colorless single crystal fragments
##STATUS=The identification of this mineral has been confirmed by X-ray diffraction and chemical analysis
##URL=rruff.info/R040184
##MEASURED CHEMISTRY=(Na_1.47_Ca_0.27_[box]_0.26_)_Î£=2_Ca_2.00_(CO_3_)_3_
##PIN_ID=L00189
##ORIENTATION=Laser parallel to -a* (-1 0 0). Fiducial mark perpendicular to laser is parallel to b [0 1 0]
117.519, 0.000
118.915, 2.984
120.311, 3.594
121.706, 91.999
123.102, 393.706
124.497, 694.332
125.892, 1206.679
127.286, 1855.675
128.681, 2521.209
130.075, 2954.721
131.469, 3060.328
132.862, 3130.908
134.256, 3069.648
135.649, 3269.636
137.042, 3724.922
138.435, 3714.532
139.827, 3171.467
141.219, 2105.826
142.611, 1398.272
144.003, 783.529
145.394, 536.323
146.786, 435.247
148.177, 423.009
149.567, 522.171
150.958, 675.709
152.348, 857.595
153.738, 887.811
155.128, 879.343
156.517, 722.166
157.907, 527.254
159.296, 293.579
160.685, 206.111
162.073, 88.828
163.462, 16.288
164.850, 1.252
166.237, 88.077
167.625, 18.773
169.012, 25.353
170.400, 21.177
171.786, 33.177
173.173, 33.580
174.559, 25.552
175.946, 39.519
177.332, 185.688
178.717, 305.924
180.103, 526.314
181.488, 751.871
182.873, 847.548
184.258, 746.292
185.642, 703.130
187.026, 641.105
188.410, 645.219
189.794, 649.466
191.178, 770.877
192.561, 851.352
193.944, 1183.881
195.327, 1425.418
196.709, 1719.963
198.092, 1804.487
199.474, 1911.995
200.856, 1872.465
202.237, 1810.876
203.618, 1792.254
205.000, 1793.615
206.380, 1679.962
207.761, 1583.304
209.142, 1338.642
210.522, 1099.976
211.902, 864.308
213.281, 674.639
214.661, 508.965
216.040, 395.288
217.419, 311.609
218.798, 163.930
220.176, 163.249
221.554, 147.568
222.932, 100.892
224.310, 99.728
225.688, 122.984
227.065, 79.228
228.442, 97.962
229.819, 102.168
231.196, 64.130
232.572, 50.753
233.948, 158.000
235.324, 65.407
236.700, 212.827
238.075, 113.976
239.450, 235.912
240.825, 260.707
242.200, 245.372
243.574, 381.824
244.948, 356.592
246.322, 533.758
247.696, 591.654
249.070, 673.411
250.443, 859.874
251.816, 998.341
253.189, 1098.086
254.561, 1191.098
255.933, 1324.897
257.306, 1443.879
258.677, 1763.966
260.049, 2274.951
261.420, 2894.681
262.791, 4036.377
264.162, 5011.262
265.533, 5893.195
266.903, 6275.938
268.274, 5921.770
269.643, 5060.231
271.013, 3860.386
272.383, 2742.692
273.752, 2043.850
275.121, 1557.395
276.490, 1133.054
277.858, 884.218
279.226, 741.061
280.595, 544.577
281.962, 463.152
283.330, 366.632
284.697, 296.302
286.064, 369.420
287.431, 206.759
288.798, 253.262
290.164, 274.023
291.530, 224.780
292.896, 137.583
294.262, 146.462
295.627, 195.499
296.993, 142.634
298.358, 105.620
299.722, 149.632
301.087, 128.677
302.451, 141.745
303.815, 154.835
305.179, 124.947
306.543, 42.054
307.906, 118.059
309.269, 106.063
310.632, 136.066
311.995, 97.070
313.357, 131.094
314.719, 77.192
316.081, 157.251
317.443, 96.357
318.804, 114.446
320.166, 20.545
321.527, 83.653
322.887, 41.770
324.248, 17.893
325.608, 41.280
326.968, 29.425
328.328, 65.041
329.688, 3.124
331.047, 63.663
332.406, 67.309
333.765, 47.647
335.124, 23.819
336.482, 46.898
337.840, 10.930
339.198, 84.447
340.556, 14.611
341.913, 27.773
343.271, 2.068
344.628, 18.916
345.984, 5.763
347.341, 13.381
348.697, 15.481
350.053, 6.644
351.409, 51.764
352.765, 78.875
354.120, 7.979
355.475, 24.073
356.830, 48.157
358.185, 99.232
359.539, 1.296
360.894, 3.347
362.248, 45.385
363.601, 7.588
364.955, 47.576
366.308, 10.409
367.661, 55.382
369.014, 17.649
370.367, 1.700
371.719, 4.234
373.071, 14.155
374.423, 95.063
375.775, 9.038
377.126, 89.842
378.478, 6.712
379.828, 85.568
381.179, 14.414
382.530, 32.246
383.880, 17.067
385.230, 10.747
386.580, 30.957
387.929, 10.195
389.279, 91.976
390.628, 45.709
391.977, 6.516
393.325, 47.820
394.674, 30.848
396.022, 29.591
397.370, 6.204
398.718, 12.166
400.065, 10.408
401.413, 34.032
402.760, 8.261
404.106, 37.754
405.453, 12.724
406.799, 33.167
408.146, 6.427
409.491, 37.954
410.837, 22.685
412.182, 69.649
413.528, 51.054
414.873, 24.607
416.217, 80.651
417.562, 4.110
418.906, 62.101
420.250, 48.346
421.594, 28.731
422.938, 80.952
424.281, 18.209
425.624, 55.624
426.967, 0.888
428.310, 97.206
429.652, 89.208
430.994, 58.492
432.336, 82.552
433.678, 23.748
435.020, 82.363
436.361, 42.299
437.702, 72.346
439.043, 106.240
440.383, 125.122
441.724, 142.213
443.064, 75.177
444.404, 107.027
445.743, 128.228
447.083, 138.124
448.422, 157.114
449.761, 120.937
451.100, 63.094
452.438, 87.935
453.777, 118.890
455.115, 127.771
456.453, 72.823
457.790, 57.797
459.128, 184.537
460.465, 160.264
461.802, 163.097
463.139, 165.838
464.475, 156.975
465.811, 153.852
467.147, 144.858
468.483, 138.833
469.819, 176.885
471.154, 209.379
472.489, 188.079
473.824, 180.237
475.159, 98.188
476.493, 208.951
477.827, 105.058
479.161, 133.884
480.495, 183.407
481.829, 206.080
483.162, 156.734
484.495, 229.245
485.828, 59.507
487.161, 277.716
488.493, 182.407
489.825, 142.045
491.157, 250.273
492.489, 100.680
493.820, 148.293
495.151, 195.549
496.482, 169.916
497.813, 180.556
499.144, 197.129
500.474, 210.760
501.804, 216.410
503.134, 229.819
504.464, 138.947
505.793, 142.590
507.123, 250.262
508.451, 166.781
509.780, 280.683
511.109, 177.624
512.437, 184.816
513.765, 227.994
515.093, 146.442
516.421, 211.587
517.748, 281.089
519.075, 137.271
520.402, 231.805
521.729, 131.561
523.055, 298.628
524.382, 188.633
525.708, 203.991
527.034, 273.719
528.359, 162.925
529.685, 199.000
531.010, 161.039
532.335, 190.391
533.659, 181.065
534.984, 154.001
536.308, 217.438
537.632, 211.342
538.956, 168.627
540.279, 144.500
541.603, 165.981
542.926, 179.777
544.249, 46.274
545.571, 209.361
546.894, 125.147
548.216, 37.204
549.538, 217.972
550.860, 104.695
552.181, 172.878
553.503, 113.436
554.824, 88.987
556.145, 133.488
557.465, 106.289
558.786, 174.958
560.106, 148.866
561.426, 52.103
562.746, 149.928
564.065, 98.872
565.385, 102.752
566.704, 113.112
568.023, 136.979
569.341, 160.399
570.660, 133.194
571.978, 81.748
573.296, 94.206
574.614, 117.828
575.931, 126.365
577.248, 112.227
578.565, 82.681
579.882, 45.058
581.199, 78.128
582.515, 60.599
583.831, 20.365
585.147, 45.704
586.463, 24.724
587.779, 152.212
589.094, 24.622
590.409, 73.909
591.724, 38.285
593.038, 1.061
594.353, 92.492
595.667, 63.585
596.981, 128.060
598.295, 107.373
599.608, 44.674
600.922, 72.963
602.235, 142.176
603.547, 17.441
604.860, 84.710
606.172, 59.949
607.485, 105.295
608.797, 18.516
610.108, 88.587
611.420, 58.974
612.731, 22.846
614.042, 30.303
615.353, 45.328
616.664, 108.273
617.974, 127.389
619.284, 23.509
620.594, 88.563
621.904, 7.624
623.213, 49.668
624.523, 16.764
625.832, 19.778
627.141, 8.777
628.449, 20.234
629.758, 75.725
631.066, 0.901
632.374, 12.830
633.681, 50.824
634.989, 0.722
636.296, 28.574
637.603, 111.441
638.910, 58.296
640.217, 59.137
641.523, 90.027
642.829, 4.156
644.135, 19.615
645.441, 35.153
646.747, 45.273
648.052, 59.014
649.357, 105.743
650.662, 44.382
651.967, 53.914
653.271, 124.745
654.575, 28.392
655.879, 38.024
657.183, 23.648
658.486, 15.257
659.790, 69.121
661.093, 8.786
662.396, 40.582
663.698, 44.234
665.001, 22.771
666.303, 63.318
667.605, 7.881
668.907, 98.650
670.209, 164.359
671.510, 1.134
672.811, 132.358
674.112, 6.105
675.413, 78.570
676.713, 91.235
678.013, 56.925
679.313, 94.364
680.613, 56.875
681.913, 80.453
683.212, 125.059
684.511, 13.376
685.810, 127.231
687.109, 113.850
688.407, 162.238
689.706, 212.944
691.004, 382.594
692.302, 657.952
693.599, 1203.445
694.897, 1397.789
696.194, 1178.135
697.491, 664.766
698.788, 416.064
700.084, 130.694
701.380, 180.891
702.677, 141.464
703.972, 169.040
705.268, 319.903
706.564, 275.333
707.859, 592.541
709.154, 727.806
710.449, 738.073
711.743, 546.227
713.037, 327.478
714.332, 198.688
715.626, 284.931
716.919, 196.302
718.213, 258.416
719.506, 223.652
720.799, 198.912
722.092, 282.137
723.384, 164.910
724.677, 457.154
725.969, 485.883
727.261, 1280.188
728.553, 2764.305
729.844, 3657.798
731.136, 3247.054
732.427, 1770.497
733.718, 687.688
735.008, 498.785
736.299, 276.100
737.589, 319.307
738.879, 170.667
740.169, 167.762
741.458, 241.657
742.748, 85.691
744.037, 262.335
745.326, 148.132
746.614, 150.096
747.903, 232.914
749.191, 81.474
750.479, 262.499
751.767, 53.394
753.055, 253.684
754.342, 274.977
755.629, 183.298
756.916, 194.561
758.203, 170.638
759.490, 100.374
760.776, 203.670
762.062, 75.461
763.348, 165.266
764.634, 156.849
765.919, 52.112
767.204, 233.158
768.489, 156.950
769.774, 186.866
771.059, 256.679
772.343, 166.952
773.627, 216.804
774.911, 107.686
776.195, 195.884
777.479, 167.256
778.762, 87.864
780.045, 279.368
781.328, 126.829
782.611, 141.386
783.893, 152.279
785.175, 47.944
786.457, 187.126
787.739, 70.491
789.021, 206.081
790.302, 102.240
791.583, 187.656
792.864, 159.659
794.145, 111.180
795.425, 87.880
796.706, 138.671
797.986, 113.527
799.266, 144.413
800.545, 13.789
801.825, 121.194
803.104, 117.867
804.383, 204.472
805.662, 227.071
806.940, 106.783
808.219, 133.447
809.497, 176.989
810.775, 111.302
812.053, 128.546
813.330, 33.777
814.608, 78.193
815.885, 86.027
817.162, 32.739
818.438, 156.023
819.715, 147.978
820.991, 14.675
822.267, 135.820
823.543, 57.339
824.818, 129.816
826.094, 136.897
827.369, 39.316
828.644, 142.352
829.919, 53.783
831.193, 46.162
832.468, 134.628
833.742, 84.212
835.016, 66.419
836.289, 61.203
837.563, 12.453
838.836, 53.106
840.109, 49.823
841.382, 174.207
842.654, 25.595
843.927, 36.878
845.199, 156.149
846.471, 70.714
847.743, 136.973
849.014, 101.588
850.286, 30.827
851.557, 9.925
852.828, 26.304
854.099, 37.521
855.369, 36.912
856.639, 37.108
857.909, 114.297
859.179, 68.620
860.449, 219.788
861.718, 488.992
862.988, 584.145
864.257, 587.289
865.525, 292.428
866.794, 118.557
868.062, 113.680
869.331, 72.794
870.599, 77.898
871.866, 116.006
873.134, 28.896
874.401, 199.177
875.668, 100.757
876.935, 100.246
878.202, 0.240
879.468, 12.778
880.735, 168.185
882.001, 65.858
883.267, 91.053
884.532, 42.974
885.798, 102.881
887.063, 107.781
888.328, 14.775
889.593, 71.686
890.857, 14.588
892.122, 30.482
893.386, 141.367
894.650, 52.243
895.913, 21.961
897.177, 103.887
898.440, 11.264
899.703, 123.569
900.966, 63.399
902.229, 129.126
903.491, 159.942
904.754, 44.536
906.016, 41.337
907.278, 0.875
908.539, 18.911
909.801, 85.685
911.062, 79.449
912.323, 15.188
913.584, 154.932
914.844, 28.455
916.105, 194.257
917.365, 16.961
918.625, 36.428
919.885, 159.109
921.144, 33.790
922.404, 71.460
923.663, 20.882
924.922, 127.756
926.180, 72.384
927.439, 13.009
928.697, 124.624
929.955, 234.230
931.213, 98.763
932.471, 164.354
933.728, 17.064
934.985, 208.499
936.242, 124.062
937.499, 126.384
938.756, 173.931
940.012, 97.335
941.269, 154.865
942.525, 150.393
943.780, 38.914
945.036, 224.426
946.291, 68.928
947.546, 75.357
948.801, 154.841
950.056, 119.318
951.311, 193.794
952.565, 213.897
953.819, 62.357
955.073, 261.810
956.327, 61.252
957.580, 153.685
958.834, 94.126
960.087, 53.559
961.339, 193.979
962.592, 216.394
963.845, 108.799
965.097, 231.305
966.349, 27.391
967.601, 75.254
968.852, 163.540
970.104, 93.101
971.355, 168.220
972.606, 32.747
973.857, 101.523
975.107, 108.592
976.358, 85.840
977.608, 163.080
978.858, 170.143
980.108, 16.635
981.357, 165.964
982.607, 62.916
983.856, 70.100
985.105, 167.683
986.353, 4.689
987.602, 141.817
988.850, 17.862
990.098, 24.781
991.346, 102.487
992.594, 99.595
993.841, 196.546
995.089, 133.764
996.336, 50.851
997.583, 139.164
998.829, 36.229
1000.076, 223.345
1001.322, 274.758
1002.568, 210.836
1003.814, 317.692
1005.060, 84.523
1006.305, 211.271
1007.550, 128.917
1008.795, 95.929
1010.040, 242.860
1011.285, 120.245
1012.529, 217.476
1013.773, 314.634
1015.017, 182.587
1016.261, 379.577
1017.505, 207.290
1018.748, 264.346
1019.991, 371.622
1021.234, 211.165
1022.477, 268.115
1023.719, 323.644
1024.962, 251.543
1026.204, 322.045
1027.446, 209.818
1028.688, 246.291
1029.929, 272.619
1031.170, 170.352
1032.411, 313.001
1033.652, 354.200
1034.893, 200.945
1036.134, 398.077
1037.374, 122.186
1038.614, 408.846
1039.854, 346.340
1041.094, 383.633
1042.333, 440.080
1043.572, 337.349
1044.811, 354.829
1046.050, 460.325
1047.289, 369.374
1048.527, 585.411
1049.766, 543.676
1051.004, 500.768
1052.241, 717.639
1053.479, 474.982
1054.717, 642.317
1055.954, 538.699
1057.191, 667.241
1058.428, 673.755
1059.664, 880.476
1060.901, 1017.557
1062.137, 1443.754
1063.373, 1760.816
1064.609, 2635.939
1065.844, 4862.491
1067.080, 11359.369
1068.315, 26825.586
1069.550, 33652.211
1070.785, 24688.383
1072.019, 11594.699
1073.254, 5109.948
1074.488, 2886.536
1075.722, 1892.811
1076.955, 1349.534
1078.189, 1415.957
1079.422, 1382.695
1080.656, 1379.084
1081.889, 1645.507
1083.121, 2000.852
1084.354, 3307.357
1085.586, 6583.795
1086.818, 21920.455
1088.050, 45666.914
1089.282, 42393.496
1090.514, 20691.361
1091.745, 7807.789
1092.976, 3164.305
1094.207, 1690.765
1095.438, 1056.954
1096.668, 663.697
1097.899, 810.037
1099.129, 326.359
1100.359, 423.342
1101.588, 579.633
1102.818, 186.214
1104.047, 532.607
1105.276, 308.617
1106.505, 305.630
1107.734, 371.760
1108.962, 177.814
1110.191, 314.393
1111.419, 270.528
1112.647, 86.890
1113.874, 223.294
1115.102, 97.688
1116.329, 133.772
1117.556, 250.296
1118.783, 170.538
1120.010, 306.969
1121.236, 241.041
1122.463, 206.934
1123.689, 252.837
1124.914, 209.009
1126.140, 155.054
1127.366, 251.177
1128.591, 23.710
1129.816, 352.119
1131.041, 298.195
1132.266, 63.925
1133.490, 329.836
1134.714, 145.095
1135.938, 170.974
1137.162, 336.476
1138.386, 2.058
1139.609, 388.309
1140.833, 143.877
1142.056, 89.877
1143.279, 408.312
1144.501, 16.341
1145.724, 269.646
1146.946, 175.193
1148.168, 69.293
1149.390, 273.648
1150.612, 169.118
1151.833, 184.536
1153.054, 300.881
1154.275, 6.254
1155.496, 253.087
1156.717, 192.123
1157.937, 117.418
1159.158, 154.091
1160.378, 169.568
1161.598, 4.932
1162.817, 276.297
1164.037, 42.061
1165.256, 197.189
1166.475, 116.453
1167.694, 28.296
1168.913, 227.029
1170.131, 73.579
1171.349, 18.552
1172.567, 194.293
1173.785, 29.521
1175.003, 204.796
1176.220, 101.065
1177.438, 35.913
1178.655, 201.053
1179.872, 53.099
1181.088, 191.635
1182.305, 156.499
1183.521, 98.336
1184.737, 176.172
1185.953, 41.384
1187.169, 35.899
1188.384, 260.456
1189.599, 118.672
1190.814, 33.087
1192.029, 168.217
1193.244, 16.975
1194.459, 167.325
1195.673, 1.734
1196.887, 112.491
1198.101, 206.682
1199.314, 91.881
1200.528, 46.000
1201.741, 490.508
1202.954, 14.850
1204.167, 189.164
1205.380, 203.880
1206.592, 107.923
1207.805, 431.834
1209.017, 137.357
1210.229, 151.201
1211.440, 425.717
1212.652, 80.287
1213.863, 294.050
1215.074, 227.816
1216.285, 302.146
1217.496, 365.822
1218.707, 211.087
1219.917, 224.699
1221.127, 298.396
1222.337, 97.256
1223.547, 510.763
1224.756, 185.591
1225.966, 299.740
1227.175, 423.437
1228.384, 252.733
1229.592, 275.893
1230.801, 409.184
1232.009, 255.042
1233.217, 308.256
1234.425, 251.433
1235.633, 50.694
1236.841, 503.784
1238.048, 206.840
1239.255, 290.156
1240.462, 443.159
1241.669, 176.464
1242.876, 719.823
1244.082, 422.747
1245.288, 147.240
1246.494, 360.109
1247.700, 182.949
1248.906, 276.043
1250.111, 438.828
1251.316, 121.660
1252.521, 304.389
1253.726, 277.091
1254.931, 209.767
1256.135, 492.414
1257.339, 245.031
1258.543, 237.243
1259.747, 499.805
1260.951, 262.011
1262.154, 194.335
1263.357, 486.802
1264.560, 207.515
1265.763, 301.919
1266.966, 353.613
1268.168, 366.356
1269.371, 221.422
1270.573, 279.427
1271.775, 256.787
1272.976, 229.990
1274.178, 314.987
1275.379, 193.279
1276.580, 277.820
1277.781, 279.905
1278.982, 319.598
1280.182, 277.217
1281.383, 260.438
1282.583, 242.801
1283.783, 153.818
1284.982, 391.442
1286.182, 233.004
1287.381, 14.302
1288.580, 305.991
1289.779, 216.206
1290.978, 227.763
1292.177, 359.871
1293.375, 63.315
1294.573, 310.269
1295.771, 341.521
1296.969, 92.800
1298.166, 364.113
1299.364, 64.482
1300.561, 4.286
1301.758, 456.834
1302.955, 67.568
1304.151, 258.646
1305.348, 279.375
1306.544, 40.812
1307.740, 171.740
1308.936, 411.545
1310.132, 8.039
1311.327, 273.115
1312.522, 240.824
1313.717, 61.179
1314.912, 330.859
1316.107, 130.162
1317.301, 240.262
1318.496, 219.565
1319.690, 69.624
1320.884, 359.199
1322.077, 228.414
1323.271, 98.322
1324.464, 383.889
1325.657, 263.651
1326.850, 183.214
1328.043, 345.760
1329.235, 135.311
1330.428, 344.202
1331.620, 273.000
1332.812, 7.347
1334.004, 421.676
1335.195, 120.198
1336.387, 179.332
1337.578, 336.376
1338.769, 54.630
1339.960, 343.061
1341.150, 351.678
1342.341, 80.641
1343.531, 379.067
1344.721, 177.147
1345.911, 136.113
1347.100, 396.041
1348.290, 114.650
1349.479, 253.278
1350.668, 321.878
1351.857, 40.625
1353.046, 308.846
1354.234, 121.379
1355.422, 110.004
1356.610, 317.863
1357.798, 268.619
1358.986, 127.027
1360.174, 445.521
1361.361, 43.989
1362.548, 332.233
1363.735, 240.518
1364.922, 31.211
1366.108, 406.304
1367.295, 54.493
1368.481, 117.884
1369.667, 189.858
1370.853, 42.450
1372.038, 104.952
1373.224, 272.502
1374.409, 150.055
1375.594, 297.139
1376.779, 304.544
1377.963, 48.161
1379.148, 358.104
1380.332, 306.300
1381.516, 176.492
1382.700, 426.569
1383.884, 167.151
1385.067, 146.983
1386.251, 516.771
1387.434, 36.366
1388.617, 386.581
1389.799, 446.474
1390.982, 176.144
1392.164, 646.176
1393.346, 225.853
1394.528, 285.482
1395.710, 705.598
1396.892, 525.071
1398.073, 854.414
1399.254, 1573.817
1400.435, 983.410
1401.616, 1253.122
1402.797, 862.351
1403.977, 381.329
1405.157, 657.183
1406.338, 246.231
1407.517, 65.363
1408.697, 625.552
1409.877, 123.566
1411.056, 311.059
1412.235, 555.415
1413.414, 72.469
1414.593, 323.309
1415.771, 181.571
1416.949, 84.740
1418.128, 541.168
1419.306, 78.968
1420.483, 206.917
1421.661, 343.794
1422.838, 150.636
1424.016, 329.224
1425.193, 477.344
1426.369, 44.771
1427.546, 298.304
1428.723, 395.935
1429.899, 194.002
1431.075, 572.365
1432.251, 279.371
1433.426, 67.326
1434.602, 554.982
1435.777, 12.212
1436.952, 188.045
1438.127, 385.404
1439.302, 202.556
1440.477, 419.849
1441.651, 325.383
1442.825, 183.543
1443.999, 482.221
1445.173, 78.098
1446.347, 224.277
1447.520, 433.217
1448.693, 13.834
1449.866, 141.113
1451.039, 467.949
1452.212, 5.900
1453.384, 439.182
1454.557, 242.271
1455.729, 98.553
1456.901, 434.088
1458.072, 289.932
1459.244, 175.789
1460.415, 651.510
1461.586, 197.078
1462.757, 512.496
1463.928, 517.834
1465.099, 490.438
1466.269, 1234.494
1467.439, 1457.436
1468.609, 822.193
1469.779, 1165.625
1470.949, 608.730
1472.118, 802.891
1473.288, 1287.559
1474.457, 924.496
1475.625, 1328.426
1476.794, 1462.492
1477.963, 674.201
1479.131, 610.566
1480.299, 703.797
1481.467, 116.818
1482.635, 439.713
1483.803, 352.111
1484.970, 139.129
1486.137, 674.111
1487.304, 65.791
1488.471, 68.984
1489.638, 603.682
1490.804, 11.713
1491.970, 182.814
1493.136, 617.326
1494.302, 78.064
1495.468, 316.604
1496.634, 401.389
1497.799, 43.340
1498.964, 502.545
1500.129, 39.006
1501.294, 76.074
1502.458, 653.686
1503.623, 342.336
1504.787, 211.330
1505.951, 865.289
1507.115, 743.395
1508.279, 1613.229
1509.442, 2999.814
1510.605, 3280.348
1511.768, 3378.967
1512.931, 2156.758
1514.094, 824.309
1515.257, 941.908
1516.419, 527.207
1517.581, 215.586
1518.743, 608.754
1519.905, 0.000
##END=



