##NAMES=Siderite
##RRUFFID=R040034
##IDEAL CHEMISTRY=Fe^2+^CO_3_
##LOCALITY=Pribram, Czech Republic
##OWNER=RRUFF
##SOURCE=University of Arizona Mineral Museum
##DESCRIPTION=Group of tan colored flattened rhombohedra
##STATUS=The identification of this mineral has been confirmed by X-ray diffraction and chemical analysis
##URL=rruff.info/R040034
##MEASURED CHEMISTRY=(Fe_0.72_Mg_0.24_Mn_0.03_Ca_0.01_)_Î£=1_C_1.00_O_3_; CO_2_ estimated by difference
##PIN_ID=M00043
##ORIENTATION=Laser parallel to -a* (-1 0 0). Fiducial mark perpendicular to laser is parallel to c [0 0 1]
90.587, 0.000
91.981, 0.415
93.375, 1.540
94.768, 28.873
96.161, 25.847
97.554, 28.362
98.947, 39.772
100.340, 55.658
101.732, 46.739
103.124, 59.794
104.516, 147.653
105.908, 157.182
107.300, 162.280
108.691, 158.900
110.082, 185.999
111.473, 164.510
112.864, 198.370
114.254, 205.443
115.644, 208.943
117.034, 237.591
118.424, 215.433
119.813, 233.450
121.203, 216.625
122.592, 206.452
123.981, 153.539
125.369, 178.328
126.758, 155.398
128.146, 136.674
129.534, 192.021
130.922, 194.436
132.309, 187.898
133.696, 169.400
135.083, 185.257
136.470, 198.505
137.857, 215.104
139.243, 215.734
140.630, 245.392
142.016, 240.371
143.401, 250.791
144.787, 238.529
146.172, 265.293
147.557, 264.082
148.942, 256.894
150.327, 285.730
151.711, 346.589
153.096, 342.469
154.480, 357.757
155.863, 359.177
157.247, 351.545
158.630, 423.992
160.013, 426.007
161.396, 490.082
162.779, 532.354
164.161, 538.698
165.544, 633.933
166.926, 675.368
168.308, 697.279
169.689, 783.726
171.070, 876.104
172.452, 996.162
173.833, 1055.258
175.213, 1157.340
176.594, 1287.416
177.974, 1443.490
179.354, 1678.567
180.734, 1878.661
182.114, 2078.765
183.493, 2466.878
184.872, 2675.000
186.251, 3034.132
187.630, 3209.274
189.008, 3333.427
190.387, 3258.591
191.765, 2996.766
193.143, 2740.953
194.520, 2191.151
195.898, 1830.361
197.275, 1410.581
198.652, 1122.812
200.029, 832.054
201.405, 656.307
202.782, 494.570
204.158, 362.844
205.534, 309.128
206.909, 205.422
208.285, 222.727
209.660, 120.040
211.035, 81.362
212.410, 80.692
213.784, 37.031
215.159, 45.378
216.533, 33.733
217.907, 6.903
219.281, 19.532
220.654, 15.153
222.027, 21.234
223.400, 8.371
224.773, 20.968
226.146, 4.442
227.518, 6.140
228.891, 12.715
230.263, 37.282
231.634, 14.158
233.006, 9.395
234.377, 24.939
235.748, 25.522
237.119, 31.043
238.490, 19.793
239.860, 6.760
241.231, 43.405
242.601, 9.017
243.970, 39.601
245.340, 22.103
246.709, 8.268
248.079, 17.151
249.448, 6.788
250.816, 22.403
252.185, 19.594
253.553, 11.159
254.921, 41.022
256.289, 74.037
257.657, 61.686
259.024, 42.502
260.391, 19.429
261.758, 98.431
263.125, 72.497
264.492, 86.616
265.858, 78.783
267.224, 158.991
268.590, 137.875
269.956, 181.250
271.321, 167.723
272.687, 213.059
274.052, 216.419
275.416, 311.802
276.781, 341.204
278.146, 361.625
279.510, 393.062
280.874, 536.516
282.237, 682.984
283.601, 711.466
284.964, 791.962
286.327, 1021.471
287.690, 1086.991
289.053, 1271.523
290.416, 1421.063
291.778, 1407.611
293.140, 1471.166
294.502, 1327.727
295.863, 1351.295
297.225, 1220.870
298.586, 1044.449
299.947, 919.035
301.308, 761.626
302.668, 643.224
304.029, 582.825
305.389, 523.431
306.749, 441.042
308.108, 380.660
309.468, 316.281
310.827, 307.906
312.186, 211.542
313.545, 182.182
314.903, 233.826
316.262, 153.473
317.620, 203.135
318.978, 155.797
320.336, 183.454
321.693, 108.117
323.051, 85.777
324.408, 83.436
325.765, 115.087
327.121, 130.730
328.478, 140.368
329.834, 87.011
331.190, 80.655
332.546, 88.315
333.902, 69.976
335.257, 63.638
336.612, 99.305
337.967, 131.974
339.322, 95.647
340.677, 110.322
342.031, 82.001
343.385, 49.682
344.739, 48.367
346.093, 73.055
347.446, 71.746
348.799, 89.449
350.153, 84.155
351.505, 64.866
352.858, 45.579
354.210, 56.263
355.563, 26.014
356.915, 82.736
358.267, 90.460
359.618, 118.187
360.969, 83.915
362.321, 85.653
363.672, 62.393
365.022, 53.137
366.373, 63.884
367.723, 50.631
369.073, 85.381
370.423, 77.132
371.773, 49.884
373.122, 79.638
374.471, 85.393
375.821, 9.150
377.169, 14.917
378.518, 46.686
379.866, 10.545
381.215, 8.072
382.563, 46.260
383.910, 18.388
385.258, 19.376
386.605, 31.944
387.952, 7.934
389.299, 52.829
390.646, 32.458
391.992, 2.881
393.339, 34.271
394.685, 1.035
396.031, 35.563
397.376, 15.502
398.722, 1.257
400.067, 2.889
401.412, 10.637
402.757, 6.101
404.101, 5.014
405.446, 8.555
406.790, 2.815
408.134, 5.081
409.478, 3.591
410.821, 38.861
412.165, 16.343
413.508, 17.781
414.851, 5.943
416.193, 6.736
417.536, 3.586
418.878, 8.091
420.220, 60.772
421.562, 38.284
422.904, 56.143
424.245, 29.832
425.586, 20.522
426.927, 16.213
428.268, 14.906
429.609, 8.401
430.949, 2.288
432.289, 0.678
433.629, 55.288
434.969, 28.974
436.309, 34.739
437.648, 80.425
438.987, 55.111
440.326, 31.893
441.665, 65.675
443.003, 96.428
444.342, 93.253
445.680, 143.113
447.018, 132.915
448.355, 48.974
449.693, 79.743
451.030, 79.445
452.367, 139.184
453.704, 59.861
455.041, 111.546
456.377, 96.488
457.713, 101.242
459.049, 118.915
460.385, 158.722
461.721, 145.492
463.056, 149.274
464.391, 133.961
465.726, 173.650
467.061, 192.321
468.395, 311.271
469.730, 266.939
471.064, 295.240
472.398, 246.654
473.731, 273.432
475.065, 289.102
476.398, 273.861
477.731, 293.669
479.064, 315.516
480.397, 322.631
481.729, 334.391
483.062, 357.188
484.394, 339.151
485.725, 382.136
487.057, 373.935
488.389, 441.861
489.720, 418.343
491.051, 449.079
492.382, 470.568
493.712, 443.353
495.043, 452.099
496.373, 473.164
497.703, 448.831
499.032, 518.614
500.362, 486.255
501.691, 529.049
503.020, 493.795
504.349, 499.551
505.678, 518.542
507.007, 525.261
508.335, 517.220
509.663, 508.889
510.991, 579.092
512.319, 550.953
513.646, 592.754
514.973, 531.554
516.300, 600.236
517.627, 500.025
518.954, 481.800
520.280, 540.567
521.607, 452.770
522.933, 488.605
524.259, 571.864
525.584, 455.544
526.910, 520.164
528.235, 479.836
529.560, 453.458
530.885, 419.100
532.209, 395.693
533.534, 464.371
534.858, 386.045
536.182, 369.954
537.506, 439.527
538.829, 382.102
540.152, 351.830
541.476, 396.464
542.799, 352.026
544.121, 332.343
545.444, 334.896
546.766, 353.536
548.088, 301.422
549.410, 302.962
550.732, 277.751
552.053, 287.965
553.375, 241.494
554.696, 220.844
556.017, 235.362
557.337, 211.557
558.658, 213.343
559.978, 196.686
561.298, 206.186
562.618, 174.679
563.938, 161.154
565.257, 167.031
566.576, 198.191
567.895, 213.227
569.214, 221.337
570.533, 152.423
571.851, 113.844
573.170, 222.177
574.488, 137.144
575.805, 171.579
577.123, 119.648
578.440, 86.071
579.758, 144.486
581.075, 119.900
582.391, 121.317
583.708, 72.726
585.024, 132.137
586.341, 119.541
587.657, 88.939
588.972, 112.690
590.288, 86.976
591.603, 0.813
592.918, 105.551
594.233, 29.909
595.548, 80.259
596.863, 86.602
598.177, 26.937
599.491, 27.263
600.805, 34.581
602.119, 18.901
603.432, 16.212
604.746, 23.603
606.059, 6.933
607.372, 32.223
608.685, 48.505
609.997, 39.840
611.309, 55.104
612.621, 53.289
613.933, 12.843
615.245, 37.080
616.557, 62.491
617.868, 24.711
619.179, 34.542
620.490, 32.399
621.801, 55.892
623.111, 55.280
624.421, 66.656
625.731, 14.046
627.041, 62.202
628.351, 39.589
629.660, 9.189
630.970, 35.954
632.279, 62.426
633.588, 40.524
634.896, 22.388
636.205, 22.780
637.513, 7.908
638.821, 2.900
640.129, 14.358
641.437, 14.671
642.744, 13.676
644.051, 29.875
645.358, 16.935
646.665, 0.412
647.972, 50.465
649.278, 31.579
650.584, 41.090
651.890, 50.007
653.196, 14.053
654.502, 68.265
655.807, 40.338
657.113, 86.780
658.418, 44.278
659.722, 55.148
661.027, 51.979
662.331, 20.982
663.636, 59.920
664.940, 20.973
666.244, 70.975
667.547, 10.912
668.851, 29.970
670.154, 40.117
671.457, 42.172
672.760, 70.698
674.062, 46.830
675.365, 49.708
676.667, 50.502
677.969, 7.706
679.271, 36.676
680.572, 11.279
681.874, 73.295
683.175, 86.943
684.476, 73.695
685.777, 84.324
687.077, 78.858
688.378, 117.607
689.678, 68.118
690.978, 67.615
692.278, 18.620
693.577, 118.832
694.877, 107.114
696.176, 116.779
697.475, 70.323
698.774, 101.861
700.072, 107.411
701.371, 143.921
702.669, 70.391
703.967, 123.806
705.265, 180.175
706.562, 104.517
707.860, 76.846
709.157, 240.164
710.454, 172.469
711.751, 245.763
713.047, 268.044
714.344, 285.316
715.640, 280.578
716.936, 377.828
718.232, 500.064
719.527, 409.289
720.823, 589.501
722.118, 651.704
723.413, 779.066
724.708, 807.248
726.002, 953.447
727.297, 874.180
728.591, 1007.562
729.885, 1040.848
731.179, 983.056
732.472, 953.348
733.766, 887.466
735.059, 843.572
736.352, 767.043
737.645, 685.086
738.937, 733.154
740.230, 628.277
741.522, 543.382
742.814, 597.541
744.106, 577.557
745.397, 447.769
746.689, 377.931
747.980, 379.489
749.271, 299.660
750.562, 346.538
751.853, 257.625
753.143, 226.555
754.433, 280.404
755.723, 155.210
757.013, 216.374
758.303, 122.237
759.592, 161.925
760.881, 73.710
762.170, 168.171
763.459, 119.906
764.748, 86.734
766.036, 109.471
767.325, 45.255
768.613, 171.016
769.901, 122.554
771.188, 57.217
772.476, 132.946
773.763, 16.728
775.050, 15.328
776.337, 36.042
777.624, 51.692
778.910, 52.324
780.196, 46.996
781.482, 103.696
782.768, 43.074
784.054, 79.940
785.339, 4.226
786.625, 27.731
787.910, 134.277
789.195, 108.777
790.479, 71.146
791.764, 77.459
793.048, 58.986
794.332, 59.177
795.616, 53.321
796.900, 39.455
798.183, 42.552
799.467, 72.848
800.750, 38.028
802.033, 66.509
803.316, 86.777
804.598, 11.718
805.880, 82.463
807.163, 48.667
808.445, 19.536
809.726, 35.987
811.008, 8.106
812.289, 42.652
813.570, 77.090
814.851, 83.181
816.132, 39.246
817.413, 53.324
818.693, 20.394
819.973, 38.207
821.253, 38.593
822.533, 17.128
823.813, 8.011
825.092, 6.877
826.371, 2.058
827.650, 8.014
828.929, 33.833
830.208, 50.679
831.486, 47.514
832.764, 1.898
834.042, 81.631
835.320, 25.076
836.598, 62.770
837.875, 34.660
839.152, 60.481
840.429, 80.335
841.706, 25.155
842.983, 84.005
844.259, 104.757
845.536, 15.495
846.812, 123.979
848.088, 18.214
849.363, 18.567
850.639, 45.336
851.914, 43.005
853.189, 36.753
854.464, 44.490
855.739, 50.703
857.013, 59.839
858.288, 68.544
859.562, 117.240
860.836, 117.925
862.110, 77.536
863.383, 148.203
864.656, 118.861
865.930, 179.509
867.203, 182.148
868.475, 168.779
869.748, 110.400
871.020, 136.012
872.292, 111.615
873.564, 113.210
874.836, 82.795
876.108, 24.372
877.379, 70.938
878.650, 57.496
879.922, 2.951
881.192, 10.588
882.463, 31.118
883.733, 46.638
885.004, 23.149
886.274, 75.651
887.544, 129.144
888.813, 17.371
890.083, 26.907
891.352, 73.532
892.621, 29.037
893.890, 43.369
895.159, 26.765
896.427, 63.153
897.695, 7.534
898.964, 15.906
900.232, 7.268
901.499, 6.625
902.767, 58.972
904.034, 19.312
905.301, 71.644
906.568, 45.968
907.835, 67.285
909.102, 36.404
910.368, 20.880
911.634, 109.157
912.900, 32.571
914.166, 107.558
915.432, 58.800
916.697, 39.037
917.962, 65.216
919.227, 70.453
920.492, 57.454
921.757, 34.685
923.021, 62.909
924.285, 112.945
925.550, 0.159
926.813, 70.745
928.077, 8.292
929.341, 76.186
930.604, 85.171
931.867, 32.154
933.130, 5.890
934.393, 128.283
935.655, 7.211
936.918, 135.289
938.180, 23.427
939.442, 35.222
940.703, 20.377
941.965, 38.527
943.226, 40.575
944.488, 7.646
945.749, 27.640
947.009, 105.636
948.270, 51.607
949.530, 79.518
950.791, 25.440
952.051, 74.487
953.311, 74.102
954.570, 69.124
955.830, 26.229
957.089, 69.596
958.348, 52.701
959.607, 92.662
960.866, 4.558
962.124, 44.347
963.383, 51.870
964.641, 19.678
965.899, 55.388
967.156, 49.478
968.414, 32.617
969.671, 22.333
970.928, 40.100
972.185, 9.998
973.442, 113.902
974.699, 224.666
975.955, 158.325
977.211, 33.936
978.468, 37.312
979.723, 46.940
980.979, 53.810
982.234, 134.750
983.490, 11.677
984.745, 119.996
986.000, 122.080
987.254, 82.735
988.509, 158.746
989.763, 30.640
991.017, 99.644
992.271, 63.731
993.525, 68.589
994.779, 161.675
996.032, 150.766
997.285, 133.577
998.538, 49.678
999.791, 103.939
1001.044, 127.803
1002.296, 220.780
1003.548, 131.750
1004.800, 183.694
1006.052, 75.675
1007.304, 139.682
1008.555, 77.729
1009.807, 167.817
1011.058, 157.918
1012.309, 248.021
1013.559, 216.125
1014.810, 144.229
1016.060, 244.333
1017.310, 244.437
1018.560, 187.542
1019.810, 306.649
1021.060, 288.768
1022.309, 295.886
1023.558, 363.006
1024.807, 283.127
1026.056, 383.249
1027.305, 372.199
1028.553, 464.323
1029.801, 444.501
1031.049, 445.063
1032.297, 487.104
1033.545, 580.100
1034.793, 539.168
1036.040, 580.154
1037.287, 668.303
1038.534, 684.455
1039.781, 760.229
1041.027, 740.441
1042.274, 853.619
1043.520, 953.730
1044.766, 932.850
1046.012, 1089.973
1047.257, 1090.168
1048.503, 1315.163
1049.748, 1303.196
1050.993, 1488.200
1052.238, 1597.205
1053.483, 1646.415
1054.727, 1824.482
1055.971, 1955.225
1057.216, 2121.859
1058.459, 2313.098
1059.703, 2560.010
1060.947, 2789.197
1062.190, 3139.564
1063.433, 3433.732
1064.676, 3794.967
1065.919, 4144.213
1067.162, 4662.348
1068.404, 5020.597
1069.646, 5462.199
1070.888, 6063.537
1072.130, 6714.790
1073.372, 7519.166
1074.613, 8520.510
1075.855, 9857.632
1077.096, 11408.946
1078.337, 13855.117
1079.578, 16783.451
1080.818, 21055.787
1082.059, 26432.320
1083.299, 34405.312
1084.539, 42554.672
1085.779, 51555.039
1087.018, 57387.566
1088.258, 57615.965
1089.497, 52861.387
1090.736, 44748.738
1091.975, 35614.133
1093.213, 27456.523
1094.452, 21062.887
1095.690, 16023.249
1096.928, 12434.675
1098.166, 9621.085
1099.404, 7625.496
1100.642, 6090.881
1101.879, 4984.465
1103.116, 4051.898
1104.353, 3425.333
1105.590, 2864.789
1106.827, 2572.234
1108.063, 2153.682
1109.299, 1904.130
1110.536, 1658.551
1111.771, 1408.142
1113.007, 1258.605
1114.243, 1162.583
1115.478, 1015.143
1116.713, 869.625
1117.948, 919.897
1119.183, 755.383
1120.418, 755.871
1121.652, 737.308
1122.886, 643.800
1124.120, 614.410
1125.354, 439.911
1126.588, 428.192
1127.821, 357.703
1129.055, 408.260
1130.288, 419.779
1131.521, 265.299
1132.753, 269.030
1133.986, 163.554
1135.218, 225.194
1136.450, 196.729
1137.682, 232.493
1138.914, 190.029
1140.146, 104.779
1141.377, 136.314
1142.609, 74.979
1143.840, 186.757
1145.071, 108.292
1146.301, 71.090
1147.532, 102.929
1148.762, 76.469
1149.992, 62.010
1151.222, 92.550
1152.452, 147.257
1153.682, 87.896
1154.911, 97.435
1156.140, 40.184
1157.369, 67.935
1158.598, 59.517
1159.827, 77.330
1161.055, 83.432
1162.284, 50.606
1163.512, 95.308
1164.740, 80.443
1165.967, 87.132
1167.195, 105.382
1168.422, 61.719
1169.650, 48.272
1170.877, 67.040
1172.103, 84.835
1173.330, 9.418
1174.557, 146.026
1175.783, 49.780
1177.009, 35.237
1178.235, 82.375
1179.461, 5.600
1180.686, 23.873
1181.912, 86.332
1183.137, 41.037
1184.362, 51.528
1185.587, 41.465
1186.811, 18.028
1188.036, 101.775
1189.260, 46.643
1190.484, 118.417
1191.708, 74.504
1192.932, 12.739
1194.155, 70.837
1195.378, 66.341
1196.602, 86.123
1197.825, 39.091
1199.047, 90.851
1200.270, 75.535
1201.492, 165.164
1202.715, 111.369
1203.937, 135.196
1205.159, 36.749
1206.380, 26.369
1207.602, 12.763
1208.823, 1.547
1210.044, 116.926
1211.265, 49.546
1212.486, 101.511
1213.707, 56.122
1214.927, 121.464
1216.147, 30.433
1217.367, 35.630
1218.587, 73.530
1219.807, 37.016
1221.027, 46.842
1222.246, 51.419
1223.465, 74.690
1224.684, 96.264
1225.903, 116.674
1227.121, 67.211
1228.340, 6.534
1229.558, 91.219
1230.776, 127.640
1231.994, 30.794
1233.212, 32.620
1234.429, 49.858
1235.646, 58.220
1236.864, 62.711
1238.081, 117.327
1239.297, 103.946
1240.514, 53.731
1241.730, 136.089
1242.947, 69.482
1244.163, 134.582
1245.378, 119.175
1246.594, 156.377
1247.810, 37.765
1249.025, 190.078
1250.240, 104.685
1251.455, 73.831
1252.670, 107.152
1253.885, 110.416
1255.099, 128.511
1256.313, 44.446
1257.527, 52.631
1258.741, 104.710
1259.955, 41.925
1261.168, 67.465
1262.382, 133.532
1263.595, 74.589
1264.808, 117.823
1266.021, 114.866
1267.233, 30.308
1268.446, 99.338
1269.658, 62.414
1270.870, 141.429
1272.082, 87.437
1273.294, 109.521
1274.505, 83.518
1275.716, 146.507
1276.928, 147.473
1278.139, 44.429
1279.349, 115.376
1280.560, 68.314
1281.770, 150.241
1282.981, 42.158
1284.191, 109.040
1285.401, 46.911
1286.610, 135.740
1287.820, 68.556
1289.029, 5.651
1290.239, 125.115
1291.448, 37.867
1292.656, 30.605
1293.865, 127.331
1295.073, 158.046
1296.282, 147.238
1297.490, 63.445
1298.698, 80.093
1299.906, 162.730
1301.113, 54.310
1302.320, 53.842
1303.528, 94.357
1304.735, 38.858
1305.942, 54.320
1307.148, 127.741
1308.355, 65.133
1309.561, 115.499
1310.767, 41.846
1311.973, 51.173
1313.179, 26.522
1314.384, 98.738
1315.590, 46.979
1316.795, 41.200
1318.000, 90.400
1319.205, 83.582
1320.410, 48.728
1321.614, 20.857
1322.819, 77.878
1324.023, 16.964
1325.227, 125.894
1326.431, 3.934
1327.634, 32.049
1328.838, 103.934
1330.041, 22.896
1331.244, 84.837
1332.447, 64.245
1333.650, 29.631
1334.852, 40.485
1336.055, 15.316
1337.257, 7.877
1338.459, 14.840
1339.661, 4.082
1340.862, 38.320
1342.064, 21.024
1343.265, 40.057
1344.466, 49.362
1345.667, 61.000
1346.868, 66.616
1348.068, 105.213
1349.269, 74.792
1350.469, 57.351
1351.669, 141.854
1352.869, 33.282
1354.069, 131.638
1355.268, 13.877
1356.468, 19.419
1357.667, 141.010
1358.866, 49.496
1360.065, 10.891
1361.263, 71.155
1362.462, 52.709
1363.660, 63.423
1364.858, 20.636
1366.056, 42.872
1367.254, 123.109
1368.451, 41.354
1369.649, 29.414
1370.846, 43.795
1372.043, 87.994
1373.240, 34.101
1374.436, 60.004
1375.633, 9.904
1376.829, 17.010
1378.025, 4.909
1379.221, 63.861
1380.417, 33.841
1381.613, 30.898
1382.808, 25.894
1384.003, 17.301
1385.199, 56.743
1386.393, 2.179
1387.588, 8.425
1388.783, 29.103
1389.977, 92.178
1391.171, 50.543
1392.365, 64.559
1393.559, 28.677
1394.753, 102.883
1395.946, 60.099
1397.140, 73.080
1398.333, 129.183
1399.526, 4.621
1400.719, 89.533
1401.911, 151.715
1403.104, 80.634
1404.296, 34.643
1405.488, 114.495
1406.680, 118.345
1407.872, 70.769
1409.063, 126.502
1410.255, 41.160
1411.446, 155.177
1412.637, 103.838
1413.828, 182.549
1415.018, 136.173
1416.209, 98.466
1417.399, 171.161
1418.589, 208.704
1419.779, 115.469
1420.969, 138.896
1422.159, 158.209
1423.348, 137.502
1424.537, 201.417
1425.726, 171.422
1426.915, 202.068
1428.104, 176.011
1429.293, 195.662
1430.481, 263.127
1431.669, 218.995
1432.857, 209.838
1434.045, 259.901
1435.233, 237.373
1436.420, 230.119
1437.608, 296.194
1438.795, 302.184
1439.982, 324.878
1441.169, 321.487
1442.355, 339.845
1443.542, 321.712
1444.728, 325.442
1445.914, 347.766
1447.100, 338.115
1448.286, 311.628
1449.472, 313.747
1450.657, 386.317
1451.842, 284.657
1453.027, 303.087
1454.212, 377.822
1455.397, 221.482
1456.581, 347.175
1457.766, 366.183
1458.950, 298.236
1460.134, 401.011
1461.318, 343.986
1462.501, 293.504
1463.685, 284.808
1464.868, 324.792
1466.051, 337.081
1467.234, 231.846
1468.417, 245.920
1469.600, 373.743
1470.782, 359.369
1471.965, 254.071
1473.147, 384.728
1474.329, 285.254
1475.510, 287.655
1476.692, 244.062
1477.873, 200.528
1479.055, 208.981
1480.236, 185.414
1481.416, 145.596
1482.597, 172.676
1483.778, 208.824
1484.958, 187.264
1486.138, 132.730
1487.318, 258.362
1488.498, 110.159
1489.678, 100.958
1490.857, 202.818
1492.037, 235.726
1493.216, 101.629
1494.395, 58.655
1495.574, 146.707
1496.752, 73.783
1497.931, 166.896
1499.109, 77.044
1500.287, 179.247
1501.465, 59.523
1502.643, 17.118
1503.820, 73.363
1504.998, 56.988
1506.175, 82.746
1507.352, 12.631
1508.529, 29.649
1509.706, 20.820
1510.882, 45.162
1512.059, 41.705
1513.235, 52.962
1514.411, 74.558
1515.587, 60.222
1516.762, 64.735
1517.938, 74.892
1519.113, 85.260
1520.288, 58.947
1521.463, 61.233
1522.638, 0.436
1523.813, 0.000
##END=



