##NAMES=Siderite
##RRUFFID=R040034
##IDEAL CHEMISTRY=Fe^2+^CO_3_
##LOCALITY=Pribram, Czech Republic
##OWNER=RRUFF
##SOURCE=University of Arizona Mineral Museum
##DESCRIPTION=Group of tan colored flattened rhombohedra
##STATUS=The identification of this mineral has been confirmed by X-ray diffraction and chemical analysis
##URL=rruff.info/R040034
##MEASURED CHEMISTRY=(Fe_0.72_Mg_0.24_Mn_0.03_Ca_0.01_)_Î£=1_C_1.00_O_3_; CO_2_ estimated by difference
##PIN_ID=M00031
##ORIENTATION=Laser parallel to c* (0 0 1). Fiducial mark perpendicular to laser is parallel to a [1 0 0]
83.614, 0.000
85.009, 1.318
86.404, 22.037
87.798, 33.204
89.193, 73.518
90.587, 70.064
91.981, 88.245
93.375, 97.682
94.768, 75.160
96.161, 47.481
97.554, 95.469
98.947, 66.984
100.340, 73.917
101.732, 89.279
103.124, 48.117
104.516, 92.365
105.908, 131.921
107.300, 123.698
108.691, 136.634
110.082, 111.687
111.473, 98.823
112.864, 134.019
114.254, 210.257
115.644, 267.525
117.034, 266.873
118.424, 226.780
119.813, 219.265
121.203, 227.180
122.592, 149.249
123.981, 161.265
125.369, 136.198
126.758, 106.966
128.146, 129.581
129.534, 148.062
130.922, 194.421
132.309, 124.672
133.696, 146.824
135.083, 145.888
136.470, 147.873
137.857, 218.784
139.243, 181.630
140.630, 210.415
142.016, 185.145
143.401, 203.824
144.787, 241.456
146.172, 245.044
147.557, 275.592
148.942, 260.101
150.327, 257.081
151.711, 261.228
153.096, 351.677
154.480, 365.846
155.863, 394.116
157.247, 443.930
158.630, 476.577
160.013, 516.034
161.396, 569.950
162.779, 618.154
164.161, 703.457
165.544, 735.307
166.926, 810.790
168.308, 814.005
169.689, 953.347
171.070, 1055.705
172.452, 1152.082
173.833, 1324.478
175.213, 1443.893
176.594, 1550.325
177.974, 1756.776
179.354, 2073.244
180.734, 2326.728
182.114, 2660.229
183.493, 2892.744
184.872, 3218.274
186.251, 3491.818
187.630, 3569.373
189.008, 3440.939
190.387, 3165.518
191.765, 2758.106
193.143, 2245.702
194.520, 1815.308
195.898, 1425.922
197.275, 1141.543
198.652, 837.172
200.029, 657.809
201.405, 513.451
202.782, 353.097
204.158, 299.745
205.534, 196.975
206.909, 169.044
208.285, 91.695
209.660, 84.346
211.035, 72.997
212.410, 40.650
213.784, 14.303
215.159, 1.043
216.533, 4.388
217.907, 9.268
219.281, 39.075
220.654, 23.417
222.027, 41.759
223.400, 37.099
224.773, 9.562
226.146, 21.775
227.518, 34.112
228.891, 16.553
230.263, 31.781
231.634, 16.115
233.006, 47.395
234.377, 15.250
235.748, 3.148
237.119, 24.566
238.490, 8.004
239.860, 2.481
241.231, 11.009
242.601, 39.323
243.970, 35.923
245.340, 2.375
246.709, 8.927
248.079, 36.601
249.448, 5.228
250.816, 60.191
252.185, 56.930
253.553, 47.725
254.921, 50.591
256.289, 65.476
257.657, 91.395
259.024, 91.340
260.391, 78.383
261.758, 117.368
263.125, 136.367
264.492, 155.377
265.858, 123.397
267.224, 163.425
268.590, 156.458
269.956, 186.495
271.321, 231.533
272.687, 251.573
274.052, 288.612
275.416, 372.650
276.781, 463.688
278.146, 473.724
279.510, 563.759
280.874, 679.792
282.237, 848.823
283.601, 934.849
284.964, 1083.868
286.327, 1291.879
287.690, 1378.879
289.053, 1505.870
290.416, 1675.852
291.778, 1645.826
293.140, 1649.791
294.502, 1472.748
295.863, 1395.699
297.225, 1230.644
298.586, 1068.583
299.947, 924.516
301.308, 770.444
302.668, 677.376
304.029, 562.303
305.389, 505.225
306.749, 435.144
308.108, 379.059
309.468, 319.970
310.827, 285.881
312.186, 251.799
313.545, 227.866
314.903, 227.614
316.262, 203.481
317.620, 187.303
318.978, 184.097
320.336, 156.855
321.693, 195.592
323.051, 162.285
324.408, 172.974
325.765, 166.642
327.121, 126.310
328.478, 108.981
329.834, 103.642
331.190, 123.306
332.546, 93.972
333.902, 90.641
335.257, 134.311
336.612, 116.983
337.967, 117.657
339.322, 99.333
340.677, 140.011
342.031, 125.690
343.385, 80.369
344.739, 119.050
346.093, 89.733
347.446, 134.416
348.799, 131.101
350.153, 90.787
351.505, 130.474
352.858, 99.162
354.210, 156.852
355.563, 122.544
356.915, 72.236
358.267, 102.931
359.618, 107.633
360.969, 129.335
362.321, 92.038
363.672, 75.742
365.022, 91.447
366.373, 76.152
367.723, 105.858
369.073, 98.564
370.423, 74.271
371.773, 80.978
373.122, 60.686
374.471, 78.393
375.821, 95.101
377.169, 69.810
378.518, 16.114
379.866, 60.211
381.215, 69.904
382.563, 28.830
383.910, 54.743
385.258, 31.507
386.605, 62.566
387.952, 16.261
389.299, 22.288
390.646, 11.544
391.992, 50.254
393.339, 35.662
394.685, 43.056
396.031, 41.490
397.376, 14.800
398.722, 25.416
400.067, 3.706
401.412, 6.217
402.757, 28.495
404.101, 6.803
405.446, 14.902
406.790, 45.607
408.134, 17.883
409.478, 21.243
410.821, 11.454
412.165, 26.885
413.508, 3.802
414.851, 6.488
416.193, 2.174
417.536, 34.859
418.878, 10.543
420.220, 22.204
421.562, 2.091
422.904, 14.590
424.245, 36.268
425.586, 16.946
426.927, 72.622
428.268, 30.296
429.609, 54.071
430.949, 53.678
432.289, 58.310
433.629, 51.978
434.969, 54.565
436.309, 33.308
437.648, 55.971
438.987, 40.709
440.326, 43.368
441.665, 46.026
443.003, 31.681
444.342, 92.335
445.680, 66.182
447.018, 77.848
448.355, 59.496
449.693, 83.312
451.030, 73.957
452.367, 119.712
453.704, 113.388
455.041, 139.032
456.377, 86.791
457.713, 173.429
459.049, 159.170
460.385, 131.958
461.721, 194.598
463.056, 169.380
464.391, 193.026
465.726, 209.779
467.061, 204.462
468.395, 233.180
469.730, 245.862
471.064, 242.473
472.398, 262.556
473.731, 279.344
475.065, 270.971
476.398, 309.647
477.731, 317.531
479.064, 327.236
480.397, 353.220
481.729, 346.883
483.062, 380.548
484.394, 397.278
485.725, 395.203
487.057, 390.751
488.389, 415.588
489.720, 407.236
491.051, 451.393
492.382, 467.145
493.712, 470.957
495.043, 469.635
496.373, 489.342
497.703, 488.101
499.032, 512.059
500.362, 533.687
501.691, 509.314
503.020, 516.951
504.349, 514.713
505.678, 518.347
507.007, 584.194
508.335, 547.927
509.663, 548.711
510.991, 583.432
512.319, 529.207
513.646, 553.280
514.973, 551.153
516.300, 550.918
517.627, 540.864
518.954, 511.128
520.280, 504.979
521.607, 498.652
522.933, 470.422
524.259, 461.129
525.584, 442.031
526.910, 441.024
528.235, 448.398
529.560, 436.156
530.885, 455.870
532.209, 432.500
533.534, 443.128
534.858, 434.784
536.182, 437.573
537.506, 397.308
538.829, 370.989
540.152, 362.619
541.476, 344.758
542.799, 339.863
544.121, 334.494
545.444, 334.135
546.766, 330.785
548.088, 309.417
549.410, 284.075
550.732, 296.722
552.053, 272.384
553.375, 263.052
554.696, 259.723
556.017, 246.404
557.337, 228.271
558.658, 228.200
559.978, 197.487
561.298, 214.161
562.618, 206.839
563.938, 183.263
565.257, 149.933
566.576, 141.599
567.895, 161.264
569.214, 183.846
570.533, 143.506
571.851, 123.728
573.170, 156.367
574.488, 106.013
575.805, 124.636
577.123, 116.277
578.440, 155.914
579.758, 124.547
581.075, 85.099
582.391, 62.724
583.708, 115.344
585.024, 94.969
586.341, 83.590
587.657, 67.214
588.972, 75.837
590.288, 49.456
591.603, 46.070
592.918, 81.680
594.233, 71.284
595.548, 69.886
596.863, 16.485
598.177, 88.079
599.491, 43.668
600.805, 50.253
602.119, 53.834
603.432, 0.584
604.746, 32.991
606.059, 42.561
607.372, 1.126
608.685, 61.807
609.997, 11.367
611.309, 29.945
612.621, 37.728
613.933, 10.395
615.245, 70.926
616.557, 14.535
617.868, 5.236
619.179, 39.324
620.490, 30.744
621.801, 39.388
623.111, 13.992
624.421, 30.835
625.731, 22.407
627.041, 30.961
628.351, 11.458
629.660, 34.857
630.970, 7.556
632.279, 45.015
633.588, 31.596
634.896, 14.299
636.205, 31.003
637.513, 15.504
638.821, 41.033
640.129, 40.511
641.437, 24.922
642.744, 2.362
644.051, 8.250
645.358, 26.203
646.665, 17.646
647.972, 1.829
649.278, 19.543
650.584, 10.295
651.890, 37.702
653.196, 31.434
654.502, 18.824
655.807, 2.863
657.113, 52.454
658.418, 53.892
659.722, 49.221
661.027, 19.894
662.331, 12.168
663.636, 45.238
664.940, 29.531
666.244, 17.841
667.547, 32.017
668.851, 22.078
670.154, 4.392
671.457, 15.157
672.760, 30.388
674.062, 10.655
675.365, 14.608
676.667, 34.959
677.969, 28.088
679.271, 29.423
680.572, 47.344
681.874, 35.264
683.175, 39.791
684.476, 30.537
685.777, 34.684
687.077, 44.704
688.378, 75.874
689.678, 73.175
690.978, 57.168
692.278, 26.332
693.577, 37.448
694.877, 37.507
696.176, 62.569
697.475, 71.651
698.774, 85.703
700.072, 113.726
701.371, 86.772
702.669, 90.766
703.967, 129.781
705.265, 145.473
706.562, 172.356
707.860, 124.229
709.157, 182.093
710.454, 182.947
711.751, 230.792
713.047, 232.627
714.344, 318.456
715.640, 317.275
716.936, 363.086
718.232, 444.886
719.527, 515.677
720.823, 610.460
722.118, 703.232
723.413, 760.995
724.708, 819.748
726.002, 913.496
727.297, 953.234
728.591, 1048.969
729.885, 1042.694
731.179, 997.419
732.472, 980.265
733.766, 878.066
735.059, 837.814
736.352, 804.565
737.645, 714.240
738.937, 682.923
740.230, 639.704
741.522, 552.350
742.814, 499.795
744.106, 515.257
745.397, 443.862
746.689, 386.456
747.980, 381.039
749.271, 275.622
750.562, 250.483
751.853, 162.524
753.143, 242.990
754.433, 196.668
755.723, 128.190
757.013, 125.000
758.303, 101.843
759.592, 86.137
760.881, 109.648
762.170, 85.117
763.459, 43.579
764.748, 71.026
766.036, 65.390
767.325, 25.781
768.613, 41.191
769.901, 73.487
771.188, 51.877
772.476, 31.153
773.763, 11.402
775.050, 16.491
776.337, 8.435
777.624, 39.639
778.910, 16.834
780.196, 44.084
781.482, 46.286
782.768, 38.512
784.054, 29.797
785.339, 69.871
786.625, 52.953
787.910, 25.184
789.195, 27.648
790.479, 0.289
791.764, 34.653
793.048, 22.804
794.332, 32.341
795.616, 46.445
796.900, 37.471
798.183, 47.291
799.467, 27.477
800.750, 27.475
802.033, 17.425
803.316, 38.966
804.598, 9.426
805.880, 29.287
807.163, 9.270
808.445, 29.211
809.726, 2.087
811.008, 12.167
812.289, 18.226
813.570, 34.699
814.851, 8.646
816.132, 43.455
817.413, 15.799
818.693, 34.073
819.973, 27.868
821.253, 60.600
822.533, 16.616
823.813, 20.906
825.092, 12.514
826.371, 33.059
827.650, 21.728
828.929, 3.204
830.208, 5.348
831.486, 41.994
832.764, 10.601
834.042, 17.798
835.320, 26.846
836.598, 10.429
837.875, 0.020
839.152, 21.554
840.429, 68.096
841.706, 12.671
842.983, 7.318
844.259, 69.955
845.536, 10.550
846.812, 13.002
848.088, 23.496
849.363, 19.979
850.639, 12.559
851.914, 17.207
853.189, 21.431
854.464, 13.275
855.739, 22.829
857.013, 15.375
858.288, 20.089
859.562, 53.425
860.836, 104.931
862.110, 52.429
863.383, 158.919
864.656, 97.402
865.930, 133.878
867.203, 115.346
868.475, 108.806
869.748, 61.260
871.020, 105.706
872.292, 109.144
873.564, 35.575
874.836, 66.000
876.108, 51.417
877.379, 40.827
878.650, 54.231
879.922, 40.627
881.192, 41.017
882.463, 45.399
883.733, 28.183
885.004, 3.144
886.274, 4.505
887.544, 13.858
888.813, 10.205
890.083, 25.544
891.352, 20.876
892.621, 30.798
893.890, 23.503
895.159, 26.202
896.427, 10.927
897.695, 58.334
898.964, 48.590
900.232, 25.840
901.499, 20.083
902.767, 2.678
904.034, 6.449
905.301, 21.770
906.568, 0.017
907.835, 25.190
909.102, 3.609
910.368, 21.416
911.634, 25.759
912.900, 4.931
914.166, 43.096
915.432, 1.743
916.697, 25.290
917.962, 4.433
919.227, 20.549
920.492, 36.448
921.757, 8.454
923.021, 16.586
924.285, 46.629
925.550, 1.571
926.813, 7.886
928.077, 6.802
929.341, 6.270
930.604, 9.144
931.867, 25.995
933.130, 10.995
934.393, 35.002
935.655, 25.974
936.918, 7.089
938.180, 8.015
939.442, 53.063
940.703, 0.979
941.965, 13.364
943.226, 8.464
944.488, 10.494
945.749, 12.397
947.009, 53.375
948.270, 2.391
949.530, 24.369
950.791, 84.388
952.051, 32.331
953.311, 12.273
954.570, 39.126
955.830, 34.881
957.089, 65.718
958.348, 57.652
959.607, 53.252
960.866, 15.186
962.124, 28.462
963.383, 58.176
964.641, 46.034
965.899, 26.993
967.156, 38.599
968.414, 27.597
969.671, 5.790
970.928, 26.750
972.185, 31.687
973.442, 40.748
974.699, 51.916
975.955, 56.822
977.211, 19.267
978.468, 75.239
979.723, 112.165
980.979, 64.612
982.234, 116.214
983.490, 19.247
984.745, 83.064
986.000, 78.289
987.254, 88.267
988.509, 104.107
989.763, 100.254
991.017, 110.448
992.271, 98.533
993.525, 112.461
994.779, 101.538
996.032, 115.338
997.285, 114.250
998.538, 124.201
999.791, 145.201
1001.044, 150.191
1002.296, 153.005
1003.548, 161.604
1004.800, 156.147
1006.052, 159.125
1007.304, 175.146
1008.555, 157.140
1009.807, 212.450
1011.058, 242.563
1012.309, 201.678
1013.559, 151.795
1014.810, 193.915
1016.060, 197.037
1017.310, 253.162
1018.560, 206.290
1019.810, 299.420
1021.060, 263.553
1022.309, 261.688
1023.558, 333.828
1024.807, 327.971
1026.056, 324.116
1027.305, 428.265
1028.553, 429.417
1029.801, 460.571
1031.049, 535.729
1032.297, 512.891
1033.545, 656.056
1034.793, 618.214
1036.040, 673.246
1037.287, 712.318
1038.534, 787.436
1039.781, 884.544
1041.027, 879.722
1042.274, 952.887
1043.520, 1062.946
1044.766, 1143.135
1046.012, 1166.910
1047.257, 1256.335
1048.503, 1445.597
1049.748, 1458.817
1050.993, 1677.053
1052.238, 1708.272
1053.483, 1814.211
1054.727, 2047.965
1055.971, 2157.211
1057.216, 2340.314
1058.459, 2621.569
1059.703, 2808.529
1060.947, 3105.450
1062.190, 3428.719
1063.433, 3741.944
1064.676, 4033.226
1065.919, 4444.342
1067.162, 4869.637
1068.404, 5172.903
1069.646, 5746.215
1070.888, 6515.535
1072.130, 7069.847
1073.372, 8027.178
1074.613, 9217.515
1075.855, 10527.822
1077.096, 12341.817
1078.337, 14846.168
1079.578, 18130.537
1080.818, 22861.037
1082.059, 28794.428
1083.299, 37420.840
1084.539, 46120.258
1085.779, 55394.703
1087.018, 61064.891
1088.258, 60678.371
1089.497, 54517.863
1090.736, 45392.367
1091.975, 35930.902
1093.213, 27449.174
1094.452, 21291.381
1095.690, 15927.521
1096.928, 12383.098
1098.166, 9553.684
1099.404, 7726.277
1100.642, 6072.876
1101.879, 4980.489
1103.116, 4144.109
1104.353, 3479.737
1105.590, 2894.845
1106.827, 2535.487
1108.063, 2129.135
1109.299, 1919.791
1110.536, 1649.454
1111.771, 1385.126
1113.007, 1284.808
1114.243, 1173.504
1115.478, 1034.207
1116.713, 903.918
1117.948, 812.635
1119.183, 773.367
1120.418, 741.104
1121.652, 765.874
1122.886, 701.624
1124.120, 601.430
1125.354, 484.208
1126.588, 470.999
1127.821, 313.796
1129.055, 387.599
1130.288, 363.410
1131.521, 314.238
1132.753, 260.062
1133.986, 234.894
1135.218, 285.739
1136.450, 193.589
1137.682, 217.446
1138.914, 173.312
1140.146, 137.184
1141.377, 144.061
1142.609, 175.944
1143.840, 152.834
1145.071, 146.730
1146.301, 91.632
1147.532, 151.541
1148.762, 106.454
1149.992, 112.374
1151.222, 124.299
1152.452, 131.230
1153.682, 82.167
1154.911, 100.110
1156.140, 72.059
1157.369, 21.012
1158.598, 51.979
1159.827, 78.951
1161.055, 53.015
1162.284, 70.997
1163.512, 66.294
1164.740, 84.975
1165.967, 62.971
1167.195, 50.971
1168.422, 55.976
1169.650, 44.984
1170.877, 20.224
1172.103, 51.240
1173.330, 15.272
1174.557, 13.295
1175.783, 89.323
1177.009, 7.395
1178.235, 39.437
1179.461, 45.489
1180.686, 21.712
1181.912, 29.906
1183.137, 35.221
1184.362, 72.382
1185.587, 38.437
1186.811, 9.495
1188.036, 29.556
1189.260, 78.621
1190.484, 27.796
1191.708, 41.983
1192.932, 22.870
1194.155, 6.701
1195.378, 5.606
1196.602, 48.271
1197.825, 1.595
1199.047, 53.553
1200.270, 52.729
1201.492, 66.948
1202.715, 72.534
1203.937, 44.173
1205.159, 40.289
1206.380, 60.406
1207.602, 5.593
1208.823, 43.727
1210.044, 29.857
1211.265, 11.849
1212.486, 29.543
1213.707, 66.379
1214.927, 35.659
1216.147, 37.018
1217.367, 86.298
1218.587, 47.519
1219.807, 64.855
1221.027, 32.997
1222.246, 12.247
1223.465, 2.607
1224.684, 30.549
1225.903, 9.229
1227.121, 9.230
1228.340, 70.374
1229.558, 76.456
1230.776, 59.283
1231.994, 18.358
1233.212, 56.088
1234.429, 55.008
1235.646, 66.286
1236.864, 90.434
1238.081, 50.881
1239.297, 62.697
1240.514, 92.866
1241.730, 59.319
1242.947, 115.789
1244.163, 73.179
1245.378, 109.010
1246.594, 58.277
1247.810, 61.625
1249.025, 92.018
1250.240, 111.190
1251.455, 135.543
1252.670, 97.911
1253.885, 110.237
1255.099, 96.493
1256.313, 50.979
1257.527, 97.171
1258.741, 51.785
1259.955, 29.023
1261.168, 28.509
1262.382, 44.732
1263.595, 60.242
1264.808, 52.453
1266.021, 108.678
1267.233, 5.072
1268.446, 110.279
1269.658, 2.488
1270.870, 51.705
1272.082, 131.916
1273.294, 99.128
1274.505, 52.341
1275.716, 131.555
1276.928, 14.770
1278.139, 104.986
1279.349, 75.201
1280.560, 79.417
1281.770, 71.633
1282.981, 73.359
1284.191, 103.065
1285.401, 90.279
1286.610, 87.493
1287.820, 95.708
1289.029, 76.922
1290.239, 66.135
1291.448, 116.344
1292.656, 74.552
1293.865, 141.752
1295.073, 90.953
1296.282, 87.155
1297.490, 91.356
1298.698, 71.551
1299.906, 92.736
1301.113, 92.911
1302.320, 89.085
1303.528, 37.257
1304.735, 38.428
1305.942, 14.587
1307.148, 54.730
1308.355, 70.828
1309.561, 103.879
1310.767, 52.880
1311.973, 57.866
1313.179, 41.835
1314.384, 102.761
1315.590, 3.674
1316.795, 83.561
1318.000, 38.441
1319.205, 99.312
1320.410, 118.175
1321.614, 33.029
1322.819, 41.853
1324.023, 40.666
1325.227, 9.478
1326.431, 13.259
1327.634, 6.042
1328.838, 19.814
1330.041, 49.577
1331.244, 59.330
1332.447, 100.074
1333.650, 58.806
1334.852, 22.529
1336.055, 23.239
1337.257, 33.937
1338.459, 30.230
1339.661, 67.838
1340.862, 1.554
1342.064, 42.086
1343.265, 39.699
1344.466, 5.691
1345.667, 24.898
1346.868, 83.471
1348.068, 76.032
1349.269, 76.579
1350.469, 109.116
1351.669, 37.641
1352.869, 52.155
1354.069, 75.659
1355.268, 0.848
1356.468, 4.631
1357.667, 2.096
1358.866, 24.547
1360.065, 6.012
1361.263, 25.432
1362.462, 36.845
1363.660, 20.248
1364.858, 59.641
1366.056, 31.024
1367.254, 56.399
1368.451, 54.744
1369.649, 9.895
1370.846, 7.548
1372.043, 9.672
1373.240, 16.001
1374.436, 43.688
1375.633, 47.368
1376.829, 9.908
1378.025, 44.639
1379.221, 18.383
1380.417, 61.837
1381.613, 4.948
1382.808, 10.742
1384.003, 54.468
1385.199, 20.362
1386.393, 20.225
1387.588, 23.903
1388.783, 8.008
1389.977, 39.109
1391.171, 16.796
1392.365, 27.293
1393.559, 72.375
1394.753, 32.432
1395.946, 32.481
1397.140, 38.524
1398.333, 52.532
1399.526, 26.516
1400.719, 73.542
1401.911, 21.563
1403.104, 11.433
1404.296, 29.576
1405.488, 67.580
1406.680, 29.577
1407.872, 72.568
1409.063, 70.552
1410.255, 40.531
1411.446, 116.502
1412.637, 111.466
1413.828, 76.424
1415.018, 169.375
1416.209, 132.318
1417.399, 122.142
1418.589, 169.072
1419.779, 153.999
1420.969, 170.314
1422.159, 139.531
1423.348, 196.430
1424.537, 198.287
1425.726, 231.170
1426.915, 191.609
1428.104, 189.973
1429.293, 201.878
1430.481, 219.784
1431.669, 256.369
1432.857, 182.059
1434.045, 207.771
1435.233, 302.549
1436.420, 330.582
1437.608, 239.473
1438.795, 364.370
1439.982, 334.156
1441.169, 277.630
1442.355, 290.394
1443.542, 323.928
1444.728, 253.399
1445.914, 309.915
1447.100, 279.584
1448.286, 336.645
1449.472, 324.062
1450.657, 324.301
1451.842, 345.414
1453.027, 301.434
1454.212, 292.168
1455.397, 239.028
1456.581, 313.774
1457.766, 291.878
1458.950, 311.947
1460.134, 308.228
1461.318, 251.133
1462.501, 271.301
1463.685, 264.195
1464.868, 209.972
1466.051, 297.552
1467.234, 267.013
1468.417, 267.635
1469.600, 284.675
1470.782, 293.611
1471.965, 287.818
1473.147, 318.236
1474.329, 278.900
1475.510, 221.458
1476.692, 220.904
1477.873, 196.245
1479.055, 197.453
1480.236, 237.542
1481.416, 142.521
1482.597, 189.361
1483.778, 177.048
1484.958, 241.667
1486.138, 219.140
1487.318, 188.454
1488.498, 200.869
1489.678, 144.788
1490.857, 117.885
1492.037, 177.268
1493.216, 85.760
1494.395, 107.205
1495.574, 94.707
1496.752, 127.302
1497.931, 126.886
1499.109, 93.432
1500.287, 108.950
1501.465, 9.460
1502.643, 1.018
1503.820, 72.546
1504.998, 51.188
1506.175, 131.950
1507.352, 35.886
1508.529, 69.963
1509.706, 30.137
1510.882, 52.408
1512.059, 86.783
1513.235, 17.293
1514.411, 80.729
1515.587, 85.621
1516.762, 4.237
1517.938, 59.174
1519.113, 61.912
1520.288, 65.109
1521.463, 40.809
1522.638, 9.546
1523.813, 19.145
1524.987, 0.000
##END=



