##NAMES=Siderite
##RRUFFID=R040034
##IDEAL CHEMISTRY=Fe^2+^CO_3_
##LOCALITY=Pribram, Czech Republic
##OWNER=RRUFF
##SOURCE=University of Arizona Mineral Museum
##DESCRIPTION=Group of tan colored flattened rhombohedra
##STATUS=The identification of this mineral has been confirmed by X-ray diffraction and chemical analysis
##URL=rruff.info/R040034
##MEASURED CHEMISTRY=(Fe_0.72_Mg_0.24_Mn_0.03_Ca_0.01_)_Î£=1_C_1.00_O_3_; CO_2_ estimated by difference
##PIN_ID=M00031
##ORIENTATION=Laser parallel to c* (0 0 1). Fiducial mark perpendicular to laser is parallel to a [1 0 0]
87.798, 0.000
89.193, 164.551
90.587, 153.466
91.981, 145.111
93.375, 93.267
94.768, 63.808
96.161, 75.516
97.554, 100.743
98.947, 19.933
100.340, 77.584
101.732, 159.373
103.124, 103.270
104.516, 156.250
105.908, 260.271
107.300, 249.138
108.691, 182.432
110.082, 134.945
111.473, 123.677
112.864, 231.623
114.254, 308.776
115.644, 418.128
117.034, 437.670
118.424, 409.307
119.813, 364.034
121.203, 355.550
122.592, 289.557
123.981, 226.800
125.369, 123.714
126.758, 201.094
128.146, 146.170
129.534, 210.423
130.922, 147.838
132.309, 79.403
133.696, 53.109
135.083, 124.951
136.470, 138.917
137.857, 160.002
139.243, 84.198
140.630, 94.498
142.016, 38.896
143.401, 94.385
144.787, 128.963
146.172, 64.623
147.557, 18.640
148.942, 17.829
150.327, 33.051
151.711, 27.999
153.096, 49.010
154.480, 37.917
155.863, 1.783
157.247, 48.407
158.630, 62.347
160.013, 32.952
161.396, 70.303
162.779, 66.704
164.161, 47.847
165.544, 97.720
166.926, 17.355
168.308, 37.100
169.689, 43.915
171.070, 145.792
172.452, 144.649
173.833, 198.512
175.213, 237.701
176.594, 95.318
177.974, 278.274
179.354, 281.318
180.734, 256.382
182.114, 370.462
183.493, 418.561
184.872, 448.691
186.251, 524.838
187.630, 546.002
189.008, 480.181
190.387, 540.374
191.765, 461.582
193.143, 438.805
194.520, 349.044
195.898, 307.900
197.275, 224.571
198.652, 231.860
200.029, 168.166
201.405, 178.480
202.782, 111.809
204.158, 105.824
205.534, 138.502
206.909, 83.849
208.285, 102.214
209.660, 97.582
211.035, 56.968
212.410, 71.937
213.784, 85.792
215.159, 78.230
216.533, 71.685
217.907, 103.158
219.281, 95.647
220.654, 48.152
222.027, 80.674
223.400, 84.213
224.773, 59.768
226.146, 100.338
227.518, 78.924
228.891, 140.525
230.263, 134.141
231.634, 97.771
233.006, 123.415
234.377, 179.072
235.748, 184.743
237.119, 213.427
238.490, 287.125
239.860, 232.834
241.231, 248.670
242.601, 254.587
243.970, 312.333
245.340, 342.648
246.709, 273.781
248.079, 375.617
249.448, 368.740
250.816, 470.446
252.185, 419.724
253.553, 534.829
254.921, 512.258
256.289, 623.869
257.657, 564.218
259.024, 694.096
260.391, 661.188
261.758, 745.248
263.125, 801.377
264.492, 981.568
265.858, 1043.814
267.224, 1225.159
268.590, 1354.352
269.956, 1470.701
271.321, 1767.114
272.687, 1984.565
274.052, 2200.044
275.416, 2609.057
276.781, 3121.590
278.146, 3606.147
279.510, 4267.792
280.874, 5076.396
282.237, 6271.023
283.601, 7262.872
284.964, 8699.526
286.327, 10317.177
287.690, 11676.848
289.053, 12766.534
290.416, 13747.219
291.778, 13768.899
293.140, 13540.600
294.502, 12622.330
295.863, 11429.084
297.225, 10291.852
298.586, 8972.645
299.947, 7717.448
301.308, 6618.270
302.668, 5566.106
304.029, 4868.957
305.389, 4081.821
306.749, 3441.700
308.108, 3007.592
309.468, 2517.497
310.827, 2337.413
312.186, 1938.975
313.545, 1776.568
314.903, 1586.540
316.262, 1376.522
317.620, 1243.514
318.978, 1136.571
320.336, 1110.560
321.693, 952.582
323.051, 969.796
324.408, 838.834
325.765, 807.890
327.121, 678.954
328.478, 629.763
329.834, 636.843
331.190, 564.181
332.546, 563.182
333.902, 516.131
335.257, 514.239
336.612, 511.366
337.967, 439.497
339.322, 418.645
340.677, 412.797
342.031, 341.954
343.385, 391.114
344.739, 282.281
346.093, 254.454
347.446, 271.629
348.799, 264.825
350.153, 299.024
351.505, 240.241
352.858, 247.460
354.210, 204.696
355.563, 233.937
356.915, 127.181
358.267, 183.427
359.618, 130.677
360.969, 201.928
362.321, 215.182
363.672, 132.437
365.022, 187.695
366.373, 147.955
367.723, 160.218
369.073, 94.485
370.423, 167.753
371.773, 140.023
373.122, 128.294
374.471, 137.569
375.821, 77.844
377.169, 188.124
378.518, 74.402
379.866, 104.690
381.215, 111.978
382.563, 50.267
383.910, 62.556
385.258, 79.845
386.605, 146.137
387.952, 28.438
389.299, 58.740
390.646, 1.960
391.992, 45.662
393.339, 33.638
394.685, 18.062
396.031, 100.232
397.376, 7.524
398.722, 25.184
400.067, 43.098
401.412, 39.622
402.757, 39.646
404.101, 1.897
405.446, 10.861
406.790, 20.627
408.134, 9.591
409.478, 47.796
410.821, 39.992
412.165, 41.821
413.508, 25.351
414.851, 91.509
416.193, 11.672
417.536, 44.990
418.878, 3.782
420.220, 44.604
421.562, 32.233
422.904, 78.232
424.245, 37.436
425.586, 47.751
426.927, 146.070
428.268, 77.792
429.609, 26.108
430.949, 10.034
432.289, 72.029
433.629, 46.434
434.969, 62.521
436.309, 0.037
437.648, 89.159
438.987, 100.503
440.326, 10.177
441.665, 40.847
443.003, 92.154
444.342, 7.599
445.680, 99.725
447.018, 151.141
448.355, 46.488
449.693, 18.257
451.030, 53.245
452.367, 149.458
453.704, 107.857
455.041, 98.080
456.377, 75.277
457.713, 139.477
459.049, 102.165
460.385, 155.458
461.721, 212.668
463.056, 143.483
464.391, 161.419
465.726, 264.822
467.061, 236.019
468.395, 244.816
469.730, 282.897
471.064, 205.135
472.398, 308.416
473.731, 265.434
475.065, 288.845
476.398, 307.048
477.731, 380.112
479.064, 359.614
480.397, 409.115
481.729, 422.296
483.062, 429.199
484.394, 451.217
485.725, 380.309
487.057, 471.424
488.389, 414.687
489.720, 408.224
491.051, 542.700
492.382, 482.825
493.712, 536.323
495.043, 482.232
496.373, 460.173
497.703, 473.206
499.032, 585.769
500.362, 561.498
501.691, 545.271
503.020, 561.258
504.349, 549.903
505.678, 523.069
507.007, 551.759
508.335, 562.558
509.663, 564.995
510.991, 619.438
512.319, 590.187
513.646, 592.205
514.973, 609.402
516.300, 644.336
517.627, 576.176
518.954, 587.206
520.280, 562.651
521.607, 536.382
522.933, 535.095
524.259, 506.942
525.584, 486.788
526.910, 592.616
528.235, 536.642
529.560, 482.299
530.885, 506.223
532.209, 379.786
533.534, 504.795
534.858, 496.398
536.182, 412.609
537.506, 439.033
538.829, 435.430
540.152, 422.802
541.476, 416.354
542.799, 304.932
544.121, 386.608
545.444, 337.695
546.766, 344.251
548.088, 387.906
549.410, 370.178
550.732, 369.230
552.053, 276.482
553.375, 244.704
554.696, 176.328
556.017, 259.517
557.337, 308.842
558.658, 201.468
559.978, 157.696
561.298, 358.480
562.618, 142.584
563.938, 212.429
565.257, 231.638
566.576, 126.330
567.895, 201.332
569.214, 245.348
570.533, 135.348
571.851, 161.768
573.170, 132.716
574.488, 150.683
575.805, 86.596
577.123, 109.511
578.440, 70.821
579.758, 173.701
581.075, 51.446
582.391, 110.288
583.708, 84.112
585.024, 83.917
586.341, 150.703
587.657, 31.420
588.972, 189.323
590.288, 165.089
591.603, 11.193
592.918, 116.491
594.233, 37.157
595.548, 106.295
596.863, 52.923
598.177, 58.531
599.491, 129.056
600.805, 57.624
602.119, 40.172
603.432, 99.479
604.746, 41.986
606.059, 49.472
607.372, 18.063
608.685, 130.339
609.997, 75.749
611.309, 43.137
612.621, 9.497
613.933, 9.155
615.245, 76.135
616.557, 25.527
617.868, 53.771
619.179, 73.769
620.490, 21.029
621.801, 157.399
623.111, 42.554
624.421, 72.850
625.731, 21.104
627.041, 98.440
628.351, 59.816
629.660, 26.823
630.970, 110.526
632.279, 13.125
633.588, 64.078
634.896, 96.320
636.205, 33.205
637.513, 33.064
638.821, 64.259
640.129, 129.071
641.437, 101.387
642.744, 8.999
644.051, 75.113
645.358, 49.076
646.665, 28.945
647.972, 31.916
649.278, 66.719
650.584, 29.583
651.890, 114.282
653.196, 23.856
654.502, 81.004
655.807, 18.232
657.113, 149.383
658.418, 136.133
659.722, 82.631
661.027, 19.020
662.331, 47.773
663.636, 146.528
664.940, 39.446
666.244, 87.083
667.547, 26.599
668.851, 122.584
670.154, 28.140
671.457, 41.263
672.760, 75.386
674.062, 94.692
675.365, 88.934
676.667, 140.948
677.969, 114.948
679.271, 116.506
680.572, 81.517
681.874, 78.860
683.175, 79.810
684.476, 46.714
685.777, 115.629
687.077, 55.504
688.378, 131.525
689.678, 42.780
690.978, 115.580
692.278, 26.886
693.577, 151.890
694.877, 5.425
696.176, 187.293
697.475, 77.979
698.774, 139.568
700.072, 78.559
701.371, 29.150
702.669, 9.286
703.967, 72.449
705.265, 227.171
706.562, 127.646
707.860, 30.902
709.157, 192.510
710.454, 43.899
711.751, 231.267
713.047, 114.612
714.344, 173.936
715.640, 138.243
716.936, 215.527
718.232, 306.801
719.527, 246.052
720.823, 338.283
722.118, 391.496
723.413, 484.729
724.708, 484.904
726.002, 611.066
727.297, 659.199
728.591, 782.620
729.885, 820.930
731.179, 774.220
732.472, 688.427
733.766, 756.783
735.059, 840.834
736.352, 826.946
737.645, 943.753
738.937, 871.677
740.230, 789.709
741.522, 946.468
742.814, 877.592
744.106, 981.889
745.397, 927.777
746.689, 758.761
747.980, 883.063
749.271, 669.012
750.562, 751.358
751.853, 562.893
753.143, 601.358
754.433, 488.822
755.723, 429.598
757.013, 489.161
758.303, 276.602
759.592, 377.254
760.881, 240.780
762.170, 270.060
763.459, 210.961
764.748, 166.043
766.036, 294.379
767.325, 156.600
768.613, 149.180
769.901, 211.453
771.188, 120.699
772.476, 159.506
773.763, 9.270
775.050, 135.159
776.337, 101.751
777.624, 154.118
778.910, 108.991
780.196, 113.173
781.482, 86.720
782.768, 71.658
784.054, 70.005
785.339, 57.873
786.625, 53.312
787.910, 76.153
789.195, 61.080
790.479, 143.038
791.764, 155.751
793.048, 54.681
794.332, 151.440
795.616, 165.451
796.900, 51.577
798.183, 46.360
799.467, 76.383
800.750, 95.314
802.033, 65.643
803.316, 98.917
804.598, 78.608
805.880, 110.765
807.163, 66.517
808.445, 52.207
809.726, 69.776
811.008, 91.784
812.289, 55.186
813.570, 109.924
814.851, 133.418
816.132, 35.227
817.413, 28.482
818.693, 0.183
819.973, 59.920
821.253, 104.327
822.533, 130.773
823.813, 94.292
825.092, 45.488
826.371, 108.689
827.650, 58.921
828.929, 68.216
830.208, 148.756
831.486, 25.792
832.764, 68.807
834.042, 42.099
835.320, 32.226
836.598, 126.541
837.875, 4.376
839.152, 121.474
840.429, 149.825
841.706, 83.717
842.983, 21.938
844.259, 140.680
845.536, 8.799
846.812, 61.276
848.088, 5.338
849.363, 112.886
850.639, 115.120
851.914, 22.011
853.189, 30.079
854.464, 162.896
855.739, 206.281
857.013, 65.167
858.288, 61.923
859.562, 143.029
860.836, 133.986
862.110, 139.487
863.383, 259.553
864.656, 263.047
865.930, 293.086
867.203, 330.921
868.475, 329.944
869.748, 365.864
871.020, 266.863
872.292, 320.848
873.564, 230.827
874.836, 167.797
876.108, 98.761
877.379, 197.710
878.650, 104.647
879.922, 110.599
881.192, 34.538
882.463, 55.461
883.733, 54.374
885.004, 32.274
886.274, 13.159
887.544, 42.384
888.813, 75.890
890.083, 68.734
891.352, 97.569
892.621, 39.393
893.890, 98.203
895.159, 48.001
896.427, 29.213
897.695, 101.559
898.964, 73.318
900.232, 9.936
901.499, 63.804
902.767, 143.530
904.034, 10.753
905.301, 130.944
906.568, 106.635
907.835, 87.312
909.102, 63.980
910.368, 53.889
911.634, 73.287
912.900, 26.926
914.166, 105.550
915.432, 79.166
916.697, 23.216
917.962, 141.378
919.227, 71.962
920.492, 21.537
921.757, 109.096
923.021, 169.666
924.285, 75.104
925.550, 62.658
926.813, 24.425
928.077, 72.899
929.341, 106.229
930.604, 126.744
931.867, 59.088
933.130, 60.440
934.393, 148.680
935.655, 59.846
936.918, 56.001
938.180, 5.120
939.442, 47.210
940.703, 69.405
941.965, 102.528
943.226, 34.979
944.488, 3.578
945.749, 126.496
947.009, 133.921
948.270, 26.337
949.530, 83.375
950.791, 13.400
952.051, 24.456
953.311, 19.257
954.570, 111.803
955.830, 70.996
957.089, 146.100
958.348, 99.335
959.607, 178.376
960.866, 84.377
962.124, 106.217
963.383, 8.375
964.641, 91.638
965.899, 94.873
967.156, 89.188
968.414, 94.106
969.671, 104.992
970.928, 39.579
972.185, 124.615
973.442, 55.832
974.699, 101.141
975.955, 110.329
977.211, 35.349
978.468, 107.614
979.723, 102.669
980.979, 8.758
982.234, 147.044
983.490, 153.686
984.745, 196.275
986.000, 158.119
987.254, 57.081
988.509, 214.066
989.763, 89.230
991.017, 35.352
992.271, 103.482
993.525, 122.438
994.779, 141.132
996.032, 248.263
997.285, 239.859
998.538, 36.725
999.791, 243.883
1001.044, 69.228
1002.296, 272.615
1003.548, 211.084
1004.800, 115.858
1006.052, 221.123
1007.304, 160.218
1008.555, 165.202
1009.807, 117.180
1011.058, 195.271
1012.309, 200.355
1013.559, 171.669
1014.810, 100.758
1016.060, 111.987
1017.310, 187.129
1018.560, 141.929
1019.810, 242.104
1021.060, 243.449
1022.309, 153.685
1023.558, 327.208
1024.807, 302.144
1026.056, 282.727
1027.305, 356.759
1028.553, 359.008
1029.801, 337.158
1031.049, 414.223
1032.297, 429.007
1033.545, 473.851
1034.793, 540.876
1036.040, 455.839
1037.287, 688.630
1038.534, 678.521
1039.781, 875.467
1041.027, 678.652
1042.274, 802.089
1043.520, 935.901
1044.766, 868.955
1046.012, 903.959
1047.257, 1106.836
1048.503, 1173.904
1049.748, 1113.927
1050.993, 1461.431
1052.238, 1368.319
1053.483, 1526.409
1054.727, 1548.612
1055.971, 1867.898
1057.216, 1881.915
1058.459, 2100.892
1059.703, 2226.012
1060.947, 2404.355
1062.190, 2846.257
1063.433, 2943.961
1064.676, 3251.016
1065.919, 3495.961
1067.162, 3993.646
1068.404, 4073.646
1069.646, 4551.545
1070.888, 5121.229
1072.130, 5524.226
1073.372, 6394.200
1074.613, 7346.092
1075.855, 8200.066
1077.096, 9911.747
1078.337, 11912.628
1079.578, 14577.576
1080.818, 18352.516
1082.059, 23354.375
1083.299, 30311.186
1084.539, 37680.113
1085.779, 45408.422
1087.018, 50295.203
1088.258, 49871.836
1089.497, 45157.566
1090.736, 37574.383
1091.975, 29920.348
1093.213, 23075.014
1094.452, 18033.434
1095.690, 13540.547
1096.928, 10643.497
1098.166, 8362.104
1099.404, 6761.947
1100.642, 5219.494
1101.879, 4565.963
1103.116, 3636.715
1104.353, 3148.548
1105.590, 2642.315
1106.827, 2437.136
1108.063, 1868.950
1109.299, 1723.059
1110.536, 1522.281
1111.771, 1366.388
1113.007, 1246.799
1114.243, 1064.692
1115.478, 947.873
1116.713, 882.120
1117.948, 852.887
1119.183, 677.918
1120.418, 842.498
1121.652, 973.249
1122.886, 844.998
1124.120, 741.950
1125.354, 610.281
1126.588, 519.839
1127.821, 312.896
1129.055, 413.757
1130.288, 414.184
1131.521, 281.969
1132.753, 208.384
1133.986, 161.087
1135.218, 267.785
1136.450, 162.366
1137.682, 330.051
1138.914, 191.731
1140.146, 154.242
1141.377, 185.185
1142.609, 189.844
1143.840, 173.753
1145.071, 195.396
1146.301, 103.193
1147.532, 130.222
1148.762, 19.850
1149.992, 10.522
1151.222, 7.186
1152.452, 71.023
1153.682, 33.380
1154.911, 99.334
1156.140, 58.895
1157.369, 56.873
1158.598, 139.415
1159.827, 96.190
1161.055, 30.716
1162.284, 106.229
1163.512, 49.021
1164.740, 68.550
1165.967, 40.966
1167.195, 58.659
1168.422, 22.339
1169.650, 47.816
1170.877, 17.989
1172.103, 8.591
1173.330, 18.076
1174.557, 132.280
1175.783, 46.626
1177.009, 89.230
1178.235, 165.044
1179.461, 89.853
1180.686, 7.893
1181.912, 55.152
1183.137, 48.268
1184.362, 80.298
1185.587, 84.778
1186.811, 116.974
1188.036, 52.739
1189.260, 23.090
1190.484, 122.249
1191.708, 192.566
1192.932, 70.704
1194.155, 28.136
1195.378, 109.965
1196.602, 92.179
1197.825, 51.259
1199.047, 248.383
1200.270, 98.443
1201.492, 284.492
1202.715, 48.535
1203.937, 172.579
1205.159, 158.960
1206.380, 55.967
1207.602, 14.093
1208.823, 190.087
1210.044, 154.224
1211.265, 112.073
1212.486, 176.686
1213.707, 80.625
1214.927, 199.559
1216.147, 223.481
1217.367, 182.395
1218.587, 117.298
1219.807, 238.191
1221.027, 221.072
1222.246, 87.944
1223.465, 207.807
1224.684, 289.660
1225.903, 141.503
1227.121, 121.337
1228.340, 109.161
1229.558, 198.977
1230.776, 139.785
1231.994, 21.584
1233.212, 180.368
1234.429, 104.146
1235.646, 143.917
1236.864, 229.680
1238.081, 103.435
1239.297, 204.182
1240.514, 137.922
1241.730, 63.656
1242.947, 101.503
1244.163, 182.220
1245.378, 149.926
1246.594, 239.623
1247.810, 117.310
1249.025, 177.993
1250.240, 163.672
1251.455, 183.342
1252.670, 148.000
1253.885, 134.647
1255.099, 49.286
1256.313, 31.915
1257.527, 47.274
1258.741, 71.142
1259.955, 94.744
1261.168, 34.336
1262.382, 26.840
1263.595, 147.448
1264.808, 55.988
1266.021, 184.517
1267.233, 196.035
1268.446, 93.543
1269.658, 69.041
1270.870, 20.529
1272.082, 148.005
1273.294, 43.471
1274.505, 86.907
1275.716, 135.316
1276.928, 101.704
1278.139, 154.060
1279.349, 180.441
1280.560, 143.796
1281.770, 93.098
1282.981, 142.402
1284.191, 197.645
1285.401, 166.876
1286.610, 52.085
1287.820, 195.281
1289.029, 27.534
1290.239, 204.626
1291.448, 79.768
1292.656, 22.881
1293.865, 156.980
1295.073, 100.762
1296.282, 102.484
1297.490, 60.182
1298.698, 148.133
1299.906, 78.950
1301.113, 124.922
1302.320, 27.784
1303.528, 180.623
1304.735, 54.556
1305.942, 166.477
1307.148, 134.165
1308.355, 43.062
1309.561, 102.799
1310.767, 150.604
1311.973, 66.735
1313.179, 30.529
1314.384, 96.017
1315.590, 23.347
1316.795, 105.982
1318.000, 14.121
1319.205, 178.109
1320.410, 165.835
1321.614, 41.642
1322.819, 103.952
1324.023, 9.620
1325.227, 199.249
1326.431, 29.112
1327.634, 1.320
1328.838, 77.295
1330.041, 28.165
1331.244, 172.632
1332.447, 105.834
1333.650, 48.417
1334.852, 142.522
1336.055, 49.995
1337.257, 155.459
1338.459, 18.252
1339.661, 164.391
1340.862, 55.813
1342.064, 127.154
1343.265, 71.319
1344.466, 109.732
1345.667, 124.082
1346.868, 212.484
1348.068, 4.386
1349.269, 25.996
1350.469, 99.380
1351.669, 48.506
1352.869, 76.360
1354.069, 38.731
1355.268, 98.897
1356.468, 0.148
1357.667, 188.751
1358.866, 93.927
1360.065, 115.281
1361.263, 114.642
1362.462, 75.011
1363.660, 120.583
1364.858, 93.767
1366.056, 162.177
1367.254, 164.583
1368.451, 145.032
1369.649, 172.169
1370.846, 183.015
1372.043, 176.557
1373.240, 198.624
1374.436, 194.037
1375.633, 215.732
1376.829, 191.526
1378.025, 185.489
1379.221, 179.481
1380.417, 184.354
1381.613, 212.190
1382.808, 221.083
1384.003, 249.047
1385.199, 296.981
1386.393, 39.921
1387.588, 312.845
1388.783, 153.970
1389.977, 372.291
1391.171, 155.595
1392.365, 115.912
1393.559, 381.439
1394.753, 194.128
1395.946, 271.986
1397.140, 253.384
1398.333, 211.983
1399.526, 356.641
1400.719, 338.373
1401.911, 432.962
1403.104, 427.670
1404.296, 209.022
1405.488, 544.631
1406.680, 329.365
1407.872, 407.889
1409.063, 516.119
1410.255, 277.537
1411.446, 564.582
1412.637, 411.857
1413.828, 605.447
1415.018, 516.592
1416.209, 672.943
1417.399, 666.953
1418.589, 704.582
1419.779, 708.055
1420.969, 628.037
1422.159, 592.740
1423.348, 626.838
1424.537, 687.441
1425.726, 647.346
1426.915, 672.697
1428.104, 696.488
1429.293, 725.531
1430.481, 752.469
1431.669, 746.512
1432.857, 798.631
1434.045, 789.627
1435.233, 870.125
1436.420, 786.902
1437.608, 700.604
1438.795, 684.248
1439.982, 853.031
1441.169, 785.795
1442.355, 731.539
1443.542, 750.258
1444.728, 648.953
1445.914, 768.615
1447.100, 771.238
1448.286, 664.830
1449.472, 474.385
1450.657, 867.887
1451.842, 682.340
1453.027, 562.477
1454.212, 798.816
1455.397, 575.121
1456.581, 716.385
1457.766, 639.600
1458.950, 474.770
1460.134, 695.875
1461.318, 448.916
1462.501, 402.938
1463.685, 708.949
1464.868, 471.904
1466.051, 702.797
1467.234, 406.621
1468.417, 468.422
1469.600, 589.332
1470.782, 541.352
1471.965, 300.545
1473.147, 592.984
1474.329, 334.590
1475.510, 306.217
1476.692, 252.838
1477.873, 372.586
1479.055, 328.713
1480.236, 515.877
1481.416, 213.064
1482.597, 253.279
1483.778, 234.527
1484.958, 309.816
1486.138, 199.170
1487.318, 215.588
1488.498, 210.109
1489.678, 151.725
1490.857, 201.465
1492.037, 161.354
1493.216, 145.416
1494.395, 212.688
1495.574, 154.176
1496.752, 164.934
1497.931, 133.783
1499.109, 88.926
1500.287, 76.297
1501.465, 59.691
1502.643, 52.082
1503.820, 43.164
1504.998, 68.865
1506.175, 52.027
1507.352, 84.705
1508.529, 7.033
1509.706, 41.910
1510.882, 184.664
1512.059, 138.396
1513.235, 100.309
1514.411, 1.443
1515.587, 29.287
1516.762, 3.188
1517.938, 0.000
##END=



