##NAMES=Siderite
##RRUFFID=R040034
##IDEAL CHEMISTRY=Fe^2+^CO_3_
##LOCALITY=Pribram, Czech Republic
##OWNER=RRUFF
##SOURCE=University of Arizona Mineral Museum
##DESCRIPTION=Group of tan colored flattened rhombohedra
##STATUS=The identification of this mineral has been confirmed by X-ray diffraction and chemical analysis
##URL=rruff.info/R040034
##MEASURED CHEMISTRY=(Fe_0.72_Mg_0.24_Mn_0.03_Ca_0.01_)_Î£=1_C_1.00_O_3_; CO_2_ estimated by difference
##PIN_ID=M00031
##ORIENTATION=Laser parallel to c* (0 0 1). Fiducial mark perpendicular to laser is parallel to a [1 0 0]
83.614, 0.000
85.009, 20.335
86.404, 1.141
87.798, 80.052
89.193, 111.422
90.587, 120.690
91.981, 169.089
93.375, 210.143
94.768, 110.524
96.161, 84.980
97.554, 111.320
98.947, 133.394
100.340, 95.108
101.732, 67.435
103.124, 81.288
104.516, 147.579
105.908, 204.244
107.300, 138.232
108.691, 158.503
110.082, 120.023
111.473, 113.764
112.864, 188.703
114.254, 274.819
115.644, 366.132
117.034, 338.914
118.424, 286.070
119.813, 256.369
121.203, 201.714
122.592, 165.105
123.981, 110.542
125.369, 100.724
126.758, 83.584
128.146, 93.187
129.534, 80.422
130.922, 74.838
132.309, 70.287
133.696, 56.075
135.083, 48.903
136.470, 28.770
137.857, 29.239
139.243, 90.611
140.630, 50.583
142.016, 17.589
143.401, 75.626
144.787, 58.694
146.172, 73.792
147.557, 49.429
148.942, 61.936
150.327, 63.173
151.711, 64.858
153.096, 81.329
154.480, 92.316
155.863, 113.286
157.247, 157.291
158.630, 191.329
160.013, 204.398
161.396, 230.497
162.779, 247.636
164.161, 261.869
165.544, 360.222
166.926, 338.627
168.308, 437.038
169.689, 469.454
171.070, 531.938
172.452, 612.425
173.833, 724.917
175.213, 825.417
176.594, 884.923
177.974, 1061.437
179.354, 1299.961
180.734, 1394.495
182.114, 1558.039
183.493, 1809.595
184.872, 1978.162
186.251, 2135.740
187.630, 2238.329
189.008, 2158.930
190.387, 1969.542
191.765, 1639.167
193.143, 1437.802
194.520, 1123.451
195.898, 869.111
197.275, 673.783
198.652, 510.466
200.029, 410.161
201.405, 303.866
202.782, 154.581
204.158, 140.306
205.534, 177.041
206.909, 70.786
208.285, 94.541
209.660, 17.305
211.035, 19.921
212.410, 4.863
213.784, 56.344
215.159, 37.541
216.533, 7.272
217.907, 16.907
219.281, 29.075
220.654, 25.236
222.027, 19.386
223.400, 6.528
224.773, 0.210
226.146, 14.214
227.518, 22.097
228.891, 24.988
230.263, 38.885
231.634, 54.776
233.006, 93.652
234.377, 72.527
235.748, 71.395
237.119, 60.266
238.490, 98.145
239.860, 139.032
241.231, 127.333
242.601, 132.179
243.970, 196.252
245.340, 178.052
246.709, 188.825
248.079, 290.685
249.448, 286.584
250.816, 298.806
252.185, 328.953
253.553, 344.418
254.921, 417.673
256.289, 431.910
257.657, 519.385
259.024, 502.989
260.391, 636.579
261.758, 648.193
263.125, 758.005
264.492, 849.689
265.858, 929.403
267.224, 1060.144
268.590, 1196.910
269.956, 1296.699
271.321, 1541.509
272.687, 1764.339
274.052, 1960.187
275.416, 2421.051
276.781, 2891.932
278.146, 3327.828
279.510, 4018.739
280.874, 4821.662
282.237, 5908.598
283.601, 7050.542
284.964, 8311.495
286.327, 9732.457
287.690, 10890.428
289.053, 11857.412
290.416, 12635.402
291.778, 12640.401
293.140, 12499.413
294.502, 11498.438
295.863, 10540.467
297.225, 9370.509
298.586, 8083.562
299.947, 6880.619
301.308, 5886.687
302.668, 4992.761
304.029, 4264.841
305.389, 3702.935
306.749, 3127.036
308.108, 2730.151
309.468, 2320.271
310.827, 2030.397
312.186, 1769.521
313.545, 1633.626
314.903, 1407.724
316.262, 1270.811
317.620, 1180.896
318.978, 1067.984
320.336, 968.086
321.693, 924.195
323.051, 826.310
324.408, 748.429
325.765, 704.555
327.121, 688.686
328.478, 613.823
329.834, 589.966
331.190, 521.118
332.546, 515.273
333.902, 475.437
335.257, 459.604
336.612, 418.774
337.967, 391.946
339.322, 372.124
340.677, 367.305
342.031, 336.697
343.385, 328.732
344.739, 279.874
346.093, 305.080
347.446, 262.288
348.799, 252.505
350.153, 303.724
351.505, 248.951
352.858, 251.180
354.210, 240.410
355.563, 180.643
356.915, 215.880
358.267, 182.118
359.618, 165.357
360.969, 171.599
362.321, 165.841
363.672, 163.065
365.022, 145.333
366.373, 165.581
367.723, 148.831
369.073, 157.083
370.423, 164.334
371.773, 122.587
373.122, 137.840
374.471, 136.508
375.821, 45.762
377.169, 97.890
378.518, 61.860
379.866, 117.128
381.215, 110.903
382.563, 58.216
383.910, 58.677
385.258, 36.355
386.605, 71.450
387.952, 20.701
389.299, 80.965
390.646, 44.228
391.992, 20.488
393.339, 27.748
394.685, 19.995
396.031, 29.255
397.376, 44.496
398.722, 40.738
400.067, 6.971
401.412, 5.201
402.757, 37.429
404.101, 59.352
405.446, 34.164
406.790, 4.990
408.134, 12.837
409.478, 26.296
410.821, 8.422
412.165, 15.450
413.508, 31.669
414.851, 3.789
416.193, 10.093
417.536, 56.982
418.878, 37.094
420.220, 8.233
421.562, 11.307
422.904, 47.380
424.245, 5.451
425.586, 51.519
426.927, 40.585
428.268, 28.762
429.609, 49.897
430.949, 64.957
432.289, 108.073
433.629, 20.217
434.969, 17.285
436.309, 25.469
437.648, 78.555
438.987, 59.598
440.326, 32.803
441.665, 69.839
443.003, 124.173
444.342, 69.202
445.680, 111.245
447.018, 96.321
448.355, 79.238
449.693, 126.526
451.030, 60.737
452.367, 130.102
453.704, 141.768
455.041, 119.248
456.377, 142.489
457.713, 187.357
459.049, 172.883
460.385, 220.090
461.721, 240.901
463.056, 177.312
464.391, 246.428
465.726, 349.500
467.061, 270.959
468.395, 313.171
469.730, 316.305
471.064, 333.507
472.398, 289.706
473.731, 319.003
475.065, 344.297
476.398, 421.299
477.731, 411.279
479.064, 429.424
480.397, 447.253
481.729, 469.926
483.062, 502.164
484.394, 510.295
485.725, 517.689
487.057, 562.985
488.389, 596.405
489.720, 595.178
491.051, 618.108
492.382, 574.742
493.712, 615.863
495.043, 609.901
496.373, 585.085
497.703, 621.099
499.032, 676.666
500.362, 692.821
501.691, 717.626
503.020, 719.786
504.349, 708.960
505.678, 735.456
507.007, 668.557
508.335, 678.001
509.663, 658.174
510.991, 710.248
512.319, 683.249
513.646, 733.234
514.973, 727.702
516.300, 721.737
517.627, 725.637
518.954, 701.677
520.280, 696.667
521.607, 653.549
522.933, 638.797
524.259, 609.873
525.584, 601.855
526.910, 640.981
528.235, 590.946
529.560, 632.830
530.885, 619.727
532.209, 574.484
533.534, 592.563
534.858, 581.230
536.182, 506.211
537.506, 531.850
538.829, 506.700
540.152, 499.414
541.476, 478.202
542.799, 452.963
544.121, 432.423
545.444, 409.972
546.766, 399.568
548.088, 376.284
549.410, 382.799
550.732, 366.302
552.053, 357.793
553.375, 326.271
554.696, 311.390
556.017, 276.845
557.337, 316.429
558.658, 322.859
559.978, 236.205
561.298, 284.485
562.618, 241.878
563.938, 253.399
565.257, 249.477
566.576, 225.225
567.895, 184.541
569.214, 229.873
570.533, 139.136
571.851, 112.246
573.170, 186.543
574.488, 125.624
575.805, 153.987
577.123, 116.426
578.440, 68.675
579.758, 152.834
581.075, 106.042
582.391, 89.261
583.708, 91.308
585.024, 92.504
586.341, 59.695
587.657, 69.840
588.972, 120.046
590.288, 74.206
591.603, 67.352
592.918, 85.485
594.233, 57.606
595.548, 80.712
596.863, 104.807
598.177, 51.890
599.491, 93.957
600.805, 27.012
602.119, 120.051
603.432, 89.077
604.746, 81.089
606.059, 2.087
607.372, 32.065
608.685, 47.026
609.997, 23.988
611.309, 10.066
612.621, 16.852
613.933, 37.752
615.245, 13.365
616.557, 14.521
617.868, 43.355
619.179, 4.402
620.490, 20.200
621.801, 63.426
623.111, 16.803
624.421, 17.140
625.731, 19.139
627.041, 55.549
628.351, 38.259
629.660, 37.914
630.970, 26.553
632.279, 26.533
633.588, 82.282
634.896, 15.924
636.205, 45.667
637.513, 13.661
638.821, 6.858
640.129, 29.538
641.437, 44.165
642.744, 17.665
644.051, 23.391
645.358, 15.910
646.665, 3.228
647.972, 4.282
649.278, 18.245
650.584, 2.582
651.890, 59.889
653.196, 32.467
654.502, 62.742
655.807, 9.165
657.113, 33.647
658.418, 108.159
659.722, 31.521
661.027, 36.293
662.331, 11.774
663.636, 38.159
664.940, 8.437
666.244, 28.719
667.547, 2.842
668.851, 50.427
670.154, 54.922
671.457, 22.665
672.760, 25.853
674.062, 73.958
675.365, 42.078
676.667, 48.045
677.969, 72.319
679.271, 21.346
680.572, 33.424
681.874, 55.437
683.175, 23.398
684.476, 43.281
685.777, 58.195
687.077, 53.078
688.378, 83.926
689.678, 27.117
690.978, 102.057
692.278, 35.014
693.577, 105.858
694.877, 54.532
696.176, 84.248
697.475, 67.531
698.774, 96.693
700.072, 119.502
701.371, 128.030
702.669, 60.541
703.967, 148.148
705.265, 163.801
706.562, 121.294
707.860, 172.736
709.157, 203.161
710.454, 202.568
711.751, 177.965
713.047, 211.346
714.344, 260.721
715.640, 281.080
716.936, 371.422
718.232, 461.749
719.527, 504.059
720.823, 566.425
722.118, 684.748
723.413, 753.041
724.708, 868.556
726.002, 983.947
727.297, 1005.360
728.591, 1114.738
729.885, 1202.954
731.179, 1167.176
732.472, 1051.513
733.766, 1085.749
735.059, 1114.920
736.352, 1010.302
737.645, 1092.149
738.937, 1032.496
740.230, 975.808
741.522, 1017.842
742.814, 1026.036
744.106, 990.479
745.397, 842.595
746.689, 773.620
747.980, 801.645
749.271, 677.904
750.562, 723.741
751.853, 511.139
753.143, 516.143
754.433, 377.899
755.723, 359.045
757.013, 396.631
758.303, 295.559
759.592, 350.395
760.881, 220.364
762.170, 240.285
763.459, 166.955
764.748, 184.365
766.036, 228.882
767.325, 179.118
768.613, 164.371
769.901, 125.889
771.188, 112.776
772.476, 189.920
773.763, 65.589
775.050, 140.528
776.337, 26.823
777.624, 117.375
778.910, 66.863
780.196, 117.333
781.482, 116.878
782.768, 106.375
784.054, 149.808
785.339, 185.090
786.625, 33.221
787.910, 83.222
789.195, 68.929
790.479, 108.709
791.764, 84.974
793.048, 122.680
794.332, 68.298
795.616, 76.468
796.900, 102.582
798.183, 43.410
799.467, 61.351
800.750, 3.260
802.033, 83.945
803.316, 67.873
804.598, 14.146
805.880, 68.933
807.163, 38.945
808.445, 128.922
809.726, 66.949
811.008, 47.842
812.289, 35.644
813.570, 67.771
814.851, 109.521
816.132, 17.767
817.413, 37.602
818.693, 28.331
819.973, 78.694
821.253, 15.305
822.533, 39.113
823.813, 12.153
825.092, 32.433
826.371, 44.401
827.650, 58.828
828.929, 50.623
830.208, 82.182
831.486, 12.766
832.764, 58.483
834.042, 40.762
835.320, 51.189
836.598, 58.642
837.875, 72.014
839.152, 59.480
840.429, 62.003
841.706, 65.490
842.983, 3.092
844.259, 33.346
845.536, 31.993
846.812, 31.300
848.088, 73.933
849.363, 59.338
850.639, 19.145
851.914, 1.729
853.189, 22.792
854.464, 123.394
855.739, 109.989
857.013, 57.322
858.288, 41.899
859.562, 75.469
860.836, 142.027
862.110, 129.574
863.383, 190.113
864.656, 129.641
865.930, 185.158
867.203, 216.663
868.475, 178.159
869.748, 142.646
871.020, 203.120
872.292, 146.584
873.564, 66.037
874.836, 74.479
876.108, 77.909
877.379, 21.328
878.650, 46.735
879.922, 37.137
881.192, 42.527
882.463, 81.912
883.733, 71.111
885.004, 40.661
886.274, 64.022
887.544, 60.374
888.813, 20.716
890.083, 22.953
891.352, 20.352
892.621, 24.646
893.890, 27.073
895.159, 17.182
896.427, 19.574
897.695, 53.647
898.964, 56.858
900.232, 45.060
901.499, 2.252
902.767, 79.432
904.034, 4.396
905.301, 53.763
906.568, 70.912
907.835, 11.052
909.102, 78.181
910.368, 54.302
911.634, 88.414
912.900, 22.517
914.166, 73.610
915.432, 32.699
916.697, 59.222
917.962, 39.817
919.227, 29.849
920.492, 79.878
921.757, 52.901
923.021, 47.917
924.285, 83.900
925.550, 7.910
926.813, 32.684
928.077, 37.680
929.341, 40.225
930.604, 87.201
931.867, 22.025
933.130, 1.938
934.393, 26.904
935.655, 19.823
936.918, 50.773
938.180, 84.716
939.442, 30.704
940.703, 2.926
941.965, 5.218
943.226, 38.663
944.488, 3.438
945.749, 67.334
947.009, 22.044
948.270, 66.784
949.530, 80.627
950.791, 45.220
952.051, 16.884
953.311, 3.051
954.570, 105.702
955.830, 0.608
957.089, 20.408
958.348, 76.106
959.607, 17.675
960.866, 40.522
962.124, 8.800
963.383, 50.792
964.641, 59.331
965.899, 95.999
967.156, 48.820
968.414, 43.724
969.671, 53.285
970.928, 99.804
972.185, 74.542
973.442, 14.975
974.699, 162.550
975.955, 102.876
977.211, 10.067
978.468, 94.519
979.723, 22.163
980.979, 104.771
982.234, 195.509
983.490, 26.918
984.745, 97.553
986.000, 116.114
987.254, 50.716
988.509, 125.349
989.763, 60.037
991.017, 138.671
992.271, 76.314
993.525, 154.971
994.779, 134.264
996.032, 146.784
997.285, 171.297
998.538, 153.020
999.791, 138.539
1001.044, 155.186
1002.296, 179.661
1003.548, 215.817
1004.800, 167.306
1006.052, 197.519
1007.304, 134.266
1008.555, 200.102
1009.807, 191.131
1011.058, 150.944
1012.309, 213.681
1013.559, 167.226
1014.810, 172.957
1016.060, 241.685
1017.310, 273.455
1018.560, 283.117
1019.810, 310.851
1021.060, 290.133
1022.309, 316.864
1023.558, 298.595
1024.807, 284.262
1026.056, 288.963
1027.305, 391.678
1028.553, 377.155
1029.801, 420.320
1031.049, 435.867
1032.297, 486.974
1033.545, 520.939
1034.793, 547.643
1036.040, 549.720
1037.287, 618.939
1038.534, 651.734
1039.781, 714.236
1041.027, 781.334
1042.274, 854.863
1043.520, 893.397
1044.766, 959.195
1046.012, 945.702
1047.257, 1067.031
1048.503, 1208.694
1049.748, 1158.521
1050.993, 1334.157
1052.238, 1447.617
1053.483, 1465.555
1054.727, 1650.813
1055.971, 1794.486
1057.216, 1935.222
1058.459, 2155.718
1059.703, 2355.625
1060.947, 2539.163
1062.190, 2828.895
1063.433, 3044.437
1064.676, 3282.176
1065.919, 3554.772
1067.162, 3884.059
1068.404, 4296.321
1069.646, 4674.009
1070.888, 5263.742
1072.130, 5804.439
1073.372, 6472.116
1074.613, 7394.919
1075.855, 8470.543
1077.096, 10001.340
1078.337, 12165.972
1079.578, 14847.681
1080.818, 18656.482
1082.059, 23472.820
1083.299, 30526.305
1084.539, 37898.898
1085.779, 45585.480
1087.018, 50216.168
1088.258, 49625.008
1089.497, 44668.840
1090.736, 37276.230
1091.975, 29107.547
1093.213, 22327.211
1094.452, 17501.703
1095.690, 13232.418
1096.928, 11180.991
1098.166, 7982.704
1099.404, 6392.413
1100.642, 5019.084
1101.879, 4145.709
1103.116, 3502.113
1104.353, 2856.822
1105.590, 2418.289
1106.827, 2168.277
1108.063, 1824.004
1109.299, 1578.657
1110.536, 1395.500
1111.771, 1150.730
1113.007, 1004.942
1114.243, 990.267
1115.478, 759.974
1116.713, 733.681
1117.948, 708.407
1119.183, 625.120
1120.418, 710.832
1121.652, 820.542
1122.886, 776.129
1124.120, 590.838
1125.354, 513.552
1126.588, 421.831
1127.821, 327.554
1129.055, 306.204
1130.288, 360.924
1131.521, 212.805
1132.753, 236.476
1133.986, 186.193
1135.218, 282.910
1136.450, 116.624
1137.682, 237.337
1138.914, 99.048
1140.146, 185.757
1141.377, 171.576
1142.609, 168.280
1143.840, 165.995
1145.071, 118.699
1146.301, 94.400
1147.532, 77.100
1148.762, 161.797
1149.992, 9.507
1151.222, 107.188
1152.452, 73.883
1153.682, 10.423
1154.911, 113.389
1156.140, 24.476
1157.369, 28.466
1158.598, 3.188
1159.827, 58.987
1161.055, 17.296
1162.284, 98.340
1163.512, 90.200
1164.740, 18.830
1165.967, 10.542
1167.195, 64.174
1168.422, 87.330
1169.650, 115.943
1170.877, 33.589
1172.103, 73.195
1173.330, 34.832
1174.557, 117.431
1175.783, 101.360
1177.009, 26.656
1178.235, 72.920
1179.461, 25.612
1180.686, 21.010
1181.912, 138.666
1183.137, 5.502
1184.362, 5.973
1185.587, 14.584
1186.811, 57.101
1188.036, 31.304
1189.260, 87.820
1190.484, 117.333
1191.708, 57.377
1192.932, 109.892
1194.155, 40.588
1195.378, 127.101
1196.602, 15.704
1197.825, 71.644
1199.047, 164.025
1200.270, 8.522
1201.492, 76.090
1202.715, 56.579
1203.937, 134.064
1205.159, 126.333
1206.380, 82.810
1207.602, 48.283
1208.823, 57.627
1210.044, 108.355
1211.265, 67.888
1212.486, 72.345
1213.707, 59.958
1214.927, 137.491
1216.147, 36.954
1217.367, 145.485
1218.587, 122.867
1219.807, 66.318
1221.027, 48.768
1222.246, 36.255
1223.465, 20.194
1224.684, 92.138
1225.903, 50.574
1227.121, 47.005
1228.340, 131.432
1229.558, 73.861
1230.776, 76.290
1231.994, 61.716
1233.212, 97.141
1234.429, 35.563
1235.646, 124.982
1236.864, 158.408
1238.081, 84.832
1239.297, 60.256
1240.514, 123.677
1241.730, 83.090
1242.947, 194.500
1244.163, 71.906
1245.378, 166.310
1246.594, 94.711
1247.810, 50.110
1249.025, 84.506
1250.240, 120.902
1251.455, 111.294
1252.670, 8.315
1253.885, 65.066
1255.099, 50.445
1256.313, 27.820
1257.527, 149.193
1258.741, 138.564
1259.955, 40.933
1261.168, 80.298
1262.382, 134.660
1263.595, 64.019
1264.808, 127.375
1266.021, 148.723
1267.233, 133.067
1268.446, 92.408
1269.658, 86.745
1270.870, 151.066
1272.082, 78.370
1273.294, 91.672
1274.505, 143.970
1275.716, 77.254
1276.928, 32.529
1278.139, 119.799
1279.349, 145.018
1280.560, 138.234
1281.770, 219.414
1282.981, 90.580
1284.191, 208.733
1285.401, 88.880
1286.610, 45.000
1287.820, 86.114
1289.029, 69.222
1290.239, 90.949
1291.448, 98.413
1292.656, 93.679
1293.865, 94.526
1295.073, 94.570
1296.282, 100.167
1297.490, 105.175
1298.698, 99.178
1299.906, 40.711
1301.113, 10.701
1302.320, 13.451
1303.528, 97.991
1304.735, 32.850
1305.942, 51.812
1307.148, 86.955
1308.355, 18.902
1309.561, 159.843
1310.767, 67.731
1311.973, 19.838
1313.179, 26.928
1314.384, 125.965
1315.590, 57.849
1316.795, 133.722
1318.000, 58.592
1319.205, 72.453
1320.410, 11.306
1321.614, 8.851
1322.819, 65.401
1324.023, 1.778
1325.227, 52.494
1326.431, 30.043
1327.634, 105.164
1328.838, 83.090
1330.041, 52.309
1331.244, 74.930
1332.447, 64.330
1333.650, 96.313
1334.852, 60.026
1336.055, 14.264
1337.257, 143.435
1338.459, 8.868
1339.661, 106.776
1340.862, 36.462
1342.064, 29.006
1343.265, 4.334
1344.466, 62.331
1345.667, 39.801
1346.868, 72.465
1348.068, 87.643
1349.269, 3.204
1350.469, 92.459
1351.669, 60.126
1352.869, 23.762
1354.069, 86.437
1355.268, 39.885
1356.468, 73.789
1357.667, 9.529
1358.866, 40.153
1360.065, 123.849
1361.263, 38.457
1362.462, 37.819
1363.660, 64.908
1364.858, 57.156
1366.056, 46.170
1367.254, 131.852
1368.451, 130.697
1369.649, 125.288
1370.846, 137.301
1372.043, 83.252
1373.240, 106.384
1374.436, 72.492
1375.633, 60.483
1376.829, 89.598
1378.025, 63.679
1379.221, 103.780
1380.417, 118.877
1381.613, 136.967
1382.808, 128.972
1384.003, 129.657
1385.199, 134.562
1386.393, 107.341
1387.588, 93.382
1388.783, 82.283
1389.977, 134.283
1391.171, 124.945
1392.365, 66.315
1393.559, 156.322
1394.753, 125.321
1395.946, 139.314
1397.140, 81.105
1398.333, 120.085
1399.526, 112.061
1400.719, 116.031
1401.911, 190.856
1403.104, 119.805
1404.296, 150.764
1405.488, 182.719
1406.680, 115.679
1407.872, 161.472
1409.063, 245.371
1410.255, 126.149
1411.446, 299.038
1412.637, 218.713
1413.828, 311.738
1415.018, 242.063
1416.209, 363.927
1417.399, 408.795
1418.589, 295.154
1419.779, 369.719
1420.969, 369.369
1422.159, 361.058
1423.348, 477.808
1424.537, 375.190
1425.726, 462.438
1426.915, 356.187
1428.104, 349.678
1429.293, 420.780
1430.481, 429.216
1431.669, 452.780
1432.857, 525.966
1434.045, 443.253
1435.233, 508.260
1436.420, 551.580
1437.608, 469.849
1438.795, 476.584
1439.982, 477.855
1441.169, 490.021
1442.355, 430.244
1443.542, 500.454
1444.728, 495.637
1445.914, 452.788
1447.100, 371.905
1448.286, 487.985
1449.472, 503.027
1450.657, 479.064
1451.842, 507.065
1453.027, 476.992
1454.212, 504.943
1455.397, 426.814
1456.581, 494.641
1457.766, 475.417
1458.950, 367.144
1460.134, 488.813
1461.318, 442.424
1462.501, 437.001
1463.685, 391.519
1464.868, 320.085
1466.051, 487.630
1467.234, 299.192
1468.417, 430.854
1469.600, 375.704
1470.782, 406.708
1471.965, 341.786
1473.147, 366.920
1474.329, 354.076
1475.510, 338.577
1476.692, 333.064
1477.873, 329.459
1479.055, 289.053
1480.236, 281.545
1481.416, 244.317
1482.597, 214.007
1483.778, 217.743
1484.958, 207.542
1486.138, 172.915
1487.318, 151.435
1488.498, 124.476
1489.678, 124.707
1490.857, 142.101
1492.037, 135.087
1493.216, 195.401
1494.395, 140.312
1495.574, 213.405
1496.752, 200.683
1497.931, 161.174
1499.109, 36.916
1500.287, 132.949
1501.465, 24.317
1502.643, 65.062
1503.820, 76.228
1504.998, 37.875
1506.175, 5.912
1507.352, 0.210
1508.529, 43.659
1509.706, 13.281
1510.882, 72.389
1512.059, 105.337
1513.235, 0.000
##END=



