##NAMES=Sinoite
##RRUFFID=R130011
##IDEAL CHEMISTRY=Si_2_N_2_O
##LOCALITY=Zakłodzie meteorite, Zakłodzie, Poland
##OWNER=Chi Ma
##SOURCE=Chi Ma
##DESCRIPTION=Euhedral lath-shaped crystals included in association with buseckite. Data from Ma et al (American Mineralogist, 97 (2012) 1226-1233)
##STATUS=The identification of this mineral is confirmed by electron back-scatter diffraction
##URL=rruff.info/R130011
1200.34, 0
1199.28, -175.348
1198.21, -158.909
1197.15, 213.164
1196.08, -134.113
1195.02, -85.4039
1193.95, -477.666
1192.88, 105.19
1191.82, 256.617
1190.75, 329.941
1189.68, 306.792
1188.62, -53.7393
1187.55, 292.813
1186.48, 158.786
1185.42, 331.451
1184.35, 719.125
1183.28, 699.065
1182.21, 886.958
1181.14, 915.546
1180.08, 611.074
1179.01, 582.943
1177.94, 755.723
1176.87, 1084.84
1175.8, 1119.11
1174.73, 1316.64
1173.67, 943.161
1172.6, 1273.56
1171.53, 1252.73
1170.46, 1129.35
1169.39, 1308.82
1168.32, 1930.39
1167.25, 1936.74
1166.18, 1949.88
1165.11, 2203.3
1164.04, 2832.93
1162.97, 3018.26
1161.9, 3286.89
1160.83, 3751.84
1159.75, 3955.38
1158.68, 4916.56
1157.61, 5112.37
1156.54, 5067.2
1155.47, 6298.28
1154.4, 7048.1
1153.32, 7634.73
1152.25, 8584.24
1151.18, 9515.01
1150.11, 11018.7
1149.04, 11459.3
1147.96, 12195.2
1146.89, 13231.5
1145.82, 14423.5
1144.74, 15130.4
1143.67, 15539.1
1142.6, 16315.2
1141.52, 16085.5
1140.45, 16013.8
1139.38, 15474.5
1138.3, 14338.9
1137.23, 13168.8
1136.15, 12075.9
1135.08, 10920.6
1134, 8993.02
1132.93, 7668.51
1131.85, 6623.21
1130.78, 5420.3
1129.7, 4884.7
1128.63, 4432.91
1127.55, 3528.14
1126.47, 3408.74
1125.4, 3027.16
1124.32, 2907.82
1123.25, 2849.61
1122.17, 2214.65
1121.09, 1942.68
1120.02, 2152.97
1118.94, 1175.45
1117.86, 1435.09
1116.78, 1698.79
1115.71, 1473.89
1114.63, 1426.93
1113.55, 1336.21
1112.47, 1078.36
1111.4, 707.435
1110.32, 674.791
1109.24, 786.051
1108.16, 468.579
1107.08, 538.391
1106, 918.383
1104.92, 418.408
1103.84, 858.782
1102.77, 738.852
1101.69, 236.829
1100.61, 719.221
1099.53, 634.033
1098.45, 375.73
1097.37, 80.4365
1096.29, 121.218
1095.21, -99.6594
1094.13, 481.878
1093.04, 217.805
1091.96, 316.571
1090.88, 468.567
1089.8, -239.301
1088.72, 229.943
1087.64, 354.453
1086.56, -10.429
1085.47, 38.5132
1084.39, 549.49
1083.31, 351.443
1082.23, 312.88
1081.15, 20.5472
1080.06, -3.86522
1078.98, -125.03
1077.9, 227.103
1076.81, 383.259
1075.73, 497.867
1074.65, 967.592
1073.56, 1052.87
1072.48, 1434.93
1071.4, 1621.31
1070.31, 1408.76
1069.23, 1424.57
1068.14, 1334.5
1067.06, 1322.9
1065.97, 1677.8
1064.89, 1666.42
1063.8, 2051.14
1062.72, 1809.64
1061.63, 1959.7
1060.55, 1542.99
1059.46, 1578.02
1058.38, 1583.19
1057.29, 1150.89
1056.2, 1115.09
1055.12, 979.559
1054.03, 847.144
1052.94, 618.078
1051.86, 922.331
1050.77, 964.718
1049.68, 496.693
1048.6, 1120.67
1047.51, 471.118
1046.42, 200.947
1045.33, 466.376
1044.25, 812.236
1043.16, 941.854
1042.07, 173.42
1040.98, 643.22
1039.89, 272.24
1038.8, 463.817
1037.72, 350.451
1036.63, 688.299
1035.54, 357.23
1034.45, 805.512
1033.36, 804.35
1032.27, 600.881
1031.18, 884.019
1030.09, 685.352
1029, 537.135
1027.91, 542.424
1026.82, 552.345
1025.73, 562.234
1024.64, 819.298
1023.55, 467.571
1022.45, 389.989
1021.36, 669.43
1020.27, 454.659
1019.18, 688.502
1018.09, 505.395
1017, 479.994
1015.9, 603.978
1014.81, 1045.7
1013.72, 706.558
1012.63, 630.779
1011.53, 705.696
1010.44, 355.194
1009.35, 354.62
1008.26, 323.9
1007.16, 233.968
1006.07, 534.81
1004.97, 538.503
1003.88, 370.008
1002.79, 499.069
1001.69, 394.262
1000.6, 808.766
999.504, 667.396
998.409, 669.934
997.314, 533.126
996.219, 1069.64
995.124, 893.658
994.029, 1002.87
992.934, 694.297
991.838, 1629.24
990.742, 1623.82
989.646, 2624.24
988.55, 3327.55
987.454, 4885.91
986.358, 6787.8
985.261, 8308.33
984.164, 8686.2
983.067, 8434.69
981.97, 7472.12
980.873, 6568.87
979.776, 4982.34
978.678, 4129.45
977.581, 2639.04
976.483, 2385.3
975.385, 2350.05
974.287, 1747.82
973.188, 1320.85
972.09, 1424.01
970.991, 1324.51
969.892, 1006.43
968.793, 1018.05
967.694, 806.585
966.595, 415.367
965.495, 715.291
964.396, 696.591
963.296, 543.649
962.196, 495.032
961.096, 682.607
959.996, 885.838
958.895, 918.365
957.795, 614.546
956.694, 810.364
955.593, 928.677
954.492, 733.476
953.391, 944.542
952.289, 1368.83
951.188, 1270.86
950.086, 1708.33
948.984, 1895.98
947.882, 2328.45
946.78, 3107.76
945.677, 4796.24
944.575, 6574.75
943.472, 9382.02
942.369, 10667.4
941.266, 11664.5
940.163, 10071.1
939.06, 7771.26
937.956, 6233.22
936.852, 4140.79
935.749, 3233.39
934.645, 2638.8
933.54, 1865.62
932.436, 1993.63
931.332, 1245.75
930.227, 1192.95
929.122, 1101.74
928.017, 1071.79
926.912, 1109.79
925.807, 980.527
924.701, 1023.33
923.596, 742.83
922.49, 451.365
921.384, 912.787
920.278, 1096.26
919.172, 556.781
918.065, 849.076
916.958, 1107.6
915.852, 699.959
914.745, 1155.31
913.638, 596.931
912.53, 1303.26
911.423, 1560.46
910.315, 1169.98
909.208, 1267.48
908.1, 1159.74
906.992, 1492.38
905.883, 2158.99
904.775, 2160.29
903.666, 2303.89
902.558, 2885.22
901.449, 3189.29
900.34, 3937.57
899.231, 5104.98
898.121, 5472.43
897.012, 7326.99
895.902, 8723.97
894.792, 9550.75
893.682, 11271.7
892.572, 12841.5
891.461, 13674.8
890.351, 14249.1
889.24, 13254.5
888.129, 11895.9
887.018, 9124.69
885.907, 7659.46
884.796, 5551.28
883.684, 4629.47
882.573, 3579.7
881.461, 2647.36
880.349, 2290.95
879.237, 1903.39
878.124, 1558.66
877.012, 1349.11
875.899, 1386.83
874.786, 1253.9
873.673, 977.413
872.56, 793.177
871.447, 1183.92
870.333, 946.026
869.22, 187.409
868.106, 459.356
866.992, 612.393
865.878, 1052.67
864.764, 965.572
863.649, 640.892
862.535, 731.179
861.42, 272.137
860.305, 156.27
859.19, 408.202
858.074, 337.269
856.959, 309.014
855.843, 101.491
854.728, 317.395
853.612, -10.9693
852.495, 435.731
851.379, -18.1081
850.263, 204.487
849.146, 48.6293
848.029, 20.3647
846.912, 471.127
845.795, 8.5906
844.678, 340.48
843.561, -343.382
842.443, 50.9705
841.325, 9.0912
840.207, -265.425
839.089, 148.778
837.971, 39.5963
836.853, 33.2568
835.734, 350.825
834.615, 230.287
833.496, 201.28
832.377, 245.99
831.258, 558.523
830.139, 551.576
829.019, 499.833
827.899, 287.293
826.779, -68.1693
825.659, 312.903
824.539, 749.487
823.419, 155.008
822.298, 397.21
821.177, 422.812
820.057, 236.422
818.935, 344.3
817.814, 436.399
816.693, 606.362
815.571, 225.584
814.45, 602.476
813.328, 609.258
812.206, 174.67
811.083, 597.684
809.961, 410.194
808.838, 512.079
807.716, 760.682
806.593, 436.933
805.47, 945.59
804.347, 329.91
803.223, 989.436
802.1, 831.901
800.976, 792.204
799.852, 790.065
798.728, 687.67
797.604, 785.256
796.479, 1009.3
795.355, 715.088
794.23, 1194.29
793.105, 824.121
791.98, 842.766
790.855, 1287.7
789.73, 1396.92
788.604, 912.675
787.478, 1565.47
786.352, 1320.75
785.226, 1302.3
784.1, 1108.22
782.974, 1002.76
781.847, 1067.9
780.72, 569.193
779.594, 864.545
778.467, 620.594
777.339, 294.374
776.212, 850.452
775.084, 661.164
773.957, 453.936
772.829, 217.564
771.701, 222.635
770.573, 180.794
769.444, 457.756
768.316, 297.86
767.187, 109.009
766.058, 364.922
764.929, 73.573
763.8, 96.3394
762.67, 499.474
761.541, -95.9505
760.411, 120.567
759.281, -236.373
758.151, -60.336
757.021, 117.529
755.89, -147.261
754.76, 222.337
753.629, 32.2344
752.498, -69.6309
751.367, -149.647
750.236, 128.189
749.105, 536.069
747.973, 241.059
746.841, 169.037
745.709, 326.567
744.577, 441.94
743.445, 994.288
742.313, 581.554
741.18, 1007.62
740.047, 1616.64
738.914, 1675.88
737.781, 2454.28
736.648, 3761.83
735.515, 5154.93
734.381, 6355.72
733.247, 8109.56
732.113, 10378.8
730.979, 10409.8
729.845, 9975.75
728.711, 9594.64
727.576, 7918.15
726.441, 6865.59
725.306, 5181.27
724.171, 4263.81
723.036, 3285.17
721.901, 2540.24
720.765, 2108.26
719.629, 1729.27
718.493, 1324.15
717.357, 1196.51
716.221, 1091.08
715.085, 904.468
713.948, 704.821
712.811, 265.695
711.674, 246.935
710.537, 566.922
709.4, 495.749
708.262, 576.474
707.125, 360.75
705.987, 187.108
704.849, 655.258
703.711, 730.391
702.573, 245.76
701.434, 141.424
700.295, -149.131
699.157, -83.7072
698.018, 234.54
696.879, 171.136
695.739, 18.2027
694.6, 264.957
693.46, 163.257
692.32, -256.022
691.18, 294.552
690.04, 128.403
688.9, -254.358
687.759, 466.164
686.619, -7.6804
685.478, 23.2333
684.337, 150.987
683.196, -3.34536
682.054, -336.73
680.913, -224.868
679.771, 152.449
678.629, 129.55
677.487, 70.0266
676.345, 65.7829
675.203, -1.37348
674.06, 83.1015
672.917, 76.1204
671.774, 286.221
670.631, -135.199
669.488, -125.291
668.345, -359.759
667.201, -173.964
666.058, -156.028
664.914, 113.667
663.77, -219.302
662.625, -158.566
661.481, -339.937
660.336, -177.887
659.192, 98.06
658.047, -149.746
656.902, 19.9429
655.756, 205.185
654.611, 117.885
653.465, 177.125
652.32, 116.727
651.174, 316.225
650.028, 323.984
648.881, 637.455
647.735, 715.508
646.588, 929.05
645.441, 1020.62
644.294, 347.346
643.147, 380.666
642, 289.962
640.853, 38.229
639.705, -147.858
638.557, 12.5929
637.409, 223.22
636.261, -454.44
635.113, -278.34
633.964, -219.704
632.815, -158.793
631.667, -443.793
630.518, -367.476
629.368, -258.364
628.219, 59.4885
627.07, -296.875
625.92, -176.87
624.77, -198.215
623.62, -93.4237
622.47, -269.068
621.319, 122.587
620.169, 481.444
619.018, 173.195
617.867, 516.671
616.716, 132.409
615.565, 408.366
614.414, 132.591
613.262, -75.8344
612.11, 479.723
610.958, -84.8608
609.806, -11.4673
608.654, -265.869
607.501, -134.174
606.349, -156.715
605.196, -157.755
604.043, 508.861
602.89, 73.7197
601.737, 436.209
600.583, -55.5903
599.43, 187.201
598.276, 310.518
597.122, 147.603
595.968, 114.495
594.813, 237.082
593.659, 34.5472
592.504, 167.492
591.349, 198.371
590.194, -149.738
589.039, 226.941
587.884, 75.356
586.728, 180.986
585.573, 33.2039
584.417, 300.521
583.261, 111.211
582.104, 148.674
580.948, 281.015
579.791, 177.441
578.635, -77.68
577.478, -181.721
576.321, 124.494
575.163, 6.97242
574.006, 118.123
572.848, 32.3898
571.691, 179.634
570.533, 11.3182
569.375, 304.692
568.216, 396.98
567.058, 245.074
565.899, 47.6353
564.74, 268.414
563.581, 467.308
562.422, 691.654
561.263, 201.838
560.103, 341.454
558.944, 625.158
557.784, 524.697
556.624, 572.723
555.464, 142.003
554.303, 260.509
553.143, 497.059
551.982, 263.698
550.821, 170.009
549.66, 265.49
548.499, 255.117
547.337, 578.02
546.176, 226.851
545.014, 198.172
543.852, 300.378
542.69, 875.524
541.528, 507.979
540.365, 574.635
539.203, 200.199
538.04, 283.442
536.877, 282.514
535.714, 545.664
534.55, 397.961
533.387, 484.246
532.223, 641.128
531.059, 550.668
529.895, 573.784
528.731, 573.077
527.567, 591.447
526.402, 444.301
525.238, 758.374
524.073, 814.73
522.908, 967.383
521.742, 1156.26
520.577, 991.021
519.411, 1198.8
518.246, 1243.39
517.08, 1420.78
515.914, 1405.01
514.747, 1089.01
513.581, 1064.5
512.414, 829.895
511.247, 685.191
510.08, 773.982
508.913, 374.337
507.746, 246.686
506.578, 714.336
505.411, 811.384
504.243, 465.221
503.075, 816.923
501.907, 708.399
500.738, 1184
499.57, 1415.62
498.401, 1972.28
497.232, 2126.75
496.063, 2172.13
494.894, 2005.83
493.724, 1619.48
492.555, 955.423
491.385, 597.246
490.215, 286.292
489.045, 80.1433
487.875, -76.6218
486.704, 228.074
485.533, 65.1032
484.363, 177.811
483.192, 175.309
482.02, 281.798
480.849, 322.296
479.678, -4.10257
478.506, 538.161
477.334, 297.56
476.162, 229.972
474.99, 273.531
473.817, 40.0058
472.645, 201.187
471.472, 17.1491
470.299, 231.843
469.126, 39.6159
467.953, 148.027
466.779, 51.9929
465.606, 316.064
464.432, 754.797
463.258, 1006.09
462.084, 1778.97
460.909, 2313.31
459.735, 3311.5
458.56, 4156.28
457.385, 5666.8
456.21, 6566.19
455.035, 7433.58
453.86, 7332.75
452.684, 6255.9
451.508, 4928.41
450.332, 4107.32
449.156, 3109.89
447.98, 2731.19
446.803, 2084.8
445.627, 1153.75
444.45, 1172.5
443.273, 1038.14
442.096, 438.656
440.919, 590.866
439.741, 243.939
438.563, 330.062
437.386, 477.348
436.207, 518.447
435.029, 591.164
433.851, 869.356
432.672, 667.866
431.494, 640.119
430.315, 819.977
429.136, 429.091
427.956, 177.974
426.777, 11.4737
425.597, -85.3815
424.417, 237.021
423.237, -6.61127
422.057, 160.4
420.877, 225.353
419.696, 63.3396
418.516, 275.769
417.335, 165.958
416.154, 36.6397
414.972, 370.615
413.791, 449.976
412.609, 211.577
411.428, 211.854
410.246, 23.3958
409.064, 18.4922
407.881, 457.255
406.699, 455.712
405.516, 217.006
404.333, 191.537
403.15, 396.046
401.967, 431.244
400.784, 499.921
399.6, 183.897
398.417, 383.205
397.233, 18.3743
396.049, 219.386
394.864, -84.291
393.68, -136.792
392.495, 355.141
391.311, 173.852
390.126, 43.2481
388.941, 296.673
387.755, 290.655
386.57, 324.848
385.384, 445.592
384.198, 756.238
383.012, 1007.99
381.826, 1044.89
380.64, 1564.61
379.453, 2632.33
378.266, 3588.34
377.079, 4715.16
375.892, 6378.87
374.705, 8154.32
373.518, 8537.93
372.33, 8877.72
371.142, 7308.94
369.954, 5524.52
368.766, 3690.58
367.578, 2154.55
366.389, 1137.06
365.2, 572.71
364.011, 255.26
362.822, 142.636
361.633, 535.288
360.444, 197.229
359.254, -102.081
358.064, -190.35
356.874, 20.7261
355.684, 3.62703
354.494, -46.0555
353.303, 22.8526
352.113, -211.664
350.922, 98.6689
349.731, 137.123
348.54, 245.8
347.348, -181.74
346.157, 130.174
344.965, -29.1916
343.773, 345.009
342.581, -91.8013
341.389, 208.07
340.196, -162.463
339.004, 205.382
337.811, 236.157
336.618, 9.4963
335.425, 436.932
334.231, 307.117
333.038, 558.713
331.844, 940.184
330.65, 1026.24
329.456, 1480.72
328.262, 2079.36
327.067, 2169.06
325.873, 1852.39
324.678, 1324.25
323.483, 944.326
322.288, 459.507
321.092, 461.602
319.897, 412.835
318.701, 133.465
317.505, 221.336
316.309, 310.54
315.113, 313.068
313.916, 270.809
312.72, 350.752
311.523, 74.5198
310.326, 28.9987
309.129, 274.691
307.932, -170.082
306.734, -96.2294
305.536, -115.66
304.339, -432.959
303.141, -292.63
301.942, 271.595
300.744, 160.148
299.545, -86.5234
298.347, 75.8287
297.148, 121.597
295.948, 267.576
294.749, 140.795
293.55, 210.336
292.35, 69.9062
291.15, 180.104
289.95, 22.314
288.75, -111.719
287.549, 48.8965
286.349, -131.071
285.148, 346.007
283.947, 103.869
282.746, 15.1376
281.545, -36.7516
280.343, -162.05
279.142, 648.549
277.94, 564.047
276.738, 441.915
275.535, 779.262
274.333, 738.125
273.13, 528.637
271.928, 334.036
270.725, 669.663
269.522, 1180.23
268.318, 743.649
267.115, 621.624
265.911, 761.96
264.707, 865.7
263.503, 931.017
262.299, 1507.94
261.095, 1988.31
259.89, 2455.25
258.685, 3332.23
257.48, 4716.68
256.275, 7909.02
255.07, 13595.4
253.865, 24731.9
252.659, 42240.8
251.453, 58716.4
250.247, 62038.6
249.041, 49166
247.834, 32458.2
246.628, 20007.4
245.421, 10844.2
244.214, 6210.43
243.007, 3728.5
241.8, 2480.09
240.592, 1235.09
239.385, 860.88
238.177, 1032.25
236.969, 325.412
235.76, 606.953
234.552, 360.301
233.343, 92.5373
232.135, 788.201
230.926, 546.631
229.717, 716.034
228.507, 882.242
227.298, 1094.35
226.088, 1428.13
224.878, 1480.07
223.668, 2142.29
222.458, 2944.99
221.248, 4823.22
220.037, 6842.33
218.826, 9794.84
217.615, 11604.8
216.404, 11564
215.193, 9763.79
213.981, 7902.58
212.77, 6710.18
211.558, 5709.16
210.346, 5068.03
209.133, 5293.3
207.921, 5431.69
206.708, 6138.54
205.495, 6686.94
204.283, 6573.18
203.069, 8546.93
201.856, 8462.99
200.642, 10332
199.429, 11830.6
198.215, 13629
197.001, 16125.4
195.786, 19606.7
194.572, 24229.7
193.357, 31855.4
192.143, 43405.4
190.928, 61928.2
189.712, 98485.4
188.497, 168725
187.281, 280538
186.066, 402570
184.85, 465295
183.634, 418849
182.417, 312405
181.201, 204938
179.984, 129761
178.767, 84082
177.55, 56876.8
176.333, 41670.1
175.116, 32801.1
173.898, 25219.5
172.68, 19599.6
171.463, 16189.9
170.244, 13070.9
169.026, 10419.7
167.808, 8301.5
166.589, 7667.47
165.37, 6286.77
164.151, 5646.13
162.932, 4463.1
161.712, 3772.89
160.493, 3068.13
159.273, 2594.61
158.053, 2226.53
156.833, 1782.98
155.612, 1482.9
154.392, 1470.83
153.171, 968.123
151.95, 897.893
150.729, 874.464
149.508, 559.637
148.286, 650.934
147.065, 597.052
145.843, 483.304
144.621, 265.791
143.399, 516.392
142.176, 487.613
140.954, 272.498
139.731, 332.511
138.508, 433.474
137.285, 14.4385
136.062, 396.896
134.838, 478.382
133.614, 384.627
132.39, 251.278
131.166, 160.441
129.942, 239.293
128.718, 194.529
127.493, 308.584
126.268, 24.9022
125.043, 230.07
123.818, 194.101
122.593, 250.416
121.367, 67.1285
120.141, -77.8384
118.916, 62.5265
117.689, 12.3817
116.463, 221.843
115.237, -68.0737
114.01, 83.8328
112.783, 61.4829
111.556, 15.1202
110.329, 36.0121
109.101, -47.249
107.874, 88.6969
106.646, 109.56
105.418, 194.146
104.19, -73.1938
102.962, 215.008
101.733, 191.372
100.504, 0
##END=



