##NAMES=Smithsonite
##RRUFFID=R040051
##IDEAL CHEMISTRY=Zn^2+^CO_3_
##LOCALITY=Berg Aukas mine, Grootfontein, Namibia
##OWNER=RRUFF
##SOURCE=University of Arizona Mineral Museum
##DESCRIPTION=Yellowish brown botryoidal groups
##STATUS=The identification of this mineral has been confirmed by X-ray diffraction and chemical analysis
##URL=rruff.info/R040051
##MEASURED CHEMISTRY=(Zn_0.94_Ca_0.02_Mg_0.02_)C_1.01_O_3_
##PIN_ID=M00015
##ORIENTATION=Laser parallel to c* (0 0 1). Fiducial mark perpendicular to laser is parallel to a [1 0 0]
100.340, 0.000
101.732, 10.565
103.124, 34.457
104.516, 44.853
105.908, 99.794
107.300, 130.024
108.691, 198.253
110.082, 218.545
111.473, 204.104
112.864, 258.694
114.254, 249.837
115.644, 253.549
117.034, 273.814
118.424, 258.073
119.813, 218.058
121.203, 229.186
122.592, 159.258
123.981, 139.507
125.369, 50.600
126.758, 88.338
128.146, 114.575
129.534, 186.579
130.922, 69.666
132.309, 123.819
133.696, 21.945
135.083, 67.540
136.470, 65.134
137.857, 31.845
139.243, 40.802
140.630, 28.735
142.016, 27.623
143.401, 10.446
144.787, 4.776
146.172, 4.957
147.557, 9.351
148.942, 4.305
150.327, 44.924
151.711, 37.493
153.096, 21.056
154.480, 8.567
155.863, 43.042
157.247, 41.478
158.630, 38.879
160.013, 59.493
161.396, 63.807
162.779, 91.157
164.161, 81.651
165.544, 117.681
166.926, 155.151
168.308, 158.618
169.689, 154.729
171.070, 284.873
172.452, 293.376
173.833, 333.942
175.213, 427.178
176.594, 431.550
177.974, 540.422
179.354, 661.146
180.734, 787.474
182.114, 950.919
183.493, 1194.882
184.872, 1399.837
186.251, 1831.810
187.630, 2305.047
189.008, 2870.135
190.387, 3708.229
191.765, 4478.326
193.143, 5465.417
194.520, 5698.509
195.898, 5789.600
197.275, 5055.679
198.652, 3920.744
200.029, 2913.777
201.405, 2075.778
202.782, 1417.758
204.158, 1130.717
205.534, 889.643
206.909, 589.533
208.285, 452.392
209.660, 391.194
211.035, 293.973
212.410, 262.732
213.784, 161.474
215.159, 156.202
216.533, 103.026
217.907, 78.352
219.281, 70.426
220.654, 43.228
222.027, 41.333
223.400, 32.196
224.773, 44.050
226.146, 21.818
227.518, 39.839
228.891, 35.975
230.263, 61.628
231.634, 34.499
233.006, 27.984
234.377, 8.238
235.748, 18.588
237.119, 27.341
238.490, 65.276
239.860, 49.084
241.231, 39.486
242.601, 18.289
243.970, 56.373
245.340, 24.552
246.709, 16.661
248.079, 78.958
249.448, 4.563
250.816, 41.627
252.185, 34.981
253.553, 14.801
254.921, 70.983
256.289, 73.250
257.657, 23.589
259.024, 62.427
260.391, 84.960
261.758, 50.903
263.125, 90.521
264.492, 118.357
265.858, 99.066
267.224, 135.725
268.590, 142.476
269.956, 195.966
271.321, 154.424
272.687, 123.952
274.052, 89.805
275.416, 175.682
276.781, 168.837
278.146, 140.159
279.510, 151.647
280.874, 157.900
282.237, 293.912
283.601, 208.848
284.964, 240.026
286.327, 404.120
287.690, 408.435
289.053, 459.218
290.416, 593.570
291.778, 658.062
293.140, 818.620
294.502, 966.170
295.863, 1250.918
297.225, 1514.353
298.586, 1734.779
299.947, 2035.207
301.308, 2229.639
302.668, 2359.890
304.029, 2418.412
305.389, 2488.316
306.749, 2260.475
308.108, 2089.399
309.468, 1734.772
310.827, 1537.706
312.186, 1163.767
313.545, 1006.751
314.903, 848.883
316.262, 603.197
317.620, 609.176
318.978, 434.986
320.336, 422.074
321.693, 322.043
323.051, 283.185
324.408, 200.197
325.765, 256.416
327.121, 171.599
328.478, 187.890
329.834, 104.038
331.190, 196.377
332.546, 28.584
333.902, 117.736
335.257, 54.838
336.612, 148.871
337.967, 162.820
339.322, 98.777
340.677, 105.678
342.031, 47.524
343.385, 137.611
344.739, 93.279
346.093, 78.430
347.446, 141.295
348.799, 89.916
350.153, 142.622
351.505, 59.210
352.858, 105.836
354.210, 67.393
355.563, 35.933
356.915, 61.459
358.267, 21.969
359.618, 19.539
360.969, 5.947
362.321, 42.427
363.672, 19.894
365.022, 62.358
366.373, 28.806
367.723, 0.771
369.073, 9.680
370.423, 52.110
371.773, 16.308
373.122, 32.346
374.471, 95.771
375.821, 5.760
377.169, 101.692
378.518, 8.271
379.866, 44.834
381.215, 78.219
382.563, 7.620
383.910, 73.232
385.258, 86.428
386.605, 122.626
387.952, 150.284
389.299, 148.302
390.646, 169.996
391.992, 133.103
393.339, 92.299
394.685, 58.595
396.031, 96.964
397.376, 47.807
398.722, 55.349
400.067, 85.293
401.412, 53.394
402.757, 137.387
404.101, 4.642
405.446, 2.236
406.790, 54.190
408.134, 28.180
409.478, 14.886
410.821, 90.879
412.165, 21.581
413.508, 31.240
414.851, 22.981
416.193, 48.438
417.536, 11.609
418.878, 11.374
420.220, 21.917
421.562, 32.952
422.904, 32.363
424.245, 47.937
425.586, 13.344
426.927, 19.396
428.268, 7.915
429.609, 23.766
430.949, 63.419
432.289, 67.049
433.629, 54.344
434.969, 6.204
436.309, 13.374
437.648, 100.109
438.987, 49.570
440.326, 19.006
441.665, 44.417
443.003, 72.805
444.342, 84.171
445.680, 29.515
447.018, 35.834
448.355, 9.130
449.693, 76.400
451.030, 3.648
452.367, 116.868
453.704, 96.069
455.041, 94.249
456.377, 44.409
457.713, 116.545
459.049, 98.663
460.385, 111.768
461.721, 107.854
463.056, 120.919
464.391, 119.965
465.726, 133.991
467.061, 126.999
468.395, 163.987
469.730, 130.957
471.064, 113.911
472.398, 134.846
473.731, 93.767
475.065, 127.669
476.398, 126.551
477.731, 130.425
479.064, 139.281
480.397, 121.119
481.729, 164.937
483.062, 96.735
484.394, 168.514
485.725, 92.273
487.057, 96.011
488.389, 65.728
489.720, 95.423
491.051, 45.021
492.382, 67.671
493.712, 75.877
495.043, 83.462
496.373, 91.461
497.703, 106.328
499.032, 99.874
500.362, 102.293
501.691, 110.719
503.020, 48.882
504.349, 175.345
505.678, 33.656
507.007, 89.880
508.335, 163.282
509.663, 120.513
510.991, 177.977
512.319, 132.125
513.646, 157.486
514.973, 157.818
516.300, 240.369
517.627, 168.571
518.954, 196.553
520.280, 205.859
521.607, 167.751
522.933, 235.464
524.259, 148.939
525.584, 149.123
526.910, 196.897
528.235, 150.121
529.560, 164.125
530.885, 128.162
532.209, 111.198
533.534, 201.912
534.858, 159.134
536.182, 224.804
537.506, 145.684
538.829, 149.593
540.152, 226.279
541.476, 175.618
542.799, 93.006
544.121, 209.709
545.444, 171.586
546.766, 190.891
548.088, 218.917
549.410, 186.699
550.732, 183.825
552.053, 263.021
553.375, 128.562
554.696, 117.727
556.017, 230.239
557.337, 191.892
558.658, 236.197
559.978, 193.808
561.298, 202.151
562.618, 118.730
563.938, 146.504
565.257, 238.222
566.576, 147.398
567.895, 253.399
569.214, 250.255
570.533, 219.519
571.851, 203.633
573.170, 246.604
574.488, 250.485
575.805, 269.923
577.123, 145.645
578.440, 264.339
579.758, 285.123
581.075, 186.977
582.391, 297.805
583.708, 303.702
585.024, 256.157
586.341, 352.812
587.657, 377.556
588.972, 370.206
590.288, 342.064
591.603, 349.948
592.918, 281.646
594.233, 338.988
595.548, 329.242
596.863, 351.154
598.177, 414.835
599.491, 391.283
600.805, 306.068
602.119, 321.789
603.432, 339.538
604.746, 323.995
606.059, 373.486
607.372, 263.678
608.685, 337.320
609.997, 287.348
611.309, 358.122
612.621, 286.790
613.933, 394.433
615.245, 391.850
616.557, 513.588
617.868, 551.195
619.179, 663.992
620.490, 693.602
621.801, 823.249
623.111, 968.875
624.421, 994.541
625.731, 867.161
627.041, 967.831
628.351, 717.433
629.660, 588.946
630.970, 650.530
632.279, 499.007
633.588, 504.526
634.896, 395.024
636.205, 533.521
637.513, 470.039
638.821, 511.464
640.129, 601.968
641.437, 553.257
642.744, 650.729
644.051, 713.968
645.358, 804.205
646.665, 728.299
647.972, 703.502
649.278, 630.479
650.584, 624.534
651.890, 694.610
653.196, 659.702
654.502, 568.814
655.807, 536.130
657.113, 416.088
658.418, 377.200
659.722, 268.333
661.027, 224.194
662.331, 175.441
663.636, 201.175
664.940, 154.879
666.244, 193.372
667.547, 118.462
668.851, 121.639
670.154, 111.750
671.457, 74.898
672.760, 28.033
674.062, 89.148
675.365, 83.250
676.667, 36.662
677.969, 24.615
679.271, 18.403
680.572, 0.599
681.874, 61.363
683.175, 113.312
684.476, 67.745
685.777, 44.884
687.077, 57.052
688.378, 34.424
689.678, 22.913
690.978, 27.215
692.278, 163.604
693.577, 118.944
694.877, 16.662
696.176, 94.708
697.475, 65.801
698.774, 77.587
700.072, 98.620
701.371, 64.031
702.669, 17.629
703.967, 62.734
705.265, 184.085
706.562, 27.424
707.860, 34.262
709.157, 120.023
710.454, 135.957
711.751, 150.891
713.047, 21.064
714.344, 165.202
715.640, 56.354
716.936, 81.483
718.232, 293.616
719.527, 317.414
720.823, 359.324
722.118, 388.436
723.413, 596.339
724.708, 958.436
726.002, 1414.527
727.297, 1811.609
728.591, 2851.694
729.885, 3200.771
731.179, 2465.844
732.472, 1694.923
733.766, 967.830
735.059, 698.904
736.352, 576.973
737.645, 353.036
738.937, 400.093
740.230, 259.146
741.522, 233.197
742.814, 143.245
744.106, 230.292
745.397, 166.335
746.689, 144.373
747.980, 84.405
749.271, 105.450
750.562, 166.492
751.853, 871.537
753.143, 765.576
754.433, 592.610
755.723, 22.642
757.013, 135.668
758.303, 74.689
759.592, 104.707
760.881, 105.722
762.170, 148.733
763.459, 163.742
764.748, 133.805
766.036, 138.754
767.325, 53.755
768.613, 127.753
769.901, 77.747
771.188, 36.739
772.476, 91.727
773.763, 6.712
775.050, 60.692
776.337, 81.669
777.624, 106.643
778.910, 63.613
780.196, 77.581
781.482, 49.546
782.768, 81.508
784.054, 35.467
785.339, 104.424
786.625, 10.378
787.910, 183.330
789.195, 104.279
790.479, 59.227
791.764, 165.171
793.048, 156.115
794.332, 92.057
795.616, 153.996
796.900, 140.935
798.183, 108.872
799.467, 163.809
800.750, 117.745
802.033, 37.681
803.316, 114.616
804.598, 23.553
805.880, 226.489
807.163, 232.426
808.445, 162.363
809.726, 122.300
811.008, 171.238
812.289, 76.176
813.570, 142.424
814.851, 233.362
816.132, 62.303
817.413, 118.243
818.693, 160.185
819.973, 168.249
821.253, 141.192
822.533, 259.035
823.813, 267.896
825.092, 167.778
826.371, 289.518
827.650, 231.820
828.929, 276.579
830.208, 334.432
831.486, 295.256
832.764, 348.208
834.042, 285.283
835.320, 230.418
836.598, 367.070
837.875, 323.944
839.152, 305.918
840.429, 450.344
841.706, 449.028
842.983, 420.156
844.259, 428.037
845.536, 385.670
846.812, 423.776
848.088, 425.767
849.363, 439.481
850.639, 503.085
851.914, 485.469
853.189, 525.338
854.464, 560.639
855.739, 622.231
857.013, 743.755
858.288, 770.654
859.562, 924.785
860.836, 986.563
862.110, 714.259
863.383, 791.426
864.656, 710.814
865.930, 612.999
867.203, 503.827
868.475, 510.032
869.748, 348.046
871.020, 370.178
872.292, 424.406
873.564, 359.644
874.836, 337.891
876.108, 387.146
877.379, 395.409
878.650, 367.682
879.922, 362.981
881.192, 326.290
882.463, 320.607
883.733, 328.948
885.004, 253.299
886.274, 311.657
887.544, 396.034
888.813, 306.420
890.083, 298.813
891.352, 395.216
892.621, 361.628
893.890, 315.052
895.159, 375.484
896.427, 401.950
897.695, 476.429
898.964, 416.938
900.232, 399.453
901.499, 400.979
902.767, 406.514
904.034, 280.057
905.301, 415.610
906.568, 322.172
907.835, 398.742
909.102, 250.159
910.368, 265.748
911.634, 349.352
912.900, 193.970
914.166, 340.598
915.432, 196.243
916.697, 126.904
917.962, 293.574
919.227, 103.254
920.492, 166.941
921.757, 152.643
923.021, 158.353
924.285, 191.035
925.550, 88.765
926.813, 181.354
928.077, 138.105
929.341, 119.868
930.604, 181.641
931.867, 120.423
933.130, 182.216
934.393, 253.018
935.655, 63.829
936.918, 223.651
938.180, 59.482
939.442, 69.242
940.703, 98.093
941.965, 111.954
943.226, 60.825
944.488, 104.706
945.749, 210.598
947.009, 107.498
948.270, 165.409
949.530, 201.329
950.791, 108.260
952.051, 226.199
953.311, 87.150
954.570, 141.111
955.830, 153.082
957.089, 219.062
958.348, 100.052
959.607, 122.051
960.866, 76.062
962.124, 20.081
963.383, 129.110
964.641, 24.850
965.899, 136.197
967.156, 163.253
968.414, 60.318
969.671, 85.395
970.928, 12.520
972.185, 62.574
973.442, 46.679
974.699, 28.792
975.955, 7.084
977.211, 7.950
978.468, 26.194
979.723, 1.649
980.979, 13.482
982.234, 112.693
983.490, 90.103
984.745, 62.104
986.000, 216.326
987.254, 62.565
988.509, 202.815
989.763, 78.075
991.017, 63.371
992.271, 81.842
993.525, 124.214
994.779, 156.584
996.032, 157.991
997.285, 434.943
998.538, 360.180
999.791, 836.368
1001.044, 1000.888
1002.296, 988.522
1003.548, 646.885
1004.800, 467.550
1006.052, 324.269
1007.304, 258.921
1008.555, 225.909
1009.807, 172.526
1011.058, 144.409
1012.309, 176.841
1013.559, 174.210
1014.810, 184.000
1016.060, 246.184
1017.310, 357.213
1018.560, 369.288
1019.810, 526.053
1021.060, 582.796
1022.309, 562.546
1023.558, 530.303
1024.807, 523.066
1026.056, 587.939
1027.305, 494.716
1028.553, 537.499
1029.801, 499.859
1031.049, 503.655
1032.297, 492.203
1033.545, 536.209
1034.793, 457.021
1036.040, 467.839
1037.287, 450.878
1038.534, 493.706
1039.781, 527.539
1041.027, 502.521
1042.274, 538.365
1043.520, 653.044
1044.766, 608.056
1046.012, 613.186
1047.257, 697.420
1048.503, 816.690
1049.748, 664.617
1050.993, 876.639
1052.238, 797.579
1053.483, 842.614
1054.727, 839.562
1055.971, 832.624
1057.216, 885.469
1058.459, 889.479
1059.703, 923.466
1060.947, 1033.604
1062.190, 1049.593
1063.433, 1172.773
1064.676, 1279.748
1065.919, 1280.713
1067.162, 1588.736
1068.404, 1632.782
1069.646, 1767.898
1070.888, 2140.394
1072.130, 2191.478
1073.372, 2533.535
1074.613, 2906.597
1075.855, 3343.285
1077.096, 3769.436
1078.337, 4703.502
1079.578, 5584.719
1080.818, 6682.789
1082.059, 7964.859
1083.299, 9731.932
1084.539, 12058.004
1085.779, 15099.077
1087.018, 19199.148
1088.258, 24836.225
1089.497, 32044.305
1090.736, 38954.387
1091.975, 43334.453
1093.213, 42260.539
1094.452, 36915.617
1095.690, 28805.697
1096.928, 21696.775
1098.166, 16000.856
1099.404, 12039.936
1100.642, 8985.018
1101.879, 7191.097
1103.116, 5361.178
1104.353, 4381.256
1105.590, 3608.336
1106.827, 3036.416
1108.063, 2409.494
1109.299, 2161.572
1110.536, 1888.649
1111.771, 1476.726
1113.007, 1385.801
1114.243, 1232.565
1115.478, 1023.639
1116.713, 945.711
1117.948, 826.783
1119.183, 642.854
1120.418, 686.801
1121.652, 713.869
1122.886, 627.935
1124.120, 526.999
1125.354, 358.001
1126.588, 390.994
1127.821, 310.054
1129.055, 437.092
1130.288, 208.012
1131.521, 256.066
1132.753, 177.759
1133.986, 159.808
1135.218, 133.823
1136.450, 22.898
1137.682, 57.940
1138.914, 31.979
1140.146, 2.015
1141.377, 20.045
1142.609, 13.929
1143.840, 76.086
1145.071, 21.903
1146.301, 56.912
1147.532, 6.958
1148.762, 58.985
1149.992, 6.924
1151.222, 24.146
1152.452, 11.765
1153.682, 108.331
1154.911, 21.508
1156.140, 47.661
1157.369, 76.135
1158.598, 13.076
1159.827, 21.304
1161.055, 3.554
1162.284, 12.183
1163.512, 23.912
1164.740, 2.366
1165.967, 4.343
1167.195, 39.281
1168.422, 155.730
1169.650, 134.416
1170.877, 61.094
1172.103, 121.764
1173.330, 26.428
1174.557, 134.084
1175.783, 116.732
1177.009, 60.625
1178.235, 152.970
1179.461, 27.558
1180.686, 47.862
1181.912, 160.677
1183.137, 146.208
1184.362, 21.268
1185.587, 81.229
1186.811, 193.718
1188.036, 27.331
1189.260, 151.827
1190.484, 3.877
1191.708, 33.963
1192.932, 66.358
1194.155, 0.026
1195.378, 48.051
1196.602, 123.269
1197.825, 56.583
1199.047, 224.142
1200.270, 58.438
1201.492, 210.881
1202.715, 93.187
1203.937, 95.749
1205.159, 81.530
1206.380, 108.777
1207.602, 8.340
1208.823, 11.683
1210.044, 46.883
1211.265, 3.162
1212.486, 15.540
1213.707, 111.688
1214.927, 125.228
1216.147, 84.660
1217.367, 34.418
1218.587, 95.603
1219.807, 121.771
1221.027, 136.921
1222.246, 29.013
1223.465, 84.086
1224.684, 151.149
1225.903, 70.205
1227.121, 126.250
1228.340, 160.286
1229.558, 206.312
1230.776, 201.329
1231.994, 238.337
1233.212, 203.337
1234.429, 213.327
1235.646, 285.307
1236.864, 349.274
1238.081, 221.233
1239.297, 322.184
1240.514, 323.125
1241.730, 283.059
1242.947, 308.983
1244.163, 235.899
1245.378, 347.808
1246.594, 262.705
1247.810, 266.596
1249.025, 402.477
1250.240, 317.349
1251.455, 273.213
1252.670, 361.066
1253.885, 329.912
1255.099, 334.747
1256.313, 323.673
1257.527, 279.391
1258.741, 285.197
1259.955, 226.996
1261.168, 272.786
1262.382, 277.566
1263.595, 244.338
1264.808, 412.100
1266.021, 331.852
1267.233, 341.594
1268.446, 449.328
1269.658, 315.053
1270.870, 511.769
1272.082, 485.477
1273.294, 450.176
1274.505, 517.865
1275.716, 471.547
1276.928, 395.222
1278.139, 498.887
1279.349, 343.553
1280.560, 427.212
1281.770, 306.861
1282.981, 234.503
1284.191, 330.137
1285.401, 352.761
1286.610, 246.208
1287.820, 294.770
1289.029, 229.296
1290.239, 358.801
1291.448, 297.768
1292.656, 412.498
1293.865, 406.236
1295.073, 398.653
1296.282, 449.475
1297.490, 377.521
1298.698, 465.752
1299.906, 303.922
1301.113, 269.156
1302.320, 252.064
1303.528, 254.343
1304.735, 247.356
1305.942, 320.819
1307.148, 407.360
1308.355, 427.646
1309.561, 400.629
1310.767, 468.154
1311.973, 471.024
1313.179, 384.201
1314.384, 577.399
1315.590, 396.588
1316.795, 474.767
1318.000, 462.938
1319.205, 445.996
1320.410, 573.147
1321.614, 419.289
1322.819, 504.852
1324.023, 292.976
1325.227, 440.973
1326.431, 296.247
1327.634, 190.342
1328.838, 156.429
1330.041, 110.288
1331.244, 189.355
1332.447, 68.412
1333.650, 94.315
1334.852, 36.648
1336.055, 14.549
1337.257, 43.412
1338.459, 108.846
1339.661, 10.791
1340.862, 92.390
1342.064, 88.334
1343.265, 4.816
1344.466, 88.115
1345.667, 50.951
1346.868, 81.877
1348.068, 26.799
1349.269, 73.282
1350.469, 92.585
1351.669, 23.479
1352.869, 58.223
1354.069, 122.120
1355.268, 46.171
1356.468, 6.749
1357.667, 83.805
1358.866, 57.312
1360.065, 21.886
1361.263, 2.690
1362.462, 65.127
1363.660, 67.075
1364.858, 69.302
1366.056, 81.209
1367.254, 118.518
1368.451, 116.366
1369.649, 138.003
1370.846, 107.108
1372.043, 145.072
1373.240, 204.024
1374.436, 167.806
1375.633, 117.561
1376.829, 238.897
1378.025, 127.554
1379.221, 235.957
1380.417, 178.119
1381.613, 149.272
1382.808, 230.411
1384.003, 389.536
1385.199, 325.646
1386.393, 256.739
1387.588, 329.818
1388.783, 247.883
1389.977, 280.932
1391.171, 256.965
1392.365, 321.983
1393.559, 445.985
1394.753, 222.973
1395.946, 238.945
1397.140, 130.901
1398.333, 415.842
1399.526, 395.766
1400.719, 485.675
1401.911, 494.566
1403.104, 788.443
1404.296, 860.302
1405.488, 1146.146
1406.680, 1429.980
1407.872, 1478.816
1409.063, 1545.690
1410.255, 1287.559
1411.446, 1097.437
1412.637, 780.384
1413.828, 662.362
1415.018, 544.360
1416.209, 521.375
1417.399, 371.388
1418.589, 419.406
1419.779, 384.419
1420.969, 387.428
1422.159, 409.432
1423.348, 378.461
1424.537, 301.517
1425.726, 403.617
1426.915, 276.732
1428.104, 380.664
1429.293, 315.302
1430.481, 359.022
1431.669, 389.236
1432.857, 616.823
1434.045, 504.835
1435.233, 602.538
1436.420, 733.952
1437.608, 669.289
1438.795, 921.971
1439.982, 1032.485
1441.169, 1292.631
1442.355, 1317.673
1443.542, 1361.089
1444.728, 1330.621
1445.914, 1414.254
1447.100, 1341.875
1448.286, 1457.482
1449.472, 1469.079
1450.657, 1601.657
1451.842, 1586.236
1453.027, 1688.801
1454.212, 1948.345
1455.397, 1716.866
1456.581, 1753.367
1457.766, 1804.846
1458.950, 1538.303
1460.134, 1769.738
1461.318, 1554.150
1462.501, 1504.542
1463.685, 1578.911
1464.868, 1333.259
1466.051, 1470.582
1467.234, 1022.881
1468.417, 1140.146
1469.600, 945.375
1470.782, 949.564
1471.965, 877.710
1473.147, 905.809
1474.329, 804.856
1475.510, 707.849
1476.692, 680.942
1477.873, 805.365
1479.055, 733.813
1480.236, 914.516
1481.416, 624.326
1482.597, 725.512
1483.778, 746.761
1484.958, 671.043
1486.138, 656.361
1487.318, 599.721
1488.498, 557.130
1489.678, 473.594
1490.857, 254.122
1492.037, 384.726
1493.216, 223.417
1494.395, 227.211
1495.574, 219.125
1496.752, 164.180
1497.931, 279.405
1499.109, 24.837
1500.287, 120.495
1501.465, 0.626
1502.643, 106.467
1503.820, 155.763
1504.998, 44.289
1506.175, 9.079
1507.352, 88.173
1508.529, 22.385
1509.706, 138.455
1510.882, 108.215
1512.059, 235.176
1513.235, 176.649
1514.411, 102.750
1515.587, 139.755
1516.762, 104.810
1517.938, 0.150
1519.113, 129.218
1520.288, 54.936
1521.463, 0.000
##END=



