##NAMES=Smithsonite
##RRUFFID=R040051
##IDEAL CHEMISTRY=Zn^2+^CO_3_
##LOCALITY=Berg Aukas mine, Grootfontein, Namibia
##OWNER=RRUFF
##SOURCE=University of Arizona Mineral Museum
##DESCRIPTION=Yellowish brown botryoidal groups
##STATUS=The identification of this mineral has been confirmed by X-ray diffraction and chemical analysis
##URL=rruff.info/R040051
##MEASURED CHEMISTRY=(Zn_0.94_Ca_0.02_Mg_0.02_)C_1.01_O_3_
##PIN_ID=M00015
##ORIENTATION=Laser parallel to c* (0 0 1). Fiducial mark perpendicular to laser is parallel to a [1 0 0]
97.554, 0.000
98.947, 10.002
100.340, 15.732
101.732, 73.164
103.124, 4.426
104.516, 81.182
105.908, 106.485
107.300, 79.139
108.691, 191.896
110.082, 100.573
111.473, 102.031
112.864, 162.157
114.254, 190.865
115.644, 218.083
117.034, 232.751
118.424, 133.821
119.813, 214.254
121.203, 152.012
122.592, 169.065
123.981, 137.386
125.369, 102.952
126.758, 90.742
128.146, 35.739
129.534, 119.927
130.922, 49.291
132.309, 154.819
133.696, 20.499
135.083, 117.320
136.470, 69.275
137.857, 127.359
139.243, 29.569
140.630, 115.896
142.016, 25.327
143.401, 99.854
144.787, 73.470
146.172, 91.171
147.557, 92.953
148.942, 49.812
150.327, 71.745
151.711, 69.747
153.096, 120.817
154.480, 82.953
155.863, 53.149
157.247, 99.404
158.630, 128.715
160.013, 174.080
161.396, 180.495
162.779, 244.958
164.161, 194.466
165.544, 203.016
166.926, 222.607
168.308, 291.236
169.689, 296.901
171.070, 388.601
172.452, 421.334
173.833, 460.119
175.213, 555.970
176.594, 592.345
177.974, 617.860
179.354, 721.893
180.734, 750.997
182.114, 837.079
183.493, 1161.146
184.872, 1403.203
186.251, 1732.255
187.630, 2053.309
189.008, 2644.395
190.387, 3355.493
191.765, 3945.615
193.143, 4754.742
194.520, 5195.914
195.898, 5165.106
197.275, 4526.333
198.652, 3628.583
200.029, 2737.839
201.405, 2118.107
202.782, 1461.398
204.158, 1128.695
205.534, 893.051
206.909, 677.431
208.285, 474.826
209.660, 431.235
211.035, 340.650
212.410, 317.072
213.784, 193.502
215.159, 182.940
216.533, 132.414
217.907, 121.909
219.281, 75.410
220.654, 78.914
222.027, 93.421
223.400, 4.932
224.773, 83.446
226.146, 63.962
227.518, 105.481
228.891, 116.000
230.263, 134.526
231.634, 76.053
233.006, 44.583
234.377, 78.114
235.748, 131.647
237.119, 49.182
238.490, 195.716
239.860, 59.251
241.231, 124.785
242.601, 79.332
243.970, 164.894
245.340, 186.459
246.709, 75.024
248.079, 154.575
249.448, 135.129
250.816, 149.710
252.185, 148.244
253.553, 186.273
254.921, 274.663
256.289, 212.410
257.657, 227.990
259.024, 224.945
260.391, 324.528
261.758, 234.642
263.125, 357.119
264.492, 304.674
265.858, 414.275
267.224, 442.036
268.590, 411.631
269.956, 540.460
271.321, 587.347
272.687, 556.286
274.052, 579.314
275.416, 715.477
276.781, 737.584
278.146, 741.101
279.510, 953.099
280.874, 1121.471
282.237, 1222.646
283.601, 1446.023
284.964, 1566.415
286.327, 1924.657
287.690, 2245.924
289.053, 2654.836
290.416, 3165.269
291.778, 3769.579
293.140, 4665.034
294.502, 5614.498
295.863, 6787.393
297.225, 8089.266
298.586, 9428.636
299.947, 10817.141
301.308, 12031.650
302.668, 12902.064
304.029, 13018.788
305.389, 13113.367
306.749, 12123.918
308.108, 10831.447
309.468, 9265.881
310.827, 7778.237
312.186, 6347.043
313.545, 5287.837
314.903, 4208.312
316.262, 3414.768
317.620, 2895.923
318.978, 2339.494
320.336, 1896.959
321.693, 1649.480
323.051, 1390.161
324.408, 1099.665
325.765, 1117.533
327.121, 854.178
328.478, 780.652
329.834, 693.653
331.190, 600.128
332.546, 516.347
333.902, 595.836
335.257, 466.569
336.612, 463.637
337.967, 395.267
339.322, 359.825
340.677, 359.395
342.031, 273.946
343.385, 309.525
344.739, 236.107
346.093, 252.723
347.446, 239.317
348.799, 198.953
350.153, 172.579
351.505, 172.059
352.858, 214.578
354.210, 220.075
355.563, 164.689
356.915, 109.185
358.267, 191.682
359.618, 90.598
360.969, 166.094
362.321, 111.586
363.672, 114.219
365.022, 94.772
366.373, 119.402
367.723, 121.878
369.073, 86.356
370.423, 102.883
371.773, 66.485
373.122, 105.083
374.471, 106.546
375.821, 35.004
377.169, 128.457
378.518, 14.905
379.866, 52.395
381.215, 45.832
382.563, 90.269
383.910, 46.624
385.258, 37.673
386.605, 125.280
387.952, 63.128
389.299, 55.796
390.646, 72.292
391.992, 17.826
393.339, 80.265
394.685, 17.185
396.031, 91.218
397.376, 50.580
398.722, 25.933
400.067, 60.280
401.412, 31.263
402.757, 59.109
404.101, 79.689
405.446, 22.726
406.790, 51.568
408.134, 28.013
409.478, 57.257
410.821, 0.515
412.165, 0.095
413.508, 5.255
414.851, 40.655
416.193, 19.972
417.536, 20.398
418.878, 30.196
420.220, 104.006
421.562, 36.851
422.904, 3.460
424.245, 71.554
425.586, 35.655
426.927, 76.741
428.268, 17.823
429.609, 78.900
430.949, 80.973
432.289, 65.041
433.629, 37.148
434.969, 27.203
436.309, 7.161
437.648, 28.292
438.987, 15.630
440.326, 6.617
441.665, 5.381
443.003, 82.370
444.342, 10.648
445.680, 9.315
447.018, 97.271
448.355, 45.237
449.693, 32.825
451.030, 15.083
452.367, 70.994
453.704, 24.104
455.041, 20.862
456.377, 14.273
457.713, 2.569
459.049, 67.397
460.385, 24.215
461.721, 26.025
463.056, 51.823
464.391, 0.616
465.726, 0.607
467.061, 27.152
468.395, 33.901
469.730, 83.640
471.064, 49.631
472.398, 10.060
473.731, 8.261
475.065, 56.431
476.398, 119.081
477.731, 13.279
479.064, 37.335
480.397, 65.938
481.729, 51.549
483.062, 21.148
484.394, 57.744
485.725, 12.328
487.057, 26.902
488.389, 80.464
489.720, 9.016
491.051, 76.551
492.382, 27.925
493.712, 66.587
495.043, 3.911
496.373, 8.568
497.703, 34.047
499.032, 51.515
500.362, 48.976
501.691, 53.425
503.020, 46.884
504.349, 46.323
505.678, 38.339
507.007, 43.662
508.335, 40.732
509.663, 47.593
510.991, 87.957
512.319, 76.408
513.646, 115.869
514.973, 61.195
516.300, 96.562
517.627, 92.103
518.954, 28.095
520.280, 101.932
521.607, 99.293
522.933, 58.599
524.259, 76.900
525.584, 58.146
526.910, 127.368
528.235, 96.958
529.560, 83.254
530.885, 66.504
532.209, 66.648
533.534, 114.909
534.858, 102.207
536.182, 121.409
537.506, 104.619
538.829, 89.071
540.152, 105.162
541.476, 102.365
542.799, 15.394
544.121, 25.557
545.444, 9.184
546.766, 34.687
548.088, 47.699
549.410, 80.628
550.732, 69.938
552.053, 91.481
553.375, 63.366
554.696, 95.447
556.017, 126.302
557.337, 139.143
558.658, 129.391
559.978, 76.782
561.298, 91.688
562.618, 47.471
563.938, 46.238
565.257, 127.570
566.576, 71.306
567.895, 104.236
569.214, 121.944
570.533, 68.532
571.851, 74.079
573.170, 60.180
574.488, 63.310
575.805, 57.539
577.123, 49.127
578.440, 89.646
579.758, 161.234
581.075, 51.272
582.391, 170.716
583.708, 96.262
585.024, 131.795
586.341, 139.314
587.657, 136.750
588.972, 140.243
590.288, 140.722
591.603, 88.187
592.918, 133.635
594.233, 140.025
595.548, 141.309
596.863, 88.669
598.177, 116.640
599.491, 109.263
600.805, 141.533
602.119, 108.027
603.432, 101.377
604.746, 107.686
606.059, 92.003
607.372, 118.299
608.685, 172.955
609.997, 111.275
611.309, 115.540
612.621, 73.766
613.933, 156.877
615.245, 173.556
616.557, 194.258
617.868, 192.456
619.179, 205.719
620.490, 158.852
621.801, 340.746
623.111, 286.294
624.421, 273.641
625.731, 189.674
627.041, 411.824
628.351, 246.080
629.660, 140.726
630.970, 241.591
632.279, 81.958
633.588, 102.069
634.896, 100.254
636.205, 151.649
637.513, 153.548
638.821, 142.837
640.129, 254.766
641.437, 169.498
642.744, 199.422
644.051, 262.007
645.358, 214.767
646.665, 232.801
647.972, 230.181
649.278, 169.075
650.584, 154.783
651.890, 257.640
653.196, 290.238
654.502, 193.630
655.807, 114.335
657.113, 179.585
658.418, 176.293
659.722, 92.005
661.027, 79.675
662.331, 32.327
663.636, 63.928
664.940, 35.464
666.244, 16.512
667.547, 94.684
668.851, 10.666
670.154, 27.078
671.457, 7.503
672.760, 79.950
674.062, 2.500
675.365, 14.025
676.667, 18.115
677.969, 66.606
679.271, 76.091
680.572, 73.541
681.874, 82.792
683.175, 85.085
684.476, 1.485
685.777, 59.921
687.077, 3.261
688.378, 88.505
689.678, 56.736
690.978, 44.084
692.278, 63.115
693.577, 57.746
694.877, 21.058
696.176, 78.310
697.475, 0.597
698.774, 112.862
700.072, 47.192
701.371, 70.812
702.669, 52.855
703.967, 65.641
705.265, 161.588
706.562, 123.691
707.860, 70.739
709.157, 193.866
710.454, 51.863
711.751, 181.990
713.047, 112.143
714.344, 207.286
715.640, 152.419
716.936, 226.425
718.232, 375.499
719.527, 343.349
720.823, 449.177
722.118, 507.278
723.413, 739.238
724.708, 1095.330
726.002, 1726.413
727.297, 2337.347
728.591, 3314.296
729.885, 3989.177
731.179, 3343.062
732.472, 2355.927
733.766, 1553.736
735.059, 1042.732
736.352, 838.765
737.645, 505.604
738.937, 471.632
740.230, 318.644
741.522, 301.656
742.814, 260.660
744.106, 300.657
745.397, 233.647
746.689, 210.628
747.980, 129.557
749.271, 116.196
750.562, 88.458
751.853, 73.439
753.143, 63.340
754.433, 32.287
755.723, 30.229
757.013, 25.857
758.303, 14.093
759.592, 22.018
760.881, 80.936
762.170, 63.826
763.459, 83.730
764.748, 43.359
766.036, 187.517
767.325, 28.387
768.613, 91.168
769.901, 59.035
771.188, 51.903
772.476, 93.768
773.763, 3.626
775.050, 31.477
776.337, 6.678
777.624, 26.154
778.910, 50.983
780.196, 38.811
781.482, 13.641
782.768, 8.457
784.054, 19.733
785.339, 8.074
786.625, 7.052
787.910, 23.642
789.195, 7.434
790.479, 26.220
791.764, 68.008
793.048, 66.208
794.332, 45.534
795.616, 29.729
796.900, 131.988
798.183, 15.300
799.467, 72.399
800.750, 11.096
802.033, 46.788
803.316, 111.477
804.598, 88.837
805.880, 91.809
807.163, 106.451
808.445, 66.906
809.726, 26.701
811.008, 25.694
812.289, 32.893
813.570, 73.477
814.851, 65.036
816.132, 107.192
817.413, 123.929
818.693, 134.365
819.973, 22.251
821.253, 3.331
822.533, 49.893
823.813, 151.352
825.092, 18.787
826.371, 69.594
827.650, 69.092
828.929, 30.402
830.208, 145.304
831.486, 46.287
832.764, 87.732
834.042, 177.216
835.320, 189.692
836.598, 147.207
837.875, 144.732
839.152, 136.874
840.429, 127.296
841.706, 185.749
842.983, 124.293
844.259, 182.707
845.536, 91.069
846.812, 135.513
848.088, 67.935
849.363, 187.100
850.639, 216.613
851.914, 236.009
853.189, 265.087
854.464, 266.977
855.739, 270.493
857.013, 221.945
858.288, 251.457
859.562, 283.041
860.836, 285.627
862.110, 204.173
863.383, 371.761
864.656, 187.236
865.930, 299.826
867.203, 253.424
868.475, 182.050
869.748, 143.676
871.020, 158.305
872.292, 111.936
873.564, 124.577
874.836, 142.228
876.108, 37.880
877.379, 231.536
878.650, 128.191
879.922, 126.857
881.192, 182.526
882.463, 117.196
883.733, 115.869
885.004, 141.544
886.274, 64.222
887.544, 117.904
888.813, 178.587
890.083, 151.271
891.352, 159.959
892.621, 191.647
893.890, 178.339
895.159, 127.034
896.427, 176.760
897.695, 196.488
898.964, 119.219
900.232, 125.953
901.499, 98.689
902.767, 175.429
904.034, 132.173
905.301, 146.919
906.568, 208.670
907.835, 136.309
909.102, 118.945
910.368, 177.568
911.634, 149.154
912.900, 92.777
914.166, 134.555
915.432, 106.334
916.697, 81.121
917.962, 169.734
919.227, 62.533
920.492, 135.228
921.757, 42.033
923.021, 43.843
924.285, 92.653
925.550, 97.469
926.813, 157.086
928.077, 130.830
929.341, 131.907
930.604, 86.639
931.867, 34.474
933.130, 0.275
934.393, 185.978
935.655, 53.665
936.918, 217.038
938.180, 105.739
939.442, 63.945
940.703, 156.726
941.965, 39.445
943.226, 43.250
944.488, 42.131
945.749, 19.360
947.009, 68.607
948.270, 54.524
949.530, 52.419
950.791, 74.281
952.051, 46.183
953.311, 99.978
954.570, 77.890
955.830, 136.808
957.089, 83.159
958.348, 17.083
959.607, 53.014
960.866, 27.821
962.124, 7.746
963.383, 112.196
964.641, 63.169
965.899, 134.146
967.156, 74.131
968.414, 12.880
969.671, 162.114
970.928, 83.113
972.185, 141.123
973.442, 122.079
974.699, 60.119
975.955, 89.173
977.211, 18.757
978.468, 77.319
979.723, 112.402
980.979, 6.506
982.234, 153.594
983.490, 19.699
984.745, 52.812
986.000, 151.927
987.254, 30.049
988.509, 190.174
989.763, 87.305
991.017, 180.447
992.271, 36.594
993.525, 127.750
994.779, 179.910
996.032, 122.075
997.285, 189.246
998.538, 142.439
999.791, 336.619
1001.044, 348.810
1002.296, 423.080
1003.548, 272.990
1004.800, 217.193
1006.052, 247.249
1007.304, 146.459
1008.555, 208.783
1009.807, 245.788
1011.058, 120.018
1012.309, 265.251
1013.559, 279.498
1014.810, 118.926
1016.060, 224.172
1017.310, 318.852
1018.560, 174.564
1019.810, 291.818
1021.060, 373.131
1022.309, 278.481
1023.558, 441.703
1024.807, 375.814
1026.056, 444.081
1027.305, 382.426
1028.553, 427.696
1029.801, 406.054
1031.049, 434.328
1032.297, 390.604
1033.545, 439.754
1034.793, 459.303
1036.040, 551.870
1037.287, 543.316
1038.534, 653.695
1039.781, 719.993
1041.027, 664.326
1042.274, 645.650
1043.520, 737.978
1044.766, 773.882
1046.012, 789.926
1047.257, 801.397
1048.503, 940.979
1049.748, 846.358
1050.993, 994.006
1052.238, 966.641
1053.483, 1034.344
1054.727, 994.956
1055.971, 1139.494
1057.216, 1100.436
1058.459, 1177.056
1059.703, 1229.464
1060.947, 1281.502
1062.190, 1237.914
1063.433, 1436.644
1064.676, 1566.056
1065.919, 1665.391
1067.162, 2049.201
1068.404, 1997.629
1069.646, 2184.226
1070.888, 2479.798
1072.130, 2582.406
1073.372, 2890.936
1074.613, 3352.369
1075.855, 3811.021
1077.096, 4372.600
1078.337, 5367.021
1079.578, 6213.706
1080.818, 7565.405
1082.059, 9177.533
1083.299, 11204.212
1084.539, 13896.780
1085.779, 17389.801
1087.018, 22523.432
1088.258, 28927.854
1089.497, 37333.180
1090.736, 45956.605
1091.975, 51650.496
1093.213, 51873.914
1094.452, 46537.332
1095.690, 37099.805
1096.928, 28338.238
1098.166, 21088.680
1099.404, 15745.115
1100.642, 11821.551
1101.879, 9096.674
1103.116, 7094.189
1104.353, 5592.732
1105.590, 4642.160
1106.827, 3944.760
1108.063, 3147.476
1109.299, 2771.979
1110.536, 2312.008
1111.771, 1923.533
1113.007, 1755.005
1114.243, 1484.892
1115.478, 1239.778
1116.713, 1160.299
1117.948, 1067.780
1119.183, 824.500
1120.418, 788.079
1121.652, 789.509
1122.886, 681.934
1124.120, 634.354
1125.354, 399.770
1126.588, 565.928
1127.821, 310.597
1129.055, 455.997
1130.288, 390.336
1131.521, 401.949
1132.753, 275.336
1133.986, 284.992
1135.218, 243.313
1136.450, 148.989
1137.682, 173.554
1138.914, 157.185
1140.146, 86.539
1141.377, 165.946
1142.609, 129.403
1143.840, 212.738
1145.071, 179.179
1146.301, 33.410
1147.532, 107.726
1148.762, 38.147
1149.992, 36.551
1151.222, 12.946
1152.452, 42.363
1153.682, 15.248
1154.911, 105.990
1156.140, 20.582
1157.369, 13.087
1158.598, 81.494
1159.827, 99.057
1161.055, 46.329
1162.284, 4.627
1163.512, 76.128
1164.740, 22.705
1165.967, 102.560
1167.195, 139.523
1168.422, 39.836
1169.650, 31.901
1170.877, 29.905
1172.103, 27.875
1173.330, 69.194
1174.557, 38.190
1175.783, 140.177
1177.009, 30.790
1178.235, 122.162
1179.461, 71.104
1180.686, 11.037
1181.912, 17.195
1183.137, 50.199
1184.362, 26.093
1185.587, 43.161
1186.811, 83.490
1188.036, 62.544
1189.260, 117.832
1190.484, 101.750
1191.708, 0.650
1192.932, 96.884
1194.155, 58.008
1195.378, 32.869
1196.602, 81.943
1197.825, 18.817
1199.047, 29.015
1200.270, 15.769
1201.492, 37.851
1202.715, 56.526
1203.937, 7.295
1205.159, 40.031
1206.380, 94.850
1207.602, 10.130
1208.823, 116.470
1210.044, 20.061
1211.265, 99.034
1212.486, 1.737
1213.707, 5.718
1214.927, 137.291
1216.147, 54.802
1217.367, 61.625
1218.587, 53.115
1219.807, 72.594
1221.027, 95.301
1222.246, 43.859
1223.465, 62.241
1224.684, 108.752
1225.903, 38.181
1227.121, 34.597
1228.340, 8.000
1229.558, 38.392
1230.776, 66.770
1231.994, 11.134
1233.212, 53.481
1234.429, 128.814
1235.646, 5.135
1236.864, 185.430
1238.081, 16.715
1239.297, 114.990
1240.514, 158.256
1241.730, 96.512
1242.947, 125.756
1244.163, 172.989
1245.378, 109.213
1246.594, 117.411
1247.810, 11.588
1249.025, 88.749
1250.240, 81.897
1251.455, 160.033
1252.670, 73.158
1253.885, 45.272
1255.099, 27.625
1256.313, 16.452
1257.527, 11.625
1258.741, 107.559
1259.955, 24.588
1261.168, 24.604
1262.382, 94.606
1263.595, 68.596
1264.808, 45.575
1266.021, 78.542
1267.233, 130.495
1268.446, 179.436
1269.658, 131.357
1270.870, 232.266
1272.082, 159.159
1273.294, 53.041
1274.505, 168.911
1275.716, 178.769
1276.928, 63.614
1278.139, 148.449
1279.349, 51.272
1280.560, 123.084
1281.770, 57.885
1282.981, 70.672
1284.191, 53.432
1285.401, 138.156
1286.610, 104.854
1287.820, 91.503
1289.029, 139.465
1290.239, 114.689
1291.448, 174.239
1292.656, 120.746
1293.865, 93.252
1295.073, 130.733
1296.282, 43.128
1297.490, 106.875
1298.698, 86.316
1299.906, 172.895
1301.113, 0.308
1302.320, 92.597
1303.528, 37.196
1304.735, 38.562
1305.942, 98.913
1307.148, 91.241
1308.355, 43.379
1309.561, 156.689
1310.767, 145.555
1311.973, 158.378
1313.179, 54.648
1314.384, 171.854
1315.590, 79.009
1316.795, 151.281
1318.000, 93.655
1319.205, 128.862
1320.410, 116.982
1321.614, 96.165
1322.819, 133.251
1324.023, 109.408
1325.227, 157.552
1326.431, 51.479
1327.634, 85.629
1328.838, 16.521
1330.041, 65.407
1331.244, 19.392
1332.447, 35.556
1333.650, 23.549
1334.852, 92.456
1336.055, 65.550
1337.257, 6.856
1338.459, 69.883
1339.661, 74.941
1340.862, 26.650
1342.064, 66.553
1343.265, 43.820
1344.466, 88.813
1345.667, 10.628
1346.868, 161.015
1348.068, 76.728
1349.269, 5.970
1350.469, 57.649
1351.669, 19.476
1352.869, 139.668
1354.069, 196.485
1355.268, 17.982
1356.468, 66.792
1357.667, 205.679
1358.866, 8.090
1360.065, 152.053
1361.263, 26.371
1362.462, 103.037
1363.660, 185.671
1364.858, 44.280
1366.056, 77.096
1367.254, 155.801
1368.451, 110.492
1369.649, 100.350
1370.846, 112.954
1372.043, 141.509
1373.240, 133.479
1374.436, 136.072
1375.633, 123.695
1376.829, 206.674
1378.025, 177.780
1379.221, 214.858
1380.417, 235.824
1381.613, 238.674
1382.808, 317.973
1384.003, 372.213
1385.199, 388.476
1386.393, 290.004
1387.588, 450.023
1388.783, 379.065
1389.977, 494.678
1391.171, 417.954
1392.365, 430.555
1393.559, 522.061
1394.753, 565.097
1395.946, 704.446
1397.140, 795.451
1398.333, 977.437
1399.526, 1140.103
1400.719, 1509.791
1401.911, 1803.393
1403.104, 2384.999
1404.296, 3126.316
1405.488, 4119.104
1406.680, 5134.805
1407.872, 5702.603
1409.063, 5755.271
1410.255, 4737.658
1411.446, 3920.229
1412.637, 3045.271
1413.828, 2286.417
1415.018, 1711.589
1416.209, 1393.742
1417.399, 1125.470
1418.589, 1031.942
1419.779, 771.537
1420.969, 652.256
1422.159, 646.064
1423.348, 632.801
1424.537, 734.616
1425.726, 569.949
1426.915, 540.531
1428.104, 551.835
1429.293, 382.723
1430.481, 449.565
1431.669, 490.972
1432.857, 527.688
1434.045, 567.311
1435.233, 602.599
1436.420, 600.980
1437.608, 628.906
1438.795, 593.631
1439.982, 639.002
1441.169, 687.441
1442.355, 612.138
1443.542, 700.374
1444.728, 754.965
1445.914, 781.126
1447.100, 709.266
1448.286, 783.385
1449.472, 687.482
1450.657, 780.577
1451.842, 759.677
1453.027, 840.763
1454.212, 865.808
1455.397, 619.824
1456.581, 778.834
1457.766, 900.895
1458.950, 724.937
1460.134, 861.947
1461.318, 852.922
1462.501, 830.866
1463.685, 710.786
1464.868, 601.673
1466.051, 803.524
1467.234, 670.344
1468.417, 638.169
1469.600, 620.979
1470.782, 601.753
1471.965, 505.484
1473.147, 647.164
1474.329, 449.790
1475.510, 530.516
1476.692, 464.483
1477.873, 392.769
1479.055, 343.246
1480.236, 443.836
1481.416, 387.466
1482.597, 431.161
1483.778, 302.897
1484.958, 390.675
1486.138, 254.491
1487.318, 460.351
1488.498, 273.261
1489.678, 142.228
1490.857, 128.259
1492.037, 280.361
1493.216, 262.551
1494.395, 187.841
1495.574, 241.251
1496.752, 76.801
1497.931, 206.513
1499.109, 94.423
1500.287, 145.521
1501.465, 43.786
1502.643, 2.777
1503.820, 142.849
1504.998, 101.686
1506.175, 18.234
1507.352, 145.123
1508.529, 74.796
1509.706, 178.823
1510.882, 239.244
1512.059, 161.903
1513.235, 201.117
1514.411, 2.798
1515.587, 205.522
1516.762, 56.151
1517.938, 191.075
1519.113, 58.904
1520.288, 61.095
1521.463, 0.000
##END=



