##NAMES=Smithsonite
##RRUFFID=R040051
##IDEAL CHEMISTRY=Zn^2+^CO_3_
##LOCALITY=Berg Aukas mine, Grootfontein, Namibia
##OWNER=RRUFF
##SOURCE=University of Arizona Mineral Museum
##DESCRIPTION=Yellowish brown botryoidal groups
##STATUS=The identification of this mineral has been confirmed by X-ray diffraction and chemical analysis
##URL=rruff.info/R040051
##MEASURED CHEMISTRY=(Zn_0.94_Ca_0.02_Mg_0.02_)C_1.01_O_3_
##PIN_ID=M00015
##ORIENTATION=Laser parallel to c* (0 0 1). Fiducial mark perpendicular to laser is parallel to a [1 0 0]
100.340, 0.000
101.732, 0.486
103.124, 2.598
104.516, 13.381
105.908, 1.279
107.300, 5.605
108.691, 73.410
110.082, 59.723
111.473, 32.257
112.864, 113.799
114.254, 161.190
115.644, 207.306
117.034, 172.049
118.424, 119.338
119.813, 135.109
121.203, 131.308
122.592, 61.891
123.981, 116.820
125.369, 83.060
126.758, 77.583
128.146, 42.364
129.534, 99.381
130.922, 89.615
132.309, 98.048
133.696, 84.667
135.083, 98.456
136.470, 53.403
137.857, 77.498
139.243, 89.732
140.630, 72.100
142.016, 4.595
143.401, 124.207
144.787, 116.926
146.172, 49.746
147.557, 81.662
148.942, 114.667
150.327, 160.759
151.711, 29.933
153.096, 123.183
154.480, 119.505
155.863, 101.896
157.247, 146.350
158.630, 141.866
160.013, 161.443
161.396, 157.077
162.779, 184.971
164.161, 184.508
165.544, 230.298
166.926, 276.134
168.308, 277.014
169.689, 313.934
171.070, 415.895
172.452, 390.895
173.833, 360.930
175.213, 478.998
176.594, 483.122
177.974, 620.314
179.354, 719.561
180.734, 867.842
182.114, 1012.165
183.493, 1214.530
184.872, 1458.887
186.251, 1862.246
187.630, 2226.614
189.008, 2827.011
190.387, 3571.422
191.765, 4183.871
193.143, 5033.356
194.520, 5449.854
195.898, 5392.375
197.275, 4655.931
198.652, 3797.517
200.029, 2877.110
201.405, 2110.724
202.782, 1558.357
204.158, 1258.009
205.534, 937.664
206.909, 711.322
208.285, 567.993
209.660, 418.668
211.035, 326.350
212.410, 371.055
213.784, 221.779
215.159, 187.521
216.533, 225.323
217.907, 151.126
219.281, 92.945
220.654, 103.768
222.027, 86.598
223.400, 128.463
224.773, 107.328
226.146, 68.192
227.518, 51.056
228.891, 87.919
230.263, 58.781
231.634, 101.646
233.006, 103.508
234.377, 30.372
235.748, 69.235
237.119, 28.100
238.490, 27.964
239.860, 68.829
241.231, 64.923
242.601, 84.704
243.970, 103.656
245.340, 113.535
246.709, 83.417
248.079, 95.297
249.448, 79.177
250.816, 147.073
252.185, 101.483
253.553, 89.335
254.921, 100.734
256.289, 178.657
257.657, 197.798
259.024, 165.622
260.391, 257.668
261.758, 174.629
263.125, 221.233
264.492, 248.905
265.858, 250.632
267.224, 329.513
268.590, 288.874
269.956, 384.980
271.321, 341.102
272.687, 447.267
274.052, 436.462
275.416, 517.745
276.781, 575.056
278.146, 618.525
279.510, 700.696
280.874, 714.589
282.237, 883.026
283.601, 954.750
284.964, 1120.242
286.327, 1360.757
287.690, 1633.895
289.053, 1968.359
290.416, 2326.906
291.778, 2835.551
293.140, 3406.697
294.502, 4071.321
295.863, 4983.125
297.225, 5897.892
298.586, 6956.854
299.947, 7997.562
301.308, 8837.246
302.668, 9428.090
304.029, 9691.824
305.389, 9338.536
306.749, 8529.280
308.108, 7601.002
309.468, 6490.733
310.827, 5376.490
312.186, 4371.298
313.545, 3583.538
314.903, 2989.451
316.262, 2368.203
317.620, 1954.064
318.978, 1590.822
320.336, 1311.899
321.693, 1105.814
323.051, 995.108
324.408, 793.872
325.765, 737.704
327.121, 607.438
328.478, 508.431
329.834, 435.031
331.190, 483.797
332.546, 353.563
333.902, 434.327
335.257, 295.151
336.612, 283.116
337.967, 296.988
339.322, 216.049
340.677, 274.169
342.031, 180.070
343.385, 243.888
344.739, 218.638
346.093, 119.386
347.446, 180.167
348.799, 126.975
350.153, 204.794
351.505, 190.548
352.858, 124.332
354.210, 128.061
355.563, 129.788
356.915, 118.510
358.267, 159.229
359.618, 94.289
360.969, 83.003
362.321, 78.818
363.672, 118.533
365.022, 103.355
366.373, 60.211
367.723, 55.927
369.073, 29.849
370.423, 63.541
371.773, 23.479
373.122, 49.213
374.471, 57.131
375.821, 2.875
377.169, 86.608
378.518, 6.666
379.866, 12.053
381.215, 43.018
382.563, 39.035
383.910, 27.111
385.258, 117.440
386.605, 94.644
387.952, 109.907
389.299, 166.750
390.646, 92.618
391.992, 87.308
393.339, 50.968
394.685, 20.789
396.031, 130.647
397.376, 15.383
398.722, 80.010
400.067, 21.293
401.412, 16.549
402.757, 86.075
404.101, 135.767
405.446, 12.574
406.790, 8.018
408.134, 24.643
409.478, 13.208
410.821, 17.268
412.165, 47.284
413.508, 37.263
414.851, 59.740
416.193, 11.208
417.536, 9.732
418.878, 39.236
420.220, 4.714
421.562, 19.874
422.904, 4.573
424.245, 2.062
425.586, 2.405
426.927, 28.831
428.268, 9.230
429.609, 15.438
430.949, 19.938
432.289, 34.242
433.629, 7.367
434.969, 79.006
436.309, 22.722
437.648, 49.523
438.987, 22.764
440.326, 17.941
441.665, 12.663
443.003, 83.520
444.342, 24.308
445.680, 59.836
447.018, 108.970
448.355, 12.907
449.693, 46.192
451.030, 0.282
452.367, 52.361
453.704, 42.570
455.041, 92.582
456.377, 27.736
457.713, 40.741
459.049, 15.734
460.385, 1.286
461.721, 144.685
463.056, 35.645
464.391, 16.410
465.726, 103.507
467.061, 67.411
468.395, 118.304
469.730, 138.184
471.064, 71.053
472.398, 60.909
473.731, 13.751
475.065, 39.580
476.398, 106.395
477.731, 55.196
479.064, 96.985
480.397, 23.761
481.729, 46.525
483.062, 20.726
484.394, 119.989
485.725, 69.690
487.057, 5.396
488.389, 35.081
489.720, 56.250
491.051, 108.374
492.382, 100.984
493.712, 99.581
495.043, 5.165
496.373, 42.724
497.703, 65.269
499.032, 32.039
500.362, 28.565
501.691, 59.074
503.020, 25.968
504.349, 130.489
505.678, 117.139
507.007, 87.568
508.335, 81.122
509.663, 78.013
510.991, 94.735
512.319, 87.105
513.646, 103.671
514.973, 112.521
516.300, 199.848
517.627, 132.159
518.954, 36.975
520.280, 124.393
521.607, 80.701
522.933, 134.359
524.259, 81.642
525.584, 72.963
526.910, 105.278
528.235, 55.664
529.560, 135.110
530.885, 54.554
532.209, 101.689
533.534, 57.073
534.858, 105.386
536.182, 142.197
537.506, 163.267
538.829, 131.157
540.152, 68.194
541.476, 65.062
542.799, 58.542
544.121, 42.823
545.444, 49.173
546.766, 52.847
548.088, 72.882
549.410, 88.779
550.732, 129.657
552.053, 148.880
553.375, 95.724
554.696, 84.842
556.017, 112.649
557.337, 144.423
558.658, 118.196
559.978, 102.643
561.298, 127.344
562.618, 109.063
563.938, 114.766
565.257, 159.589
566.576, 107.657
567.895, 128.290
569.214, 198.853
570.533, 27.215
571.851, 51.805
573.170, 217.374
574.488, 171.926
575.805, 118.357
577.123, 120.759
578.440, 123.261
579.758, 216.599
581.075, 26.455
582.391, 168.730
583.708, 124.866
585.024, 105.687
586.341, 121.007
587.657, 159.225
588.972, 119.511
590.288, 160.331
591.603, 112.591
592.918, 111.868
594.233, 204.158
595.548, 178.396
596.863, 138.248
598.177, 117.355
599.491, 114.369
600.805, 145.501
602.119, 134.694
603.432, 188.612
604.746, 226.771
606.059, 169.916
607.372, 139.444
608.685, 192.738
609.997, 150.987
611.309, 133.017
612.621, 95.756
613.933, 93.041
615.245, 258.907
616.557, 244.860
617.868, 203.615
619.179, 265.365
620.490, 234.334
621.801, 293.139
623.111, 281.042
624.421, 423.043
625.731, 240.923
627.041, 338.859
628.351, 212.863
629.660, 246.702
630.970, 342.479
632.279, 223.299
633.588, 206.951
634.896, 180.865
636.205, 207.656
637.513, 179.456
638.821, 173.660
640.129, 255.249
641.437, 291.445
642.744, 296.964
644.051, 317.635
645.358, 300.083
646.665, 303.524
647.972, 259.160
649.278, 275.799
650.584, 260.566
651.890, 352.175
653.196, 139.708
654.502, 248.149
655.807, 61.604
657.113, 143.821
658.418, 190.996
659.722, 37.374
661.027, 116.844
662.331, 67.672
663.636, 142.478
664.940, 83.901
666.244, 121.281
667.547, 19.631
668.851, 176.026
670.154, 65.373
671.457, 30.756
672.760, 125.120
674.062, 148.470
675.365, 2.807
676.667, 80.775
677.969, 12.070
679.271, 4.243
680.572, 11.493
681.874, 87.610
683.175, 84.684
684.476, 63.875
685.777, 44.843
687.077, 10.980
688.378, 135.923
689.678, 47.011
690.978, 42.105
692.278, 146.086
693.577, 110.879
694.877, 99.832
696.176, 153.772
697.475, 21.553
698.774, 109.037
700.072, 79.549
701.371, 73.786
702.669, 3.872
703.967, 74.484
705.265, 146.039
706.562, 150.648
707.860, 26.416
709.157, 173.192
710.454, 31.789
711.751, 241.324
713.047, 100.964
714.344, 301.692
715.640, 124.331
716.936, 234.902
718.232, 338.573
719.527, 369.156
720.823, 466.751
722.118, 560.430
723.413, 691.983
724.708, 1098.611
726.002, 1600.262
727.297, 2282.865
728.591, 3259.021
729.885, 3671.646
731.179, 3047.263
732.472, 2075.796
733.766, 1385.327
735.059, 974.860
736.352, 687.440
737.645, 578.964
738.937, 437.534
740.230, 305.049
741.522, 265.480
742.814, 339.966
744.106, 245.505
745.397, 300.979
746.689, 170.507
747.980, 162.934
749.271, 85.357
750.562, 184.865
751.853, 2.375
753.143, 77.870
754.433, 98.292
755.723, 86.706
757.013, 111.193
758.303, 104.676
759.592, 97.581
760.881, 76.626
762.170, 70.092
763.459, 9.558
764.748, 21.985
766.036, 96.451
767.325, 16.880
768.613, 10.192
769.901, 89.483
771.188, 52.905
772.476, 51.320
773.763, 37.271
775.050, 86.112
776.337, 75.488
777.624, 135.859
778.910, 42.234
780.196, 87.601
781.482, 48.963
782.768, 28.319
784.054, 72.668
785.339, 91.011
786.625, 2.650
787.910, 114.679
789.195, 28.006
790.479, 27.324
791.764, 46.638
793.048, 9.054
794.332, 116.244
795.616, 51.536
796.900, 87.836
798.183, 62.870
799.467, 5.614
800.750, 98.636
802.033, 28.118
803.316, 151.128
804.598, 11.370
805.880, 97.606
807.163, 66.838
808.445, 28.070
809.726, 64.300
811.008, 48.091
812.289, 53.106
813.570, 47.302
814.851, 33.031
816.132, 3.770
817.413, 3.782
818.693, 80.406
819.973, 116.487
821.253, 96.670
822.533, 212.021
823.813, 118.198
825.092, 110.161
826.371, 109.823
827.650, 73.993
828.929, 185.159
830.208, 188.805
831.486, 65.828
832.764, 54.605
834.042, 218.355
835.320, 134.464
836.598, 118.256
837.875, 161.297
839.152, 130.250
840.429, 191.123
841.706, 117.409
842.983, 40.560
844.259, 158.447
845.536, 113.389
846.812, 126.814
848.088, 87.965
849.363, 201.082
850.639, 170.233
851.914, 158.536
853.189, 103.690
854.464, 228.738
855.739, 271.774
857.013, 160.271
858.288, 333.337
859.562, 345.537
860.836, 370.739
862.110, 280.581
863.383, 284.785
864.656, 279.700
865.930, 248.910
867.203, 266.121
868.475, 260.338
869.748, 160.557
871.020, 245.778
872.292, 118.002
873.564, 156.227
874.836, 110.454
876.108, 171.683
877.379, 97.915
878.650, 140.149
879.922, 210.388
881.192, 44.631
882.463, 142.880
883.733, 124.146
885.004, 126.415
886.274, 154.687
887.544, 118.347
888.813, 20.242
890.083, 109.526
891.352, 146.819
892.621, 234.114
893.890, 161.413
895.159, 160.715
896.427, 131.021
897.695, 169.329
898.964, 85.654
900.232, 171.983
901.499, 138.316
902.767, 286.652
904.034, 91.995
905.301, 130.729
906.568, 224.084
907.835, 165.443
909.102, 123.813
910.368, 143.188
911.634, 174.567
912.900, 67.960
914.166, 166.354
915.432, 95.771
916.697, 8.940
917.962, 205.402
919.227, 44.831
920.492, 122.054
921.757, 139.257
923.021, 13.717
924.285, 121.129
925.550, 144.541
926.813, 13.224
928.077, 104.707
929.341, 107.194
930.604, 140.687
931.867, 86.121
933.130, 117.639
934.393, 198.116
935.655, 91.517
936.918, 203.047
938.180, 107.583
939.442, 32.641
940.703, 126.186
941.965, 106.621
943.226, 112.022
944.488, 64.591
945.749, 84.385
947.009, 117.950
948.270, 12.520
949.530, 205.092
950.791, 96.613
952.051, 79.671
953.311, 131.257
954.570, 98.030
955.830, 200.627
957.089, 112.083
958.348, 52.687
959.607, 150.295
960.866, 33.845
962.124, 30.524
963.383, 183.140
964.641, 39.775
965.899, 179.424
967.156, 29.049
968.414, 48.369
969.671, 14.702
970.928, 3.628
972.185, 69.046
973.442, 42.725
974.699, 74.411
975.955, 84.103
977.211, 63.799
978.468, 81.503
979.723, 35.210
980.979, 33.924
982.234, 216.647
983.490, 32.624
984.745, 99.108
986.000, 126.851
987.254, 60.396
988.509, 139.346
989.763, 81.091
991.017, 56.843
992.271, 24.399
993.525, 5.464
994.779, 88.487
996.032, 78.271
997.285, 228.075
998.538, 134.932
999.791, 350.882
1001.044, 202.772
1002.296, 428.863
1003.548, 247.748
1004.800, 236.667
1006.052, 167.141
1007.304, 171.040
1008.555, 189.064
1009.807, 208.862
1011.058, 184.818
1012.309, 221.744
1013.559, 230.675
1014.810, 194.013
1016.060, 279.952
1017.310, 336.893
1018.560, 376.725
1019.810, 303.672
1021.060, 346.888
1022.309, 294.881
1023.558, 409.843
1024.807, 293.999
1026.056, 608.966
1027.305, 367.074
1028.553, 549.141
1029.801, 450.393
1031.049, 321.374
1032.297, 463.613
1033.545, 536.282
1034.793, 493.274
1036.040, 412.447
1037.287, 560.482
1038.534, 623.428
1039.781, 675.730
1041.027, 546.001
1042.274, 583.093
1043.520, 615.365
1044.766, 705.592
1046.012, 656.807
1047.257, 665.018
1048.503, 880.076
1049.748, 702.466
1050.993, 976.748
1052.238, 876.819
1053.483, 890.943
1054.727, 908.018
1055.971, 903.001
1057.216, 989.532
1058.459, 1011.652
1059.703, 1019.738
1060.947, 1169.213
1062.190, 1206.521
1063.433, 1388.605
1064.676, 1363.952
1065.919, 1528.146
1067.162, 1835.532
1068.404, 1775.787
1069.646, 2017.448
1070.888, 2241.818
1072.130, 2473.742
1073.372, 2689.044
1074.613, 3051.180
1075.855, 3427.425
1077.096, 3959.646
1078.337, 4951.787
1079.578, 5732.171
1080.818, 6963.258
1082.059, 8399.394
1083.299, 10240.551
1084.539, 12795.021
1085.779, 16020.441
1087.018, 20620.852
1088.258, 26615.215
1089.497, 34228.477
1090.736, 41875.590
1091.975, 47111.699
1093.213, 46723.809
1094.452, 41874.910
1095.690, 33420.223
1096.928, 25571.455
1098.166, 19220.582
1099.404, 14454.671
1100.642, 10591.773
1101.879, 8403.328
1103.116, 6402.422
1104.353, 5356.658
1105.590, 4191.753
1106.827, 3408.843
1108.063, 2862.084
1109.299, 2462.198
1110.536, 2057.531
1111.771, 1721.082
1113.007, 1505.214
1114.243, 1294.135
1115.478, 1174.200
1116.713, 944.260
1117.948, 914.316
1119.183, 724.684
1120.418, 655.889
1121.652, 548.040
1122.886, 581.073
1124.120, 423.424
1125.354, 366.444
1126.588, 375.558
1127.821, 313.599
1129.055, 356.835
1130.288, 262.828
1131.521, 326.179
1132.753, 218.499
1133.986, 118.533
1135.218, 397.779
1136.450, 76.159
1137.682, 234.167
1138.914, 172.147
1140.146, 152.252
1141.377, 31.168
1142.609, 0.287
1143.840, 91.452
1145.071, 59.369
1146.301, 119.649
1147.532, 37.780
1148.762, 53.648
1149.992, 7.570
1151.222, 74.683
1152.452, 55.820
1153.682, 26.170
1154.911, 114.937
1156.140, 50.012
1157.369, 46.066
1158.598, 58.001
1159.827, 127.595
1161.055, 30.626
1162.284, 11.311
1163.512, 105.158
1164.740, 106.819
1165.967, 12.048
1167.195, 185.582
1168.422, 12.770
1169.650, 67.376
1170.877, 95.226
1172.103, 30.807
1173.330, 131.375
1174.557, 44.932
1175.783, 56.935
1177.009, 15.770
1178.235, 110.316
1179.461, 21.060
1180.686, 53.450
1181.912, 130.313
1183.137, 57.403
1184.362, 166.717
1185.587, 4.576
1186.811, 32.808
1188.036, 45.520
1189.260, 89.186
1190.484, 48.471
1191.708, 60.893
1192.932, 65.194
1194.155, 68.202
1195.378, 35.194
1196.602, 27.295
1197.825, 53.698
1199.047, 146.224
1200.270, 3.468
1201.492, 116.231
1202.715, 6.082
1203.937, 81.069
1205.159, 17.649
1206.380, 125.623
1207.602, 21.878
1208.823, 20.073
1210.044, 119.941
1211.265, 49.818
1212.486, 97.306
1213.707, 52.258
1214.927, 85.469
1216.147, 13.389
1217.367, 70.289
1218.587, 39.108
1219.807, 87.933
1221.027, 139.181
1222.246, 11.928
1223.465, 110.848
1224.684, 229.607
1225.903, 71.668
1227.121, 40.605
1228.340, 189.307
1229.558, 124.966
1230.776, 51.607
1231.994, 62.229
1233.212, 64.878
1234.429, 73.785
1235.646, 100.039
1236.864, 156.600
1238.081, 157.147
1239.297, 228.683
1240.514, 193.205
1241.730, 83.715
1242.947, 107.211
1244.163, 129.692
1245.378, 181.146
1246.594, 146.587
1247.810, 40.005
1249.025, 209.409
1250.240, 106.797
1251.455, 188.171
1252.670, 160.529
1253.885, 103.875
1255.099, 133.203
1256.313, 26.482
1257.527, 117.803
1258.741, 129.074
1259.955, 3.668
1261.168, 202.564
1262.382, 145.774
1263.595, 199.968
1264.808, 69.146
1266.021, 98.306
1267.233, 118.448
1268.446, 246.574
1269.658, 68.678
1270.870, 173.764
1272.082, 122.834
1273.294, 138.887
1274.505, 90.916
1275.716, 191.928
1276.928, 60.926
1278.139, 154.895
1279.349, 133.853
1280.560, 81.786
1281.770, 109.642
1282.981, 135.487
1284.191, 140.300
1285.401, 109.084
1286.610, 55.846
1287.820, 101.490
1289.029, 8.962
1290.239, 145.657
1291.448, 59.332
1292.656, 90.972
1293.865, 218.504
1295.073, 136.045
1296.282, 88.369
1297.490, 79.898
1298.698, 108.328
1299.906, 78.184
1301.113, 88.600
1302.320, 102.883
1303.528, 62.376
1304.735, 15.696
1305.942, 66.032
1307.148, 200.189
1308.355, 104.246
1309.561, 174.529
1310.767, 44.795
1311.973, 202.152
1313.179, 0.619
1314.384, 300.326
1315.590, 84.478
1316.795, 199.644
1318.000, 171.600
1319.205, 232.729
1320.410, 47.701
1321.614, 3.700
1322.819, 138.495
1324.023, 88.543
1325.227, 160.316
1326.431, 1.645
1327.634, 99.369
1328.838, 7.580
1330.041, 70.328
1331.244, 211.312
1332.447, 15.077
1333.650, 66.552
1334.852, 10.342
1336.055, 32.937
1337.257, 35.565
1338.459, 21.192
1339.661, 63.813
1340.862, 78.572
1342.064, 94.990
1343.265, 62.504
1344.466, 110.220
1345.667, 32.871
1346.868, 32.503
1348.068, 130.997
1349.269, 14.444
1350.469, 89.177
1351.669, 89.824
1352.869, 161.077
1354.069, 244.489
1355.268, 64.878
1356.468, 87.489
1357.667, 147.192
1358.866, 66.519
1360.065, 200.982
1361.263, 76.956
1362.462, 15.401
1363.660, 80.211
1364.858, 39.407
1366.056, 110.085
1367.254, 251.605
1368.451, 215.026
1369.649, 52.371
1370.846, 162.437
1372.043, 67.653
1373.240, 181.719
1374.436, 332.668
1375.633, 169.395
1376.829, 111.805
1378.025, 186.599
1379.221, 250.765
1380.417, 335.052
1381.613, 265.089
1382.808, 377.166
1384.003, 413.383
1385.199, 308.099
1386.393, 342.120
1387.588, 439.098
1388.783, 391.627
1389.977, 404.519
1391.171, 413.508
1392.365, 462.509
1393.559, 546.909
1394.753, 495.729
1395.946, 577.282
1397.140, 587.026
1398.333, 887.622
1399.526, 963.038
1400.719, 1170.447
1401.911, 1566.973
1403.104, 1952.486
1404.296, 2545.467
1405.488, 3536.588
1406.680, 4159.456
1407.872, 4542.031
1409.063, 4628.939
1410.255, 3879.926
1411.446, 3168.956
1412.637, 2306.958
1413.828, 1859.125
1415.018, 1467.486
1416.209, 1248.406
1417.399, 829.787
1418.589, 829.958
1419.779, 578.474
1420.969, 617.422
1422.159, 485.487
1423.348, 652.999
1424.537, 483.098
1425.726, 417.906
1426.915, 448.065
1428.104, 435.908
1429.293, 419.079
1430.481, 414.286
1431.669, 407.479
1432.857, 393.639
1434.045, 426.802
1435.233, 426.304
1436.420, 493.401
1437.608, 481.507
1438.795, 628.123
1439.982, 675.498
1441.169, 805.089
1442.355, 760.614
1443.542, 672.117
1444.728, 780.156
1445.914, 759.345
1447.100, 729.001
1448.286, 809.558
1449.472, 786.174
1450.657, 948.733
1451.842, 797.236
1453.027, 728.688
1454.212, 1065.113
1455.397, 741.533
1456.581, 894.918
1457.766, 924.253
1458.950, 771.534
1460.134, 1055.764
1461.318, 729.939
1462.501, 764.085
1463.685, 857.199
1464.868, 627.269
1466.051, 855.305
1467.234, 521.298
1468.417, 535.260
1469.600, 673.182
1470.782, 546.093
1471.965, 559.170
1473.147, 549.428
1474.329, 545.804
1475.510, 484.188
1476.692, 504.584
1477.873, 471.078
1479.055, 355.823
1480.236, 516.770
1481.416, 323.965
1482.597, 500.221
1483.778, 546.521
1484.958, 545.867
1486.138, 339.268
1487.318, 448.736
1488.498, 267.283
1489.678, 289.925
1490.857, 271.685
1492.037, 292.580
1493.216, 260.638
1494.395, 136.889
1495.574, 226.359
1496.752, 137.055
1497.931, 133.303
1499.109, 52.803
1500.287, 118.660
1501.465, 111.392
1502.643, 118.433
1503.820, 248.833
1504.998, 120.647
1506.175, 21.938
1507.352, 98.767
1508.529, 119.207
1509.706, 36.641
1510.882, 100.343
1512.059, 148.304
1513.235, 82.437
1514.411, 85.254
1515.587, 27.457
1516.762, 0.691
1517.938, 0.000
##END=



