##NAMES=Smithsonite
##RRUFFID=R040051
##IDEAL CHEMISTRY=Zn^2+^CO_3_
##LOCALITY=Berg Aukas mine, Grootfontein, Namibia
##OWNER=RRUFF
##SOURCE=University of Arizona Mineral Museum
##DESCRIPTION=Yellowish brown botryoidal groups
##STATUS=The identification of this mineral has been confirmed by X-ray diffraction and chemical analysis
##URL=rruff.info/R040051
##MEASURED CHEMISTRY=(Zn_0.94_Ca_0.02_Mg_0.02_)C_1.01_O_3_
##PIN_ID=M00001
##ORIENTATION=Laser parallel to -a* (-1 0 0). Fiducial mark perpendicular to laser is parallel to c [0 0 1]
80.823, 0.000
82.218, 22.071
83.614, 17.872
85.009, 34.343
86.404, 30.253
87.798, 24.499
89.193, 106.444
90.587, 74.681
91.981, 113.936
93.375, 78.021
94.768, 101.793
96.161, 82.138
97.554, 110.967
98.947, 106.207
100.340, 79.803
101.732, 83.725
103.124, 103.943
104.516, 82.430
105.908, 89.153
107.300, 87.079
108.691, 150.183
110.082, 77.442
111.473, 59.838
112.864, 99.355
114.254, 149.987
115.644, 120.721
117.034, 119.552
118.424, 76.476
119.813, 64.497
121.203, 42.713
122.592, 55.062
123.981, 36.472
125.369, 11.937
126.758, 32.568
128.146, 30.246
129.534, 69.939
130.922, 17.648
132.309, 38.371
133.696, 18.107
135.083, 41.857
136.470, 35.619
137.857, 46.393
139.243, 41.179
140.630, 25.976
142.016, 0.784
143.401, 47.602
144.787, 12.428
146.172, 50.354
147.557, 17.281
148.942, 57.212
150.327, 38.152
151.711, 19.144
153.096, 40.191
154.480, 89.279
155.863, 88.365
157.247, 93.481
158.630, 111.203
160.013, 132.954
161.396, 145.780
162.779, 176.209
164.161, 162.902
165.544, 226.931
166.926, 228.131
168.308, 272.476
169.689, 248.523
171.070, 319.866
172.452, 350.603
173.833, 376.514
175.213, 461.437
176.594, 529.370
177.974, 632.306
179.354, 709.245
180.734, 869.186
182.114, 983.130
183.493, 1295.079
184.872, 1623.030
186.251, 2149.984
187.630, 2747.941
189.008, 3628.902
190.387, 4581.870
191.765, 5506.845
193.143, 6175.824
194.520, 6470.808
195.898, 6142.794
197.275, 5545.781
198.652, 4581.769
200.029, 3566.758
201.405, 2678.748
202.782, 1932.740
204.158, 1455.732
205.534, 1084.723
206.909, 772.715
208.285, 616.706
209.660, 457.888
211.035, 334.833
212.410, 329.777
213.784, 276.720
215.159, 216.664
216.533, 191.610
217.907, 128.555
219.281, 110.263
220.654, 96.422
222.027, 95.919
223.400, 69.458
224.773, 54.000
226.146, 33.921
227.518, 57.797
228.891, 18.689
230.263, 56.891
231.634, 27.064
233.006, 33.624
234.377, 29.481
235.748, 10.668
237.119, 32.792
238.490, 5.168
239.860, 12.987
241.231, 9.292
242.601, 19.558
243.970, 0.667
245.340, 1.550
246.709, 10.105
248.079, 40.817
249.448, 15.333
250.816, 4.075
252.185, 31.593
253.553, 6.704
254.921, 11.060
256.289, 11.083
257.657, 1.061
259.024, 40.223
260.391, 5.629
261.758, 8.501
263.125, 24.608
264.492, 18.294
265.858, 31.280
267.224, 31.209
268.590, 44.115
269.956, 40.318
271.321, 34.277
272.687, 46.244
274.052, 35.218
275.416, 78.198
276.781, 69.184
278.146, 96.175
279.510, 99.180
280.874, 124.323
282.237, 155.262
283.601, 190.268
284.964, 227.276
286.327, 282.286
287.690, 346.297
289.053, 355.309
290.416, 512.322
291.778, 640.334
293.140, 847.360
294.502, 1041.414
295.863, 1279.424
297.225, 1608.687
298.586, 1942.125
299.947, 2155.191
301.308, 2405.197
302.668, 2534.265
304.029, 2515.559
305.389, 2392.561
306.749, 2104.562
308.108, 1900.561
309.468, 1530.573
310.827, 1215.587
312.186, 998.581
313.545, 813.573
314.903, 632.563
316.262, 479.550
317.620, 417.535
318.978, 294.517
320.336, 263.510
321.693, 190.486
323.051, 200.456
324.408, 114.412
325.765, 123.361
327.121, 103.301
328.478, 71.235
329.834, 69.167
331.190, 50.129
332.546, 53.052
333.902, 70.973
335.257, 10.875
336.612, 49.232
337.967, 19.644
339.322, 8.517
340.677, 45.388
342.031, 23.257
343.385, 98.123
344.739, 26.986
346.093, 44.847
347.446, 52.797
348.799, 23.936
350.153, 58.805
351.505, 13.655
352.858, 67.526
354.210, 43.372
355.563, 4.786
356.915, 10.948
358.267, 13.882
359.618, 9.232
360.969, 0.222
362.321, 2.405
363.672, 10.426
365.022, 4.240
366.373, 26.730
367.723, 20.067
369.073, 7.139
370.423, 25.651
371.773, 19.446
373.122, 12.229
374.471, 19.019
375.821, 3.817
377.169, 22.649
378.518, 6.493
379.866, 5.297
381.215, 14.081
382.563, 1.141
383.910, 32.625
385.258, 19.381
386.605, 50.131
387.952, 30.866
389.299, 39.612
390.646, 16.335
391.992, 27.055
393.339, 11.770
394.685, 29.475
396.031, 25.310
397.376, 3.869
398.722, 28.272
400.067, 2.245
401.412, 0.517
402.757, 12.810
404.101, 29.527
405.446, 11.481
406.790, 20.178
408.134, 8.784
409.478, 1.142
410.821, 44.772
412.165, 28.401
413.508, 22.995
414.851, 26.618
416.193, 22.057
417.536, 7.778
418.878, 17.451
420.220, 38.949
421.562, 32.158
422.904, 51.317
424.245, 30.913
425.586, 40.504
426.927, 15.092
428.268, 39.676
429.609, 9.744
430.949, 18.821
432.289, 37.417
433.629, 35.972
434.969, 66.524
436.309, 37.071
437.648, 77.614
438.987, 46.152
440.326, 29.685
441.665, 22.214
443.003, 23.738
444.342, 50.257
445.680, 46.772
447.018, 57.289
448.355, 57.453
449.693, 56.285
451.030, 42.868
452.367, 51.368
453.704, 31.864
455.041, 25.354
456.377, 43.839
457.713, 10.320
459.049, 4.796
460.385, 23.269
461.721, 53.737
463.056, 23.201
464.391, 9.659
465.726, 74.115
467.061, 48.565
468.395, 52.016
469.730, 35.468
471.064, 34.916
472.398, 65.364
473.731, 50.808
475.065, 87.246
476.398, 52.679
477.731, 100.107
479.064, 48.530
480.397, 37.975
481.729, 76.387
483.062, 79.794
484.394, 46.195
485.725, 79.591
487.057, 78.982
488.389, 95.367
489.720, 82.569
491.051, 35.122
492.382, 51.491
493.712, 48.854
495.043, 51.218
496.373, 81.576
497.703, 54.649
499.032, 54.997
500.362, 81.339
501.691, 58.677
503.020, 43.009
504.349, 83.367
505.678, 71.689
507.007, 24.146
508.335, 11.486
509.663, 39.789
510.991, 68.085
512.319, 38.402
513.646, 70.969
514.973, 76.334
516.300, 93.024
517.627, 52.531
518.954, 29.954
520.280, 15.447
521.607, 52.375
522.933, 38.683
524.259, 46.543
525.584, 9.402
526.910, 78.788
528.235, 45.132
529.560, 80.225
530.885, 87.318
532.209, 66.851
533.534, 69.351
534.858, 70.198
536.182, 43.391
537.506, 36.744
538.829, 65.074
540.152, 78.980
541.476, 69.270
542.799, 74.992
544.121, 68.149
545.444, 56.159
546.766, 58.290
548.088, 46.416
549.410, 56.536
550.732, 84.624
552.053, 87.785
553.375, 100.988
554.696, 95.262
556.017, 98.966
557.337, 76.624
558.658, 33.704
559.978, 31.048
561.298, 57.552
562.618, 38.539
563.938, 65.601
565.257, 43.364
566.576, 56.397
567.895, 46.255
569.214, 96.789
570.533, 70.828
571.851, 33.861
573.170, 80.872
574.488, 110.892
575.805, 26.886
577.123, 34.650
578.440, 3.395
579.758, 72.595
581.075, 72.588
582.391, 107.575
583.708, 82.556
585.024, 92.196
586.341, 66.441
587.657, 66.409
588.972, 88.198
590.288, 40.111
591.603, 67.062
592.918, 61.008
594.233, 84.043
595.548, 68.977
596.863, 115.912
598.177, 85.836
599.491, 67.744
600.805, 85.838
602.119, 67.707
603.432, 48.685
604.746, 54.004
606.059, 46.698
607.372, 41.275
608.685, 64.530
609.997, 58.438
611.309, 95.342
612.621, 95.188
613.933, 106.053
615.245, 148.308
616.557, 110.192
617.868, 114.847
619.179, 134.030
620.490, 150.993
621.801, 190.770
623.111, 197.532
624.421, 216.343
625.731, 179.225
627.041, 188.836
628.351, 163.742
629.660, 93.917
630.970, 101.739
632.279, 103.587
633.588, 66.477
634.896, 94.247
636.205, 128.082
637.513, 48.860
638.821, 112.604
640.129, 149.360
641.437, 124.109
642.744, 120.862
644.051, 144.601
645.358, 156.335
646.665, 152.062
647.972, 150.784
649.278, 126.465
650.584, 119.195
651.890, 161.960
653.196, 134.725
654.502, 118.417
655.807, 97.118
657.113, 75.812
658.418, 81.538
659.722, 56.221
661.027, 46.898
662.331, 63.569
663.636, 26.234
664.940, 46.800
666.244, 74.169
667.547, 76.799
668.851, 47.439
670.154, 16.051
671.457, 32.677
672.760, 39.297
674.062, 15.915
675.365, 23.528
676.667, 21.077
677.969, 34.492
679.271, 4.092
680.572, 3.664
681.874, 79.244
683.175, 28.597
684.476, 24.175
685.777, 0.253
687.077, 17.690
688.378, 24.849
689.678, 24.687
690.978, 30.142
692.278, 8.678
693.577, 18.736
694.877, 26.114
696.176, 74.553
697.475, 19.988
698.774, 26.417
700.072, 73.842
701.371, 85.262
702.669, 87.993
703.967, 78.088
705.265, 77.473
706.562, 51.874
707.860, 33.269
709.157, 65.658
710.454, 65.044
711.751, 105.424
713.047, 70.800
714.344, 140.173
715.640, 78.467
716.936, 164.750
718.232, 204.115
719.527, 241.425
720.823, 288.780
722.118, 353.110
723.413, 546.462
724.708, 826.796
726.002, 1415.141
727.297, 2047.481
728.591, 2887.753
729.885, 3103.085
731.179, 2648.412
732.472, 1791.631
733.766, 1116.889
735.059, 777.286
736.352, 521.597
737.645, 384.904
738.937, 308.206
740.230, 178.503
741.522, 189.797
742.814, 140.086
744.106, 142.372
745.397, 110.658
746.689, 74.905
747.980, 115.183
749.271, 14.457
750.562, 90.726
751.853, 32.990
753.143, 43.251
754.433, 54.508
755.723, 5.761
757.013, 44.009
758.303, 14.252
759.592, 19.509
760.881, 4.711
762.170, 45.911
763.459, 1.084
764.748, 22.287
766.036, 21.486
767.325, 31.681
768.613, 16.873
769.901, 0.061
771.188, 1.841
772.476, 13.583
773.763, 0.084
775.050, 6.071
776.337, 23.333
777.624, 13.629
778.910, 39.506
780.196, 11.362
781.482, 22.950
782.768, 5.150
784.054, 16.753
785.339, 15.328
786.625, 9.265
787.910, 5.781
789.195, 44.852
790.479, 8.355
791.764, 22.538
793.048, 29.572
794.332, 57.166
795.616, 28.221
796.900, 22.458
798.183, 26.661
799.467, 63.708
800.750, 47.085
802.033, 45.793
803.316, 30.833
804.598, 16.869
805.880, 11.097
807.163, 5.925
808.445, 45.944
809.726, 27.960
811.008, 26.974
812.289, 9.986
813.570, 39.994
814.851, 47.001
816.132, 22.975
817.413, 56.977
818.693, 37.836
819.973, 23.805
821.253, 16.803
822.533, 59.799
823.813, 73.769
825.092, 61.480
826.371, 105.385
827.650, 47.317
828.929, 102.027
830.208, 61.854
831.486, 67.651
832.764, 76.560
834.042, 54.936
835.320, 48.294
836.598, 93.273
837.875, 22.161
839.152, 64.012
840.429, 115.194
841.706, 51.283
842.983, 122.924
844.259, 122.578
845.536, 63.893
846.812, 95.559
848.088, 60.355
849.363, 122.229
850.639, 93.204
851.914, 122.023
853.189, 95.906
854.464, 103.880
855.739, 152.853
857.013, 145.827
858.288, 156.800
859.562, 212.773
860.836, 191.747
862.110, 153.667
863.383, 185.640
864.656, 130.614
865.930, 112.588
867.203, 133.562
868.475, 106.537
869.748, 82.513
871.020, 68.490
872.292, 103.467
873.564, 88.445
874.836, 90.423
876.108, 63.401
877.379, 47.380
878.650, 45.098
879.922, 38.339
881.192, 55.320
882.463, 58.302
883.733, 60.004
885.004, 79.266
886.274, 63.250
887.544, 67.235
888.813, 65.224
890.083, 76.216
891.352, 61.208
892.621, 79.201
893.890, 72.195
895.159, 117.189
896.427, 107.185
897.695, 98.182
898.964, 82.180
900.232, 56.180
901.499, 62.740
902.767, 99.087
904.034, 70.090
905.301, 95.088
906.568, 102.097
907.835, 85.108
909.102, 73.895
910.368, 50.909
911.634, 40.846
912.900, 39.174
914.166, 24.486
915.432, 47.980
916.697, 18.626
917.962, 18.619
919.227, 34.613
920.492, 26.648
921.757, 1.631
923.021, 3.265
924.285, 5.019
925.550, 12.177
926.813, 20.478
928.077, 62.410
929.341, 43.461
930.604, 41.298
931.867, 37.377
933.130, 11.613
934.393, 40.665
935.655, 2.630
936.918, 45.320
938.180, 26.623
939.442, 16.594
940.703, 37.391
941.965, 16.508
943.226, 32.476
944.488, 3.606
945.749, 19.297
947.009, 21.799
948.270, 9.103
949.530, 8.004
950.791, 4.900
952.051, 3.215
953.311, 5.331
954.570, 34.450
955.830, 10.574
957.089, 31.681
958.348, 8.751
959.607, 66.818
960.866, 74.956
962.124, 53.098
963.383, 40.245
964.641, 51.358
965.899, 49.512
967.156, 60.671
968.414, 39.833
969.671, 32.000
970.928, 11.171
972.185, 30.346
973.442, 45.525
974.699, 14.707
975.955, 50.894
977.211, 25.085
978.468, 73.281
979.723, 39.481
980.979, 14.686
982.234, 82.896
983.490, 39.110
984.745, 62.329
986.000, 64.554
987.254, 14.789
988.509, 95.027
989.763, 83.270
991.017, 112.518
992.271, 34.772
993.525, 61.040
994.779, 82.322
996.032, 28.618
997.285, 146.930
998.538, 178.252
999.791, 236.579
1001.044, 211.910
1002.296, 266.245
1003.548, 216.585
1004.800, 168.930
1006.052, 156.279
1007.304, 134.300
1008.555, 137.990
1009.807, 127.352
1011.058, 167.718
1012.309, 175.089
1013.559, 186.463
1014.810, 146.842
1016.060, 237.225
1017.310, 191.613
1018.560, 212.315
1019.810, 239.711
1021.060, 345.111
1022.309, 307.516
1023.558, 334.924
1024.807, 357.338
1026.056, 370.756
1027.305, 392.179
1028.553, 451.605
1029.801, 446.037
1031.049, 480.472
1032.297, 482.911
1033.545, 499.625
1034.793, 477.802
1036.040, 551.254
1037.287, 572.710
1038.534, 641.170
1039.781, 695.744
1041.027, 732.216
1042.274, 749.692
1043.520, 796.172
1044.766, 805.657
1046.012, 905.146
1047.257, 919.643
1048.503, 1047.145
1049.748, 1071.655
1050.993, 1143.170
1052.238, 1176.691
1053.483, 1135.221
1054.727, 1220.755
1055.971, 1227.950
1057.216, 1257.503
1058.459, 1323.070
1059.703, 1332.644
1060.947, 1424.222
1062.190, 1506.810
1063.433, 1598.409
1064.676, 1789.024
1065.919, 1810.643
1067.162, 2082.279
1068.404, 2210.909
1069.646, 2475.955
1070.888, 2664.592
1072.130, 2837.235
1073.372, 3232.208
1074.613, 3671.202
1075.855, 4138.521
1077.096, 4896.190
1078.337, 5741.075
1079.578, 6960.752
1080.818, 8425.434
1082.059, 10115.510
1083.299, 12597.914
1084.539, 15712.622
1085.779, 19853.471
1087.018, 25521.191
1088.258, 33148.793
1089.497, 42619.777
1090.736, 53010.504
1091.975, 60722.801
1093.213, 61835.418
1094.452, 57149.160
1095.690, 45514.371
1096.928, 34986.121
1098.166, 25498.035
1099.404, 18464.680
1100.642, 13671.435
1101.879, 10303.351
1103.116, 7700.116
1104.353, 6091.079
1105.590, 4754.849
1106.827, 3961.622
1108.063, 3129.403
1109.299, 2729.187
1110.536, 2310.220
1111.771, 1884.052
1113.007, 1662.844
1114.243, 1401.784
1115.478, 1256.582
1116.713, 1135.483
1117.948, 979.300
1119.183, 899.746
1120.418, 771.923
1121.652, 736.734
1122.886, 669.548
1124.120, 579.365
1125.354, 511.184
1126.588, 452.006
1127.821, 387.830
1129.055, 380.656
1130.288, 350.486
1131.521, 370.317
1132.753, 299.151
1133.986, 319.987
1135.218, 274.291
1136.450, 167.131
1137.682, 219.974
1138.914, 189.835
1140.146, 169.702
1141.377, 231.564
1142.609, 149.521
1143.840, 125.405
1145.071, 126.298
1146.301, 152.213
1147.532, 107.071
1148.762, 56.935
1149.992, 73.796
1151.222, 31.659
1152.452, 65.523
1153.682, 80.388
1154.911, 104.273
1156.140, 119.005
1157.369, 117.526
1158.598, 116.969
1159.827, 110.844
1161.055, 53.715
1162.284, 53.588
1163.512, 26.461
1164.740, 46.335
1165.967, 10.790
1167.195, 59.083
1168.422, 96.035
1169.650, 69.909
1170.877, 61.784
1172.103, 112.906
1173.330, 59.782
1174.557, 47.733
1175.783, 64.610
1177.009, 70.488
1178.235, 94.366
1179.461, 101.477
1180.686, 48.124
1181.912, 96.004
1183.137, 85.884
1184.362, 25.764
1185.587, 16.644
1186.811, 4.475
1188.036, 27.135
1189.260, 57.039
1190.484, 70.017
1191.708, 75.897
1192.932, 32.814
1194.155, 4.606
1195.378, 48.550
1196.602, 78.479
1197.825, 8.358
1199.047, 71.860
1200.270, 36.587
1201.492, 39.680
1202.715, 13.740
1203.937, 13.737
1205.159, 40.821
1206.380, 45.132
1207.602, 60.218
1208.823, 52.105
1210.044, 64.118
1211.265, 24.524
1212.486, 4.392
1213.707, 15.742
1214.927, 23.229
1216.147, 5.916
1217.367, 34.113
1218.587, 27.082
1219.807, 20.062
1221.027, 4.220
1222.246, 46.382
1223.465, 20.432
1224.684, 1.754
1225.903, 12.074
1227.121, 14.117
1228.340, 20.187
1229.558, 40.598
1230.776, 68.384
1231.994, 0.168
1233.212, 40.949
1234.429, 9.272
1235.646, 8.499
1236.864, 68.268
1238.081, 52.033
1239.297, 31.802
1240.514, 61.573
1241.730, 44.339
1242.947, 23.105
1244.163, 18.131
1245.378, 3.628
1246.594, 27.386
1247.810, 1.143
1249.025, 61.896
1250.240, 0.648
1251.455, 69.398
1252.670, 31.147
1253.885, 27.895
1255.099, 37.642
1256.313, 0.388
1257.527, 7.132
1258.741, 41.875
1259.955, 2.613
1261.168, 55.350
1262.382, 4.085
1263.595, 15.818
1264.808, 17.548
1266.021, 69.278
1267.233, 81.006
1268.446, 85.733
1269.658, 100.873
1270.870, 106.561
1272.082, 93.903
1273.294, 112.623
1274.505, 97.342
1275.716, 80.059
1276.928, 51.775
1278.139, 95.487
1279.349, 85.197
1280.560, 1.094
1281.770, 74.611
1282.981, 37.314
1284.191, 21.015
1285.401, 20.710
1286.610, 22.402
1287.820, 8.093
1289.029, 18.773
1290.239, 17.445
1291.448, 13.104
1292.656, 56.747
1293.865, 26.367
1295.073, 81.980
1296.282, 84.582
1297.490, 89.161
1298.698, 40.737
1299.906, 24.308
1301.113, 23.875
1302.320, 17.438
1303.528, 24.408
1304.735, 28.554
1305.942, 42.107
1307.148, 64.656
1308.355, 65.202
1309.561, 110.745
1310.767, 66.285
1311.973, 61.511
1313.179, 14.045
1314.384, 47.576
1315.590, 61.103
1316.795, 5.627
1318.000, 76.146
1319.205, 15.663
1320.410, 81.175
1321.614, 47.685
1322.819, 73.190
1324.023, 66.692
1325.227, 87.190
1326.431, 62.685
1327.634, 67.845
1328.838, 39.662
1330.041, 44.144
1331.244, 40.623
1332.447, 3.012
1333.650, 28.454
1334.852, 14.916
1336.055, 37.373
1337.257, 25.826
1338.459, 5.724
1339.661, 19.720
1340.862, 7.838
1342.064, 45.597
1343.265, 0.970
1344.466, 4.541
1345.667, 8.882
1346.868, 18.073
1348.068, 0.934
1349.269, 26.525
1350.469, 1.873
1351.669, 24.268
1352.869, 12.339
1354.069, 53.049
1355.268, 31.563
1356.468, 80.813
1357.667, 54.191
1358.866, 14.559
1360.065, 45.976
1361.263, 9.947
1362.462, 15.849
1363.660, 78.288
1364.858, 73.353
1366.056, 55.432
1367.254, 65.981
1368.451, 82.418
1369.649, 29.618
1370.846, 72.037
1372.043, 10.365
1373.240, 54.294
1374.436, 114.779
1375.633, 85.044
1376.829, 45.209
1378.025, 92.386
1379.221, 122.765
1380.417, 103.130
1381.613, 129.743
1382.808, 165.352
1384.003, 209.958
1385.199, 221.122
1386.393, 263.547
1387.588, 255.919
1388.783, 258.494
1389.977, 229.064
1391.171, 281.319
1392.365, 213.721
1393.559, 279.165
1394.753, 207.691
1395.946, 351.236
1397.140, 370.776
1398.333, 496.312
1399.526, 581.843
1400.719, 755.370
1401.911, 997.893
1403.104, 1330.857
1404.296, 1897.345
1405.488, 2742.809
1406.680, 3787.139
1407.872, 4726.513
1409.063, 4922.994
1410.255, 4135.475
1411.446, 3150.954
1412.637, 2184.380
1413.828, 1598.762
1415.018, 1080.225
1416.209, 921.692
1417.399, 665.156
1418.589, 591.514
1419.779, 500.976
1420.969, 405.091
1422.159, 306.440
1423.348, 313.890
1424.537, 273.337
1425.726, 203.782
1426.915, 232.226
1428.104, 272.571
1429.293, 291.813
1430.481, 216.178
1431.669, 312.074
1432.857, 272.813
1434.045, 214.831
1435.233, 273.057
1436.420, 267.717
1437.608, 247.134
1438.795, 266.102
1439.982, 277.919
1441.169, 294.837
1442.355, 370.637
1443.542, 400.518
1444.728, 334.610
1445.914, 404.739
1447.100, 295.826
1448.286, 425.715
1449.472, 387.854
1450.657, 475.991
1451.842, 416.146
1453.027, 398.294
1454.212, 458.438
1455.397, 397.585
1456.581, 447.718
1457.766, 473.841
1458.950, 390.953
1460.134, 482.045
1461.318, 415.119
1462.501, 386.173
1463.685, 387.220
1464.868, 335.249
1466.051, 410.261
1467.234, 345.252
1468.417, 366.222
1469.600, 368.168
1470.782, 302.090
1471.965, 316.990
1473.147, 339.868
1474.329, 251.716
1475.510, 256.546
1476.692, 280.365
1477.873, 280.216
1479.055, 252.175
1480.236, 228.307
1481.416, 193.577
1482.597, 220.932
1483.778, 236.312
1484.958, 205.708
1486.138, 170.127
1487.318, 241.562
1488.498, 106.015
1489.678, 111.487
1490.857, 69.981
1492.037, 174.504
1493.216, 98.060
1494.395, 50.657
1495.574, 100.304
1496.752, 84.010
1497.931, 120.790
1499.109, 34.659
1500.287, 30.634
1501.465, 19.714
1502.643, 115.883
1503.820, 18.860
1504.998, 19.497
1506.175, 88.968
1507.352, 29.574
1508.529, 13.335
1509.706, 31.274
1510.882, 58.416
1512.059, 115.249
1513.235, 28.604
1514.411, 43.720
1515.587, 0.004
1516.762, 22.281
1517.938, 3.402
1519.113, 13.389
1520.288, 12.295
1521.463, 0.000
##END=



