##NAMES=Smithsonite
##RRUFFID=R040051
##IDEAL CHEMISTRY=Zn^2+^CO_3_
##LOCALITY=Berg Aukas mine, Grootfontein, Namibia
##OWNER=RRUFF
##SOURCE=University of Arizona Mineral Museum
##DESCRIPTION=Yellowish brown botryoidal groups
##STATUS=The identification of this mineral has been confirmed by X-ray diffraction and chemical analysis
##URL=rruff.info/R040051
##MEASURED CHEMISTRY=(Zn_0.94_Ca_0.02_Mg_0.02_)C_1.01_O_3_
##PIN_ID=M00001
##ORIENTATION=Laser parallel to -a* (-1 0 0). Fiducial mark perpendicular to laser is parallel to c [0 0 1]
87.798, 0.000
89.193, 126.400
90.587, 82.398
91.981, 96.786
93.375, 101.173
94.768, 88.226
96.161, 123.944
97.554, 140.172
98.947, 137.987
100.340, 111.647
101.732, 127.460
103.124, 69.420
104.516, 3.007
105.908, 102.562
107.300, 160.472
108.691, 179.085
110.082, 37.178
111.473, 106.700
112.864, 90.247
114.254, 68.936
115.644, 163.998
117.034, 42.709
118.424, 156.203
119.813, 168.421
121.203, 229.177
122.592, 181.214
123.981, 153.120
125.369, 209.706
126.758, 221.291
128.146, 119.337
129.534, 258.729
130.922, 75.710
132.309, 156.045
133.696, 83.975
135.083, 60.587
136.470, 47.836
137.857, 101.084
139.243, 61.323
140.630, 55.817
142.016, 30.847
143.401, 65.874
144.787, 27.351
146.172, 37.762
147.557, 6.696
148.942, 27.632
150.327, 14.436
151.711, 33.939
153.096, 36.755
154.480, 47.751
155.863, 54.139
157.247, 55.147
158.630, 127.436
160.013, 162.561
161.396, 194.423
162.779, 78.913
164.161, 80.377
165.544, 66.924
166.926, 24.615
168.308, 31.230
169.689, 18.231
171.070, 43.864
172.452, 69.404
173.833, 71.172
175.213, 40.034
176.594, 38.479
177.974, 47.006
179.354, 44.603
180.734, 77.254
182.114, 16.052
183.493, 82.676
184.872, 25.432
186.251, 34.201
187.630, 45.977
189.008, 80.749
190.387, 109.514
191.765, 153.270
193.143, 146.006
194.520, 155.716
195.898, 161.685
197.275, 157.001
198.652, 143.632
200.029, 140.191
201.405, 105.670
202.782, 68.065
204.158, 78.395
205.534, 75.660
206.909, 14.899
208.285, 59.114
209.660, 71.299
211.035, 11.444
212.410, 18.523
213.784, 7.575
215.159, 7.594
216.533, 32.418
217.907, 6.533
219.281, 15.553
220.654, 6.329
222.027, 20.772
223.400, 4.184
224.773, 27.972
226.146, 4.835
227.518, 64.628
228.891, 39.474
230.263, 87.253
231.634, 26.976
233.006, 42.674
234.377, 7.596
235.748, 51.215
237.119, 12.203
238.490, 110.338
239.860, 19.855
241.231, 45.355
242.601, 38.889
243.970, 56.463
245.340, 106.663
246.709, 63.312
248.079, 101.236
249.448, 55.257
250.816, 112.747
252.185, 110.690
253.553, 111.050
254.921, 169.338
256.289, 134.581
257.657, 203.374
259.024, 112.302
260.391, 192.056
261.758, 115.692
263.125, 199.997
264.492, 204.362
265.858, 298.623
267.224, 296.687
268.590, 213.592
269.956, 364.267
271.321, 354.700
272.687, 415.151
274.052, 350.339
275.416, 441.393
276.781, 425.304
278.146, 475.077
279.510, 545.886
280.874, 544.644
282.237, 675.709
283.601, 674.014
284.964, 823.065
286.327, 993.930
287.690, 1236.657
289.053, 1459.208
290.416, 1842.880
291.778, 2282.488
293.140, 2824.759
294.502, 3414.246
295.863, 4282.173
297.225, 5108.360
298.586, 6067.099
299.947, 6850.470
301.308, 7329.730
302.668, 7648.363
304.029, 7559.891
305.389, 7023.090
306.749, 6092.928
308.108, 5319.336
309.468, 4365.086
310.827, 3583.047
312.186, 2870.343
313.545, 2371.323
314.903, 1886.116
316.262, 1523.971
317.620, 1308.641
318.978, 1031.101
320.336, 901.904
321.693, 649.621
323.051, 615.934
324.408, 505.251
325.765, 469.767
327.121, 425.376
328.478, 281.704
329.834, 343.508
331.190, 315.777
332.546, 244.119
333.902, 272.335
335.257, 224.955
336.612, 316.881
337.967, 283.706
339.322, 285.227
340.677, 239.697
342.031, 225.267
343.385, 226.360
344.739, 247.156
346.093, 218.815
347.446, 252.778
348.799, 230.092
350.153, 278.523
351.505, 189.077
352.858, 119.061
354.210, 151.995
355.563, 110.109
356.915, 155.188
358.267, 150.303
359.618, 171.439
360.969, 144.552
362.321, 111.605
363.672, 126.640
365.022, 129.527
366.373, 105.255
367.723, 155.024
369.073, 152.790
370.423, 112.024
371.773, 127.712
373.122, 123.477
374.471, 188.694
375.821, 146.029
377.169, 160.481
378.518, 60.685
379.866, 120.595
381.215, 113.984
382.563, 149.992
383.910, 164.506
385.258, 138.191
386.605, 190.976
387.952, 176.516
389.299, 205.786
390.646, 129.584
391.992, 160.240
393.339, 120.169
394.685, 90.764
396.031, 172.522
397.376, 77.025
398.722, 52.844
400.067, 6.605
401.412, 92.469
402.757, 53.075
404.101, 49.946
405.446, 46.171
406.790, 33.696
408.134, 10.768
409.478, 21.343
410.821, 56.683
412.165, 29.488
413.508, 25.568
414.851, 19.604
416.193, 25.615
417.536, 14.897
418.878, 101.036
420.220, 33.245
421.562, 27.845
422.904, 35.308
424.245, 83.169
425.586, 35.277
426.927, 28.363
428.268, 42.427
429.609, 45.470
430.949, 4.492
432.289, 143.494
433.629, 58.479
434.969, 110.445
436.309, 42.396
437.648, 124.328
438.987, 80.252
440.326, 12.161
441.665, 34.053
443.003, 87.933
444.342, 61.800
445.680, 87.916
447.018, 96.501
448.355, 89.334
449.693, 96.170
451.030, 89.668
452.367, 90.771
453.704, 66.562
455.041, 72.345
456.377, 40.118
457.713, 59.632
459.049, 74.636
460.385, 93.384
461.721, 65.125
463.056, 76.860
464.391, 22.589
465.726, 128.310
467.061, 126.033
468.395, 47.752
469.730, 219.465
471.064, 73.175
472.398, 125.879
473.731, 92.586
475.065, 113.302
476.398, 59.023
477.731, 125.739
479.064, 60.450
480.397, 62.176
481.729, 156.898
483.062, 50.616
484.394, 94.326
485.725, 61.030
487.057, 149.727
488.389, 28.419
489.720, 66.104
491.051, 66.785
492.382, 81.462
493.712, 64.138
495.043, 56.819
496.373, 39.497
497.703, 67.167
499.032, 70.833
500.362, 127.496
501.691, 117.154
503.020, 9.191
504.349, 91.471
505.678, 29.112
507.007, 50.756
508.335, 130.394
509.663, 84.249
510.991, 142.193
512.319, 38.938
513.646, 118.645
514.973, 154.639
516.300, 96.529
517.627, 109.422
518.954, 97.259
520.280, 146.091
521.607, 92.933
522.933, 115.731
524.259, 114.570
525.584, 134.486
526.910, 127.531
528.235, 137.268
529.560, 134.410
530.885, 91.438
532.209, 113.902
533.534, 93.009
534.858, 134.921
536.182, 27.580
537.506, 101.382
538.829, 122.226
540.152, 55.439
541.476, 162.254
542.799, 41.468
544.121, 139.145
545.444, 102.375
546.766, 106.006
548.088, 155.647
549.410, 128.289
550.732, 142.571
552.053, 112.042
553.375, 158.803
554.696, 118.466
556.017, 97.010
557.337, 169.634
558.658, 142.236
559.978, 133.524
561.298, 139.487
562.618, 106.407
563.938, 97.128
565.257, 132.654
566.576, 168.763
567.895, 180.048
569.214, 171.458
570.533, 189.635
571.851, 168.673
573.170, 132.702
574.488, 121.696
575.805, 103.707
577.123, 96.660
578.440, 129.938
579.758, 153.949
581.075, 173.993
582.391, 187.992
583.708, 182.183
585.024, 280.262
586.341, 315.204
587.657, 267.194
588.972, 275.188
590.288, 217.000
591.603, 120.338
592.918, 239.357
594.233, 180.503
595.548, 304.436
596.863, 268.076
598.177, 293.147
599.491, 277.988
600.805, 232.556
602.119, 270.713
603.432, 299.090
604.746, 237.339
606.059, 234.387
607.372, 226.424
608.685, 211.962
609.997, 229.986
611.309, 228.991
612.621, 291.912
613.933, 332.835
615.245, 361.775
616.557, 514.690
617.868, 483.594
619.179, 558.547
620.490, 612.392
621.801, 818.277
623.111, 834.926
624.421, 965.477
625.731, 792.364
627.041, 817.213
628.351, 644.078
629.660, 492.890
630.970, 582.777
632.279, 383.609
633.588, 294.431
634.896, 275.144
636.205, 393.943
637.513, 301.641
638.821, 422.336
640.129, 567.103
641.437, 555.729
642.744, 520.473
644.051, 675.122
645.358, 658.844
646.665, 654.336
647.972, 614.976
649.278, 617.607
650.584, 551.286
651.890, 682.886
653.196, 509.444
654.502, 583.921
655.807, 347.502
657.113, 290.088
658.418, 264.700
659.722, 199.300
661.027, 103.373
662.331, 165.951
663.636, 139.311
664.940, 125.750
666.244, 53.295
667.547, 30.827
668.851, 77.347
670.154, 76.690
671.457, 18.187
672.760, 21.668
674.062, 34.136
675.365, 45.591
676.667, 44.779
677.969, 40.467
679.271, 37.889
680.572, 37.486
681.874, 18.694
683.175, 11.734
684.476, 16.559
685.777, 7.223
687.077, 21.912
688.378, 12.635
689.678, 10.615
690.978, 4.152
692.278, 79.942
693.577, 28.946
694.877, 70.920
696.176, 7.157
697.475, 23.053
698.774, 9.902
700.072, 52.893
701.371, 5.900
702.669, 17.108
703.967, 57.854
705.265, 55.804
706.562, 28.258
707.860, 79.354
709.157, 36.512
710.454, 99.708
711.751, 66.024
713.047, 20.674
714.344, 22.616
715.640, 11.063
716.936, 42.270
718.232, 3.357
719.527, 26.083
720.823, 9.399
722.118, 113.975
723.413, 15.543
724.708, 102.101
726.002, 183.654
727.297, 104.198
728.591, 318.738
729.885, 325.271
731.179, 298.796
732.472, 198.257
733.766, 150.682
735.059, 104.182
736.352, 120.674
737.645, 84.164
738.937, 138.646
740.230, 48.119
741.522, 165.583
742.814, 128.041
744.106, 156.491
745.397, 127.934
746.689, 26.369
747.980, 103.796
749.271, 94.215
750.562, 107.626
751.853, 16.970
753.143, 159.413
754.433, 46.789
755.723, 4.843
757.013, 40.512
758.303, 0.141
759.592, 12.195
760.881, 57.522
762.170, 79.842
763.459, 46.155
764.748, 2.539
766.036, 83.755
767.325, 50.043
768.613, 85.324
769.901, 12.599
771.188, 34.866
772.476, 72.128
773.763, 45.383
775.050, 52.632
776.337, 106.875
777.624, 75.113
778.910, 25.654
780.196, 105.558
781.482, 12.765
782.768, 71.965
784.054, 57.160
785.339, 29.349
786.625, 62.532
787.910, 76.711
789.195, 60.884
790.479, 98.052
791.764, 117.215
793.048, 186.374
794.332, 99.528
795.616, 86.677
796.900, 148.822
798.183, 119.962
799.467, 127.099
800.750, 107.230
802.033, 92.358
803.316, 145.482
804.598, 76.602
805.880, 148.717
807.163, 78.829
808.445, 131.936
809.726, 68.041
811.008, 148.141
812.289, 146.238
813.570, 118.331
814.851, 163.421
816.132, 112.493
817.413, 119.578
818.693, 135.660
819.973, 131.739
821.253, 212.594
822.533, 240.596
823.813, 252.548
825.092, 287.185
826.371, 234.179
827.650, 312.894
828.929, 320.794
830.208, 338.943
831.486, 201.750
832.764, 209.448
834.042, 249.225
835.320, 266.999
836.598, 299.685
837.875, 282.170
839.152, 285.021
840.429, 451.465
841.706, 357.990
842.983, 394.099
844.259, 521.558
845.536, 395.206
846.812, 502.102
848.088, 439.849
849.363, 490.336
850.639, 547.688
851.914, 504.444
853.189, 612.819
854.464, 624.725
855.739, 787.088
857.013, 810.052
858.288, 878.999
859.562, 933.941
860.836, 883.247
862.110, 779.357
863.383, 750.182
864.656, 707.054
865.930, 660.084
867.203, 548.930
868.475, 488.691
869.748, 384.443
871.020, 401.008
872.292, 342.783
873.564, 355.065
874.836, 320.827
876.108, 347.984
877.379, 391.863
878.650, 413.027
879.922, 334.195
881.192, 310.366
882.463, 304.541
883.733, 241.719
885.004, 270.900
886.274, 253.085
887.544, 382.274
888.813, 292.468
890.083, 266.665
891.352, 436.865
892.621, 330.070
893.890, 437.180
895.159, 411.392
896.427, 301.632
897.695, 405.892
898.964, 366.161
900.232, 373.266
901.499, 356.564
902.767, 285.867
904.034, 248.175
905.301, 207.970
906.568, 338.287
907.835, 323.545
909.102, 264.165
910.368, 204.420
911.634, 325.359
912.900, 215.534
914.166, 283.920
915.432, 206.328
916.697, 78.701
917.962, 142.640
919.227, 197.065
920.492, 67.485
921.757, 119.921
923.021, 131.201
924.285, 109.589
925.550, 125.053
926.813, 78.532
928.077, 67.029
929.341, 142.531
930.604, 168.040
931.867, 118.900
933.130, 74.421
934.393, 176.824
935.655, 108.357
936.918, 226.896
938.180, 23.396
939.442, 135.947
940.703, 130.503
941.965, 85.064
943.226, 85.632
944.488, 115.206
945.749, 172.785
947.009, 81.370
948.270, 115.961
949.530, 61.559
950.791, 175.162
952.051, 118.771
953.311, 67.386
954.570, 173.007
955.830, 195.634
957.089, 159.267
958.348, 56.906
959.607, 11.552
960.866, 91.203
962.124, 59.861
963.383, 139.524
964.641, 128.194
965.899, 92.870
967.156, 93.552
968.414, 136.240
969.671, 80.935
970.928, 64.635
972.185, 128.342
973.442, 19.944
974.699, 67.774
975.955, 6.500
977.211, 14.231
978.468, 46.972
979.723, 13.280
980.979, 24.527
982.234, 42.230
983.490, 46.005
984.745, 95.759
986.000, 117.530
987.254, 96.309
988.509, 180.095
989.763, 109.890
991.017, 44.277
992.271, 115.101
993.525, 157.942
994.779, 137.798
996.032, 193.663
997.285, 273.541
998.538, 433.450
999.791, 874.188
1001.044, 962.260
1002.296, 1123.346
1003.548, 760.448
1004.800, 421.496
1006.052, 351.364
1007.304, 143.176
1008.555, 176.191
1009.807, 200.203
1011.058, 251.624
1012.309, 313.657
1013.559, 317.071
1014.810, 249.659
1016.060, 337.814
1017.310, 344.939
1018.560, 367.070
1019.810, 461.215
1021.060, 616.367
1022.309, 489.539
1023.558, 637.719
1024.807, 494.915
1026.056, 590.161
1027.305, 648.367
1028.553, 525.579
1029.801, 563.875
1031.049, 537.096
1032.297, 495.358
1033.545, 552.586
1034.793, 599.819
1036.040, 507.056
1037.287, 571.296
1038.534, 651.541
1039.781, 594.789
1041.027, 652.042
1042.274, 713.299
1043.520, 752.622
1044.766, 798.887
1046.012, 807.621
1047.257, 826.699
1048.503, 1004.844
1049.748, 897.656
1050.993, 1114.113
1052.238, 995.507
1053.483, 973.911
1054.727, 993.229
1055.971, 1139.557
1057.216, 1116.887
1058.459, 1169.868
1059.703, 1110.648
1060.947, 1323.517
1062.190, 1320.321
1063.433, 1470.500
1064.676, 1473.769
1065.919, 1714.140
1067.162, 1903.900
1068.404, 1888.344
1069.646, 2100.723
1070.888, 2271.102
1072.130, 2463.481
1073.372, 2782.760
1074.613, 3195.741
1075.855, 3489.266
1077.096, 4153.650
1078.337, 4989.081
1079.578, 5854.466
1080.818, 7119.942
1082.059, 8603.746
1083.299, 10697.144
1084.539, 13213.535
1085.779, 16582.932
1087.018, 21105.324
1088.258, 27493.719
1089.497, 34891.121
1090.736, 43354.512
1091.975, 49551.898
1093.213, 50755.297
1094.452, 46369.688
1095.690, 36915.078
1096.928, 28395.475
1098.166, 20511.863
1099.404, 15188.257
1100.642, 10949.650
1101.879, 8356.042
1103.116, 6291.433
1104.353, 4993.822
1105.590, 3901.210
1106.827, 3232.600
1108.063, 2533.987
1109.299, 2242.374
1110.536, 1878.761
1111.771, 1529.146
1113.007, 1411.530
1114.243, 1185.914
1115.478, 988.296
1116.713, 1020.677
1117.948, 742.056
1119.183, 679.435
1120.418, 731.812
1121.652, 660.188
1122.886, 624.318
1124.120, 632.691
1125.354, 412.063
1126.588, 475.432
1127.821, 231.800
1129.055, 304.031
1130.288, 297.058
1131.521, 213.420
1132.753, 179.872
1133.986, 227.230
1135.218, 296.587
1136.450, 113.942
1137.682, 220.295
1138.914, 22.354
1140.146, 91.979
1141.377, 39.310
1142.609, 40.639
1143.840, 69.965
1145.071, 73.290
1146.301, 42.611
1147.532, 40.071
1148.762, 12.781
1149.992, 28.505
1151.222, 60.251
1152.452, 7.963
1153.682, 23.828
1154.911, 6.639
1156.140, 24.537
1157.369, 60.709
1158.598, 31.122
1159.827, 50.022
1161.055, 37.838
1162.284, 36.271
1163.512, 21.377
1164.740, 67.479
1165.967, 68.788
1167.195, 127.669
1168.422, 83.757
1169.650, 38.841
1170.877, 90.921
1172.103, 82.995
1173.330, 6.936
1174.557, 204.119
1175.783, 52.170
1177.009, 16.215
1178.235, 154.254
1179.461, 27.289
1180.686, 43.318
1181.912, 123.343
1183.137, 101.362
1184.362, 77.376
1185.587, 66.386
1186.811, 148.390
1188.036, 65.485
1189.260, 122.480
1190.484, 25.521
1191.708, 80.564
1192.932, 74.458
1194.155, 47.103
1195.378, 0.215
1196.602, 5.659
1197.825, 51.630
1199.047, 27.118
1200.270, 26.409
1201.492, 151.527
1202.715, 97.621
1203.937, 84.167
1205.159, 8.472
1206.380, 13.253
1207.602, 53.977
1208.823, 14.507
1210.044, 25.777
1211.265, 43.039
1212.486, 72.608
1213.707, 16.249
1214.927, 38.879
1216.147, 54.504
1217.367, 114.124
1218.587, 73.740
1219.807, 5.351
1221.027, 6.052
1222.246, 62.475
1223.465, 80.054
1224.684, 44.578
1225.903, 57.096
1227.121, 33.609
1228.340, 16.118
1229.558, 66.619
1230.776, 65.115
1231.994, 72.616
1233.212, 106.112
1234.429, 130.605
1235.646, 217.095
1236.864, 258.579
1238.081, 156.059
1239.297, 218.533
1240.514, 297.002
1241.730, 135.465
1242.947, 189.922
1244.163, 207.372
1245.378, 220.817
1246.594, 226.256
1247.810, 124.688
1249.025, 275.115
1250.240, 135.535
1251.455, 180.949
1252.670, 194.357
1253.885, 159.760
1255.099, 154.155
1256.313, 86.545
1257.527, 95.152
1258.741, 189.304
1259.955, 97.674
1261.168, 194.037
1262.382, 221.396
1263.595, 219.746
1264.808, 256.091
1266.021, 326.429
1267.233, 217.760
1268.446, 370.085
1269.658, 267.405
1270.870, 354.720
1272.082, 380.029
1273.294, 401.331
1274.505, 377.629
1275.716, 380.922
1276.928, 363.209
1278.139, 306.492
1279.349, 291.774
1280.560, 217.050
1281.770, 358.320
1282.981, 174.585
1284.191, 187.845
1285.401, 231.523
1286.610, 111.772
1287.820, 249.015
1289.029, 89.251
1290.239, 267.473
1291.448, 274.688
1292.656, 334.874
1293.865, 246.226
1295.073, 346.269
1296.282, 258.283
1297.490, 218.271
1298.698, 253.321
1299.906, 225.554
1301.113, 240.847
1302.320, 244.947
1303.528, 207.054
1304.735, 126.753
1305.942, 257.854
1307.148, 300.097
1308.355, 270.191
1309.561, 422.246
1310.767, 271.333
1311.973, 341.418
1313.179, 293.499
1314.384, 380.578
1315.590, 327.654
1316.795, 338.728
1318.000, 336.798
1319.205, 404.820
1320.410, 358.886
1321.614, 280.948
1322.819, 399.928
1324.023, 355.986
1325.227, 340.004
1326.431, 262.058
1327.634, 218.109
1328.838, 159.159
1330.041, 149.209
1331.244, 129.256
1332.447, 5.303
1333.650, 46.347
1334.852, 15.391
1336.055, 13.372
1337.257, 55.412
1338.459, 22.013
1339.661, 95.225
1340.862, 66.397
1342.064, 31.089
1343.265, 34.215
1344.466, 11.270
1345.667, 8.330
1346.868, 9.704
1348.068, 5.742
1349.269, 44.215
1350.469, 85.187
1351.669, 100.799
1352.869, 34.667
1354.069, 156.943
1355.268, 1.811
1356.468, 33.002
1357.667, 51.056
1358.866, 20.132
1360.065, 58.164
1361.263, 36.274
1362.462, 71.630
1363.660, 79.249
1364.858, 124.132
1366.056, 92.708
1367.254, 143.761
1368.451, 135.975
1369.649, 77.167
1370.846, 250.429
1372.043, 149.665
1373.240, 198.669
1374.436, 280.005
1375.633, 280.329
1376.829, 303.725
1378.025, 299.159
1379.221, 317.617
1380.417, 348.835
1381.613, 376.986
1382.808, 488.027
1384.003, 619.994
1385.199, 569.005
1386.393, 725.007
1387.588, 857.002
1388.783, 871.987
1389.977, 706.965
1391.171, 758.934
1392.365, 743.896
1393.559, 897.848
1394.753, 929.793
1395.946, 1093.729
1397.140, 1259.657
1398.333, 1547.578
1399.526, 1837.491
1400.719, 2529.396
1401.911, 3288.292
1403.104, 4571.182
1404.296, 6358.060
1405.488, 9254.932
1406.680, 12673.803
1407.872, 15679.676
1409.063, 16216.537
1410.255, 13548.397
1411.446, 10295.284
1412.637, 7160.219
1413.828, 5041.184
1415.018, 3659.166
1416.209, 2772.160
1417.399, 1987.181
1418.589, 1744.218
1419.779, 1370.253
1420.969, 1254.285
1422.159, 1067.317
1423.348, 938.354
1424.537, 865.397
1425.726, 764.729
1426.915, 706.482
1428.104, 666.523
1429.293, 599.563
1430.481, 583.460
1431.669, 678.328
1432.857, 662.224
1434.045, 569.359
1435.233, 829.644
1436.420, 742.536
1437.608, 802.597
1438.795, 892.641
1439.982, 948.859
1441.169, 1033.909
1442.355, 1104.125
1443.542, 1175.171
1444.728, 1205.576
1445.914, 1319.807
1447.100, 1287.111
1448.286, 1350.456
1449.472, 1228.801
1450.657, 1424.150
1451.842, 1503.463
1453.027, 1391.770
1454.212, 1533.072
1455.397, 1430.379
1456.581, 1398.693
1457.766, 1573.016
1458.950, 1327.352
1460.134, 1424.697
1461.318, 1404.059
1462.501, 1246.434
1463.685, 1212.824
1464.868, 1038.233
1466.051, 1177.662
1467.234, 968.110
1468.417, 1014.582
1469.600, 826.075
1470.782, 850.589
1471.965, 665.122
1473.147, 641.714
1474.329, 686.247
1475.510, 597.843
1476.692, 568.460
1477.873, 608.102
1479.055, 561.778
1480.236, 565.204
1481.416, 614.530
1482.597, 537.644
1483.778, 542.959
1484.958, 513.337
1486.138, 448.777
1487.318, 405.021
1488.498, 399.850
1489.678, 290.493
1490.857, 232.221
1492.037, 231.040
1493.216, 246.956
1494.395, 256.979
1495.574, 192.122
1496.752, 131.392
1497.931, 88.803
1499.109, 135.368
1500.287, 124.104
1501.465, 112.033
1502.643, 17.179
1503.820, 8.447
1504.998, 78.155
1506.175, 1.007
1507.352, 76.090
1508.529, 50.479
1509.706, 37.193
1510.882, 109.274
1512.059, 44.768
1513.235, 35.723
1514.411, 30.197
1515.587, 170.019
1516.762, 14.303
1517.938, 158.390
1519.113, 178.695
1520.288, 144.903
1521.463, 90.502
1522.638, 56.175
1523.813, 71.676
1524.987, 0.000
##END=



