##NAMES=Smithsonite
##RRUFFID=R040051
##IDEAL CHEMISTRY=Zn^2+^CO_3_
##LOCALITY=Berg Aukas mine, Grootfontein, Namibia
##OWNER=RRUFF
##SOURCE=University of Arizona Mineral Museum
##DESCRIPTION=Yellowish brown botryoidal groups
##STATUS=The identification of this mineral has been confirmed by X-ray diffraction and chemical analysis
##URL=rruff.info/R040051
##MEASURED CHEMISTRY=(Zn_0.94_Ca_0.02_Mg_0.02_)C_1.01_O_3_
##PIN_ID=M00001
##ORIENTATION=Laser parallel to -a* (-1 0 0). Fiducial mark perpendicular to laser is parallel to c [0 0 1]
83.614, 0.000
85.009, 28.951
86.404, 28.684
87.798, 73.231
89.193, 83.714
90.587, 77.606
91.981, 111.999
93.375, 105.413
94.768, 117.219
96.161, 87.136
97.554, 119.485
98.947, 126.812
100.340, 132.949
101.732, 143.448
103.124, 151.203
104.516, 168.269
105.908, 187.780
107.300, 183.841
108.691, 174.630
110.082, 121.417
111.473, 118.926
112.864, 204.114
114.254, 419.307
115.644, 439.324
117.034, 391.740
118.424, 283.109
119.813, 164.426
121.203, 141.855
122.592, 122.446
123.981, 104.964
125.369, 81.528
126.758, 59.136
128.146, 51.055
129.534, 33.573
130.922, 33.217
132.309, 22.992
133.696, 8.804
135.083, 28.651
136.470, 25.471
137.857, 19.436
139.243, 9.629
140.630, 16.330
142.016, 0.312
143.401, 14.311
144.787, 2.327
146.172, 15.358
147.557, 20.596
148.942, 18.536
150.327, 25.463
151.711, 15.378
153.096, 24.726
154.480, 15.832
155.863, 6.052
157.247, 39.078
158.630, 50.216
160.013, 83.376
161.396, 17.548
162.779, 47.732
164.161, 47.934
165.544, 74.173
166.926, 150.447
168.308, 94.738
169.689, 144.057
171.070, 190.403
172.452, 160.771
173.833, 211.161
175.213, 260.573
176.594, 238.999
177.974, 315.434
179.354, 460.888
180.734, 521.361
182.114, 556.834
183.493, 778.308
184.872, 996.778
186.251, 1361.244
187.630, 1717.709
189.008, 2303.173
190.387, 2886.644
191.765, 3567.119
193.143, 3988.590
194.520, 4204.047
195.898, 4204.503
197.275, 3699.962
198.652, 3125.408
200.029, 2405.817
201.405, 1833.199
202.782, 1315.576
204.158, 949.948
205.534, 683.319
206.909, 503.697
208.285, 392.082
209.660, 359.467
211.035, 238.850
212.410, 196.231
213.784, 174.614
215.159, 140.996
216.533, 183.376
217.907, 120.757
219.281, 114.134
220.654, 75.508
222.027, 24.877
223.400, 70.243
224.773, 26.606
226.146, 58.968
227.518, 83.343
228.891, 81.908
230.263, 85.260
231.634, 112.671
233.006, 74.013
234.377, 55.872
235.748, 76.615
237.119, 105.951
238.490, 149.365
239.860, 128.993
241.231, 112.605
242.601, 136.220
243.970, 132.976
245.340, 160.600
246.709, 174.123
248.079, 202.328
249.448, 210.915
250.816, 226.769
252.185, 247.831
253.553, 213.788
254.921, 331.406
256.289, 276.354
257.657, 342.461
259.024, 341.289
260.391, 384.714
261.758, 422.083
263.125, 422.554
264.492, 493.859
265.858, 509.754
267.224, 541.575
268.590, 594.385
269.956, 675.193
271.321, 677.842
272.687, 822.082
274.052, 757.140
275.416, 953.534
276.781, 1040.033
278.146, 1070.501
279.510, 1249.903
280.874, 1337.558
282.237, 1619.848
283.601, 1855.144
284.964, 2081.547
286.327, 2576.825
287.690, 2867.177
289.053, 3581.645
290.416, 4447.161
291.778, 5396.429
293.140, 6689.963
294.502, 8229.392
295.863, 10276.935
297.225, 12532.294
298.586, 14796.559
299.947, 17157.883
301.308, 18783.109
302.668, 19721.520
304.029, 19946.340
305.389, 18849.670
306.749, 16708.693
308.108, 14397.804
309.468, 11700.020
310.827, 9435.321
312.186, 7663.977
313.545, 6060.349
314.903, 4891.816
316.262, 3931.023
317.620, 3190.249
318.978, 2644.515
320.336, 2082.302
321.693, 1788.628
323.051, 1520.962
324.408, 1279.285
325.765, 1086.618
327.121, 895.104
328.478, 784.414
329.834, 701.872
331.190, 605.301
332.546, 519.732
333.902, 536.961
335.257, 439.350
336.612, 425.566
337.967, 401.832
339.322, 340.147
340.677, 307.689
342.031, 347.965
343.385, 278.331
344.739, 348.658
346.093, 255.934
347.446, 270.294
348.799, 203.755
350.153, 239.921
351.505, 223.189
352.858, 185.403
354.210, 149.524
355.563, 174.694
356.915, 146.853
358.267, 167.049
359.618, 136.206
360.969, 152.302
362.321, 88.457
363.672, 98.971
365.022, 91.145
366.373, 108.418
367.723, 119.496
369.073, 44.611
370.423, 30.707
371.773, 21.825
373.122, 48.078
374.471, 69.208
375.821, 35.337
377.169, 69.608
378.518, 54.747
379.866, 55.848
381.215, 59.045
382.563, 4.887
383.910, 0.231
385.258, 17.307
386.605, 50.473
387.952, 49.683
389.299, 30.842
390.646, 54.975
391.992, 2.117
393.339, 37.256
394.685, 26.368
396.031, 10.609
397.376, 42.364
398.722, 0.411
400.067, 0.611
401.412, 15.458
402.757, 29.420
404.101, 15.529
405.446, 5.580
406.790, 5.473
408.134, 15.347
409.478, 15.552
410.821, 45.511
412.165, 7.387
413.508, 1.706
414.851, 4.147
416.193, 9.862
417.536, 7.636
418.878, 1.517
420.220, 32.303
421.562, 6.804
422.904, 6.971
424.245, 5.735
425.586, 5.512
426.927, 3.623
428.268, 9.969
429.609, 8.742
430.949, 7.026
432.289, 38.139
433.629, 6.031
434.969, 3.362
436.309, 9.707
437.648, 43.931
438.987, 47.564
440.326, 69.616
441.665, 1.797
443.003, 92.399
444.342, 53.993
445.680, 25.585
447.018, 56.168
448.355, 38.743
449.693, 11.346
451.030, 5.951
452.367, 59.566
453.704, 4.112
455.041, 21.761
456.377, 14.714
457.713, 30.791
459.049, 28.287
460.385, 11.226
461.721, 67.243
463.056, 16.712
464.391, 18.828
465.726, 32.614
467.061, 37.052
468.395, 8.512
469.730, 23.914
471.064, 38.342
472.398, 90.771
473.731, 2.803
475.065, 42.620
476.398, 20.041
477.731, 101.457
479.064, 46.862
480.397, 29.259
481.729, 40.646
483.062, 38.025
484.394, 40.393
485.725, 30.751
487.057, 7.104
488.389, 10.555
489.720, 9.768
491.051, 13.084
492.382, 12.388
493.712, 57.681
495.043, 18.964
496.373, 59.235
497.703, 46.496
499.032, 33.746
500.362, 1.985
501.691, 41.210
503.020, 18.425
504.349, 26.772
505.678, 38.280
507.007, 17.975
508.335, 5.547
509.663, 62.993
510.991, 37.349
512.319, 49.570
513.646, 77.078
514.973, 58.349
516.300, 59.505
517.627, 49.798
518.954, 57.951
520.280, 87.272
521.607, 56.665
522.933, 2.685
524.259, 52.280
525.584, 27.526
526.910, 85.656
528.235, 66.581
529.560, 113.520
530.885, 76.781
532.209, 44.260
533.534, 72.446
534.858, 71.572
536.182, 40.689
537.506, 70.644
538.829, 79.082
540.152, 54.969
541.476, 95.059
542.799, 70.368
544.121, 78.305
545.444, 56.129
546.766, 44.042
548.088, 54.965
549.410, 59.743
550.732, 55.882
552.053, 55.653
553.375, 60.518
554.696, 87.416
556.017, 102.155
557.337, 71.253
558.658, 91.730
559.978, 62.317
561.298, 97.841
562.618, 62.410
563.938, 82.860
565.257, 54.919
566.576, 24.334
567.895, 140.745
569.214, 66.186
570.533, 93.740
571.851, 74.115
573.170, 89.318
574.488, 48.639
575.805, 3.298
577.123, 75.612
578.440, 78.753
579.758, 59.153
581.075, 93.931
582.391, 98.186
583.708, 104.418
585.024, 78.232
586.341, 119.421
587.657, 68.650
588.972, 135.855
590.288, 121.033
591.603, 47.525
592.918, 98.217
594.233, 148.221
595.548, 86.654
596.863, 80.147
598.177, 135.562
599.491, 151.980
600.805, 97.165
602.119, 134.472
603.432, 123.334
604.746, 151.659
606.059, 86.086
607.372, 75.401
608.685, 72.688
609.997, 67.980
611.309, 83.388
612.621, 55.448
613.933, 156.621
615.245, 138.536
616.557, 193.669
617.868, 148.712
619.179, 166.976
620.490, 215.120
621.801, 273.412
623.111, 229.141
624.421, 330.156
625.731, 276.913
627.041, 264.393
628.351, 208.250
629.660, 137.475
630.970, 189.592
632.279, 118.211
633.588, 149.209
634.896, 95.037
636.205, 178.042
637.513, 138.978
638.821, 140.806
640.129, 139.841
641.437, 155.818
642.744, 168.655
644.051, 162.815
645.358, 220.464
646.665, 214.583
647.972, 204.387
649.278, 128.042
650.584, 188.677
651.890, 239.627
653.196, 169.274
654.502, 181.091
655.807, 159.828
657.113, 101.500
658.418, 137.927
659.722, 99.604
661.027, 50.175
662.331, 19.780
663.636, 11.179
664.940, 15.013
666.244, 21.415
667.547, 33.096
668.851, 62.655
670.154, 15.253
671.457, 44.923
672.760, 69.529
674.062, 34.127
675.365, 64.671
676.667, 24.237
677.969, 16.845
679.271, 0.380
680.572, 8.534
681.874, 27.010
683.175, 51.369
684.476, 15.094
685.777, 63.619
687.077, 22.162
688.378, 6.245
689.678, 23.498
690.978, 33.856
692.278, 20.802
693.577, 68.372
694.877, 7.661
696.176, 117.967
697.475, 26.162
698.774, 63.469
700.072, 30.708
701.371, 45.969
702.669, 54.125
703.967, 47.220
705.265, 59.350
706.562, 68.489
707.860, 5.601
709.157, 33.697
710.454, 15.801
711.751, 29.998
713.047, 8.185
714.344, 67.297
715.640, 30.461
716.936, 72.518
718.232, 177.663
719.527, 197.702
720.823, 225.825
722.118, 305.825
723.413, 381.676
724.708, 613.789
726.002, 1038.819
727.297, 1457.914
728.591, 2099.961
729.885, 2344.041
731.179, 1951.965
732.472, 1299.358
733.766, 901.385
735.059, 583.417
736.352, 404.360
737.645, 296.398
738.937, 277.428
740.230, 166.451
741.522, 131.450
742.814, 118.459
744.106, 165.403
745.397, 127.398
746.689, 18.385
747.980, 112.216
749.271, 23.189
750.562, 70.154
751.853, 10.116
753.143, 29.064
754.433, 38.007
755.723, 20.942
757.013, 62.868
758.303, 17.213
759.592, 11.684
760.881, 14.573
762.170, 10.548
763.459, 4.283
764.748, 2.638
766.036, 8.638
767.325, 26.094
768.613, 20.807
769.901, 51.628
771.188, 32.447
772.476, 48.258
773.763, 9.064
775.050, 70.865
776.337, 0.660
777.624, 11.445
778.910, 10.501
780.196, 22.385
781.482, 15.256
782.768, 41.523
784.054, 30.869
785.339, 32.855
786.625, 13.476
787.910, 32.185
789.195, 59.834
790.479, 53.053
791.764, 40.351
793.048, 75.750
794.332, 3.377
795.616, 10.998
796.900, 73.612
798.183, 18.779
799.467, 40.813
800.750, 1.599
802.033, 16.015
803.316, 79.554
804.598, 58.119
805.880, 8.679
807.163, 40.234
808.445, 34.785
809.726, 41.331
811.008, 68.871
812.289, 53.158
813.570, 35.942
814.851, 35.471
816.132, 31.852
817.413, 14.056
818.693, 33.058
819.973, 56.191
821.253, 33.410
822.533, 76.705
823.813, 60.175
825.092, 40.232
826.371, 56.567
827.650, 54.002
828.929, 74.311
830.208, 109.739
831.486, 57.965
832.764, 86.659
834.042, 55.158
835.320, 82.065
836.598, 132.389
837.875, 144.731
839.152, 139.586
840.429, 160.756
841.706, 100.851
842.983, 132.676
844.259, 123.887
845.536, 169.148
846.812, 175.116
848.088, 193.648
849.363, 189.655
850.639, 216.099
851.914, 185.326
853.189, 158.708
854.464, 248.961
855.739, 258.283
857.013, 189.640
858.288, 221.973
859.562, 304.358
860.836, 317.782
862.110, 241.678
863.383, 269.957
864.656, 256.145
865.930, 255.410
867.203, 189.434
868.475, 177.857
869.748, 157.127
871.020, 117.283
872.292, 106.013
873.564, 64.456
874.836, 92.897
876.108, 81.338
877.379, 120.780
878.650, 115.221
879.922, 106.661
881.192, 80.101
882.463, 95.541
883.733, 138.981
885.004, 110.420
886.274, 107.862
887.544, 101.304
888.813, 97.747
890.083, 109.188
891.352, 105.428
892.621, 130.071
893.890, 124.513
895.159, 101.955
896.427, 138.398
897.695, 177.841
898.964, 141.293
900.232, 96.564
901.499, 129.019
902.767, 177.316
904.034, 94.772
905.301, 123.020
906.568, 104.360
907.835, 170.739
909.102, 102.049
910.368, 126.520
911.634, 48.409
912.900, 93.705
914.166, 121.031
915.432, 89.393
916.697, 51.655
917.962, 115.855
919.227, 17.824
920.492, 82.567
921.757, 66.939
923.021, 70.444
924.285, 87.872
925.550, 29.379
926.813, 71.730
928.077, 36.266
929.341, 58.448
930.604, 80.819
931.867, 51.334
933.130, 73.115
934.393, 95.361
935.655, 12.972
936.918, 91.283
938.180, 49.802
939.442, 0.233
940.703, 32.758
941.965, 76.347
943.226, 55.938
944.488, 47.511
945.749, 31.107
947.009, 25.901
948.270, 66.997
949.530, 23.609
950.791, 42.848
952.051, 54.459
953.311, 28.765
954.570, 93.225
955.830, 6.851
957.089, 122.479
958.348, 30.982
959.607, 45.615
960.866, 19.237
962.124, 24.876
963.383, 67.519
964.641, 43.163
965.899, 50.819
967.156, 55.481
968.414, 46.133
969.671, 32.717
970.928, 2.610
972.185, 52.068
973.442, 11.750
974.699, 57.435
975.955, 9.123
977.211, 4.815
978.468, 123.511
979.723, 2.791
980.979, 2.089
982.234, 99.615
983.490, 26.677
984.745, 60.030
986.000, 88.744
987.254, 7.538
988.509, 103.184
989.763, 71.908
991.017, 5.645
992.271, 60.404
993.525, 70.179
994.779, 106.959
996.032, 101.744
997.285, 145.532
998.538, 86.332
999.791, 364.135
1001.044, 352.943
1002.296, 424.822
1003.548, 285.637
1004.800, 201.053
1006.052, 214.984
1007.304, 129.884
1008.555, 197.914
1009.807, 105.743
1011.058, 148.653
1012.309, 137.488
1013.559, 139.329
1014.810, 142.173
1016.060, 194.020
1017.310, 245.870
1018.560, 266.812
1019.810, 262.669
1021.060, 321.528
1022.309, 353.390
1023.558, 418.253
1024.807, 289.120
1026.056, 382.102
1027.305, 373.973
1028.553, 489.845
1029.801, 420.719
1031.049, 370.595
1032.297, 423.532
1033.545, 499.507
1034.793, 501.389
1036.040, 519.343
1037.287, 611.309
1038.534, 676.198
1039.781, 712.123
1041.027, 632.015
1042.274, 621.911
1043.520, 725.955
1044.766, 760.868
1046.012, 805.999
1047.257, 730.918
1048.503, 902.026
1049.748, 871.970
1050.993, 1007.154
1052.238, 1065.233
1053.483, 1028.335
1054.727, 1087.275
1055.971, 1104.752
1057.216, 1037.754
1058.459, 1135.705
1059.703, 1191.778
1060.947, 1271.521
1062.190, 1279.608
1063.433, 1426.292
1064.676, 1496.812
1065.919, 1660.784
1067.162, 1882.867
1068.404, 1941.843
1069.646, 2148.442
1070.888, 2416.511
1072.130, 2530.490
1073.372, 2825.471
1074.613, 3201.817
1075.855, 3741.942
1077.096, 4366.069
1078.337, 5220.070
1079.578, 6091.055
1080.818, 7452.641
1082.059, 8900.684
1083.299, 11252.038
1084.539, 13761.153
1085.779, 17501.424
1087.018, 22403.541
1088.258, 29088.564
1089.497, 37423.590
1090.736, 46421.625
1091.975, 53391.762
1093.213, 54634.918
1094.452, 50477.949
1095.690, 40130.977
1096.928, 30920.002
1098.166, 22620.369
1099.404, 16732.396
1100.642, 11955.429
1101.879, 9192.858
1103.116, 6936.889
1104.353, 5448.924
1105.590, 4312.960
1106.827, 3583.110
1108.063, 2888.144
1109.299, 2408.322
1110.536, 2019.484
1111.771, 1643.513
1113.007, 1504.542
1114.243, 1216.613
1115.478, 1123.351
1116.713, 1032.375
1117.948, 875.396
1119.183, 704.546
1120.418, 685.542
1121.652, 688.560
1122.886, 701.576
1124.120, 621.589
1125.354, 365.602
1126.588, 389.612
1127.821, 338.620
1129.055, 415.601
1130.288, 334.586
1131.521, 335.589
1132.753, 211.035
1133.986, 181.033
1135.218, 216.029
1136.450, 151.940
1137.682, 215.026
1138.914, 165.016
1140.146, 79.002
1141.377, 107.532
1142.609, 36.514
1143.840, 89.494
1145.071, 129.548
1146.301, 99.521
1147.532, 129.492
1148.762, 94.031
1149.992, 9.424
1151.222, 37.385
1152.452, 24.658
1153.682, 16.718
1154.911, 9.208
1156.140, 17.869
1157.369, 52.138
1158.598, 10.095
1159.827, 73.268
1161.055, 76.233
1162.284, 35.127
1163.512, 84.018
1164.740, 77.904
1165.967, 9.787
1167.195, 78.666
1168.422, 36.542
1169.650, 88.413
1170.877, 40.281
1172.103, 42.145
1173.330, 6.004
1174.557, 80.860
1175.783, 80.711
1177.009, 36.559
1178.235, 56.402
1179.461, 21.242
1180.686, 13.078
1181.912, 72.908
1183.137, 19.757
1184.362, 17.579
1185.587, 88.396
1186.811, 29.209
1188.036, 94.111
1189.260, 118.005
1190.484, 6.504
1191.708, 66.887
1192.932, 4.331
1194.155, 80.114
1195.378, 26.738
1196.602, 41.018
1197.825, 4.845
1199.047, 10.908
1200.270, 8.646
1201.492, 66.596
1202.715, 31.586
1203.937, 33.133
1205.159, 68.841
1206.380, 19.532
1207.602, 50.734
1208.823, 18.915
1210.044, 49.442
1211.265, 14.836
1212.486, 84.751
1213.707, 23.393
1214.927, 81.006
1216.147, 48.579
1217.367, 29.193
1218.587, 85.758
1219.807, 52.326
1221.027, 27.090
1222.246, 7.551
1223.465, 16.973
1224.684, 47.494
1225.903, 104.011
1227.121, 30.477
1228.340, 40.008
1229.558, 10.510
1230.776, 25.956
1231.994, 56.584
1233.212, 30.834
1234.429, 83.247
1235.646, 66.654
1236.864, 148.056
1238.081, 26.453
1239.297, 23.843
1240.514, 84.226
1241.730, 53.605
1242.947, 67.969
1244.163, 25.672
1245.378, 82.671
1246.594, 70.008
1247.810, 6.341
1249.025, 112.666
1250.240, 112.985
1251.455, 66.286
1252.670, 26.583
1253.885, 68.872
1255.099, 20.157
1256.313, 23.436
1257.527, 94.709
1258.741, 154.978
1259.955, 20.760
1261.168, 0.489
1262.382, 59.729
1263.595, 136.963
1264.808, 24.188
1266.021, 125.408
1267.233, 93.622
1268.446, 164.831
1269.658, 107.033
1270.870, 71.230
1272.082, 122.422
1273.294, 98.606
1274.505, 108.785
1275.716, 143.959
1276.928, 191.127
1278.139, 132.290
1279.349, 88.449
1280.560, 116.604
1281.770, 105.752
1282.981, 32.896
1284.191, 96.033
1285.401, 85.166
1286.610, 3.293
1287.820, 90.411
1289.029, 94.500
1290.239, 36.580
1291.448, 83.644
1292.656, 131.698
1293.865, 101.746
1295.073, 143.786
1296.282, 137.841
1297.490, 119.766
1298.698, 124.182
1299.906, 79.080
1301.113, 53.008
1302.320, 27.802
1303.528, 38.795
1304.735, 7.704
1305.942, 34.685
1307.148, 140.659
1308.355, 52.628
1309.561, 108.593
1310.767, 112.553
1311.973, 101.419
1313.179, 50.370
1314.384, 80.158
1315.590, 60.256
1316.795, 127.192
1318.000, 149.124
1319.205, 208.937
1320.410, 147.860
1321.614, 175.767
1322.819, 121.694
1324.023, 136.604
1325.227, 163.453
1326.431, 98.260
1327.634, 44.159
1328.838, 98.983
1330.041, 65.794
1331.244, 89.680
1332.447, 26.528
1333.650, 27.407
1334.852, 18.719
1336.055, 16.995
1337.257, 2.142
1338.459, 52.493
1339.661, 13.662
1340.862, 59.996
1342.064, 27.817
1343.265, 2.399
1344.466, 75.087
1345.667, 6.754
1346.868, 23.583
1348.068, 38.877
1349.269, 10.351
1350.469, 136.474
1351.669, 31.180
1352.869, 71.218
1354.069, 114.921
1355.268, 39.031
1356.468, 40.309
1357.667, 20.144
1358.866, 25.872
1360.065, 71.768
1361.263, 23.608
1362.462, 59.372
1363.660, 83.143
1364.858, 31.007
1366.056, 60.515
1367.254, 102.250
1368.451, 134.571
1369.649, 79.453
1370.846, 157.365
1372.043, 142.688
1373.240, 181.846
1374.436, 193.358
1375.633, 226.084
1376.829, 194.619
1378.025, 178.301
1379.221, 238.015
1380.417, 274.698
1381.613, 311.353
1382.808, 350.869
1384.003, 457.359
1385.199, 511.296
1386.393, 531.848
1387.588, 632.749
1388.783, 637.231
1389.977, 645.113
1391.171, 518.864
1392.365, 619.436
1393.559, 710.291
1394.753, 690.156
1395.946, 846.968
1397.140, 1059.630
1398.333, 1339.426
1399.526, 1644.212
1400.719, 2150.990
1401.911, 2826.761
1403.104, 3737.522
1404.296, 5411.278
1405.488, 7783.913
1406.680, 10713.649
1407.872, 12929.722
1409.063, 13255.339
1410.255, 10786.044
1411.446, 8277.740
1412.637, 5646.432
1413.828, 4132.139
1415.018, 2961.728
1416.209, 2229.024
1417.399, 1715.639
1418.589, 1501.336
1419.779, 1150.027
1420.969, 954.710
1422.159, 825.390
1423.348, 837.062
1424.537, 627.730
1425.726, 576.391
1426.915, 586.047
1428.104, 487.666
1429.293, 512.311
1430.481, 360.677
1431.669, 476.365
1432.857, 448.935
1434.045, 450.383
1435.233, 551.306
1436.420, 563.490
1437.608, 505.850
1438.795, 553.744
1439.982, 568.203
1441.169, 753.787
1442.355, 654.312
1443.542, 773.871
1444.728, 747.405
1445.914, 770.943
1447.100, 732.549
1448.286, 815.148
1449.472, 735.756
1450.657, 861.382
1451.842, 878.046
1453.027, 788.742
1454.212, 868.435
1455.397, 894.129
1456.581, 857.840
1457.766, 901.567
1458.950, 802.293
1460.134, 892.020
1461.318, 791.799
1462.501, 739.578
1463.685, 766.355
1464.868, 602.132
1466.051, 766.910
1467.234, 509.695
1468.417, 578.491
1469.600, 541.290
1470.782, 567.092
1471.965, 440.909
1473.147, 433.730
1474.329, 425.556
1475.510, 369.386
1476.692, 379.221
1477.873, 288.064
1479.055, 348.988
1480.236, 484.053
1481.416, 360.198
1482.597, 426.407
1483.778, 332.678
1484.958, 358.987
1486.138, 236.339
1487.318, 315.733
1488.498, 276.173
1489.678, 196.659
1490.857, 148.194
1492.037, 122.782
1493.216, 105.427
1494.395, 136.132
1495.574, 142.902
1496.752, 125.567
1497.931, 97.672
1499.109, 74.687
1500.287, 70.802
1501.465, 7.031
1502.643, 54.388
1503.820, 50.870
1504.998, 27.521
1506.175, 47.223
1507.352, 41.116
1508.529, 36.173
1509.706, 1.587
1510.882, 64.858
1512.059, 57.532
1513.235, 50.461
1514.411, 13.998
1515.587, 17.886
1516.762, 36.751
1517.938, 45.660
1519.113, 53.926
1520.288, 49.727
1521.463, 50.771
1522.638, 0.167
1523.813, 46.975
1524.987, 0.000
##END=



