##NAMES=Sodalite
##RRUFFID=R040141
##IDEAL CHEMISTRY=Na_4_Si_3_Al_3_O_12_Cl
##LOCALITY=Princess Sodalite mine, Bancroft, Ontario, Canada
##OWNER=RRUFF
##SOURCE=University of Arizona Mineral Museum
##DESCRIPTION=Blue grains in a coarsely crystalline rock
##STATUS=The identification of this mineral has been confirmed by X-ray diffraction and chemical analysis
##URL=rruff.info/R040141
##MEASURED CHEMISTRY=Na_7.86_Al_6.00_Si_6.03_O_24_Cl_2.02_
##PIN_ID=L00469
##ORIENTATION=Laser parallel to -a* (-1 0 0). Fiducial mark perpendicular to laser is parallel to -b [0 -1 0]
73.388, 0.000
74.779, 133.753
76.170, 435.434
77.562, 778.834
78.953, 944.202
80.343, 905.946
81.734, 717.497
83.124, 457.065
84.514, 277.218
85.904, 502.005
87.294, 624.731
88.683, 498.210
90.072, 251.937
91.461, 247.799
92.850, 155.006
94.239, 260.112
95.627, 152.611
97.015, 191.525
98.403, 295.563
99.791, 262.729
101.178, 143.376
102.566, 146.111
103.953, 43.632
105.340, 18.950
106.726, 1.695
108.113, 72.875
109.499, 199.262
110.885, 276.732
112.271, 306.188
113.656, 456.017
115.042, 763.102
116.427, 954.998
117.812, 773.860
119.197, 631.820
120.581, 445.972
121.966, 235.399
123.350, 75.167
124.734, 11.334
126.117, 23.950
127.501, 61.941
128.884, 32.302
130.267, 65.300
131.650, 46.897
133.033, 22.484
134.415, 44.429
135.797, 70.120
137.179, 39.270
138.561, 27.772
139.943, 19.085
141.324, 37.879
142.705, 58.831
144.086, 121.664
145.467, 166.189
146.847, 238.198
148.228, 285.628
149.608, 312.393
150.988, 331.519
152.367, 348.206
153.747, 337.750
155.126, 308.857
156.505, 311.000
157.884, 421.361
159.262, 586.934
160.641, 831.708
162.019, 1217.663
163.397, 1662.783
164.775, 2178.050
166.152, 2937.443
167.530, 3546.951
168.907, 3870.557
170.284, 3906.248
171.660, 3384.000
173.037, 2902.788
174.413, 2214.605
175.789, 1760.452
177.165, 1310.323
178.541, 1088.211
179.916, 925.114
181.292, 731.021
182.667, 589.906
184.042, 500.697
185.416, 381.369
186.791, 272.991
188.165, 204.581
189.539, 109.106
190.912, 65.291
192.286, 52.923
193.659, 2.247
195.033, 30.529
196.406, 29.773
197.778, 18.021
199.151, 43.843
200.523, 46.684
201.895, 56.544
203.267, 50.423
204.639, 57.320
206.010, 56.235
207.381, 44.166
208.753, 34.115
210.123, 30.080
211.494, 30.021
212.864, 88.065
214.235, 44.105
215.605, 66.204
216.974, 87.387
218.344, 20.651
219.713, 0.055
221.083, 36.392
222.452, 8.308
223.820, 77.863
225.189, 70.924
226.557, 142.845
227.925, 174.628
229.293, 230.316
230.661, 271.957
232.029, 331.568
233.396, 393.169
234.763, 454.770
236.130, 488.379
237.496, 569.999
238.863, 529.783
240.229, 656.901
241.595, 648.113
242.961, 720.315
244.327, 792.451
245.692, 882.488
247.057, 999.394
248.422, 1149.150
249.787, 1355.751
251.152, 1577.198
252.516, 1829.487
253.880, 2137.574
255.244, 2505.438
256.608, 2999.118
257.972, 3510.625
259.335, 4094.969
260.698, 4743.160
262.061, 5252.211
263.424, 5883.107
264.786, 6225.815
266.149, 6508.186
267.511, 6478.210
268.873, 6250.747
270.234, 5751.995
271.596, 5267.850
272.957, 4739.756
274.318, 3977.932
275.679, 3627.979
277.040, 3158.920
278.400, 2782.760
279.760, 2663.500
281.120, 2212.165
282.480, 2049.774
283.840, 1897.323
285.199, 1770.812
286.558, 1726.168
287.917, 1654.780
289.276, 1703.748
290.635, 1691.780
291.993, 1862.636
293.351, 2113.260
294.709, 2262.714
296.067, 2491.207
297.425, 2665.759
298.782, 2775.315
300.139, 2476.856
301.496, 2128.668
302.853, 1720.753
304.209, 1444.871
305.566, 1211.070
306.922, 1000.380
308.278, 927.174
309.633, 853.035
310.989, 823.357
312.344, 819.860
313.699, 789.453
315.054, 794.121
316.409, 799.863
317.763, 797.577
319.118, 794.183
320.472, 797.696
321.826, 808.925
323.179, 799.293
324.533, 846.660
325.886, 847.026
327.239, 801.389
328.592, 861.750
329.944, 852.107
331.297, 860.459
332.649, 813.806
334.001, 861.147
335.353, 819.482
336.704, 876.812
338.056, 817.135
339.407, 793.451
340.758, 822.761
342.109, 808.065
343.459, 801.361
344.810, 810.651
346.160, 752.935
347.510, 761.212
348.860, 765.218
350.209, 703.774
351.559, 677.044
352.908, 684.553
354.257, 661.489
355.605, 659.231
356.954, 603.202
358.302, 583.464
359.650, 602.737
360.998, 558.567
362.346, 595.820
363.694, 490.939
365.041, 526.483
366.388, 532.454
367.735, 515.036
369.082, 522.730
370.428, 495.224
371.774, 462.392
373.121, 462.857
374.466, 432.368
375.812, 407.280
377.158, 369.993
378.503, 365.362
379.848, 331.928
381.193, 307.761
382.537, 300.416
383.882, 282.370
385.226, 285.610
386.570, 254.194
387.914, 283.719
389.258, 282.893
390.601, 249.246
391.944, 279.848
393.287, 258.641
394.630, 289.700
395.973, 297.962
397.315, 335.231
398.658, 329.506
400.000, 345.083
401.342, 364.111
402.683, 373.365
404.025, 389.583
405.366, 436.809
406.707, 581.990
408.048, 686.305
409.388, 903.602
410.729, 1037.813
412.069, 1307.014
413.409, 1196.265
414.749, 1137.337
416.088, 891.846
417.428, 758.687
418.767, 689.648
420.106, 629.575
421.445, 623.238
422.783, 671.544
424.122, 645.516
425.460, 671.860
426.798, 690.773
428.136, 731.830
429.473, 798.863
430.811, 841.641
432.148, 905.374
433.485, 942.573
434.821, 1036.622
436.158, 1082.323
437.494, 1162.162
438.831, 1260.874
440.167, 1354.762
441.502, 1481.735
442.838, 1643.732
444.173, 1863.134
445.508, 2094.856
446.843, 2427.547
448.178, 2790.230
449.513, 3331.909
450.847, 3836.588
452.181, 4621.264
453.515, 5457.956
454.849, 6668.659
456.183, 8371.383
457.516, 10571.112
458.849, 13740.849
460.182, 17710.586
461.515, 22550.385
462.847, 28270.686
464.180, 33620.758
465.512, 36660.566
466.844, 37850.734
468.176, 34540.621
469.507, 29680.598
470.839, 24241.100
472.170, 19131.109
473.501, 15201.407
474.831, 11641.349
476.162, 9491.338
477.492, 7559.104
478.822, 6264.103
480.152, 5388.023
481.482, 4516.052
482.812, 3992.175
484.141, 3472.171
485.470, 3157.207
486.799, 2901.245
488.128, 2626.461
489.457, 2392.298
490.785, 2376.253
492.113, 2134.091
493.441, 2112.931
494.769, 1982.776
496.096, 1970.720
497.424, 2047.566
498.751, 2095.414
500.078, 2132.263
501.405, 1943.112
502.731, 1677.965
504.058, 1436.823
505.384, 1185.685
506.710, 1060.552
508.035, 897.424
509.361, 770.304
510.686, 738.196
512.012, 714.093
513.337, 656.001
514.661, 659.920
515.986, 652.866
517.310, 599.836
518.634, 589.821
519.958, 531.829
521.282, 553.861
522.606, 558.927
523.929, 540.033
525.252, 529.174
526.575, 503.591
527.898, 473.891
529.221, 444.839
530.543, 412.135
531.865, 391.460
533.187, 378.810
534.509, 378.196
535.831, 358.626
537.152, 333.084
538.473, 303.582
539.794, 283.119
541.115, 266.019
542.436, 255.641
543.756, 237.841
545.076, 249.446
546.396, 235.059
547.716, 238.680
549.036, 189.306
550.355, 190.936
551.674, 156.567
552.994, 167.200
554.312, 140.833
555.631, 105.465
556.949, 120.096
558.268, 125.726
559.586, 44.354
560.904, 54.981
562.221, 57.606
563.539, 49.229
564.856, 53.851
566.173, 15.472
567.490, 14.090
568.807, 28.705
570.123, 25.318
571.439, 44.071
572.755, 21.480
574.071, 48.901
575.387, 70.346
576.702, 19.825
578.018, 19.315
579.333, 13.815
580.648, 27.324
581.962, 20.845
583.277, 28.378
584.591, 19.925
585.905, 3.522
587.219, 5.969
588.533, 36.585
589.846, 29.158
591.160, 12.746
592.473, 41.339
593.786, 15.950
595.099, 37.570
596.411, 16.199
597.723, 21.170
599.036, 1.538
600.348, 40.095
601.659, 9.748
602.971, 52.592
604.282, 64.931
605.593, 127.270
606.904, 165.608
608.215, 211.973
609.526, 229.310
610.836, 202.645
612.146, 165.980
613.456, 153.314
614.766, 129.647
616.076, 85.083
617.385, 69.413
618.694, 42.788
620.003, 4.761
621.312, 0.558
622.621, 45.911
623.929, 0.778
625.237, 32.528
626.546, 11.890
627.853, 6.812
629.161, 5.599
630.468, 2.105
631.776, 26.333
633.083, 15.788
634.390, 10.941
635.696, 15.354
637.003, 13.313
638.309, 10.026
639.615, 3.323
640.921, 18.597
642.227, 10.312
643.532, 9.535
644.838, 1.830
646.143, 69.227
647.448, 30.443
648.752, 67.822
650.057, 64.141
651.361, 60.189
652.666, 35.449
653.969, 63.804
655.273, 117.167
656.577, 73.492
657.880, 125.850
659.183, 153.543
660.486, 125.796
661.789, 148.672
663.092, 107.835
664.394, 131.924
665.696, 151.754
666.998, 153.637
668.300, 164.828
669.602, 154.771
670.903, 205.060
672.205, 155.789
673.506, 188.939
674.806, 239.559
676.107, 197.017
677.408, 227.160
678.708, 186.714
680.008, 210.281
681.308, 268.537
682.608, 211.156
683.907, 224.090
685.206, 212.203
686.506, 229.191
687.804, 640.944
689.103, 464.738
690.402, 474.746
691.700, 396.497
692.998, 255.677
694.296, 251.921
695.594, 235.949
696.892, 197.128
698.189, 266.486
699.486, 211.845
700.783, 242.053
702.080, 262.129
703.377, 215.500
704.673, 255.595
705.969, 228.608
707.265, 252.612
708.561, 254.664
709.857, 299.668
711.152, 250.560
712.447, 281.441
713.743, 280.313
715.037, 275.174
716.332, 337.958
717.627, 306.776
718.921, 326.595
720.215, 294.369
721.509, 297.153
722.803, 284.765
724.096, 254.362
725.390, 295.010
726.683, 305.633
727.976, 296.173
729.269, 262.859
730.561, 352.075
731.854, 313.930
733.146, 369.634
734.438, 393.342
735.730, 405.285
737.021, 369.618
738.313, 343.306
739.604, 363.539
740.895, 337.033
742.186, 313.144
743.476, 334.649
744.767, 306.408
746.057, 305.400
747.347, 290.885
748.637, 291.956
749.927, 260.656
751.216, 247.728
752.506, 234.162
753.795, 144.663
755.084, 198.439
756.373, 153.990
757.661, 129.830
758.950, 157.424
760.238, 99.046
761.526, 78.655
762.814, 62.153
764.101, 112.641
765.389, 102.119
766.676, 118.588
767.963, 97.059
769.250, 128.537
770.536, 42.978
771.823, 123.407
773.109, 56.828
774.395, 38.175
775.681, 81.054
776.967, 58.112
778.252, 74.443
779.538, 73.415
780.823, 52.671
782.108, 70.830
783.393, 37.469
784.677, 63.582
785.962, 27.413
787.246, 22.592
788.530, 75.716
789.814, 56.057
791.097, 46.160
792.381, 40.336
793.664, 49.396
794.947, 53.355
796.230, 6.432
797.513, 71.460
798.795, 44.475
800.077, 18.304
801.359, 60.502
802.641, 20.574
803.923, 33.752
805.205, 1.080
806.486, 46.071
807.767, 22.114
809.048, 19.244
810.329, 27.365
811.610, 18.475
812.890, 4.574
814.170, 5.340
815.450, 0.726
816.730, 4.223
818.010, 3.190
819.289, 15.175
820.569, 16.184
821.848, 48.783
823.126, 1.475
824.405, 22.682
825.684, 46.387
826.962, 5.496
828.240, 3.377
829.518, 24.763
830.796, 19.068
832.074, 3.890
833.351, 29.302
834.628, 17.476
835.905, 14.755
837.182, 36.009
838.459, 7.296
839.735, 5.600
841.011, 1.922
842.287, 23.743
843.563, 33.603
844.839, 1.979
846.115, 15.631
847.390, 11.769
848.665, 46.812
849.940, 9.386
851.215, 1.950
852.489, 1.502
853.764, 5.043
855.038, 21.575
856.312, 0.098
857.586, 11.609
858.859, 28.111
860.133, 27.605
861.406, 13.092
862.679, 21.571
863.952, 77.041
865.225, 52.505
866.497, 67.961
867.770, 74.411
869.042, 55.855
870.314, 108.292
871.585, 82.723
872.857, 87.147
874.128, 87.566
875.400, 106.978
876.671, 135.385
877.942, 71.786
879.212, 85.182
880.483, 43.573
881.753, 77.968
883.023, 72.362
884.293, 59.761
885.563, 55.172
886.832, 53.583
888.101, 41.992
889.371, 21.399
890.640, 8.808
891.908, 22.215
893.177, 15.377
894.445, 11.978
895.714, 12.411
896.982, 6.794
898.250, 19.181
899.517, 10.431
900.785, 14.049
902.052, 19.330
903.319, 44.291
904.586, 32.930
905.853, 11.415
907.119, 10.245
908.386, 6.913
909.652, 46.421
910.918, 5.754
912.184, 2.082
913.449, 2.404
914.715, 44.721
915.980, 35.007
917.245, 32.315
918.510, 59.619
919.775, 21.919
921.039, 17.215
922.303, 46.506
923.568, 64.688
924.831, 68.971
926.095, 47.203
927.359, 12.355
928.622, 76.630
929.885, 102.864
931.148, 66.134
932.411, 110.402
933.674, 92.608
934.936, 100.871
936.199, 127.014
937.461, 104.264
938.723, 104.364
939.984, 159.441
941.246, 120.696
942.507, 168.917
943.769, 216.094
945.030, 238.253
946.290, 194.448
947.551, 220.660
948.811, 307.423
950.072, 259.676
951.332, 293.850
952.592, 276.917
953.851, 267.158
955.111, 280.231
956.370, 316.358
957.629, 325.750
958.888, 376.925
960.147, 408.998
961.406, 454.059
962.664, 528.152
963.922, 648.207
965.180, 803.919
966.438, 897.068
967.696, 941.588
968.953, 1003.816
970.211, 1028.114
971.468, 1140.665
972.725, 1193.159
973.982, 1305.339
975.238, 1366.762
976.495, 1466.834
977.751, 1578.461
979.007, 1882.671
980.263, 2267.412
981.518, 3070.438
982.774, 4047.525
984.029, 6000.323
985.284, 8455.104
986.539, 11083.197
987.794, 13199.941
989.048, 12715.375
990.303, 10372.625
991.557, 7870.003
992.811, 5593.609
994.065, 4033.784
995.318, 2913.448
996.572, 2122.096
997.825, 1696.256
999.078, 1334.352
1000.331, 1142.664
1001.584, 931.818
1002.836, 839.787
1004.089, 772.748
1005.341, 739.852
1006.593, 728.082
1007.845, 762.016
1009.096, 729.218
1010.348, 855.498
1011.599, 944.781
1012.850, 1013.020
1014.101, 1062.304
1015.352, 891.701
1016.602, 771.101
1017.853, 630.516
1019.103, 496.933
1020.353, 422.361
1021.603, 356.798
1022.852, 305.237
1024.102, 302.679
1025.351, 278.124
1026.600, 231.570
1027.849, 279.028
1029.098, 216.488
1030.346, 262.951
1031.595, 250.422
1032.843, 196.895
1034.091, 296.369
1035.339, 318.854
1036.586, 295.342
1037.834, 299.831
1039.081, 361.323
1040.328, 309.756
1041.575, 352.139
1042.822, 444.582
1044.068, 531.169
1045.314, 541.969
1046.561, 556.379
1047.807, 652.769
1049.052, 742.213
1050.298, 918.160
1051.544, 1100.912
1052.789, 1329.436
1054.034, 1631.361
1055.279, 1969.016
1056.523, 2382.476
1057.768, 2779.510
1059.012, 3100.761
1060.257, 3311.270
1061.501, 3378.688
1062.744, 3360.094
1063.988, 3264.505
1065.231, 3060.018
1066.475, 3008.533
1067.718, 2745.050
1068.961, 2504.648
1070.203, 2278.155
1071.446, 1975.646
1072.688, 1703.167
1073.931, 1522.689
1075.173, 1248.262
1076.414, 1049.883
1077.656, 991.370
1078.898, 852.958
1080.139, 762.486
1081.380, 681.182
1082.621, 634.763
1083.862, 560.309
1085.102, 543.982
1086.343, 494.516
1087.583, 463.050
1088.823, 422.965
1090.063, 399.316
1091.302, 346.956
1092.542, 329.496
1093.781, 316.106
1095.020, 317.680
1096.259, 305.272
1097.498, 307.888
1098.737, 295.228
1099.975, 271.830
1101.213, 262.739
1102.451, 247.404
1103.689, 241.561
1104.927, 251.558
1106.164, 235.172
1107.402, 233.858
1108.639, 229.517
1109.876, 212.154
1111.113, 197.252
1112.349, 191.371
1113.586, 159.956
1114.822, 145.742
1116.058, 142.492
1117.294, 153.264
1118.530, 160.084
1119.765, 133.747
1121.001, 159.652
1122.236, 152.551
1123.471, 189.270
1124.706, 173.079
1125.940, 185.058
1127.175, 94.545
1128.409, 167.048
1129.643, 121.978
1130.877, 98.485
1132.111, 167.449
1133.344, 121.434
1134.578, 157.841
1135.811, 133.036
1137.044, 112.828
1138.277, 142.082
1139.510, 152.499
1140.742, 180.478
1141.974, 128.446
1143.206, 122.269
1144.438, 109.201
1145.670, 109.981
1146.902, 114.171
1148.133, 129.091
1149.365, 107.986
1150.596, 148.122
1151.827, 135.056
1153.057, 122.203
1154.288, 115.260
1155.518, 98.651
1156.748, 103.587
1157.978, 95.681
1159.208, 126.418
1160.438, 91.417
1161.667, 118.388
1162.897, 115.156
1164.126, 90.046
1165.355, 132.909
1166.583, 121.952
1167.812, 164.652
1169.040, 77.149
1170.269, 110.995
1171.497, 125.935
1172.725, 85.894
1173.952, 91.567
1175.180, 100.380
1176.407, 50.426
1177.634, 106.362
1178.861, 59.393
1180.088, 66.025
1181.315, 93.768
1182.541, 92.593
1183.767, 94.434
1184.994, 105.122
1186.220, 108.945
1187.445, 135.491
1188.671, 115.365
1189.896, 42.599
1191.121, 87.110
1192.346, 84.620
1193.571, 84.128
1194.796, 101.629
1196.021, 118.125
1197.245, 48.614
1198.469, 75.109
1199.693, 28.592
1200.917, 90.069
1202.140, 65.550
1203.364, 40.033
1204.587, 49.520
1205.810, 40.993
1207.033, 91.460
1208.256, 76.024
1209.479, 83.479
1210.701, 52.927
1211.923, 62.441
1213.145, 109.877
1214.367, 72.306
1215.589, 33.764
1216.810, 83.179
1218.032, 58.588
1219.253, 106.991
1220.474, 73.387
1221.695, 43.781
1222.915, 33.166
1224.136, 69.545
1225.356, 42.916
1226.576, 95.283
1227.796, 18.646
1229.016, 47.005
1230.235, 56.360
1231.455, 26.712
1232.674, 89.059
1233.893, 95.402
1235.112, 38.742
1236.331, 40.073
1237.549, 39.038
1238.767, 108.718
1239.986, 48.034
1241.204, 57.344
1242.421, 53.651
1243.639, 48.952
1244.857, 9.753
1246.074, 54.532
1247.291, 1.190
1248.508, 41.080
1249.725, 70.334
1250.941, 57.571
1252.158, 55.792
1253.374, 39.995
1254.590, 47.085
1255.806, 53.290
1257.022, 60.417
1258.237, 61.531
1259.453, 67.623
1260.668, 20.695
1261.883, 30.754
1263.098, 26.801
1264.312, 16.828
1265.527, 55.838
1266.741, 7.811
1267.955, 9.761
1269.169, 46.680
1270.383, 26.565
1271.597, 3.436
1272.810, 21.705
1274.024, 21.740
1275.237, 10.914
1276.450, 21.304
1277.662, 8.443
1278.875, 7.176
1280.087, 19.104
1281.300, 63.401
1282.512, 40.817
1283.724, 0.079
1284.935, 18.443
1286.147, 12.174
1287.358, 13.780
1288.569, 40.373
1289.780, 10.046
1290.991, 7.482
1292.202, 13.935
1293.412, 25.407
1294.623, 26.101
1295.833, 3.637
1297.043, 20.118
1298.253, 3.585
1299.462, 8.038
1300.672, 16.524
1301.881, 19.894
1303.090, 7.702
1304.299, 13.682
1305.508, 41.948
1306.716, 9.607
1307.925, 22.286
1309.133, 24.011
1310.341, 39.708
1311.549, 8.545
1312.757, 21.219
1313.964, 18.005
1315.172, 27.186
1316.379, 15.363
1317.586, 13.525
1318.793, 64.672
1320.000, 23.194
1321.206, 6.920
1322.412, 14.020
1323.619, 10.893
1324.825, 68.178
1326.030, 40.238
1327.236, 23.713
1328.442, 21.316
1329.647, 49.333
1330.852, 22.340
1332.057, 80.334
1333.262, 68.319
1334.466, 122.292
1335.671, 128.256
1336.875, 167.210
1338.079, 192.154
1339.283, 227.089
1340.487, 170.015
1341.690, 184.933
1342.894, 81.843
1344.097, 125.746
1345.300, 95.569
1346.503, 87.458
1347.706, 105.341
1348.908, 81.187
1350.111, 87.059
1351.313, 113.895
1352.515, 58.758
1353.717, 117.617
1354.918, 108.474
1356.120, 66.329
1357.321, 87.184
1358.523, 139.040
1359.724, 74.899
1360.924, 105.681
1362.125, 105.549
1363.326, 86.427
1364.526, 86.316
1365.726, 88.859
1366.926, 90.734
1368.126, 84.405
1369.325, 86.933
1370.525, 135.598
1371.724, 110.089
1372.923, 127.629
1374.122, 149.314
1375.321, 109.786
1376.520, 147.335
1377.718, 135.872
1378.916, 120.370
1380.114, 179.068
1381.312, 162.141
1382.510, 129.658
1383.708, 200.007
1384.905, 163.350
1386.102, 127.769
1387.299, 194.004
1388.496, 111.063
1389.693, 213.166
1390.889, 154.903
1392.086, 188.952
1393.282, 229.676
1394.478, 137.402
1395.674, 194.038
1396.870, 208.718
1398.065, 143.347
1399.261, 197.520
1400.456, 219.829
1401.651, 165.073
1402.846, 180.688
1404.040, 181.422
1405.235, 175.387
1406.429, 182.127
1407.623, 156.282
1408.817, 169.030
1410.011, 179.309
1411.205, 151.669
1412.398, 142.124
1413.592, 128.767
1414.785, 140.669
1415.978, 122.509
1417.171, 133.938
1418.363, 171.571
1419.556, 158.533
1420.748, 167.175
1421.940, 129.421
1423.132, 157.512
1424.324, 120.714
1425.515, 103.893
1426.707, 101.049
1427.898, 106.166
1429.089, 97.274
1430.280, 143.357
1431.471, 76.398
1432.662, 104.244
1433.852, 64.244
1435.042, 85.085
1436.232, 136.958
1437.422, 139.865
1438.612, 22.737
1439.802, 121.561
1440.991, 88.353
1442.180, 58.087
1443.369, 133.754
1444.558, 104.352
1445.747, 143.876
1446.936, 119.345
1448.124, 128.740
1449.312, 155.056
1450.500, 88.293
1451.688, 81.457
1452.876, 136.569
1454.063, 119.698
1455.251, 148.924
1456.438, 134.246
1457.625, 76.579
1458.812, 91.963
1459.999, 153.346
1461.185, 85.823
1462.372, 174.466
1463.558, 98.282
1464.744, 96.141
1465.930, 127.104
1467.115, 148.169
1468.301, 76.234
1469.486, 154.290
1470.672, 71.338
1471.857, 104.380
1473.041, 108.425
1474.226, 43.476
1475.411, 146.370
1476.595, 113.434
1477.779, 106.518
1478.963, 126.634
1480.147, 44.796
1481.331, 71.021
1482.514, 78.330
1483.698, 30.735
1484.881, 77.233
1486.064, 140.832
1487.247, 30.531
1488.429, 49.316
1489.612, 67.180
1490.794, 30.125
1491.976, 87.164
1493.158, 26.318
1494.340, 18.619
1495.522, 30.116
1496.703, 33.728
1497.885, 39.581
1499.066, 50.658
1500.247, 71.984
1501.428, 92.602
1502.608, 32.572
1503.789, 33.966
1504.969, 153.872
1506.149, 78.411
1507.329, 2.236
1508.509, 129.190
1509.689, 18.200
1510.868, 0.000
##END=



