##NAMES=Sodalite
##RRUFFID=R040141
##IDEAL CHEMISTRY=Na_4_Si_3_Al_3_O_12_Cl
##LOCALITY=Princess Sodalite mine, Bancroft, Ontario, Canada
##OWNER=RRUFF
##SOURCE=University of Arizona Mineral Museum
##DESCRIPTION=Blue grains in a coarsely crystalline rock
##STATUS=The identification of this mineral has been confirmed by X-ray diffraction and chemical analysis
##URL=rruff.info/R040141
##MEASURED CHEMISTRY=Na_7.86_Al_6.00_Si_6.03_O_24_Cl_2.02_
##PIN_ID=L00469
##ORIENTATION=Laser parallel to -a* (-1 0 0). Fiducial mark perpendicular to laser is parallel to -b [0 -1 0]
55.278, 0.000
56.672, 6.073
58.066, 49.677
59.460, 176.735
60.854, 319.493
62.247, 609.289
63.641, 1036.373
65.034, 1092.063
66.426, 1470.943
67.819, 1168.356
69.212, 668.886
70.604, 410.146
71.996, 294.271
73.388, 225.548
74.779, 298.176
76.170, 230.047
77.562, 236.835
78.953, 202.256
80.343, 251.667
81.734, 112.811
83.124, 38.000
84.514, 28.954
85.904, 16.021
87.294, 8.006
88.683, 41.439
90.072, 11.532
91.461, 2.824
92.850, 85.750
94.239, 217.325
95.627, 263.004
97.015, 271.918
98.403, 416.933
99.791, 406.816
101.178, 395.001
102.566, 334.486
103.953, 321.171
105.340, 300.193
106.726, 335.586
108.113, 387.235
109.499, 458.752
110.885, 594.451
112.271, 712.661
113.656, 914.416
115.042, 1032.746
116.427, 954.678
117.812, 807.233
119.197, 648.431
120.581, 566.580
121.966, 334.254
123.350, 203.417
124.734, 201.664
126.117, 212.652
127.501, 251.132
128.884, 190.514
130.267, 265.060
131.650, 296.700
133.033, 433.276
134.415, 429.264
135.797, 458.469
137.179, 314.181
138.561, 271.560
139.943, 216.914
141.324, 254.742
142.705, 269.976
144.086, 232.444
145.467, 240.190
146.847, 248.053
148.228, 278.995
149.608, 320.000
150.988, 362.056
152.367, 319.135
153.747, 309.166
155.126, 265.137
156.505, 356.059
157.884, 445.973
159.262, 597.901
160.641, 869.848
162.019, 1283.805
163.397, 1706.761
164.775, 2244.712
166.152, 2916.665
167.530, 3431.617
168.907, 3768.569
170.284, 3702.518
171.660, 3135.459
173.037, 2619.370
174.413, 1936.247
175.789, 1589.079
177.165, 1266.866
178.541, 1079.611
179.916, 974.297
181.292, 829.909
182.667, 672.452
184.042, 545.926
185.416, 416.342
186.791, 299.707
188.165, 270.020
189.539, 167.288
190.912, 65.529
192.286, 68.747
193.659, 49.942
195.033, 8.885
196.406, 28.267
197.778, 13.397
199.151, 8.493
200.523, 36.404
201.895, 56.335
203.267, 59.287
204.639, 55.387
206.010, 83.315
207.381, 38.424
208.753, 25.627
210.123, 48.917
211.494, 81.339
212.864, 30.913
214.235, 75.640
215.605, 74.483
216.974, 11.464
218.344, 37.583
219.713, 20.799
221.083, 8.068
222.452, 40.718
223.820, 39.060
225.189, 97.056
226.557, 156.683
227.925, 187.948
229.293, 300.812
230.661, 333.259
232.029, 391.337
233.396, 501.094
234.763, 513.473
236.130, 583.344
237.496, 638.664
238.863, 632.283
240.229, 649.010
241.595, 693.306
242.961, 726.512
244.327, 817.440
245.692, 883.429
247.057, 1015.569
248.422, 1104.823
249.787, 1386.185
251.152, 1509.838
252.516, 1766.337
253.880, 2098.659
255.244, 2496.906
256.608, 2870.752
257.972, 3351.744
259.335, 3978.431
260.698, 4458.175
262.061, 5083.798
263.424, 5608.768
264.786, 5943.606
266.149, 6135.247
267.511, 6026.509
268.873, 5698.613
270.234, 5357.525
271.596, 4612.496
272.957, 4216.617
274.318, 3714.874
275.679, 3354.083
277.040, 2828.251
278.400, 2564.378
279.760, 2248.469
281.120, 2040.524
282.480, 1888.547
283.840, 1801.535
285.199, 1750.347
286.558, 1746.884
287.917, 1793.644
289.276, 1908.285
290.635, 2016.813
291.993, 2235.345
293.351, 2459.250
294.709, 2771.317
296.067, 2782.254
297.425, 2766.564
298.782, 2642.630
300.139, 2246.566
301.496, 1858.763
302.853, 1454.535
304.209, 1282.814
305.566, 1057.401
306.922, 864.130
308.278, 795.557
309.633, 753.076
310.989, 629.677
312.344, 651.557
313.699, 641.659
315.054, 661.942
316.409, 637.053
317.763, 680.125
319.118, 612.965
320.472, 618.242
321.826, 617.899
323.179, 631.137
324.533, 655.373
325.886, 642.603
327.239, 647.826
328.592, 673.049
329.944, 693.264
331.297, 678.472
332.649, 629.673
334.001, 658.866
335.353, 610.052
336.704, 670.230
338.056, 641.401
339.407, 661.566
340.758, 643.723
342.109, 601.874
343.459, 641.019
344.810, 602.157
346.160, 599.290
347.510, 599.417
348.860, 583.027
350.209, 592.153
351.559, 588.159
352.908, 604.512
354.257, 541.787
355.605, 569.143
356.954, 540.211
358.302, 540.126
359.650, 565.804
360.998, 531.072
362.346, 469.168
363.694, 468.564
365.041, 486.760
366.388, 548.823
367.735, 485.181
369.082, 527.838
370.428, 529.364
371.774, 469.745
373.121, 478.717
374.466, 475.709
375.812, 442.923
377.158, 405.390
378.503, 391.991
379.848, 367.193
381.193, 351.661
382.537, 337.832
383.882, 352.661
385.226, 351.101
386.570, 332.480
387.914, 320.488
389.258, 338.963
390.601, 343.612
391.944, 338.117
393.287, 336.904
394.630, 330.322
395.973, 358.090
397.315, 355.835
398.658, 408.560
400.000, 347.266
401.342, 407.957
402.683, 488.658
404.025, 467.394
405.366, 525.141
406.707, 558.873
408.048, 694.591
409.388, 859.269
410.729, 907.299
412.069, 938.612
413.409, 1007.058
414.749, 891.924
416.088, 765.057
417.428, 706.018
418.767, 663.883
420.106, 643.949
421.445, 675.773
422.783, 685.850
424.122, 729.053
425.460, 733.897
426.798, 781.110
428.136, 782.473
429.473, 891.922
430.811, 952.792
432.148, 990.887
433.485, 1073.682
434.821, 1114.458
436.158, 1145.233
437.494, 1235.146
438.831, 1274.576
440.167, 1373.529
441.502, 1447.376
442.838, 1579.997
444.173, 1818.054
445.508, 2011.779
446.843, 2333.331
448.178, 2663.870
449.513, 3127.347
450.847, 3676.825
452.181, 4398.302
453.515, 5357.780
454.849, 6542.284
456.183, 8321.765
457.516, 10691.277
458.849, 13750.870
460.182, 17950.721
461.515, 22640.865
462.847, 28240.693
464.180, 33060.617
465.512, 35240.660
466.844, 35472.984
468.176, 31753.166
469.507, 26755.260
470.839, 21555.129
472.170, 16785.941
473.501, 13385.990
474.831, 10166.009
476.162, 8426.512
477.492, 6703.276
478.822, 5601.010
480.152, 4819.774
481.482, 4027.515
482.812, 3646.282
484.141, 3070.112
485.470, 2763.913
486.799, 2495.599
488.128, 2191.903
489.457, 2097.547
490.785, 1919.198
492.113, 1764.859
493.441, 1721.488
494.769, 1594.118
496.096, 1636.751
497.424, 1636.392
498.751, 1674.034
500.078, 1612.676
501.405, 1420.354
502.731, 1285.003
504.058, 1092.653
505.384, 1001.305
506.710, 874.956
508.035, 813.609
509.361, 662.275
510.686, 659.947
512.012, 596.635
513.337, 613.331
514.661, 574.040
515.986, 542.774
517.310, 605.522
518.634, 583.297
519.958, 528.087
521.282, 537.899
522.606, 488.740
523.929, 512.617
525.252, 496.534
526.575, 361.489
527.898, 428.483
529.221, 376.521
530.543, 395.591
531.865, 363.694
533.187, 346.838
534.509, 345.026
535.831, 309.242
537.152, 275.497
538.473, 268.789
539.794, 248.100
541.115, 228.329
542.436, 248.795
543.756, 187.169
545.076, 202.555
546.396, 171.952
547.716, 176.357
549.036, 162.768
550.355, 145.183
551.674, 173.602
552.994, 145.545
554.312, 157.447
555.631, 110.870
556.949, 113.293
558.268, 81.716
559.586, 73.138
560.904, 62.373
562.221, 50.713
563.539, 44.406
564.856, 44.827
566.173, 45.248
567.490, 52.421
568.807, 5.914
570.123, 37.501
571.439, 5.086
572.755, 65.677
574.071, 32.296
575.387, 1.931
576.702, 9.431
578.018, 30.210
579.333, 24.864
580.648, 49.531
581.962, 10.221
583.277, 5.083
584.591, 10.615
585.905, 14.317
587.219, 37.027
588.533, 44.753
589.846, 7.496
591.160, 6.756
592.473, 10.009
593.786, 8.592
595.099, 25.492
596.411, 15.256
597.723, 26.029
599.036, 23.816
600.348, 38.616
601.659, 6.437
602.971, 9.738
604.282, 49.921
605.593, 52.103
606.904, 77.282
608.215, 83.461
609.526, 128.638
610.836, 136.814
612.146, 60.989
613.456, 91.164
614.766, 60.335
616.076, 40.522
617.385, 0.690
618.694, 5.981
620.003, 1.815
621.312, 0.037
622.621, 2.765
623.929, 45.596
625.237, 4.860
626.546, 40.761
627.853, 3.312
629.161, 16.533
630.468, 0.480
631.776, 0.565
633.083, 9.397
634.390, 23.762
635.696, 32.783
637.003, 26.817
638.309, 33.830
639.615, 27.838
640.921, 14.159
642.227, 19.830
643.532, 47.814
644.838, 22.207
646.143, 57.946
647.448, 57.403
648.752, 58.097
650.057, 66.138
651.361, 71.365
652.666, 100.673
653.969, 92.199
655.273, 83.227
656.577, 105.255
657.880, 65.603
659.183, 105.548
660.486, 136.600
661.789, 194.665
663.092, 113.632
664.394, 167.816
665.696, 131.235
666.998, 163.248
668.300, 193.003
669.602, 166.922
670.903, 222.903
672.205, 169.949
673.506, 172.936
674.806, 211.832
676.107, 167.829
677.408, 183.991
678.708, 237.171
680.008, 245.996
681.308, 221.792
682.608, 209.768
683.907, 243.600
685.206, 184.509
686.506, 238.085
687.804, 250.651
689.103, 217.054
690.402, 264.984
691.700, 259.349
692.998, 247.678
694.296, 247.586
695.594, 239.366
696.892, 222.255
698.189, 229.224
699.486, 253.439
700.783, 228.309
702.080, 235.137
703.377, 218.934
704.673, 238.592
705.969, 260.283
707.265, 284.920
708.561, 297.600
709.857, 276.216
711.152, 258.820
712.447, 281.464
713.743, 291.047
715.037, 301.618
716.332, 291.179
717.627, 302.702
718.921, 320.166
720.215, 305.593
721.509, 233.013
722.803, 329.422
724.096, 286.850
725.390, 325.909
726.683, 369.253
727.976, 329.400
729.269, 389.595
730.561, 383.542
731.854, 496.630
733.146, 583.802
734.438, 597.758
735.730, 626.938
737.021, 650.845
738.313, 586.645
739.604, 480.881
740.895, 383.411
742.186, 363.023
743.476, 292.673
744.767, 313.914
746.057, 316.734
747.347, 286.693
748.637, 276.744
749.927, 228.158
751.216, 187.307
752.506, 127.675
753.795, 164.480
755.084, 130.460
756.373, 124.637
757.661, 100.648
758.950, 115.214
760.238, 99.338
761.526, 101.967
762.814, 98.404
764.101, 109.875
765.389, 87.026
766.676, 92.166
767.963, 82.273
769.250, 124.445
770.536, 78.655
771.823, 123.645
773.109, 42.373
774.395, 13.798
775.681, 100.526
776.967, 50.164
778.252, 72.668
779.538, 11.902
780.823, 87.261
782.108, 97.715
783.393, 54.391
784.677, 132.116
785.962, 84.252
787.246, 133.119
788.530, 41.142
789.814, 81.898
791.097, 68.682
792.381, 87.432
793.664, 110.200
794.947, 209.934
796.230, 727.598
797.513, 1010.279
798.795, 465.067
800.077, 23.228
801.359, 9.037
802.641, 13.170
803.923, 46.594
805.205, 32.620
806.486, 4.144
807.767, 11.108
809.048, 44.615
810.329, 43.329
811.610, 10.032
812.890, 2.311
814.170, 33.360
815.450, 29.021
816.730, 50.670
818.010, 14.311
819.289, 27.062
820.569, 35.535
821.848, 32.879
823.126, 54.674
824.405, 38.216
825.684, 38.251
826.962, 33.244
828.240, 4.270
829.518, 27.197
830.796, 9.346
832.074, 9.910
833.351, 20.495
834.628, 4.106
835.905, 7.478
837.182, 5.384
838.459, 7.051
839.735, 1.737
841.011, 18.438
842.287, 32.164
843.563, 8.921
844.839, 0.303
846.115, 0.513
847.390, 15.357
848.665, 42.895
849.940, 14.073
851.215, 32.242
852.489, 2.598
853.764, 10.548
855.038, 16.684
856.312, 20.812
857.586, 51.931
858.859, 40.042
860.133, 76.146
861.406, 36.242
862.679, 50.331
863.952, 60.413
865.225, 35.488
866.497, 52.556
867.770, 64.617
869.042, 95.671
870.314, 96.719
871.585, 91.760
872.857, 89.795
874.128, 42.824
875.400, 92.847
876.671, 57.865
877.942, 63.876
879.212, 106.885
880.483, 17.887
881.753, 77.884
883.023, 34.891
884.293, 55.899
885.563, 39.903
886.832, 43.902
888.101, 65.903
889.371, 65.904
890.640, 26.910
891.908, 2.915
893.177, 14.086
894.445, 17.903
895.714, 3.109
896.982, 22.120
898.250, 18.863
899.517, 17.156
900.785, 30.812
902.052, 8.224
903.319, 6.267
904.586, 23.689
905.853, 42.645
907.119, 7.602
908.386, 10.561
909.652, 9.476
910.918, 47.519
912.184, 26.413
913.449, 40.341
914.715, 16.265
915.980, 14.185
917.245, 66.100
918.510, 44.012
919.775, 61.919
921.039, 9.821
922.303, 2.280
923.568, 47.599
924.831, 63.490
926.095, 32.213
927.359, 50.461
928.622, 71.349
929.885, 70.106
931.148, 57.958
932.411, 57.225
933.674, 85.122
934.936, 107.027
936.199, 144.842
937.461, 126.748
938.723, 135.656
939.984, 150.562
941.246, 173.337
942.507, 200.243
943.769, 234.131
945.030, 255.034
946.290, 274.689
947.551, 281.834
948.811, 306.736
950.072, 287.637
951.332, 303.537
952.592, 293.251
953.851, 300.656
955.111, 400.817
956.370, 411.627
957.629, 493.574
958.888, 532.775
960.147, 641.082
961.406, 828.883
962.664, 973.679
963.922, 1249.150
965.180, 1479.018
966.438, 1706.773
967.696, 1824.512
968.953, 1841.342
970.211, 1865.951
971.468, 1990.321
972.725, 2003.093
973.982, 2015.117
975.238, 1994.972
976.495, 1910.760
977.751, 1916.479
979.007, 2111.252
980.263, 2530.114
981.518, 3313.876
982.774, 4344.467
984.029, 6424.042
985.284, 8907.968
986.539, 11414.921
987.794, 12971.699
989.048, 11958.611
990.303, 9485.444
991.557, 6979.607
992.811, 4930.773
994.065, 3511.106
995.318, 2512.909
996.572, 1905.277
997.825, 1530.674
999.078, 1194.496
1000.331, 1030.450
1001.584, 769.292
1002.836, 786.220
1004.089, 694.565
1005.341, 614.416
1006.593, 563.307
1007.845, 637.223
1009.096, 562.270
1010.348, 705.284
1011.599, 724.353
1012.850, 698.376
1014.101, 718.456
1015.352, 657.548
1016.602, 590.601
1017.853, 426.721
1019.103, 387.845
1020.353, 337.973
1021.603, 274.113
1022.852, 249.256
1024.102, 212.407
1025.351, 186.387
1026.600, 180.731
1027.849, 159.903
1029.098, 175.078
1030.346, 183.258
1031.595, 217.357
1032.843, 200.553
1034.091, 227.743
1035.339, 202.960
1036.586, 234.180
1037.834, 227.403
1039.081, 214.631
1040.328, 259.862
1041.575, 297.059
1042.822, 352.159
1044.068, 372.582
1045.314, 343.754
1046.561, 344.788
1047.807, 440.795
1049.052, 540.985
1050.298, 658.320
1051.544, 745.569
1052.789, 958.479
1054.034, 1135.464
1055.279, 1421.698
1056.523, 1686.958
1057.768, 1993.139
1059.012, 2217.330
1060.257, 2423.236
1061.501, 2422.905
1062.744, 2359.176
1063.988, 2176.448
1065.231, 2023.686
1066.475, 1882.919
1067.718, 1712.211
1068.961, 1568.493
1070.203, 1386.776
1071.446, 1221.635
1072.688, 999.169
1073.931, 892.458
1075.173, 768.811
1076.414, 644.110
1077.656, 610.409
1078.898, 554.710
1080.139, 461.014
1081.380, 449.445
1082.621, 415.756
1083.862, 368.073
1085.102, 376.422
1086.343, 436.738
1087.583, 380.218
1088.823, 359.537
1090.063, 346.953
1091.302, 259.276
1092.542, 287.602
1093.781, 244.928
1095.020, 242.257
1096.259, 196.586
1097.498, 200.918
1098.737, 214.315
1099.975, 221.801
1101.213, 183.428
1102.451, 185.829
1103.689, 146.171
1104.927, 194.521
1106.164, 174.873
1107.402, 196.447
1108.639, 195.907
1109.876, 145.407
1111.113, 161.114
1112.349, 179.494
1113.586, 118.881
1114.822, 197.524
1116.058, 113.033
1117.294, 153.592
1118.530, 132.256
1119.765, 165.890
1121.001, 148.683
1122.236, 139.209
1123.471, 133.792
1124.706, 165.437
1125.940, 76.192
1127.175, 73.901
1128.409, 186.119
1129.643, 124.013
1130.877, 139.935
1132.111, 123.062
1133.344, 80.720
1134.578, 100.949
1135.811, 177.666
1137.044, 114.449
1138.277, 127.214
1139.510, 90.088
1140.742, 115.781
1141.974, 127.833
1143.206, 79.069
1144.438, 143.495
1145.670, 149.232
1146.902, 82.216
1148.133, 147.698
1149.365, 148.607
1150.596, 135.138
1151.827, 118.484
1153.057, 130.218
1154.288, 138.254
1155.518, 141.344
1156.748, 152.041
1157.978, 138.336
1159.208, 96.138
1160.438, 142.004
1161.667, 119.671
1162.897, 136.242
1164.126, 160.822
1165.355, 138.918
1166.583, 103.748
1167.812, 82.615
1169.040, 82.886
1170.269, 127.848
1171.497, 98.562
1172.725, 113.418
1173.952, 135.228
1175.180, 114.244
1176.407, 113.708
1177.634, 84.812
1178.861, 83.827
1180.088, 140.366
1181.315, 67.987
1182.541, 72.816
1183.767, 127.506
1184.994, 111.254
1186.220, 93.990
1187.445, 81.783
1188.671, 86.290
1189.896, 137.615
1191.121, 106.145
1192.346, 54.461
1193.571, 134.770
1194.796, 63.073
1196.021, 109.374
1197.245, 101.669
1198.469, 52.141
1199.693, 39.426
1200.917, 74.802
1202.140, 81.376
1203.364, 99.642
1204.587, 50.135
1205.810, 89.404
1207.033, 98.647
1208.256, 70.885
1209.479, 121.127
1210.701, 136.361
1211.923, 72.713
1213.145, 93.932
1214.367, 53.177
1215.589, 78.529
1216.810, 80.725
1218.032, 90.912
1219.253, 71.097
1220.474, 61.279
1221.695, 45.654
1222.915, 59.830
1224.136, 66.003
1225.356, 99.264
1226.576, 64.429
1227.796, 33.630
1229.016, 73.787
1230.235, 63.941
1231.455, 57.090
1232.674, 75.235
1233.893, 28.374
1235.112, 69.621
1236.331, 45.751
1237.549, 71.875
1238.767, 86.993
1239.986, 95.106
1241.204, 95.043
1242.421, 89.352
1243.639, 74.405
1244.857, 57.491
1246.074, 37.569
1247.291, 7.629
1248.508, 59.670
1249.725, 84.695
1250.941, 77.705
1252.158, 82.699
1253.374, 27.672
1254.590, 56.623
1255.806, 49.550
1257.022, 8.443
1258.237, 98.311
1259.453, 79.160
1260.668, 19.997
1261.883, 52.799
1263.098, 41.582
1264.312, 18.329
1265.527, 25.041
1266.741, 6.726
1267.955, 54.390
1269.169, 44.024
1270.383, 29.643
1271.597, 13.228
1272.810, 20.785
1274.024, 3.684
1275.237, 14.173
1276.450, 3.316
1277.662, 17.342
1278.875, 35.245
1280.087, 18.313
1281.300, 9.893
1282.512, 18.510
1283.724, 10.104
1284.935, 11.596
1286.147, 34.948
1287.358, 29.715
1288.569, 0.402
1289.780, 19.108
1290.991, 30.164
1292.202, 27.578
1293.412, 35.347
1294.623, 10.145
1295.833, 3.964
1297.043, 16.802
1298.253, 31.335
1299.462, 11.546
1300.672, 4.550
1301.881, 37.626
1303.090, 15.316
1304.299, 23.284
1305.508, 8.280
1306.716, 41.699
1307.925, 19.340
1309.133, 19.406
1310.341, 43.500
1311.549, 19.374
1312.757, 16.229
1313.964, 19.934
1315.172, 48.878
1316.379, 5.326
1317.586, 7.552
1318.793, 6.797
1320.000, 7.938
1321.206, 76.656
1322.412, 5.360
1323.619, 25.953
1324.825, 54.703
1326.030, 19.656
1327.236, 7.039
1328.442, 26.557
1329.647, 21.138
1330.852, 21.703
1332.057, 17.740
1333.262, 52.273
1334.466, 99.792
1335.671, 43.299
1336.875, 124.792
1338.079, 127.272
1339.283, 219.741
1340.487, 149.198
1341.690, 163.643
1342.894, 50.078
1344.097, 95.500
1345.300, 69.874
1346.503, 31.277
1347.706, 93.648
1348.908, 39.010
1350.111, 88.356
1351.313, 95.697
1352.515, 116.030
1353.717, 120.353
1354.918, 123.053
1356.120, 62.086
1357.321, 111.393
1358.523, 83.698
1359.724, 55.969
1360.924, 109.245
1362.125, 98.525
1363.326, 96.010
1364.526, 118.417
1365.726, 45.866
1366.926, 118.306
1368.126, 111.599
1369.325, 71.966
1370.525, 116.187
1371.724, 85.461
1372.923, 147.820
1374.122, 160.162
1375.321, 137.489
1376.520, 112.559
1377.718, 112.451
1378.916, 70.723
1380.114, 137.740
1381.312, 158.732
1382.510, 184.569
1383.708, 132.463
1384.905, 147.302
1386.102, 160.848
1387.299, 212.370
1388.496, 141.009
1389.693, 227.347
1390.889, 162.617
1392.086, 232.906
1393.282, 153.360
1394.478, 154.269
1395.674, 170.956
1396.870, 181.139
1398.065, 141.377
1399.261, 132.447
1400.456, 154.130
1401.651, 104.739
1402.846, 165.780
1404.040, 190.122
1405.235, 144.663
1406.429, 228.736
1407.623, 129.875
1408.817, 139.150
1410.011, 182.382
1411.205, 114.248
1412.398, 160.931
1413.592, 113.857
1414.785, 58.523
1415.978, 213.526
1417.171, 120.405
1418.363, 78.840
1419.556, 138.478
1420.748, 95.769
1421.940, 115.388
1423.132, 137.979
1424.324, 115.221
1425.515, 165.575
1426.707, 157.524
1427.898, 0.485
1429.089, 124.935
1430.280, 123.323
1431.471, 49.433
1432.662, 142.386
1433.852, 86.658
1435.042, 60.861
1436.232, 128.574
1437.422, 74.408
1438.612, 80.262
1439.802, 169.109
1440.991, 70.860
1442.180, 140.263
1443.369, 155.819
1444.558, 82.277
1445.747, 120.637
1446.936, 149.900
1448.124, 88.093
1449.312, 168.280
1450.500, 23.443
1451.688, 96.635
1452.876, 130.905
1454.063, 82.264
1455.251, 99.650
1456.438, 164.146
1457.625, 62.836
1458.812, 176.621
1459.999, 126.500
1461.185, 120.546
1462.372, 208.644
1463.558, 97.730
1464.744, 175.786
1465.930, 107.826
1467.115, 127.591
1468.301, 117.558
1469.486, 146.512
1470.672, 57.451
1471.857, 158.396
1473.041, 100.344
1474.226, 10.679
1475.411, 121.337
1476.595, 68.413
1477.779, 72.564
1478.963, 175.799
1480.147, 38.115
1481.331, 107.505
1482.514, 100.951
1483.698, 91.435
1484.881, 59.955
1486.064, 89.569
1487.247, 74.305
1488.429, 103.142
1489.612, 30.437
1490.794, 20.131
1491.976, 63.902
1493.158, 60.734
1494.340, 65.617
1495.522, 44.541
1496.703, 2.546
1497.885, 96.200
1499.066, 45.260
1500.247, 8.816
1501.428, 73.052
1502.608, 6.057
1503.789, 0.000
##END=



