##NAMES=Sodalite
##RRUFFID=R040141
##IDEAL CHEMISTRY=Na_4_Si_3_Al_3_O_12_Cl
##LOCALITY=Princess Sodalite mine, Bancroft, Ontario, Canada
##OWNER=RRUFF
##SOURCE=University of Arizona Mineral Museum
##DESCRIPTION=Blue grains in a coarsely crystalline rock
##STATUS=The identification of this mineral has been confirmed by X-ray diffraction and chemical analysis
##URL=rruff.info/R040141
##MEASURED CHEMISTRY=Na_7.86_Al_6.00_Si_6.03_O_24_Cl_2.02_
##PIN_ID=L00469
##ORIENTATION=Laser parallel to -a* (-1 0 0). Fiducial mark perpendicular to laser is parallel to -b [0 -1 0]
55.278, 0.000
56.672, 78.821
58.066, 76.743
59.460, 173.760
60.854, 278.939
62.247, 344.297
63.641, 519.144
65.034, 613.134
66.426, 601.635
67.819, 569.851
69.212, 449.140
70.604, 202.101
71.996, 8.241
73.388, 39.802
74.779, 98.894
76.170, 282.117
77.562, 416.184
78.953, 565.364
80.343, 682.042
81.734, 595.107
83.124, 311.881
84.514, 103.173
85.904, 178.087
87.294, 288.721
88.683, 207.360
90.072, 117.731
91.461, 116.925
92.850, 118.890
94.239, 141.771
95.627, 104.173
97.015, 189.142
98.403, 286.026
99.791, 302.367
101.178, 333.469
102.566, 322.457
103.953, 248.367
105.340, 208.631
106.726, 242.685
108.113, 242.326
109.499, 410.617
110.885, 605.290
112.271, 660.389
113.656, 912.956
115.042, 1304.023
116.427, 1325.623
117.812, 1150.778
119.197, 994.514
120.581, 782.327
121.966, 433.926
123.350, 269.967
124.734, 182.907
126.117, 134.232
127.501, 170.122
128.884, 141.347
130.267, 228.798
131.650, 265.200
133.033, 373.270
134.415, 420.242
135.797, 429.142
137.179, 381.486
138.561, 235.743
139.943, 228.139
141.324, 274.619
142.705, 210.802
144.086, 236.269
145.467, 195.292
146.847, 164.980
148.228, 167.699
149.608, 240.514
150.988, 243.416
152.367, 184.394
153.747, 188.427
155.126, 164.513
156.505, 282.633
157.884, 361.776
159.262, 487.930
160.641, 695.101
162.019, 1114.281
163.397, 1509.454
164.775, 1987.611
166.152, 2651.760
167.530, 3162.902
168.907, 3494.036
170.284, 3421.159
171.660, 3003.270
173.037, 2571.352
174.413, 1985.382
175.789, 1629.352
177.165, 1270.264
178.541, 1028.123
179.916, 954.910
181.292, 788.606
182.667, 681.212
184.042, 572.722
185.416, 446.137
186.791, 306.471
188.165, 226.717
189.539, 179.892
190.912, 128.022
192.286, 91.119
193.659, 55.676
195.033, 49.215
196.406, 3.214
197.778, 0.818
199.151, 10.880
200.523, 29.973
201.895, 60.096
203.267, 39.251
204.639, 59.456
206.010, 45.724
207.381, 51.857
208.753, 48.520
210.123, 60.089
211.494, 61.809
212.864, 59.694
214.235, 70.738
215.605, 71.939
216.974, 51.299
218.344, 45.953
219.713, 40.899
221.083, 2.485
222.452, 8.691
223.820, 11.815
225.189, 35.012
226.557, 127.861
227.925, 152.438
229.293, 232.600
230.661, 280.258
232.029, 394.765
233.396, 493.124
234.763, 508.335
236.130, 633.365
237.496, 680.056
238.863, 663.646
240.229, 740.765
241.595, 700.125
242.961, 766.346
244.327, 810.425
245.692, 841.336
247.057, 998.089
248.422, 1146.719
249.787, 1272.651
251.152, 1489.761
252.516, 1708.063
253.880, 1967.045
255.244, 2272.501
256.608, 2746.775
257.972, 3239.867
259.335, 3772.884
260.698, 4254.516
262.061, 4834.353
263.424, 5266.373
264.786, 5722.245
266.149, 5869.026
267.511, 5747.563
268.873, 5645.612
270.234, 5208.311
271.596, 4681.023
272.957, 4263.639
274.318, 3726.802
275.679, 3308.903
277.040, 2892.954
278.400, 2551.953
279.760, 2268.900
281.120, 2082.804
282.480, 1951.656
283.840, 1831.469
285.199, 1734.231
286.558, 1757.918
287.917, 1740.858
289.276, 1963.297
290.635, 2024.154
291.993, 2229.055
293.351, 2513.345
294.709, 2771.002
296.067, 3030.550
297.425, 2956.280
298.782, 2877.937
300.139, 2504.352
301.496, 2147.347
302.853, 1700.199
304.209, 1416.876
305.566, 1158.896
306.922, 941.369
308.278, 847.053
309.633, 754.366
310.989, 699.317
312.344, 641.323
313.699, 627.081
315.054, 607.871
316.409, 568.138
317.763, 605.470
319.118, 585.516
320.472, 508.668
321.826, 566.220
323.179, 541.297
324.533, 571.891
325.886, 525.473
327.239, 559.042
328.592, 545.598
329.944, 528.141
331.297, 538.671
332.649, 504.187
334.001, 532.691
335.353, 559.181
336.704, 578.658
338.056, 536.123
339.407, 535.574
340.758, 543.013
342.109, 530.440
343.459, 523.855
344.810, 642.258
346.160, 590.791
347.510, 651.997
348.860, 554.812
350.209, 565.041
351.559, 509.812
352.908, 512.197
354.257, 520.083
355.605, 527.516
356.954, 520.349
358.302, 533.667
359.650, 513.303
360.998, 545.323
362.346, 503.755
363.694, 497.030
365.041, 543.457
366.388, 542.234
367.735, 491.786
369.082, 521.241
370.428, 527.354
371.774, 547.720
373.121, 542.374
374.466, 545.026
375.812, 522.831
377.158, 460.995
378.503, 443.813
379.848, 416.592
381.193, 411.526
382.537, 384.798
383.882, 358.456
385.226, 356.697
386.570, 361.985
387.914, 342.804
389.258, 357.719
390.601, 399.996
391.944, 377.724
393.287, 394.622
394.630, 409.971
395.973, 365.703
397.315, 405.472
398.658, 415.306
400.000, 465.121
401.342, 433.927
402.683, 496.711
404.025, 498.602
405.366, 563.339
406.707, 613.305
408.048, 622.794
409.388, 751.771
410.729, 887.004
412.069, 975.215
413.409, 928.260
414.749, 918.677
416.088, 821.669
417.428, 764.877
418.767, 765.446
420.106, 735.209
421.445, 750.709
422.783, 751.365
424.122, 761.138
425.460, 815.291
426.798, 784.723
428.136, 904.600
429.473, 967.669
430.811, 1010.315
432.148, 1041.957
433.485, 1060.565
434.821, 1187.236
436.158, 1201.826
437.494, 1266.638
438.831, 1292.938
440.167, 1417.457
441.502, 1526.000
442.838, 1656.559
444.173, 1952.481
445.508, 2137.304
446.843, 2527.948
448.178, 2898.471
449.513, 3340.751
450.847, 3809.030
452.181, 4434.304
453.515, 5305.651
454.849, 6274.922
456.183, 7899.435
457.516, 9952.769
458.849, 12702.636
460.182, 16442.178
461.515, 20971.602
462.847, 25951.102
464.180, 30741.867
465.512, 33261.664
466.844, 33921.238
468.176, 30940.809
469.507, 26570.379
470.839, 21559.918
472.170, 16980.082
473.501, 13519.623
474.831, 10489.201
476.162, 8659.359
477.492, 6826.891
478.822, 5648.418
480.152, 4875.723
481.482, 4121.185
482.812, 3544.759
484.141, 3198.794
485.470, 2936.465
486.799, 2600.044
488.128, 2425.627
489.457, 2291.149
490.785, 2162.675
492.113, 1959.163
493.441, 1859.655
494.769, 1642.118
496.096, 1577.521
497.424, 1512.009
498.751, 1508.423
500.078, 1429.900
501.405, 1323.311
502.731, 1167.735
504.058, 993.157
505.384, 887.584
506.710, 783.216
508.035, 754.445
509.361, 666.883
510.686, 662.325
512.012, 687.774
513.337, 563.232
514.661, 555.699
515.986, 585.189
517.310, 584.699
518.634, 563.224
519.958, 530.770
521.282, 499.342
522.606, 553.938
523.929, 500.729
525.252, 492.534
526.575, 430.936
527.898, 457.672
529.221, 379.448
530.543, 400.260
531.865, 386.109
533.187, 371.998
534.509, 336.922
535.831, 306.885
537.152, 321.885
538.473, 280.925
539.794, 220.997
541.115, 270.099
542.436, 242.230
543.756, 218.385
545.076, 241.561
546.396, 176.753
547.716, 205.960
549.036, 145.174
550.355, 137.395
551.674, 158.620
552.994, 126.848
554.312, 130.078
555.631, 122.307
556.949, 77.536
558.268, 135.764
559.586, 88.991
560.904, 113.217
562.221, 45.442
563.539, 94.666
564.856, 15.888
566.173, 16.892
567.490, 2.319
568.807, 10.473
570.123, 10.271
571.439, 5.075
572.755, 16.885
574.071, 30.702
575.387, 35.533
576.702, 21.380
578.018, 26.126
579.333, 20.105
580.648, 23.984
581.962, 3.127
583.277, 12.006
584.591, 40.658
585.905, 4.572
587.219, 10.490
588.533, 24.410
589.846, 14.657
591.160, 19.725
592.473, 2.800
593.786, 18.873
595.099, 48.057
596.411, 17.000
597.723, 21.951
599.036, 42.913
600.348, 12.104
601.659, 49.880
602.971, 5.881
604.282, 0.887
605.593, 10.105
606.904, 69.094
608.215, 65.083
609.526, 95.072
610.836, 47.059
612.146, 108.104
613.456, 7.154
614.766, 49.149
616.076, 6.767
617.385, 2.207
618.694, 26.177
620.003, 9.710
621.312, 25.326
622.621, 3.855
623.929, 2.088
625.237, 3.158
626.546, 3.093
627.853, 10.285
629.161, 10.651
630.468, 14.321
631.776, 7.298
633.083, 9.609
634.390, 21.289
635.696, 24.335
637.003, 31.377
638.309, 44.024
639.615, 18.003
640.921, 5.080
642.227, 3.875
643.532, 15.784
644.838, 15.106
646.143, 30.785
647.448, 29.759
648.752, 41.401
650.057, 41.005
651.361, 47.913
652.666, 74.559
653.969, 50.840
655.273, 104.903
656.577, 52.856
657.880, 91.772
659.183, 87.743
660.486, 120.639
661.789, 116.071
663.092, 146.859
664.394, 153.513
665.696, 109.166
666.998, 146.997
668.300, 141.082
669.602, 149.347
670.903, 164.018
672.205, 190.450
673.506, 181.989
674.806, 193.879
676.107, 197.908
677.408, 177.321
678.708, 180.197
680.008, 153.181
681.308, 244.000
682.608, 221.928
683.907, 218.836
685.206, 190.212
686.506, 202.609
687.804, 196.087
689.103, 194.884
690.402, 186.722
691.700, 196.984
692.998, 183.697
694.296, 207.011
695.594, 224.735
696.892, 199.460
698.189, 208.115
699.486, 232.887
700.783, 227.824
702.080, 237.701
703.377, 201.680
704.673, 204.290
705.969, 190.921
707.265, 218.481
708.561, 224.020
709.857, 264.546
711.152, 233.063
712.447, 272.570
713.743, 306.062
715.037, 269.548
716.332, 256.024
717.627, 252.490
718.921, 246.508
720.215, 270.259
721.509, 265.441
722.803, 265.069
724.096, 287.176
725.390, 274.997
726.683, 320.810
727.976, 274.761
729.269, 282.310
730.561, 386.267
731.854, 382.970
733.146, 474.287
734.438, 520.383
735.730, 555.757
737.021, 556.913
738.313, 476.479
739.604, 463.467
740.895, 396.820
742.186, 378.659
743.476, 383.071
744.767, 353.158
746.057, 339.249
747.347, 300.000
748.637, 286.051
749.927, 242.057
751.216, 184.835
752.506, 193.249
753.795, 173.344
755.084, 172.311
756.373, 129.487
757.661, 116.521
758.950, 100.325
760.238, 77.545
761.526, 110.432
762.814, 126.544
764.101, 77.655
765.389, 89.747
766.676, 56.752
767.963, 55.135
769.250, 67.644
770.536, 45.630
771.823, 101.071
773.109, 79.828
774.395, 9.690
775.681, 132.467
776.967, 9.972
778.252, 70.444
779.538, 36.124
780.823, 73.821
782.108, 80.504
783.393, 13.222
784.677, 53.311
785.962, 51.023
787.246, 22.696
788.530, 91.780
789.814, 29.492
791.097, 12.206
792.381, 7.141
793.664, 36.909
794.947, 50.559
796.230, 38.738
797.513, 48.269
798.795, 7.881
800.077, 0.475
801.359, 9.116
802.641, 11.261
803.923, 1.384
805.205, 41.008
806.486, 32.348
807.767, 26.670
809.048, 14.904
810.329, 25.540
811.610, 33.100
812.890, 38.285
814.170, 35.294
815.450, 14.138
816.730, 69.407
818.010, 18.057
819.289, 1.547
820.569, 43.945
821.848, 10.429
823.126, 4.900
824.405, 24.357
825.684, 28.196
826.962, 17.779
828.240, 20.614
829.518, 9.995
830.796, 0.366
832.074, 18.721
833.351, 9.934
834.628, 28.391
835.905, 11.707
837.182, 12.011
838.459, 17.695
839.735, 1.424
841.011, 3.169
842.287, 8.929
843.563, 12.292
844.839, 0.497
846.115, 33.700
847.390, 2.111
848.665, 26.064
849.940, 23.229
851.215, 37.386
852.489, 11.465
853.764, 2.666
855.038, 3.785
856.312, 0.894
857.586, 33.991
858.859, 26.081
860.133, 40.163
861.406, 42.237
862.679, 54.304
863.952, 58.364
865.225, 53.418
866.497, 80.464
867.770, 64.504
869.042, 100.537
870.314, 101.564
871.585, 96.583
872.857, 117.597
874.128, 69.604
875.400, 72.607
876.671, 46.607
877.942, 54.602
879.212, 94.594
880.483, 69.583
881.753, 87.569
883.023, 30.552
884.293, 93.536
885.563, 51.522
886.832, 64.507
888.101, 22.492
889.371, 38.476
890.640, 8.540
891.908, 5.565
893.177, 18.404
894.445, 29.376
895.714, 13.655
896.982, 13.305
898.250, 6.735
899.517, 41.783
900.785, 1.144
902.052, 25.066
903.319, 36.015
904.586, 3.108
905.853, 3.797
907.119, 51.702
908.386, 6.388
909.652, 28.483
910.918, 4.585
912.184, 10.691
913.449, 23.197
914.715, 36.081
915.980, 16.961
917.245, 38.837
918.510, 55.709
919.775, 77.518
921.039, 25.318
922.303, 34.167
923.568, 18.921
924.831, 57.779
926.095, 38.635
927.359, 23.922
928.622, 54.772
929.885, 46.104
931.148, 101.957
932.411, 106.676
933.674, 138.526
934.936, 105.374
936.199, 131.819
937.461, 97.610
938.723, 139.390
939.984, 199.048
941.246, 137.893
942.507, 178.584
943.769, 192.027
945.030, 245.343
946.290, 216.077
947.551, 244.867
948.811, 285.611
950.072, 283.396
951.332, 330.761
952.592, 320.765
953.851, 321.177
955.111, 310.497
956.370, 380.560
957.629, 421.313
958.888, 525.323
960.147, 586.694
961.406, 747.276
962.664, 824.965
963.922, 1072.686
965.180, 1332.349
966.438, 1488.081
967.696, 1596.273
968.953, 1657.105
970.211, 1659.067
971.468, 1691.026
972.725, 1762.801
973.982, 1826.319
975.238, 1793.653
976.495, 1774.354
977.751, 1740.738
979.007, 2004.788
980.263, 2353.482
981.518, 3103.034
982.774, 3989.197
984.029, 5776.892
985.284, 8109.479
986.539, 10387.227
987.794, 12114.863
989.048, 11652.512
990.303, 9698.701
991.557, 7149.863
992.811, 5122.939
994.065, 3639.708
995.318, 2623.440
996.572, 1892.754
997.825, 1536.612
999.078, 1235.865
1000.331, 1075.704
1001.584, 851.539
1002.836, 773.442
1004.089, 625.232
1005.341, 642.849
1006.593, 550.520
1007.845, 524.095
1009.096, 533.031
1010.348, 564.943
1011.599, 516.942
1012.850, 579.955
1014.101, 619.979
1015.352, 523.018
1016.602, 452.059
1017.853, 401.108
1019.103, 303.160
1020.353, 312.222
1021.603, 224.293
1022.852, 240.369
1024.102, 156.459
1025.351, 227.553
1026.600, 162.650
1027.849, 195.756
1029.098, 141.866
1030.346, 233.980
1031.595, 256.102
1032.843, 241.225
1034.091, 230.353
1035.339, 264.500
1036.586, 278.650
1037.834, 216.803
1039.081, 267.926
1040.328, 250.091
1041.575, 273.712
1042.822, 311.511
1044.068, 354.642
1045.314, 357.822
1046.561, 386.214
1047.807, 445.336
1049.052, 482.148
1050.298, 594.901
1051.544, 694.983
1052.789, 875.171
1054.034, 1094.345
1055.279, 1230.377
1056.523, 1563.489
1057.768, 1885.688
1059.012, 2149.643
1060.257, 2393.359
1061.501, 2465.385
1062.744, 2576.156
1063.988, 2543.366
1065.231, 2501.578
1066.475, 2519.781
1067.718, 2376.997
1068.961, 2222.229
1070.203, 2034.450
1071.446, 1741.725
1072.688, 1521.951
1073.931, 1348.197
1075.173, 1091.509
1076.414, 999.746
1077.656, 831.983
1078.898, 780.323
1080.139, 638.567
1081.380, 653.814
1082.621, 613.062
1083.862, 507.409
1085.102, 438.672
1086.343, 448.928
1087.583, 433.187
1088.823, 385.448
1090.063, 373.711
1091.302, 340.976
1092.542, 353.244
1093.781, 259.588
1095.020, 271.934
1096.259, 275.310
1097.498, 230.724
1098.737, 266.136
1099.975, 279.475
1101.213, 227.917
1102.451, 213.221
1103.689, 194.560
1104.927, 181.865
1106.164, 182.609
1107.402, 210.731
1108.639, 199.056
1109.876, 187.393
1111.113, 212.904
1112.349, 204.431
1113.586, 143.871
1114.822, 141.458
1116.058, 173.911
1117.294, 150.526
1118.530, 169.093
1119.765, 162.168
1121.001, 126.945
1122.236, 138.585
1123.471, 148.209
1124.706, 120.994
1125.940, 152.789
1127.175, 117.455
1128.409, 131.161
1129.643, 143.824
1130.877, 151.406
1132.111, 136.045
1133.344, 91.310
1134.578, 106.200
1135.811, 175.069
1137.044, 108.642
1138.277, 145.796
1139.510, 98.808
1140.742, 132.541
1141.974, 165.798
1143.206, 158.919
1144.438, 196.281
1145.670, 152.254
1146.902, 103.187
1148.133, 106.333
1149.365, 116.850
1150.596, 106.298
1151.827, 155.561
1153.057, 116.185
1154.288, 165.923
1155.518, 156.437
1156.748, 131.049
1157.978, 141.556
1159.208, 143.646
1160.438, 110.354
1161.667, 131.307
1162.897, 144.646
1164.126, 164.348
1165.355, 152.941
1166.583, 123.524
1167.812, 113.013
1169.040, 104.882
1170.269, 107.812
1171.497, 108.084
1172.725, 136.769
1173.952, 121.460
1175.180, 110.515
1176.407, 62.169
1177.634, 162.022
1178.861, 74.746
1180.088, 125.067
1181.315, 158.646
1182.541, 70.171
1183.767, 100.876
1184.994, 104.255
1186.220, 68.778
1187.445, 111.822
1188.671, 120.452
1189.896, 108.791
1191.121, 130.122
1192.346, 89.487
1193.571, 88.747
1194.796, 101.004
1196.021, 79.254
1197.245, 71.501
1198.469, 60.917
1199.693, 88.161
1200.917, 69.399
1202.140, 66.639
1203.364, 126.873
1204.587, 64.155
1205.810, 73.533
1207.033, 129.778
1208.256, 104.092
1209.479, 100.303
1210.701, 68.512
1211.923, 55.760
1213.145, 102.112
1214.367, 63.300
1215.589, 49.485
1216.810, 73.673
1218.032, 41.887
1219.253, 55.283
1220.474, 51.458
1221.695, 36.770
1222.915, 55.939
1224.136, 86.105
1225.356, 34.429
1226.576, 88.589
1227.796, 61.746
1229.016, 73.899
1230.235, 38.048
1231.455, 59.192
1232.674, 128.333
1233.893, 104.469
1235.112, 90.602
1236.331, 108.730
1237.549, 96.854
1238.767, 94.972
1239.986, 49.083
1241.204, 50.216
1242.421, 44.316
1243.639, 36.236
1244.857, 38.022
1246.074, 56.568
1247.291, 33.635
1248.508, 68.689
1249.725, 61.723
1250.941, 72.746
1252.158, 28.726
1253.374, 59.679
1254.590, 84.618
1255.806, 88.538
1257.022, 34.433
1258.237, 31.299
1259.453, 53.150
1260.668, 21.956
1261.883, 54.725
1263.098, 18.475
1264.312, 30.200
1265.527, 72.903
1266.741, 61.574
1267.955, 17.223
1269.169, 21.855
1270.383, 3.467
1271.597, 3.035
1272.810, 17.588
1274.024, 14.114
1275.237, 19.618
1276.450, 39.108
1277.662, 26.586
1278.875, 4.948
1280.087, 1.502
1281.300, 2.937
1282.512, 44.358
1283.724, 34.234
1284.935, 0.149
1286.147, 16.516
1287.358, 51.132
1288.569, 32.809
1289.780, 36.513
1290.991, 1.756
1292.202, 3.008
1293.412, 0.758
1294.623, 6.542
1295.833, 5.346
1297.043, 34.170
1298.253, 37.977
1299.462, 19.107
1300.672, 37.781
1301.881, 40.301
1303.090, 5.636
1304.299, 78.596
1305.508, 22.402
1306.716, 12.619
1307.925, 34.664
1309.133, 22.262
1310.341, 6.830
1311.549, 41.057
1312.757, 21.071
1313.964, 11.223
1315.172, 4.604
1316.379, 33.585
1317.586, 21.202
1318.793, 19.974
1320.000, 14.268
1321.206, 23.470
1322.412, 7.194
1323.619, 9.097
1324.825, 90.593
1326.030, 38.729
1327.236, 6.077
1328.442, 15.556
1329.647, 71.177
1330.852, 6.214
1332.057, 1.378
1333.262, 8.044
1334.466, 75.519
1335.671, 76.073
1336.875, 66.618
1338.079, 141.154
1339.283, 150.684
1340.487, 143.206
1341.690, 94.722
1342.894, 50.234
1344.097, 100.740
1345.300, 107.243
1346.503, 94.745
1347.706, 115.246
1348.908, 76.748
1350.111, 52.254
1351.313, 82.792
1352.515, 66.311
1353.717, 109.842
1354.918, 90.983
1356.120, 79.549
1357.321, 52.940
1358.523, 113.167
1359.724, 94.720
1360.924, 90.224
1362.125, 83.748
1363.326, 40.187
1364.526, 145.596
1365.726, 60.095
1366.926, 122.479
1368.126, 110.938
1369.325, 56.395
1370.525, 103.837
1371.724, 141.186
1372.923, 137.412
1374.122, 117.511
1375.321, 127.971
1376.520, 148.955
1377.718, 121.086
1378.916, 130.348
1380.114, 144.461
1381.312, 182.422
1382.510, 102.313
1383.708, 154.033
1384.905, 95.161
1386.102, 129.772
1387.299, 193.972
1388.496, 129.440
1389.693, 221.055
1390.889, 177.805
1392.086, 155.716
1393.282, 155.991
1394.478, 129.836
1395.674, 129.065
1396.870, 169.217
1398.065, 135.375
1399.261, 149.238
1400.456, 153.710
1401.651, 112.544
1402.846, 119.327
1404.040, 148.175
1405.235, 88.005
1406.429, 168.135
1407.623, 137.986
1408.817, 79.121
1410.011, 179.320
1411.205, 141.253
1412.398, 122.037
1413.592, 132.855
1414.785, 113.513
1415.978, 99.627
1417.171, 125.141
1418.363, 124.526
1419.556, 153.004
1420.748, 100.727
1421.940, 110.423
1423.132, 142.789
1424.324, 119.424
1425.515, 167.927
1426.707, 131.143
1427.898, 148.483
1429.089, 104.875
1430.280, 117.004
1431.471, 56.369
1432.662, 142.142
1433.852, 76.053
1435.042, 53.170
1436.232, 108.843
1437.422, 124.771
1438.612, 74.612
1439.802, 136.355
1440.991, 32.997
1442.180, 121.539
1443.369, 156.919
1444.558, 82.263
1445.747, 112.512
1446.936, 126.684
1448.124, 68.838
1449.312, 183.138
1450.500, 65.454
1451.688, 161.853
1452.876, 117.356
1454.063, 111.073
1455.251, 131.870
1456.438, 165.813
1457.625, 70.805
1458.812, 145.995
1459.999, 95.296
1461.185, 103.612
1462.372, 217.905
1463.558, 64.178
1464.744, 94.444
1465.930, 134.702
1467.115, 158.964
1468.301, 67.246
1469.486, 122.557
1470.672, 56.902
1471.857, 209.302
1473.041, 108.783
1474.226, 51.372
1475.411, 187.088
1476.595, 115.936
1477.779, 85.913
1478.963, 157.008
1480.147, 65.216
1481.331, 51.524
1482.514, 118.948
1483.698, 61.516
1484.881, 80.259
1486.064, 90.208
1487.247, 18.399
1488.429, 85.860
1489.612, 60.618
1490.794, 55.712
1491.976, 76.207
1493.158, 20.196
1494.340, 38.790
1495.522, 75.130
1496.703, 2.565
1497.885, 107.725
1499.066, 71.845
1500.247, 0.000
##END=



