##NAMES=Spessartine
##RRUFFID=R050063
##IDEAL CHEMISTRY=Mn^2+^_3_Al_2_(SiO_4_)_3_
##LOCALITY=Fujian Province, China
##OWNER=RRUFF
##SOURCE=Rock Currier
##DESCRIPTION=Reddish brown crystals
##STATUS=The identification of this mineral has been confirmed by X-ray diffraction and chemical analysis
##URL=rruff.info/R050063
##MEASURED CHEMISTRY=(Mn_2.72_Fe_0.24_Ca_0.04_)_Σ=3_(Al_1.95_Fe^3+^_0.05_)_Σ=2_(Si_1.00_O_4_)_2.75_(F_0.58_(OH)_0.42_)_Σ=1_; trace amounts of Mg; OH estimated by charge balance
##PIN_ID=L00458
##ORIENTATION=Laser parallel to c* (0 0 1). Fiducial mark perpendicular to laser is parallel to a [1 0 0]
49.365, 0.000
50.765, 83.335
52.166, 331.019
53.566, 538.505
54.966, 646.880
56.365, 910.576
57.765, 933.458
59.164, 1080.813
60.563, 1339.476
61.962, 1617.089
63.360, 2045.283
64.758, 2488.202
66.157, 2570.139
67.554, 2355.092
68.952, 1899.833
70.349, 1531.890
71.747, 1359.938
73.144, 1282.017
74.540, 1028.374
75.937, 822.289
77.333, 651.272
78.729, 532.631
80.125, 339.376
81.521, 271.855
82.916, 163.009
84.311, 25.783
85.706, 91.214
87.101, 10.482
88.496, 39.420
89.890, 19.228
91.284, 43.486
92.678, 57.472
94.071, 58.065
95.465, 7.046
96.858, 25.291
98.251, 10.647
99.644, 24.586
101.036, 30.649
102.428, 17.523
103.820, 10.424
105.212, 43.488
106.604, 7.723
107.995, 76.848
109.387, 216.237
110.777, 237.458
112.168, 246.521
113.559, 405.873
114.949, 479.252
116.339, 553.495
117.729, 558.865
119.119, 471.913
120.508, 453.896
121.897, 431.527
123.286, 470.671
124.675, 532.357
126.063, 544.093
127.452, 506.482
128.840, 554.025
130.228, 489.942
131.615, 531.778
133.003, 601.904
134.390, 463.852
135.777, 529.014
137.164, 505.436
138.550, 588.920
139.937, 568.562
141.323, 554.370
142.709, 474.655
144.094, 378.346
145.480, 393.292
146.865, 404.805
148.250, 322.908
149.635, 406.067
151.019, 426.460
152.403, 613.879
153.788, 678.100
155.171, 888.875
156.555, 1225.601
157.939, 1674.976
159.322, 2135.191
160.705, 2625.016
162.088, 3079.618
163.470, 2985.875
164.853, 2574.936
166.235, 2029.983
167.617, 1478.039
168.998, 1217.101
170.380, 879.168
171.761, 806.240
173.142, 691.300
174.523, 700.349
175.904, 661.385
177.284, 605.417
178.664, 630.444
180.044, 585.462
181.424, 565.463
182.803, 528.448
184.183, 501.421
185.562, 439.404
186.940, 443.402
188.319, 484.416
189.698, 416.447
191.076, 371.496
192.454, 339.557
193.831, 438.632
195.209, 367.051
196.586, 311.371
197.963, 316.930
199.340, 147.051
200.717, 104.177
202.093, 80.307
203.470, 2.312
204.846, 49.575
206.221, 49.285
207.597, 9.853
208.972, 22.980
210.347, 12.907
211.722, 24.817
213.097, 22.739
214.472, 8.676
215.846, 6.135
217.220, 74.531
218.594, 92.193
219.967, 162.989
221.341, 143.845
222.714, 126.727
224.087, 182.601
225.460, 244.437
226.832, 210.226
228.204, 221.017
229.577, 229.741
230.948, 216.379
232.320, 217.942
233.692, 279.407
235.063, 218.691
236.434, 298.939
237.805, 263.196
239.175, 268.843
240.545, 233.486
241.916, 257.606
243.286, 269.348
244.655, 269.207
246.025, 270.508
247.394, 228.174
248.763, 247.654
250.132, 246.450
251.501, 268.959
252.869, 303.121
254.237, 270.280
255.605, 278.459
256.973, 232.133
258.340, 233.974
259.708, 243.934
261.075, 201.101
262.442, 211.535
263.808, 207.363
265.175, 189.988
266.541, 180.381
267.907, 170.489
269.273, 223.495
270.639, 124.597
272.004, 213.113
273.369, 310.474
274.734, 246.201
276.099, 297.147
277.463, 316.232
278.828, 383.213
280.192, 443.521
281.556, 489.534
282.919, 524.217
284.283, 614.965
285.646, 695.631
287.009, 772.502
288.372, 935.977
289.734, 1038.649
291.097, 1233.693
292.459, 1300.258
293.821, 1487.040
295.183, 1717.810
296.544, 1739.449
297.905, 1981.383
299.266, 2129.801
300.627, 2294.497
301.988, 2466.523
303.348, 2533.526
304.709, 2778.599
306.069, 2796.386
307.428, 2927.239
308.788, 3032.312
310.147, 3211.498
311.507, 3260.531
312.865, 3341.900
314.224, 3401.797
315.583, 3421.142
316.941, 3453.292
318.299, 3466.981
319.657, 3541.743
321.015, 3612.663
322.372, 3547.424
323.729, 3693.352
325.086, 3775.146
326.443, 4025.920
327.800, 4155.573
329.156, 4349.369
330.512, 4808.175
331.868, 4963.994
333.224, 5393.822
334.579, 5651.663
335.935, 6068.515
337.290, 6504.382
338.645, 6719.260
339.999, 7009.153
341.354, 7183.889
342.708, 7378.767
344.062, 7383.502
345.416, 7348.194
346.769, 7352.779
348.123, 7067.299
349.476, 6871.606
350.829, 6602.985
352.182, 6186.586
353.534, 6196.961
354.887, 5856.200
356.239, 5787.358
357.591, 5455.982
358.942, 5408.360
360.294, 5465.571
361.645, 5271.858
362.996, 5546.501
364.347, 5578.025
365.698, 5885.509
367.048, 6051.722
368.398, 6226.189
369.748, 6612.385
371.098, 6661.807
372.448, 6927.339
373.797, 7000.653
375.146, 7003.794
376.495, 6889.037
377.844, 6577.604
379.192, 6401.270
380.540, 5839.167
381.889, 5402.085
383.236, 4972.246
384.584, 4516.286
385.932, 4232.200
387.279, 3762.319
388.626, 3519.656
389.973, 3143.814
391.319, 2924.992
392.666, 2733.179
394.012, 2397.290
395.358, 2343.395
396.704, 2092.746
398.049, 1994.838
399.394, 1811.267
400.740, 1660.553
402.084, 1570.874
403.429, 1487.062
404.774, 1399.088
406.118, 1308.538
407.462, 1271.176
408.806, 1151.639
410.150, 1087.967
411.493, 1065.428
412.836, 974.955
414.179, 912.631
415.522, 835.533
416.865, 764.338
418.207, 706.371
419.549, 618.250
420.891, 567.236
422.233, 476.363
423.575, 431.374
424.916, 402.487
426.257, 320.653
427.598, 244.822
428.939, 122.028
430.279, 191.247
431.619, 149.751
432.959, 58.920
434.299, 39.519
435.639, 13.418
436.978, 23.233
438.318, 40.162
439.657, 15.104
440.996, 25.056
442.334, 52.985
443.673, 40.031
445.011, 17.082
446.349, 72.129
447.687, 23.813
449.024, 73.237
450.361, 50.701
451.699, 50.356
453.036, 60.580
454.372, 9.522
455.709, 11.532
457.045, 36.417
458.381, 36.370
459.717, 6.327
461.053, 7.289
462.388, 18.745
463.724, 1.221
465.059, 7.811
466.394, 31.157
467.728, 14.871
469.063, 26.101
470.397, 12.080
471.731, 30.937
473.065, 42.043
474.398, 1.969
475.732, 41.021
477.065, 66.015
478.398, 6.990
479.731, 51.001
481.063, 2.010
482.396, 41.975
483.728, 2.042
485.060, 19.936
486.391, 33.911
487.723, 30.117
489.054, 93.901
490.385, 63.964
491.716, 110.159
493.047, 162.545
494.377, 128.804
495.708, 200.354
497.038, 128.798
498.368, 244.411
499.697, 259.134
501.027, 273.806
502.356, 342.375
503.685, 374.413
505.014, 379.388
506.342, 374.419
507.671, 379.311
508.999, 411.993
510.327, 431.323
511.655, 496.322
512.982, 512.699
514.310, 569.261
515.637, 603.452
516.964, 583.399
518.291, 626.486
519.617, 646.969
520.944, 713.147
522.270, 722.542
523.596, 697.964
524.921, 824.972
526.247, 816.019
527.572, 870.531
528.897, 996.281
530.222, 1078.017
531.547, 1196.048
532.871, 1362.264
534.196, 1514.594
535.520, 1815.540
536.844, 2049.558
538.167, 2466.763
539.491, 2683.337
540.814, 3196.856
542.137, 3686.257
543.460, 4176.862
544.783, 4779.157
546.105, 5041.795
547.427, 5414.493
548.749, 5316.842
550.071, 4914.786
551.393, 4646.587
552.714, 3970.126
554.035, 3451.598
555.356, 3022.848
556.677, 2534.060
557.998, 2295.185
559.318, 1917.327
560.638, 1745.414
561.958, 1501.354
563.278, 1366.220
564.597, 1305.993
565.917, 1133.652
567.236, 1115.264
568.555, 1035.921
569.874, 929.553
571.192, 947.070
572.511, 871.565
573.829, 886.016
575.147, 798.432
576.464, 761.927
577.782, 770.390
579.099, 720.790
580.416, 746.362
581.733, 666.725
583.050, 677.142
584.366, 596.492
585.683, 580.967
586.999, 631.354
588.315, 563.619
589.630, 579.875
590.946, 543.048
592.261, 520.179
593.576, 555.272
594.891, 516.303
596.206, 522.299
597.520, 447.247
598.834, 473.157
600.148, 452.052
601.462, 409.552
602.776, 379.401
604.089, 371.817
605.402, 369.582
606.715, 419.340
608.028, 423.000
609.341, 421.731
610.653, 429.086
611.965, 399.734
613.277, 475.317
614.589, 448.613
615.901, 500.178
617.212, 456.714
618.523, 476.168
619.834, 516.598
621.145, 544.578
622.456, 605.912
623.766, 617.277
625.076, 610.439
626.386, 654.387
627.696, 634.696
629.006, 654.937
630.315, 637.362
631.624, 637.585
632.933, 616.632
634.242, 575.796
635.551, 557.931
636.859, 497.792
638.167, 455.868
639.475, 400.757
640.783, 369.775
642.090, 330.729
643.398, 294.589
644.705, 274.462
646.012, 229.493
647.318, 218.363
648.625, 186.203
649.931, 140.012
651.237, 169.787
652.543, 99.531
653.849, 124.240
655.155, 82.915
656.460, 55.555
657.765, 67.159
659.070, 90.727
660.375, 10.260
661.679, 36.744
662.984, 5.813
664.288, 3.427
665.592, 2.100
666.895, 23.829
668.199, 20.626
669.502, 42.490
670.805, 29.432
672.108, 23.447
673.411, 19.529
674.713, 37.679
676.016, 75.905
677.318, 39.226
678.620, 74.625
679.921, 75.120
681.223, 52.711
682.524, 69.386
683.825, 29.154
685.126, 64.994
686.427, 64.924
687.727, 53.945
689.028, 89.050
690.328, 75.258
691.628, 53.562
692.927, 86.950
694.227, 74.439
695.526, 33.023
696.825, 32.679
698.124, 15.407
699.423, 35.198
700.721, 20.937
702.020, 36.971
703.318, 10.046
704.616, 17.016
705.913, 3.940
707.211, 29.814
708.508, 38.647
709.805, 10.443
711.102, 64.192
712.399, 67.908
713.695, 83.589
714.992, 74.238
716.288, 81.854
717.584, 111.437
718.879, 123.947
720.175, 140.492
721.470, 162.000
722.765, 167.461
724.060, 150.893
725.355, 151.296
726.649, 172.670
727.944, 172.015
729.238, 176.333
730.532, 178.120
731.825, 152.885
733.119, 154.120
734.412, 162.326
735.705, 114.505
736.998, 157.654
738.291, 137.777
739.584, 146.872
740.876, 109.940
742.168, 123.979
743.460, 145.991
744.752, 140.976
746.043, 152.934
747.334, 155.867
748.626, 157.379
749.916, 159.655
751.207, 164.511
752.498, 175.343
753.788, 184.151
755.078, 197.934
756.368, 196.694
757.658, 206.436
758.947, 203.698
760.237, 221.861
761.526, 189.549
762.815, 167.213
764.104, 144.864
765.392, 177.492
766.680, 192.104
767.969, 168.693
769.257, 193.261
770.544, 164.807
771.832, 184.333
773.119, 175.836
774.406, 163.318
775.693, 212.782
776.980, 180.227
778.267, 214.656
779.553, 262.070
780.839, 250.463
782.125, 282.848
783.411, 271.214
784.697, 321.567
785.982, 344.910
787.267, 346.233
788.552, 367.538
789.837, 365.832
791.122, 401.109
792.406, 384.372
793.690, 370.616
794.974, 393.843
796.258, 437.061
797.542, 447.266
798.825, 499.462
800.108, 545.651
801.391, 582.774
802.674, 559.849
803.957, 664.778
805.239, 717.503
806.522, 703.348
807.804, 824.887
809.085, 844.519
810.367, 877.972
811.649, 940.305
812.930, 976.680
814.211, 960.149
815.492, 950.145
816.772, 957.192
818.053, 1018.172
819.333, 924.278
820.613, 1018.444
821.893, 1000.222
823.173, 1015.176
824.452, 1044.734
825.732, 954.089
827.011, 987.800
828.290, 930.737
829.568, 1043.519
830.847, 1114.886
832.125, 1110.543
833.403, 1234.967
834.681, 1344.353
835.959, 1376.140
837.236, 1560.876
838.514, 1575.137
839.791, 1778.155
841.068, 1866.180
842.345, 1894.900
843.621, 2054.424
844.898, 2106.823
846.174, 2221.597
847.450, 2252.290
848.726, 2316.787
850.001, 2355.902
851.277, 2366.061
852.552, 2463.328
853.827, 2506.377
855.102, 2408.724
856.376, 2531.716
857.651, 2404.636
858.925, 2508.894
860.199, 2464.544
861.473, 2346.325
862.746, 2533.356
864.020, 2538.442
865.293, 2464.739
866.566, 2652.061
867.839, 2580.459
869.112, 2744.830
870.384, 2825.241
871.656, 2754.788
872.928, 3031.399
874.200, 3054.091
875.472, 3211.884
876.744, 3383.711
878.015, 3507.482
879.286, 3769.827
880.557, 3964.155
881.828, 4297.051
883.098, 4608.980
884.369, 4888.930
885.639, 5407.787
886.909, 5776.663
888.178, 6139.587
889.448, 6997.328
890.717, 7339.262
891.987, 8588.124
893.256, 9447.046
894.524, 10465.827
895.793, 12384.680
897.061, 13903.640
898.330, 16152.595
899.598, 19121.619
900.865, 21950.668
902.133, 25909.740
903.401, 30388.840
904.668, 34367.969
905.935, 38577.137
907.202, 40306.316
908.468, 43235.516
909.735, 41894.703
911.001, 39213.918
912.267, 37173.129
913.533, 31932.361
914.799, 28651.600
916.064, 24560.852
917.330, 20490.080
918.595, 18499.357
919.860, 15188.634
921.124, 13457.929
922.389, 11497.233
923.653, 10006.550
924.918, 8865.880
926.182, 7683.220
927.445, 6695.921
928.709, 6172.287
929.972, 5261.479
931.236, 4887.807
932.499, 4426.208
933.761, 4033.560
935.024, 3823.374
936.286, 3500.018
937.549, 3333.659
938.811, 3209.124
940.073, 2979.601
941.334, 2846.934
942.596, 2636.651
943.857, 2574.667
945.118, 2549.204
946.379, 2371.819
947.640, 2329.235
948.900, 2220.593
950.161, 2107.058
951.421, 2124.063
952.681, 1908.358
953.940, 1876.999
955.200, 1791.983
956.459, 1693.165
957.719, 1750.757
958.978, 1611.682
960.236, 1585.808
961.495, 1524.072
962.753, 1397.064
964.012, 1454.167
965.270, 1328.271
966.527, 1300.579
967.785, 1305.203
969.043, 1142.940
970.300, 1202.583
971.557, 1086.750
972.814, 1067.165
974.071, 973.090
975.327, 902.045
976.583, 866.038
977.840, 820.065
979.095, 801.124
980.351, 723.214
981.607, 697.341
982.862, 640.564
984.117, 704.774
985.372, 643.030
986.627, 666.454
987.882, 678.797
989.136, 650.184
990.390, 723.900
991.644, 672.365
992.898, 723.874
994.152, 744.422
995.405, 735.021
996.659, 872.672
997.912, 799.357
999.165, 844.091
1000.417, 924.870
1001.670, 880.685
1002.922, 1032.533
1004.174, 1004.412
1005.426, 994.326
1006.678, 1047.260
1007.930, 1033.230
1009.181, 1140.225
1010.432, 1079.241
1011.683, 1176.281
1012.934, 1274.339
1014.185, 1188.417
1015.435, 1302.518
1016.685, 1284.645
1017.935, 1285.788
1019.185, 1419.949
1020.435, 1314.127
1021.684, 1356.322
1022.934, 1492.532
1024.183, 1487.762
1025.432, 1499.008
1026.680, 1509.268
1027.929, 1484.542
1029.177, 1432.528
1030.425, 1358.141
1031.673, 1257.465
1032.921, 1129.808
1034.169, 976.165
1035.416, 883.536
1036.663, 754.920
1037.911, 630.316
1039.157, 593.727
1040.404, 481.153
1041.650, 451.593
1042.897, 364.048
1044.143, 279.516
1045.389, 303.996
1046.634, 267.491
1047.880, 258.000
1049.125, 237.525
1050.371, 174.062
1051.615, 199.612
1052.860, 176.180
1054.105, 135.760
1055.349, 141.354
1056.593, 118.449
1057.837, 111.580
1059.081, 100.211
1060.325, 65.853
1061.568, 55.506
1062.812, 37.172
1064.055, 29.666
1065.298, 37.441
1066.540, 31.238
1067.783, 47.954
1069.025, 62.686
1070.267, 37.433
1071.509, 58.190
1072.751, 23.959
1073.993, 10.738
1075.234, 38.527
1076.475, 15.662
1077.716, 28.155
1078.957, 27.018
1080.198, 29.185
1081.438, 10.647
1082.679, 48.513
1083.919, 14.675
1085.159, 32.833
1086.398, 31.988
1087.638, 12.854
1088.877, 6.705
1090.116, 43.436
1091.355, 7.585
1092.594, 14.729
1093.833, 2.128
1095.071, 1.750
1096.309, 41.139
1097.547, 19.278
1098.785, 40.418
1100.023, 49.567
1101.260, 15.730
1102.498, 76.893
1103.735, 28.083
1104.972, 31.280
1106.208, 56.485
1107.445, 24.710
1108.681, 27.940
1109.918, 48.179
1111.154, 42.434
1112.389, 43.705
1113.625, 42.992
1114.860, 63.294
1116.096, 32.622
1117.331, 33.963
1118.566, 12.316
1119.800, 21.672
1121.035, 6.036
1122.269, 24.598
1123.503, 111.237
1124.737, 147.880
1125.971, 97.526
1127.205, 70.177
1128.438, 17.830
1129.671, 34.487
1130.904, 7.146
1132.137, 14.807
1133.370, 45.471
1134.602, 6.137
1135.834, 20.803
1137.066, 22.470
1138.298, 15.861
1139.530, 24.797
1140.762, 56.455
1141.993, 57.114
1143.224, 43.774
1144.455, 14.433
1145.686, 35.091
1146.917, 73.749
1148.147, 71.406
1149.377, 88.099
1150.607, 78.753
1151.837, 88.406
1153.067, 138.081
1154.296, 109.765
1155.526, 88.543
1156.755, 121.548
1157.984, 101.303
1159.213, 109.038
1160.441, 121.702
1161.670, 115.519
1162.898, 161.790
1164.126, 130.688
1165.354, 162.445
1166.581, 147.931
1167.809, 122.745
1169.036, 164.924
1170.263, 130.964
1171.490, 113.614
1172.717, 171.824
1173.943, 116.760
1175.170, 182.402
1176.396, 181.616
1177.622, 151.694
1178.848, 185.800
1180.073, 155.980
1181.299, 193.705
1182.524, 172.763
1183.749, 134.339
1184.974, 192.968
1186.199, 164.057
1187.423, 145.113
1188.648, 211.956
1189.872, 136.055
1191.096, 134.836
1192.320, 165.457
1193.543, 152.434
1194.767, 146.430
1195.990, 166.738
1197.213, 150.574
1198.436, 162.464
1199.659, 147.207
1200.881, 120.234
1202.104, 167.314
1203.326, 127.436
1204.548, 144.188
1205.770, 158.902
1206.991, 144.552
1208.213, 133.255
1209.434, 122.205
1210.655, 131.748
1211.876, 110.209
1213.096, 118.231
1214.317, 166.451
1215.537, 129.062
1216.757, 161.625
1217.977, 175.273
1219.197, 167.226
1220.417, 141.634
1221.636, 138.303
1222.855, 136.648
1224.074, 165.027
1225.293, 153.449
1226.512, 158.219
1227.731, 186.610
1228.949, 137.052
1230.167, 129.831
1231.385, 221.931
1232.603, 202.553
1233.820, 146.734
1235.038, 196.124
1236.255, 143.483
1237.472, 190.236
1238.689, 175.163
1239.906, 132.888
1241.122, 190.962
1242.338, 172.122
1243.555, 175.736
1244.771, 234.227
1245.986, 191.835
1247.202, 201.886
1248.417, 224.516
1249.633, 199.062
1250.848, 204.863
1252.063, 206.389
1253.277, 204.608
1254.492, 200.431
1255.706, 187.109
1256.920, 227.537
1258.134, 206.289
1259.348, 179.028
1260.562, 217.725
1261.775, 212.248
1262.988, 187.378
1264.201, 205.436
1265.414, 185.612
1266.627, 210.239
1267.839, 198.635
1269.052, 186.616
1270.264, 233.585
1271.476, 188.478
1272.688, 171.358
1273.899, 152.216
1275.111, 177.060
1276.322, 169.936
1277.533, 160.697
1278.744, 167.606
1279.955, 145.484
1281.165, 131.239
1282.376, 110.983
1283.586, 136.717
1284.796, 71.139
1286.006, 140.927
1287.215, 133.619
1288.425, 89.294
1289.634, 100.951
1290.843, 136.580
1292.052, 78.198
1293.261, 87.798
1294.469, 54.384
1295.678, 74.954
1296.886, 80.592
1298.094, 59.120
1299.302, 56.618
1300.509, 34.096
1301.717, 18.560
1302.924, 38.982
1304.131, 43.380
1305.338, 59.763
1306.545, 30.119
1307.752, 8.446
1308.958, 19.246
1310.164, 35.035
1311.370, 3.301
1312.576, 29.546
1313.782, 10.771
1314.987, 15.973
1316.193, 0.153
1317.398, 9.313
1318.603, 20.454
1319.807, 54.578
1321.012, 8.684
1322.216, 7.230
1323.421, 11.833
1324.625, 9.123
1325.829, 32.896
1327.032, 12.897
1328.236, 60.879
1329.439, 46.843
1330.642, 10.786
1331.845, 11.708
1333.048, 21.611
1334.251, 9.493
1335.453, 24.355
1336.656, 38.197
1337.858, 13.021
1339.060, 11.824
1340.261, 2.607
1341.463, 18.369
1342.664, 15.113
1343.866, 5.162
1345.067, 8.541
1346.267, 6.456
1347.468, 4.892
1348.669, 19.539
1349.869, 21.169
1351.069, 24.782
1352.269, 20.378
1353.469, 7.958
1354.668, 30.519
1355.868, 41.064
1357.067, 12.406
1358.266, 0.103
1359.465, 6.407
1360.664, 5.936
1361.862, 17.516
1363.061, 3.953
1364.259, 35.375
1365.457, 13.784
1366.655, 35.820
1367.852, 9.551
1369.050, 27.912
1370.247, 8.738
1371.444, 35.602
1372.641, 22.938
1373.838, 11.733
1375.035, 17.594
1376.231, 14.026
1377.427, 24.297
1378.623, 21.609
1379.819, 22.906
1381.015, 8.064
1382.211, 56.212
1383.406, 34.344
1384.601, 91.473
1385.796, 31.609
1386.991, 11.756
1388.185, 24.921
1389.380, 10.107
1390.574, 11.307
1391.768, 20.534
1392.962, 5.795
1394.156, 37.085
1395.350, 57.384
1396.543, 35.680
1397.736, 51.960
1398.929, 41.225
1400.122, 74.474
1401.315, 59.708
1402.507, 38.927
1403.700, 51.132
1404.892, 46.338
1406.084, 68.529
1407.276, 61.707
1408.467, 60.872
1409.659, 89.976
1410.850, 73.084
1412.041, 55.994
1413.232, 56.485
1414.423, 121.413
1415.614, 79.389
1416.804, 127.194
1417.994, 95.741
1419.184, 58.334
1420.374, 97.960
1421.564, 42.307
1422.753, 42.146
1423.943, 34.878
1425.132, 64.690
1426.321, 100.290
1427.510, 95.422
1428.698, 41.770
1429.887, 76.861
1431.075, 65.990
1432.263, 86.748
1433.451, 88.609
1434.639, 83.660
1435.827, 81.030
1437.014, 63.610
1438.201, 71.601
1439.388, 35.592
1440.575, 84.588
1441.762, 67.495
1442.949, 105.010
1444.135, 55.340
1445.321, 81.002
1446.507, 56.248
1447.693, 83.667
1448.879, 70.180
1450.064, 69.485
1451.250, 70.462
1452.435, 72.323
1453.620, 67.922
1454.805, 57.544
1455.989, 77.866
1457.174, 57.992
1458.358, 74.068
1459.542, 69.109
1460.726, 64.055
1461.910, 57.250
1463.093, 64.560
1464.277, 74.777
1465.460, 70.572
1466.643, 95.487
1467.826, 76.946
1469.009, 86.679
1470.191, 99.410
1471.373, 79.981
1472.556, 129.054
1473.738, 74.371
1474.919, 40.963
1476.101, 109.242
1477.283, 49.737
1478.464, 70.245
1479.645, 86.726
1480.826, 61.871
1482.007, 92.378
1483.187, 53.912
1484.368, 35.610
1485.548, 80.343
1486.728, 74.191
1487.908, 37.021
1489.088, 54.849
1490.268, 62.725
1491.447, 50.605
1492.626, 75.471
