##NAMES=Spessartine
##RRUFFID=R050063
##IDEAL CHEMISTRY=Mn^2+^_3_Al_2_(SiO_4_)_3_
##LOCALITY=Fujian Province, China
##OWNER=RRUFF
##SOURCE=Rock Currier
##DESCRIPTION=Reddish brown crystals
##STATUS=The identification of this mineral has been confirmed by X-ray diffraction and chemical analysis
##URL=rruff.info/R050063
##MEASURED CHEMISTRY=(Mn_2.72_Fe_0.24_Ca_0.04_)_Σ=3_(Al_1.95_Fe^3+^_0.05_)_Σ=2_(Si_1.00_O_4_)_2.75_(F_0.58_(OH)_0.42_)_Σ=1_; trace amounts of Mg; OH estimated by charge balance
##PIN_ID=L00458
##ORIENTATION=Laser parallel to c* (0 0 1). Fiducial mark perpendicular to laser is parallel to a [1 0 0]
49.365, 0.000
50.765, 95.585
52.166, 179.277
53.566, 223.674
54.966, 404.633
56.365, 928.287
57.765, 1525.428
59.164, 1882.828
60.563, 2130.184
61.962, 2315.031
63.360, 2348.904
64.758, 2377.507
66.157, 2149.348
67.554, 1922.347
68.952, 1561.911
70.349, 1305.763
71.747, 1088.742
73.144, 1099.718
74.540, 1022.565
75.937, 950.470
77.333, 879.197
78.729, 695.334
80.125, 501.846
81.521, 303.121
82.916, 211.389
84.311, 171.392
85.706, 184.179
87.101, 140.344
88.496, 78.672
89.890, 34.145
91.284, 8.725
92.678, 33.321
94.071, 51.954
95.465, 57.878
96.858, 65.822
98.251, 0.883
99.644, 51.278
101.036, 15.599
102.428, 55.581
103.820, 5.932
105.212, 51.462
106.604, 30.775
107.995, 98.753
109.387, 209.484
110.777, 203.981
112.168, 315.157
113.559, 296.345
114.949, 434.349
116.339, 505.169
117.729, 467.056
119.119, 418.325
120.508, 330.124
121.897, 278.407
123.286, 388.563
124.675, 342.335
126.063, 467.497
127.452, 348.200
128.840, 418.767
130.228, 409.579
131.615, 434.991
133.003, 486.879
134.390, 487.858
135.777, 452.124
137.164, 453.803
138.550, 491.674
139.937, 493.533
141.323, 514.824
142.709, 523.415
144.094, 404.150
145.480, 429.162
146.865, 368.734
148.250, 360.085
149.635, 412.830
151.019, 399.417
152.403, 522.771
153.788, 618.872
155.171, 815.058
156.555, 1049.839
157.939, 1372.275
159.322, 1731.719
160.705, 2109.336
162.088, 2571.401
163.470, 2718.087
164.853, 2496.112
166.235, 2071.116
167.617, 1590.114
168.998, 1171.100
170.380, 864.062
171.761, 826.994
173.142, 648.901
174.523, 689.771
175.904, 663.605
177.284, 636.405
178.664, 636.168
180.044, 571.894
181.424, 593.575
182.803, 480.210
184.183, 532.805
185.562, 476.381
186.940, 453.955
188.319, 458.528
189.698, 340.102
191.076, 355.674
192.454, 352.246
193.831, 332.816
195.209, 268.378
196.586, 260.931
197.963, 214.473
199.340, 182.122
200.717, 157.512
202.093, 128.005
203.470, 83.477
204.846, 71.926
206.221, 57.351
207.597, 42.749
208.972, 19.882
210.347, 5.543
211.722, 36.765
213.097, 58.037
214.472, 6.281
215.846, 116.345
217.220, 182.831
218.594, 105.446
219.967, 216.066
221.341, 211.628
222.714, 277.089
224.087, 267.414
225.460, 274.600
226.832, 278.642
228.204, 264.507
229.577, 311.172
230.948, 281.637
232.320, 377.853
233.692, 293.931
235.063, 323.951
236.434, 369.785
237.805, 350.480
239.175, 316.868
240.545, 339.844
241.916, 382.515
243.286, 297.058
244.655, 361.395
246.025, 301.449
247.394, 307.702
248.763, 380.858
250.132, 305.479
251.501, 337.210
252.869, 309.334
254.237, 295.376
255.605, 281.623
256.973, 261.654
258.340, 315.215
259.708, 260.741
261.075, 251.033
262.442, 271.959
263.808, 236.196
265.175, 244.283
266.541, 254.741
267.907, 287.851
269.273, 286.242
270.639, 303.513
272.004, 294.458
273.369, 322.296
274.734, 325.865
276.099, 313.746
277.463, 405.115
278.828, 442.273
280.192, 472.256
281.556, 582.767
282.919, 627.399
284.283, 670.743
285.646, 806.683
287.009, 899.557
288.372, 1036.514
289.734, 1153.613
291.097, 1303.896
292.459, 1362.881
293.821, 1575.942
295.183, 1684.542
296.544, 1810.533
297.905, 2083.023
299.266, 2186.289
300.627, 2278.746
301.988, 2440.975
303.348, 2513.199
304.709, 2690.447
306.069, 2686.674
307.428, 2896.841
308.788, 2923.748
310.147, 2997.523
311.507, 3026.008
312.865, 3042.547
314.224, 3178.220
315.583, 3065.840
316.941, 3120.982
318.299, 3040.714
319.657, 3078.096
321.015, 3116.789
322.372, 3094.425
323.729, 3233.083
325.086, 3312.736
326.443, 3550.405
327.800, 3640.065
329.156, 3812.642
330.512, 4158.219
331.868, 4352.798
333.224, 4671.378
334.579, 5067.960
335.935, 5278.546
337.290, 5859.562
338.645, 6062.778
339.999, 6454.914
341.354, 6581.967
342.708, 6750.048
344.062, 6838.892
345.416, 6894.859
346.769, 6841.387
348.123, 6590.165
349.476, 6470.745
350.829, 6277.276
352.182, 5974.873
353.534, 5934.018
354.887, 5770.997
356.239, 5595.504
357.591, 5678.783
358.942, 5309.797
360.294, 5404.831
361.645, 5315.718
362.996, 5490.519
364.347, 5563.268
365.698, 5818.939
367.048, 6019.480
368.398, 6272.019
369.748, 6479.547
371.098, 6486.069
372.448, 6773.084
373.797, 6721.447
375.146, 6639.105
376.495, 6426.903
377.844, 6126.532
379.192, 5760.541
380.540, 5209.752
381.889, 4835.564
383.236, 4343.770
384.584, 4001.895
385.932, 3587.225
387.279, 3235.455
388.626, 2970.650
389.973, 2606.812
391.319, 2395.875
392.666, 2215.095
394.012, 1937.156
395.358, 1806.583
396.704, 1653.630
398.049, 1563.779
399.394, 1435.104
400.740, 1285.339
402.084, 1331.431
403.429, 1117.624
404.774, 1069.006
406.118, 1027.044
407.462, 927.375
408.806, 880.479
410.150, 785.648
411.493, 791.167
412.836, 662.417
414.179, 646.845
415.522, 563.204
416.865, 531.561
418.207, 462.954
419.549, 372.334
420.891, 383.030
422.233, 328.595
423.575, 269.220
424.916, 229.034
426.257, 184.100
427.598, 145.621
428.939, 109.593
430.279, 81.793
431.619, 47.050
432.959, 21.462
434.299, 19.116
435.639, 8.456
436.978, 13.928
438.318, 65.336
439.657, 30.531
440.996, 31.729
442.334, 69.933
443.673, 48.156
445.011, 45.391
446.349, 73.635
447.687, 51.898
449.024, 36.764
450.361, 47.663
451.699, 15.261
453.036, 44.029
454.372, 37.329
455.709, 23.637
457.045, 36.049
458.381, 6.264
459.717, 19.420
461.053, 11.897
462.388, 0.219
463.724, 30.458
465.059, 25.134
466.394, 50.809
467.728, 72.483
469.063, 15.157
470.397, 70.830
471.731, 84.505
473.065, 58.182
474.398, 101.860
475.732, 96.540
477.065, 87.221
478.398, 35.901
479.731, 101.576
481.063, 59.246
482.396, 69.907
483.728, 62.560
485.060, 62.205
486.391, 57.841
487.723, 59.469
489.054, 110.088
490.385, 106.718
491.716, 117.422
493.047, 163.274
494.377, 162.171
495.708, 226.179
497.038, 265.206
498.368, 237.300
499.697, 257.377
501.027, 305.688
502.356, 392.970
503.685, 404.176
505.014, 431.277
506.342, 412.135
507.671, 404.684
508.999, 432.761
510.327, 459.163
511.655, 442.075
512.982, 524.686
514.310, 567.685
515.637, 597.761
516.964, 585.551
518.291, 626.616
519.617, 688.214
520.944, 719.900
522.270, 759.620
523.596, 765.130
524.921, 888.739
526.247, 852.587
527.572, 916.785
528.897, 1005.602
530.222, 1135.037
531.547, 1232.036
532.871, 1415.780
534.196, 1506.770
535.520, 1796.139
536.844, 1988.806
538.167, 2363.000
539.491, 2692.084
540.814, 3181.989
542.137, 3645.667
543.460, 4206.551
544.783, 4646.445
546.105, 4898.243
547.427, 5058.980
548.749, 5134.401
550.071, 4898.664
551.393, 4450.955
552.714, 3908.503
554.035, 3470.338
555.356, 3002.133
556.677, 2600.227
557.998, 2266.792
559.318, 1913.731
560.638, 1690.382
561.958, 1489.007
563.278, 1341.532
564.597, 1253.872
565.917, 1118.372
567.236, 1059.674
568.555, 1029.931
569.874, 964.338
571.192, 949.551
572.511, 855.680
573.829, 892.836
575.147, 808.863
576.464, 722.030
577.782, 767.961
579.099, 672.122
580.416, 676.276
581.733, 662.193
583.050, 651.283
584.366, 627.216
585.683, 612.166
586.999, 632.005
588.315, 561.830
589.630, 632.557
590.946, 587.181
592.261, 601.711
593.576, 595.724
594.891, 572.104
596.206, 568.059
597.520, 577.442
598.834, 515.892
600.148, 538.277
601.462, 493.410
602.776, 532.239
604.089, 476.130
605.402, 464.025
606.715, 478.635
608.028, 464.695
609.341, 530.444
610.653, 516.351
611.965, 448.197
613.277, 517.146
614.589, 502.443
615.901, 484.419
617.212, 494.078
618.523, 523.933
619.834, 495.416
621.145, 527.104
622.456, 590.927
623.766, 609.700
625.076, 599.555
626.386, 664.474
627.696, 646.126
629.006, 681.984
630.315, 574.852
631.624, 632.603
632.933, 581.416
634.242, 554.201
635.551, 537.958
636.859, 487.506
638.167, 483.208
639.475, 437.798
640.783, 391.405
642.090, 374.953
643.398, 303.472
644.705, 284.944
646.012, 275.395
647.318, 226.902
648.625, 207.382
649.931, 169.834
651.237, 157.255
652.543, 128.646
653.849, 122.006
655.155, 104.335
656.460, 106.631
657.765, 48.895
659.070, 54.126
660.375, 70.322
661.679, 16.485
662.984, 22.605
664.288, 32.685
665.592, 1.272
666.895, 22.282
668.199, 30.355
669.502, 25.495
670.805, 15.700
672.108, 0.964
673.411, 28.281
674.713, 32.665
676.016, 57.117
677.318, 42.652
678.620, 43.260
679.921, 55.944
681.223, 41.708
682.524, 77.546
683.825, 35.477
685.126, 61.478
686.427, 71.563
687.727, 96.737
689.028, 77.014
690.328, 49.382
691.628, 55.828
692.927, 45.035
694.227, 37.954
695.526, 52.625
696.825, 34.374
698.124, 47.192
699.423, 51.084
700.721, 4.053
702.020, 19.074
703.318, 20.846
704.616, 1.273
705.913, 28.442
707.211, 13.674
708.508, 17.039
709.805, 47.712
711.102, 51.353
712.399, 37.963
713.695, 47.539
714.992, 32.084
716.288, 64.595
717.584, 65.075
718.879, 83.525
720.175, 121.945
721.470, 78.338
722.765, 119.700
724.060, 125.036
725.355, 83.343
726.649, 123.622
727.944, 137.874
729.238, 125.099
730.532, 150.298
731.825, 110.471
733.119, 160.617
734.412, 99.738
735.705, 94.832
736.998, 144.899
738.291, 96.941
739.584, 127.956
740.876, 116.947
742.168, 136.912
743.460, 132.853
744.752, 141.769
746.043, 124.662
747.334, 114.531
748.626, 116.377
749.916, 123.073
751.207, 143.005
752.498, 153.789
753.788, 173.559
755.078, 188.313
756.368, 174.049
757.658, 162.775
758.947, 214.486
760.237, 145.183
761.526, 164.869
762.815, 162.543
764.104, 118.201
765.392, 158.845
766.680, 125.470
767.969, 122.082
769.257, 158.678
770.544, 162.259
771.832, 149.821
773.119, 190.366
774.406, 190.892
775.693, 239.401
776.980, 229.028
778.267, 241.854
779.553, 212.832
780.839, 262.274
782.125, 255.698
783.411, 298.113
784.697, 297.511
785.982, 301.894
787.267, 328.265
788.552, 344.619
789.837, 344.959
791.122, 378.287
792.406, 351.604
793.690, 394.912
794.974, 400.207
796.258, 403.493
797.542, 468.769
798.825, 487.039
800.108, 475.301
801.391, 576.555
802.674, 581.776
803.957, 626.911
805.239, 682.885
806.522, 733.810
807.804, 776.401
809.085, 833.357
810.367, 859.030
811.649, 891.705
812.930, 926.131
814.211, 881.576
815.492, 958.085
816.772, 986.688
818.053, 1026.520
819.333, 932.643
820.613, 977.223
821.893, 959.464
823.173, 955.175
824.452, 966.171
825.732, 966.762
827.011, 969.259
828.290, 948.025
829.568, 974.500
830.847, 1072.427
832.125, 1067.256
833.403, 1178.037
834.681, 1272.017
835.959, 1343.889
837.236, 1529.512
838.514, 1554.776
839.791, 1681.410
841.068, 1739.413
842.345, 1856.841
843.621, 1977.515
844.898, 2046.933
846.174, 2138.959
847.450, 2156.677
848.726, 2224.152
850.001, 2270.130
851.277, 2316.571
852.552, 2329.229
853.827, 2382.666
855.102, 2341.079
856.376, 2380.577
857.651, 2364.302
858.925, 2403.972
860.199, 2393.968
861.473, 2295.920
862.746, 2314.605
864.020, 2434.993
865.293, 2290.405
866.566, 2507.710
867.839, 2529.128
869.112, 2560.361
870.384, 2720.871
871.656, 2619.396
872.928, 2888.008
874.200, 2915.792
875.472, 3078.406
876.744, 3313.206
878.015, 3337.040
879.286, 3740.713
880.557, 3801.567
881.828, 4080.493
883.098, 4408.380
884.369, 4706.386
885.639, 5037.238
886.909, 5462.314
888.178, 5752.150
889.448, 6638.980
890.717, 6986.033
891.987, 8133.902
893.256, 8942.913
894.524, 9861.896
895.793, 11610.978
897.061, 13060.056
898.330, 15249.187
899.598, 17978.266
900.865, 20667.316
902.133, 24296.389
903.401, 28715.506
904.668, 32284.729
905.935, 36433.988
907.202, 38273.254
908.468, 40892.535
909.735, 39781.816
911.001, 37391.117
912.267, 35240.426
913.533, 30429.744
914.799, 27229.072
916.064, 23358.412
917.330, 19547.703
918.595, 17417.062
919.860, 14466.417
921.124, 12765.779
922.389, 11045.172
923.653, 9474.573
924.918, 8493.992
926.182, 7396.417
927.445, 6380.855
928.709, 5864.380
929.972, 5044.262
931.236, 4700.806
932.499, 4233.291
933.761, 3891.887
935.024, 3697.845
936.286, 3350.745
937.549, 3128.641
938.811, 3071.094
940.073, 2857.849
941.334, 2722.201
942.596, 2534.690
943.857, 2456.175
945.118, 2428.564
946.379, 2214.852
947.640, 2208.129
948.900, 2095.750
950.161, 1956.566
951.421, 2031.997
952.681, 1855.959
953.940, 1854.083
955.200, 1716.433
956.459, 1644.456
957.719, 1585.447
958.978, 1517.343
960.236, 1446.603
961.495, 1445.448
962.753, 1324.493
964.012, 1375.972
965.270, 1270.051
966.527, 1171.914
967.785, 1215.670
969.043, 1145.834
970.300, 1116.722
971.557, 1057.841
972.814, 935.406
974.071, 909.365
975.327, 849.355
976.583, 831.377
977.840, 788.427
979.095, 732.502
980.351, 694.608
981.607, 688.748
982.862, 651.959
984.117, 692.323
985.372, 673.219
986.627, 666.168
987.882, 676.302
989.136, 685.078
990.390, 685.673
991.644, 697.119
992.898, 687.607
994.152, 718.145
995.405, 737.728
996.659, 785.347
997.912, 757.007
999.165, 803.702
1000.417, 883.432
1001.670, 878.200
1002.922, 937.001
1004.174, 932.838
1005.426, 943.713
1006.678, 1003.614
1007.930, 996.543
1009.181, 1060.492
1010.432, 1075.464
1011.683, 1095.197
1012.934, 1135.498
1014.185, 1134.548
1015.435, 1183.614
1016.685, 1205.696
1017.935, 1243.795
1019.185, 1350.916
1020.435, 1274.055
1021.684, 1354.208
1022.934, 1418.376
1024.183, 1351.558
1025.432, 1433.755
1026.680, 1469.974
1027.929, 1388.211
1029.177, 1391.466
1030.425, 1234.737
1031.673, 1215.020
1032.921, 1102.326
1034.169, 906.654
1035.416, 880.994
1036.663, 709.348
1037.911, 660.714
1039.157, 558.094
1040.404, 463.488
1041.650, 424.893
1042.897, 359.311
1044.143, 321.741
1045.389, 302.187
1046.634, 232.646
1047.880, 207.116
1049.125, 213.608
1050.371, 181.112
1051.615, 159.027
1052.860, 174.158
1054.105, 115.700
1055.349, 96.255
1056.593, 108.827
1057.837, 79.417
1059.081, 92.020
1060.325, 68.636
1061.568, 87.262
1062.812, 68.145
1064.055, 48.558
1065.298, 46.224
1066.540, 33.903
1067.783, 40.594
1069.025, 25.295
1070.267, 47.007
1071.509, 62.729
1072.751, 68.362
1073.993, 59.670
1075.234, 80.950
1076.475, 26.710
1077.716, 4.520
1078.957, 17.741
1080.198, 3.956
1081.438, 16.838
1082.679, 5.359
1083.919, 38.550
1085.159, 14.745
1086.398, 13.933
1087.638, 26.118
1088.877, 8.304
1090.116, 22.484
1091.355, 24.665
1092.594, 23.847
1093.833, 41.031
1095.071, 18.225
1096.309, 37.418
1097.547, 23.620
1098.785, 45.824
1100.023, 38.041
1101.260, 28.268
1102.498, 10.501
1103.735, 52.732
1104.972, 45.981
1106.208, 79.244
1107.445, 2.534
1108.681, 29.820
1109.918, 21.114
1111.154, 24.411
1112.389, 31.715
1113.625, 42.029
1114.860, 37.359
1116.096, 34.702
1117.331, 23.057
1118.566, 17.582
1119.800, 20.775
1121.035, 9.138
1122.269, 8.498
1123.503, 134.138
1124.737, 181.781
1125.971, 108.429
1127.205, 58.080
1128.438, 22.735
1129.671, 10.394
1130.904, 13.945
1132.137, 3.710
1133.370, 2.636
1134.602, 8.985
1135.834, 8.339
1137.066, 0.176
1138.298, 4.635
1139.530, 26.570
1140.762, 26.206
1141.993, 41.843
1143.224, 54.480
1144.455, 46.120
1145.686, 25.757
1146.917, 47.522
1148.147, 31.159
1149.377, 51.906
1150.607, 91.540
1151.837, 82.172
1153.067, 86.997
1154.296, 73.740
1155.526, 118.464
1156.755, 72.225
1157.984, 99.939
1159.213, 134.660
1160.441, 88.401
1161.670, 101.153
1162.898, 144.871
1164.126, 107.923
1165.354, 126.863
1166.581, 143.187
1167.809, 69.097
1169.036, 135.735
1170.263, 140.530
1171.490, 97.152
1172.717, 167.216
1173.943, 165.612
1175.170, 124.243
1176.396, 165.295
1177.622, 125.284
1178.848, 178.909
1180.073, 162.737
1181.299, 157.553
1182.524, 187.289
1183.749, 150.167
1184.974, 167.904
1186.199, 138.737
1187.423, 174.380
1188.648, 180.101
1189.872, 172.677
1191.096, 153.246
1192.320, 137.938
1193.543, 159.635
1194.767, 108.395
1195.990, 126.276
1197.213, 133.957
1198.436, 122.803
1199.659, 169.559
1200.881, 105.669
1202.104, 111.481
1203.326, 93.691
1204.548, 149.032
1205.770, 139.205
1206.991, 134.183
1208.213, 126.974
1209.434, 124.784
1210.655, 112.529
1211.876, 124.501
1213.096, 140.971
1214.317, 121.859
1215.537, 115.455
1216.757, 132.145
1217.977, 109.647
1219.197, 132.172
1220.417, 142.590
1221.636, 131.163
1222.855, 127.783
1224.074, 133.453
1225.293, 137.134
1226.512, 136.381
1227.731, 174.352
1228.949, 143.656
1230.167, 153.038
1231.385, 169.135
1232.603, 130.695
1233.820, 170.613
1235.038, 180.244
1236.255, 130.313
1237.472, 163.998
1238.689, 169.206
1239.906, 152.578
1241.122, 171.000
1242.338, 129.702
1243.555, 190.211
1244.771, 190.414
1245.986, 207.626
1247.202, 173.008
1248.417, 157.891
1249.633, 155.554
1250.848, 194.988
1252.063, 199.914
1253.277, 161.010
1254.492, 233.952
1255.706, 183.787
1256.920, 226.017
1258.134, 190.736
1259.348, 184.233
1260.562, 197.934
1261.775, 181.924
1262.988, 174.087
1264.201, 219.949
1265.414, 198.103
1266.627, 206.028
1267.839, 205.457
1269.052, 156.466
1270.264, 211.426
1271.476, 173.319
1272.688, 143.287
1273.899, 188.283
1275.111, 162.146
1276.322, 156.155
1277.533, 175.957
1278.744, 120.630
1279.955, 178.946
1281.165, 174.900
1282.376, 120.913
1283.586, 159.457
1284.796, 89.984
1286.006, 101.752
1287.215, 113.474
1288.425, 76.225
1289.634, 63.968
1290.843, 88.606
1292.052, 35.230
1293.261, 76.844
1294.469, 39.414
1295.678, 91.964
1296.886, 76.490
1298.094, 30.999
1299.302, 40.482
1300.509, 45.049
1301.717, 36.502
1302.924, 46.939
1304.131, 44.817
1305.338, 39.757
1306.545, 37.138
1307.752, 44.501
1308.958, 18.845
1310.164, 24.170
1311.370, 8.521
1312.576, 25.766
1313.782, 60.035
1314.987, 32.954
1316.193, 62.525
1317.398, 17.748
1318.603, 10.059
1319.807, 2.107
1321.012, 4.748
1322.216, 20.373
1323.421, 55.476
1324.625, 17.441
1325.829, 17.388
1327.032, 34.638
1328.236, 24.645
1329.439, 33.633
1330.642, 26.601
1331.845, 41.550
1333.048, 33.481
1334.251, 54.391
1335.453, 54.283
1336.656, 0.844
1337.858, 33.005
1339.060, 27.837
1340.261, 20.349
1341.463, 32.438
1342.664, 21.207
1343.866, 25.957
1345.067, 9.690
1346.267, 21.403
1347.468, 10.901
1348.669, 13.230
1349.869, 6.438
1351.069, 12.065
1352.269, 19.674
1353.469, 5.736
1354.668, 20.832
1355.868, 10.388
1357.067, 1.079
1358.266, 12.433
1359.465, 26.928
1360.664, 20.406
1361.862, 32.488
1363.061, 29.765
1364.259, 38.902
1365.457, 24.328
1366.655, 20.774
1367.852, 17.160
1369.050, 12.531
1370.247, 3.887
1371.444, 13.610
1372.641, 44.558
1373.838, 23.864
1375.035, 19.152
1376.231, 3.431
1377.427, 38.695
1378.623, 16.947
1379.819, 37.189
1381.015, 19.466
1382.211, 65.651
1383.406, 33.815
1384.601, 40.981
1385.796, 23.151
1386.991, 49.331
1388.185, 41.514
1389.380, 21.716
1390.574, 46.939
1391.768, 41.161
1392.962, 56.390
1394.156, 58.642
1395.350, 30.911
1396.543, 6.827
1397.736, 51.431
1398.929, 21.671
1400.122, 23.895
1401.315, 84.100
1402.507, 34.302
1403.700, 80.501
1404.892, 60.701
1406.084, 46.891
1407.276, 34.067
1408.467, 33.777
1409.659, 34.948
1410.850, 43.207
1412.041, 54.081
1413.232, 63.915
1414.423, 80.711
1415.614, 58.489
1416.804, 50.225
1417.994, 83.226
1419.184, 40.496
1420.374, 83.130
1421.564, 79.373
1422.753, 79.290
1423.943, 93.468
1425.132, 53.951
1426.321, 25.166
1427.510, 101.087
1428.698, 52.146
1429.887, 60.408
1431.075, 48.138
1432.263, 47.002
1433.451, 76.502
1434.639, 74.935
1435.827, 58.763
1437.014, 81.208
1438.201, 63.372
1439.388, 58.650
1440.575, 81.263
1441.762, 55.649
1442.949, 24.739
1444.135, 78.170
1445.321, 75.555
1446.507, 64.281
1447.693, 100.990
1448.879, 57.960
1450.064, 71.750
1451.250, 78.024
1452.435, 52.955
1453.620, 81.192
1454.805, 82.533
1455.989, 64.618
1457.174, 42.505
1458.358, 67.762
1459.542, 69.179
1460.726, 92.301
1461.910, 73.796
1463.093, 81.461
1464.277, 59.291
1465.460, 73.061
1466.643, 59.109
1467.826, 52.219
1469.009, 32.724
1470.191, 68.317
1471.373, 86.722
1472.556, 91.958
1473.738, 96.599
1474.919, 72.095
1476.101, 95.165
1477.283, 58.524
1478.464, 83.636
1479.645, 70.229
1480.826, 50.830
1482.007, 65.552
1483.187, 79.316
1484.368, 73.176
1485.548, 55.447
1486.728, 61.192
1487.908, 66.936
1489.088, 24.670
1490.268, 32.363
1491.447, 8.025
1492.626, 57.692
1493.805, 48.413
