##NAMES=Sphalerite
##RRUFFID=R050005
##IDEAL CHEMISTRY=Zn^2+^S^2-^
##LOCALITY=Taolin mine, Yueyang, Linxing, Hunan Province, China
##OWNER=RRUFF
##SOURCE=Eugene Schlepp
##DESCRIPTION=Reddish brown crystals
##STATUS=The identification of this mineral has been confirmed by X-ray diffraction and chemical analysis
##URL=rruff.info/R050005
##MEASURED CHEMISTRY=(Zn_.997_Fe_.003_)S
##PIN_ID=L00184
##ORIENTATION=Laser parallel to -a* (-1 0 0). Fiducial mark perpendicular to laser is parallel to -b [0 -1 0]
85.064, 0.000
86.461, 23.611
87.858, 65.398
89.254, 7.268
90.650, 5.753
92.046, 105.761
93.442, 99.452
94.838, 121.197
96.233, 100.650
97.628, 145.479
99.023, 69.417
100.418, 60.156
101.812, 24.591
103.206, 33.934
104.600, 60.529
105.994, 74.032
107.387, 132.488
108.781, 135.179
110.174, 341.930
111.566, 281.505
112.959, 468.721
114.351, 398.445
115.744, 454.573
117.136, 401.031
118.527, 364.759
119.919, 400.706
121.310, 340.833
122.701, 523.109
124.092, 484.505
125.482, 519.002
126.873, 669.662
128.263, 650.414
129.653, 886.467
131.042, 948.745
132.432, 1111.036
133.821, 1245.923
135.210, 1494.446
136.599, 1811.601
137.987, 1868.423
139.376, 2343.944
140.764, 2306.192
142.152, 2665.204
143.539, 2576.010
144.927, 2642.634
146.314, 2779.095
147.701, 2723.408
149.088, 2987.581
150.474, 2810.629
151.861, 3071.553
153.247, 3105.362
154.633, 3107.061
156.018, 3231.651
157.404, 3125.140
158.789, 3485.532
160.174, 3316.834
161.559, 3623.052
162.943, 3538.191
164.327, 3686.256
165.711, 4001.249
167.095, 3921.233
168.479, 4372.031
169.862, 4347.958
171.246, 4851.127
172.628, 4935.739
174.011, 5326.729
175.394, 5647.322
176.776, 6054.360
178.158, 6075.113
179.540, 5596.144
180.922, 5426.439
182.303, 4929.175
183.684, 4554.843
185.065, 4365.699
186.446, 4009.602
187.826, 3996.552
189.207, 3603.546
190.587, 3607.583
191.967, 3650.659
193.346, 3389.786
194.726, 3472.998
196.105, 3144.370
197.484, 3238.875
198.862, 3099.526
200.241, 3196.297
201.619, 3138.181
202.997, 3119.148
204.375, 3412.189
205.753, 3462.272
207.130, 4007.388
208.507, 4108.533
209.884, 4767.701
211.261, 5356.884
212.638, 5860.070
214.014, 6874.243
215.390, 7154.400
216.766, 7584.535
218.141, 7154.646
219.517, 6694.728
220.892, 6123.777
222.267, 5449.796
223.642, 5045.785
225.016, 4421.742
226.391, 4221.674
227.765, 3830.584
229.139, 3667.478
230.512, 3615.360
231.886, 3409.242
233.259, 3565.155
234.632, 3236.093
236.005, 3245.051
237.377, 2897.010
238.749, 2258.982
240.122, 1685.933
241.493, 1090.865
242.865, 837.773
244.237, 562.654
245.608, 404.506
246.979, 372.325
248.350, 183.112
249.720, 176.860
251.090, 5.496
252.461, 35.782
253.830, 74.162
255.200, 54.155
256.570, 95.852
257.939, 140.427
259.308, 95.977
260.677, 219.472
262.045, 114.957
263.414, 169.417
264.782, 139.875
266.150, 69.334
267.517, 82.117
268.885, 143.435
270.252, 43.014
271.619, 189.613
272.986, 191.230
274.353, 151.860
275.719, 205.497
277.085, 110.137
278.451, 197.776
279.817, 128.411
281.182, 200.041
282.548, 279.664
283.913, 273.278
285.278, 476.884
286.642, 459.479
288.007, 813.063
289.371, 925.635
290.735, 1303.193
292.099, 1623.738
293.462, 2074.264
294.826, 2907.760
296.189, 3407.215
297.552, 4274.758
298.914, 4554.860
300.277, 4303.042
301.639, 4270.234
303.001, 3381.427
304.363, 3386.284
305.724, 2898.617
307.086, 2699.827
308.447, 2489.619
309.808, 2061.316
311.168, 2214.777
312.529, 1658.148
313.889, 1633.027
315.249, 1227.969
316.609, 977.589
317.969, 989.033
319.328, 739.862
320.687, 974.146
322.046, 984.886
323.405, 1498.120
324.764, 2004.214
326.122, 2763.174
327.480, 3934.518
328.838, 4545.730
330.196, 6004.487
331.553, 6720.911
332.910, 7444.284
334.267, 8205.217
335.624, 7585.588
336.981, 8145.832
338.337, 7445.624
339.693, 8054.879
341.049, 8664.415
342.405, 10463.580
343.760, 15222.688
345.116, 23731.840
346.471, 41470.590
347.826, 57519.543
349.180, 62708.070
350.535, 53136.621
351.889, 32255.045
353.243, 21473.455
354.597, 14101.845
355.950, 10800.214
357.304, 8578.562
358.657, 7256.892
360.010, 6956.200
361.362, 6159.486
362.715, 6447.751
364.067, 6172.412
365.419, 6020.777
366.771, 5849.401
368.123, 5107.316
369.474, 5409.221
370.825, 4824.251
372.176, 5080.262
373.527, 4997.442
374.877, 4741.472
376.228, 4929.653
377.578, 4411.918
378.928, 4696.077
380.277, 4527.941
381.627, 4568.624
382.976, 4805.292
384.325, 4431.092
385.674, 4639.454
387.023, 4409.569
388.371, 4503.271
389.719, 4624.848
391.067, 4451.714
392.415, 4847.143
393.762, 4614.971
395.110, 4936.415
396.457, 4833.733
397.804, 4596.255
399.150, 4626.156
400.497, 4143.416
401.843, 4195.390
403.189, 3810.185
404.535, 3573.014
405.881, 3427.656
407.226, 3163.420
408.571, 3142.866
409.916, 2985.157
411.261, 3099.424
412.605, 3104.593
413.950, 3173.899
415.294, 3479.197
416.638, 3480.384
417.981, 3901.814
419.325, 3836.582
420.668, 3862.504
422.011, 3855.166
423.354, 3599.027
424.697, 3711.396
426.039, 3462.293
427.381, 3423.993
428.723, 3368.065
430.065, 3018.300
431.406, 2928.813
432.748, 2573.668
434.089, 2518.293
435.430, 2278.888
436.770, 2202.276
438.111, 2281.850
439.451, 2174.983
440.791, 2393.442
442.131, 2285.571
443.471, 2331.957
444.810, 2492.419
446.149, 2395.848
447.488, 2656.243
448.827, 2427.605
450.166, 2452.934
451.504, 2164.229
452.842, 1660.489
454.180, 1262.714
455.518, 707.909
456.855, 476.068
458.193, 270.193
459.530, 127.284
460.867, 99.334
462.203, 12.351
463.540, 6.684
464.876, 49.780
466.212, 57.958
467.548, 7.775
468.883, 66.544
470.219, 1.955
471.554, 94.415
472.889, 13.981
474.224, 11.389
475.558, 56.292
476.892, 4.058
478.227, 17.880
479.561, 8.767
480.894, 16.716
482.228, 8.271
483.561, 29.206
484.894, 0.096
486.227, 45.934
487.559, 16.727
488.892, 21.474
490.224, 58.175
491.556, 8.835
492.888, 103.446
494.220, 24.017
495.551, 63.547
496.882, 56.037
498.213, 83.485
499.544, 159.900
500.874, 70.279
502.205, 143.622
503.535, 150.935
504.865, 137.214
506.194, 224.461
507.524, 173.677
508.853, 267.863
510.182, 262.019
511.511, 279.144
512.840, 379.246
514.168, 327.319
515.496, 453.364
516.824, 372.382
518.152, 358.370
519.480, 406.330
520.807, 285.261
522.134, 296.162
523.461, 176.033
524.788, 239.871
526.114, 171.678
527.441, 95.452
528.767, 91.190
530.093, 59.893
531.418, 58.558
532.744, 34.192
534.069, 4.211
535.394, 26.337
536.719, 57.153
538.044, 22.281
539.368, 20.315
540.693, 49.965
542.017, 2.687
543.340, 21.453
544.664, 0.724
545.987, 8.857
547.311, 38.051
548.634, 58.978
549.956, 18.971
551.279, 78.925
552.601, 15.845
553.923, 59.729
555.245, 81.577
556.567, 38.398
557.889, 165.184
559.210, 71.939
560.531, 131.665
561.852, 166.359
563.173, 150.021
564.493, 186.653
565.813, 149.254
567.133, 216.826
568.453, 257.369
569.773, 235.883
571.092, 331.370
572.412, 232.829
573.731, 324.270
575.049, 366.687
576.368, 356.125
577.686, 449.541
579.005, 335.966
580.323, 483.415
581.640, 451.869
582.958, 514.368
584.275, 583.877
585.593, 487.415
586.909, 674.081
588.226, 634.642
589.543, 680.375
590.859, 835.916
592.175, 768.434
593.491, 1022.229
594.807, 927.693
596.122, 1022.448
597.438, 1247.888
598.753, 1205.434
600.068, 1464.103
601.382, 1553.437
602.697, 1616.957
604.011, 1911.408
605.325, 1884.001
606.639, 2192.547
607.952, 2153.001
609.266, 2273.383
610.579, 2477.598
611.892, 2332.788
613.205, 2551.650
614.518, 2429.718
615.830, 2406.081
617.142, 2268.257
618.454, 1805.666
619.766, 1644.564
621.078, 1304.694
622.389, 1198.950
623.700, 1157.496
625.011, 1067.402
626.322, 1239.519
627.632, 1086.769
628.943, 1263.191
630.253, 1319.893
631.563, 1360.498
632.872, 1664.661
634.182, 1660.606
635.491, 2008.375
636.800, 2043.747
638.109, 1954.455
639.418, 2085.894
640.726, 1755.764
642.035, 1778.211
643.343, 1454.244
644.651, 1234.755
645.958, 1235.102
647.266, 962.319
648.573, 1073.493
649.880, 1123.429
651.187, 1176.242
652.494, 1386.515
653.800, 1410.142
655.106, 1709.653
656.412, 1918.308
657.718, 2140.187
659.024, 2730.818
660.329, 2842.900
661.634, 3622.828
662.939, 4052.349
664.244, 4501.514
665.549, 5380.271
666.853, 5470.666
668.157, 5930.812
669.461, 5539.730
670.765, 4923.113
672.069, 4785.894
673.372, 4093.617
674.675, 4020.871
675.978, 3652.580
677.281, 3388.734
678.583, 3454.977
679.886, 3015.220
681.188, 3138.910
682.490, 2963.946
683.792, 2720.618
685.093, 2859.049
686.394, 2523.447
687.696, 2619.655
688.997, 2422.341
690.297, 2238.393
691.598, 2359.438
692.898, 2044.504
694.198, 2038.197
695.498, 1823.114
696.798, 1572.542
698.097, 1521.743
699.397, 1123.085
700.696, 1066.888
701.995, 886.235
703.293, 712.803
704.592, 742.658
705.890, 594.941
707.188, 615.489
708.486, 482.775
709.784, 446.061
711.081, 509.967
712.378, 353.890
713.675, 433.882
714.972, 345.551
716.269, 298.969
717.565, 351.094
718.862, 235.469
720.158, 292.011
721.453, 273.421
722.749, 271.366
724.045, 311.756
725.340, 192.457
726.635, 236.114
727.930, 230.682
729.224, 147.335
730.519, 235.788
731.813, 102.277
733.107, 170.706
734.401, 150.124
735.694, 103.624
736.988, 188.016
738.281, 102.410
739.574, 111.909
740.867, 134.264
742.160, 75.760
743.452, 119.088
744.744, 60.403
746.036, 131.754
747.328, 114.042
748.620, 25.317
749.911, 149.577
751.202, 20.824
752.493, 89.055
753.784, 57.275
755.075, 20.480
756.365, 150.671
757.655, 42.849
758.945, 52.014
760.235, 11.165
761.525, 15.302
762.814, 30.424
764.103, 40.532
765.392, 73.627
766.681, 72.710
767.969, 11.219
769.258, 100.834
770.546, 10.876
771.834, 17.903
773.122, 51.918
774.409, 31.076
775.697, 65.907
776.984, 20.888
778.271, 16.869
779.558, 41.862
780.844, 6.869
782.131, 60.874
783.417, 39.104
784.703, 4.901
785.989, 35.930
787.274, 6.962
788.560, 30.990
789.845, 10.967
791.130, 22.071
792.415, 76.113
793.699, 19.159
794.983, 33.209
796.268, 4.257
797.552, 11.701
798.835, 29.335
800.119, 3.905
801.402, 15.374
802.686, 11.590
803.969, 7.417
805.251, 32.422
806.534, 21.580
807.816, 9.403
809.098, 18.379
810.380, 18.650
811.662, 51.306
812.944, 7.255
814.225, 22.802
815.506, 18.122
816.787, 12.961
818.068, 26.943
819.349, 15.163
820.629, 6.716
821.909, 56.586
823.189, 29.553
824.469, 12.284
825.749, 7.889
827.028, 7.075
828.307, 28.726
829.586, 7.483
830.865, 43.296
832.144, 17.067
833.422, 12.829
834.700, 39.582
835.978, 17.384
837.256, 32.073
838.534, 9.810
839.811, 9.541
841.088, 14.267
842.365, 28.013
843.642, 0.690
844.919, 21.388
846.195, 1.914
847.472, 27.785
848.748, 38.501
850.023, 5.808
851.299, 13.889
852.575, 1.403
853.850, 75.305
855.125, 24.020
856.400, 19.734
857.674, 39.447
858.949, 2.831
860.223, 52.894
861.497, 1.382
862.771, 10.666
864.045, 37.052
865.318, 33.233
866.591, 0.539
867.864, 2.845
869.137, 25.161
870.410, 44.508
871.682, 17.172
872.955, 2.171
874.227, 24.480
875.499, 10.875
876.770, 64.759
878.042, 7.389
879.313, 6.012
880.584, 32.628
881.855, 2.238
883.126, 60.840
884.396, 42.437
885.667, 70.009
886.937, 69.594
888.207, 30.174
889.476, 78.743
890.746, 49.312
892.015, 20.872
893.284, 78.430
894.553, 14.989
895.822, 98.435
897.090, 90.983
898.359, 39.375
899.627, 68.928
900.895, 60.476
902.163, 102.716
903.430, 113.254
904.698, 58.476
905.965, 91.981
907.232, 95.351
908.499, 53.570
909.765, 104.095
911.032, 55.405
912.298, 131.750
913.564, 86.923
914.830, 116.115
916.095, 140.369
917.361, 87.663
918.626, 132.098
919.891, 133.526
921.156, 92.252
922.420, 221.746
923.685, 115.916
924.949, 128.116
926.213, 171.457
927.477, 112.160
928.740, 216.556
930.004, 141.761
931.267, 187.948
932.530, 148.238
933.793, 140.380
935.056, 172.805
936.318, 156.035
937.581, 140.165
938.843, 234.422
940.104, 184.556
941.366, 187.788
942.628, 146.460
943.889, 100.648
945.150, 197.060
946.411, 130.231
947.672, 181.457
948.932, 240.559
950.193, 149.159
951.453, 272.360
952.713, 213.287
953.973, 197.466
955.232, 251.046
956.491, 187.141
957.751, 230.347
959.010, 208.406
960.268, 169.500
961.527, 261.762
962.785, 170.982
964.044, 223.416
965.302, 264.587
966.559, 202.536
967.817, 296.824
969.075, 252.270
970.332, 207.425
971.589, 241.747
972.846, 263.805
974.102, 262.068
975.359, 288.609
976.615, 278.333
977.871, 293.810
979.127, 260.203
980.383, 288.472
981.638, 280.277
982.893, 222.487
984.149, 310.836
985.404, 304.092
986.658, 295.258
987.913, 342.571
989.167, 205.699
990.421, 362.893
991.675, 298.925
992.929, 226.970
994.183, 341.694
995.436, 182.651
996.689, 302.718
997.942, 310.102
999.195, 292.190
1000.448, 372.269
1001.700, 250.478
1002.952, 275.498
1004.204, 362.493
1005.456, 246.817
1006.708, 343.914
1007.959, 300.098
1009.210, 252.209
1010.461, 337.062
1011.712, 236.456
1012.963, 301.306
1014.213, 325.971
1015.464, 255.205
1016.714, 334.382
1017.964, 267.392
1019.214, 303.174
1020.463, 292.823
1021.712, 230.981
1022.962, 291.959
1024.210, 268.049
1025.459, 222.158
1026.708, 293.454
1027.956, 198.194
1029.204, 232.157
1030.452, 246.281
1031.700, 210.439
1032.948, 296.313
1034.195, 206.491
1035.442, 205.654
1036.689, 274.874
1037.936, 175.168
1039.183, 225.188
1040.429, 223.478
1041.676, 147.867
1042.922, 244.800
1044.168, 194.504
1045.413, 173.590
1046.659, 233.875
1047.904, 126.504
1049.149, 236.736
1050.394, 155.004
1051.639, 150.206
1052.884, 182.241
1054.128, 113.799
1055.372, 171.835
1056.616, 167.874
1057.860, 116.363
1059.104, 159.442
1060.347, 134.611
1061.590, 135.783
1062.833, 138.853
1064.076, 137.987
1065.319, 160.969
1066.561, 117.121
1067.803, 112.075
1069.046, 176.043
1070.287, 91.346
1071.529, 153.439
1072.771, 171.394
1074.012, 112.080
1075.253, 137.080
1076.494, 119.021
1077.735, 86.080
1078.975, 131.018
1080.216, 65.113
1081.456, 118.248
1082.696, 143.173
1083.936, 38.759
1085.175, 118.837
1086.415, 71.793
1087.654, 70.941
1088.893, 90.005
1090.132, 73.954
1091.371, 110.975
1092.609, 113.872
1093.847, 81.918
1095.085, 121.821
1096.323, 72.702
1097.561, 114.741
1098.799, 107.614
1100.036, 59.521
1101.273, 77.507
1102.510, 44.370
1103.747, 74.424
1104.983, 117.280
1106.220, 53.131
1107.456, 86.152
1108.692, 74.998
1109.928, 23.839
1111.163, 47.679
1112.399, 14.514
1113.634, 32.544
1114.869, 92.367
1116.104, 14.190
1117.339, 93.343
1118.573, 56.157
1119.808, 85.967
1121.042, 171.851
1122.276, 148.655
1123.509, 111.453
1124.743, 123.442
1125.976, 20.237
1127.210, 53.101
1128.443, 26.889
1129.675, 23.669
1130.908, 54.627
1132.141, 2.398
1133.373, 12.161
1134.605, 71.917
1135.837, 14.332
1137.068, 70.402
1138.300, 22.131
1139.531, 59.854
1140.762, 62.591
1141.993, 17.316
1143.224, 61.076
1144.455, 82.838
1145.685, 18.448
1146.915, 108.250
1148.145, 24.943
1149.375, 2.361
1150.605, 75.432
1151.834, 27.115
1153.063, 34.792
1154.292, 52.461
1155.521, 27.126
1156.750, 93.783
1157.978, 26.565
1159.207, 8.066
1160.435, 54.751
1161.663, 29.631
1162.891, 27.964
1164.118, 56.743
1165.345, 11.665
1166.573, 49.911
1167.800, 45.484
1169.026, 50.056
1170.253, 66.623
1171.480, 2.183
1172.706, 39.737
1173.932, 71.283
1175.158, 2.172
1176.383, 55.361
1177.609, 14.888
1178.834, 32.414
1180.059, 82.933
1181.284, 47.448
1182.509, 38.956
1183.734, 35.465
1184.958, 16.959
1186.182, 58.446
1187.406, 15.927
1188.630, 4.399
1189.854, 87.863
1191.077, 17.679
1192.301, 23.758
1193.524, 12.188
1194.747, 48.390
1195.969, 10.995
1197.192, 13.373
1198.414, 27.742
1199.636, 67.104
1200.858, 15.541
1202.080, 64.795
1203.302, 63.124
1204.523, 14.553
1205.744, 51.750
1206.966, 29.047
1208.186, 27.335
1209.407, 50.619
1210.628, 9.079
1211.848, 72.180
1213.068, 28.433
1214.288, 6.322
1215.508, 74.908
1216.727, 6.132
1217.947, 8.655
1219.166, 96.543
1220.385, 2.266
1221.604, 57.911
1222.822, 74.082
1224.041, 43.246
1225.259, 85.402
1226.477, 32.552
1227.695, 21.694
1228.913, 80.827
1230.130, 1.005
1231.348, 32.051
1232.565, 62.158
1233.782, 15.256
1234.999, 34.344
1236.215, 60.424
1237.432, 42.498
1238.648, 80.565
1239.864, 34.625
1241.080, 67.680
1242.296, 93.729
1243.511, 32.862
1244.726, 89.897
1245.942, 62.956
1247.156, 43.383
1248.371, 121.399
1249.586, 25.361
1250.800, 116.359
1252.014, 79.350
1253.228, 30.327
1254.442, 94.357
1255.656, 103.329
1256.869, 71.302
1258.083, 85.228
1259.296, 24.008
1260.509, 89.108
1261.722, 129.049
1262.934, 11.193
1264.147, 115.775
1265.359, 96.685
1266.571, 54.595
1267.783, 138.565
1268.994, 77.463
1270.206, 27.493
1271.417, 144.378
1272.628, 55.094
1273.839, 100.940
1275.050, 87.671
1276.260, 29.408
1277.471, 136.281
1278.681, 96.855
1279.891, 119.496
1281.101, 133.365
1282.310, 91.950
1283.520, 79.842
1284.729, 116.507
1285.938, 67.376
1287.147, 168.016
1288.356, 65.633
1289.564, 64.516
1290.773, 175.390
1291.981, 94.635
1293.189, 89.662
1294.397, 120.460
1295.604, 47.676
1296.812, 123.549
1298.019, 91.156
1299.226, 100.789
1300.433, 136.589
1301.640, 90.179
1302.846, 115.915
1304.053, 145.714
1305.259, 56.206
1306.465, 170.935
1307.671, 137.406
1308.876, 23.966
1310.082, 149.770
1311.287, 128.290
1312.492, 85.925
1313.697, 185.649
1314.902, 113.270
1316.106, 113.951
1317.310, 192.266
1318.515, 79.828
1319.719, 149.526
1320.922, 109.604
1322.126, 141.214
1323.329, 146.097
1324.533, 88.602
1325.736, 92.244
1326.939, 208.046
1328.141, 67.563
1329.344, 113.061
1330.546, 132.557
1331.748, 74.141
1332.950, 155.542
1334.152, 127.784
1335.354, 139.353
1336.555, 180.269
1337.757, 73.636
1338.958, 134.949
1340.159, 147.089
1341.359, 133.385
1342.560, 158.684
1343.760, 158.066
1344.960, 85.574
1346.160, 187.551
1347.360, 128.037
1348.560, 68.511
1349.759, 144.524
1350.959, 95.938
1352.158, 109.219
1353.357, 166.128
1354.555, 56.478
1355.754, 167.750
1356.952, 75.162
1358.151, 76.393
1359.349, 164.812
1360.546, 64.272
1361.744, 105.310
1362.941, 133.595
1364.139, 67.956
1365.336, 122.573
1366.533, 121.942
1367.730, 72.245
1368.926, 142.423
1370.123, 78.904
1371.319, 86.005
1372.515, 130.045
1373.711, 49.524
1374.906, 76.039
1376.102, 94.381
1377.297, 71.385
1378.492, 106.729
1379.687, 112.140
1380.882, 69.619
1382.077, 146.037
1383.271, 71.451
1384.465, 71.986
1385.659, 159.419
1386.853, 36.761
1388.047, 93.114
1389.240, 51.644
1390.434, 1.840
1391.627, 79.450
1392.820, 71.469
1394.013, 64.950
1395.205, 90.337
1396.398, 60.583
1397.590, 44.949
1398.782, 100.393
1399.974, 23.615
1401.166, 95.045
1402.357, 59.472
1403.549, 3.898
1404.740, 81.278
1405.931, 68.562
1407.122, 45.939
1408.313, 80.313
1409.503, 61.549
1410.693, 40.910
1411.883, 118.264
1413.073, 23.620
1414.263, 63.897
1415.453, 107.019
1416.642, 90.393
1417.831, 75.767
1419.020, 50.133
1420.209, 47.013
1421.398, 112.856
1422.587, 57.204
1423.775, 48.539
1424.963, 96.852
1426.151, 40.171
1427.339, 54.484
1428.526, 41.795
1429.714, 40.877
1430.901, 71.471
1432.088, 34.841
1433.275, 36.209
1434.462, 85.595
1435.648, 4.987
1436.835, 13.390
1438.021, 57.740
1439.207, 30.150
1440.393, 81.569
1441.579, 81.998
1442.764, 33.448
1443.949, 66.910
1445.135, 104.378
1446.320, 18.848
1447.504, 86.248
1448.689, 46.742
1449.873, 45.253
1451.058, 132.774
1452.242, 27.298
1453.426, 74.822
1454.609, 109.154
1455.793, 30.730
1456.976, 104.255
1458.159, 86.796
1459.342, 65.225
1460.525, 124.444
1461.708, 51.995
1462.890, 50.930
1464.073, 139.364
1465.255, 16.082
1466.437, 76.307
1467.619, 75.502
1468.800, 11.075
1469.982, 73.579
1471.163, 93.049
1472.344, 42.543
1473.525, 125.938
1474.706, 92.331
1475.886, 89.916
1477.066, 141.720
1478.247, 71.241
1479.427, 78.945
1480.607, 133.852
1481.786, 14.770
1482.966, 102.026
1484.145, 108.631
1485.324, 49.426
1486.503, 98.040
1487.682, 83.149
1488.860, 62.743
1490.039, 130.802
1491.217, 62.680
1492.395, 94.498
1493.573, 125.762
1494.751, 6.060
1495.928, 108.316
1497.106, 89.074
1498.283, 75.412
1499.460, 108.933
1500.637, 105.420
1501.814, 33.426
1502.990, 176.419
1504.166, 39.548
1505.342, 56.545
1506.518, 103.364
1507.694, 20.394
1508.870, 61.112
1510.045, 114.675
1511.221, 5.854
1512.396, 85.965
1513.571, 63.396
1514.745, 1.769
1515.920, 143.184
1517.094, 0.322
1518.269, 53.249
1519.443, 0.000
##END=



