##NAMES=Sphalerite
##RRUFFID=R050140
##IDEAL CHEMISTRY=Zn^2+^S^2-^
##LOCALITY=Big Four mine, Summit County, Colorado, USA
##OWNER=RRUFF
##SOURCE=Dave Bunk Minerals
##DESCRIPTION=Group of dark green tetrahedra
##STATUS=The identification of this mineral has been confirmed by X-ray diffraction and chemical analysis
##URL=rruff.info/R050140
##MEASURED CHEMISTRY=Zn_1.00_S_1.00_
##PIN_ID=L00183
##ORIENTATION=Laser parallel to -a* (-1 0 0). Fiducial mark perpendicular to laser is parallel to b [0 1 0]
49.365, 0.000
50.765, 5.523
52.166, 146.781
53.566, 0.350
54.966, 367.482
56.365, 806.302
57.765, 1211.975
59.164, 1594.303
60.563, 1952.813
61.962, 2706.633
63.360, 3349.129
64.758, 3726.718
66.157, 3701.934
67.554, 3463.865
68.952, 2826.049
70.349, 2507.949
71.747, 2745.682
73.144, 3324.574
74.540, 3821.427
75.937, 4224.320
77.333, 4848.471
78.729, 5297.794
80.125, 4991.219
81.521, 4542.918
82.916, 3797.604
84.311, 3795.089
85.706, 3047.823
87.101, 3218.109
88.496, 2077.982
89.890, 1588.085
91.284, 1428.338
92.678, 1338.740
94.071, 909.325
95.465, 680.109
96.858, 581.089
98.251, 402.249
99.644, 343.559
101.036, 64.995
102.428, 203.169
103.820, 330.634
105.212, 307.090
106.604, 131.462
107.995, 23.046
109.387, 347.927
110.777, 389.530
112.168, 590.506
113.559, 1470.641
114.949, 1739.989
116.339, 1868.721
117.729, 1637.161
119.119, 1785.269
120.508, 1942.768
121.897, 2189.640
123.286, 2365.917
124.675, 2551.631
126.063, 3036.804
127.452, 3321.459
128.840, 3785.617
130.228, 3849.300
131.615, 4632.525
133.003, 5255.561
134.390, 5649.078
135.777, 6703.008
137.164, 7217.297
138.550, 8531.873
139.937, 9486.670
141.323, 10731.611
142.709, 11786.638
144.094, 11931.692
145.480, 12746.720
146.865, 12471.629
148.250, 13286.325
149.635, 13230.792
151.019, 13545.029
152.403, 13890.155
153.788, 13810.505
155.171, 14224.057
156.555, 14150.265
157.939, 15069.859
159.322, 14912.472
160.705, 15371.147
162.088, 15948.812
163.470, 16095.752
164.853, 16861.979
166.235, 17154.434
167.617, 17983.059
168.998, 18602.053
170.380, 18983.037
171.761, 20189.684
173.142, 20566.637
174.523, 22198.916
175.904, 22761.180
177.284, 24343.418
178.664, 24665.672
180.044, 25087.947
181.424, 25012.109
182.803, 22972.082
184.183, 22144.979
185.562, 19988.432
186.940, 19459.553
188.319, 18126.551
189.698, 17478.398
191.076, 16960.213
192.454, 16471.975
193.831, 16191.023
195.209, 15895.311
196.586, 15786.877
197.963, 15438.368
199.340, 15199.780
200.717, 15361.100
202.093, 14832.319
203.470, 15283.450
204.846, 15064.487
206.221, 15555.427
207.597, 16436.281
208.972, 17197.045
210.347, 19297.715
211.722, 20358.303
213.097, 23238.824
214.472, 25489.301
215.846, 28400.129
217.220, 30608.229
218.594, 31326.488
219.967, 32323.238
221.341, 29600.045
222.714, 27966.021
224.087, 24641.090
225.460, 22605.273
226.832, 20668.555
228.204, 18670.926
229.577, 17892.209
230.948, 16402.334
232.320, 16311.437
233.692, 15769.640
235.063, 15717.025
236.434, 16013.514
237.805, 14969.076
239.175, 14523.577
240.545, 12306.940
241.916, 10448.452
243.286, 8087.548
244.655, 6335.180
246.025, 5102.188
247.394, 4078.875
248.763, 3435.438
250.132, 2931.863
251.501, 2509.209
252.869, 2134.493
254.237, 1794.695
255.605, 1603.825
256.973, 1299.257
258.340, 1324.278
259.708, 989.287
261.075, 917.201
262.442, 847.906
263.808, 634.095
265.175, 593.357
266.541, 419.173
267.907, 408.000
269.273, 228.993
270.639, 26.612
272.004, 24.651
273.369, 138.099
274.734, 176.122
276.099, 117.077
277.463, 186.812
278.828, 234.850
280.192, 190.971
281.556, 213.748
282.919, 343.693
284.283, 156.250
285.646, 205.324
287.009, 94.669
288.372, 9.187
289.734, 30.146
291.097, 379.344
292.459, 524.422
293.821, 979.389
295.183, 1462.253
296.544, 2086.026
297.905, 2943.710
299.266, 3615.304
300.627, 4337.806
301.988, 4249.212
303.348, 4061.343
304.709, 3372.465
306.069, 2634.709
307.428, 2302.255
308.788, 1937.827
310.147, 1607.462
311.507, 1203.041
312.865, 886.449
314.224, 732.880
315.583, 459.791
316.941, 538.676
318.299, 406.327
319.657, 417.559
321.015, 621.979
322.372, 595.783
323.729, 890.485
325.086, 1094.504
326.443, 1714.431
327.800, 2182.035
329.156, 2947.010
330.512, 3663.001
331.868, 4179.138
333.224, 4499.658
334.579, 4764.653
335.935, 4773.145
337.290, 4711.900
338.645, 4639.967
339.999, 4938.100
341.354, 5265.947
342.708, 6273.494
344.062, 7660.995
345.416, 10667.850
346.769, 14824.841
348.123, 21101.172
349.476, 30007.404
350.829, 37113.539
352.182, 38639.609
353.534, 31685.629
354.887, 23411.598
356.239, 18147.512
357.591, 14393.369
358.942, 12579.181
360.294, 11324.939
361.645, 10740.648
362.996, 10596.306
364.347, 10401.911
365.698, 11047.468
367.048, 10842.974
368.398, 11358.428
369.748, 11523.939
371.098, 11660.078
372.448, 12206.511
373.797, 11973.638
375.146, 12511.321
376.495, 12441.073
377.844, 12711.371
379.192, 12953.087
380.540, 12686.493
381.889, 13219.062
383.236, 12974.569
384.584, 13457.099
385.932, 13628.527
387.279, 13771.735
388.626, 14359.918
389.973, 14001.231
391.319, 14790.499
392.666, 14868.298
394.012, 15236.726
395.358, 15961.580
396.704, 15816.362
398.049, 16750.676
399.394, 16064.418
400.740, 16148.206
402.084, 15391.562
403.429, 14044.667
404.774, 13507.243
406.118, 12199.810
407.462, 11762.036
408.806, 11104.065
410.150, 10686.009
411.493, 10557.870
412.836, 9979.649
414.179, 10141.347
415.522, 9682.966
416.865, 10043.805
418.207, 10393.805
419.549, 10812.482
420.891, 11641.227
422.233, 11668.549
423.575, 12115.554
424.916, 12112.271
426.257, 12387.833
427.598, 12753.109
428.939, 12287.054
430.279, 12671.223
431.619, 11884.141
432.959, 11344.486
434.299, 10772.598
435.639, 9683.932
436.978, 9302.969
438.318, 8325.792
439.657, 8524.304
440.996, 8379.835
442.334, 8278.147
443.673, 8785.060
445.011, 8433.854
446.349, 9124.445
447.687, 9261.998
449.024, 9256.522
450.361, 9686.452
451.699, 9157.924
453.036, 9153.043
454.372, 7889.221
455.709, 6307.271
457.045, 4728.310
458.381, 3055.001
459.717, 2010.636
461.053, 1147.217
462.388, 746.743
463.724, 537.214
465.059, 271.623
466.394, 213.962
467.728, 113.234
469.063, 78.429
470.397, 34.558
471.731, 19.607
473.065, 30.089
474.398, 4.206
475.732, 86.624
477.065, 58.851
478.398, 76.358
479.731, 134.262
481.063, 44.168
482.396, 143.887
483.728, 117.454
485.060, 224.211
486.391, 169.787
487.723, 163.004
489.054, 220.165
490.385, 127.276
491.716, 235.332
493.047, 259.340
494.377, 194.304
495.708, 236.219
497.038, 152.090
498.368, 299.911
499.697, 267.688
501.027, 319.412
502.356, 374.086
503.685, 368.711
505.014, 504.292
506.342, 447.830
507.671, 595.322
508.999, 687.777
510.327, 688.191
511.655, 865.568
512.982, 964.906
514.310, 1179.205
515.637, 1263.467
516.964, 1327.691
518.291, 1527.886
519.617, 1452.052
520.944, 1513.179
522.270, 1338.271
523.596, 1161.326
524.921, 1028.340
526.247, 788.316
527.572, 716.254
528.897, 489.154
530.222, 323.014
531.547, 237.835
532.871, 56.619
534.196, 10.652
535.520, 69.977
536.844, 84.376
538.167, 119.857
539.491, 158.426
540.814, 145.110
542.137, 205.892
543.460, 150.808
544.783, 131.823
546.105, 170.932
547.427, 66.157
548.749, 139.458
550.071, 98.860
551.393, 68.349
552.714, 86.911
554.035, 27.446
555.356, 11.756
556.677, 88.018
557.998, 193.237
559.318, 149.417
560.638, 221.556
561.958, 251.660
563.278, 349.729
564.597, 326.766
565.917, 383.771
567.236, 457.745
568.555, 544.688
569.874, 570.603
571.192, 605.488
572.511, 697.345
573.829, 788.175
575.147, 833.103
576.464, 931.171
577.782, 1049.224
579.099, 1093.294
580.416, 1191.311
581.733, 1199.452
583.050, 1375.565
584.366, 1426.517
585.683, 1620.939
586.999, 1768.022
588.315, 1733.395
589.630, 2012.612
590.946, 2010.895
592.261, 2267.379
593.576, 2493.900
594.891, 2631.337
596.206, 3006.888
597.520, 3130.594
598.834, 3600.551
600.148, 3943.461
601.462, 4198.423
602.776, 4940.401
604.089, 5355.440
605.402, 6139.460
606.715, 6720.642
608.028, 7167.821
609.341, 7895.101
610.653, 7802.420
611.965, 8401.413
613.277, 8468.693
614.589, 8696.001
615.901, 9034.459
617.212, 8652.015
618.523, 8729.690
619.834, 7527.162
621.145, 6146.453
622.456, 4744.679
623.766, 3505.483
625.076, 2802.497
626.386, 2313.910
627.696, 2100.653
629.006, 2050.509
630.315, 1969.740
631.624, 2290.614
632.933, 2298.484
634.242, 2742.868
635.551, 3295.064
636.859, 3655.196
638.167, 4315.893
639.475, 4462.509
640.783, 4549.324
642.090, 4492.129
643.398, 3959.885
644.705, 3596.963
646.012, 2722.381
647.318, 2190.481
648.625, 1742.370
649.931, 1421.166
651.237, 1591.256
652.543, 1743.835
653.849, 2269.806
655.155, 2782.464
656.460, 3248.103
657.765, 4287.166
659.070, 4850.170
660.375, 5917.329
661.679, 7358.398
662.984, 8644.227
664.288, 11049.606
665.592, 12846.182
666.895, 15532.045
668.199, 18268.574
669.502, 19274.482
670.805, 20640.500
672.108, 18616.836
673.411, 17303.115
674.713, 15101.218
676.016, 13069.256
677.318, 12444.915
678.620, 11171.940
679.921, 10707.564
681.223, 10203.110
682.524, 9359.056
683.825, 9344.608
685.126, 8600.411
686.427, 8475.761
687.727, 8341.812
689.028, 7878.649
690.328, 7922.203
691.628, 7356.755
692.927, 7129.226
694.227, 6819.833
695.526, 6106.112
696.825, 5827.700
698.124, 4818.929
699.423, 4226.390
700.721, 3399.436
702.020, 2665.065
703.318, 2289.911
704.616, 1701.560
705.913, 1446.987
707.211, 1204.159
708.508, 949.658
709.805, 1032.281
711.102, 851.423
712.399, 726.600
713.695, 688.127
714.992, 583.890
716.288, 596.654
717.584, 576.917
718.879, 421.513
720.175, 458.732
721.470, 360.355
722.765, 420.726
724.060, 356.077
725.355, 333.742
726.649, 315.049
727.944, 261.938
729.238, 240.429
730.532, 189.799
731.825, 149.908
733.119, 147.385
734.412, 138.948
735.705, 146.941
736.998, 113.862
738.291, 118.014
739.584, 153.833
740.876, 39.687
742.168, 119.329
743.460, 49.972
744.752, 86.846
746.043, 72.282
747.334, 27.664
748.626, 25.163
749.916, 58.393
751.207, 46.871
752.498, 21.026
753.788, 2.256
755.078, 6.800
756.368, 10.454
757.658, 23.482
758.947, 34.430
760.237, 52.335
761.526, 30.275
762.815, 40.097
764.104, 19.876
765.392, 12.671
766.680, 26.638
767.969, 15.992
769.257, 8.578
770.544, 16.883
771.832, 0.611
773.119, 2.207
774.406, 1.419
775.693, 4.755
776.980, 19.042
778.267, 4.711
779.553, 13.508
780.839, 19.648
782.125, 37.229
783.411, 67.838
784.697, 5.873
785.982, 43.127
787.267, 18.815
788.552, 10.726
789.837, 14.603
791.122, 42.445
792.406, 8.254
793.690, 16.976
794.974, 6.748
796.258, 4.434
797.542, 4.920
798.825, 33.320
800.108, 21.734
801.391, 29.904
802.674, 14.860
803.957, 23.277
805.239, 26.906
806.522, 22.638
807.804, 26.689
809.085, 9.148
810.367, 15.965
811.649, 14.153
812.930, 43.261
814.211, 57.312
815.492, 0.756
816.772, 24.295
818.053, 67.177
819.333, 6.073
820.613, 69.975
821.893, 5.936
823.173, 43.684
824.452, 22.308
825.732, 8.939
827.011, 9.694
828.290, 25.650
829.568, 25.028
830.847, 55.532
832.125, 7.990
833.403, 47.423
834.681, 57.721
835.959, 13.996
837.236, 39.155
838.514, 17.279
839.791, 46.301
841.068, 8.602
842.345, 28.585
843.621, 31.506
844.898, 13.601
846.174, 14.750
847.450, 9.382
848.726, 32.760
850.001, 35.238
851.277, 18.977
852.552, 14.694
853.827, 21.535
855.102, 15.888
856.376, 32.732
857.651, 39.593
858.925, 30.262
860.199, 46.996
861.473, 40.383
862.746, 60.385
864.020, 36.083
865.293, 28.669
866.566, 26.326
867.839, 40.780
869.112, 26.324
870.384, 16.852
871.656, 9.170
872.928, 74.488
874.200, 18.893
875.472, 65.248
876.744, 90.708
878.015, 31.904
879.286, 86.971
880.557, 17.999
881.828, 38.134
883.098, 50.189
884.369, 105.077
885.639, 142.644
886.909, 86.460
888.178, 109.003
889.448, 118.577
890.717, 55.100
891.987, 126.344
893.256, 109.920
894.524, 151.913
895.793, 143.052
897.061, 79.261
898.330, 175.190
899.598, 179.324
900.865, 142.087
902.133, 206.649
903.401, 128.730
904.668, 224.569
905.935, 169.010
907.202, 173.548
908.468, 272.969
909.735, 186.391
911.001, 207.763
912.267, 275.090
913.533, 176.717
914.799, 242.124
916.064, 225.411
917.330, 179.712
918.595, 230.797
919.860, 249.230
921.124, 259.251
922.389, 236.177
923.653, 220.068
924.918, 310.618
926.182, 241.982
927.445, 277.701
928.709, 309.316
929.972, 210.110
931.236, 281.360
932.499, 241.926
933.761, 274.873
935.024, 231.056
936.286, 206.895
937.549, 244.277
938.811, 205.136
940.073, 233.964
941.334, 225.655
942.596, 205.133
943.857, 194.922
945.118, 201.118
946.379, 186.002
947.640, 218.728
948.900, 185.756
950.161, 202.471
951.421, 223.288
952.681, 223.743
953.940, 170.950
955.200, 116.649
956.459, 151.996
957.719, 171.963
958.978, 133.123
960.236, 152.223
961.495, 136.699
962.753, 137.812
964.012, 129.626
965.270, 133.671
966.527, 162.746
967.785, 110.848
969.043, 140.977
970.300, 127.131
971.557, 113.741
972.814, 88.733
974.071, 127.002
975.327, 145.831
976.583, 132.488
977.840, 90.773
979.095, 102.049
980.351, 92.442
981.607, 89.266
982.862, 98.667
984.117, 99.269
985.372, 116.181
986.627, 111.060
987.882, 127.490
989.136, 124.895
990.390, 179.858
991.644, 109.455
992.898, 114.947
994.152, 80.139
995.405, 118.598
996.659, 119.540
997.912, 41.412
999.165, 102.420
1000.417, 57.456
1001.670, 106.876
1002.922, 140.455
1004.174, 102.320
1005.426, 124.585
1006.678, 153.097
1007.930, 63.306
1009.181, 103.727
1010.432, 88.677
1011.683, 62.113
1012.934, 120.439
1014.185, 84.974
1015.435, 103.433
1016.685, 77.737
1017.935, 116.924
1019.185, 86.229
1020.435, 80.445
1021.684, 143.156
1022.934, 108.777
1024.183, 78.154
1025.432, 78.651
1026.680, 43.878
1027.929, 97.156
1029.177, 123.101
1030.425, 118.696
1031.673, 80.010
1032.921, 89.324
1034.169, 88.394
1035.416, 141.499
1036.663, 44.931
1037.911, 92.167
1039.157, 83.395
1040.404, 53.763
1041.650, 144.625
1042.897, 61.970
1044.143, 78.195
1045.389, 117.378
1046.634, 18.793
1047.880, 145.770
1049.125, 41.082
1050.371, 76.434
1051.615, 123.359
1052.860, 13.895
1054.105, 51.142
1055.349, 134.298
1056.593, 37.300
1057.837, 86.552
1059.081, 81.757
1060.325, 97.948
1061.568, 136.938
1062.812, 49.048
1064.055, 71.075
1065.298, 101.164
1066.540, 69.265
1067.783, 105.404
1069.025, 89.504
1070.267, 107.665
1071.509, 126.778
1072.751, 67.866
1073.993, 113.905
1075.234, 159.851
1076.475, 56.801
1077.716, 131.639
1078.957, 109.531
1080.198, 63.599
1081.438, 133.491
1082.679, 49.613
1083.919, 116.613
1085.159, 137.204
1086.398, 102.017
1087.638, 74.942
1088.877, 38.581
1090.116, 34.459
1091.355, 95.965
1092.594, 48.772
1093.833, 146.393
1095.071, 1.036
1096.309, 57.672
1097.547, 85.263
1098.785, 31.859
1100.023, 129.706
1101.260, 94.127
1102.498, 37.824
1103.735, 111.542
1104.972, 71.085
1106.208, 139.048
1107.445, 115.519
1108.681, 59.184
1109.918, 65.049
1111.154, 63.286
1112.389, 289.935
1113.625, 190.859
1114.860, 186.580
1116.096, 159.158
1117.331, 44.132
1118.566, 78.309
1119.800, 42.970
1121.035, 119.289
1122.269, 170.740
1123.503, 329.224
1124.737, 274.727
1125.971, 145.312
1127.205, 222.510
1128.438, 150.741
1129.671, 151.993
1130.904, 53.127
1132.137, 60.966
1133.370, 40.839
1134.602, 52.715
1135.834, 37.863
1137.066, 33.307
1138.298, 44.446
1139.530, 86.013
1140.762, 6.338
1141.993, 32.549
1143.224, 84.830
1144.455, 38.326
1145.686, 43.897
1146.917, 20.465
1148.147, 5.692
1149.377, 71.649
1150.607, 27.729
1151.837, 105.861
1153.067, 54.853
1154.296, 67.939
1155.526, 90.158
1156.755, 45.223
1157.984, 31.984
1159.213, 42.678
1160.441, 56.274
1161.670, 21.781
1162.898, 5.924
1164.126, 9.718
1165.354, 21.407
1166.581, 33.227
1167.809, 0.942
1169.036, 65.593
1170.263, 28.441
1171.490, 27.266
1172.717, 109.105
1173.943, 42.634
1175.170, 50.037
1176.396, 47.527
1177.622, 5.945
1178.848, 119.701
1180.073, 6.218
1181.299, 37.160
1182.524, 78.576
1183.749, 33.503
1184.974, 18.578
1186.199, 38.089
1187.423, 9.076
1188.648, 61.464
1189.872, 15.439
1191.096, 22.276
1192.320, 69.664
1193.543, 1.072
1194.767, 36.822
1195.990, 52.658
1197.213, 42.439
1198.436, 102.354
1199.659, 8.026
1200.881, 3.657
1202.104, 88.834
1203.326, 12.955
1204.548, 34.878
1205.770, 63.911
1206.991, 53.731
1208.213, 106.313
1209.434, 73.245
1210.655, 69.551
1211.876, 67.923
1213.096, 60.394
1214.317, 31.704
1215.537, 51.137
1216.757, 35.909
1217.977, 42.895
1219.197, 45.931
1220.417, 54.316
1221.636, 73.004
1222.855, 68.671
1224.074, 90.701
1225.293, 74.127
1226.512, 29.865
1227.731, 68.128
1228.949, 11.149
1230.167, 37.244
1231.385, 133.311
1232.603, 80.093
1233.820, 49.319
1235.038, 116.578
1236.255, 54.748
1237.472, 154.685
1238.689, 62.777
1239.906, 102.679
1241.122, 110.747
1242.338, 74.652
1243.555, 98.767
1244.771, 93.614
1245.986, 30.872
1247.202, 130.621
1248.417, 62.593
1249.633, 55.306
1250.848, 45.984
1252.063, 1.740
1253.277, 107.713
1254.492, 33.313
1255.706, 15.922
1256.920, 162.134
1258.134, 49.477
1259.348, 110.983
1260.562, 124.457
1261.775, 74.017
1262.988, 0.153
1264.201, 173.980
1265.414, 18.490
1266.627, 82.427
1267.839, 21.734
1269.052, 51.534
1270.264, 61.632
1271.476, 25.058
1272.688, 72.562
1273.899, 74.715
1275.111, 56.920
1276.322, 84.208
1277.533, 49.050
1278.744, 35.323
1279.955, 152.188
1281.165, 89.207
1282.376, 31.180
1283.586, 96.779
1284.796, 17.396
1286.006, 28.472
1287.215, 58.857
1288.425, 19.333
1289.634, 146.241
1290.843, 47.775
1292.052, 108.391
1293.261, 130.083
1294.469, 4.148
1295.678, 56.993
1296.886, 63.299
1298.094, 5.182
1299.302, 67.210
1300.509, 32.490
1301.717, 19.832
1302.924, 107.206
1304.131, 34.354
1305.338, 97.023
1306.545, 67.238
1307.752, 80.076
1308.958, 71.817
1310.164, 65.900
1311.370, 69.024
1312.576, 58.408
1313.782, 62.993
1314.987, 50.819
1316.193, 42.132
1317.398, 19.731
1318.603, 73.708
1319.807, 63.253
1321.012, 35.222
1322.216, 96.233
1323.421, 61.122
1324.625, 227.992
1325.829, 87.192
1327.032, 71.446
1328.236, 11.839
1329.439, 98.007
1330.642, 35.060
1331.845, 97.154
1333.048, 62.094
1334.251, 13.784
1335.453, 144.684
1336.656, 29.556
1337.858, 47.586
1339.060, 103.287
1340.261, 28.898
1341.463, 105.927
1342.664, 102.839
1343.866, 8.790
1345.067, 95.305
1346.267, 20.767
1347.468, 41.541
1348.669, 48.766
1349.869, 43.225
1351.069, 82.768
1352.269, 149.284
1353.469, 72.929
1354.668, 250.478
1355.868, 281.824
1357.067, 446.429
1358.266, 352.699
1359.465, 216.814
1360.664, 5.026
1361.862, 79.018
1363.061, 3.222
1364.259, 98.229
1365.457, 60.285
1366.655, 58.307
1367.852, 171.271
1369.050, 101.345
1370.247, 6.756
1371.444, 80.912
1372.641, 6.689
1373.838, 1.820
1375.035, 157.731
1376.231, 25.492
1377.427, 93.151
1378.623, 50.355
1379.819, 35.536
1381.015, 74.294
1382.211, 93.889
1383.406, 87.524
1384.601, 101.144
1385.796, 35.580
1386.991, 38.776
1388.185, 116.518
1389.380, 14.713
1390.574, 164.864
1391.768, 79.943
1392.962, 80.132
1394.156, 196.742
1395.350, 91.357
1396.543, 67.779
1397.736, 176.195
1398.929, 63.159
1400.122, 14.402
1401.315, 240.621
1402.507, 11.448
1403.700, 174.868
1404.892, 124.645
1406.084, 53.534
1407.276, 151.042
1408.467, 89.763
1409.659, 14.225
1410.850, 224.012
1412.041, 3.165
1413.232, 135.675
1414.423, 151.060
1415.614, 70.981
1416.804, 153.815
1417.994, 129.542
1419.184, 103.139
1420.374, 199.271
1421.564, 2.116
1422.753, 109.453
1423.943, 78.411
1425.132, 67.983
1426.321, 161.958
1427.510, 186.275
1428.698, 65.125
1429.887, 199.519
1431.075, 140.766
1432.263, 75.062
1433.451, 121.529
1434.639, 88.184
1435.827, 78.790
1437.014, 201.602
1438.201, 46.050
1439.388, 118.077
1440.575, 177.092
1441.762, 106.559
1442.949, 338.244
1444.135, 141.066
1445.321, 77.251
1446.507, 233.842
1447.693, 50.422
1448.879, 90.822
1450.064, 189.700
1451.250, 167.516
1452.435, 218.992
1453.620, 233.528
1454.805, 45.775
1455.989, 218.070
1457.174, 138.630
1458.358, 15.097
1459.542, 296.797
1460.726, 88.639
1461.910, 130.339
1463.093, 279.053
1464.277, 122.158
1465.460, 180.779
1466.643, 144.768
1467.826, 52.704
1469.009, 222.846
1470.191, 178.532
1471.373, 124.820
1472.556, 318.058
1473.738, 179.895
1474.919, 169.380
1476.101, 248.820
1477.283, 17.692
1478.464, 176.704
1479.645, 207.087
1480.826, 95.419
1482.007, 178.842
1483.187, 180.650
1484.368, 51.406
1485.548, 216.929
1486.728, 195.553
1487.908, 372.055
1489.088, 323.894
1490.268, 4.071
