##NAMES=Sphalerite
##RRUFFID=R040136
##IDEAL CHEMISTRY=Zn^2+^S^2-^
##LOCALITY=Hilltop mine, Paradise, Cochise County, Arizona, USA
##OWNER=RRUFF
##SOURCE=University of Arizona Mineral Museum
##DESCRIPTION=Olive green fragments
##STATUS=The identification of this mineral has been confirmed by X-ray diffraction and chemical analysis
##URL=rruff.info/R040136
##MEASURED CHEMISTRY=Zn_0.98_S
##PIN_ID=L00334
##ORIENTATION=Laser parallel to -a* (-1 0 0). Fiducial mark perpendicular to laser is parallel to -b [0 -1 0]
69.212, 0.000
70.604, 46.890
71.996, 80.826
73.388, 48.214
74.779, 21.980
76.170, 50.207
77.562, 121.240
78.953, 146.120
80.343, 77.849
81.734, 11.864
83.124, 39.140
84.514, 12.445
85.904, 12.298
87.294, 18.912
88.683, 13.472
90.072, 21.865
91.461, 98.956
92.850, 151.663
94.239, 298.859
95.627, 423.427
97.015, 424.268
98.403, 569.292
99.791, 570.421
101.178, 640.589
102.566, 680.742
103.953, 701.833
105.340, 788.818
106.726, 815.655
108.113, 918.306
109.499, 1027.736
110.885, 1086.912
112.271, 1103.783
113.656, 1299.290
115.042, 1543.382
116.427, 1498.021
117.812, 1465.174
119.197, 1451.815
120.581, 1444.924
121.966, 1445.479
123.350, 1483.466
124.734, 1517.868
126.117, 1606.672
127.501, 1686.867
128.884, 1762.441
130.267, 1919.391
131.650, 2045.724
133.033, 2148.443
134.415, 2321.548
135.797, 2615.031
137.179, 2847.888
138.561, 3209.106
139.943, 3494.674
141.324, 3854.581
142.705, 4074.290
144.086, 4282.239
145.467, 4472.234
146.847, 4571.398
148.228, 4697.858
149.608, 4766.614
150.988, 4722.662
152.367, 4808.939
153.747, 4916.253
155.126, 4958.588
156.505, 5136.954
157.884, 5112.377
159.262, 5242.860
160.641, 5203.405
162.019, 5515.042
163.397, 5547.789
164.775, 5619.656
166.152, 5814.648
167.530, 5906.771
168.907, 6083.031
170.284, 6379.429
171.660, 6564.969
173.037, 6901.653
174.413, 7153.481
175.789, 7355.458
177.165, 7847.583
178.541, 8119.853
179.916, 8312.271
181.292, 8254.843
182.667, 7707.556
184.042, 7240.419
185.416, 6803.429
186.791, 6385.585
188.165, 6183.910
189.539, 5833.507
190.912, 5687.425
192.286, 5577.638
193.659, 5510.162
195.033, 5371.978
196.406, 5376.045
197.778, 5222.358
199.151, 4999.839
200.523, 5115.537
201.895, 4931.391
203.267, 4898.395
204.639, 5130.525
206.010, 5145.766
207.381, 5432.111
208.753, 5643.559
210.123, 6115.104
211.494, 6605.749
212.864, 7259.493
214.235, 8196.331
215.605, 9063.271
216.974, 9900.299
218.344, 10267.421
219.713, 10364.640
221.083, 10121.943
222.452, 9349.339
223.820, 8546.847
225.189, 7654.501
226.557, 6992.365
227.925, 6415.431
229.293, 5959.655
230.661, 5656.043
232.029, 5372.583
233.396, 5235.251
234.763, 5123.798
236.130, 5177.113
237.496, 4940.193
238.863, 4688.050
240.229, 4247.798
241.595, 3382.907
242.961, 2652.674
244.327, 2112.690
245.692, 1551.990
247.057, 1263.403
248.422, 960.425
249.787, 844.043
251.152, 750.046
252.516, 559.204
253.880, 460.752
255.244, 409.675
256.608, 343.791
257.972, 296.090
259.335, 244.567
260.698, 318.214
262.061, 293.026
263.424, 378.997
264.786, 507.122
266.149, 684.396
267.511, 948.530
268.873, 1182.370
270.234, 1637.063
271.596, 2024.886
272.957, 2506.838
274.318, 2873.913
275.679, 2867.108
277.040, 2733.419
278.400, 2427.846
279.760, 2149.383
281.120, 1769.028
282.480, 1499.780
283.840, 1319.635
285.199, 1205.592
286.558, 1088.133
287.917, 1007.802
289.276, 1030.051
290.635, 1054.394
291.993, 1144.828
293.351, 1391.352
294.709, 1679.964
296.067, 1999.663
297.425, 2431.446
298.782, 3018.310
300.139, 3258.256
301.496, 3546.282
302.853, 3185.383
304.209, 2842.707
305.566, 2391.853
306.922, 1994.285
308.278, 1791.778
309.633, 1536.299
310.989, 1345.237
312.344, 1206.608
313.699, 1076.947
315.054, 730.637
316.409, 512.004
317.763, 283.258
319.118, 85.978
320.472, 65.164
321.826, 49.278
323.179, 78.926
324.533, 274.703
325.886, 430.312
327.239, 828.526
328.592, 1314.952
329.944, 1858.347
331.297, 2335.756
332.649, 2664.381
334.001, 2793.392
335.353, 2787.711
336.704, 2817.327
338.056, 2805.635
339.407, 2912.350
340.758, 3291.163
342.109, 4027.011
343.459, 5690.868
344.810, 8628.770
346.160, 13979.719
347.510, 21840.713
348.860, 33121.754
350.209, 43462.832
351.559, 43243.941
352.908, 34355.117
354.257, 22806.314
355.605, 15017.550
356.954, 10388.826
358.302, 7890.134
359.650, 6483.477
360.998, 5639.852
362.346, 5130.259
363.694, 4851.693
365.041, 4684.159
366.388, 4599.652
367.735, 4580.173
369.082, 4686.722
370.428, 4463.295
371.774, 4572.897
373.121, 4605.523
374.466, 4565.020
375.812, 4669.295
377.158, 4550.075
378.503, 4651.502
379.848, 4734.089
381.193, 4699.706
382.537, 4751.963
383.882, 4815.365
385.226, 4855.895
386.570, 4950.997
387.914, 5017.377
389.258, 5126.837
390.601, 5236.769
391.944, 5290.741
393.287, 5474.548
394.630, 5665.559
395.973, 5945.110
397.315, 5816.984
398.658, 6077.851
400.000, 5785.184
401.342, 5732.286
402.683, 5313.432
404.025, 4882.636
405.366, 4599.861
406.707, 4342.123
408.048, 4063.418
409.388, 3956.748
410.729, 3898.120
412.069, 3844.525
413.409, 3732.961
414.749, 3976.429
416.088, 4154.925
417.428, 4639.448
418.767, 4922.998
420.106, 5186.570
421.445, 5355.168
422.783, 5201.788
424.122, 5209.429
425.460, 4987.093
426.798, 4920.776
428.136, 4843.479
429.473, 4589.202
430.811, 4405.943
432.148, 4084.701
433.485, 3837.475
434.821, 3435.269
436.158, 3247.075
437.494, 3003.898
438.831, 2873.733
440.167, 2920.583
441.502, 2916.452
442.838, 2938.337
444.173, 3023.233
445.508, 3087.141
446.843, 3300.059
448.178, 3303.985
449.513, 3304.921
450.847, 3317.865
452.181, 3201.818
453.515, 2899.777
454.849, 2315.742
456.183, 1758.714
457.516, 1156.691
458.849, 638.673
460.182, 350.657
461.515, 104.645
462.847, 26.659
464.180, 5.324
465.512, 72.305
466.844, 93.302
468.176, 178.337
469.507, 124.452
470.839, 162.622
472.170, 132.868
473.501, 95.177
474.831, 149.532
476.162, 173.957
477.492, 136.469
478.822, 73.052
480.152, 78.673
481.482, 174.339
482.812, 64.097
484.141, 80.896
485.470, 21.737
486.799, 11.601
488.128, 101.481
489.457, 81.425
490.785, 30.582
492.113, 46.414
493.441, 3.553
494.769, 36.496
496.096, 36.418
497.424, 4.327
498.751, 54.217
500.078, 24.098
501.405, 26.970
502.731, 70.847
504.058, 69.713
505.384, 85.567
506.710, 148.410
508.035, 197.241
509.361, 232.060
510.686, 231.866
512.012, 304.659
513.337, 348.438
514.661, 334.204
515.986, 433.958
517.310, 493.697
518.634, 473.426
519.958, 470.139
521.282, 526.837
522.606, 486.520
523.929, 402.187
525.252, 349.837
526.575, 226.471
527.898, 269.089
529.221, 156.689
530.543, 149.273
531.865, 101.841
533.187, 45.391
534.509, 8.919
535.831, 2.404
537.152, 6.160
538.473, 54.777
539.794, 85.476
541.115, 46.271
542.436, 15.144
543.756, 11.078
545.076, 1.074
546.396, 37.127
547.716, 5.745
549.036, 0.439
550.355, 15.682
551.674, 22.008
552.994, 40.649
554.312, 30.250
555.631, 25.803
556.949, 9.308
558.268, 68.755
559.586, 147.166
560.904, 168.554
562.221, 132.918
563.539, 165.257
564.856, 151.572
566.173, 162.865
567.490, 163.134
568.807, 201.377
570.123, 274.595
571.439, 231.800
572.755, 299.977
574.071, 281.347
575.387, 311.541
576.702, 329.780
578.018, 391.885
579.333, 406.925
580.648, 421.947
581.962, 526.948
583.277, 452.179
584.591, 510.147
585.905, 562.179
587.219, 641.151
588.533, 615.530
589.846, 666.526
591.160, 790.534
592.473, 768.942
593.786, 935.831
595.099, 944.746
596.411, 1028.591
597.723, 1115.696
599.036, 1237.304
600.348, 1389.729
601.659, 1560.526
602.971, 1706.799
604.282, 1914.483
605.593, 2137.122
606.904, 2392.858
608.215, 2451.850
609.526, 2696.497
610.836, 2706.984
612.146, 2843.659
613.456, 2941.491
614.766, 3133.951
616.076, 3166.385
617.385, 2996.583
618.694, 2893.833
620.003, 2425.889
621.312, 2038.262
622.621, 1618.998
623.929, 1290.055
625.237, 1153.464
626.546, 1135.646
627.853, 1051.931
629.161, 1157.700
630.468, 1284.911
631.776, 1428.423
633.083, 1625.310
634.390, 1929.008
635.696, 2285.368
637.003, 2519.798
638.309, 2696.424
639.615, 2738.909
640.921, 2610.623
642.227, 2538.038
643.532, 2224.257
644.838, 1834.323
646.143, 1474.875
647.448, 1116.166
648.752, 900.052
650.057, 737.461
651.361, 792.844
652.666, 880.475
653.969, 1000.719
655.273, 1137.555
656.577, 1421.016
657.880, 1604.326
659.183, 1979.538
660.486, 2350.896
661.789, 2932.196
663.092, 3369.522
664.394, 4117.807
665.696, 4871.073
666.998, 5869.293
668.300, 6628.533
669.602, 7026.696
670.903, 7164.832
672.205, 6357.160
673.506, 5582.344
674.806, 5040.257
676.107, 4494.172
677.408, 4074.217
678.708, 3906.075
680.008, 3538.109
681.308, 3518.872
682.608, 3285.713
683.907, 3231.711
685.206, 3119.436
686.506, 3032.357
687.804, 2945.311
689.103, 2790.031
690.402, 2736.258
691.700, 2584.281
692.998, 2485.703
694.296, 2405.627
695.594, 2178.171
696.892, 1949.961
698.189, 1729.953
699.486, 1432.844
700.783, 1221.693
702.080, 950.115
703.377, 721.273
704.673, 597.834
705.969, 556.970
707.265, 425.181
708.561, 438.473
709.857, 404.706
711.152, 318.310
712.447, 316.610
713.743, 265.838
715.037, 279.659
716.332, 254.640
717.627, 237.624
718.921, 200.561
720.215, 212.499
721.509, 183.034
722.803, 184.082
724.096, 197.963
725.390, 196.789
726.683, 201.377
727.976, 176.138
729.269, 75.903
730.561, 111.372
731.854, 93.820
733.146, 119.598
734.438, 136.987
735.730, 125.496
737.021, 123.989
738.313, 65.420
739.604, 117.793
740.895, 95.093
742.186, 102.324
743.476, 37.814
744.767, 81.989
746.057, 72.854
747.347, 29.049
748.637, 86.139
749.927, 72.297
751.216, 81.332
752.506, 39.461
753.795, 8.559
755.084, 18.407
756.373, 61.375
757.661, 18.254
758.950, 72.391
760.238, 75.317
761.526, 51.113
762.814, 23.880
764.101, 52.691
765.389, 78.403
766.676, 40.104
767.963, 22.762
769.250, 59.409
770.536, 57.144
771.823, 104.722
773.109, 84.054
774.395, 77.194
775.681, 43.363
776.967, 3.793
778.252, 30.741
779.538, 16.625
780.823, 34.984
782.108, 23.358
783.393, 37.793
784.677, 67.183
785.962, 26.580
787.246, 4.026
788.530, 11.371
789.814, 84.783
791.097, 8.208
792.381, 49.623
793.664, 19.036
794.947, 38.522
796.230, 12.967
797.513, 69.448
798.795, 6.849
800.077, 45.229
801.359, 4.386
802.641, 13.973
803.923, 47.371
805.205, 4.707
806.486, 77.040
807.767, 6.654
809.048, 39.851
810.329, 36.113
811.610, 10.646
812.890, 57.402
814.170, 37.754
815.450, 43.888
816.730, 30.201
818.010, 32.378
819.289, 29.054
820.569, 32.657
821.848, 23.684
823.126, 30.688
824.405, 28.881
825.684, 1.847
826.962, 13.790
828.240, 13.284
829.518, 50.701
830.796, 17.639
832.074, 48.654
833.351, 10.619
834.628, 55.536
835.905, 29.429
837.182, 2.220
838.459, 41.008
839.735, 2.763
841.011, 1.527
842.287, 18.326
843.563, 25.004
844.839, 26.101
846.115, 46.910
847.390, 12.542
848.665, 59.172
849.940, 2.814
851.215, 25.483
852.489, 13.163
853.764, 57.844
855.038, 45.529
856.312, 21.213
857.586, 64.906
858.859, 50.612
860.133, 19.307
861.406, 36.017
862.679, 3.845
863.952, 14.307
865.225, 13.235
866.497, 34.922
867.770, 24.615
869.042, 45.428
870.314, 38.298
871.585, 38.806
872.857, 36.439
874.128, 13.877
875.400, 2.718
876.671, 31.418
877.942, 37.977
879.212, 50.430
880.483, 41.072
881.753, 33.557
883.023, 119.815
884.293, 96.199
885.563, 10.494
886.832, 106.880
888.101, 62.288
889.371, 59.671
890.640, 68.178
891.908, 75.302
893.177, 86.608
894.445, 120.805
895.714, 28.177
896.982, 106.939
898.250, 10.960
899.517, 78.232
900.785, 120.827
902.052, 72.896
903.319, 159.896
904.586, 66.921
905.853, 124.751
907.119, 86.859
908.386, 78.367
909.652, 117.432
910.918, 23.806
912.184, 67.722
913.449, 100.638
914.715, 103.410
915.980, 74.880
917.245, 123.651
918.510, 88.535
919.775, 146.201
921.039, 87.653
922.303, 60.466
923.568, 101.255
924.831, 140.274
926.095, 142.182
927.359, 62.264
928.622, 161.055
929.885, 70.123
931.148, 118.254
932.411, 130.874
933.674, 196.584
934.936, 69.538
936.199, 128.177
937.461, 118.966
938.723, 135.545
939.984, 139.284
941.246, 167.530
942.507, 82.602
943.769, 104.885
945.030, 175.752
946.290, 69.426
947.551, 62.149
948.811, 141.748
950.072, 122.401
951.332, 82.540
952.592, 104.993
953.851, 71.750
955.111, 161.234
956.370, 99.672
957.629, 74.779
958.888, 148.472
960.147, 24.094
961.406, 100.570
962.664, 100.155
963.922, 70.530
965.180, 137.233
966.438, 112.858
967.696, 27.600
968.953, 55.134
970.211, 81.365
971.468, 36.923
972.725, 91.460
973.982, 107.619
975.238, 26.974
976.495, 97.339
977.751, 84.571
979.007, 74.769
980.263, 53.030
981.518, 59.567
982.774, 35.730
984.029, 43.312
985.284, 49.624
986.539, 50.750
987.794, 70.096
989.048, 68.892
990.303, 72.143
991.557, 82.084
992.811, 38.334
994.065, 81.667
995.318, 8.382
996.572, 34.850
997.825, 137.130
999.078, 76.287
1000.331, 121.631
1001.584, 81.841
1002.836, 82.294
1004.089, 96.241
1005.341, 118.806
1006.593, 92.904
1007.845, 136.125
1009.096, 76.560
1010.348, 167.895
1011.599, 88.361
1012.850, 52.694
1014.101, 82.662
1015.352, 105.171
1016.602, 118.130
1017.853, 98.542
1019.103, 52.952
1020.353, 111.995
1021.603, 69.477
1022.852, 95.345
1024.102, 68.797
1025.351, 133.310
1026.600, 55.236
1027.849, 103.319
1029.098, 73.397
1030.346, 127.527
1031.595, 92.658
1032.843, 81.422
1034.091, 129.702
1035.339, 98.704
1036.586, 150.570
1037.834, 131.954
1039.081, 118.074
1040.328, 49.932
1041.575, 76.185
1042.822, 88.075
1044.068, 135.172
1045.314, 48.475
1046.561, 99.135
1047.807, 122.150
1049.052, 50.373
1050.298, 153.206
1051.544, 88.198
1052.789, 117.286
1054.034, 99.366
1055.279, 61.364
1056.523, 108.420
1057.768, 56.732
1059.012, 47.766
1060.257, 120.862
1061.501, 115.607
1062.744, 120.229
1063.988, 112.170
1065.231, 106.641
1066.475, 103.202
1067.718, 93.924
1068.961, 86.678
1070.203, 89.525
1071.446, 81.452
1072.688, 82.384
1073.931, 72.806
1075.173, 76.426
1076.414, 70.004
1077.656, 52.486
1078.898, 121.544
1080.139, 50.119
1081.380, 26.918
1082.621, 50.485
1083.862, 6.998
1085.102, 70.539
1086.343, 69.043
1087.583, 59.718
1088.823, 91.328
1090.063, 142.893
1091.302, 10.678
1092.542, 75.179
1093.781, 19.753
1095.020, 12.121
1096.259, 37.532
1097.498, 4.143
1098.737, 80.479
1099.975, 99.777
1101.213, 109.448
1102.451, 100.761
1103.689, 21.105
1104.927, 97.346
1106.164, 92.566
1107.402, 60.751
1108.639, 140.181
1109.876, 19.876
1111.113, 37.327
1112.349, 113.820
1113.586, 39.896
1114.822, 22.232
1116.058, 0.507
1117.294, 31.867
1118.530, 115.108
1119.765, 20.132
1121.001, 26.275
1122.236, 101.404
1123.471, 19.344
1124.706, 56.849
1125.940, 33.528
1127.175, 67.236
1128.409, 142.852
1129.643, 31.229
1130.877, 79.368
1132.111, 50.375
1133.344, 17.301
1134.578, 97.287
1135.811, 44.163
1137.044, 29.998
1138.277, 76.429
1139.510, 93.232
1140.742, 6.218
1141.974, 28.780
1143.206, 25.721
1144.438, 55.214
1145.670, 62.112
1146.902, 51.971
1148.133, 56.925
1149.365, 35.351
1150.596, 3.704
1151.827, 98.577
1153.057, 4.589
1154.288, 91.875
1155.518, 35.647
1156.748, 29.542
1157.978, 42.075
1159.208, 35.320
1160.438, 24.872
1161.667, 70.778
1162.897, 2.260
1164.126, 84.599
1165.355, 16.743
1166.583, 7.254
1167.812, 97.445
1169.040, 9.092
1170.269, 151.080
1171.497, 10.521
1172.725, 63.107
1173.952, 71.675
1175.180, 69.371
1176.407, 75.538
1177.634, 110.955
1178.861, 62.779
1180.088, 168.911
1181.315, 78.657
1182.541, 159.918
1183.767, 85.346
1184.994, 45.722
1186.220, 70.937
1187.445, 127.967
1188.671, 39.006
1189.896, 129.955
1191.121, 88.921
1192.346, 46.870
1193.571, 128.644
1194.796, 109.684
1196.021, 124.715
1197.245, 129.778
1198.469, 107.555
1199.693, 58.637
1200.917, 80.473
1202.140, 68.279
1203.364, 80.677
1204.587, 27.926
1205.810, 67.677
1207.033, 64.344
1208.256, 77.215
1209.479, 158.854
1210.701, 93.514
1211.923, 73.104
1213.145, 51.669
1214.367, 137.200
1215.589, 122.708
1216.810, 101.172
1218.032, 126.619
1219.253, 116.956
1220.474, 68.255
1221.695, 142.479
1222.915, 148.666
1224.136, 153.763
1225.356, 41.715
1226.576, 129.906
1227.796, 90.741
1229.016, 142.542
1230.235, 150.286
1231.455, 127.284
1232.674, 145.104
1233.893, 100.244
1235.112, 111.880
1236.331, 119.617
1237.549, 63.337
1238.767, 126.658
1239.986, 105.211
1241.204, 154.494
1242.421, 122.705
1243.639, 62.978
1244.857, 145.116
1246.074, 188.485
1247.291, 56.891
1248.508, 138.371
1249.725, 118.692
1250.941, 148.644
1252.158, 166.874
1253.374, 168.549
1254.590, 90.196
1255.806, 158.321
1257.022, 133.274
1258.237, 59.149
1259.453, 168.159
1260.668, 91.869
1261.883, 101.465
1263.098, 41.919
1264.312, 78.641
1265.527, 183.455
1266.741, 73.879
1267.955, 110.348
1269.169, 76.021
1270.383, 44.495
1271.597, 15.933
1272.810, 13.244
1274.024, 17.093
1275.237, 27.118
1276.450, 55.037
1277.662, 56.196
1278.875, 77.371
1280.087, 66.684
1281.300, 88.174
1282.512, 113.619
1283.724, 5.577
1284.935, 115.403
1286.147, 74.489
1287.358, 6.223
1288.569, 75.093
1289.780, 69.888
1290.991, 48.525
1292.202, 81.633
1293.412, 0.208
1294.623, 106.472
1295.833, 38.250
1297.043, 58.495
1298.253, 39.828
1299.462, 16.157
1300.672, 71.439
1301.881, 16.203
1303.090, 26.680
1304.299, 4.834
1305.508, 17.741
1306.716, 27.856
1307.925, 32.197
1309.133, 41.268
1310.341, 13.394
1311.549, 3.022
1312.757, 8.355
1313.964, 29.623
1315.172, 19.664
1316.379, 6.241
1317.586, 51.329
1318.793, 59.704
1320.000, 17.189
1321.206, 12.688
1322.412, 67.270
1323.619, 1.553
1324.825, 190.931
1326.030, 31.609
1327.236, 102.711
1328.442, 62.671
1329.647, 67.220
1330.852, 100.547
1332.057, 140.167
1333.262, 99.042
1334.466, 198.468
1335.671, 164.760
1336.875, 160.625
1338.079, 153.577
1339.283, 112.151
1340.487, 110.038
1341.690, 66.382
1342.894, 104.620
1344.097, 149.193
1345.300, 138.616
1346.503, 140.778
1347.706, 135.426
1348.908, 90.370
1350.111, 101.372
1351.313, 107.048
1352.515, 93.854
1353.717, 211.856
1354.918, 129.758
1356.120, 159.627
1357.321, 244.647
1358.523, 138.677
1359.724, 150.728
1360.924, 156.268
1362.125, 160.130
1363.326, 147.946
1364.526, 151.291
1365.726, 128.049
1366.926, 145.515
1368.126, 116.292
1369.325, 118.349
1370.525, 72.769
1371.724, 139.060
1372.923, 65.688
1374.122, 148.922
1375.321, 216.401
1376.520, 49.042
1377.718, 127.949
1378.916, 88.650
1380.114, 129.742
1381.312, 124.176
1382.510, 114.133
1383.708, 102.909
1384.905, 74.911
1386.102, 74.020
1387.299, 98.281
1388.496, 53.827
1389.693, 96.761
1390.889, 77.624
1392.086, 29.203
1393.282, 175.720
1394.478, 60.322
1395.674, 56.081
1396.870, 148.643
1398.065, 11.456
1399.261, 58.994
1400.456, 126.542
1401.651, 15.817
1402.846, 95.969
1404.040, 43.055
1405.235, 151.133
1406.429, 108.853
1407.623, 0.113
1408.817, 100.038
1410.011, 106.269
1411.205, 7.517
1412.398, 30.254
1413.592, 85.117
1414.785, 10.907
1415.978, 101.041
1417.171, 0.657
1418.363, 38.846
1419.556, 11.371
1420.748, 11.088
1421.940, 0.000
##END=



