##NAMES=Sphalerite
##RRUFFID=R050237
##IDEAL CHEMISTRY=Zn^2+^S^2-^
##LOCALITY=Picos de Europa, Spain
##OWNER=RRUFF
##SOURCE=Marcus Origlieri
##DESCRIPTION=Green single crystal
##STATUS=The identification of this mineral has been confirmed by X-ray diffraction and chemical analysis
##URL=rruff.info/R050237
##MEASURED CHEMISTRY=Zn_1.00_S_1.00_
##PIN_ID=L00430
##ORIENTATION=Laser parallel to a* (1 0 0). Fiducial mark perpendicular to laser is parallel to b [0 1 0]
97.554, 0.000
98.947, 173.726
100.340, 409.536
101.732, 194.499
103.124, 21.958
104.516, 57.123
105.908, 221.462
107.300, 477.644
108.691, 168.522
110.082, 74.839
111.473, 19.385
112.864, 149.197
114.254, 632.242
115.644, 1306.641
117.034, 2197.477
118.424, 2651.391
119.813, 2128.844
121.203, 2027.029
122.592, 1793.279
123.981, 1561.035
125.369, 1687.861
126.758, 1877.438
128.146, 2405.475
129.534, 2759.713
130.922, 3749.918
132.309, 4221.881
133.696, 5174.408
135.083, 6203.334
136.470, 7750.715
137.857, 9323.320
139.243, 11021.551
140.630, 11702.109
142.016, 12036.863
143.401, 12202.727
144.787, 12534.627
146.172, 12846.514
147.557, 13173.338
148.942, 13214.068
150.327, 13757.695
151.711, 13999.285
153.096, 14167.980
154.480, 14736.984
155.863, 14767.988
157.247, 15101.971
158.630, 15657.891
160.013, 15917.717
161.396, 16376.391
162.779, 16976.881
164.161, 17686.141
165.544, 18141.125
166.926, 18902.816
168.308, 19661.180
169.689, 20611.197
171.070, 21748.855
172.452, 23189.135
173.833, 24619.016
175.213, 26207.121
176.594, 27797.980
177.974, 27582.826
179.354, 27205.256
180.734, 25029.266
182.114, 22758.191
183.493, 20961.027
184.872, 19749.812
186.251, 18709.699
187.630, 17947.725
189.008, 17210.945
190.387, 16855.389
191.765, 17038.072
193.143, 16501.016
194.520, 16080.242
195.898, 15528.754
197.275, 15477.562
198.652, 14844.674
200.029, 15148.107
201.405, 15101.277
202.782, 15450.590
204.158, 15818.137
205.534, 17067.949
206.909, 18544.871
208.285, 19865.086
209.660, 22265.701
211.035, 24970.973
212.410, 27996.781
213.784, 32027.035
215.159, 35145.633
216.533, 36714.508
217.907, 36625.594
219.281, 34535.867
220.654, 31038.307
222.027, 27483.852
223.400, 24646.506
224.773, 21805.238
226.146, 20042.072
227.518, 18300.988
228.891, 17413.990
230.263, 16595.082
231.634, 16429.256
233.006, 16637.520
234.377, 16507.859
235.748, 16310.291
237.119, 14846.840
238.490, 12434.591
239.860, 9638.635
241.231, 6509.938
242.601, 4320.532
243.970, 3087.395
245.340, 2121.464
246.709, 1309.640
248.079, 795.891
249.448, 377.212
250.816, 7.418
252.185, 262.013
253.553, 467.575
254.921, 570.123
256.289, 496.661
257.657, 658.219
259.024, 460.956
260.391, 167.936
261.758, 232.903
263.125, 757.426
264.492, 1569.748
265.858, 2541.786
267.224, 4000.482
268.590, 5973.818
269.956, 8095.542
271.321, 10124.687
272.687, 11022.725
274.052, 10725.575
275.416, 9621.164
276.781, 8428.298
278.146, 6905.195
279.510, 5461.672
280.874, 4600.690
282.237, 3846.209
283.601, 3381.197
284.964, 2970.831
286.327, 2597.452
287.690, 2655.666
289.053, 2692.239
290.416, 2842.154
291.778, 3440.391
293.140, 4097.933
294.502, 5026.762
295.863, 5993.866
297.225, 7474.228
298.586, 8128.837
299.947, 7960.873
301.308, 7203.038
302.668, 5709.617
304.029, 4710.539
305.389, 3811.863
306.749, 3385.375
308.108, 2887.538
309.468, 2422.606
310.827, 2129.636
312.186, 1641.494
313.545, 1477.676
314.903, 804.008
316.262, 239.594
317.620, 170.485
318.978, 159.418
320.336, 107.580
321.693, 665.779
323.051, 1504.142
324.408, 2478.287
325.765, 3458.035
327.121, 4616.459
328.478, 5310.373
329.834, 6366.441
331.190, 7804.263
332.546, 8479.403
333.902, 8777.729
335.257, 8975.401
336.612, 9151.861
337.967, 9913.960
339.322, 11494.693
340.677, 13590.468
342.031, 16824.941
343.385, 20598.527
344.739, 24906.600
346.093, 30540.404
347.446, 39295.762
348.799, 46891.168
350.153, 44954.598
351.505, 34539.047
352.858, 24411.545
354.210, 17975.064
355.563, 14932.610
356.915, 13055.177
358.267, 12061.766
359.618, 11738.376
360.969, 11945.008
362.321, 12501.655
363.672, 13008.317
365.022, 13771.988
366.373, 14405.664
367.723, 14794.340
369.073, 15253.084
370.423, 15697.302
371.773, 16516.080
373.122, 17206.385
374.471, 17396.475
375.821, 17691.730
377.169, 17277.645
378.518, 17271.320
379.866, 16862.193
381.215, 16706.842
382.563, 16781.781
383.910, 16687.729
385.258, 17013.299
386.605, 17301.602
387.952, 17867.414
389.299, 18192.219
390.646, 18536.512
391.992, 19132.811
393.339, 19713.186
394.685, 20422.623
396.031, 20813.131
397.376, 21707.553
398.722, 20926.934
400.067, 20074.133
401.412, 18393.717
402.757, 17039.301
404.101, 16045.863
405.446, 15077.919
406.790, 14124.118
408.134, 13484.387
409.478, 13013.586
410.821, 13036.711
412.165, 12971.766
413.508, 13185.595
414.851, 14298.094
416.193, 15345.638
417.536, 16721.619
418.878, 17630.949
420.220, 18300.352
421.562, 18153.650
422.904, 17235.707
424.245, 17416.094
425.586, 17208.480
426.927, 16877.873
428.268, 16710.264
429.609, 16092.657
430.949, 14667.061
432.289, 13573.466
433.629, 12585.849
434.969, 11506.214
436.309, 10760.553
437.648, 10476.862
438.987, 10474.141
440.326, 10544.381
441.665, 10617.577
443.003, 10881.729
444.342, 11439.834
445.680, 11586.889
447.018, 11907.895
448.355, 12215.843
449.693, 12190.737
451.030, 11749.571
452.367, 10959.343
453.704, 9208.051
455.041, 6260.693
456.377, 3938.269
457.713, 2106.773
459.049, 932.205
460.385, 452.569
461.721, 127.854
463.056, 109.945
464.391, 267.964
465.726, 379.292
467.061, 375.988
468.395, 428.056
469.730, 468.526
471.064, 446.415
472.398, 449.707
473.731, 363.420
475.065, 324.513
476.398, 323.967
477.731, 356.784
479.064, 215.216
480.397, 181.760
481.729, 101.562
483.062, 100.602
484.394, 61.877
485.725, 20.385
487.057, 3.833
488.389, 14.978
489.720, 70.863
491.051, 103.587
492.382, 126.150
493.712, 125.556
495.043, 230.835
496.373, 250.980
497.703, 178.998
499.032, 329.864
500.362, 473.607
501.691, 496.232
503.020, 454.742
504.349, 593.137
505.678, 670.419
507.007, 908.589
508.335, 966.654
509.663, 1087.612
510.991, 1352.462
512.319, 1586.205
513.646, 1779.368
514.973, 2045.377
516.300, 2125.807
517.627, 2307.133
518.954, 2274.352
520.280, 2128.460
521.607, 1995.456
522.933, 1843.336
524.259, 1532.112
525.584, 1290.773
526.910, 1025.320
528.235, 866.969
529.560, 756.061
530.885, 615.273
532.209, 483.356
533.534, 390.308
534.858, 216.123
536.182, 83.763
537.506, 48.188
538.829, 136.384
540.152, 92.390
541.476, 110.230
542.799, 86.863
544.121, 14.712
545.444, 128.455
546.766, 115.417
548.088, 130.171
549.410, 241.724
550.732, 375.104
552.053, 457.330
553.375, 447.414
554.696, 435.352
556.017, 441.144
557.337, 583.790
558.658, 616.298
559.978, 749.670
561.298, 739.910
562.618, 734.017
563.938, 840.989
565.257, 793.832
566.576, 1033.541
567.895, 1021.129
569.214, 1183.591
570.533, 1295.928
571.851, 1285.140
573.170, 1476.229
574.488, 1533.217
575.805, 1504.127
577.123, 1692.978
578.440, 1833.772
579.758, 1990.662
581.075, 2133.448
582.391, 2212.062
583.708, 2333.972
585.024, 2465.495
586.341, 2587.971
587.657, 2747.452
588.972, 3034.928
590.288, 3220.979
591.603, 3520.244
592.918, 3801.183
594.233, 4059.160
595.548, 4475.810
596.863, 4667.805
598.177, 5153.072
599.491, 5560.651
600.805, 6037.993
602.119, 6672.974
603.432, 7670.270
604.746, 8349.979
606.059, 9289.516
607.372, 10103.955
608.685, 10474.024
609.997, 10901.259
611.309, 10957.482
612.621, 11390.872
613.933, 11978.788
615.245, 12421.230
616.557, 12462.649
617.868, 11731.620
619.179, 10118.799
620.490, 8003.039
621.801, 6467.004
623.111, 5515.064
624.421, 4746.867
625.731, 4729.730
627.041, 4545.319
628.351, 5159.014
629.660, 5330.520
630.970, 5590.395
632.279, 6678.036
633.588, 6900.180
634.896, 8215.823
636.205, 9382.330
637.513, 10562.622
638.821, 10400.016
640.129, 10396.859
641.437, 9767.599
642.744, 8860.112
644.051, 7298.576
645.358, 5787.064
646.665, 4405.291
647.972, 3458.085
649.278, 2930.451
650.584, 2995.193
651.890, 3235.793
653.196, 3833.966
654.502, 4450.559
655.807, 5188.714
657.113, 6071.562
658.418, 7224.813
659.722, 8571.330
661.027, 10346.662
662.331, 12554.171
663.636, 14895.798
664.940, 18101.652
666.244, 21190.432
667.547, 25401.307
668.851, 27727.809
670.154, 28152.598
671.457, 25747.527
672.760, 22283.441
674.062, 19776.449
675.365, 17539.064
676.667, 16255.234
677.969, 15369.864
679.271, 14455.711
680.572, 13801.490
681.874, 13345.435
683.175, 13091.146
684.476, 12809.832
685.777, 12334.299
687.077, 12136.297
688.378, 11640.399
689.678, 11717.938
690.978, 11155.705
692.278, 10511.980
693.577, 9722.394
694.877, 9320.824
696.176, 8145.639
697.475, 7271.935
698.774, 5898.652
700.072, 4840.326
701.371, 3899.170
702.669, 3209.048
703.967, 2737.222
705.265, 2376.005
706.562, 2145.148
707.860, 1940.603
709.157, 1621.832
710.454, 1634.886
711.751, 1444.788
713.047, 1462.730
714.344, 1346.354
715.640, 1302.916
716.936, 1249.539
718.232, 1140.104
719.527, 1129.884
720.823, 966.087
722.118, 915.788
723.413, 878.724
724.708, 812.247
726.002, 846.818
727.297, 731.042
728.591, 703.447
729.885, 718.782
731.179, 587.067
732.472, 519.201
733.766, 455.015
735.059, 419.229
736.352, 422.087
737.645, 433.097
738.937, 382.571
740.230, 457.509
741.522, 257.088
742.814, 332.245
744.106, 300.205
745.397, 368.335
746.689, 282.885
747.980, 116.356
749.271, 280.952
750.562, 62.303
751.853, 150.530
753.143, 170.679
754.433, 240.746
755.723, 262.738
757.013, 75.656
758.303, 204.670
759.592, 70.533
760.881, 77.505
762.170, 66.106
763.459, 119.631
764.748, 45.078
766.036, 12.447
767.325, 176.736
768.613, 15.954
769.901, 94.093
771.188, 64.159
772.476, 13.852
773.763, 7.056
775.050, 60.111
776.337, 7.371
777.624, 99.363
778.910, 71.141
780.196, 16.989
781.482, 88.911
782.768, 28.078
784.054, 63.979
785.339, 11.188
786.625, 90.447
787.910, 4.784
789.195, 60.186
790.479, 10.656
791.764, 23.204
793.048, 9.792
794.332, 59.589
795.616, 76.983
796.900, 12.399
798.183, 23.183
799.467, 60.156
800.750, 19.379
802.033, 61.101
803.316, 1.547
804.598, 43.885
805.880, 128.717
807.163, 22.585
808.445, 6.620
809.726, 132.585
811.008, 24.950
812.289, 85.173
813.570, 12.236
814.851, 1.754
816.132, 48.195
817.413, 65.090
818.693, 19.071
819.973, 92.701
821.253, 44.510
822.533, 17.830
823.813, 15.764
825.092, 70.701
826.371, 9.254
827.650, 38.869
828.929, 32.558
830.208, 39.721
831.486, 13.106
832.764, 68.233
834.042, 44.629
835.320, 1.383
836.598, 27.341
837.875, 9.247
839.152, 18.103
840.429, 102.096
841.706, 33.626
842.983, 6.302
844.259, 31.053
845.536, 259.541
846.812, 36.136
848.088, 58.728
849.363, 38.661
850.639, 196.069
851.914, 69.428
853.189, 46.076
854.464, 44.596
855.739, 83.894
857.013, 98.400
858.288, 23.094
859.562, 33.400
860.836, 54.878
862.110, 54.324
863.383, 49.557
864.656, 35.118
865.930, 10.470
867.203, 64.787
868.475, 88.072
869.748, 6.323
871.020, 73.534
872.292, 112.711
873.564, 66.854
874.836, 116.958
876.108, 8.027
877.379, 87.056
878.650, 56.043
879.922, 119.991
881.192, 92.902
882.463, 18.775
883.733, 47.607
885.004, 64.400
886.274, 122.157
887.544, 0.142
888.813, 251.381
890.083, 112.894
891.352, 126.427
892.621, 235.728
893.890, 63.273
895.159, 144.005
896.427, 172.029
897.695, 111.900
898.964, 296.034
900.232, 244.794
901.499, 180.837
902.767, 220.553
904.034, 293.334
905.301, 268.148
906.568, 325.672
907.835, 258.150
909.102, 269.706
910.368, 183.462
911.634, 200.740
912.900, 155.444
914.166, 299.160
915.432, 321.814
916.697, 335.680
917.962, 260.219
919.227, 295.607
920.492, 264.671
921.757, 343.046
923.021, 245.734
924.285, 345.285
925.550, 349.125
926.813, 361.413
928.077, 321.569
929.341, 436.629
930.604, 351.267
931.867, 426.773
933.130, 343.204
934.393, 299.763
935.655, 416.985
936.918, 208.089
938.180, 281.272
939.442, 284.779
940.703, 232.990
941.965, 252.321
943.226, 335.604
944.488, 223.767
945.749, 240.279
947.009, 306.867
948.270, 263.687
949.530, 252.319
950.791, 179.367
952.051, 332.752
953.311, 258.050
954.570, 174.366
955.830, 292.291
957.089, 199.067
958.348, 257.178
959.607, 58.499
960.866, 294.780
962.124, 140.384
963.383, 161.205
964.641, 191.977
965.899, 211.002
967.156, 205.558
968.414, 293.337
969.671, 187.167
970.928, 262.776
972.185, 164.412
973.442, 188.095
974.699, 264.007
975.955, 240.512
977.211, 225.755
978.468, 216.942
979.723, 253.886
980.979, 171.547
982.234, 133.621
983.490, 345.009
984.745, 165.548
986.000, 314.438
987.254, 364.674
988.509, 268.367
989.763, 353.608
991.017, 215.370
992.271, 245.129
993.525, 287.102
994.779, 270.524
996.032, 384.093
997.285, 584.617
998.538, 505.427
999.791, 571.127
1001.044, 466.033
1002.296, 445.296
1003.548, 460.648
1004.800, 281.901
1006.052, 484.887
1007.304, 359.559
1008.555, 317.670
1009.807, 416.888
1011.058, 495.037
1012.309, 465.635
1013.559, 354.265
1014.810, 468.549
1016.060, 382.343
1017.310, 417.043
1018.560, 462.159
1019.810, 280.369
1021.060, 445.092
1022.309, 460.143
1023.558, 397.917
1024.807, 473.816
1026.056, 451.791
1027.305, 391.492
1028.553, 439.770
1029.801, 406.125
1031.049, 590.680
1032.297, 479.158
1033.545, 468.533
1034.793, 671.095
1036.040, 457.134
1037.287, 405.725
1038.534, 538.036
1039.781, 633.198
1041.027, 611.439
1042.274, 472.478
1043.520, 496.541
1044.766, 453.144
1046.012, 503.524
1047.257, 385.715
1048.503, 443.088
1049.748, 446.312
1050.993, 335.999
1052.238, 401.826
1053.483, 422.559
1054.727, 337.531
1055.971, 360.251
1057.216, 373.887
1058.459, 433.330
1059.703, 341.902
1060.947, 340.386
1062.190, 364.353
1063.433, 454.755
1064.676, 449.331
1065.919, 368.198
1067.162, 314.738
1068.404, 437.273
1069.646, 334.611
1070.888, 333.842
1072.130, 561.966
1073.372, 356.236
1074.613, 493.606
1075.855, 423.088
1077.096, 368.889
1078.337, 277.176
1079.578, 318.737
1080.818, 310.540
1082.059, 169.894
1083.299, 377.121
1084.539, 330.920
1085.779, 290.269
1087.018, 260.260
1088.258, 209.268
1089.497, 189.422
1090.736, 276.596
1091.975, 170.787
1093.213, 207.927
1094.452, 105.419
1095.690, 159.722
1096.928, 79.581
1098.166, 216.360
1099.404, 210.376
1100.642, 186.799
1101.879, 136.286
1103.116, 183.102
1104.353, 181.163
1105.590, 32.449
1106.827, 162.250
1108.063, 110.095
1109.299, 50.120
1110.536, 145.676
1111.771, 220.346
1113.007, 48.363
1114.243, 148.530
1115.478, 227.179
1116.713, 455.808
1117.948, 754.583
1119.183, 77.435
1120.418, 60.877
1121.652, 236.021
1122.886, 605.882
1124.120, 599.383
1125.354, 420.667
1126.588, 229.273
1127.821, 236.491
1129.055, 129.421
1130.288, 108.035
1131.521, 132.373
1132.753, 16.173
1133.986, 12.448
1135.218, 5.849
1136.450, 163.573
1137.682, 9.953
1138.914, 129.746
1140.146, 57.938
1141.377, 87.067
1142.609, 50.742
1143.840, 116.247
1145.071, 66.430
1146.301, 186.574
1147.532, 48.717
1148.762, 18.897
1149.992, 0.569
1151.222, 9.340
1152.452, 19.467
1153.682, 95.067
1154.911, 75.985
1156.140, 95.303
1157.369, 16.563
1158.598, 16.777
1159.827, 172.417
1161.055, 158.939
1162.284, 9.075
1163.512, 106.464
1164.740, 105.064
1165.967, 54.155
1167.195, 59.574
1168.422, 88.582
1169.650, 97.843
1170.877, 196.938
1172.103, 115.959
1173.330, 143.691
1174.557, 94.574
1175.783, 269.443
1177.009, 129.956
1178.235, 68.208
1179.461, 208.465
1180.686, 152.357
1181.912, 130.542
1183.137, 34.320
1184.362, 188.688
1185.587, 113.377
1186.811, 156.765
1188.036, 246.030
1189.260, 62.578
1190.484, 163.857
1191.708, 95.879
1192.932, 223.566
1194.155, 56.595
1195.378, 197.505
1196.602, 107.799
1197.825, 229.310
1199.047, 143.563
1200.270, 208.562
1201.492, 153.325
1202.715, 207.251
1203.937, 219.910
1205.159, 258.438
1206.380, 220.188
1207.602, 192.130
1208.823, 86.339
1210.044, 169.250
1211.265, 189.513
1212.486, 112.806
1213.707, 183.274
1214.927, 177.147
1216.147, 216.475
1217.367, 233.745
1218.587, 251.449
1219.807, 208.738
1221.027, 176.796
1222.246, 142.781
1223.465, 72.693
1224.684, 176.527
1225.903, 342.287
1227.121, 276.041
1228.340, 25.738
1229.558, 157.458
1230.776, 251.051
1231.994, 112.439
1233.212, 191.772
1234.429, 180.384
1235.646, 136.897
1236.864, 122.925
1238.081, 349.331
1239.297, 113.153
1240.514, 259.301
1241.730, 294.710
1242.947, 155.643
1244.163, 168.979
1245.378, 104.072
1246.594, 215.633
1247.810, 215.024
1249.025, 32.368
1250.240, 279.591
1251.455, 236.787
1252.670, 105.270
1253.885, 99.288
1255.099, 145.906
1256.313, 10.201
1257.527, 81.811
1258.741, 219.655
1259.955, 197.705
1261.168, 93.086
1262.382, 90.702
1263.595, 69.996
1264.808, 233.089
1266.021, 98.843
1267.233, 118.390
1268.446, 197.575
1269.658, 76.658
1270.870, 32.613
1272.082, 230.463
1273.294, 97.215
1274.505, 133.767
1275.716, 189.789
1276.928, 205.632
1278.139, 129.492
1279.349, 202.787
1280.560, 223.805
1281.770, 115.883
1282.981, 178.068
1284.191, 95.064
1285.401, 166.805
1286.610, 62.885
1287.820, 16.877
1289.029, 194.357
1290.239, 6.855
1291.448, 153.074
1292.656, 56.959
1293.865, 12.273
1295.073, 231.080
1296.282, 42.912
1297.490, 92.287
1298.698, 167.410
1299.906, 95.348
1301.113, 13.596
1302.320, 49.365
1303.528, 5.275
1304.735, 29.018
1305.942, 100.781
1307.148, 102.559
1308.355, 101.324
1309.561, 16.469
1310.767, 126.625
1311.973, 47.580
1313.179, 115.117
1314.384, 180.146
1315.590, 141.438
1316.795, 89.354
1318.000, 33.852
1319.205, 89.375
1320.410, 82.732
1321.614, 118.611
1322.819, 164.258
1324.023, 145.707
1325.227, 216.092
1326.431, 130.168
1327.634, 54.078
1328.838, 23.479
1330.041, 50.465
1331.244, 67.221
1332.447, 70.916
1333.650, 179.908
1334.852, 3.936
1336.055, 72.555
1337.257, 103.689
1338.459, 3.709
1339.661, 66.896
1340.862, 133.387
1342.064, 88.229
1343.265, 3.512
1344.466, 41.646
1345.667, 187.361
1346.868, 130.076
1348.068, 246.955
1349.269, 116.824
1350.469, 117.795
1351.669, 292.545
1352.869, 210.121
1354.069, 262.203
1355.268, 159.574
1356.468, 133.977
1357.667, 378.008
1358.866, 198.031
1360.065, 328.240
1361.263, 380.936
1362.462, 189.297
1363.660, 270.691
1364.858, 329.875
1366.056, 333.896
1367.254, 364.336
1368.451, 337.168
1369.649, 362.793
1370.846, 286.045
1372.043, 280.930
1373.240, 215.111
1374.436, 264.324
1375.633, 339.889
1376.829, 287.674
1378.025, 206.334
1379.221, 211.139
1380.417, 337.682
1381.613, 209.502
1382.808, 304.211
1384.003, 232.768
1385.199, 291.229
1386.393, 202.400
1387.588, 246.998
1388.783, 181.691
1389.977, 345.369
1391.171, 298.910
1392.365, 226.463
1393.559, 305.926
1394.753, 269.273
1395.946, 270.344
1397.140, 253.354
1398.333, 647.332
1399.526, 577.254
1400.719, 554.439
1401.911, 350.998
1403.104, 397.078
1404.296, 308.203
1405.488, 367.705
1406.680, 314.977
1407.872, 183.064
1409.063, 239.061
1410.255, 280.471
1411.446, 249.836
1412.637, 283.953
1413.828, 243.982
1415.018, 262.020
1416.209, 201.383
1417.399, 245.771
1418.589, 225.785
1419.779, 326.096
1420.969, 279.648
1422.159, 239.957
1423.348, 138.396
1424.537, 366.217
1425.726, 335.057
1426.915, 253.250
1428.104, 164.988
1429.293, 221.963
1430.481, 137.643
1431.669, 91.666
1432.857, 149.143
1434.045, 236.016
1435.233, 221.246
1436.420, 323.283
1437.608, 305.674
1438.795, 221.164
1439.982, 294.023
1441.169, 238.668
1442.355, 358.832
1443.542, 310.205
1444.728, 352.508
1445.914, 265.449
1447.100, 322.662
1448.286, 583.676
1449.472, 465.836
1450.657, 125.135
1451.842, 433.115
1453.027, 334.646
1454.212, 308.461
1455.397, 328.426
1456.581, 322.695
1457.766, 366.125
1458.950, 512.354
1460.134, 288.645
1461.318, 388.760
1462.501, 54.809
1463.685, 272.891
1464.868, 423.787
1466.051, 152.865
1467.234, 336.252
1468.417, 181.814
1469.600, 119.734
1470.782, 209.631
1471.965, 406.852
1473.147, 20.748
1474.329, 345.662
1475.510, 335.938
1476.692, 247.680
1477.873, 74.463
1479.055, 284.260
1480.236, 112.059
1481.416, 431.834
1482.597, 232.580
1483.778, 427.334
1484.958, 203.137
1486.138, 265.006
1487.318, 152.994
1488.498, 130.486
1489.678, 140.342
1490.857, 178.146
1492.037, 224.793
1493.216, 365.672
1494.395, 326.762
1495.574, 173.082
1496.752, 280.619
1497.931, 126.447
1499.109, 428.506
1500.287, 8.170
1501.465, 189.477
1502.643, 46.492
1503.820, 133.979
1504.998, 191.984
1506.175, 294.586
1507.352, 284.832
1508.529, 231.945
1509.706, 206.119
