##NAMES=Sphalerite
##RRUFFID=R050140
##IDEAL CHEMISTRY=Zn^2+^S^2-^
##LOCALITY=Big Four mine, Summit County, Colorado, USA
##OWNER=RRUFF
##SOURCE=Dave Bunk Minerals
##DESCRIPTION=Group of dark green tetrahedra
##STATUS=The identification of this mineral has been confirmed by X-ray diffraction and chemical analysis
##URL=rruff.info/R050140
##MEASURED CHEMISTRY=Zn_1.00_S_1.00_
##PIN_ID=L00183
##ORIENTATION=Laser parallel to -a* (-1 0 0). Fiducial mark perpendicular to laser is parallel to b [0 1 0]
49.365, 0.000
50.765, 8.815
52.166, 41.290
53.566, 125.088
54.966, 194.057
56.365, 275.575
57.765, 361.526
59.164, 523.406
60.563, 588.246
61.962, 712.788
63.360, 791.411
64.758, 825.480
66.157, 825.429
67.554, 733.098
68.952, 671.225
70.349, 638.163
71.747, 615.366
73.144, 592.102
74.540, 593.985
75.937, 519.324
77.333, 525.492
78.729, 489.630
80.125, 416.808
81.521, 334.254
82.916, 241.787
84.311, 201.831
85.706, 146.159
87.101, 149.583
88.496, 77.096
89.890, 48.689
91.284, 5.642
92.678, 16.897
94.071, 22.072
95.465, 2.164
96.858, 34.176
98.251, 3.111
99.644, 13.977
101.036, 12.780
102.428, 4.474
103.820, 14.203
105.212, 33.792
106.604, 4.763
107.995, 23.464
109.387, 30.271
110.777, 54.091
112.168, 73.904
113.559, 138.712
114.949, 160.518
116.339, 206.324
117.729, 174.135
119.119, 210.951
120.508, 212.776
121.897, 249.609
123.286, 273.312
124.675, 318.300
126.063, 335.158
127.452, 356.026
128.840, 399.902
130.228, 432.786
131.615, 486.149
133.003, 544.901
134.390, 616.632
135.777, 695.757
137.164, 792.969
138.550, 911.255
139.937, 1025.602
141.323, 1145.999
142.709, 1313.433
144.094, 1279.894
145.480, 1377.366
146.865, 1339.838
148.250, 1420.305
149.635, 1431.764
151.019, 1504.209
152.403, 1490.633
153.788, 1495.010
155.171, 1542.517
156.555, 1525.223
157.939, 1595.141
159.322, 1559.303
160.705, 1599.869
162.088, 1713.046
163.470, 1670.288
164.853, 1715.667
166.235, 1811.918
167.617, 1873.432
168.998, 1885.952
170.380, 2001.231
171.761, 2092.999
173.142, 2121.781
174.523, 2297.575
175.904, 2375.384
177.284, 2522.205
178.664, 2593.052
180.044, 2697.934
181.424, 2610.846
182.803, 2390.798
184.183, 2297.801
185.562, 2074.836
186.940, 1972.884
188.319, 1913.947
189.698, 1788.029
191.076, 1773.123
192.454, 1717.226
193.831, 1741.338
195.209, 1619.458
196.586, 1621.587
197.963, 1601.722
199.340, 1575.863
200.717, 1596.010
202.093, 1551.160
203.470, 1581.313
204.846, 1570.470
206.221, 1661.629
207.597, 1721.791
208.972, 1813.956
210.347, 2018.124
211.722, 2159.295
213.097, 2438.472
214.472, 2648.659
215.846, 2979.796
217.220, 3255.030
218.594, 3425.239
219.967, 3491.373
221.341, 3221.407
222.714, 3076.317
224.087, 2695.094
225.460, 2528.740
226.832, 2262.234
228.204, 2043.561
229.577, 1944.722
230.948, 1788.731
232.320, 1725.604
233.692, 1685.338
235.063, 1675.930
236.434, 1731.311
237.805, 1628.412
239.175, 1552.277
240.545, 1335.972
241.916, 1117.534
243.286, 906.921
244.655, 693.247
246.025, 540.537
247.394, 410.815
248.763, 346.966
250.132, 313.969
251.501, 258.763
252.869, 240.593
254.237, 202.400
255.605, 159.007
256.973, 147.502
258.340, 113.366
259.708, 97.980
261.075, 85.915
262.442, 68.908
263.808, 46.917
265.175, 50.308
266.541, 23.835
267.907, 12.456
269.273, 36.010
270.639, 14.610
272.004, 7.842
273.369, 19.689
274.734, 2.568
276.099, 38.910
277.463, 27.213
278.828, 5.179
280.192, 29.046
281.556, 7.282
282.919, 24.516
284.283, 16.156
285.646, 14.207
287.009, 37.570
288.372, 37.934
289.734, 53.300
291.097, 143.667
292.459, 122.036
293.821, 206.406
295.183, 218.779
296.544, 352.153
297.905, 484.528
299.266, 545.905
300.627, 637.283
301.988, 619.661
303.348, 654.206
304.709, 598.813
306.069, 531.127
307.428, 536.155
308.788, 463.038
310.147, 442.250
311.507, 437.843
312.865, 377.319
314.224, 418.497
315.583, 325.062
316.941, 269.200
318.299, 220.661
319.657, 226.303
321.015, 203.905
322.372, 211.513
323.729, 302.425
325.086, 305.963
326.443, 436.243
327.800, 504.013
329.156, 702.584
330.512, 868.104
331.868, 1048.621
333.224, 1252.423
334.579, 1488.714
335.935, 1683.234
337.290, 1858.782
338.645, 2124.288
339.999, 2507.797
341.354, 3096.365
342.708, 4464.741
344.062, 6483.187
345.416, 10734.594
346.769, 18027.035
348.123, 28899.439
349.476, 43161.812
350.829, 51804.090
352.182, 52596.363
353.534, 39418.652
354.887, 25000.934
356.239, 16433.215
357.591, 10825.490
358.942, 8105.766
360.294, 6170.040
361.645, 4992.313
362.996, 4388.583
364.347, 3852.853
365.698, 3597.121
367.048, 3177.387
368.398, 3070.651
369.748, 2947.948
371.098, 2771.361
372.448, 2759.803
373.797, 2582.291
375.146, 2598.316
376.495, 2465.800
377.844, 2443.141
379.192, 2375.570
380.540, 2339.143
381.889, 2372.052
383.236, 2314.047
384.584, 2296.565
385.932, 2303.921
387.279, 2298.807
388.626, 2332.345
389.973, 2335.768
391.319, 2371.636
392.666, 2371.768
394.012, 2417.131
395.358, 2452.449
396.704, 2421.752
398.049, 2431.167
399.394, 2385.281
400.740, 2358.491
402.084, 2243.677
403.429, 2136.903
404.774, 2065.067
406.118, 1856.267
407.462, 1807.361
408.806, 1674.430
410.150, 1669.484
411.493, 1684.513
412.836, 1587.518
414.179, 1683.521
415.522, 1672.521
416.865, 1760.522
418.207, 1892.525
419.549, 1972.535
420.891, 2096.510
422.233, 2024.447
423.575, 2063.349
424.916, 1955.209
426.257, 1923.992
427.598, 1884.809
428.939, 1777.533
430.279, 1766.218
431.619, 1611.020
432.959, 1470.324
434.299, 1394.852
435.639, 1226.976
436.978, 1212.682
438.318, 1102.844
439.657, 1097.649
440.996, 1096.252
442.334, 1033.972
443.673, 1075.699
445.011, 1088.631
446.349, 1111.910
447.687, 1162.662
449.024, 1159.511
450.361, 1219.358
451.699, 1105.266
453.036, 1160.327
454.372, 986.383
455.709, 811.434
457.045, 567.482
458.381, 361.525
459.717, 261.563
461.053, 131.597
462.388, 83.625
463.724, 36.648
465.059, 21.664
466.394, 26.327
467.728, 5.341
469.063, 2.366
470.397, 8.401
471.731, 14.450
473.065, 12.516
474.398, 23.596
475.732, 29.698
477.065, 22.823
478.398, 11.970
479.731, 9.868
481.063, 18.697
482.396, 16.519
483.728, 2.667
485.060, 30.137
486.391, 9.067
487.723, 0.286
489.054, 13.485
490.385, 23.251
491.716, 21.010
493.047, 9.761
494.377, 16.504
495.708, 19.239
497.038, 12.967
498.368, 22.686
499.697, 22.399
501.027, 8.104
502.356, 53.801
503.685, 37.491
505.014, 47.175
506.342, 36.851
507.671, 47.520
508.999, 55.182
510.327, 78.838
511.655, 86.487
512.982, 87.131
514.310, 98.770
515.637, 124.402
516.964, 166.028
518.291, 158.647
519.617, 149.261
520.944, 166.869
522.270, 149.472
523.596, 120.068
524.921, 140.657
526.247, 80.242
527.572, 74.821
528.897, 66.393
530.222, 37.961
531.547, 30.523
532.871, 19.079
534.196, 3.372
535.520, 19.164
536.844, 8.307
538.167, 25.795
539.491, 12.308
540.814, 17.839
542.137, 19.390
543.460, 11.964
544.783, 9.557
546.105, 18.167
547.427, 12.798
548.749, 9.448
550.071, 4.116
551.393, 6.795
552.714, 8.510
554.035, 15.806
555.356, 17.094
556.677, 12.374
557.998, 33.645
559.318, 32.910
560.638, 37.167
561.958, 26.417
563.278, 39.662
564.597, 29.900
565.917, 54.130
567.236, 59.354
568.555, 61.570
569.874, 66.779
571.192, 79.982
572.511, 101.179
573.829, 93.384
575.147, 101.596
576.464, 79.829
577.782, 120.070
579.099, 106.310
580.416, 142.532
581.733, 152.696
583.050, 156.934
584.366, 167.127
585.683, 182.403
586.999, 194.558
588.315, 186.785
589.630, 207.958
590.946, 220.198
592.261, 259.357
593.576, 261.597
594.891, 276.744
596.206, 329.395
597.520, 327.613
598.834, 349.827
600.148, 404.051
601.462, 429.213
602.776, 513.686
604.089, 586.841
605.402, 659.048
606.715, 737.255
608.028, 753.399
609.341, 854.510
610.653, 842.670
611.965, 865.830
613.277, 904.023
614.589, 988.411
615.901, 1008.724
617.212, 962.796
618.523, 952.921
619.834, 885.937
621.145, 697.989
622.456, 542.918
623.766, 432.709
625.076, 364.767
626.386, 300.184
627.696, 279.753
629.006, 294.932
630.315, 286.742
631.624, 336.692
632.933, 362.170
634.242, 441.001
635.551, 524.317
636.859, 590.196
638.167, 724.883
639.475, 732.637
640.783, 753.349
642.090, 730.776
643.398, 657.495
644.705, 574.505
646.012, 463.018
647.318, 375.206
648.625, 269.878
649.931, 218.558
651.237, 234.179
652.543, 216.816
653.849, 273.477
655.155, 322.126
656.460, 376.808
657.765, 467.491
659.070, 524.130
660.375, 662.928
661.679, 803.638
662.984, 927.322
664.288, 1220.014
665.592, 1445.710
666.895, 1751.435
668.199, 2003.381
669.502, 2192.178
670.805, 2217.302
672.108, 2168.834
673.411, 2031.614
674.713, 1816.411
676.016, 1504.196
677.318, 1435.182
678.620, 1264.919
679.921, 1222.695
681.223, 1172.405
682.524, 1077.592
683.825, 1084.271
685.126, 1004.017
686.427, 987.207
687.727, 959.326
689.028, 925.055
690.328, 897.036
691.628, 832.921
692.927, 816.761
694.227, 782.398
695.526, 720.873
696.825, 694.347
698.124, 570.412
699.423, 497.268
700.721, 395.594
702.020, 326.964
703.318, 279.855
704.616, 212.066
705.913, 175.503
707.211, 155.755
708.508, 131.297
709.805, 124.652
711.102, 96.016
712.399, 80.368
713.695, 92.612
714.992, 78.375
716.288, 84.694
717.584, 87.067
718.879, 74.287
720.175, 59.697
721.470, 49.024
722.765, 49.430
724.060, 50.849
725.355, 47.352
726.649, 45.089
727.944, 41.478
729.238, 35.810
730.532, 32.246
731.825, 25.663
733.119, 22.073
734.412, 20.530
735.705, 22.977
736.998, 35.393
738.291, 15.863
739.584, 25.242
740.876, 3.634
742.168, 31.070
743.460, 12.454
744.752, 23.861
746.043, 6.209
747.334, 24.573
748.626, 3.919
749.916, 25.247
751.207, 6.393
752.498, 6.962
753.788, 7.299
755.078, 3.657
756.368, 17.990
757.658, 3.677
758.947, 17.627
760.237, 3.896
761.526, 2.165
762.815, 15.421
764.104, 21.671
765.392, 7.919
766.680, 6.156
767.969, 0.389
769.257, 3.375
770.544, 2.160
771.832, 19.045
773.119, 4.245
774.406, 28.438
775.693, 17.626
776.980, 4.807
778.267, 21.005
779.553, 25.175
780.839, 5.349
782.125, 1.545
783.411, 13.711
784.697, 8.875
785.982, 1.039
787.267, 3.796
788.552, 3.366
789.837, 0.469
791.122, 12.698
792.406, 12.867
793.690, 4.028
794.974, 10.190
796.258, 2.367
797.542, 18.514
798.825, 6.693
800.108, 2.833
801.391, 8.030
802.674, 16.096
803.957, 10.242
805.239, 11.380
806.522, 12.485
807.804, 7.994
809.085, 2.797
810.367, 2.907
811.649, 1.029
812.930, 0.117
814.211, 1.199
815.492, 4.276
816.772, 18.347
818.053, 4.448
819.333, 12.510
820.613, 11.600
821.893, 1.295
823.173, 10.749
824.452, 0.160
825.732, 9.872
827.011, 9.898
828.290, 3.919
829.568, 4.986
830.847, 3.005
832.125, 13.037
833.403, 2.067
834.681, 16.057
835.959, 6.957
837.236, 20.050
838.514, 2.021
839.791, 8.007
841.068, 8.889
842.345, 2.886
843.621, 8.142
844.898, 15.009
846.174, 6.023
847.450, 0.057
848.726, 6.916
850.001, 2.151
851.277, 1.226
852.552, 3.701
853.827, 0.631
855.102, 23.561
856.376, 6.518
857.651, 8.506
858.925, 2.441
860.199, 7.506
861.473, 15.430
862.746, 1.360
864.020, 5.325
865.293, 8.247
866.566, 29.166
867.839, 4.914
869.112, 32.995
870.384, 17.959
871.656, 13.139
872.928, 8.793
874.200, 17.682
875.472, 21.563
876.744, 22.441
878.015, 3.383
879.286, 20.251
880.557, 3.138
881.828, 15.998
883.098, 23.840
884.369, 35.661
885.639, 31.076
886.909, 14.225
888.178, 14.991
889.448, 20.791
890.717, 6.637
891.987, 32.401
893.256, 22.181
894.524, 9.855
895.793, 20.641
897.061, 13.623
898.330, 44.115
899.598, 20.834
900.865, 23.608
902.133, 36.291
903.401, 17.031
904.668, 15.283
905.935, 17.958
907.202, 11.174
908.468, 15.604
909.735, 14.012
911.001, 18.441
912.267, 26.125
913.533, 23.769
914.799, 29.439
916.064, 32.105
917.330, 23.855
918.595, 25.483
919.860, 24.100
921.124, 21.684
922.389, 27.049
923.653, 27.478
924.918, 41.138
926.182, 33.733
927.445, 34.426
928.709, 32.072
929.972, 18.718
931.236, 29.372
932.499, 34.057
933.761, 17.655
935.024, 35.218
936.286, 25.838
937.549, 36.500
938.811, 23.120
940.073, 39.447
941.334, 51.030
942.596, 31.560
943.857, 22.157
945.118, 24.754
946.379, 21.331
947.640, 16.917
948.900, 26.470
950.161, 14.077
951.421, 28.625
952.681, 28.154
953.940, 30.185
955.200, 16.777
956.459, 17.332
957.719, 14.884
958.978, 13.481
960.236, 16.000
961.495, 19.527
962.753, 15.031
964.012, 22.523
965.270, 28.993
966.527, 26.501
967.785, 28.391
969.043, 13.592
970.300, 23.084
971.557, 13.635
972.814, 9.152
974.071, 28.522
975.327, 9.030
976.583, 32.456
977.840, 29.955
979.095, 26.451
980.351, 8.920
981.607, 24.390
982.862, 11.650
984.117, 13.163
985.372, 31.617
986.627, 27.135
987.882, 13.264
989.136, 31.829
990.390, 19.285
991.644, 1.756
992.898, 6.137
994.152, 16.378
995.405, 16.313
996.659, 9.819
997.912, 7.889
999.165, 6.568
1000.417, 17.051
1001.670, 19.425
1002.922, 22.834
1004.174, 19.290
1005.426, 31.739
1006.678, 12.284
1007.930, 5.768
1009.181, 26.250
1010.432, 18.332
1011.683, 16.631
1012.934, 28.117
1014.185, 8.576
1015.435, 35.008
1016.685, 20.867
1017.935, 17.358
1019.185, 36.431
1020.435, 4.068
1021.684, 24.511
1022.934, 7.050
1024.183, 16.445
1025.432, 17.914
1026.680, 19.370
1027.929, 0.880
1029.177, 18.261
1030.425, 11.719
1031.673, 30.078
1032.921, 16.506
1034.169, 21.947
1035.416, 33.452
1036.663, 28.176
1037.911, 16.958
1039.157, 10.363
1040.404, 10.891
1041.650, 10.224
1042.897, 14.685
1044.143, 18.099
1045.389, 20.459
1046.634, 11.862
1047.880, 27.233
1049.125, 5.656
1050.371, 10.055
1051.615, 10.479
1052.860, 18.036
1054.105, 11.413
1055.349, 12.793
1056.593, 16.248
1057.837, 11.634
1059.081, 7.054
1060.325, 3.465
1061.568, 36.869
1062.812, 12.340
1064.055, 3.770
1065.298, 29.244
1066.540, 2.690
1067.783, 27.078
1069.025, 24.468
1070.267, 14.903
1071.509, 20.277
1072.751, 18.688
1073.993, 22.128
1075.234, 17.512
1076.475, 18.967
1077.716, 18.484
1078.957, 3.779
1080.198, 18.145
1081.438, 13.539
1082.679, 13.939
1083.919, 30.327
1085.159, 15.763
1086.398, 0.160
1087.638, 1.532
1088.877, 13.934
1090.116, 11.357
1091.355, 7.741
1092.594, 16.172
1093.833, 15.584
1095.071, 11.077
1096.309, 14.473
1097.547, 13.789
1098.785, 16.184
1100.023, 19.530
1101.260, 23.864
1102.498, 22.884
1103.735, 14.623
1104.972, 16.929
1106.208, 22.240
1107.445, 10.534
1108.681, 22.838
1109.918, 13.147
1111.154, 35.459
1112.389, 20.776
1113.625, 17.096
1114.860, 13.435
1116.096, 9.743
1117.331, 17.074
1118.566, 22.342
1119.800, 11.647
1121.035, 22.999
1122.269, 42.309
1123.503, 33.646
1124.737, 33.967
1125.971, 27.318
1127.205, 27.553
1128.438, 28.066
1129.671, 24.353
1130.904, 25.674
1132.137, 14.975
1133.370, 17.259
1134.602, 15.538
1135.834, 1.174
1137.066, 7.065
1138.298, 14.333
1139.530, 16.623
1140.762, 18.885
1141.993, 19.027
1143.224, 19.884
1144.455, 13.190
1145.686, 15.745
1146.917, 4.294
1148.147, 8.941
1149.377, 0.705
1150.607, 0.157
1151.837, 11.229
1153.067, 10.302
1154.296, 11.007
1155.526, 8.698
1156.755, 10.407
1157.984, 19.184
1159.213, 8.322
1160.441, 10.671
1161.670, 1.897
1162.898, 12.082
1164.126, 6.375
1165.354, 19.867
1166.581, 15.375
1167.809, 1.415
1169.036, 19.738
1170.263, 24.941
1171.490, 22.122
1172.717, 11.353
1173.943, 19.386
1175.170, 6.653
1176.396, 17.860
1177.622, 16.190
1178.848, 24.354
1180.073, 17.546
1181.299, 26.768
1182.524, 8.945
1183.749, 2.840
1184.974, 4.641
1186.199, 19.519
1187.423, 1.652
1188.648, 20.779
1189.872, 15.937
1191.096, 25.074
1192.320, 22.219
1193.543, 22.418
1194.767, 26.107
1195.990, 40.725
1197.213, 21.882
1198.436, 18.002
1199.659, 0.207
1200.881, 25.984
1202.104, 21.078
1203.326, 5.187
1204.548, 14.326
1205.770, 10.787
1206.991, 10.953
1208.213, 17.061
1209.434, 7.230
1210.655, 15.364
1211.876, 5.421
1213.096, 11.546
1214.317, 26.595
1215.537, 30.678
1216.757, 11.806
1217.977, 33.868
1219.197, 18.657
1220.417, 11.724
1221.636, 25.889
1222.855, 6.991
1224.074, 32.046
1225.293, 11.098
1226.512, 21.189
1227.731, 19.245
1228.949, 17.299
1230.167, 13.406
1231.385, 7.440
1232.603, 16.578
1233.820, 21.540
1235.038, 13.498
1236.255, 8.532
1237.472, 17.523
1238.689, 5.552
1239.906, 8.602
1241.122, 0.602
1242.338, 10.579
1243.555, 24.624
1244.771, 11.607
1245.986, 13.700
1247.202, 42.759
1248.417, 18.751
1249.633, 8.765
1250.848, 27.738
1252.063, 23.717
1253.277, 27.773
1254.492, 20.720
1255.706, 21.540
1256.920, 23.708
1258.134, 17.676
1259.348, 23.675
1260.562, 18.665
1261.775, 28.617
1262.988, 19.576
1264.201, 34.522
1265.414, 24.496
1266.627, 4.412
1267.839, 9.347
1269.052, 15.274
1270.264, 5.963
1271.476, 10.696
1272.688, 2.073
1273.899, 10.985
1275.111, 11.891
1276.322, 16.028
1277.533, 10.928
1278.744, 15.806
1279.955, 24.690
1281.165, 21.563
1282.376, 29.381
1283.586, 26.212
1284.796, 18.070
1286.006, 7.935
1287.215, 20.805
1288.425, 6.329
1289.634, 12.532
1290.843, 27.360
1292.052, 6.195
1293.261, 17.755
1294.469, 2.552
1295.678, 1.403
1296.886, 1.340
1298.094, 9.869
1299.302, 4.063
1300.509, 4.295
1301.717, 11.465
1302.924, 22.220
1304.131, 19.007
1305.338, 1.973
1306.545, 27.760
1307.752, 37.471
1308.958, 1.778
1310.164, 18.549
1311.370, 1.616
1312.576, 27.220
1313.782, 23.832
1314.987, 38.590
1316.193, 20.349
1317.398, 17.104
1318.603, 10.185
1319.807, 7.549
1321.012, 5.225
1322.216, 0.943
1323.421, 24.650
1324.625, 22.377
1325.829, 14.091
1327.032, 24.811
1328.236, 14.474
1329.439, 16.909
1330.642, 30.226
1331.845, 22.918
1333.048, 29.531
1334.251, 15.221
1335.453, 30.887
1336.656, 28.576
1337.858, 10.262
1339.060, 22.940
1340.261, 11.614
1341.463, 6.285
1342.664, 18.969
1343.866, 8.390
1345.067, 7.124
1346.267, 29.773
1347.468, 20.409
1348.669, 15.975
1349.869, 3.425
1351.069, 2.155
1352.269, 7.732
1353.469, 6.331
1354.668, 8.886
1355.868, 17.471
1357.067, 14.011
1358.266, 16.575
1359.465, 22.185
1360.664, 10.794
1361.862, 37.349
1363.061, 9.048
1364.259, 29.526
1365.457, 2.070
1366.655, 12.665
1367.852, 36.186
1369.050, 27.779
1370.247, 2.316
1371.444, 19.896
1372.641, 15.469
1373.838, 4.036
1375.035, 26.589
1376.231, 1.385
1377.427, 20.963
1378.623, 26.482
1379.819, 15.892
1381.015, 30.590
1382.211, 9.233
1383.406, 11.809
1384.601, 47.532
1385.796, 37.260
1386.991, 8.933
1388.185, 25.694
1389.380, 2.437
1390.574, 7.173
1391.768, 33.886
1392.962, 16.605
1394.156, 31.324
1395.350, 23.963
1396.543, 5.576
1397.736, 41.145
1398.929, 7.669
1400.122, 27.276
1401.315, 39.869
1402.507, 14.554
1403.700, 15.261
1404.892, 19.837
1406.084, 12.768
1407.276, 27.388
1408.467, 15.932
1409.659, 29.098
1410.850, 31.534
1412.041, 42.974
1413.232, 38.521
1414.423, 25.957
1415.614, 10.587
1416.804, 52.743
1417.994, 42.955
1419.184, 2.436
1420.374, 50.104
1421.564, 28.430
1422.753, 21.699
1423.943, 24.269
1425.132, 6.785
1426.321, 29.254
1427.510, 22.828
1428.698, 33.352
1429.887, 28.928
1431.075, 21.407
1432.263, 37.781
1433.451, 19.201
1434.639, 45.637
1435.827, 16.110
1437.014, 18.850
1438.201, 4.850
1439.388, 16.533
1440.575, 28.942
1441.762, 9.365
1442.949, 20.588
1444.135, 12.894
1445.321, 20.304
1446.507, 53.602
1447.693, 3.997
1448.879, 6.315
1450.064, 42.542
1451.250, 33.944
1452.435, 32.282
1453.620, 0.633
1454.805, 1.055
1455.989, 30.143
1457.174, 34.406
1458.358, 25.739
1459.542, 37.945
1460.726, 26.167
1461.910, 35.522
1463.093, 37.709
1464.277, 22.920
1465.460, 19.184
1466.643, 30.522
1467.826, 10.889
1469.009, 13.145
1470.191, 12.506
1471.373, 36.207
1472.556, 29.571
1473.738, 29.790
1474.919, 26.137
1476.101, 22.473
1477.283, 15.801
1478.464, 27.152
1479.645, 29.497
1480.826, 44.785
1482.007, 11.014
1483.187, 31.343
1484.368, 6.702
1485.548, 27.066
1486.728, 17.396
1487.908, 21.464
1489.088, 13.401
1490.268, 17.711
1491.447, 38.026
1492.626, 36.344
1493.805, 38.669
1494.984, 29.946
1496.163, 40.260
1497.341, 36.309
1498.520, 23.967
1499.698, 42.324
1500.876, 36.680
1502.054, 52.101
1503.232, 17.395
1504.409, 26.905
1505.586, 38.474
1506.763, 29.095
1507.940, 37.182
1509.117, 44.497
1510.294, 29.304
1511.470, 45.207
1512.647, 23.237
1513.823, 22.417
1514.999, 46.770
1516.174, 42.349
1517.350, 0.772
1518.526, 46.512
1519.701, 18.370
1520.876, 0.000
##END=



