##NAMES=Sphalerite
##RRUFFID=R050237
##IDEAL CHEMISTRY=Zn^2+^S^2-^
##LOCALITY=Picos de Europa, Spain
##OWNER=RRUFF
##SOURCE=Marcus Origlieri
##DESCRIPTION=Green single crystal
##STATUS=The identification of this mineral has been confirmed by X-ray diffraction and chemical analysis
##URL=rruff.info/R050237
##MEASURED CHEMISTRY=Zn_1.00_S_1.00_
##PIN_ID=L00430
##ORIENTATION=Laser parallel to a* (1 0 0). Fiducial mark perpendicular to laser is parallel to b [0 1 0]
93.375, 0.000
94.768, 169.444
96.161, 275.076
97.554, 195.430
98.947, 412.213
100.340, 243.988
101.732, 13.752
103.124, 52.746
104.516, 94.776
105.908, 296.551
107.300, 528.175
108.691, 179.145
110.082, 152.658
111.473, 106.042
112.864, 197.720
114.254, 650.314
115.644, 2033.592
117.034, 3192.053
118.424, 2904.250
119.813, 2466.811
121.203, 2175.418
122.592, 2065.844
123.981, 1648.896
125.369, 1653.403
126.758, 1866.210
128.146, 2297.173
129.534, 2687.154
130.922, 3599.034
132.309, 4110.702
133.696, 4694.431
135.083, 5794.609
136.470, 7206.527
137.857, 8741.531
139.243, 10327.533
140.630, 10837.457
142.016, 11216.261
143.401, 11155.896
144.787, 11728.328
146.172, 12001.526
147.557, 12369.508
148.942, 12319.329
150.327, 12574.075
151.711, 12989.753
153.096, 13190.310
154.480, 13525.718
155.863, 13734.940
157.247, 14014.938
158.630, 14255.676
160.013, 14607.111
161.396, 15048.208
162.779, 15460.704
164.161, 16047.266
165.544, 16495.180
166.926, 17212.645
168.308, 17864.674
169.689, 18875.223
171.070, 19782.299
172.452, 21109.627
173.833, 22368.156
175.213, 23757.436
176.594, 25378.549
177.974, 25255.498
179.354, 24885.072
180.734, 23027.639
182.114, 21016.125
183.493, 19375.695
184.872, 18375.410
186.251, 17300.285
187.630, 16588.342
189.008, 16085.603
190.387, 15690.077
191.765, 15587.773
193.143, 15198.699
194.520, 14877.864
195.898, 14411.269
197.275, 14015.915
198.652, 13860.930
200.029, 13991.892
201.405, 13809.987
202.782, 14197.225
204.158, 14488.395
205.534, 15423.495
206.909, 16923.609
208.285, 18238.080
209.660, 20098.152
211.035, 22716.654
212.410, 25404.457
213.784, 29022.508
215.159, 31966.746
216.533, 33671.137
217.907, 33943.664
219.281, 31953.275
220.654, 29059.980
222.027, 25884.746
223.400, 23095.580
224.773, 20681.463
226.146, 18710.416
227.518, 17026.422
228.891, 15980.488
230.263, 15323.611
231.634, 15226.792
233.006, 15378.027
234.377, 15252.349
235.748, 15098.774
237.119, 13822.345
238.490, 11766.129
239.860, 9237.194
241.231, 6500.502
242.601, 4446.975
243.970, 3153.582
245.340, 2155.269
246.709, 1373.014
248.079, 653.798
249.448, 466.615
250.816, 39.545
252.185, 196.693
253.553, 314.838
254.921, 461.992
256.289, 305.210
257.657, 460.580
259.024, 230.460
260.391, 16.680
261.758, 461.722
263.125, 910.573
264.492, 1679.297
265.858, 2612.807
267.224, 4131.994
268.590, 6217.875
269.956, 8180.511
271.321, 10436.590
272.687, 11604.193
274.052, 11409.283
275.416, 10270.833
276.781, 9006.810
278.146, 7471.186
279.510, 6087.938
280.874, 5071.043
282.237, 4329.480
283.601, 3701.229
284.964, 3214.277
286.327, 2870.605
287.690, 2798.199
289.053, 2850.047
290.416, 3036.136
291.778, 3426.453
293.140, 3845.992
294.502, 4888.738
295.863, 5681.684
297.225, 7039.816
298.586, 7682.133
299.947, 7493.179
301.308, 6923.792
302.668, 5498.919
304.029, 4465.223
305.389, 4150.781
306.749, 3266.245
308.108, 3147.951
309.468, 2460.264
310.827, 2178.824
312.186, 2076.736
313.545, 1456.632
314.903, 838.354
316.262, 363.056
317.620, 4.548
318.978, 80.782
320.336, 124.829
321.693, 605.732
323.051, 1219.919
324.408, 2168.015
325.765, 2950.839
327.121, 4026.393
328.478, 4846.967
329.834, 5810.359
331.190, 6902.338
332.546, 7756.809
333.902, 7952.080
335.257, 8152.893
336.612, 8472.936
337.967, 8971.977
339.322, 10105.886
340.677, 11929.028
342.031, 14896.943
343.385, 18297.529
344.739, 23073.744
346.093, 29257.209
347.446, 39409.758
348.799, 49914.332
350.153, 49219.926
351.505, 37563.547
352.858, 25977.182
354.210, 18533.824
355.563, 14713.488
356.915, 12583.164
358.267, 12001.854
359.618, 11273.553
360.969, 11304.258
362.321, 11781.972
363.672, 12209.688
365.022, 12867.398
366.373, 13439.098
367.723, 13689.783
369.073, 14268.663
370.423, 14517.026
371.773, 15234.089
373.122, 15883.603
374.471, 16254.039
375.821, 16302.648
377.169, 15773.231
378.518, 16016.301
379.866, 15610.149
381.215, 15924.122
382.563, 15592.553
383.910, 15489.346
385.258, 15887.389
386.605, 16131.915
387.952, 16575.039
389.299, 16932.998
390.646, 17356.098
391.992, 17799.732
393.339, 18254.512
394.685, 18863.549
396.031, 19301.904
397.376, 20107.566
398.722, 19585.201
400.067, 19153.570
401.412, 17485.703
402.757, 16076.628
404.101, 15353.380
405.446, 14130.614
406.790, 13320.859
408.134, 12831.372
409.478, 12445.084
410.821, 12166.199
412.165, 12085.239
413.508, 12475.843
414.851, 13401.077
416.193, 14592.495
417.536, 15721.479
418.878, 16913.957
420.220, 17451.777
421.562, 17319.957
422.904, 16318.353
424.245, 16385.918
425.586, 16258.469
426.927, 15970.008
428.268, 15600.525
429.609, 14707.045
430.949, 13898.553
432.289, 12923.048
433.629, 11917.517
434.969, 10795.947
436.309, 10309.344
437.648, 9643.702
438.987, 9801.016
440.326, 9746.285
441.665, 9848.508
443.003, 10343.687
444.342, 10706.809
445.680, 10832.887
447.018, 10976.902
448.355, 11297.864
449.693, 11160.767
451.030, 11052.607
452.367, 10216.390
453.704, 8583.107
455.041, 6007.755
456.377, 3744.338
457.713, 2268.851
459.049, 1087.292
460.385, 441.662
461.721, 142.953
463.056, 85.848
464.391, 337.839
465.726, 431.866
467.061, 393.853
468.395, 486.912
469.730, 476.383
471.064, 348.253
472.398, 333.468
473.731, 313.026
475.065, 385.918
476.398, 286.160
477.731, 261.727
479.064, 168.789
480.397, 164.309
481.729, 197.696
483.062, 167.362
484.394, 115.298
485.725, 60.474
487.057, 10.136
488.389, 28.870
489.720, 75.834
491.051, 65.955
492.382, 106.940
493.712, 116.782
495.043, 184.500
496.373, 176.088
497.703, 176.553
499.032, 266.888
500.362, 376.104
501.691, 441.206
503.020, 530.195
504.349, 631.509
505.678, 579.859
507.007, 833.530
508.335, 889.129
509.663, 990.645
510.991, 1200.058
512.319, 1325.371
513.646, 1499.582
514.973, 1850.687
516.300, 1865.688
517.627, 2064.588
518.954, 2120.382
520.280, 2053.069
521.607, 1886.647
522.933, 1716.119
524.259, 1499.487
525.584, 1239.754
526.910, 981.913
528.235, 830.963
529.560, 709.899
530.885, 540.723
532.209, 429.421
533.534, 307.991
534.858, 228.426
536.182, 230.712
537.506, 136.851
538.829, 115.817
540.152, 27.612
541.476, 20.196
542.799, 14.567
544.121, 45.715
545.444, 100.659
546.766, 170.418
548.088, 104.009
549.410, 213.411
550.732, 199.534
552.053, 350.733
553.375, 324.673
554.696, 393.771
556.017, 491.129
557.337, 487.655
558.658, 541.049
559.978, 583.311
561.298, 621.445
562.618, 649.453
563.938, 759.332
565.257, 743.092
566.576, 904.736
567.895, 841.260
569.214, 1048.684
570.533, 1053.990
571.851, 1092.182
573.170, 1338.259
574.488, 1355.233
575.805, 1460.115
577.123, 1571.927
578.440, 1593.663
579.758, 1757.553
581.075, 1927.149
582.391, 2011.949
583.708, 2085.646
585.024, 2250.223
586.341, 2341.170
587.657, 2500.851
588.972, 2663.759
590.288, 2835.577
591.603, 3054.034
592.918, 3266.773
594.233, 3534.060
595.548, 3833.387
596.863, 4221.407
598.177, 4501.154
599.491, 4918.178
600.805, 5448.361
602.119, 6081.409
603.432, 6824.050
604.746, 7567.490
606.059, 8419.726
607.372, 9017.231
608.685, 9473.285
609.997, 9976.180
611.309, 10065.224
612.621, 10482.763
613.933, 10869.455
615.245, 11472.611
616.557, 11889.880
617.868, 10790.204
619.179, 9437.867
620.490, 7547.091
621.801, 5820.854
623.111, 4960.412
624.421, 4092.897
625.731, 4028.266
627.041, 3760.351
628.351, 4155.576
629.660, 4260.828
630.970, 4791.295
632.279, 5612.132
633.588, 6485.738
634.896, 7850.437
636.205, 8894.821
637.513, 9997.603
638.821, 10103.242
640.129, 9961.980
641.437, 9546.208
642.744, 8694.020
644.051, 7172.012
645.358, 5666.469
646.665, 4252.303
647.972, 3473.465
649.278, 2842.389
650.584, 2780.132
651.890, 2961.788
653.196, 3591.732
654.502, 4001.712
655.807, 4735.446
657.113, 5470.229
658.418, 6539.467
659.722, 7891.613
661.027, 9277.750
662.331, 11157.288
663.636, 13504.968
664.940, 16404.510
666.244, 19177.404
667.547, 22990.688
668.851, 25448.617
670.154, 26051.387
671.457, 23960.350
672.760, 20762.242
674.062, 18514.820
675.365, 16387.543
676.667, 14963.915
677.969, 14145.035
679.271, 13345.433
680.572, 12776.446
681.874, 12154.097
683.175, 12036.508
684.476, 11712.349
685.777, 11461.138
687.077, 11013.149
688.378, 10714.288
689.678, 10637.903
690.978, 10156.627
692.278, 9676.008
693.577, 9143.260
694.877, 8642.250
696.176, 7569.570
697.475, 6847.873
698.774, 5576.486
700.072, 4561.693
701.371, 3729.345
702.669, 2963.166
703.967, 2392.852
705.265, 2218.098
706.562, 2000.526
707.860, 1672.379
709.157, 1433.580
710.454, 1547.383
711.751, 1321.672
713.047, 1324.611
714.344, 1198.146
715.640, 1349.314
716.936, 1403.561
718.232, 1052.904
719.527, 916.797
720.823, 832.085
722.118, 940.253
723.413, 824.932
724.708, 803.337
726.002, 633.500
727.297, 618.571
728.591, 540.489
729.885, 692.327
731.179, 552.034
732.472, 530.306
733.766, 431.338
735.059, 374.708
736.352, 417.868
737.645, 338.840
738.937, 331.720
740.230, 329.303
741.522, 209.023
742.814, 241.682
744.106, 394.177
745.397, 197.642
746.689, 147.034
747.980, 339.179
749.271, 176.465
750.562, 134.437
751.853, 175.746
753.143, 208.807
754.433, 110.552
755.723, 40.379
757.013, 40.208
758.303, 105.024
759.592, 120.585
760.881, 136.949
762.170, 40.271
763.459, 114.485
764.748, 120.750
766.036, 51.981
767.325, 139.979
768.613, 70.906
769.901, 165.765
771.188, 106.151
772.476, 60.549
773.763, 48.914
775.050, 22.521
776.337, 12.008
777.624, 19.510
778.910, 2.934
780.196, 16.702
781.482, 45.411
782.768, 56.782
784.054, 25.095
785.339, 126.261
786.625, 37.268
787.910, 87.667
789.195, 105.435
790.479, 7.590
791.764, 55.793
793.048, 88.979
794.332, 25.769
795.616, 58.463
796.900, 10.275
798.183, 9.006
799.467, 36.738
800.750, 11.493
802.033, 49.266
803.316, 89.932
804.598, 14.375
805.880, 76.506
807.163, 90.680
808.445, 25.122
809.726, 31.014
811.008, 3.062
812.289, 26.001
813.570, 83.741
814.851, 11.568
816.132, 13.936
817.413, 9.636
818.693, 112.668
819.973, 88.044
821.253, 21.526
822.533, 17.856
823.813, 98.391
825.092, 28.533
826.371, 21.618
827.650, 18.349
828.929, 13.619
830.208, 76.823
831.486, 113.692
832.764, 24.508
834.042, 16.249
835.320, 32.150
836.598, 5.506
837.875, 66.551
839.152, 6.090
840.429, 43.607
841.706, 57.466
842.983, 45.147
844.259, 6.510
845.536, 16.296
846.812, 4.868
848.088, 6.395
849.363, 35.223
850.639, 40.001
851.914, 38.050
853.189, 18.567
854.464, 36.343
855.739, 9.144
857.013, 15.354
858.288, 20.271
859.562, 46.632
860.836, 70.629
862.110, 82.778
863.383, 84.896
864.656, 99.989
865.930, 74.659
867.203, 146.074
868.475, 27.069
869.748, 29.040
871.020, 22.973
872.292, 137.868
873.564, 11.271
874.836, 34.442
876.108, 143.334
877.379, 90.930
878.650, 52.727
879.922, 56.341
881.192, 74.918
882.463, 75.455
883.733, 88.951
885.004, 72.410
886.274, 77.828
887.544, 115.190
888.813, 147.289
890.083, 174.117
891.352, 177.561
892.621, 230.300
893.890, 179.117
895.159, 174.408
896.427, 194.814
897.695, 184.837
898.964, 183.014
900.232, 222.958
901.499, 171.685
902.767, 243.708
904.034, 128.536
905.301, 169.512
906.568, 283.604
907.835, 188.270
909.102, 168.619
910.368, 152.947
911.634, 195.527
912.900, 276.153
914.166, 216.832
915.432, 290.090
916.697, 193.641
917.962, 184.199
919.227, 360.451
920.492, 306.054
921.757, 220.350
923.021, 283.024
924.285, 313.436
925.550, 357.640
926.813, 266.778
928.077, 274.787
929.341, 340.765
930.604, 286.725
931.867, 366.492
933.130, 259.406
934.393, 284.421
935.655, 418.621
936.918, 161.749
938.180, 299.040
939.442, 301.155
940.703, 237.528
941.965, 287.690
943.226, 321.390
944.488, 222.698
945.749, 209.354
947.009, 281.000
948.270, 266.894
949.530, 290.133
950.791, 298.461
952.051, 293.440
953.311, 195.332
954.570, 157.598
955.830, 143.099
957.089, 179.337
958.348, 143.161
959.607, 129.778
960.866, 130.775
962.124, 141.443
963.383, 156.351
964.641, 261.445
965.899, 202.489
967.156, 191.979
968.414, 244.963
969.671, 148.692
970.928, 134.328
972.185, 119.992
973.442, 96.002
974.699, 168.525
975.955, 251.232
977.211, 233.380
978.468, 207.180
979.723, 215.717
980.979, 111.432
982.234, 179.174
983.490, 310.261
984.745, 65.510
986.000, 85.554
987.254, 185.118
988.509, 68.229
989.763, 191.014
991.017, 173.351
992.271, 80.946
993.525, 113.649
994.779, 195.537
996.032, 349.010
997.285, 293.417
998.538, 311.767
999.791, 150.359
1001.044, 331.067
1002.296, 243.842
1003.548, 440.953
1004.800, 318.583
1006.052, 366.937
1007.304, 384.206
1008.555, 311.199
1009.807, 238.655
1011.058, 235.966
1012.309, 324.454
1013.559, 372.997
1014.810, 302.685
1016.060, 334.847
1017.310, 374.037
1018.560, 419.709
1019.810, 231.457
1021.060, 451.066
1022.309, 458.188
1023.558, 222.478
1024.807, 361.362
1026.056, 412.854
1027.305, 472.881
1028.553, 398.942
1029.801, 502.720
1031.049, 395.071
1032.297, 446.048
1033.545, 374.822
1034.793, 399.625
1036.040, 414.436
1037.287, 431.992
1038.534, 478.161
1039.781, 442.640
1041.027, 465.000
1042.274, 292.138
1043.520, 356.138
1044.766, 431.172
1046.012, 276.399
1047.257, 337.450
1048.503, 323.516
1049.748, 446.264
1050.993, 315.953
1052.238, 387.049
1053.483, 353.602
1054.727, 211.128
1055.971, 327.380
1057.216, 429.940
1058.459, 221.346
1059.703, 398.600
1060.947, 257.515
1062.190, 352.220
1063.433, 342.355
1064.676, 324.348
1065.919, 351.118
1067.162, 254.573
1068.404, 370.847
1069.646, 246.135
1070.888, 266.460
1072.130, 321.849
1073.372, 242.633
1074.613, 231.790
1075.855, 306.015
1077.096, 260.573
1078.337, 205.349
1079.578, 286.055
1080.818, 241.167
1082.059, 322.702
1083.299, 301.644
1084.539, 300.662
1085.779, 159.657
1087.018, 233.995
1088.258, 165.580
1089.497, 190.774
1090.736, 212.915
1091.975, 229.579
1093.213, 117.799
1094.452, 90.355
1095.690, 252.994
1096.928, 7.164
1098.166, 241.558
1099.404, 6.295
1100.642, 261.749
1101.879, 133.711
1103.116, 238.664
1104.353, 69.173
1105.590, 35.394
1106.827, 37.557
1108.063, 151.755
1109.299, 69.823
1110.536, 163.062
1111.771, 70.035
1113.007, 45.834
1114.243, 110.051
1115.478, 62.440
1116.713, 154.650
1117.948, 95.811
1119.183, 108.634
1120.418, 2.180
1121.652, 22.440
1122.886, 193.061
1124.120, 160.416
1125.354, 219.559
1126.588, 51.837
1127.821, 162.653
1129.055, 53.229
1130.288, 103.519
1131.521, 53.511
1132.753, 158.687
1133.986, 30.937
1135.218, 30.714
1136.450, 102.723
1137.682, 49.649
1138.914, 90.872
1140.146, 61.479
1141.377, 43.290
1142.609, 2.264
1143.840, 40.811
1145.071, 67.335
1146.301, 14.358
1147.532, 25.004
1148.762, 84.650
1149.992, 5.471
1151.222, 77.708
1152.452, 38.410
1153.682, 30.991
1154.911, 4.641
1156.140, 132.496
1157.369, 37.137
1158.598, 76.542
1159.827, 52.030
1161.055, 61.273
1162.284, 24.610
1163.512, 161.058
1164.740, 124.441
1165.967, 74.490
1167.195, 36.275
1168.422, 205.284
1169.650, 69.991
1170.877, 138.305
1172.103, 32.060
1173.330, 62.636
1174.557, 192.333
1175.783, 158.988
1177.009, 147.289
1178.235, 14.969
1179.461, 111.682
1180.686, 154.204
1181.912, 89.087
1183.137, 192.141
1184.362, 198.073
1185.587, 81.946
1186.811, 32.638
1188.036, 80.335
1189.260, 129.665
1190.484, 208.586
1191.708, 141.662
1192.932, 100.702
1194.155, 158.129
1195.378, 138.209
1196.602, 205.337
1197.825, 252.197
1199.047, 98.545
1200.270, 283.694
1201.492, 184.007
1202.715, 283.918
1203.937, 37.113
1205.159, 250.115
1206.380, 259.000
1207.602, 77.521
1208.823, 162.284
1210.044, 80.025
1211.265, 98.547
1212.486, 152.867
1213.707, 190.249
1214.927, 216.242
1216.147, 242.416
1217.367, 224.294
1218.587, 200.170
1219.807, 96.925
1221.027, 237.589
1222.246, 212.532
1223.465, 410.210
1224.684, 301.354
1225.903, 308.997
1227.121, 202.518
1228.340, 93.025
1229.558, 225.985
1230.776, 198.474
1231.994, 197.477
1233.212, 64.296
1234.429, 275.575
1235.646, 120.882
1236.864, 129.205
1238.081, 233.687
1239.297, 91.882
1240.514, 239.301
1241.730, 214.176
1242.947, 156.695
1244.163, 173.213
1245.378, 73.408
1246.594, 80.672
1247.810, 86.747
1249.025, 79.013
1250.240, 133.213
1251.455, 185.909
1252.670, 224.185
1253.885, 175.072
1255.099, 181.545
1256.313, 132.891
1257.527, 37.076
1258.741, 50.608
1259.955, 163.844
1261.168, 23.043
1262.382, 143.184
1263.595, 143.917
1264.808, 170.760
1266.021, 84.364
1267.233, 186.138
1268.446, 149.404
1269.658, 68.854
1270.870, 94.642
1272.082, 73.144
1273.294, 140.667
1274.505, 186.634
1275.716, 173.036
1276.928, 82.488
1278.139, 242.003
1279.349, 335.495
1280.560, 93.973
1281.770, 32.475
1282.981, 135.458
1284.191, 162.531
1285.401, 79.281
1286.610, 133.907
1287.820, 3.722
1289.029, 140.676
1290.239, 18.243
1291.448, 123.962
1292.656, 11.697
1293.865, 147.293
1295.073, 126.143
1296.282, 112.578
1297.490, 20.328
1298.698, 30.045
1299.906, 165.754
1301.113, 40.355
1302.320, 408.121
1303.528, 15.047
1304.735, 86.125
1305.942, 110.982
1307.148, 19.791
1308.355, 14.324
1309.561, 14.330
1310.767, 99.082
1311.973, 20.465
1313.179, 36.307
1314.384, 114.113
1315.590, 43.270
1316.795, 103.621
1318.000, 84.242
1319.205, 20.895
1320.410, 73.400
1321.614, 112.469
1322.819, 7.605
1324.023, 218.645
1325.227, 60.230
1326.431, 143.906
1327.634, 97.219
1328.838, 65.119
1330.041, 102.439
1331.244, 120.426
1332.447, 105.119
1333.650, 169.928
1334.852, 61.865
1336.055, 195.047
1337.257, 107.131
1338.459, 19.447
1339.661, 31.109
1340.862, 109.609
1342.064, 155.312
1343.265, 12.139
1344.466, 20.762
1345.667, 56.012
1346.868, 90.289
1348.068, 223.910
1349.269, 250.414
1350.469, 259.998
1351.669, 329.164
1352.869, 251.643
1354.069, 238.410
1355.268, 270.766
1356.468, 17.133
1357.667, 265.650
1358.866, 179.264
1360.065, 198.922
1361.263, 385.627
1362.462, 95.574
1363.660, 328.039
1364.858, 345.197
1366.056, 244.648
1367.254, 288.932
1368.451, 328.887
1369.649, 336.441
1370.846, 272.980
1372.043, 257.027
1373.240, 128.340
1374.436, 222.107
1375.633, 318.664
1376.829, 285.230
1378.025, 211.949
1379.221, 134.008
1380.417, 133.947
1381.613, 103.979
1382.808, 156.330
1384.003, 222.096
1385.199, 308.217
1386.393, 269.375
1387.588, 231.479
1388.783, 330.148
1389.977, 143.047
1391.171, 352.445
1392.365, 265.100
1393.559, 239.951
1394.753, 183.799
1395.946, 232.293
1397.140, 345.107
1398.333, 264.783
1399.526, 194.596
1400.719, 340.121
1401.911, 201.242
1403.104, 290.801
1404.296, 192.375
1405.488, 137.693
1406.680, 330.059
1407.872, 190.146
1409.063, 237.129
1410.255, 377.203
1411.446, 184.648
1412.637, 424.373
1413.828, 146.332
1415.018, 249.760
1416.209, 271.568
1417.399, 247.941
1418.589, 244.139
1419.779, 378.828
1420.969, 172.438
1422.159, 304.090
1423.348, 109.014
1424.537, 272.381
1425.726, 309.029
1426.915, 135.943
1428.104, 232.621
1429.293, 211.533
1430.481, 231.924
1431.669, 113.121
1432.857, 488.787
1434.045, 183.812
1435.233, 358.551
1436.420, 487.586
1437.608, 364.998
1438.795, 280.822
1439.982, 298.082
1441.169, 389.244
1442.355, 335.365
1443.542, 363.561
1444.728, 410.482
1445.914, 336.406
1447.100, 479.170
1448.286, 393.904
1449.472, 428.141
1450.657, 187.328
1451.842, 536.350
1453.027, 438.297
1454.212, 410.275
1455.397, 553.750
1456.581, 302.773
1457.766, 426.797
1458.950, 541.113
1460.134, 297.424
1461.318, 461.023
1462.501, 364.777
1463.685, 405.223
1464.868, 257.871
1466.051, 273.131
1467.234, 423.793
1468.417, 180.867
1469.600, 274.176
1470.782, 375.340
1471.965, 289.557
1473.147, 184.941
1474.329, 403.598
1475.510, 269.742
1476.692, 204.785
1477.873, 176.902
1479.055, 176.232
1480.236, 118.170
1481.416, 476.035
1482.597, 213.854
1483.778, 386.678
1484.958, 212.412
1486.138, 285.043
1487.318, 221.639
1488.498, 139.619
1489.678, 270.895
1490.857, 101.516
1492.037, 107.178
1493.216, 310.883
1494.395, 320.717
1495.574, 199.705
1496.752, 258.861
1497.931, 119.141
1499.109, 173.592
1500.287, 166.258
1501.465, 176.125
1502.643, 145.221
1503.820, 36.334
1504.998, 105.879
1506.175, 62.287
1507.352, 162.088
1508.529, 241.305
