##NAMES=Sphalerite
##RRUFFID=R050237
##IDEAL CHEMISTRY=Zn^2+^S^2-^
##LOCALITY=Picos de Europa, Spain
##OWNER=RRUFF
##SOURCE=Marcus Origlieri
##DESCRIPTION=Green single crystal
##STATUS=The identification of this mineral has been confirmed by X-ray diffraction and chemical analysis
##URL=rruff.info/R050237
##MEASURED CHEMISTRY=Zn_1.00_S_1.00_
##PIN_ID=L00430
##ORIENTATION=Laser parallel to a* (1 0 0). Fiducial mark perpendicular to laser is parallel to b [0 1 0]
96.161, 0.000
97.554, 76.497
98.947, 166.773
100.340, 299.072
101.732, 67.227
103.124, 8.542
104.516, 22.844
105.908, 277.652
107.300, 363.923
108.691, 259.873
110.082, 3.455
111.473, 83.250
112.864, 24.004
114.254, 455.548
115.644, 1164.868
117.034, 1925.764
118.424, 2281.936
119.813, 1752.873
121.203, 1658.147
122.592, 1355.404
123.981, 1099.354
125.369, 1231.796
126.758, 1421.555
128.146, 1878.470
129.534, 2085.395
130.922, 3016.195
132.309, 3537.745
133.696, 4086.939
135.083, 4930.760
136.470, 6316.968
137.857, 7456.826
139.243, 8952.630
140.630, 9423.272
142.016, 9737.688
143.401, 9770.824
144.787, 10040.644
146.172, 10338.115
147.557, 10515.211
148.942, 10557.924
150.327, 10633.298
151.711, 11201.393
153.096, 11314.388
154.480, 11691.136
155.863, 11776.616
157.247, 11928.798
158.630, 12374.650
160.013, 12612.139
161.396, 13060.224
162.779, 13409.876
164.161, 13901.070
165.544, 14360.772
166.926, 15091.961
168.308, 15566.617
169.689, 16406.734
171.070, 17241.297
172.452, 18894.283
173.833, 19461.381
175.213, 22708.566
176.594, 23172.309
177.974, 22086.742
179.354, 21303.443
180.734, 19913.635
182.114, 17977.783
183.493, 16556.881
184.872, 15713.023
186.251, 14801.254
187.630, 14198.577
189.008, 13644.039
190.387, 13590.662
191.765, 13326.456
193.143, 13101.435
194.520, 12752.601
195.898, 12247.967
197.275, 12179.530
198.652, 11963.307
200.029, 11991.478
201.405, 12005.417
202.782, 12372.289
204.158, 12670.117
205.534, 13604.999
206.909, 14991.812
208.285, 16337.241
209.660, 19124.744
211.035, 20365.447
212.410, 22731.477
213.784, 25831.721
215.159, 28058.125
216.533, 29731.664
217.907, 29440.332
219.281, 27776.107
220.654, 25176.945
222.027, 22486.848
223.400, 19961.791
224.773, 17805.756
226.146, 16213.761
227.518, 14861.797
228.891, 13924.866
230.263, 13270.967
231.634, 13120.097
233.006, 13327.255
234.377, 13763.452
235.748, 12657.506
237.119, 11884.030
238.490, 10011.471
239.860, 7791.061
241.231, 5278.786
242.601, 3617.676
243.970, 2446.674
245.340, 1474.770
246.709, 1024.940
248.079, 418.232
249.448, 389.415
250.816, 125.315
252.185, 284.038
253.553, 418.758
254.921, 367.485
256.289, 328.244
257.657, 365.138
259.024, 199.217
260.391, 20.445
261.758, 495.904
263.125, 1063.038
264.492, 1894.914
265.858, 3008.579
267.224, 4368.820
268.590, 6572.776
269.956, 8768.010
271.321, 10729.060
272.687, 11650.643
274.052, 11419.718
275.416, 10472.242
276.781, 9286.746
278.146, 7494.869
279.510, 6075.575
280.874, 5189.625
282.237, 4262.993
283.601, 3847.660
284.964, 3269.604
286.327, 2928.809
287.690, 3054.262
289.053, 2852.947
290.416, 3051.853
291.778, 3514.969
293.140, 3753.281
294.502, 4662.783
295.863, 5511.465
297.225, 6521.312
298.586, 6892.324
299.947, 6885.201
301.308, 6179.775
302.668, 5005.545
304.029, 4133.184
305.389, 3500.090
306.749, 3087.834
308.108, 2575.339
309.468, 2217.594
310.827, 2063.803
312.186, 1883.367
313.545, 1295.272
314.903, 805.382
316.262, 248.228
317.620, 12.826
318.978, 95.340
320.336, 129.263
321.693, 591.389
323.051, 1113.379
324.408, 2040.722
325.765, 2732.400
327.121, 3652.818
328.478, 4419.082
329.834, 5204.462
331.190, 6426.039
332.546, 7372.791
333.902, 7340.934
335.257, 7436.149
336.612, 7749.284
337.967, 8470.663
339.322, 9690.326
340.677, 11572.805
342.031, 14751.049
343.385, 18860.807
344.739, 24574.336
346.093, 32316.516
347.446, 43712.484
348.799, 53691.070
350.153, 51744.652
351.505, 38821.254
352.858, 26508.863
354.210, 18686.473
355.563, 14818.093
356.915, 12529.714
358.267, 11302.337
359.618, 10757.962
360.969, 10658.587
362.321, 11142.208
363.672, 11483.826
365.022, 11752.437
366.373, 12235.032
367.723, 12431.612
369.073, 12814.622
370.423, 13426.751
371.773, 13977.618
373.122, 14370.382
374.471, 14687.839
375.821, 14813.514
377.169, 14072.687
378.518, 14468.768
379.866, 13864.976
381.215, 13842.229
382.563, 13986.793
383.910, 13907.504
385.258, 14305.119
386.605, 14544.208
387.952, 14962.456
389.299, 15330.775
390.646, 15724.327
391.992, 16141.073
393.339, 16545.336
394.685, 16969.154
396.031, 17421.082
397.376, 18129.945
398.722, 17499.783
400.067, 16845.084
401.412, 15540.867
402.757, 14371.639
404.101, 13579.121
405.446, 12728.638
406.790, 12057.647
408.134, 11533.493
409.478, 11305.096
410.821, 11135.145
412.165, 11153.992
413.508, 11423.016
414.851, 12473.943
416.193, 13624.257
417.536, 14656.293
418.878, 15715.543
420.220, 16162.466
421.562, 15733.329
422.904, 15200.366
424.245, 15035.628
425.586, 14754.868
426.927, 14282.091
428.268, 13722.380
429.609, 13064.684
430.949, 12225.639
432.289, 11476.785
433.629, 10537.896
434.969, 9658.977
436.309, 9022.017
437.648, 8655.018
438.987, 8735.985
440.326, 8806.908
441.665, 8826.786
443.003, 9059.617
444.342, 9505.396
445.680, 9619.119
447.018, 9990.786
448.355, 10755.400
449.693, 10244.955
451.030, 9747.450
452.367, 8938.883
453.704, 7491.272
455.041, 5056.595
456.377, 3256.852
457.713, 1797.041
459.049, 784.163
460.385, 426.221
461.721, 6.208
463.056, 23.937
464.391, 240.242
465.726, 287.829
467.061, 328.726
468.395, 272.955
469.730, 392.491
471.064, 292.397
472.398, 501.618
473.731, 360.272
475.065, 392.281
476.398, 257.667
477.731, 288.360
479.064, 294.744
480.397, 248.481
481.729, 127.127
483.062, 91.008
484.394, 16.887
485.725, 34.387
487.057, 37.139
488.389, 87.512
489.720, 115.744
491.051, 148.363
492.382, 144.826
493.712, 176.688
495.043, 176.438
496.373, 185.073
497.703, 246.589
499.032, 211.989
500.362, 327.273
501.691, 361.448
503.020, 483.523
504.349, 545.036
505.678, 633.461
507.007, 691.133
508.335, 849.810
509.663, 941.391
510.991, 1122.877
512.319, 1233.269
513.646, 1375.562
514.973, 1635.766
516.300, 1685.870
517.627, 1876.878
518.954, 1891.785
520.280, 1763.592
521.607, 1716.296
522.933, 1580.899
524.259, 1306.400
525.584, 1059.807
526.910, 969.109
528.235, 734.308
529.560, 702.398
530.885, 515.393
532.209, 342.271
533.534, 377.037
534.858, 250.682
536.182, 220.190
537.506, 110.566
538.829, 136.774
540.152, 105.839
541.476, 125.732
542.799, 243.473
544.121, 13.077
545.444, 219.470
546.766, 133.720
548.088, 198.803
549.410, 201.738
550.732, 148.525
552.053, 259.156
553.375, 289.647
554.696, 278.004
556.017, 381.221
557.337, 378.310
558.658, 450.840
559.978, 563.106
561.298, 552.824
562.618, 607.421
563.938, 585.899
565.257, 693.257
566.576, 717.499
567.895, 760.624
569.214, 877.637
570.533, 1044.538
571.851, 1047.330
573.170, 1222.021
574.488, 1326.632
575.805, 1263.262
577.123, 1407.844
578.440, 1484.491
579.758, 1489.838
581.075, 1669.099
582.391, 1678.614
583.708, 1905.948
585.024, 2054.275
586.341, 2099.705
587.657, 2145.770
588.972, 2309.932
590.288, 2441.795
591.603, 2670.091
592.918, 2864.193
594.233, 3111.408
595.548, 3431.432
596.863, 3771.542
598.177, 3928.615
599.491, 4502.266
600.805, 4867.577
602.119, 5529.273
603.432, 5997.326
604.746, 6903.767
606.059, 7468.008
607.372, 8092.520
608.685, 8307.586
609.997, 8702.593
611.309, 8974.395
612.621, 9272.085
613.933, 9700.708
615.245, 9995.212
616.557, 10097.141
617.868, 9525.411
619.179, 8217.571
620.490, 6465.426
621.801, 5134.250
623.111, 4283.641
624.421, 3765.510
625.731, 3681.852
627.041, 3482.400
628.351, 3840.234
629.660, 4040.728
630.970, 4512.406
632.279, 5297.148
633.588, 6202.122
634.896, 7383.039
636.205, 8486.174
637.513, 9257.305
638.821, 9299.872
640.129, 9166.115
641.437, 8747.569
642.744, 7965.545
644.051, 6523.508
645.358, 5119.977
646.665, 3886.214
647.972, 2982.255
649.278, 2634.396
650.584, 2630.514
651.890, 2710.158
653.196, 3193.564
654.502, 3564.598
655.807, 4231.352
657.113, 4959.699
658.418, 5886.995
659.722, 7048.683
661.027, 8473.336
662.331, 10220.021
663.636, 12174.306
664.940, 14965.751
666.244, 17547.037
667.547, 20937.188
668.851, 22728.975
670.154, 22992.160
671.457, 20966.266
672.760, 18330.244
674.062, 16219.646
675.365, 14238.439
676.667, 13246.104
677.969, 12468.825
679.271, 11675.262
680.572, 11318.902
681.874, 10814.234
683.175, 10578.562
684.476, 10367.687
685.777, 10070.318
687.077, 9828.368
688.378, 9346.885
689.678, 9292.485
690.978, 9109.123
692.278, 8535.408
693.577, 7790.400
694.877, 7511.146
696.176, 6530.868
697.475, 5815.116
698.774, 4832.250
700.072, 4001.963
701.371, 3170.541
702.669, 2633.275
703.967, 2107.539
705.265, 1954.629
706.562, 1808.640
707.860, 1500.388
709.157, 1349.084
710.454, 1358.412
711.751, 1116.178
713.047, 1130.961
714.344, 967.863
715.640, 997.251
716.936, 888.982
718.232, 870.738
719.527, 858.421
720.823, 829.865
722.118, 816.803
723.413, 799.639
724.708, 613.729
726.002, 574.830
727.297, 614.259
728.591, 460.385
729.885, 485.769
731.179, 386.993
732.472, 379.078
733.766, 343.129
735.059, 396.229
736.352, 391.797
737.645, 302.793
738.937, 317.194
740.230, 289.747
741.522, 236.404
742.814, 294.814
744.106, 241.918
745.397, 264.959
746.689, 169.881
747.980, 167.947
749.271, 111.062
750.562, 127.745
751.853, 76.359
753.143, 56.241
754.433, 126.713
755.723, 6.885
757.013, 56.439
758.303, 179.969
759.592, 57.253
760.881, 74.375
762.170, 1.572
763.459, 56.408
764.748, 40.321
766.036, 69.752
767.325, 54.990
768.613, 40.666
769.901, 39.275
771.188, 12.182
772.476, 22.711
773.763, 37.315
775.050, 60.998
776.337, 4.669
777.624, 98.568
778.910, 155.760
780.196, 78.111
781.482, 81.199
782.768, 67.189
784.054, 12.416
785.339, 18.179
786.625, 12.434
787.910, 42.021
789.195, 17.335
790.479, 25.422
791.764, 15.456
793.048, 1.429
794.332, 53.357
795.616, 14.287
796.900, 12.210
798.183, 61.844
799.467, 48.102
800.750, 20.887
802.033, 70.959
803.316, 66.547
804.598, 32.659
805.880, 51.829
807.163, 50.062
808.445, 22.212
809.726, 31.449
811.008, 25.883
812.289, 5.785
813.570, 52.467
814.851, 26.989
816.132, 54.400
817.413, 28.233
818.693, 28.749
819.973, 81.502
821.253, 17.079
822.533, 9.937
823.813, 41.154
825.092, 42.802
826.371, 47.176
827.650, 8.893
828.929, 48.986
830.208, 58.794
831.486, 24.413
832.764, 71.365
834.042, 3.067
835.320, 20.277
836.598, 34.323
837.875, 61.879
839.152, 51.390
840.429, 54.141
841.706, 50.262
842.983, 62.371
844.259, 61.934
845.536, 62.206
846.812, 26.549
848.088, 34.658
849.363, 66.146
850.639, 50.007
851.914, 47.850
853.189, 6.268
854.464, 30.357
855.739, 87.459
857.013, 129.562
858.288, 85.655
859.562, 93.732
860.836, 21.207
862.110, 135.840
863.383, 59.868
864.656, 136.882
865.930, 116.875
867.203, 61.844
868.475, 40.787
869.748, 51.717
871.020, 16.616
872.292, 69.484
873.564, 86.321
874.836, 57.129
876.108, 86.907
877.379, 50.654
878.650, 147.367
879.922, 84.048
881.192, 139.710
882.463, 61.337
883.733, 82.931
885.004, 99.410
886.274, 90.843
887.544, 62.111
888.813, 172.580
890.083, 54.013
891.352, 179.051
892.621, 126.131
893.890, 84.079
895.159, 125.782
896.427, 182.714
897.695, 180.408
898.964, 192.182
900.232, 140.543
901.499, 111.879
902.767, 213.959
904.034, 210.095
905.301, 115.000
906.568, 262.802
907.835, 238.882
909.102, 206.162
910.368, 127.921
911.634, 170.179
912.900, 284.910
914.166, 290.700
915.432, 327.082
916.697, 237.773
917.962, 170.384
919.227, 302.059
920.492, 232.705
921.757, 278.278
923.021, 288.833
924.285, 425.819
925.550, 280.328
926.813, 367.102
928.077, 161.484
929.341, 287.688
930.604, 303.436
931.867, 288.410
933.130, 280.049
934.393, 348.689
935.655, 298.256
936.918, 227.173
938.180, 282.506
939.442, 284.392
940.703, 142.790
941.965, 251.486
943.226, 283.828
944.488, 170.523
945.749, 182.602
947.009, 280.410
948.270, 199.256
949.530, 195.971
950.791, 274.288
952.051, 149.274
953.311, 202.032
954.570, 33.412
955.830, 159.805
957.089, 218.576
958.348, 203.545
959.607, 122.496
960.866, 200.680
962.124, 143.027
963.383, 130.186
964.641, 100.519
965.899, 187.286
967.156, 183.609
968.414, 157.182
969.671, 109.059
970.928, 252.174
972.185, 97.538
973.442, 209.880
974.699, 258.093
975.955, 262.533
977.211, 237.036
978.468, 275.666
979.723, 294.429
980.979, 253.110
982.234, 212.544
983.490, 353.808
984.745, 189.092
986.000, 263.233
987.254, 346.649
988.509, 272.704
989.763, 410.788
991.017, 378.017
992.271, 390.406
993.525, 381.781
994.779, 304.638
996.032, 466.667
997.285, 405.793
998.538, 475.469
999.791, 379.486
1001.044, 570.533
1002.296, 421.674
1003.548, 541.551
1004.800, 510.404
1006.052, 541.432
1007.304, 465.600
1008.555, 474.656
1009.807, 464.928
1011.058, 412.197
1012.309, 487.221
1013.559, 472.750
1014.810, 422.634
1016.060, 399.938
1017.310, 455.278
1018.560, 429.563
1019.810, 404.070
1021.060, 438.920
1022.309, 425.975
1023.558, 364.492
1024.807, 418.767
1026.056, 358.824
1027.305, 481.463
1028.553, 480.926
1029.801, 521.104
1031.049, 606.977
1032.297, 447.597
1033.545, 534.344
1034.793, 587.229
1036.040, 441.866
1037.287, 501.489
1038.534, 590.295
1039.781, 420.642
1041.027, 585.562
1042.274, 387.463
1043.520, 449.431
1044.766, 546.057
1046.012, 505.377
1047.257, 479.508
1048.503, 450.522
1049.748, 404.729
1050.993, 424.426
1052.238, 411.310
1053.483, 389.334
1054.727, 470.102
1055.971, 462.247
1057.216, 499.715
1058.459, 420.332
1059.703, 467.035
1060.947, 413.350
1062.190, 431.032
1063.433, 483.991
1064.676, 437.886
1065.919, 360.798
1067.162, 448.535
1068.404, 481.052
1069.646, 393.366
1070.888, 486.425
1072.130, 462.318
1073.372, 368.015
1074.613, 405.998
1075.855, 474.458
1077.096, 258.090
1078.337, 338.522
1079.578, 288.629
1080.818, 379.126
1082.059, 431.841
1083.299, 953.053
1084.539, 459.062
1085.779, 649.560
1087.018, 517.269
1088.258, 216.811
1089.497, 233.855
1090.736, 176.104
1091.975, 172.043
1093.213, 302.305
1094.452, 212.196
1095.690, 228.926
1096.928, 142.760
1098.166, 256.904
1099.404, 226.826
1100.642, 284.660
1101.879, 77.223
1103.116, 166.879
1104.353, 70.878
1105.590, 162.704
1106.827, 113.293
1108.063, 135.140
1109.299, 164.835
1110.536, 106.552
1111.771, 120.407
1113.007, 76.447
1114.243, 122.968
1115.478, 96.521
1116.713, 60.226
1117.948, 14.316
1119.183, 74.933
1120.418, 125.189
1121.652, 136.744
1122.886, 1.884
1124.120, 53.559
1125.354, 31.889
1126.588, 6.514
1127.821, 88.866
1129.055, 27.690
1130.288, 53.609
1131.521, 55.237
1132.753, 93.404
1133.986, 53.084
1135.218, 36.925
1136.450, 98.942
1137.682, 120.031
1138.914, 70.731
1140.146, 110.570
1141.377, 26.667
1142.609, 123.210
1143.840, 112.980
1145.071, 93.334
1146.301, 118.077
1147.532, 87.411
1148.762, 20.100
1149.992, 65.768
1151.222, 18.706
1152.452, 82.728
1153.682, 63.229
1154.911, 80.503
1156.140, 148.722
1157.369, 48.986
1158.598, 57.317
1159.827, 32.429
1161.055, 39.570
1162.284, 26.771
1163.512, 85.223
1164.740, 56.912
1165.967, 10.518
1167.195, 52.902
1168.422, 95.765
1169.650, 7.423
1170.877, 182.844
1172.103, 45.758
1173.330, 2.492
1174.557, 158.623
1175.783, 160.578
1177.009, 80.827
1178.235, 39.659
1179.461, 200.276
1180.686, 86.279
1181.912, 69.167
1183.137, 17.536
1184.362, 17.321
1185.587, 63.209
1186.811, 39.027
1188.036, 16.849
1189.260, 141.659
1190.484, 67.417
1191.708, 102.444
1192.932, 5.739
1194.155, 77.189
1195.378, 102.335
1196.602, 68.923
1197.825, 138.275
1199.047, 59.794
1200.270, 107.389
1201.492, 164.064
1202.715, 225.938
1203.937, 223.787
1205.159, 182.136
1206.380, 156.776
1207.602, 177.845
1208.823, 126.087
1210.044, 77.070
1211.265, 85.822
1212.486, 76.540
1213.707, 111.232
1214.927, 138.200
1216.147, 204.756
1217.367, 259.799
1218.587, 365.513
1219.807, 94.290
1221.027, 258.898
1222.246, 7.878
1223.465, 93.412
1224.684, 120.493
1225.903, 208.512
1227.121, 107.532
1228.340, 49.429
1229.558, 161.223
1230.776, 202.001
1231.994, 78.061
1233.212, 181.307
1234.429, 133.146
1235.646, 166.155
1236.864, 78.834
1238.081, 177.308
1239.297, 94.092
1240.514, 174.376
1241.730, 206.778
1242.947, 177.460
1244.163, 96.206
1245.378, 142.282
1246.594, 155.761
1247.810, 198.727
1249.025, 184.630
1250.240, 202.482
1251.455, 129.273
1252.670, 181.104
1253.885, 113.693
1255.099, 110.179
1256.313, 132.000
1257.527, 77.642
1258.741, 41.545
1259.955, 99.730
1261.168, 18.269
1262.382, 94.138
1263.595, 221.728
1264.808, 67.851
1266.021, 25.425
1267.233, 157.059
1268.446, 273.040
1269.658, 138.975
1270.870, 46.558
1272.082, 136.509
1273.294, 186.262
1274.505, 159.275
1275.716, 42.355
1276.928, 215.081
1278.139, 82.845
1279.349, 181.595
1280.560, 154.104
1281.770, 118.466
1282.981, 7.622
1284.191, 134.977
1285.401, 167.216
1286.610, 95.551
1287.820, 158.462
1289.029, 96.680
1290.239, 29.259
1291.448, 80.604
1292.656, 1.596
1293.865, 76.272
1295.073, 74.594
1296.282, 90.038
1297.490, 99.517
1298.698, 13.712
1299.906, 114.925
1301.113, 14.147
1302.320, 77.572
1303.528, 8.484
1304.735, 9.415
1305.942, 53.744
1307.148, 165.897
1308.355, 71.779
1309.561, 20.526
1310.767, 133.963
1311.973, 16.190
1313.179, 82.018
1314.384, 72.796
1315.590, 114.455
1316.795, 34.120
1318.000, 44.138
1319.205, 16.899
1320.410, 22.238
1321.614, 89.514
1322.819, 13.616
1324.023, 128.203
1325.227, 99.420
1326.431, 113.091
1327.634, 47.382
1328.838, 10.625
1330.041, 68.017
1331.244, 67.268
1332.447, 59.350
1333.650, 53.269
1334.852, 52.646
1336.055, 23.559
1337.257, 9.272
1338.459, 28.787
1339.661, 24.962
1340.862, 33.064
1342.064, 14.432
1343.265, 32.345
1344.466, 22.790
1345.667, 15.373
1346.868, 95.128
1348.068, 230.084
1349.269, 59.976
1350.469, 107.634
1351.669, 229.129
1352.869, 84.659
1354.069, 69.918
1355.268, 289.916
1356.468, 41.899
1357.667, 241.790
1358.866, 160.777
1360.065, 38.386
1361.263, 116.742
1362.462, 181.455
1363.660, 152.004
1364.858, 176.678
1366.056, 267.073
1367.254, 216.849
1368.451, 275.394
1369.649, 276.015
1370.846, 234.968
1372.043, 265.735
1373.240, 44.323
1374.436, 244.902
1375.633, 162.428
1376.829, 101.351
1378.025, 182.644
1379.221, 126.645
1380.417, 190.412
1381.613, 215.386
1382.808, 123.912
1384.003, 303.799
1385.199, 201.119
1386.393, 121.436
1387.588, 61.014
1388.783, 244.268
1389.977, 130.254
1391.171, 291.896
1392.365, 183.748
1393.559, 154.875
1394.753, 115.494
1395.946, 181.582
1397.140, 175.533
1398.333, 207.109
1399.526, 141.363
1400.719, 110.775
1401.911, 225.734
1403.104, 218.787
1404.296, 261.479
1405.488, 85.146
1406.680, 319.479
1407.872, 158.951
1409.063, 202.539
1410.255, 227.912
1411.446, 133.459
1412.637, 250.621
1413.828, 108.699
1415.018, 345.639
1416.209, 278.682
1417.399, 234.816
1418.589, 67.844
1419.779, 223.588
1420.969, 175.920
1422.159, 433.094
1423.348, 243.760
1424.537, 203.186
1425.726, 106.807
1426.915, 163.779
1428.104, 255.668
1429.293, 255.182
1430.481, 308.252
1431.669, 227.742
1432.857, 295.742
1434.045, 236.113
1435.233, 133.441
1436.420, 258.707
1437.608, 380.729
1438.795, 227.746
1439.982, 306.793
1441.169, 220.248
1442.355, 256.969
1443.542, 241.494
1444.728, 242.812
1445.914, 188.842
1447.100, 283.760
1448.286, 368.500
1449.472, 396.447
1450.657, 219.318
1451.842, 498.482
1453.027, 341.379
1454.212, 404.816
1455.397, 544.713
1456.581, 252.133
1457.766, 509.084
1458.950, 550.662
1460.134, 408.752
1461.318, 484.484
1462.501, 285.809
1463.685, 293.838
1464.868, 332.523
1466.051, 177.877
1467.234, 318.666
1468.417, 251.621
1469.600, 315.283
1470.782, 356.238
1471.965, 266.637
1473.147, 270.195
1474.329, 360.020
1475.510, 262.611
1476.692, 184.543
1477.873, 277.539
1479.055, 211.900
1480.236, 165.014
1481.416, 337.453
1482.597, 123.867
1483.778, 318.297
1484.958, 152.693
1486.138, 168.996
1487.318, 218.293
1488.498, 127.717
1489.678, 194.867
1490.857, 136.189
1492.037, 154.566
1493.216, 315.029
1494.395, 149.586
1495.574, 258.244
1496.752, 242.039
1497.931, 93.969
1499.109, 329.045
1500.287, 114.305
1501.465, 2.322
1502.643, 27.832
1503.820, 31.768
1504.998, 168.506
1506.175, 242.422
1507.352, 76.549
1508.529, 213.926
1509.706, 191.578
1510.882, 131.535
1512.059, 239.824
1513.235, 215.406
1514.411, 98.531
1515.587, 40.693
