##NAMES=Sphalerite
##RRUFFID=R050140
##IDEAL CHEMISTRY=Zn^2+^S^2-^
##LOCALITY=Big Four mine, Summit County, Colorado, USA
##OWNER=RRUFF
##SOURCE=Dave Bunk Minerals
##DESCRIPTION=Group of dark green tetrahedra
##STATUS=The identification of this mineral has been confirmed by X-ray diffraction and chemical analysis
##URL=rruff.info/R050140
##MEASURED CHEMISTRY=Zn_1.00_S_1.00_
##PIN_ID=L00183
##ORIENTATION=Laser parallel to -a* (-1 0 0). Fiducial mark perpendicular to laser is parallel to b [0 1 0]
49.365, 0.000
50.765, 235.719
52.166, 209.697
53.566, 262.383
54.966, 791.973
56.365, 1541.346
57.765, 2356.656
59.164, 3139.640
60.563, 3627.088
61.962, 4018.998
63.360, 4252.207
64.758, 4439.674
66.157, 4366.818
67.554, 4042.188
68.952, 3485.738
70.349, 2644.252
71.747, 2517.766
73.144, 2001.126
74.540, 1808.975
75.937, 1520.414
77.333, 1200.729
78.729, 1024.997
80.125, 645.435
81.521, 506.734
82.916, 283.090
84.311, 148.529
85.706, 47.471
87.101, 116.812
88.496, 44.509
89.890, 33.372
91.284, 179.528
92.678, 171.178
94.071, 112.486
95.465, 86.420
96.858, 28.988
98.251, 81.232
99.644, 58.781
101.036, 240.969
102.428, 246.333
103.820, 292.107
105.212, 331.477
106.604, 630.029
107.995, 796.846
109.387, 1026.275
110.777, 1211.981
112.168, 1288.295
113.559, 1774.096
114.949, 1989.422
116.339, 2414.359
117.729, 2469.135
119.119, 2633.738
120.508, 2777.984
121.897, 2941.869
123.286, 3255.413
124.675, 3498.637
126.063, 3931.555
127.452, 4104.179
128.840, 4496.525
130.228, 4778.607
131.615, 5430.434
133.003, 6112.391
134.390, 6405.512
135.777, 7419.623
137.164, 8024.531
138.550, 9340.062
139.937, 10186.035
141.323, 11512.281
142.709, 12638.652
144.094, 12625.001
145.480, 13491.151
146.865, 13236.965
148.250, 13932.345
149.635, 13957.179
151.019, 14351.365
152.403, 14674.870
153.788, 14558.870
155.171, 15045.209
156.555, 15064.853
157.939, 15776.675
159.322, 15810.241
160.705, 16016.020
162.088, 16600.092
163.470, 16707.598
164.853, 17684.092
166.235, 17619.395
167.617, 18540.527
168.998, 19267.240
170.380, 19557.107
171.761, 20892.594
173.142, 20999.549
174.523, 22724.840
175.904, 23140.145
177.284, 24815.477
178.664, 25200.854
180.044, 25546.285
181.424, 25822.223
182.803, 23641.670
184.183, 22613.695
185.562, 20577.082
186.940, 19908.648
188.319, 18606.705
189.698, 17862.168
191.076, 17437.637
192.454, 16883.111
193.831, 17108.572
195.209, 16294.030
196.586, 16289.470
197.963, 15974.886
199.340, 15640.277
200.717, 15705.636
202.093, 15050.952
203.470, 15766.235
204.846, 15421.478
206.221, 15956.686
207.597, 16751.857
208.972, 17496.994
210.347, 19572.090
211.722, 20587.156
213.097, 23362.207
214.472, 25497.256
215.846, 28467.455
217.220, 31036.145
218.594, 31502.910
219.967, 32837.539
221.341, 29999.957
222.714, 28610.062
224.087, 25387.818
225.460, 23063.260
226.832, 21216.371
228.204, 19036.928
229.577, 18334.990
230.948, 16900.623
232.320, 16763.869
233.692, 16314.711
235.063, 15983.325
236.434, 16369.680
237.805, 15373.620
239.175, 15033.138
240.545, 12890.115
241.916, 10925.007
243.286, 8557.863
244.655, 6739.099
246.025, 5497.041
247.394, 4393.626
248.763, 3887.476
250.132, 3207.165
251.501, 2804.457
252.869, 2422.993
254.237, 1990.894
255.605, 1862.647
256.973, 1459.767
258.340, 1395.736
259.708, 1136.701
261.075, 982.598
262.442, 822.382
263.808, 683.157
265.175, 576.125
266.541, 429.580
267.907, 394.020
269.273, 219.125
270.639, 126.811
272.004, 41.836
273.369, 62.087
274.734, 63.152
276.099, 221.498
277.463, 275.617
278.828, 249.810
280.192, 278.199
281.556, 141.912
282.919, 284.610
284.283, 99.457
285.646, 188.399
287.009, 17.460
288.372, 119.399
289.734, 135.190
291.097, 446.913
292.459, 500.576
293.821, 1058.179
295.183, 1459.734
296.544, 2124.248
297.905, 2975.717
299.266, 3520.139
300.627, 4263.510
301.988, 4319.823
303.348, 4126.831
304.709, 3490.724
306.069, 2707.580
307.428, 2344.865
308.788, 1899.104
310.147, 1649.455
311.507, 1178.812
312.865, 942.275
314.224, 815.595
315.583, 561.429
316.941, 660.355
318.299, 439.073
319.657, 468.449
321.015, 572.980
322.372, 647.060
323.729, 817.506
325.086, 1061.927
326.443, 1656.407
327.800, 2118.964
329.156, 2768.905
330.512, 3465.801
331.868, 3812.227
333.224, 4274.354
334.579, 4673.980
335.935, 4758.787
337.290, 4703.945
338.645, 4588.644
339.999, 4913.581
341.354, 5098.238
342.708, 6232.519
344.062, 7656.897
345.416, 10540.833
346.769, 14954.553
348.123, 21407.979
349.476, 30881.357
350.829, 38554.684
352.182, 40737.977
353.534, 34041.242
354.887, 24844.498
356.239, 19147.715
357.591, 15370.915
358.942, 12964.093
360.294, 11507.243
361.645, 10770.372
362.996, 10623.480
364.347, 10496.559
365.698, 11059.617
367.048, 10792.649
368.398, 11385.659
369.748, 11508.646
371.098, 11601.953
372.448, 12165.915
373.797, 11900.423
375.146, 12515.117
376.495, 12340.586
377.844, 12539.568
379.192, 12829.404
380.540, 12683.715
381.889, 13265.401
383.236, 12908.445
384.584, 13281.117
385.932, 13442.288
387.279, 13549.345
388.626, 14179.462
389.973, 13730.734
391.319, 14647.002
392.666, 14862.789
394.012, 15158.013
395.358, 15860.452
396.704, 15703.482
398.049, 16565.318
399.394, 15796.834
400.740, 15948.300
402.084, 15329.232
403.429, 13900.091
404.774, 13480.806
406.118, 12031.333
407.462, 11701.578
408.806, 10941.824
410.150, 10402.073
411.493, 10312.341
412.836, 9612.630
414.179, 9902.951
415.522, 9493.304
416.865, 9863.706
418.207, 10234.146
419.549, 10393.871
420.891, 11303.523
422.233, 11832.259
423.575, 12670.493
424.916, 12008.180
426.257, 12135.420
427.598, 12492.298
428.939, 12078.614
430.279, 12394.842
431.619, 11780.389
432.959, 11205.465
434.299, 10638.103
435.639, 9379.952
436.978, 9221.785
438.318, 8314.552
439.657, 8393.971
440.996, 8195.049
442.334, 8114.382
443.673, 8502.304
445.011, 8381.301
446.349, 8871.583
447.687, 9216.691
449.024, 9140.412
450.361, 9725.643
451.699, 9070.938
453.036, 9167.535
454.372, 7944.361
455.709, 6533.515
457.045, 4968.886
458.381, 3058.219
459.717, 1921.518
461.053, 1164.782
462.388, 749.017
463.724, 431.218
465.059, 201.377
466.394, 191.487
467.728, 70.547
469.063, 62.555
470.397, 17.510
471.731, 6.410
473.065, 30.102
474.398, 1.355
475.732, 67.252
477.065, 26.062
478.398, 57.272
479.731, 116.534
481.063, 53.898
482.396, 134.686
483.728, 18.770
485.060, 233.546
486.391, 180.329
487.723, 109.635
489.054, 184.896
490.385, 135.123
491.716, 191.307
493.047, 149.459
494.377, 151.585
495.708, 257.681
497.038, 163.753
498.368, 265.796
499.697, 200.807
501.027, 259.787
502.356, 341.733
503.685, 310.652
505.014, 407.540
506.342, 447.394
507.671, 584.217
508.999, 682.031
510.327, 633.818
511.655, 853.579
512.982, 919.312
514.310, 1077.015
515.637, 1195.691
516.964, 1285.340
518.291, 1450.959
519.617, 1391.552
520.944, 1506.114
522.270, 1307.648
523.596, 1149.153
524.921, 1106.630
526.247, 723.078
527.572, 690.496
528.897, 489.885
530.222, 375.245
531.547, 212.573
532.871, 72.874
534.196, 21.137
535.520, 6.636
536.844, 82.464
538.167, 103.369
539.491, 190.359
540.814, 145.474
542.137, 173.701
543.460, 170.047
544.783, 145.508
546.105, 252.066
547.427, 131.786
548.749, 155.607
550.071, 62.542
551.393, 55.550
552.714, 46.618
554.035, 16.249
555.356, 2.924
556.677, 102.857
557.998, 158.603
559.318, 151.317
560.638, 266.000
561.958, 270.654
563.278, 296.281
564.597, 332.880
565.917, 416.453
567.236, 518.002
568.555, 551.527
569.874, 587.028
571.192, 666.503
572.511, 703.004
573.829, 778.944
575.147, 801.870
576.464, 933.534
577.782, 1005.061
579.099, 1094.753
580.416, 1226.342
581.733, 1166.990
583.050, 1421.676
584.366, 1408.420
585.683, 1544.307
586.999, 1692.199
588.315, 1723.051
589.630, 2012.985
590.946, 1967.833
592.261, 2298.623
593.576, 2468.512
594.891, 2625.313
596.206, 2976.104
597.520, 3096.055
598.834, 3473.141
600.148, 3978.051
601.462, 4136.258
602.776, 4877.475
604.089, 5247.668
605.402, 6076.680
606.715, 6689.180
608.028, 7047.180
609.341, 7885.153
610.653, 7922.467
611.965, 8242.004
613.277, 8559.329
614.589, 8576.497
615.901, 9223.780
617.212, 8770.865
618.523, 8878.122
619.834, 7676.578
621.145, 6247.892
622.456, 4939.199
623.766, 3554.500
625.076, 2819.759
626.386, 2331.456
627.696, 2064.487
629.006, 2056.961
630.315, 1938.375
631.624, 2176.000
632.933, 2249.242
634.242, 2592.891
635.551, 3184.369
636.859, 3525.383
638.167, 4256.169
639.475, 4408.373
640.783, 4476.004
642.090, 4518.646
643.398, 3976.915
644.705, 3610.416
646.012, 2810.593
647.318, 2187.170
648.625, 1778.050
649.931, 1569.615
651.237, 1534.250
652.543, 1734.711
653.849, 2203.833
655.155, 2754.242
656.460, 3195.165
657.765, 4034.126
659.070, 4725.997
660.375, 5813.763
661.679, 7223.701
662.984, 8529.169
664.288, 10734.758
665.592, 12615.438
666.895, 15141.601
668.199, 17907.943
669.502, 19273.797
670.805, 20869.471
672.108, 18955.787
673.411, 17511.512
674.713, 15407.182
676.016, 13273.270
677.318, 12568.799
678.620, 11214.479
679.921, 10620.068
681.223, 10215.816
682.524, 9431.477
683.825, 9466.907
685.126, 8852.341
686.427, 8507.782
687.727, 8523.095
689.028, 7869.674
690.328, 7944.597
691.628, 7410.091
692.927, 7172.912
694.227, 6843.791
695.526, 6142.482
696.825, 5874.541
698.124, 4907.254
699.423, 4327.349
700.721, 3639.215
702.020, 2789.396
703.318, 2364.021
704.616, 1792.383
705.913, 1510.139
707.211, 1261.680
708.508, 1067.399
709.805, 983.626
711.102, 827.772
712.399, 748.103
713.695, 717.211
714.992, 618.717
716.288, 615.185
717.584, 591.013
718.879, 499.942
720.175, 542.748
721.470, 380.822
722.765, 448.849
724.060, 355.031
725.355, 298.271
726.649, 394.143
727.944, 223.353
729.238, 303.330
730.532, 225.336
731.825, 165.208
733.119, 190.929
734.412, 145.821
735.705, 164.528
736.998, 145.214
738.291, 131.785
739.584, 113.096
740.876, 75.800
742.168, 70.701
743.460, 77.531
744.752, 54.827
746.043, 73.063
747.334, 85.184
748.626, 62.315
749.916, 85.241
751.207, 89.185
752.498, 62.031
753.788, 43.837
755.078, 98.769
756.368, 42.507
757.658, 45.185
758.947, 65.891
760.237, 0.507
761.526, 15.034
762.815, 0.529
764.104, 0.973
765.392, 41.544
766.680, 28.108
767.969, 30.174
769.257, 60.411
770.544, 24.603
771.832, 63.750
773.119, 19.853
774.406, 11.091
775.693, 12.909
776.980, 36.861
778.267, 42.772
779.553, 38.366
780.839, 47.069
782.125, 9.285
783.411, 38.049
784.697, 27.777
785.982, 6.472
787.267, 33.134
788.552, 30.762
789.837, 22.645
791.122, 6.964
792.406, 41.462
793.690, 16.007
794.974, 17.597
796.258, 13.760
797.542, 33.194
798.825, 12.526
800.108, 6.702
801.391, 14.053
802.674, 22.079
803.957, 24.828
805.239, 41.794
806.522, 32.789
807.804, 36.843
809.085, 31.731
810.367, 0.889
811.649, 22.237
812.930, 0.434
814.211, 9.653
815.492, 2.131
816.772, 78.825
818.053, 83.751
819.333, 66.788
820.613, 17.736
821.893, 8.133
823.173, 41.520
824.452, 75.832
825.732, 5.156
827.011, 45.414
828.290, 48.707
829.568, 8.874
830.847, 63.959
832.125, 27.014
833.403, 31.967
834.681, 16.977
835.959, 19.913
837.236, 42.676
838.514, 31.601
839.791, 27.424
841.068, 11.162
842.345, 26.900
843.621, 9.233
844.898, 23.298
846.174, 15.063
847.450, 20.100
848.726, 18.712
850.001, 20.382
851.277, 20.239
852.552, 7.431
853.827, 18.077
855.102, 35.618
856.376, 11.693
857.651, 12.155
858.925, 34.476
860.199, 45.989
861.473, 19.424
862.746, 57.870
864.020, 18.346
865.293, 25.602
866.566, 86.022
867.839, 41.363
869.112, 37.532
870.384, 60.785
871.656, 35.909
872.928, 84.964
874.200, 52.208
875.472, 119.155
876.744, 74.259
878.015, 52.254
879.286, 132.221
880.557, 43.236
881.828, 90.938
883.098, 75.876
884.369, 99.743
885.639, 127.087
886.909, 77.742
888.178, 113.149
889.448, 109.379
890.717, 127.515
891.987, 180.604
893.256, 77.511
894.524, 155.321
895.793, 131.977
897.061, 145.896
898.330, 150.415
899.598, 168.076
900.865, 155.820
902.133, 202.266
903.401, 180.948
904.668, 197.598
905.935, 238.996
907.202, 153.280
908.468, 189.711
909.735, 241.950
911.001, 176.292
912.267, 190.636
913.533, 199.230
914.799, 268.104
916.064, 216.647
917.330, 147.150
918.595, 260.130
919.860, 188.977
921.124, 263.793
922.389, 231.704
923.653, 211.612
924.918, 272.536
926.182, 206.327
927.445, 268.937
928.709, 261.370
929.972, 206.423
931.236, 296.269
932.499, 227.995
933.761, 227.971
935.024, 211.279
936.286, 207.755
937.549, 238.299
938.811, 263.258
940.073, 215.745
941.334, 267.184
942.596, 161.531
943.857, 246.677
945.118, 161.039
946.379, 204.823
947.640, 241.581
948.900, 145.480
950.161, 217.973
951.421, 173.059
952.681, 156.660
953.940, 188.389
955.200, 169.362
956.459, 185.257
957.719, 154.003
958.978, 151.367
960.236, 151.342
961.495, 131.756
962.753, 119.207
964.012, 177.312
965.270, 81.561
966.527, 98.351
967.785, 107.600
969.043, 41.648
970.300, 142.714
971.557, 102.818
972.814, 121.281
974.071, 111.464
975.327, 118.074
976.583, 104.803
977.840, 107.764
979.095, 88.376
980.351, 108.118
981.607, 115.372
982.862, 112.182
984.117, 125.895
985.372, 101.404
986.627, 108.024
987.882, 138.487
989.136, 89.046
990.390, 102.733
991.644, 112.318
992.898, 53.546
994.152, 102.030
995.405, 64.119
996.659, 108.643
997.912, 25.636
999.165, 123.077
1000.417, 106.706
1001.670, 78.231
1002.922, 134.418
1004.174, 116.653
1005.426, 87.243
1006.678, 119.702
1007.930, 88.748
1009.181, 135.591
1010.432, 76.975
1011.683, 55.681
1012.934, 115.068
1014.185, 70.555
1015.435, 114.748
1016.685, 67.944
1017.935, 78.209
1019.185, 110.191
1020.435, 81.383
1021.684, 102.688
1022.934, 111.822
1024.183, 58.893
1025.432, 120.781
1026.680, 73.298
1027.929, 89.347
1029.177, 86.292
1030.425, 65.782
1031.673, 118.683
1032.921, 64.623
1034.169, 62.576
1035.416, 147.581
1036.663, 60.901
1037.911, 65.732
1039.157, 118.752
1040.404, 111.691
1041.650, 100.948
1042.897, 126.290
1044.143, 94.143
1045.389, 148.027
1046.634, 52.227
1047.880, 123.135
1049.125, 92.019
1050.371, 76.427
1051.615, 136.334
1052.860, 74.603
1054.105, 77.726
1055.349, 102.705
1056.593, 104.136
1057.837, 133.055
1059.081, 97.069
1060.325, 67.261
1061.568, 79.115
1062.812, 57.400
1064.055, 113.348
1065.298, 64.099
1066.540, 70.130
1067.783, 101.629
1069.025, 68.505
1070.267, 135.471
1071.509, 131.072
1072.751, 70.895
1073.993, 98.630
1075.234, 73.278
1076.475, 53.200
1077.716, 131.902
1078.957, 10.612
1080.198, 58.573
1081.438, 75.258
1082.679, 17.221
1083.919, 77.064
1085.159, 134.475
1086.398, 79.107
1087.638, 149.469
1088.877, 82.820
1090.116, 84.519
1091.355, 96.831
1092.594, 38.416
1093.833, 92.051
1095.071, 58.418
1096.309, 34.167
1097.547, 120.806
1098.785, 23.968
1100.023, 1.603
1101.260, 127.030
1102.498, 49.630
1103.735, 96.112
1104.972, 82.419
1106.208, 111.983
1107.445, 83.453
1108.681, 115.697
1109.918, 72.159
1111.154, 30.223
1112.389, 26.460
1113.625, 61.015
1114.860, 25.848
1116.096, 70.857
1117.331, 77.146
1118.566, 70.876
1119.800, 82.140
1121.035, 105.185
1122.269, 125.358
1123.503, 144.958
1124.737, 145.553
1125.971, 151.683
1127.205, 144.719
1128.438, 65.576
1129.671, 72.852
1130.904, 56.787
1132.137, 30.681
1133.370, 85.888
1134.602, 5.585
1135.834, 49.195
1137.066, 67.230
1138.298, 20.051
1139.530, 29.447
1140.762, 46.262
1141.993, 3.908
1143.224, 87.598
1144.455, 21.302
1145.686, 104.208
1146.917, 77.722
1148.147, 48.425
1149.377, 46.974
1150.607, 60.052
1151.837, 50.842
1153.067, 51.784
1154.296, 54.660
1155.526, 38.769
1156.755, 84.811
1157.984, 25.451
1159.213, 10.798
1160.441, 48.708
1161.670, 42.768
1162.898, 0.514
1164.126, 16.585
1165.354, 64.885
1166.581, 82.398
1167.809, 22.754
1169.036, 15.106
1170.263, 23.030
1171.490, 18.765
1172.717, 93.098
1173.943, 4.714
1175.170, 65.720
1176.396, 69.104
1177.622, 13.295
1178.848, 59.486
1180.073, 96.960
1181.299, 73.234
1182.524, 79.323
1183.749, 26.664
1184.974, 88.456
1186.199, 73.290
1187.423, 84.371
1188.648, 21.351
1189.872, 53.521
1191.096, 62.592
1192.320, 128.555
1193.543, 25.846
1194.767, 104.474
1195.990, 110.601
1197.213, 1.215
1198.436, 100.979
1199.659, 49.864
1200.881, 65.339
1202.104, 108.889
1203.326, 0.889
1204.548, 73.254
1205.770, 83.446
1206.991, 40.040
1208.213, 99.077
1209.434, 70.763
1210.655, 19.758
1211.876, 127.563
1213.096, 57.109
1214.317, 137.060
1215.537, 85.528
1216.757, 62.104
1217.977, 168.334
1219.197, 88.135
1220.417, 103.977
1221.636, 120.031
1222.855, 50.363
1224.074, 98.963
1225.293, 95.205
1226.512, 30.130
1227.731, 90.731
1228.949, 19.838
1230.167, 43.529
1231.385, 142.285
1232.603, 91.997
1233.820, 204.758
1235.038, 150.805
1236.255, 66.348
1237.472, 166.931
1238.689, 69.510
1239.906, 69.906
1241.122, 112.263
1242.338, 34.610
1243.555, 57.916
1244.771, 139.281
1245.986, 54.284
1247.202, 100.139
1248.417, 40.639
1249.633, 80.284
1250.848, 117.482
1252.063, 54.103
1253.277, 66.652
1254.492, 118.696
1255.706, 68.227
1256.920, 144.433
1258.134, 87.164
1259.348, 43.198
1260.562, 142.005
1261.775, 114.869
1262.988, 53.838
1264.201, 116.620
1265.414, 85.892
1266.627, 102.952
1267.839, 86.761
1269.052, 86.655
1270.264, 85.515
1271.476, 92.272
1272.688, 94.537
1273.899, 113.223
1275.111, 23.321
1276.322, 113.911
1277.533, 115.234
1278.744, 50.125
1279.955, 143.077
1281.165, 254.062
1282.376, 89.380
1283.586, 86.581
1284.796, 8.531
1286.006, 100.871
1287.215, 33.928
1288.425, 13.340
1289.634, 71.055
1290.843, 65.819
1292.052, 72.245
1293.261, 123.324
1294.469, 2.102
1295.678, 17.606
1296.886, 96.360
1298.094, 49.042
1299.302, 109.970
1300.509, 161.665
1301.717, 15.192
1302.924, 78.920
1304.131, 46.270
1305.338, 53.345
1306.545, 1.010
1307.752, 1.869
1308.958, 8.447
1310.164, 87.570
1311.370, 40.865
1312.576, 105.238
1313.782, 3.735
1314.987, 10.780
1316.193, 106.264
1317.398, 0.432
1318.603, 26.585
1319.807, 108.333
1321.012, 38.700
1322.216, 65.268
1323.421, 37.917
1324.625, 23.278
1325.829, 24.532
1327.032, 42.279
1328.236, 35.017
1329.439, 98.518
1330.642, 87.200
1331.845, 73.784
1333.048, 85.570
1334.251, 22.331
1335.453, 55.038
1336.656, 51.403
1337.858, 20.007
1339.060, 76.389
1340.261, 28.804
1341.463, 106.207
1342.664, 47.103
1343.866, 51.387
1345.067, 100.417
1346.267, 78.477
1347.468, 20.682
1348.669, 134.377
1349.869, 8.359
1351.069, 58.345
1352.269, 154.111
1353.469, 26.070
1354.668, 139.872
1355.868, 25.949
1357.067, 27.917
1358.266, 145.555
1359.465, 46.495
1360.664, 20.176
1361.862, 100.724
1363.061, 14.673
1364.259, 136.259
1365.457, 105.881
1366.655, 29.538
1367.852, 163.873
1369.050, 1.751
1370.247, 33.558
1371.444, 135.548
1372.641, 35.739
1373.838, 56.573
1375.035, 92.453
1376.231, 44.073
1377.427, 77.892
1378.623, 41.994
1379.819, 13.011
1381.015, 105.136
1382.211, 112.893
1383.406, 92.633
1384.601, 152.542
1385.796, 113.176
1386.991, 92.608
1388.185, 176.208
1389.380, 26.187
1390.574, 179.488
1391.768, 100.743
1392.962, 29.527
1394.156, 144.866
1395.350, 39.234
1396.543, 64.461
1397.736, 183.637
1398.929, 56.899
1400.122, 83.455
1401.315, 274.374
1402.507, 66.945
1403.700, 149.812
1404.892, 93.034
1406.084, 102.433
1407.276, 195.921
1408.467, 36.658
1409.659, 69.722
1410.850, 161.069
1412.041, 10.927
1413.232, 136.905
1414.423, 183.929
1415.614, 35.882
1416.804, 157.505
1417.994, 179.656
1419.184, 16.356
1420.374, 179.602
1421.564, 22.479
1422.753, 27.831
1423.943, 142.245
1425.132, 89.404
1426.321, 128.009
1427.510, 202.760
1428.698, 42.087
1429.887, 111.363
1431.075, 120.572
1432.263, 52.283
1433.451, 204.651
1434.639, 48.215
1435.827, 94.361
1437.014, 226.595
1438.201, 12.885
1439.388, 140.972
1440.575, 208.064
1441.762, 59.200
1442.949, 169.503
1444.135, 162.144
1445.321, 114.683
1446.507, 256.511
1447.693, 109.388
1448.879, 69.161
1450.064, 161.498
1451.250, 58.107
1452.435, 143.113
1453.620, 243.232
1454.805, 101.931
1455.989, 168.852
1457.174, 179.643
1458.358, 84.311
1459.542, 208.326
1460.726, 146.329
1461.910, 116.542
1463.093, 251.464
1464.277, 89.120
1465.460, 236.355
1466.643, 240.058
1467.826, 2.178
1469.009, 245.591
1470.191, 190.746
1471.373, 83.630
1472.556, 206.983
1473.738, 132.492
1474.919, 212.387
1476.101, 207.873
1477.283, 129.585
1478.464, 133.197
1479.645, 243.359
1480.826, 27.237
1482.007, 200.628
1483.187, 116.910
1484.368, 129.953
1485.548, 222.996
1486.728, 172.385
1487.908, 96.614
1489.088, 251.670
1490.268, 77.524
