##NAMES=Sphalerite
##RRUFFID=R040136
##IDEAL CHEMISTRY=Zn^2+^S^2-^
##LOCALITY=Hilltop mine, Paradise, Cochise County, Arizona, USA
##OWNER=RRUFF
##SOURCE=University of Arizona Mineral Museum
##DESCRIPTION=Olive green fragments
##STATUS=The identification of this mineral has been confirmed by X-ray diffraction and chemical analysis
##URL=rruff.info/R040136
##MEASURED CHEMISTRY=Zn_0.98_S
##PIN_ID=L00334
##ORIENTATION=Laser parallel to -a* (-1 0 0). Fiducial mark perpendicular to laser is parallel to -b [0 -1 0]
83.124, 0.000
84.514, 32.329
85.904, 60.720
87.294, 2.187
88.683, 11.094
90.072, 7.354
91.461, 20.740
92.850, 25.444
94.239, 62.256
95.627, 29.428
97.015, 152.748
98.403, 103.932
99.791, 108.745
101.178, 149.994
102.566, 119.517
103.953, 147.179
105.340, 91.875
106.726, 149.578
108.113, 132.192
109.499, 191.613
110.885, 190.750
112.271, 185.533
113.656, 336.905
115.042, 401.826
116.427, 385.254
117.812, 363.151
119.197, 478.485
120.581, 399.226
121.966, 374.346
123.350, 426.823
124.734, 500.634
126.117, 610.761
127.501, 582.486
128.884, 661.939
130.267, 711.692
131.650, 849.590
133.033, 978.628
134.415, 1045.801
135.797, 1253.105
137.179, 1352.537
138.561, 1640.094
139.943, 1847.776
141.324, 2165.588
142.705, 2367.543
144.086, 2351.726
145.467, 2604.054
146.847, 2400.517
148.228, 2627.110
149.608, 2626.830
150.988, 2579.670
152.367, 2750.626
153.747, 2743.692
155.126, 2874.865
156.505, 2889.140
157.884, 2964.513
159.262, 2950.984
160.641, 2959.552
162.019, 3157.217
163.397, 3054.974
164.775, 3289.822
166.152, 3231.728
167.530, 3495.608
168.907, 3541.900
170.284, 3632.515
171.660, 3901.090
173.037, 4032.998
174.413, 4349.229
175.789, 4446.068
177.165, 4821.615
178.541, 5041.211
179.916, 5099.857
181.292, 5185.559
182.667, 4683.312
184.042, 4549.121
185.416, 4040.988
186.791, 3747.907
188.165, 3689.885
189.539, 3372.917
190.912, 3431.004
192.286, 3165.147
193.659, 3259.343
195.033, 3123.614
196.406, 3105.054
197.778, 3041.663
199.151, 2847.462
200.523, 2932.425
201.895, 2785.521
203.267, 2888.781
204.639, 2849.446
206.010, 2885.811
207.381, 3186.225
208.753, 3215.716
210.123, 3708.260
211.494, 3801.844
212.864, 4411.456
214.235, 4866.093
215.605, 5537.753
216.974, 6328.434
218.344, 6401.137
219.713, 6816.860
221.083, 6341.603
222.452, 5968.361
223.820, 5320.141
225.189, 4630.936
226.557, 4321.750
227.925, 3694.581
229.293, 3548.434
230.661, 3332.319
232.029, 3153.253
233.396, 3055.231
234.763, 3057.275
236.130, 3179.387
237.496, 2945.560
238.863, 2735.666
240.229, 2552.014
241.595, 1975.275
242.961, 1454.547
244.327, 902.828
245.692, 714.117
247.057, 483.413
248.422, 394.837
249.787, 295.322
251.152, 92.838
252.516, 79.122
253.880, 17.104
255.244, 18.087
256.608, 89.902
257.972, 87.219
259.335, 97.761
260.698, 109.188
262.061, 67.512
263.424, 97.736
264.786, 33.870
266.149, 40.915
267.511, 55.123
268.873, 200.242
270.234, 343.438
271.596, 606.705
272.957, 800.038
274.318, 940.435
275.679, 992.890
277.040, 898.402
278.400, 705.967
279.760, 578.583
281.120, 517.247
282.480, 316.956
283.840, 339.709
285.199, 306.504
286.558, 222.339
287.917, 240.211
289.276, 262.119
290.635, 318.062
291.993, 311.037
293.351, 517.041
294.709, 742.070
296.067, 945.126
297.425, 1345.207
298.782, 1770.312
300.139, 2133.442
301.496, 2210.594
302.853, 2016.812
304.209, 1784.567
305.566, 1353.424
306.922, 1165.049
308.278, 991.369
309.633, 915.180
310.989, 732.018
312.344, 668.606
313.699, 514.615
315.054, 388.006
316.409, 251.303
317.763, 105.068
319.118, 23.337
320.472, 14.878
321.826, 54.878
323.179, 9.398
324.533, 84.420
325.886, 250.130
327.239, 510.298
328.592, 861.079
329.944, 1349.258
331.297, 1566.133
332.649, 1988.209
334.001, 2145.744
335.353, 2082.651
336.704, 2115.510
338.056, 2034.271
339.407, 2235.846
340.758, 2391.398
342.109, 3045.903
343.459, 4106.471
344.810, 6086.914
346.160, 10004.427
347.510, 17228.910
348.860, 30083.311
350.209, 41657.863
351.559, 43502.266
352.908, 33206.680
354.257, 19761.098
355.605, 12815.520
356.954, 8369.943
358.302, 6438.373
359.650, 5268.805
360.998, 4415.238
362.346, 4137.672
363.694, 3696.106
365.041, 3664.539
366.388, 3405.955
367.735, 3464.366
369.082, 3443.777
370.428, 3181.335
371.774, 3384.960
373.121, 3205.942
374.466, 3319.147
375.812, 3235.559
377.158, 3185.775
378.503, 3357.600
379.848, 3203.010
381.193, 3341.886
382.537, 3245.608
383.882, 3324.230
385.226, 3309.172
386.570, 3238.284
387.914, 3465.894
389.258, 3410.507
390.601, 3592.383
391.944, 3664.018
393.287, 3758.791
394.630, 3893.929
395.973, 3901.965
397.315, 4069.609
398.658, 3984.177
400.000, 3999.694
401.342, 3809.174
402.683, 3450.614
404.025, 3385.089
405.366, 3056.532
406.707, 2981.986
408.048, 2727.193
409.388, 2566.587
410.729, 2598.787
412.069, 2406.989
413.409, 2510.194
414.749, 2523.402
416.088, 2722.384
417.428, 2962.349
418.767, 3103.269
420.106, 3390.302
421.445, 3365.934
422.783, 3426.128
424.122, 3308.817
425.460, 3199.427
426.798, 3308.054
428.136, 3029.496
429.473, 3060.678
430.811, 2852.854
432.148, 2640.024
433.485, 2579.186
434.821, 2218.343
436.158, 2179.491
437.494, 1905.635
438.831, 1896.772
440.167, 1884.901
441.502, 1860.021
442.838, 1967.133
444.173, 1980.234
445.508, 2038.327
446.843, 2118.408
448.178, 2105.480
449.513, 2230.541
450.847, 2119.590
452.181, 2181.631
453.515, 2035.660
454.849, 1524.678
456.183, 1211.683
457.516, 694.677
458.849, 408.657
460.182, 233.625
461.515, 84.586
462.847, 59.533
464.180, 15.467
465.512, 3.620
466.844, 62.737
468.176, 72.912
469.507, 16.155
470.839, 95.435
472.170, 58.795
473.501, 62.217
474.831, 72.701
476.162, 4.256
477.492, 58.840
478.822, 18.487
480.152, 10.177
481.482, 29.298
482.812, 21.898
484.141, 26.993
485.470, 8.848
486.799, 0.260
488.128, 37.341
489.457, 22.402
490.785, 25.561
492.113, 27.429
493.441, 14.396
494.769, 6.339
496.096, 35.250
497.424, 40.143
498.751, 58.016
500.078, 66.139
501.405, 80.704
502.731, 68.521
504.058, 101.319
505.384, 87.102
506.710, 96.866
508.035, 161.615
509.361, 87.346
510.686, 171.058
512.012, 249.757
513.337, 227.438
514.661, 280.100
515.986, 284.745
517.310, 331.371
518.634, 375.980
519.958, 337.570
521.282, 387.141
522.606, 278.695
523.929, 281.229
525.252, 245.755
526.575, 214.262
527.898, 193.750
529.221, 102.221
530.543, 86.671
531.865, 50.106
533.187, 39.518
534.509, 31.902
535.831, 6.742
537.152, 62.569
538.473, 32.857
539.794, 16.884
541.115, 23.325
542.436, 44.499
543.756, 17.613
545.076, 20.302
546.396, 3.730
547.716, 3.722
549.036, 19.675
550.355, 26.593
551.674, 22.481
552.994, 45.335
554.312, 50.163
555.631, 79.963
556.949, 88.722
558.268, 98.182
559.586, 105.225
560.904, 112.935
562.221, 102.623
563.539, 108.290
564.856, 103.934
566.173, 168.555
567.490, 114.156
568.807, 164.735
570.123, 210.293
571.439, 199.893
572.755, 250.410
574.071, 195.945
575.387, 254.569
576.702, 266.026
578.018, 257.618
579.333, 286.139
580.648, 333.567
581.962, 405.219
583.277, 340.774
584.591, 339.300
585.905, 413.762
587.219, 396.245
588.533, 464.683
589.846, 511.034
591.160, 541.460
592.473, 558.888
593.786, 554.250
595.099, 685.677
596.411, 669.040
597.723, 766.516
599.036, 887.999
600.348, 896.385
601.659, 1096.696
602.971, 1183.965
604.282, 1298.164
605.593, 1503.444
606.904, 1550.594
608.215, 1752.875
609.526, 1794.561
610.836, 1846.638
612.146, 1931.800
613.456, 1905.791
614.766, 2122.971
616.076, 2077.006
617.385, 2087.971
618.694, 2037.247
620.003, 1593.172
621.312, 1300.158
622.621, 977.510
623.929, 847.704
625.237, 751.700
626.546, 650.522
627.853, 688.940
629.161, 648.216
630.468, 751.736
631.776, 842.963
633.083, 972.501
634.390, 1147.083
635.696, 1299.313
637.003, 1480.213
638.309, 1696.843
639.615, 1650.889
640.921, 1642.566
642.227, 1515.840
643.532, 1420.081
644.838, 1157.439
646.143, 830.687
647.448, 659.575
648.752, 489.653
650.057, 461.604
651.361, 475.759
652.666, 538.735
653.969, 617.569
655.273, 726.458
656.577, 887.524
657.880, 1035.931
659.183, 1242.131
660.486, 1559.315
661.789, 1748.083
663.092, 2209.369
664.394, 2650.143
665.696, 3223.500
666.998, 3866.652
668.300, 4252.856
669.602, 4331.071
670.903, 4679.318
672.205, 4042.511
673.506, 3669.704
674.806, 3161.988
676.107, 2871.113
677.408, 2711.341
678.708, 2448.481
680.008, 2415.521
681.308, 2217.042
682.608, 2193.090
683.907, 2027.116
685.206, 1985.457
686.506, 2015.256
687.804, 1799.413
689.103, 1858.891
690.402, 1785.089
691.700, 1612.967
692.998, 1672.083
694.296, 1528.641
695.594, 1414.493
696.892, 1319.869
698.189, 1094.426
699.486, 938.906
700.783, 771.911
702.080, 621.026
703.377, 461.611
704.673, 396.266
705.969, 322.416
707.265, 290.021
708.561, 290.357
709.857, 278.231
711.152, 192.131
712.447, 236.353
713.743, 173.732
715.037, 195.142
716.332, 226.621
717.627, 121.105
718.921, 187.551
720.215, 133.900
721.509, 112.191
722.803, 131.659
724.096, 93.917
725.390, 127.359
726.683, 74.797
727.976, 103.291
729.269, 79.697
730.561, 53.179
731.854, 121.553
733.146, 52.914
734.438, 67.884
735.730, 108.218
737.021, 31.640
738.313, 50.946
739.604, 55.302
740.895, 65.733
742.186, 55.998
743.476, 61.381
744.767, 76.623
746.057, 52.847
747.347, 47.496
748.637, 57.694
749.927, 12.122
751.216, 46.039
752.506, 13.187
753.795, 9.340
755.084, 23.459
756.373, 35.563
757.661, 39.750
758.950, 50.828
760.238, 25.893
761.526, 50.945
762.814, 13.984
764.101, 5.957
765.389, 51.050
766.676, 25.097
767.963, 60.078
769.250, 9.048
770.536, 38.111
771.823, 49.056
773.109, 19.012
774.395, 47.058
775.681, 15.955
776.967, 38.839
778.252, 51.715
779.538, 7.413
780.823, 27.466
782.108, 5.360
783.393, 31.260
784.677, 31.174
785.962, 37.100
787.246, 32.038
788.530, 13.005
789.814, 50.943
791.097, 6.917
792.381, 38.120
793.664, 31.901
794.947, 2.995
796.230, 15.944
797.513, 46.934
798.795, 25.110
800.077, 22.873
801.359, 10.805
802.641, 34.729
803.923, 13.661
805.205, 13.418
806.486, 27.491
807.767, 11.576
809.048, 8.316
810.329, 60.234
811.610, 2.889
812.890, 39.977
814.170, 25.836
815.450, 9.316
816.730, 8.520
818.010, 10.651
819.289, 13.185
820.569, 24.086
821.848, 17.124
823.126, 30.647
824.405, 25.409
825.684, 30.162
826.962, 25.906
828.240, 0.641
829.518, 33.382
830.796, 4.167
832.074, 20.904
833.351, 40.724
834.628, 41.580
835.905, 30.087
837.182, 30.880
838.459, 6.469
839.735, 40.256
841.011, 25.103
842.287, 5.518
843.563, 14.230
844.839, 35.839
846.115, 20.448
847.390, 3.060
848.665, 26.666
849.940, 23.344
851.215, 11.954
852.489, 48.568
853.764, 31.802
855.038, 7.812
856.312, 10.435
857.586, 1.941
858.859, 39.685
860.133, 2.619
861.406, 9.003
862.679, 26.641
863.952, 39.258
865.225, 51.873
866.497, 25.483
867.770, 24.088
869.042, 10.687
870.314, 12.912
871.585, 7.893
872.857, 32.491
874.128, 38.066
875.400, 61.635
876.671, 53.776
877.942, 49.884
879.212, 45.437
880.483, 28.992
881.753, 46.531
883.023, 25.032
884.293, 53.416
885.563, 59.944
886.832, 11.654
888.101, 82.772
889.371, 22.389
890.640, 51.701
891.908, 31.044
893.177, 9.457
894.445, 48.855
895.714, 14.209
896.982, 44.582
898.250, 53.014
899.517, 7.545
900.785, 91.755
902.052, 62.094
903.319, 44.341
904.586, 83.625
905.853, 38.886
907.119, 65.996
908.386, 80.176
909.652, 20.524
910.918, 76.766
912.184, 57.052
913.449, 81.285
914.715, 86.566
915.980, 34.690
917.245, 103.385
918.510, 29.658
919.775, 97.852
921.039, 89.161
922.303, 16.255
923.568, 93.561
924.831, 58.817
926.095, 1.742
927.359, 42.985
928.622, 44.096
929.885, 76.301
931.148, 88.558
932.411, 51.279
933.674, 118.432
934.936, 37.489
936.199, 79.654
937.461, 94.815
938.723, 47.999
939.984, 120.863
941.246, 46.222
942.507, 35.533
943.769, 92.579
945.030, 17.367
946.290, 1.667
947.551, 65.739
948.811, 27.810
950.072, 134.563
951.332, 25.170
952.592, 64.379
953.851, 58.423
955.111, 34.556
956.370, 79.612
957.629, 69.953
958.888, 28.046
960.147, 78.617
961.406, 25.664
962.664, 58.296
963.922, 84.192
965.180, 33.365
966.438, 109.464
967.696, 33.066
968.953, 32.107
970.211, 26.630
971.468, 8.640
972.725, 58.728
973.982, 59.847
975.238, 58.921
976.495, 58.116
977.751, 46.626
979.007, 53.392
980.263, 28.324
981.518, 15.395
982.774, 28.283
984.029, 6.295
985.284, 51.425
986.539, 36.143
987.794, 0.189
989.048, 92.756
990.303, 11.488
991.557, 29.562
992.811, 101.263
994.065, 9.186
995.318, 68.237
996.572, 70.818
997.825, 39.796
999.078, 105.877
1000.331, 14.927
1001.584, 58.908
1002.836, 87.423
1004.089, 49.504
1005.341, 67.897
1006.593, 48.931
1007.845, 42.864
1009.096, 54.704
1010.348, 15.736
1011.599, 83.529
1012.850, 28.590
1014.101, 53.560
1015.352, 46.064
1016.602, 41.206
1017.853, 62.179
1019.103, 38.586
1020.353, 27.589
1021.603, 84.499
1022.852, 29.569
1024.102, 61.553
1025.351, 52.692
1026.600, 3.886
1027.849, 56.929
1029.098, 35.102
1030.346, 17.126
1031.595, 68.086
1032.843, 46.549
1034.091, 64.485
1035.339, 70.533
1036.586, 29.588
1037.834, 68.983
1039.081, 9.161
1040.328, 25.068
1041.575, 70.072
1042.822, 23.437
1044.068, 108.280
1045.314, 54.373
1046.561, 38.459
1047.807, 106.438
1049.052, 10.718
1050.298, 63.256
1051.544, 56.229
1052.789, 39.276
1054.034, 70.248
1055.279, 9.227
1056.523, 70.181
1057.768, 98.152
1059.012, 9.225
1060.257, 79.094
1061.501, 50.107
1062.744, 25.070
1063.988, 94.022
1065.231, 46.130
1066.475, 38.067
1067.718, 63.010
1068.961, 32.586
1070.203, 43.522
1071.446, 52.635
1072.688, 17.555
1073.931, 96.478
1075.173, 38.398
1076.414, 66.304
1077.656, 89.221
1078.898, 45.425
1080.139, 68.341
1081.380, 31.322
1082.621, 66.392
1083.862, 91.297
1085.102, 48.323
1086.343, 60.272
1087.583, 71.164
1088.823, 12.874
1090.063, 72.078
1091.302, 23.954
1092.542, 64.125
1093.781, 104.993
1095.020, 5.858
1096.259, 30.731
1097.498, 50.595
1098.737, 9.417
1099.975, 92.433
1101.213, 15.242
1102.451, 42.260
1103.689, 55.102
1104.927, 40.937
1106.164, 89.988
1107.402, 70.820
1108.639, 17.693
1109.876, 35.528
1111.113, 5.686
1112.349, 73.177
1113.586, 38.984
1114.822, 41.973
1116.058, 84.016
1117.294, 37.807
1118.530, 52.661
1119.765, 65.420
1121.001, 40.167
1122.236, 70.108
1123.471, 65.891
1124.706, 14.660
1125.940, 45.496
1127.175, 15.253
1128.409, 71.004
1129.643, 97.734
1130.877, 29.596
1132.111, 92.233
1133.344, 41.832
1134.578, 20.542
1135.811, 50.252
1137.044, 6.178
1138.277, 45.621
1139.510, 80.362
1140.742, 30.964
1141.974, 75.855
1143.206, 30.418
1144.438, 5.927
1145.670, 80.837
1146.902, 10.479
1148.133, 41.206
1149.365, 61.894
1150.596, 22.483
1151.827, 56.327
1153.057, 11.175
1154.288, 23.772
1155.518, 51.082
1156.748, 49.885
1157.978, 76.580
1159.208, 72.381
1160.438, 16.951
1161.667, 79.205
1162.897, 3.494
1164.126, 39.088
1165.355, 64.170
1166.583, 1.304
1167.812, 37.210
1169.040, 94.123
1170.269, 17.623
1171.497, 67.199
1172.725, 31.759
1173.952, 28.235
1175.180, 81.705
1176.407, 31.279
1177.634, 79.731
1178.861, 84.430
1180.088, 15.133
1181.315, 101.284
1182.541, 60.968
1183.767, 58.371
1184.994, 109.762
1186.220, 27.304
1187.445, 89.576
1188.671, 110.090
1189.896, 1.457
1191.121, 82.843
1192.346, 43.465
1193.571, 12.812
1194.796, 103.240
1196.021, 5.021
1197.245, 97.241
1198.469, 76.760
1199.693, 50.666
1200.917, 88.982
1202.140, 89.058
1203.364, 78.242
1204.587, 112.537
1205.810, 47.262
1207.033, 80.426
1208.256, 59.813
1209.479, 71.158
1210.701, 117.368
1211.923, 34.794
1213.145, 67.045
1214.367, 84.289
1215.589, 0.101
1216.810, 76.100
1218.032, 30.378
1219.253, 50.773
1220.474, 90.890
1221.695, 74.269
1222.915, 39.479
1224.136, 110.670
1225.356, 13.731
1226.576, 86.895
1227.796, 60.053
1229.016, 38.184
1230.235, 134.327
1231.455, 45.463
1232.674, 64.719
1233.893, 78.843
1235.112, 60.057
1236.331, 59.464
1237.549, 110.567
1238.767, 11.892
1239.986, 112.981
1241.204, 61.062
1242.421, 42.071
1243.639, 110.087
1244.857, 39.147
1246.074, 109.641
1247.291, 97.680
1248.508, 37.684
1249.725, 93.689
1250.941, 87.671
1252.158, 26.782
1253.374, 157.747
1254.590, 61.696
1255.806, 76.689
1257.022, 92.582
1258.237, 19.849
1259.453, 98.121
1260.668, 33.969
1261.883, 21.831
1263.098, 128.698
1264.312, 62.510
1265.527, 99.490
1266.741, 63.328
1267.955, 40.114
1269.169, 78.003
1270.383, 116.784
1271.597, 62.426
1272.810, 128.167
1274.024, 94.771
1275.237, 82.605
1276.450, 99.334
1277.662, 46.109
1278.875, 122.905
1280.087, 77.566
1281.300, 89.106
1282.512, 149.760
1283.724, 52.884
1284.935, 45.496
1286.147, 121.125
1287.358, 39.664
1288.569, 76.345
1289.780, 113.843
1290.991, 46.887
1292.202, 120.665
1293.412, 55.044
1294.623, 44.538
1295.833, 137.213
1297.043, 26.150
1298.253, 18.661
1299.462, 112.978
1300.672, 0.664
1301.881, 22.791
1303.090, 47.229
1304.299, 12.679
1305.508, 74.118
1306.716, 0.617
1307.925, 1.203
1309.133, 64.717
1310.341, 45.966
1311.549, 77.404
1312.757, 81.320
1313.964, 4.536
1315.172, 79.842
1316.379, 49.949
1317.586, 6.769
1318.793, 91.369
1320.000, 43.483
1321.206, 46.732
1322.412, 85.934
1323.619, 26.834
1324.825, 80.380
1326.030, 75.158
1327.236, 14.366
1328.442, 92.574
1329.647, 66.739
1330.852, 35.941
1332.057, 142.494
1333.262, 28.709
1334.466, 110.419
1335.671, 52.881
1336.875, 15.427
1338.079, 73.988
1339.283, 51.842
1340.487, 3.602
1341.690, 113.407
1342.894, 27.092
1344.097, 0.819
1345.300, 78.585
1346.503, 33.855
1347.706, 114.137
1348.908, 90.667
1350.111, 4.276
1351.313, 135.816
1352.515, 47.179
1353.717, 55.764
1354.918, 129.230
1356.120, 33.654
1357.321, 85.197
1358.523, 114.733
1359.724, 7.968
1360.924, 100.297
1362.125, 60.681
1363.326, 31.262
1364.526, 149.619
1365.726, 31.901
1366.926, 69.355
1368.126, 120.879
1369.325, 20.297
1370.525, 122.615
1371.724, 105.999
1372.923, 67.374
1374.122, 168.594
1375.321, 92.941
1376.520, 42.383
1377.718, 116.816
1378.916, 49.071
1380.114, 101.508
1381.312, 161.793
1382.510, 13.026
1383.708, 144.249
1384.905, 122.516
1386.102, 51.811
1387.299, 130.030
1388.496, 87.744
1389.693, 72.013
1390.889, 124.881
1392.086, 50.784
1393.282, 82.712
1394.478, 128.918
1395.674, 30.213
1396.870, 169.750
1398.065, 88.926
1399.261, 24.954
1400.456, 161.002
1401.651, 43.879
1402.846, 42.566
1404.040, 187.722
1405.235, 58.617
1406.429, 111.439
1407.623, 135.903
1408.817, 29.873
1410.011, 124.057
1411.205, 93.470
1412.398, 31.436
1413.592, 151.346
1414.785, 50.239
1415.978, 77.653
1417.171, 139.064
1418.363, 31.834
1419.556, 86.665
1420.748, 129.772
1421.940, 31.971
1423.132, 98.526
1424.324, 84.089
1425.515, 57.520
1426.707, 130.968
1427.898, 61.005
1429.089, 70.058
1430.280, 155.417
1431.471, 27.627
1432.662, 111.496
1433.852, 81.599
1435.042, 19.635
1436.232, 142.528
1437.422, 150.186
1438.612, 9.767
1439.802, 183.677
1440.991, 112.570
1442.180, 90.662
1443.369, 195.209
1444.558, 55.281
1445.747, 94.099
1446.936, 220.261
1448.124, 54.030
1449.312, 149.235
1450.500, 88.964
1451.688, 95.344
1452.876, 209.723
1454.063, 102.151
1455.251, 115.131
1456.438, 215.386
1457.625, 76.455
1458.812, 156.478
1459.999, 203.528
1461.185, 47.602
1462.372, 222.679
1463.558, 172.756
1464.744, 14.822
1465.930, 188.791
1467.115, 147.165
1468.301, 111.183
1469.486, 187.514
1470.672, 38.212
1471.857, 200.972
1473.041, 137.399
1474.226, 0.843
1475.411, 213.972
1476.595, 0.000
##END=



