##NAMES=Sphalerite
##RRUFFID=R050005
##IDEAL CHEMISTRY=Zn^2+^S^2-^
##LOCALITY=Taolin mine, Yueyang, Linxing, Hunan Province, China
##OWNER=RRUFF
##SOURCE=Eugene Schlepp
##DESCRIPTION=Reddish brown crystals
##STATUS=The identification of this mineral has been confirmed by X-ray diffraction and chemical analysis
##URL=rruff.info/R050005
##MEASURED CHEMISTRY=(Zn_.997_Fe_.003_)S
##PIN_ID=L00184
##ORIENTATION=Laser parallel to -a* (-1 0 0). Fiducial mark perpendicular to laser is parallel to -b [0 -1 0]
85.064, 0.000
86.461, 8.852
87.858, 48.020
89.254, 2.224
90.650, 38.063
92.046, 22.797
93.442, 108.169
94.838, 184.329
96.233, 96.981
97.628, 134.007
99.023, 39.159
100.418, 74.140
101.812, 27.330
103.206, 26.482
104.600, 38.488
105.994, 7.436
107.387, 57.605
108.781, 34.152
110.174, 296.781
111.566, 293.256
112.959, 497.399
114.351, 417.081
115.744, 373.204
117.136, 400.696
118.527, 236.503
119.919, 350.576
121.310, 287.878
122.701, 359.376
124.092, 433.043
125.482, 418.858
126.873, 599.249
128.263, 649.217
129.653, 820.315
131.042, 955.569
132.432, 1210.363
133.821, 1268.744
135.210, 1570.754
136.599, 1908.430
137.987, 2201.805
139.376, 2675.909
140.764, 2694.774
142.152, 2963.443
143.539, 2939.947
144.927, 3066.315
146.314, 3193.566
147.701, 3159.714
149.088, 3380.770
150.474, 3305.738
151.861, 3527.629
153.247, 3526.440
154.633, 3554.179
156.018, 3739.842
157.404, 3703.438
158.789, 3994.965
160.174, 3816.431
161.559, 4205.843
162.943, 4291.206
164.327, 4306.522
165.711, 4741.789
167.095, 4568.658
168.479, 5296.179
169.862, 5127.591
171.246, 5717.410
172.628, 5918.167
174.011, 6387.834
175.394, 6870.557
176.776, 6822.378
178.158, 7184.250
179.540, 6716.183
180.922, 6428.182
182.303, 5790.243
183.684, 5422.366
185.065, 5314.547
186.446, 4816.788
187.826, 4829.082
189.207, 4366.430
190.587, 4335.830
191.967, 4364.280
193.346, 4050.806
194.726, 4206.473
196.105, 3783.390
197.484, 3930.523
198.862, 3687.861
200.241, 3693.381
201.619, 3774.062
202.997, 3760.889
204.375, 4125.794
205.753, 4061.788
207.130, 4673.858
208.507, 4987.978
209.884, 5742.133
211.261, 6596.314
212.638, 7170.509
214.014, 8334.714
215.390, 8698.905
216.766, 9263.076
218.141, 8807.222
219.517, 8251.339
220.892, 7635.420
222.267, 6599.463
223.642, 6193.469
225.016, 5447.439
226.391, 5011.376
227.765, 4725.291
229.139, 4275.189
230.512, 4349.079
231.886, 4192.969
233.259, 4268.921
234.632, 4024.901
236.005, 3815.905
237.377, 3495.929
238.749, 2670.954
240.122, 2017.975
241.493, 1373.972
242.865, 957.938
244.237, 646.871
245.608, 355.771
246.979, 256.632
248.350, 39.453
249.720, 66.223
251.090, 133.207
252.461, 51.572
253.830, 173.908
255.200, 203.960
256.570, 185.068
257.939, 267.133
259.308, 144.245
260.677, 243.359
262.045, 1.458
263.414, 104.508
264.782, 322.541
266.150, 658.633
267.517, 986.070
268.885, 1658.655
270.252, 1885.883
271.619, 2326.146
272.986, 2487.437
274.353, 2133.749
275.719, 2133.076
277.085, 1685.416
278.451, 1667.764
279.817, 1380.117
281.182, 1268.474
282.548, 1202.831
283.913, 1011.187
285.278, 1296.539
286.642, 1113.888
288.007, 1515.232
289.371, 1559.568
290.735, 1951.898
292.099, 2468.217
293.462, 2798.514
294.826, 3864.773
296.189, 4357.997
297.552, 5427.843
298.914, 5828.338
300.277, 5425.957
301.639, 5401.407
303.001, 4446.193
304.363, 4255.625
305.724, 3651.106
307.086, 3338.071
308.447, 3183.795
309.808, 2613.586
311.168, 2713.646
312.529, 2064.340
313.889, 1849.878
315.249, 1457.940
316.609, 961.462
317.969, 1023.669
319.328, 660.859
320.687, 922.226
322.046, 915.498
323.405, 1483.751
324.764, 2222.521
326.122, 3013.204
327.480, 4400.041
328.838, 5145.488
330.196, 6952.859
331.553, 7768.822
332.910, 8473.426
334.267, 9149.077
335.624, 8373.669
336.981, 8887.452
338.337, 7963.644
339.693, 8197.254
341.049, 8391.256
342.405, 9144.668
343.760, 12397.935
345.116, 18481.057
346.471, 29603.926
347.826, 39876.867
349.180, 41849.445
350.535, 34732.055
351.889, 22524.520
353.243, 15226.638
354.597, 10548.729
355.950, 8330.798
357.304, 7062.838
358.657, 6010.856
360.010, 6205.846
361.362, 5665.810
362.715, 6206.741
364.067, 6204.980
365.419, 6166.331
366.771, 6101.934
368.123, 5278.854
369.474, 5464.385
370.825, 5108.765
372.176, 5299.824
373.527, 5212.056
374.877, 4997.075
376.228, 5234.252
377.578, 4794.514
378.928, 5255.125
380.277, 5086.496
381.627, 5181.825
382.976, 5441.579
384.325, 5103.750
385.674, 5402.922
387.023, 5184.069
388.371, 5294.587
389.719, 5472.957
391.067, 5344.260
392.415, 5777.866
393.762, 5600.323
395.110, 5913.497
396.457, 5846.342
397.804, 5696.647
399.150, 5783.204
400.497, 5119.163
401.843, 5158.012
403.189, 4596.310
404.535, 4450.926
405.881, 4311.124
407.226, 3943.551
408.571, 4048.410
409.916, 3769.073
411.261, 3940.276
412.605, 4056.199
413.950, 4073.994
415.294, 4592.855
416.638, 4725.991
417.981, 5149.210
419.325, 5113.567
420.668, 5080.722
422.011, 5094.541
423.354, 4695.093
424.697, 4818.779
426.039, 4593.405
427.381, 4407.504
428.723, 4395.563
430.065, 3878.583
431.406, 3865.564
432.748, 3308.503
434.089, 3173.398
435.430, 2995.250
436.770, 2843.059
438.111, 2931.823
439.451, 2730.544
440.791, 2996.220
442.131, 2942.852
443.471, 3003.439
444.810, 3219.982
446.149, 3064.480
447.488, 3349.932
448.827, 3109.341
450.166, 3043.703
451.504, 2699.020
452.842, 2040.292
454.180, 1609.517
455.518, 837.697
456.855, 634.832
458.193, 263.920
459.530, 116.957
460.867, 97.936
462.203, 29.144
463.540, 15.682
464.876, 109.562
466.212, 94.943
467.548, 39.454
468.883, 68.063
470.219, 53.788
471.554, 58.682
472.889, 37.560
474.224, 67.600
475.558, 44.750
476.892, 5.002
478.227, 80.335
479.561, 21.210
480.894, 13.687
482.228, 19.903
483.561, 14.418
484.894, 29.331
486.227, 35.833
487.559, 16.067
488.892, 45.949
490.224, 48.903
491.556, 14.793
492.888, 111.621
494.220, 13.389
495.551, 58.095
496.882, 119.741
498.213, 10.668
499.544, 113.854
500.874, 64.322
502.205, 145.732
503.535, 175.090
504.865, 203.397
506.194, 258.654
507.524, 236.862
508.853, 315.020
510.182, 302.131
511.511, 331.195
512.840, 452.214
514.168, 421.190
515.496, 557.130
516.824, 514.026
518.152, 510.879
519.480, 535.688
520.807, 439.453
522.134, 457.173
523.461, 320.854
524.788, 286.487
526.114, 217.083
527.441, 132.629
528.767, 217.130
530.093, 53.591
531.418, 86.994
532.744, 61.353
534.069, 4.656
535.394, 57.893
536.719, 96.911
538.044, 15.165
539.368, 4.814
540.693, 52.859
542.017, 82.001
543.340, 52.190
544.664, 27.526
545.987, 21.818
547.311, 3.760
548.634, 110.274
549.956, 11.264
551.279, 61.126
552.601, 73.460
553.923, 115.753
555.245, 183.996
556.567, 74.196
557.889, 231.343
559.210, 124.442
560.531, 139.491
561.852, 260.489
563.173, 173.442
564.493, 262.344
565.813, 196.199
567.133, 321.007
568.453, 356.771
569.773, 259.495
571.092, 409.177
572.412, 360.820
573.731, 435.469
575.049, 434.103
576.368, 483.752
577.686, 556.425
579.005, 466.116
580.323, 602.848
581.640, 613.589
582.958, 599.363
584.275, 762.109
585.593, 685.814
586.909, 825.668
588.226, 803.291
589.543, 874.051
590.859, 1095.591
592.175, 1025.089
593.491, 1237.797
594.807, 1254.213
596.122, 1353.666
597.438, 1602.267
598.753, 1534.559
600.068, 1921.077
601.382, 1914.288
602.697, 2086.874
604.011, 2464.173
605.325, 2398.469
606.639, 2829.934
607.952, 2792.942
609.266, 2938.340
610.579, 3157.464
611.892, 3035.419
613.205, 3414.965
614.518, 3154.773
615.830, 3210.791
617.142, 3010.223
618.454, 2473.798
619.766, 2248.303
621.078, 1806.802
622.389, 1703.034
623.700, 1705.581
625.011, 1562.802
626.322, 1715.731
627.632, 1684.664
628.943, 1879.491
630.253, 2059.204
631.563, 2098.792
632.872, 2567.644
634.182, 2648.962
635.491, 3022.655
636.800, 3077.729
638.109, 2973.654
639.418, 3230.398
640.726, 2757.056
642.035, 2593.772
643.343, 2270.609
644.651, 1808.733
645.958, 1803.412
647.266, 1450.945
648.573, 1491.131
649.880, 1506.152
651.187, 1545.781
652.494, 1810.652
653.800, 1874.965
655.106, 2160.574
656.412, 2461.707
657.718, 2686.465
659.024, 3398.759
660.329, 3641.568
661.634, 4643.348
662.939, 5275.603
664.244, 5720.643
665.549, 6994.632
666.853, 7117.070
668.157, 7636.157
669.461, 7354.958
670.765, 6515.560
672.069, 6355.930
673.372, 5415.635
674.675, 5306.109
675.978, 4851.731
677.281, 4373.051
678.583, 4555.418
679.886, 3982.743
681.188, 4070.615
682.490, 3761.038
683.792, 3575.540
685.093, 3710.678
686.394, 3186.395
687.696, 3410.951
688.997, 3246.572
690.297, 2929.331
691.598, 3124.372
692.898, 2723.441
694.198, 2590.703
695.498, 2394.161
696.798, 2054.662
698.097, 1955.805
699.397, 1479.527
700.696, 1460.860
701.995, 1227.115
703.293, 1046.395
704.592, 1011.143
705.890, 704.011
707.188, 760.852
708.486, 704.383
709.784, 587.912
711.081, 648.831
712.378, 474.642
713.675, 586.238
714.972, 554.380
716.269, 405.533
717.565, 553.183
718.862, 360.536
720.158, 444.343
721.453, 367.402
722.749, 310.450
724.045, 364.982
725.340, 254.027
726.635, 374.198
727.930, 271.714
729.224, 230.690
730.519, 334.088
731.813, 193.586
733.107, 241.929
734.401, 229.253
735.694, 171.808
736.988, 243.094
738.281, 174.362
739.574, 186.622
740.867, 180.851
742.160, 102.273
743.452, 172.463
744.744, 102.634
746.036, 157.799
747.328, 143.933
748.620, 82.047
749.911, 183.247
751.202, 121.323
752.493, 75.462
753.784, 160.500
755.075, 73.528
756.365, 149.529
757.655, 35.514
758.945, 93.479
760.235, 83.425
761.525, 32.353
762.814, 138.261
764.103, 27.153
765.392, 82.025
766.681, 111.880
767.969, 6.283
769.258, 151.533
770.546, 65.333
771.834, 37.116
773.122, 68.884
774.409, 36.640
775.697, 61.385
776.984, 27.137
778.271, 18.884
779.558, 67.658
780.844, 5.457
782.131, 45.265
783.417, 38.091
784.703, 2.069
785.989, 85.784
787.274, 21.352
788.560, 30.521
789.845, 53.406
791.130, 22.292
792.415, 46.200
793.699, 21.896
794.983, 58.994
796.268, 33.891
797.552, 35.215
798.835, 41.671
800.119, 15.447
801.402, 3.568
802.686, 55.302
803.969, 28.834
805.251, 77.014
806.534, 27.145
807.816, 29.681
809.098, 79.500
810.380, 38.688
811.662, 20.110
812.944, 25.899
814.225, 31.681
815.506, 61.455
816.787, 2.773
818.068, 69.986
819.349, 53.736
820.629, 18.476
821.909, 83.204
823.189, 6.078
824.469, 53.625
825.749, 32.684
827.028, 14.979
828.307, 63.629
829.586, 21.267
830.865, 86.894
832.144, 68.510
833.422, 14.882
834.700, 140.706
835.978, 45.714
837.256, 65.836
838.534, 34.621
839.811, 39.101
841.088, 62.391
842.365, 49.120
843.642, 19.341
844.919, 0.797
846.195, 61.749
847.472, 69.673
848.748, 27.876
850.023, 17.440
851.299, 53.992
852.575, 16.560
853.850, 16.456
855.125, 19.749
856.400, 5.778
857.674, 29.234
858.949, 20.690
860.223, 29.144
861.497, 15.603
862.771, 52.942
864.045, 2.486
865.318, 31.093
866.591, 13.307
867.864, 46.707
869.137, 3.900
870.410, 64.486
871.682, 13.878
872.955, 53.263
874.227, 81.647
875.499, 11.025
876.770, 16.397
878.042, 4.231
879.313, 34.128
880.584, 52.482
881.855, 3.168
883.126, 71.169
884.396, 42.500
885.667, 90.823
886.937, 114.139
888.207, 14.457
889.476, 99.765
890.746, 147.068
892.015, 70.364
893.284, 157.654
894.553, 21.944
895.822, 93.037
897.090, 105.313
898.359, 68.422
899.627, 157.702
900.895, 94.977
902.163, 45.996
903.430, 195.259
904.698, 51.442
905.965, 154.432
907.232, 68.681
908.499, 96.664
909.765, 209.907
911.032, 103.729
912.298, 176.792
913.564, 133.811
914.830, 120.620
916.095, 174.842
917.361, 111.627
918.626, 208.644
919.891, 216.783
921.156, 117.288
922.420, 224.490
923.685, 144.437
924.949, 154.269
926.213, 248.233
927.477, 159.062
928.740, 262.997
930.004, 193.788
931.267, 190.565
932.530, 251.524
933.793, 212.220
935.056, 263.093
936.318, 249.923
937.581, 243.527
938.843, 327.552
940.104, 154.399
941.366, 240.252
942.628, 267.132
943.889, 194.878
945.150, 287.770
946.411, 257.549
947.672, 255.438
948.932, 362.222
950.193, 229.302
951.453, 371.297
952.713, 272.333
953.973, 259.836
955.232, 342.693
956.491, 253.047
957.751, 318.987
959.010, 289.410
960.268, 243.147
961.527, 380.161
962.785, 251.948
964.044, 304.634
965.302, 349.397
966.559, 272.171
967.817, 415.497
969.075, 330.958
970.332, 319.834
971.589, 373.638
972.846, 266.291
974.102, 383.210
975.359, 358.507
976.615, 324.295
977.871, 406.453
979.127, 345.072
980.383, 403.890
981.638, 416.709
982.893, 293.617
984.149, 431.126
985.404, 340.091
986.658, 352.011
987.913, 455.693
989.167, 333.494
990.421, 391.403
991.675, 393.968
992.929, 284.790
994.183, 415.998
995.436, 290.705
996.689, 418.212
997.942, 453.021
999.195, 340.812
1000.448, 499.048
1001.700, 414.532
1002.952, 381.249
1004.204, 456.399
1005.456, 369.982
1006.708, 447.625
1007.959, 398.337
1009.210, 324.959
1010.461, 433.273
1011.712, 363.138
1012.963, 387.665
1014.213, 436.969
1015.464, 298.581
1016.714, 469.561
1017.964, 377.287
1019.214, 361.930
1020.463, 424.355
1021.712, 320.728
1022.962, 353.236
1024.210, 346.862
1025.459, 319.746
1026.708, 437.208
1027.956, 298.809
1029.204, 299.158
1030.452, 360.877
1031.700, 227.749
1032.948, 390.875
1034.195, 285.835
1035.442, 280.483
1036.689, 296.205
1037.936, 190.877
1039.183, 284.314
1040.429, 304.398
1041.676, 206.280
1042.922, 318.939
1044.168, 211.137
1045.413, 204.708
1046.659, 279.572
1047.904, 195.429
1049.149, 239.173
1050.394, 189.081
1051.639, 183.921
1052.884, 252.612
1054.128, 181.514
1055.372, 220.119
1056.616, 230.750
1057.860, 117.626
1059.104, 218.336
1060.347, 186.176
1061.590, 182.894
1062.833, 278.460
1064.076, 138.420
1065.319, 217.203
1066.561, 163.772
1067.803, 146.035
1069.046, 239.572
1070.287, 216.326
1071.529, 157.031
1072.771, 157.551
1074.012, 123.238
1075.253, 195.958
1076.494, 150.473
1077.735, 181.170
1078.975, 164.817
1080.216, 59.393
1081.456, 132.238
1082.696, 227.710
1083.936, 62.431
1085.175, 174.238
1086.415, 110.709
1087.654, 142.322
1088.893, 180.764
1090.132, 50.369
1091.371, 129.837
1092.609, 154.265
1093.847, 54.969
1095.085, 191.460
1096.323, 67.875
1097.561, 129.944
1098.799, 166.346
1100.036, 22.908
1101.273, 134.032
1102.510, 111.425
1103.747, 71.814
1104.983, 131.267
1106.220, 84.649
1107.456, 92.908
1108.692, 121.282
1109.928, 52.651
1111.163, 128.257
1112.399, 74.620
1113.634, 57.066
1114.869, 59.447
1116.104, 19.209
1117.339, 105.425
1118.573, 79.744
1119.808, 80.055
1121.042, 197.435
1122.276, 200.734
1123.509, 163.177
1124.743, 181.589
1125.976, 31.878
1127.210, 130.166
1128.443, 76.451
1129.675, 29.728
1130.908, 102.997
1132.141, 4.741
1133.373, 43.551
1134.605, 129.795
1135.837, 0.968
1137.068, 77.367
1138.300, 44.596
1139.531, 66.826
1140.762, 64.321
1141.993, 18.547
1143.224, 47.775
1144.455, 64.071
1145.685, 2.706
1146.915, 91.519
1148.145, 41.738
1149.375, 7.043
1150.605, 112.245
1151.834, 0.553
1153.063, 70.642
1154.292, 58.985
1155.521, 28.171
1156.750, 72.349
1157.978, 4.481
1159.207, 12.676
1160.435, 103.824
1161.663, 3.035
1162.891, 39.107
1164.118, 40.269
1165.345, 11.597
1166.573, 79.519
1167.800, 17.628
1169.026, 34.270
1170.253, 76.801
1171.480, 7.135
1172.706, 49.913
1173.932, 90.952
1175.158, 25.016
1176.383, 22.991
1177.609, 42.073
1178.834, 10.936
1180.059, 97.036
1181.284, 19.004
1182.509, 63.961
1183.734, 77.910
1184.958, 22.149
1186.182, 83.767
1187.406, 4.675
1188.630, 34.571
1189.854, 83.458
1191.077, 14.664
1192.301, 54.193
1193.524, 34.041
1194.747, 57.121
1195.969, 56.672
1197.192, 19.457
1198.414, 34.230
1199.636, 43.994
1200.858, 10.252
1202.080, 67.482
1203.302, 79.215
1204.523, 10.060
1205.744, 57.645
1206.966, 25.340
1208.186, 53.024
1209.407, 91.701
1210.628, 11.497
1211.848, 34.150
1213.068, 83.788
1214.288, 0.538
1215.508, 98.076
1216.727, 35.681
1217.947, 7.724
1219.166, 100.852
1220.385, 7.550
1221.604, 38.998
1222.822, 86.535
1224.041, 7.896
1225.259, 52.613
1226.477, 68.112
1227.695, 9.579
1228.913, 113.056
1230.130, 29.524
1231.348, 10.970
1232.565, 86.414
1233.782, 51.849
1234.999, 96.273
1236.215, 51.689
1237.432, 83.168
1238.648, 130.561
1239.864, 23.978
1241.080, 73.306
1242.296, 153.671
1243.511, 1.179
1244.726, 140.523
1245.942, 53.859
1247.156, 0.186
1248.371, 141.531
1249.586, 95.835
1250.800, 75.256
1252.014, 195.544
1253.228, 2.176
1254.442, 97.092
1255.656, 142.352
1256.869, 33.550
1258.083, 126.793
1259.296, 71.126
1260.509, 85.498
1261.722, 158.669
1262.934, 17.401
1264.147, 145.781
1265.359, 116.973
1266.571, 74.429
1267.783, 136.606
1268.994, 55.774
1270.206, 65.926
1271.417, 173.077
1272.628, 94.050
1273.839, 120.781
1275.050, 158.908
1276.260, 95.845
1277.471, 155.002
1278.681, 83.424
1279.891, 111.515
1281.101, 222.602
1282.310, 70.197
1283.520, 128.521
1284.729, 119.458
1285.938, 31.480
1287.147, 155.832
1288.356, 98.634
1289.564, 76.549
1290.773, 228.480
1291.981, 103.894
1293.189, 118.200
1294.397, 235.303
1295.604, 76.427
1296.812, 155.678
1298.019, 160.152
1299.226, 58.094
1300.433, 218.375
1301.640, 103.122
1302.846, 146.046
1304.053, 172.423
1305.259, 106.081
1306.465, 162.078
1307.671, 194.525
1308.876, 89.271
1310.082, 212.186
1311.287, 152.957
1312.492, 139.848
1313.697, 232.512
1314.902, 169.727
1316.106, 177.583
1317.310, 153.620
1318.515, 100.349
1319.719, 200.297
1320.922, 183.043
1322.126, 71.636
1323.329, 270.311
1324.533, 125.949
1325.736, 101.772
1326.939, 239.420
1328.141, 112.127
1329.344, 141.877
1330.546, 233.714
1331.748, 122.475
1332.950, 217.827
1334.152, 119.366
1335.354, 139.099
1336.555, 250.295
1337.757, 110.867
1338.958, 178.340
1340.159, 176.818
1341.359, 94.368
1342.560, 199.735
1343.760, 107.224
1344.960, 105.674
1346.160, 227.001
1347.360, 186.449
1348.560, 111.013
1349.759, 265.312
1350.959, 91.767
1352.158, 156.076
1353.357, 227.982
1354.555, 52.534
1355.754, 159.675
1356.952, 148.227
1358.151, 72.728
1359.349, 222.522
1360.546, 87.027
1361.744, 91.300
1362.941, 169.685
1364.139, 75.170
1365.336, 130.405
1366.533, 178.589
1367.730, 71.991
1368.926, 171.142
1370.123, 179.376
1371.319, 128.593
1372.515, 168.489
1373.711, 103.040
1374.906, 120.032
1376.102, 170.922
1377.297, 83.108
1378.492, 172.097
1379.687, 154.832
1380.882, 47.759
1382.077, 179.172
1383.271, 72.660
1384.465, 107.342
1385.659, 201.410
1386.853, 43.222
1388.047, 107.932
1389.240, 159.556
1390.434, 34.304
1391.627, 71.707
1392.820, 81.264
1394.013, 49.871
1395.205, 161.171
1396.398, 102.716
1397.590, 81.159
1398.782, 159.609
1399.974, 75.176
1401.166, 120.729
1402.357, 56.224
1403.549, 31.761
1404.740, 124.174
1405.931, 132.377
1407.122, 36.879
1408.313, 111.270
1409.503, 15.735
1410.693, 82.091
1411.883, 135.539
1413.073, 26.228
1414.263, 183.185
1415.453, 114.594
1416.642, 4.005
1417.831, 100.351
1419.020, 100.745
1420.209, 68.146
1421.398, 177.556
1422.587, 49.961
1423.775, 88.266
1424.963, 137.685
1426.151, 19.103
1427.339, 110.512
1428.526, 80.937
1429.714, 7.360
1430.901, 132.784
1432.088, 88.215
1433.275, 25.304
1434.462, 123.177
1435.648, 14.665
1436.835, 21.134
1438.021, 129.617
1439.207, 19.100
1440.393, 97.361
1441.579, 131.776
1442.764, 15.724
1443.949, 166.788
1445.135, 110.263
1446.320, 35.734
1447.504, 176.301
1448.689, 65.881
1449.873, 31.469
1451.058, 158.075
1452.242, 41.692
1453.426, 61.051
1454.609, 191.625
1455.793, 73.964
1456.976, 164.623
1458.159, 121.823
1459.342, 49.223
1460.525, 201.899
1461.708, 63.580
1462.890, 82.223
1464.073, 155.208
1465.255, 83.894
1466.437, 72.151
1467.619, 172.167
1468.800, 53.740
1469.982, 149.336
1471.163, 142.336
1472.344, 71.781
1473.525, 158.012
1474.706, 106.588
1475.886, 99.425
1477.066, 166.935
1478.247, 89.481
1479.427, 93.793
1480.607, 178.393
1481.786, 77.824
1482.966, 129.111
1484.145, 130.401
1485.324, 61.798
1486.503, 193.590
1487.682, 78.757
1488.860, 23.379
1490.039, 141.304
1491.217, 109.096
1492.395, 106.173
1493.573, 167.327
1494.751, 1.834
1495.928, 183.009
1497.106, 178.952
1498.283, 26.229
1499.460, 188.677
1500.637, 127.064
1501.814, 87.516
1502.990, 146.050
1504.166, 65.776
1505.342, 83.102
1506.518, 219.144
1507.694, 110.923
1508.870, 65.603
1510.045, 209.039
1511.221, 55.137
1512.396, 132.421
1513.571, 151.151
1514.745, 15.816
1515.920, 156.858
1517.094, 66.033
1518.269, 69.605
1519.443, 170.891
1520.616, 0.581
1521.790, 72.511
1522.964, 0.000
##END=



