##NAMES=Spodumene
##RRUFFID=R040050
##IDEAL CHEMISTRY=LiAlSi_2_O_6_
##LOCALITY=Minas Gerais, Brazil
##OWNER=RRUFF
##SOURCE=University of Arizona Mineral Museum
##DESCRIPTION=Pale pink fragment of a single crystal, variety kunzite
##STATUS=The identification of this mineral has been confirmed by X-ray diffraction and chemical analysis
##URL=rruff.info/R040050
##MEASURED CHEMISTRY=(Li_0.99_Na_0.01_)Al_1.00_Si_2.00_O_6_
##PIN_ID=L00321
##ORIENTATION=Laser parallel to (1 0 1). Fiducial mark perpendicular to laser is parallel to b [0 1 0]
112.9460, 0.0000000E+00
114.1820, 94.15625
115.4170, 140.8848
116.6530, 87.57715
117.8880, 89.34766
119.1230, 160.2373
120.3580, 112.1426
121.5920, 59.39990
122.8270, 21.48242
124.0610, 86.99072
125.2950, 116.6509
126.5290, 126.4219
127.7630, 171.9233
128.9970, 168.8418
130.2300, 195.0918
131.4640, 221.8354
132.6970, 162.9775
133.9300, 101.4502
135.1630, 105.1982
136.3950, 103.1802
137.6280, 15.76367
138.8600, 84.38037
140.0920, 143.3799
141.3240, 208.0762
142.5560, 93.72998
143.7880, 69.35498
145.0190, 154.8799
146.2510, 76.32666
147.4820, 120.7080
148.7130, 162.0400
149.9440, 191.3320
151.1750, 107.5903
152.4050, 119.8599
153.6360, 73.12500
154.8660, 153.3716
156.0960, 57.60742
157.3260, 181.8354
158.5560, 212.0620
159.7850, 49.28857
161.0150, 72.48730
162.2440, 148.3315
163.4730, 85.86279
164.7020, 144.5728
165.9310, 197.1499
167.1590, 250.7085
168.3880, 138.6494
169.6160, 128.4702
170.8440, 192.7847
172.0720, 184.4268
173.3000, 273.5503
174.5280, 222.0068
175.7550, 164.5239
176.9820, 141.0986
178.2100, 165.7246
179.4370, 281.3999
180.6630, 186.1226
181.8900, 382.8896
183.1170, 347.7007
184.3430, 370.5527
185.5690, 488.4458
186.7950, 506.3662
188.0210, 536.2896
189.2470, 511.2285
190.4720, 356.6826
191.6970, 276.7100
192.9230, 165.7275
194.1480, 210.7749
195.3730, 192.8521
196.5970, 131.0142
197.8220, 111.2065
199.0460, 27.42920
200.2700, 121.6826
201.4940, 139.9668
202.7180, 67.27783
203.9420, 85.61768
205.1660, 74.98438
206.3890, 145.3760
207.6120, 24.20508
208.8350, 109.2373
210.0580, 15.70410
211.2810, 73.80566
212.5040, 70.29590
213.7260, 4.767578
214.9480, 72.22070
216.1700, 59.34180
217.3920, 9.055664
218.6140, 5.577148
219.8360, 52.74512
221.0570, 24.95996
222.2790, 109.2900
223.5000, 95.57910
224.7210, 15.53418
225.9410, 52.38574
227.1620, 69.38965
228.3820, 29.42773
229.6030, 49.48340
230.8230, 23.44531
232.0430, 50.64551
233.2630, 7.249023
234.4820, 44.85840
235.7020, 7.962891
236.9210, 85.03223
238.1400, 215.0762
239.3590, 365.1250
240.5780, 431.1602
241.7970, 400.1543
243.0150, 519.1543
244.2340, 703.1621
245.4520, 1005.175
246.6700, 1470.189
247.8880, 1932.213
249.1060, 2127.242
250.3230, 2025.281
251.5400, 1361.328
252.7580, 787.3818
253.9750, 333.4434
255.1920, 311.5117
256.4080, 119.5859
257.6250, 195.6719
258.8410, 268.7705
260.0580, 170.7012
261.2740, 181.1650
262.4900, 88.30957
263.7050, 54.84570
264.9210, 75.49121
266.1360, 10.22656
267.3520, 6.958984
268.5670, 200.9170
269.7820, 15.14453
270.9960, 3.397461
272.2110, 225.4248
273.4250, 15.49414
274.6400, 77.59668
275.8540, 54.73340
277.0680, 215.9258
278.2810, 267.4912
279.4950, 278.7305
280.7090, 318.9893
281.9220, 435.1738
283.1350, 568.5928
284.3480, 749.9180
285.5610, 921.2520
286.7730, 1208.594
287.9860, 1470.938
289.1980, 1784.290
290.4100, 2157.645
291.6220, 2655.005
292.8340, 3110.369
294.0460, 3592.736
295.2570, 3918.108
296.4690, 4026.483
297.6800, 3652.863
298.8910, 3269.246
300.1020, 2680.634
301.3120, 2174.023
302.5230, 1667.418
303.7330, 1360.815
304.9440, 1124.218
306.1540, 1029.622
307.3630, 990.0166
308.5730, 851.3730
309.7830, 689.6904
310.9920, 569.9746
312.2010, 550.4385
313.4100, 570.9932
314.6190, 599.7383
315.8280, 807.0684
317.0370, 927.2930
318.2450, 1170.517
319.4530, 1179.466
320.6610, 1440.985
321.8690, 1480.211
323.0770, 1947.701
324.2850, 2238.604
325.4920, 2681.979
326.6990, 2951.779
327.9060, 3465.319
329.1130, 3452.170
330.3200, 3455.994
331.5270, 2996.726
332.7330, 2232.300
333.9390, 1814.130
335.1450, 1348.719
336.3510, 1083.464
337.5570, 826.7275
338.7630, 723.2715
339.9680, 843.5732
341.1740, 1046.857
342.3790, 1296.756
343.5840, 1591.496
344.7890, 2111.543
345.9930, 2867.008
347.1980, 3481.031
348.4020, 4491.919
349.6060, 5394.920
350.8100, 6796.811
352.0140, 8805.346
353.2180, 11240.94
354.4210, 13141.96
355.6250, 13537.47
356.8280, 12386.15
358.0310, 10161.03
359.2340, 7731.286
360.4360, 5611.578
361.6390, 3976.063
362.8410, 3001.180
364.0430, 2479.671
365.2450, 1927.947
366.4470, 1559.444
367.6490, 1290.824
368.8510, 1354.315
370.0520, 1167.203
371.2530, 1168.688
372.4540, 989.1689
373.6550, 1123.645
374.8560, 1258.115
376.0560, 1137.666
377.2570, 1332.130
378.4570, 1429.291
379.6570, 1598.744
380.8570, 1954.191
382.0570, 2203.634
383.2560, 2813.086
384.4560, 3351.535
385.6550, 4090.980
386.8540, 5005.424
388.0530, 5863.861
389.2520, 7063.294
390.4510, 8450.723
391.6490, 9970.144
392.8470, 11209.56
394.0450, 11432.97
395.2430, 10922.37
396.4410, 9355.766
397.6390, 7357.149
398.8360, 5324.189
400.0340, 4074.820
401.2310, 2852.677
402.4280, 2056.079
403.6250, 1720.700
404.8210, 1430.252
406.0180, 989.3926
407.2140, 703.4307
408.4100, 536.4316
409.6060, 488.1367
410.8020, 272.7900
411.9980, 272.2959
413.1930, 321.4893
414.3890, 24.51758
415.5840, 95.15234
416.7790, 176.9199
417.9740, 243.9072
419.1680, 199.5371
420.3630, 151.9209
421.5570, 51.11914
422.7510, 261.7256
423.9450, 69.18164
425.1390, 91.48535
426.3330, 288.5791
427.5270, 182.2920
428.7200, 213.7979
429.9130, 346.1533
431.1060, 451.1865
432.2990, 560.7812
433.4920, 696.2305
434.6840, 783.7666
435.8770, 1014.737
437.0690, 1055.692
438.2610, 1326.631
439.4530, 1457.553
440.6450, 1683.457
441.8360, 1809.345
443.0280, 1809.216
444.2190, 1780.070
445.4100, 1603.906
446.6010, 1486.725
447.7920, 1065.525
448.9820, 1019.308
450.1730, 845.0732
451.3630, 571.8213
452.5530, 548.5605
453.7430, 486.2734
454.9330, 319.2178
456.1230, 214.0566
457.3120, 291.0137
458.5010, 80.07227
459.6910, 129.1973
460.8800, 116.4004
462.0680, 16.37402
463.2570, 45.71289
464.4460, 2.419922
465.6340, 64.10059
466.8220, 13.54199
468.0100, 4.227539
469.1980, 12.65820
470.3860, 74.29297
471.5730, 9.284180
472.7600, 8.591797
473.9480, 118.3818
475.1350, 77.51562
476.3210, 20.17969
477.5080, 80.05859
478.6950, 45.09180
479.8810, 28.76660
481.0670, 48.95996
482.2530, 13.04980
483.4390, 3.522461
484.6250, 26.61621
485.8100, 68.30664
486.9960, 12.03418
488.1810, 137.6982
489.3660, 13.60547
490.5510, 39.16797
491.7360, 25.91113
492.9200, 72.18750
494.1050, 158.6885
495.2890, 151.6250
496.4730, 47.22754
497.6570, 168.9951
498.8400, 63.86230
500.0240, 60.88672
501.2070, 193.7266
502.3910, 226.6094
503.5740, 348.0088
504.7570, 322.4541
505.9400, 416.0400
507.1220, 434.3730
508.3050, 594.1533
509.4870, 556.9395
510.6690, 742.7930
511.8510, 827.7432
513.0330, 1104.059
514.2140, 1422.072
515.3960, 1740.451
516.5770, 1904.829
517.7580, 2427.454
518.9390, 2950.005
520.1200, 3176.495
521.3010, 3675.473
522.4810, 3707.914
523.6610, 3406.824
524.8420, 3274.727
526.0220, 2592.032
527.2010, 2200.481
528.3810, 1467.510
529.5610, 1077.264
530.7400, 928.8896
531.9190, 843.7822
533.0980, 526.3369
534.2770, 619.9912
535.4560, 474.2461
536.6340, 397.4932
537.8120, 348.3691
538.9910, 267.2100
540.1690, 69.02051
541.3460, 165.7930
542.5240, 110.5332
543.7020, 218.2383
544.8790, 164.9092
546.0560, 181.5449
547.2330, 43.14941
548.4100, 64.71191
549.5870, 73.23535
550.7630, 142.7207
551.9400, 16.16992
553.1160, 125.5762
554.2920, 3.951172
555.4680, 173.2754
556.6440, 141.0127
557.8190, 11.27051
558.9950, 61.48047
560.1700, 14.64844
561.3450, 80.23242
562.5200, 62.78516
563.6950, 78.41309
564.8690, 169.3447
566.0440, 33.75879
567.2180, 265.0654
568.3920, 100.8525
569.5660, 147.5986
570.7400, 181.3037
571.9130, 266.9697
573.0870, 61.59668
574.2600, 153.1797
575.4330, 182.7217
576.6060, 286.2256
577.7790, 389.6914
578.9520, 304.1172
580.1240, 476.5059
581.2960, 468.8584
582.4690, 564.1729
583.6410, 575.4473
584.8120, 635.6816
585.9840, 724.8750
587.1560, 649.0303
588.3270, 494.1426
589.4980, 736.2158
590.6690, 356.6494
591.8400, 541.7637
593.0110, 271.9805
594.1810, 341.8926
595.3510, 216.3496
596.5220, 238.6465
597.6920, 207.4297
598.8610, 179.1709
600.0310, 159.9707
601.2010, 137.9561
602.3700, 128.8584
603.5390, 42.13086
604.7080, 10.64746
605.8770, 48.57031
607.0460, 75.16016
608.2140, 76.86816
609.3830, 54.00488
610.5510, 25.47363
611.7190, 46.11816
612.8870, 202.1465
614.0550, 70.52832
615.2220, 116.9336
616.3900, 7.023438
617.5570, 112.3516
618.7240, 70.80273
619.8910, 35.41992
621.0580, 107.2227
622.2240, 66.83496
623.3910, 138.5088
624.5570, 8.948242
625.7230, 2.934570
626.8890, 84.13574
628.0550, 93.49121
629.2200, 269.8691
630.3860, 107.5615
631.5510, 85.56836
632.7160, 142.3555
633.8810, 105.0527
635.0460, 19.73340
636.2100, 71.77344
637.3750, 35.21191
638.5390, 20.55469
639.7030, 196.0498
640.8670, 21.08301
642.0310, 221.9941
643.1950, 96.55762
644.3580, 79.74316
645.5210, 15.00195
646.6850, 14.01660
647.8480, 15.10938
649.0100, 216.9297
650.1730, 200.0000
651.3350, 170.3564
652.4980, 78.60840
653.6600, 155.5537
654.8220, 317.8955
655.9840, 57.22559
657.1450, 231.4570
658.3070, 27.43164
659.4680, 254.2207
660.6300, 132.1357
661.7910, 268.6113
662.9510, 150.6416
664.1120, 29.86816
665.2730, 49.65234
666.4330, 29.59277
667.5930, 97.38281
668.7530, 156.8340
669.9130, 180.3789
671.0730, 109.8174
672.2320, 184.1279
673.3920, 152.8223
674.5510, 242.4316
675.7100, 238.3525
676.8690, 384.7432
678.0280, 359.4990
679.1860, 352.9443
680.3450, 360.0996
681.5030, 323.0459
682.6610, 333.3740
683.8190, 332.0635
684.9770, 419.7100
686.1340, 374.2500
687.2920, 433.7695
688.4490, 522.2715
689.6060, 548.5430
690.7630, 616.7754
691.9200, 725.3535
693.0760, 881.1992
694.2330, 1111.826
695.3890, 1330.727
696.5450, 1667.770
697.7010, 2030.184
698.8570, 2469.236
700.0130, 3137.709
701.1680, 4008.250
702.3230, 4814.934
703.4780, 5872.691
704.6330, 7157.516
705.7880, 8128.160
706.9430, 8586.258
708.0970, 8575.344
709.2520, 7381.285
710.4060, 6109.217
711.5600, 4567.074
712.7140, 3257.504
713.8670, 2526.613
715.0210, 2028.395
716.1740, 1589.354
717.3270, 1208.285
718.4800, 1000.150
719.6330, 1017.248
720.7860, 860.6875
721.9380, 692.8477
723.0910, 500.1055
724.2430, 390.5293
725.3950, 454.7754
726.5470, 511.1816
727.6980, 608.2090
728.8500, 240.5410
730.0010, 307.7734
731.1530, 273.8555
732.3040, 497.1270
733.4550, 197.8535
734.6050, 226.5918
735.7560, 341.1895
736.9060, 342.1523
738.0560, 287.9570
739.2060, 259.9766
740.3560, 269.3848
741.5060, 236.0371
742.6560, 401.2266
743.8050, 163.0059
744.9540, 240.2500
746.1030, 421.4453
747.2520, 120.2266
748.4010, 155.8262
749.5500, 168.3848
750.6980, 231.9961
751.8460, 145.9609
752.9950, 152.6055
754.1420, 256.2129
755.2900, 126.5430
756.4380, 145.0469
757.5850, 259.0352
758.7330, 150.7363
759.8800, 81.90234
761.0270, 117.6777
762.1730, 143.1074
763.3200, 110.0391
764.4670, 121.6973
765.6130, 208.1895
766.7590, 92.13672
767.9050, 113.1758
769.0510, 91.94531
770.1960, 212.3750
771.3420, 162.2070
772.4870, 170.7227
773.6320, 64.14453
774.7770, 106.7520
775.9220, 238.3633
777.0670, 82.30078
778.2110, 177.7480
779.3560, 73.23438
780.5000, 144.7871
781.6440, 223.6230
782.7880, 194.8008
783.9320, 243.9648
785.0750, 199.3555
786.2180, 268.8203
787.3620, 197.4199
788.5050, 454.3789
789.6480, 132.6738
790.7900, 84.62305
791.9330, 86.14062
793.0750, 78.72852
794.2170, 90.47266
795.3590, 140.1016
796.5010, 1.076172
797.6430, 128.8164
798.7850, 114.5547
799.9260, 76.94531
801.0670, 199.4668
802.2080, 170.7578
803.3490, 66.40234
804.4900, 88.73242
805.6310, 160.2832
806.7710, 379.2578
807.9110, 151.7129
809.0510, 168.7090
810.1910, 305.5820
811.3310, 77.96680
812.4710, 38.81055
813.6100, 116.8359
814.7490, 424.6289
815.8880, 120.2480
817.0270, 285.3457
818.1660, 113.0195
819.3050, 192.4766
820.4430, 247.8340
821.5820, 95.84180
822.7200, 171.6035
823.8580, 261.2773
824.9950, 274.2129
826.1330, 88.91016
827.2710, 153.7422
828.4080, 73.12891
829.5450, 29.68359
830.6820, 117.6680
831.8190, 23.14453
832.9560, 130.6465
834.0920, 241.4336
835.2280, 259.6445
836.3650, 326.1035
837.5010, 418.9297
838.6360, 304.8652
839.7720, 294.7793
840.9080, 115.5488
842.0430, 176.2441
843.1780, 340.8789
844.3130, 178.7949
845.4480, 244.5762
846.5830, 266.0039
847.7170, 342.3613
848.8520, 235.6465
849.9860, 150.2168
851.1200, 243.6211
852.2540, 262.1055
853.3870, 256.2910
854.5210, 258.2539
855.6540, 188.8379
856.7880, 93.03711
857.9210, 385.6973
859.0540, 347.3164
860.1860, 294.5664
861.3190, 322.4375
862.4510, 269.8477
863.5840, 346.4199
864.7160, 258.7129
865.8480, 267.8535
866.9790, 287.8789
868.1110, 225.6855
869.2420, 343.6855
870.3740, 265.0293
871.5050, 304.4375
872.6360, 170.2461
873.7660, 407.9785
874.8970, 316.4258
876.0280, 184.6875
877.1580, 339.9160
878.2880, 96.93555
879.4180, 44.32422
880.5480, 303.9492
881.6770, 334.8262
882.8070, 183.0625
883.9360, 77.29688
885.0650, 116.6367
886.1940, 132.9551
887.3230, 25.46680
888.4520, 130.5293
889.5800, 185.5469
890.7090, 285.9238
891.8370, 171.6914
892.9650, 43.46484
894.0930, 54.63086
895.2200, 26.46289
896.3480, 5.417969
897.4750, 144.9941
898.6020, 116.3711
899.7290, 291.6973
900.8560, 227.8574
901.9830, 148.3105
903.1090, 69.20508
904.2360, 169.1035
905.3620, 88.15625
906.4880, 177.3516
907.6140, 177.2793
908.7400, 83.16992
909.8650, 115.3066
910.9900, 99.06250
912.1160, 136.9121
913.2410, 196.0352
914.3660, 210.4863
915.4900, 161.4316
916.6150, 189.6016
917.7390, 85.02930
918.8640, 16.25781
919.9880, 28.37891
921.1120, 60.63281
922.2350, 278.9316
923.3590, 16.79688
924.4820, 65.25000
925.6060, 302.6797
926.7290, 90.29492
927.8520, 55.38867
928.9740, 26.36914
930.0970, 137.3203
931.2190, 90.40430
932.3420, 296.5449
933.4640, 219.4395
934.5860, 99.65039
935.7080, 41.81445
936.8290, 229.1172
937.9510, 69.11523
939.0720, 65.07812
940.1930, 18.70703
941.3140, 102.2832
942.4350, 130.8867
943.5560, 151.0371
944.6760, 6.810547
945.7960, 18.17773
946.9170, 84.59766
948.0370, 195.5137
949.1560, 83.02930
950.2760, 98.60352
951.3960, 28.96875
952.5150, 70.94922
953.6340, 86.93750
954.7530, 90.27930
955.8720, 153.2090
956.9910, 193.1172
958.1090, 195.2754
959.2280, 353.7422
960.3460, 11.79883
961.4640, 103.8047
962.5820, 191.6172
963.6990, 97.01562
964.8170, 284.9922
965.9340, 113.4785
967.0510, 90.28320
968.1690, 239.7070
969.2850, 121.5312
970.4020, 300.3711
971.5190, 162.4277
972.6350, 382.7129
973.7510, 370.5605
974.8670, 480.3516
975.9830, 535.2969
977.0990, 594.0449
978.2150, 302.0742
979.3300, 316.1191
980.4450, 495.3887
981.5600, 390.6934
982.6750, 568.7832
983.7900, 300.9668
984.9050, 321.6230
986.0190, 285.1250
987.1340, 99.73438
988.2480, 373.6680
989.3620, 206.5547
990.4750, 280.0957
991.5890, 150.3398
992.7020, 386.3125
993.8160, 214.6973
994.9290, 287.5176
996.0420, 470.8262
997.1550, 324.5273
998.2670, 437.1191
999.3800, 307.7676
1000.492, 463.6465
1001.604, 503.2402
1002.716, 524.9570
1003.828, 423.8711
1004.940, 447.7578
1006.051, 439.1523
1007.163, 490.2656
1008.274, 541.0449
1009.385, 664.4395
1010.496, 868.0508
1011.606, 970.3066
1012.717, 1267.457
1013.827, 1445.449
1014.937, 1923.381
1016.047, 3116.662
1017.157, 2778.000
1018.267, 3086.021
1019.377, 3272.004
1020.486, 3141.016
1021.595, 2895.350
1022.704, 2256.273
1023.813, 1824.391
1024.922, 1263.891
1026.030, 1063.521
1027.139, 678.7402
1028.247, 580.0117
1029.355, 468.1758
1030.463, 368.3242
1031.571, 483.0371
1032.678, 346.6680
1033.786, 390.6230
1034.893, 446.5156
1036.000, 385.6094
1037.107, 518.6582
1038.214, 409.1895
1039.321, 284.9004
1040.427, 598.3691
1041.533, 413.7129
1042.639, 336.5703
1043.745, 519.1191
1044.851, 586.4453
1045.957, 492.4766
1047.062, 582.0215
1048.168, 542.6602
1049.273, 562.6113
1050.378, 650.5371
1051.482, 672.7480
1052.587, 816.1523
1053.692, 845.4199
1054.796, 920.8926
1055.900, 1098.312
1057.004, 1440.641
1058.108, 1329.605
1059.212, 1724.410
1060.315, 2116.734
1061.418, 2650.264
1062.522, 2981.479
1063.625, 3889.861
1064.728, 4809.494
1065.830, 6097.941
1066.933, 7516.789
1068.035, 9213.344
1069.137, 11527.67
1070.239, 13603.23
1071.341, 15763.27
1072.443, 16851.30
1073.545, 17047.70
1074.646, 15291.42
1075.747, 13069.58
1076.848, 10403.21
1077.949, 8167.590
1079.050, 6530.133
1080.150, 5319.100
1081.251, 4028.600
1082.351, 3172.848
1083.451, 2471.328
1084.551, 2332.586
1085.651, 1970.400
1086.750, 1478.885
1087.850, 1259.170
1088.949, 1023.037
1090.048, 1217.025
1091.147, 735.4355
1092.246, 923.4648
1093.345, 617.8457
1094.443, 774.7109
1095.541, 625.4863
1096.639, 614.2910
1097.737, 534.3203
1098.835, 508.7363
1099.933, 472.1875
1101.030, 487.9531
1102.128, 539.0039
1103.225, 519.0527
1104.322, 512.2656
1105.419, 548.2422
1106.515, 284.1719
1107.612, 370.8652
1108.708, 148.8965
1109.804, 233.8672
1110.900, 427.7344
1111.996, 16.45117
1113.092, 371.2949
1114.187, 165.9805
1115.283, 262.4980
1116.378, 288.9590
1117.473, 166.3828
1118.568, 145.7715
1119.662, 378.1270
1120.757, 355.4297
1121.851, 429.7012
1122.946, 246.8613
1124.040, 111.8672
1125.134, 200.0371
1126.227, 62.16406
1127.321, 165.7402
1128.414, 245.8809
1129.508, 70.18359
1130.601, 147.0098
1131.693, 162.1680
1132.786, 237.3008
1133.879, 134.4297
1134.971, 192.6328
1136.064, 41.13867
1137.156, 254.0879
1138.248, 149.3145
1139.339, 262.5586
1140.431, 45.80078
1141.522, 320.0312
1142.614, 62.32422
1143.705, 306.7227
1144.796, 159.7852
1145.887, 343.8008
1146.977, 210.4805
1148.068, 314.3555
1149.158, 224.3203
1150.248, 429.3594
1151.338, 350.4375
1152.428, 256.5391
1153.518, 292.6875
1154.607, 397.8555
1155.696, 398.0117
1156.785, 121.1523
1157.874, 278.2852
1158.963, 316.4492
1160.052, 236.6484
1161.141, 342.7695
1162.229, 269.8555
1163.317, 241.3320
1164.405, 102.9961
1165.493, 275.7109
1166.581, 133.7109
1167.668, 397.6992
1168.756, 334.2617
1169.843, 236.1523
1170.930, 291.5000
1172.017, 427.9180
1173.103, 566.0078
1174.190, 273.8125
1175.276, 128.0430
1176.363, 225.6406
1177.449, 147.8750
1178.535, 127.5117
1179.620, 147.1992
1180.706, 267.8242
1181.791, 279.3750
1182.877, 221.4648
1183.962, 290.9297
1185.047, 133.3516
1186.131, 73.37109
1187.216, 235.0508
1188.300, 142.8906
1189.385, 275.9883
1190.469, 82.87500
1191.553, 291.2305
1192.637, 182.0742
1193.720, 69.30078
1194.804, 491.9531
1195.887, 329.0234
1196.970, 23.76562
1198.053, 232.0508
1199.136, 71.91016
1200.219, 45.64062
1201.301, 304.0234
1202.383, 179.5117
1203.465, 15.55859
1204.547, 223.7812
1205.629, 429.6641
1206.711, 65.32031
1207.792, 201.9453
1208.874, 72.67578
1209.955, 187.1953
1211.036, 71.89453
1212.117, 0.3320310
1213.198, 0.0000000E+00
##END=



