##NAMES=Spodumene
##RRUFFID=R040050
##IDEAL CHEMISTRY=LiAlSi_2_O_6_
##LOCALITY=Minas Gerais, Brazil
##OWNER=RRUFF
##SOURCE=University of Arizona Mineral Museum
##DESCRIPTION=Pale pink fragment of a single crystal, variety kunzite
##STATUS=The identification of this mineral has been confirmed by X-ray diffraction and chemical analysis
##URL=rruff.info/R040050
##MEASURED CHEMISTRY=(Li_0.99_Na_0.01_)Al_1.00_Si_2.00_O_6_
##PIN_ID=L00429
##ORIENTATION=Laser parallel to c* (0 0 1). Fiducial mark perpendicular to laser is parallel to a [1 0 0]
99.34400, 0.0000000E+00
100.5810, 28.02222
101.8190, 1.882935
103.0560, 13.55432
104.2930, 21.78735
105.5290, 43.45715
106.7660, 63.90759
108.0020, 78.72998
109.2390, 99.64026
110.4750, 98.42834
111.7110, 57.94177
112.9460, 33.06531
114.1820, 52.72241
115.4170, 33.57690
116.6530, 80.40149
117.8880, 72.29089
119.1230, 107.4790
120.3580, 131.2648
121.5920, 150.6095
122.8270, 173.5201
124.0610, 208.6278
125.2950, 211.9084
126.5290, 292.3690
127.7630, 321.0269
128.9970, 314.9554
130.2300, 364.0411
131.4640, 379.2061
132.6970, 368.4435
133.9300, 230.7476
135.1630, 197.1145
136.3950, 210.5397
137.6280, 137.0155
138.8600, 117.5359
140.0920, 140.0969
141.3240, 137.6963
142.5560, 134.2493
143.7880, 135.3289
145.0190, 132.3013
146.2510, 126.2874
147.4820, 128.2881
148.7130, 65.30225
149.9440, 77.32861
151.1750, 35.36841
152.4050, 59.48950
153.6360, 56.52783
154.8660, 73.74438
156.0960, 63.31250
157.3260, 95.28223
158.5560, 93.23267
159.7850, 57.09985
161.0150, 89.25757
162.2440, 79.42725
163.4730, 43.60889
164.7020, 70.80054
165.9310, 67.00122
167.1590, 109.2095
168.3880, 45.44385
169.6160, 41.70117
170.8440, 63.97363
172.0720, 53.08276
173.3000, 71.51025
174.5280, 91.75195
175.7550, 101.9800
176.9820, 127.1992
178.2100, 119.4141
179.4370, 138.4304
180.6630, 154.8630
181.8900, 172.1086
183.1170, 225.3689
184.3430, 270.6497
185.5690, 361.6775
186.7950, 484.7461
188.0210, 465.9021
189.2470, 443.7600
190.4720, 362.9766
191.6970, 325.2285
192.9230, 216.5090
194.1480, 167.7961
195.3730, 124.0811
196.5970, 82.36377
197.8220, 80.64331
199.0460, 101.9197
200.2700, 101.1917
201.4940, 73.45947
202.7180, 9.889404
203.9420, 49.27930
205.1660, 31.02734
206.3890, 13.30811
207.6120, 42.50562
208.8350, 51.26831
210.0580, 25.94580
211.2810, 9.338623
212.5040, 19.37158
213.7260, 69.97681
214.9480, 33.66846
216.1700, 30.71069
217.3920, 49.10474
218.6140, 21.49097
219.8360, 71.25195
221.0570, 22.99414
222.2790, 22.40991
223.5000, 47.85596
224.7210, 45.32324
225.9410, 91.78467
227.1620, 118.2368
228.3820, 91.68018
229.6030, 139.1150
230.8230, 108.5364
232.0430, 80.94531
233.2630, 53.33057
234.4820, 51.98169
235.7020, 48.99414
236.9210, 91.65674
238.1400, 125.6594
239.3590, 217.4434
240.5780, 242.1436
241.7970, 267.7073
243.0150, 323.8923
244.2340, 493.0542
245.4520, 570.1968
246.6700, 749.7129
247.8880, 881.3909
249.1060, 1013.176
250.3230, 912.0388
251.5400, 741.9634
252.7580, 549.9397
253.9750, 429.9568
255.1920, 254.1226
256.4080, 184.2065
257.6250, 98.68384
258.8410, 95.07056
260.0580, 37.60669
261.2740, 47.40894
262.4900, 34.13770
263.7050, 15.92383
264.9210, 25.60840
266.1360, 4.362793
267.3520, 0.8366700
268.5670, 8.230225
269.7820, 26.57617
270.9960, 45.93848
272.2110, 9.638916
273.4250, 66.81396
274.6400, 44.72314
275.8540, 19.28711
277.0680, 9.118652
278.2810, 32.57471
279.4950, 11.26855
280.7090, 55.75049
281.9220, 90.42676
283.1350, 131.9893
284.3480, 127.9160
285.5610, 216.6558
286.7730, 172.1973
287.9860, 312.3787
289.1980, 315.5530
290.4100, 378.7354
291.6220, 353.8911
292.8340, 560.0366
294.0460, 593.1831
295.2570, 590.3069
296.4690, 601.4194
297.6800, 510.5200
298.8910, 425.6089
300.1020, 401.6816
301.3120, 292.7410
302.5230, 179.7815
303.7330, 148.7971
304.9440, 17.79980
306.1540, 85.83472
307.3630, 25.80347
308.5730, 24.92798
309.7830, 36.40674
310.9920, 2.991943
312.2010, 37.33521
313.4100, 30.96216
314.6190, 1.579346
315.8280, 9.611816
317.0370, 9.176270
318.2450, 16.29321
319.4530, 36.42920
320.6610, 43.96069
321.8690, 84.41626
323.0770, 101.6187
324.2850, 140.3704
325.4920, 168.1501
326.6990, 166.5830
327.9060, 216.0645
329.1130, 174.0652
330.3200, 290.7026
331.5270, 223.0547
332.7330, 200.3411
333.9390, 209.5396
335.1450, 95.89453
336.3510, 121.4036
337.5570, 87.35425
338.7630, 45.56543
339.9680, 37.90405
341.1740, 110.9060
342.3790, 139.9265
343.5840, 165.1245
344.7890, 201.1770
345.9930, 324.3931
347.1980, 432.6245
348.4020, 496.8594
349.6060, 558.8691
350.8100, 697.1746
352.0140, 876.0122
353.2180, 939.8184
354.4210, 1008.901
355.6250, 1046.930
356.8280, 937.1382
358.0310, 811.5510
359.2340, 595.5454
360.4360, 495.8572
361.6390, 263.9802
362.8410, 255.4092
364.0430, 302.1809
365.2450, 155.6477
366.4470, 164.9380
367.6490, 147.2834
368.8510, 91.85986
370.0520, 11.22974
371.2530, 67.26758
372.4540, 129.4114
373.6550, 26.40283
374.8560, 91.37891
376.0560, 54.33252
377.2570, 110.2632
378.4570, 159.1699
379.6570, 38.05420
380.8570, 107.9106
382.0570, 102.7419
383.2560, 221.5469
384.4560, 232.3259
385.6550, 346.0801
386.8540, 323.8110
388.0530, 386.0610
389.2520, 486.9014
390.4510, 449.6846
391.6490, 521.9785
392.8470, 585.3018
394.0450, 400.5156
395.2430, 449.6992
396.4410, 358.1113
397.6390, 234.1995
398.8360, 136.5452
400.0340, 188.9053
401.2310, 77.98706
402.4280, 105.6968
403.6250, 75.82983
404.8210, 22.87085
406.0180, 39.52173
407.2140, 29.74390
408.4100, 57.80225
409.6060, 45.26929
410.8020, 115.3638
411.9980, 137.3296
413.1930, 150.9189
414.3890, 119.6631
415.5840, 95.28369
416.7790, 104.2385
417.9740, 101.5195
419.1680, 96.29712
420.3630, 89.98218
421.5570, 66.21826
422.7510, 66.78101
423.9450, 58.78857
425.1390, 71.27368
426.3330, 98.60327
427.5270, 1.950684
428.7200, 56.15454
429.9130, 102.8401
431.1060, 195.9441
432.2990, 263.8447
433.4920, 186.6375
434.6840, 208.1516
435.8770, 295.5269
437.0690, 190.9138
438.2610, 286.2273
439.4530, 308.4941
440.6450, 310.7241
441.8360, 362.9180
443.0280, 392.0747
444.2190, 285.1953
445.4100, 403.2788
446.6010, 221.3267
447.7920, 281.3386
448.9820, 191.1963
450.1730, 209.1367
451.3630, 130.9458
452.5530, 65.16260
453.7430, 87.66211
454.9330, 98.24658
456.1230, 28.33887
457.3120, 28.13525
458.5010, 8.910645
459.6910, 35.73389
460.8800, 35.40674
462.0680, 0.3242190
463.2570, 25.68213
464.4460, 4.2969000E-02
465.6340, 111.3096
466.8220, 36.93994
468.0100, 37.53418
469.1980, 49.15820
470.3860, 35.19824
471.5730, 7.163086
472.7600, 4.198730
473.9480, 0.1088870
475.1350, 61.65771
476.3210, 14.41504
477.5080, 39.44922
478.6950, 18.07812
479.8810, 11.19434
481.0670, 65.47412
482.2530, 1.940918
483.4390, 109.2109
484.6250, 101.8252
485.8100, 56.27832
486.9960, 1.544922
488.1810, 65.07861
489.3660, 40.04932
490.5510, 36.97754
491.7360, 87.24170
492.9200, 19.87256
494.1050, 41.14893
495.2890, 118.1377
496.4730, 50.60156
497.6570, 59.41992
498.8400, 23.21875
500.0240, 74.03613
501.2070, 55.99512
502.3910, 10.92334
503.5740, 25.74268
504.7570, 179.5547
505.9400, 184.1621
507.1220, 161.8901
508.3050, 199.6006
509.4870, 182.2583
510.6690, 122.5527
511.8510, 174.6885
513.0330, 277.9746
514.2140, 218.0205
515.3960, 327.8882
516.5770, 361.5410
517.7580, 341.7217
518.9390, 420.6138
520.1200, 453.3101
521.3010, 427.3481
522.4810, 491.1929
523.6610, 388.7642
524.8420, 398.5464
526.0220, 410.1685
527.2010, 333.9658
528.3810, 278.0083
529.5610, 128.8872
530.7400, 227.5166
531.9190, 236.0562
533.0980, 109.3735
534.2770, 97.68848
535.4560, 118.8022
536.6340, 121.3320
537.8120, 61.35352
538.9910, 133.0400
540.1690, 66.09424
541.3460, 56.86768
542.5240, 117.6289
543.7020, 200.0332
544.8790, 92.30029
546.0560, 107.1387
547.2330, 123.6543
548.4100, 117.0488
549.5870, 79.34326
550.7630, 12.69580
551.9400, 54.92920
553.1160, 76.39502
554.2920, 160.8916
555.4680, 116.3872
556.6440, 86.70312
557.8190, 96.87256
558.9950, 39.01855
560.1700, 77.11719
561.3450, 91.13086
562.5200, 89.05713
563.6950, 103.8232
564.8690, 125.5308
566.0440, 192.3911
567.2180, 119.9990
568.3920, 83.65967
569.5660, 152.9092
570.7400, 244.2842
571.9130, 135.7969
573.0870, 176.6094
574.2600, 194.3657
575.4330, 253.0488
576.6060, 321.6953
577.7790, 267.2891
578.9520, 276.8184
580.1240, 357.3086
581.2960, 323.4023
582.4690, 404.1284
583.6410, 352.4595
584.8120, 460.9170
585.9840, 511.2461
587.1560, 427.7617
588.3270, 462.2754
589.4980, 477.8018
590.6690, 393.3682
591.8400, 342.9360
593.0110, 314.0342
594.1810, 304.8433
595.3510, 269.4912
596.5220, 187.9995
597.6920, 241.1045
598.8610, 177.0156
600.0310, 190.1035
601.2010, 170.3188
602.3700, 101.2954
603.5390, 124.8750
604.7080, 56.92822
605.8770, 49.48926
607.0460, 183.9570
608.2140, 16.85596
609.3830, 158.8223
610.5510, 65.99902
611.7190, 74.10986
612.8870, 140.7964
614.0550, 20.49219
615.2220, 83.71338
616.3900, 35.65283
617.5570, 35.06348
618.7240, 81.41406
619.8910, 47.25342
621.0580, 36.17676
622.2240, 10.51465
623.3910, 83.00244
624.5570, 25.58740
625.7230, 54.80518
626.8890, 89.37695
628.0550, 50.14551
629.2200, 15.93262
630.3860, 13.00293
631.5510, 30.18359
632.7160, 171.7861
633.8810, 9.664063
635.0460, 64.62891
636.2100, 26.19287
637.3750, 84.55762
638.5390, 78.18701
639.7030, 62.68457
640.8670, 18.37256
642.0310, 14.87012
643.1950, 29.65820
644.3580, 19.87061
645.5210, 58.63770
646.6850, 20.51953
647.8480, 14.12988
649.0100, 16.95557
650.1730, 93.67969
651.3350, 65.80615
652.4980, 144.8052
653.6600, 53.63623
654.8220, 147.2905
655.9840, 33.88330
657.1450, 12.79639
658.3070, 33.58984
659.4680, 125.0332
660.6300, 65.83887
661.7910, 4.562988
662.9510, 119.5820
664.1120, 52.75146
665.2730, 124.9302
666.4330, 72.61035
667.5930, 8.516602
668.7530, 32.41406
669.9130, 50.89014
671.0730, 91.41895
672.2320, 134.3579
673.3920, 122.7915
674.5510, 158.2148
675.7100, 46.86035
676.8690, 156.9829
678.0280, 224.5933
679.1860, 125.9800
680.3450, 157.4727
681.5030, 174.7788
682.6610, 160.1606
683.8190, 208.0000
684.9770, 267.0103
686.1340, 271.9785
687.2920, 314.2461
688.4490, 352.1528
689.6060, 371.6016
690.7630, 430.4033
691.9200, 450.8711
693.0760, 496.6650
694.2330, 592.3125
695.3890, 815.5781
696.5450, 1005.739
697.7010, 1230.079
698.8570, 1626.732
700.0130, 2050.633
701.1680, 2389.884
702.3230, 2987.436
703.4780, 3610.539
704.6330, 4086.717
705.7880, 4505.954
706.9430, 4470.404
708.0970, 4557.841
709.2520, 3952.529
710.4060, 3393.475
711.5600, 2713.698
712.7140, 2087.145
713.8670, 1572.535
715.0210, 1226.234
716.1740, 922.1636
717.3270, 770.9697
718.4800, 505.1978
719.6330, 615.5020
720.7860, 420.1016
721.9380, 394.8242
723.0910, 290.0508
724.2430, 308.4019
725.3950, 251.5205
726.5470, 239.7168
727.6980, 224.2944
728.8500, 189.9966
730.0010, 189.6982
731.1530, 214.3984
732.3040, 207.3555
733.4550, 212.0596
734.6050, 101.7998
735.7560, 303.8135
736.9060, 96.84082
738.0560, 177.3662
739.2060, 110.9482
740.3560, 140.2930
741.5060, 137.6084
742.6560, 222.2500
743.8050, 115.9404
744.9540, 180.8584
746.1030, 168.0850
747.2520, 128.1709
748.4010, 142.8633
749.5500, 129.4893
750.6980, 90.53809
751.8460, 157.3213
752.9950, 77.52930
754.1420, 137.7363
755.2900, 144.0557
756.4380, 112.5244
757.5850, 56.87109
758.7330, 152.2168
759.8800, 210.8779
761.0270, 125.2852
762.1730, 164.1592
763.3200, 12.45703
764.4670, 82.01074
765.6130, 50.46484
766.7590, 195.2217
767.9050, 170.9307
769.0510, 89.20996
770.1960, 30.64258
771.3420, 101.0186
772.4870, 97.77246
773.6320, 114.4473
774.7770, 127.3984
775.9220, 148.9834
777.0670, 117.2334
778.2110, 116.9023
779.3560, 127.4180
780.5000, 176.8926
781.6440, 134.7686
782.7880, 148.4775
783.9320, 110.1699
785.0750, 135.8760
786.2180, 104.9326
787.3620, 94.63281
788.5050, 68.28125
789.6480, 65.70117
790.7900, 71.18262
791.9330, 66.37598
793.0750, 45.05957
794.2170, 53.99219
795.3590, 29.34277
796.5010, 77.84766
797.6430, 12.53027
798.7850, 14.10352
799.9260, 133.8066
801.0670, 91.93750
802.2080, 73.83203
803.3490, 175.8945
804.4900, 104.8477
805.6310, 90.37598
806.7710, 32.70801
807.9110, 164.8320
809.0510, 34.75293
810.1910, 222.5361
811.3310, 196.8740
812.4710, 147.6904
813.6100, 41.52344
814.7490, 68.62109
815.8880, 3.929688
817.0270, 24.63086
818.1660, 84.42383
819.3050, 109.9424
820.4430, 67.32227
821.5820, 145.7012
822.7200, 153.2031
823.8580, 82.99219
824.9950, 115.4092
826.1330, 110.1016
827.2710, 114.6318
828.4080, 137.5996
829.5450, 68.84668
830.6820, 166.1562
831.8190, 29.51953
832.9560, 171.4287
834.0920, 120.2686
835.2280, 207.9990
836.3650, 168.6230
837.5010, 80.13965
838.6360, 226.5430
839.7720, 90.84570
840.9080, 77.03613
842.0430, 119.1143
843.1780, 154.0811
844.3130, 42.06152
845.4480, 156.6543
846.5830, 167.2607
847.7170, 26.75293
848.8520, 180.1299
849.9860, 191.3936
851.1200, 156.5479
852.2540, 106.5879
853.3870, 105.5156
854.5210, 38.38574
855.6540, 198.0771
856.7880, 108.4209
857.9210, 72.02344
859.0540, 160.3486
860.1860, 111.2402
861.3190, 148.9160
862.4510, 111.0576
863.5840, 92.82031
864.7160, 97.20801
865.8480, 170.3975
866.9790, 150.6611
868.1110, 81.06836
869.2420, 1.146484
870.3740, 86.94336
871.5050, 151.3184
872.6360, 187.1562
873.7660, 221.4785
874.8970, 215.6025
876.0280, 231.6631
877.1580, 154.1621
878.2880, 92.62598
879.4180, 219.9229
880.5480, 137.9854
881.6770, 177.0703
882.8070, 61.98047
883.9360, 248.8516
885.0650, 78.54590
886.1940, 14.47949
887.3230, 142.8086
888.4520, 139.4668
889.5800, 30.04980
890.7090, 7.708984
891.8370, 69.01660
892.9650, 7.808594
894.0930, 67.72656
895.2200, 160.6143
896.3480, 166.9287
897.4750, 125.0264
898.6020, 184.6445
899.7290, 128.4639
900.8560, 162.8896
901.9830, 72.64551
903.1090, 9.522461
904.2360, 34.50684
905.3620, 270.4717
906.4880, 162.7031
907.6140, 122.9775
908.7400, 28.81445
909.8650, 157.3418
910.9900, 172.3691
912.1160, 222.3340
913.2410, 100.0742
914.3660, 226.1006
915.4900, 107.5957
916.6150, 63.85938
917.7390, 33.68262
918.8640, 39.63965
919.9880, 125.9648
921.1120, 120.3838
922.2350, 170.3770
923.3590, 183.3594
924.4820, 156.4551
925.6060, 181.5000
926.7290, 132.9814
927.8520, 101.3164
928.9740, 173.4443
930.0970, 213.5498
931.2190, 34.37598
932.3420, 193.3877
933.4640, 132.8750
934.5860, 9.721680
935.7080, 57.78223
936.8290, 44.82812
937.9510, 207.2461
939.0720, 154.9844
940.1930, 31.30762
941.3140, 59.56738
942.4350, 80.98535
943.5560, 14.04004
944.6760, 121.3730
945.7960, 41.43164
946.9170, 103.2588
948.0370, 38.76953
949.1560, 12.37500
950.2760, 192.5625
951.3960, 76.83594
952.5150, 122.5420
953.6340, 60.20605
954.7530, 55.94824
955.8720, 25.76465
956.9910, 254.6963
958.1090, 31.06543
959.2280, 263.0059
960.3460, 170.0088
961.4640, 181.8320
962.5820, 289.5244
963.6990, 196.1934
964.8170, 153.4375
965.9340, 361.9990
967.0510, 476.9580
968.1690, 546.2900
969.2850, 534.2900
970.4020, 787.5996
971.5190, 847.5947
972.6350, 979.2910
973.7510, 967.0283
974.8670, 1222.662
975.9830, 1344.036
977.0990, 1223.561
978.2150, 1510.178
979.3300, 1430.903
980.4450, 1389.997
981.5600, 1239.032
982.6750, 1025.149
983.7900, 761.0283
984.9050, 575.8496
986.0190, 545.4258
987.1340, 444.0996
988.2480, 376.2617
989.3620, 404.8633
990.4750, 205.2109
991.5890, 114.0879
992.7020, 150.6660
993.8160, 182.5391
994.9290, 44.09766
996.0420, 64.69727
997.1550, 313.0332
998.2670, 11.20117
999.3800, 102.2891
1000.492, 78.57422
1001.604, 15.31445
1002.716, 79.36523
1003.828, 73.87109
1004.940, 78.62109
1006.051, 24.66797
1007.163, 165.0996
1008.274, 100.0508
1009.385, 62.66406
1010.496, 161.6426
1011.606, 15.04492
1012.717, 231.8789
1013.827, 158.5898
1014.937, 193.4531
1016.047, 198.5918
1017.157, 141.4277
1018.267, 173.2891
1019.377, 314.0625
1020.486, 151.6152
1021.595, 115.0059
1022.704, 268.0449
1023.813, 283.8320
1024.922, 105.4375
1026.030, 170.4844
1027.139, 79.69531
1028.247, 126.6523
1029.355, 78.99414
1030.463, 64.22656
1031.571, 6.187500
1032.678, 101.5039
1033.786, 262.3770
1034.893, 8.605469
1036.000, 35.60156
1037.107, 137.8301
1038.214, 64.78711
1039.321, 117.2383
1040.427, 152.0625
1041.533, 123.0957
1042.639, 3.021484
1043.745, 122.9023
1044.851, 128.9590
1045.957, 121.9199
1047.062, 262.4531
1048.168, 127.7988
1049.273, 136.7148
1050.378, 380.5508
1051.482, 170.5762
1052.587, 253.1719
1053.692, 26.39648
1054.796, 273.7285
1055.900, 100.9316
1057.004, 176.0879
1058.108, 530.1719
1059.212, 270.1758
1060.315, 478.0957
1061.418, 403.9512
1062.522, 608.7559
1063.625, 592.5234
1064.728, 632.2422
1065.830, 723.9023
1066.933, 941.4062
1068.035, 1391.660
1069.137, 1602.473
1070.239, 1579.449
1071.341, 1638.594
1072.443, 1814.926
1073.545, 1895.066
1074.646, 1662.080
1075.747, 1560.527
1076.848, 1220.354
1077.949, 959.0078
1079.050, 674.0410
1080.150, 635.6875
1081.251, 557.9688
1082.351, 400.3379
1083.451, 362.5586
1084.551, 388.0918
1085.651, 348.9141
1086.750, 177.6484
1087.850, 360.2988
1088.949, 355.4238
1090.048, 214.9180
1091.147, 279.7012
1092.246, 160.5273
1093.345, 166.6191
1094.443, 345.7578
1095.541, 261.5488
1096.639, 301.8125
1097.737, 212.4727
1098.835, 63.14453
1099.933, 308.7871
1101.030, 165.0020
1102.128, 131.3066
1103.225, 283.3574
1104.322, 94.03125
1105.419, 7.691406
1106.515, 62.18164
1107.612, 79.78906
1108.708, 58.17773
1109.804, 41.71289
1110.900, 59.74414
1111.996, 123.8047
1113.092, 110.7695
1114.187, 231.5449
1115.283, 324.1250
1116.378, 403.4883
1117.473, 389.6875
1118.568, 1.814453
1119.662, 311.3184
1120.757, 149.0957
1121.851, 453.6191
1122.946, 312.7852
1124.040, 130.7285
1125.134, 364.9297
1126.227, 184.5273
1127.321, 298.9414
1128.414, 301.8125
1129.508, 347.5859
1130.601, 197.5605
1131.693, 223.4297
1132.786, 111.2090
1133.879, 415.1465
1134.971, 125.3320
1136.064, 327.6094
1137.156, 256.8262
1138.248, 464.0254
1139.339, 315.8281
1140.431, 382.5938
1141.522, 2.042969
1142.614, 350.8633
1143.705, 0.0000000E+00
##END=



