##NAMES=Spodumene
##RRUFFID=R040050
##IDEAL CHEMISTRY=LiAlSi_2_O_6_
##LOCALITY=Minas Gerais, Brazil
##OWNER=RRUFF
##SOURCE=University of Arizona Mineral Museum
##DESCRIPTION=Pale pink fragment of a single crystal, variety kunzite
##STATUS=The identification of this mineral has been confirmed by X-ray diffraction and chemical analysis
##URL=rruff.info/R040050
##MEASURED CHEMISTRY=(Li_0.99_Na_0.01_)Al_1.00_Si_2.00_O_6_
##PIN_ID=L00429
##ORIENTATION=Laser parallel to c* (0 0 1). Fiducial mark perpendicular to laser is parallel to a [1 0 0]
105.5290, 0.0000000E+00
106.7660, 17.44287
108.0020, 42.74707
109.2390, 42.26184
110.4750, 56.92151
111.7110, 21.05420
112.9460, 58.03552
114.1820, 47.96362
115.4170, 37.62476
116.6530, 55.86145
117.8880, 27.57532
119.1230, 30.72888
120.3580, 77.27417
121.5920, 50.11877
122.8270, 89.52368
124.0610, 134.4694
125.2950, 140.9738
126.5290, 137.5492
127.7630, 161.2854
128.9970, 154.1633
130.2300, 170.3577
131.4640, 189.7283
132.6970, 162.3081
133.9300, 151.9857
135.1630, 57.76294
136.3950, 60.37927
137.6280, 82.01013
138.8600, 27.65454
140.0920, 77.31165
141.3240, 49.98047
142.5560, 17.65955
143.7880, 1.653564
145.0190, 67.04004
146.2510, 45.78711
147.4820, 71.80835
148.7130, 99.94678
149.9440, 25.14575
151.1750, 88.31592
152.4050, 40.45728
153.6360, 30.56665
154.8660, 45.55884
156.0960, 13.74463
157.3260, 7.518311
158.5560, 29.01831
159.7850, 26.85815
161.0150, 44.69385
162.2440, 1.471436
163.4730, 43.36572
164.7020, 2.777344
165.9310, 41.08521
167.1590, 42.95044
168.3880, 55.81836
169.6160, 98.68896
170.8440, 36.56104
172.0720, 37.43848
173.3000, 13.31738
174.5280, 22.20264
175.7550, 28.08740
176.9820, 45.96777
178.2100, 74.84326
179.4370, 83.71045
180.6630, 107.1733
181.8900, 120.4141
183.1170, 152.2581
184.3430, 151.1033
185.5690, 187.1035
186.7950, 174.6565
188.0210, 236.4543
189.2470, 245.5115
190.4720, 146.4377
191.6970, 167.7749
192.9230, 130.4780
194.1480, 107.3921
195.3730, 53.03638
196.5970, 18.69775
197.8220, 2.367920
199.0460, 34.04419
200.2700, 28.27783
201.4940, 4.401855
202.7180, 30.08228
203.9420, 11.76270
205.1660, 10.55786
206.3890, 7.120117
207.6120, 15.20093
208.8350, 0.7983400
210.0580, 20.78662
211.2810, 27.23901
212.5040, 10.98462
213.7260, 13.96777
214.9480, 13.52637
216.1700, 5.362061
217.3920, 22.73926
218.6140, 26.21338
219.8360, 50.97876
221.0570, 57.05713
222.2790, 64.61230
223.5000, 94.82715
224.7210, 121.7842
225.9410, 93.75562
227.1620, 182.7139
228.3820, 176.6794
229.6030, 162.6514
230.8230, 140.6238
232.0430, 53.58130
233.2630, 81.53638
234.4820, 55.48706
235.7020, 81.43188
236.9210, 74.59766
238.1400, 88.52100
239.3590, 138.5671
240.5780, 201.4641
241.7970, 263.5576
243.0150, 330.6799
244.2340, 429.5088
245.4520, 524.3196
246.6700, 678.1116
247.8880, 815.8853
249.1060, 970.6440
250.3230, 907.3916
251.5400, 820.1265
252.7580, 628.5964
253.9750, 511.1787
255.1920, 361.8315
256.4080, 232.5342
257.6250, 153.2737
258.8410, 114.0444
260.0580, 99.83838
261.2740, 33.65234
262.4900, 29.89233
263.7050, 35.05371
264.9210, 12.19263
266.1360, 13.72192
267.3520, 23.36621
268.5670, 3.374023
269.7820, 30.50513
270.9960, 49.64014
272.2110, 16.78516
273.4250, 11.06641
274.6400, 29.91846
275.8540, 31.77026
277.0680, 13.33398
278.2810, 11.48950
279.4950, 1.653320
280.7090, 10.69312
281.9220, 37.87720
283.1350, 66.64258
284.3480, 173.4587
285.5610, 150.7058
286.7730, 242.9497
287.9860, 309.8813
289.1980, 342.9104
290.4100, 416.8347
291.6220, 567.6172
292.8340, 567.3926
294.0460, 635.1577
295.2570, 662.1128
296.4690, 687.6592
297.6800, 635.3940
298.8910, 577.1177
300.1020, 478.8135
301.3120, 382.4988
302.5230, 329.1680
303.7330, 186.8184
304.9440, 139.4468
306.1540, 168.0649
307.3630, 74.73950
308.5730, 89.78394
309.7830, 24.55151
310.9920, 59.61914
312.2010, 0.2194820
313.4100, 75.59546
314.6190, 41.83936
315.8280, 59.89087
317.0370, 100.3611
318.2450, 90.57983
319.4530, 156.7231
320.6610, 156.3833
321.8690, 131.5933
323.0770, 227.0525
324.2850, 225.5354
325.4920, 226.4246
326.6990, 246.4788
327.9060, 248.6372
329.1130, 242.4944
330.3200, 208.8159
331.5270, 210.8301
332.7330, 158.8201
333.9390, 104.2810
335.1450, 77.26782
336.3510, 60.20825
337.5570, 32.12866
338.7630, 95.51758
339.9680, 67.73828
341.1740, 141.6282
342.3790, 199.9700
343.5840, 236.8972
344.7890, 373.2842
345.9930, 445.8413
347.1980, 619.6899
348.4020, 787.3381
349.6060, 878.4385
350.8100, 1138.908
352.0140, 1418.096
353.2180, 1516.197
354.4210, 1741.862
355.6250, 1751.658
356.8280, 1685.485
358.0310, 1314.365
359.2340, 1022.131
360.4360, 772.0063
361.6390, 566.5298
362.8410, 343.3828
364.0430, 227.7451
365.2450, 255.2864
366.4470, 82.70410
367.6490, 180.2896
368.8510, 162.3118
370.0520, 149.2939
371.2530, 167.2898
372.4540, 104.2092
373.6550, 143.1416
374.8560, 117.0571
376.0560, 111.9548
377.2570, 96.83423
378.4570, 124.6946
379.6570, 174.5364
380.8570, 199.3608
382.0570, 297.1685
383.2560, 306.9570
384.4560, 424.7285
385.6550, 556.4797
386.8540, 610.2124
388.0530, 738.9736
389.2520, 878.9180
390.4510, 997.7314
391.6490, 1065.067
392.8470, 1117.213
394.0450, 1173.041
395.2430, 1079.135
396.4410, 956.2744
397.6390, 721.1511
398.8360, 530.2578
400.0340, 438.1548
401.2310, 242.9343
402.4280, 264.1985
403.6250, 178.9299
404.8210, 177.0542
406.0180, 66.05127
407.2140, 88.87012
408.4100, 97.66943
409.6060, 64.31714
410.8020, 100.0332
411.9980, 137.4128
413.1930, 219.8528
414.3890, 236.0720
415.5840, 267.1204
416.7790, 246.6975
417.9740, 348.4429
419.1680, 196.1152
420.3630, 157.9490
421.5570, 185.6689
422.7510, 199.3232
423.9450, 46.71362
425.1390, 85.32617
426.3330, 83.85303
427.5270, 35.15674
428.7200, 69.70386
429.9130, 70.51685
431.1060, 144.4373
432.2990, 120.3196
433.4920, 142.4089
434.6840, 182.4551
435.8770, 222.4370
437.0690, 260.0879
438.2610, 290.7395
439.4530, 337.5579
440.6450, 364.1184
441.8360, 363.6479
443.0280, 433.1475
444.2190, 456.6157
445.4100, 376.0549
446.6010, 346.4639
447.7920, 264.8428
448.9820, 191.1931
450.1730, 173.5142
451.3630, 79.80591
452.5530, 148.3572
453.7430, 66.93335
454.9330, 51.61206
456.1230, 45.14478
457.3120, 28.52637
458.5010, 73.20068
459.6910, 10.14453
460.8800, 30.66699
462.0680, 47.45044
463.2570, 5.163574
464.4460, 28.47266
465.6340, 24.27148
466.8220, 8.828369
468.0100, 31.35718
469.1980, 59.16797
470.3860, 32.42725
471.5730, 64.89307
472.7600, 27.99243
473.9480, 34.08252
475.1350, 62.16772
476.3210, 42.00244
477.5080, 47.64160
478.6950, 56.15576
479.8810, 56.57568
481.0670, 6.315918
482.2530, 8.052734
483.4390, 54.79688
484.6250, 26.29590
485.8100, 52.10547
486.9960, 10.33594
488.1810, 64.51953
489.3660, 71.66357
490.5510, 4.489746
491.7360, 20.39551
492.9200, 55.10205
494.1050, 20.96777
495.2890, 84.70557
496.4730, 107.0430
497.6570, 92.08057
498.8400, 68.64453
500.0240, 54.96924
501.2070, 81.87598
502.3910, 53.23389
503.5740, 137.0229
504.7570, 55.29395
505.9400, 169.4287
507.1220, 123.4175
508.3050, 149.3306
509.4870, 105.0596
510.6690, 235.9390
511.8510, 253.9150
513.0330, 271.0317
514.2140, 303.9697
515.3960, 358.9478
516.5770, 406.1738
517.7580, 534.6167
518.9390, 522.1455
520.1200, 629.5293
521.3010, 673.0938
522.4810, 708.8965
523.6610, 625.9629
524.8420, 595.4067
526.0220, 552.1797
527.2010, 461.4150
528.3810, 394.0703
529.5610, 239.9800
530.7400, 192.1123
531.9190, 219.2803
533.0980, 90.57178
534.2770, 131.7295
535.4560, 203.5796
536.6340, 135.4155
537.8120, 120.2275
538.9910, 178.9360
540.1690, 119.7900
541.3460, 165.4316
542.5240, 189.0049
543.7020, 68.47559
544.8790, 191.3125
546.0560, 92.67090
547.2330, 118.0771
548.4100, 154.6279
549.5870, 153.3730
550.7630, 164.4341
551.9400, 142.1270
553.1160, 134.5073
554.2920, 124.0024
555.4680, 54.57471
556.6440, 39.10156
557.8190, 140.5894
558.9950, 91.03271
560.1700, 120.4263
561.3450, 76.76855
562.5200, 118.0146
563.6950, 149.2607
564.8690, 84.45996
566.0440, 79.09375
567.2180, 118.8335
568.3920, 172.5127
569.5660, 106.9336
570.7400, 71.44580
571.9130, 206.9072
573.0870, 244.6284
574.2600, 188.1973
575.4330, 191.8042
576.6060, 200.5054
577.7790, 289.1567
578.9520, 211.7588
580.1240, 314.3105
581.2960, 286.8140
582.4690, 360.2690
583.6410, 422.6763
584.8120, 349.0361
585.9840, 487.7383
587.1560, 393.2109
588.3270, 363.6885
589.4980, 443.4014
590.6690, 396.0972
591.8400, 313.7480
593.0110, 210.0830
594.1810, 153.5176
595.3510, 155.8257
596.5220, 141.9067
597.6920, 141.3159
598.8610, 99.27637
600.0310, 44.12158
601.2010, 152.6812
602.3700, 82.38623
603.5390, 90.99805
604.7080, 177.9697
605.8770, 182.5005
607.0460, 122.7549
608.2140, 104.1152
609.3830, 74.43945
610.5510, 129.9536
611.7190, 71.72998
612.8870, 151.3223
614.0550, 184.4780
615.2220, 89.40039
616.3900, 181.7451
617.5570, 0.4086910
618.7240, 203.3325
619.8910, 199.3359
621.0580, 85.53516
622.2240, 164.0508
623.3910, 69.66455
624.5570, 88.39062
625.7230, 83.26465
626.8890, 33.41797
628.0550, 4.816895
629.2200, 17.51172
630.3860, 56.81299
631.5510, 25.92432
632.7160, 64.47510
633.8810, 11.72217
635.0460, 47.88867
636.2100, 58.13232
637.3750, 38.14160
638.5390, 48.12012
639.7030, 12.10352
640.8670, 22.30713
642.0310, 68.17041
643.1950, 21.96191
644.3580, 69.92969
645.5210, 92.29297
646.6850, 117.6538
647.8480, 125.9409
649.0100, 111.2998
650.1730, 115.1831
651.3350, 83.28369
652.4980, 41.54492
653.6600, 75.65625
654.8220, 24.09717
655.9840, 61.70898
657.1450, 75.15625
658.3070, 112.8252
659.4680, 124.5186
660.6300, 98.53564
661.7910, 49.79541
662.9510, 3.3691000E-02
664.1120, 117.2607
665.2730, 29.77197
666.4330, 148.9409
667.5930, 45.17529
668.7530, 2.301758
669.9130, 147.2275
671.0730, 128.9355
672.2320, 89.79541
673.3920, 110.7603
674.5510, 174.1934
675.7100, 170.0479
676.8690, 165.4268
678.0280, 179.5508
679.1860, 134.9946
680.3450, 174.8911
681.5030, 180.8306
682.6610, 194.7148
683.8190, 95.69043
684.9770, 200.0498
686.1340, 177.6831
687.2920, 272.9941
688.4490, 237.3008
689.6060, 391.3525
690.7630, 305.1499
691.9200, 523.5986
693.0760, 479.7461
694.2330, 555.3242
695.3890, 704.7554
696.5450, 913.2969
697.7010, 1214.305
698.8570, 1424.974
700.0130, 1662.546
701.1680, 2236.067
702.3230, 2630.943
703.4780, 3029.405
704.6330, 3737.653
705.7880, 4033.977
706.9430, 4139.376
708.0970, 4080.683
709.2520, 3567.291
710.4060, 2998.997
711.5600, 2243.055
712.7140, 1793.509
713.8670, 1333.482
715.0210, 1094.508
716.1740, 848.3340
717.3270, 601.4082
718.4800, 520.2070
719.6330, 503.2139
720.7860, 404.1992
721.9380, 408.3179
723.0910, 327.4570
724.2430, 221.3252
725.3950, 264.9663
726.5470, 252.1865
727.6980, 184.5894
728.8500, 176.9160
730.0010, 160.6680
731.1530, 130.5581
732.3040, 162.4307
733.4550, 98.53662
734.6050, 124.1914
735.7560, 113.9219
736.9060, 103.2085
738.0560, 162.6519
739.2060, 116.1318
740.3560, 126.5420
741.5060, 151.1694
742.6560, 165.2065
743.8050, 124.0269
744.9540, 115.0181
746.1030, 68.73730
747.2520, 202.7363
748.4010, 101.6953
749.5500, 236.7666
750.6980, 60.18359
751.8460, 113.4751
752.9950, 189.5088
754.1420, 76.39795
755.2900, 106.8979
756.4380, 132.8750
757.5850, 109.1807
758.7330, 49.55273
759.8800, 81.96191
761.0270, 83.73975
762.1730, 125.5288
763.3200, 91.82959
764.4670, 43.85400
765.6130, 60.58301
766.7590, 60.52344
767.9050, 131.9277
769.0510, 214.2246
770.1960, 6.698242
771.3420, 90.75195
772.4870, 25.36621
773.6320, 153.7217
774.7770, 133.9697
775.9220, 50.80762
777.0670, 129.5605
778.2110, 92.90918
779.3560, 176.2256
780.5000, 39.95703
781.6440, 98.27832
782.7880, 129.3613
783.9320, 230.1748
785.0750, 187.9404
786.2180, 25.54883
787.3620, 161.4668
788.5050, 62.24023
789.6480, 23.60938
790.7900, 34.81250
791.9330, 179.9941
793.0750, 134.9121
794.2170, 28.15723
795.3590, 91.16113
796.5010, 16.49707
797.6430, 219.3818
798.7850, 146.4736
799.9260, 135.8291
801.0670, 121.7354
802.2080, 40.04297
803.3490, 103.8281
804.4900, 74.18945
805.6310, 16.12402
806.7710, 1.722656
807.9110, 100.3623
809.0510, 78.03711
810.1910, 146.6748
811.3310, 68.05176
812.4710, 16.88770
813.6100, 55.54688
814.7490, 92.68750
815.8880, 64.46973
817.0270, 116.4111
818.1660, 135.1855
819.3050, 155.3750
820.4430, 235.2324
821.5820, 35.41309
822.7200, 71.76660
823.8580, 157.8330
824.9950, 179.5371
826.1330, 223.4590
827.2710, 51.37793
828.4080, 85.54004
829.5450, 134.2041
830.6820, 243.8398
831.8190, 192.3604
832.9560, 133.2207
834.0920, 106.7119
835.2280, 121.3262
836.3650, 156.6279
837.5010, 107.6582
838.6360, 56.58691
839.7720, 159.4131
840.9080, 128.1387
842.0430, 87.76562
843.1780, 91.96191
844.3130, 150.7393
845.4480, 32.07520
846.5830, 0.3056640
847.7170, 11.42969
848.8520, 117.4443
849.9860, 158.3545
851.1200, 131.2139
852.2540, 170.3799
853.3870, 165.6738
854.5210, 152.6152
855.6540, 148.1846
856.7880, 139.0029
857.9210, 90.20801
859.0540, 71.33398
860.1860, 116.7539
861.3190, 159.9609
862.4510, 248.5244
863.5840, 187.3467
864.7160, 201.1035
865.8480, 83.82129
866.9790, 124.6924
868.1110, 93.29199
869.2420, 71.21680
870.3740, 145.7129
871.5050, 94.84277
872.6360, 270.8584
873.7660, 48.94043
874.8970, 49.41406
876.0280, 114.9375
877.1580, 213.2100
878.2880, 105.0146
879.4180, 224.9375
880.5480, 169.1240
881.6770, 159.0547
882.8070, 294.1992
883.9360, 260.7002
885.0650, 268.7998
886.1940, 108.3398
887.3230, 197.0400
888.4520, 63.85742
889.5800, 28.14258
890.7090, 121.8604
891.8370, 258.7256
892.9650, 156.1807
894.0930, 115.6875
895.2200, 211.9883
896.3480, 26.75391
897.4750, 30.90039
898.6020, 189.3252
899.7290, 106.0557
900.8560, 28.78711
901.9830, 118.9424
903.1090, 45.56055
904.2360, 81.65820
905.3620, 36.69727
906.4880, 95.82129
907.6140, 111.0498
908.7400, 201.0635
909.8650, 71.66309
910.9900, 177.5498
912.1160, 79.07227
913.2410, 165.0479
914.3660, 54.72461
915.4900, 55.32227
916.6150, 40.01465
917.7390, 12.59668
918.8640, 32.25586
919.9880, 37.72461
921.1120, 47.92676
922.2350, 114.3330
923.3590, 131.2402
924.4820, 172.6309
925.6060, 146.7051
926.7290, 162.7598
927.8520, 69.74023
928.9740, 163.3516
930.0970, 82.42578
931.2190, 4.112305
932.3420, 157.6016
933.4640, 84.58496
934.5860, 162.1514
935.7080, 173.5586
936.8290, 193.8066
937.9510, 206.5977
939.0720, 27.58008
940.1930, 138.3271
941.3140, 112.6230
942.4350, 46.30371
943.5560, 1.788086
944.6760, 154.4766
945.7960, 49.11328
946.9170, 9.802734
948.0370, 42.41602
949.1560, 62.97070
950.2760, 98.61719
951.3960, 214.9707
952.5150, 270.4424
953.6340, 152.8652
954.7530, 221.2275
955.8720, 67.81934
956.9910, 5.366211
958.1090, 97.04785
959.2280, 236.9775
960.3460, 125.1191
961.4640, 164.1094
962.5820, 319.2246
963.6990, 174.4229
964.8170, 156.7188
965.9340, 436.3643
967.0510, 294.9609
968.1690, 358.9297
969.2850, 305.2715
970.4020, 354.9844
971.5190, 613.7432
972.6350, 587.1982
973.7510, 869.4570
974.8670, 775.9365
975.9830, 929.1914
977.0990, 1000.101
978.2150, 1001.363
979.3300, 887.6680
980.4450, 900.0166
981.5600, 683.8916
982.6750, 583.8184
983.7900, 610.3320
984.9050, 374.6992
986.0190, 224.9395
987.1340, 331.0068
988.2480, 222.2705
989.3620, 110.6602
990.4750, 4.789063
991.5890, 134.9775
992.7020, 133.2109
993.8160, 80.74219
994.9290, 29.27930
996.0420, 17.27344
997.1550, 101.3564
998.2670, 86.29004
999.3800, 111.6357
1000.492, 26.82910
1001.604, 144.2471
1002.716, 315.5176
1003.828, 108.6309
1004.940, 186.6523
1006.051, 182.7119
1007.163, 29.93555
1008.274, 101.2881
1009.385, 236.0918
1010.496, 86.32617
1011.606, 152.3145
1012.717, 354.9609
1013.827, 227.3027
1014.937, 255.3730
1016.047, 498.2900
1017.157, 161.3291
1018.267, 508.7178
1019.377, 605.3145
1020.486, 578.1758
1021.595, 388.9795
1022.704, 300.8857
1023.813, 297.6445
1024.922, 269.3633
1026.030, 131.9707
1027.139, 296.2637
1028.247, 69.02148
1029.355, 1.421875
1030.463, 57.67969
1031.571, 9.033203
1032.678, 107.2168
1033.786, 67.80078
1034.893, 148.4785
1036.000, 215.5664
1037.107, 174.7480
1038.214, 46.33789
1039.321, 34.60352
1040.427, 55.55273
1041.533, 197.0586
1042.639, 165.5000
1043.745, 298.6465
1044.851, 386.6348
1045.957, 184.0664
1047.062, 50.21484
1048.168, 381.9375
1049.273, 7.083984
1050.378, 403.8477
1051.482, 343.6973
1052.587, 351.5059
1053.692, 329.3086
1054.796, 464.9902
1055.900, 405.9785
1057.004, 396.0254
1058.108, 599.5469
1059.212, 355.9766
1060.315, 553.2363
1061.418, 618.7324
1062.522, 755.9668
1063.625, 830.0508
1064.728, 1049.145
1065.830, 1174.934
1066.933, 1464.578
1068.035, 1871.791
1069.137, 2026.564
1070.239, 2462.623
1071.341, 2603.461
1072.443, 2710.480
1073.545, 2716.732
1074.646, 2614.764
1075.747, 2273.133
1076.848, 1901.859
1077.949, 1726.990
1079.050, 1143.621
1080.150, 1129.389
1081.251, 851.8340
1082.351, 506.0898
1083.451, 646.4316
1084.551, 582.9727
1085.651, 558.9043
1086.750, 560.0293
1087.850, 492.2422
1088.949, 485.9648
1090.048, 315.1855
1091.147, 246.0996
1092.246, 144.0352
1093.345, 289.6016
1094.443, 349.0039
1095.541, 246.3672
1096.639, 228.6328
1097.737, 227.5977
1098.835, 121.1719
1099.933, 316.4219
1101.030, 54.08789
1102.128, 241.0703
1103.225, 363.3340
1104.322, 314.7402
1105.419, 137.5977
1106.515, 191.7070
1107.612, 283.9102
1108.708, 23.78320
1109.804, 86.50977
1110.900, 112.9512
1111.996, 161.6113
1113.092, 256.0391
1114.187, 178.2695
1115.283, 212.0391
1116.378, 236.1504
1117.473, 0.8203130
1118.568, 213.7051
1119.662, 29.23828
1120.757, 108.5977
1121.851, 1.232422
1122.946, 0.0000000E+00
##END=



