##NAMES=Staurolite
##RRUFFID=R050079
##IDEAL CHEMISTRY=Fe^2+^_2_Al_9_Si_4_O_23_(OH)
##LOCALITY=Keivy, Kola Peninsula, Russia
##OWNER=RRUFF
##SOURCE=Rock Currier
##DESCRIPTION=Brown cruciform twins
##STATUS=The identification of this mineral has been confirmed by X-ray diffraction and chemical analysis
##URL=rruff.info/R050079
##MEASURED CHEMISTRY=(Fe^2+^_0.77_Mg_0.23_)_2_(Al_0.99_Ti_0.01_)_9_(Si_0.99_Al_0.01_)_4_O_20_(O_0.76_(OH)_0.24_)_4_
##PIN_ID=m00494
##ORIENTATION=Laser parallel to a* (1 0 0). Fiducial mark perpendicular to laser is parallel to b [0 1 0]
159.799, 0.000
161.187, 119.676
162.574, 108.459
163.961, 69.886
165.348, 4.863
166.734, 35.243
168.121, 1.714
169.507, 74.431
170.893, 40.044
172.278, 43.375
173.664, 106.042
175.049, 131.334
176.434, 108.479
177.819, 171.018
179.203, 246.601
180.587, 310.155
181.971, 468.576
183.355, 596.180
184.739, 741.402
186.122, 880.614
187.505, 1093.829
188.888, 1262.509
190.271, 1513.055
191.653, 1740.253
193.035, 2053.402
194.417, 2084.617
195.799, 2427.861
197.180, 2743.594
198.562, 2980.065
199.943, 2947.362
201.324, 3040.111
202.704, 2991.182
204.084, 2920.748
205.465, 2821.888
206.844, 2673.545
208.224, 2527.428
209.603, 2245.734
210.983, 1960.818
212.362, 1714.257
213.740, 1649.912
215.119, 1415.414
216.497, 1336.271
217.875, 1159.180
219.253, 1060.481
220.631, 968.027
222.008, 845.123
223.385, 812.853
224.762, 778.250
226.139, 609.457
227.515, 581.910
228.891, 550.452
230.267, 484.553
231.643, 441.339
233.018, 412.814
234.394, 365.985
235.769, 337.146
237.144, 333.368
238.518, 284.188
239.893, 292.256
241.267, 279.765
242.641, 267.492
244.014, 287.198
245.388, 222.712
246.761, 246.517
248.134, 214.181
249.507, 202.442
250.879, 225.333
252.252, 275.347
253.624, 233.664
254.996, 226.970
256.367, 302.905
257.739, 336.867
259.110, 367.343
260.481, 440.717
261.852, 488.219
263.222, 477.533
264.592, 277.682
265.962, 183.153
267.332, 85.662
268.702, 55.257
270.071, 18.056
271.440, 31.530
272.809, 70.470
274.178, 29.340
275.546, 78.606
276.915, 84.910
278.283, 7.675
279.650, 31.988
281.018, 46.501
282.385, 24.471
283.752, 54.726
285.119, 5.101
286.486, 51.280
287.852, 34.543
289.218, 103.388
290.584, 144.384
291.950, 196.284
293.316, 309.049
294.681, 389.327
296.046, 564.147
297.411, 684.820
298.775, 971.273
300.140, 1087.486
301.504, 1316.451
302.868, 1472.251
304.231, 1428.846
305.595, 1428.271
306.958, 1174.575
308.321, 1015.789
309.684, 883.930
311.047, 698.020
312.409, 536.060
313.771, 365.080
315.133, 280.070
316.495, 205.021
317.856, 161.919
319.217, 127.770
320.578, 21.573
321.939, 63.322
323.299, 30.974
324.660, 2.831
326.020, 29.877
327.380, 45.930
328.739, 46.425
330.099, 6.984
331.458, 29.578
332.817, 12.181
334.176, 18.201
335.534, 11.282
336.892, 27.816
338.251, 2.053
339.608, 3.603
340.966, 63.279
342.323, 28.637
343.681, 80.813
345.037, 57.822
346.394, 105.647
347.751, 307.294
349.107, 495.786
350.463, 853.109
351.819, 1080.268
353.174, 1068.248
354.530, 852.043
355.885, 606.649
357.240, 498.070
358.594, 429.315
359.949, 360.376
361.303, 362.252
362.657, 249.942
364.011, 298.442
365.365, 326.757
366.718, 226.885
368.071, 253.821
369.424, 217.564
370.777, 199.127
372.129, 224.517
373.481, 179.754
374.833, 110.855
376.185, 183.812
377.537, 138.929
378.888, 122.144
380.239, 142.379
381.590, 66.300
382.941, 57.928
384.291, 85.321
385.642, 156.451
386.992, 177.400
388.341, 168.199
389.691, 177.879
391.040, 204.464
392.389, 232.976
393.738, 202.155
395.087, 280.083
396.435, 256.823
397.784, 290.300
399.132, 333.592
400.479, 382.796
401.827, 299.711
403.174, 292.561
404.521, 198.225
405.868, 229.685
407.215, 221.098
408.561, 188.949
409.908, 264.831
411.254, 164.298
412.599, 197.465
413.945, 194.694
415.290, 238.206
416.636, 190.295
417.980, 240.269
419.325, 308.679
420.670, 293.179
422.014, 430.753
423.358, 448.573
424.702, 465.527
426.045, 459.373
427.389, 541.314
428.732, 566.478
430.075, 655.596
431.417, 685.130
432.760, 655.723
434.102, 703.316
435.444, 749.506
436.786, 800.108
438.127, 879.646
439.469, 998.086
440.810, 1086.349
442.151, 1204.224
443.492, 1379.950
444.832, 1397.880
446.172, 1611.936
447.512, 1694.961
448.852, 1944.777
450.192, 2075.450
451.531, 2533.413
452.870, 2895.793
454.209, 3838.688
455.548, 5062.122
456.887, 6862.924
458.225, 9559.385
459.563, 13025.774
460.901, 14992.168
462.238, 15258.516
463.576, 12717.953
464.913, 10674.295
466.250, 8112.445
467.587, 6228.774
468.923, 4726.920
470.259, 3668.023
471.596, 2997.088
472.931, 2510.012
474.267, 2245.496
475.603, 1971.820
476.938, 1747.862
478.273, 1633.338
479.608, 1483.341
480.942, 1390.896
482.276, 1303.604
483.611, 1208.430
484.944, 1163.433
486.278, 1150.777
487.612, 1132.094
488.945, 1055.360
490.278, 1071.259
491.611, 1043.814
492.943, 992.900
494.276, 1047.450
495.608, 1002.750
496.940, 1017.844
498.271, 974.591
499.603, 1022.643
500.934, 1017.190
502.265, 857.311
503.596, 1004.263
504.927, 966.870
506.257, 1060.297
507.587, 992.605
508.917, 1020.065
510.247, 988.855
511.577, 966.594
512.906, 894.100
514.235, 934.129
515.564, 880.083
516.892, 871.871
518.221, 899.020
519.549, 855.984
520.877, 939.526
522.205, 897.125
523.533, 941.124
524.860, 958.482
526.187, 943.404
527.514, 960.436
528.841, 918.238
530.167, 946.903
531.493, 899.244
532.820, 876.186
534.145, 771.313
535.471, 727.372
536.796, 672.184
538.122, 631.020
539.447, 590.429
540.771, 560.967
542.096, 576.695
543.420, 496.282
544.744, 494.183
546.068, 476.705
547.392, 380.370
548.715, 381.928
550.039, 386.536
551.362, 381.301
552.684, 440.150
554.007, 307.838
555.329, 369.821
556.652, 427.675
557.973, 331.640
559.295, 385.757
560.617, 363.052
561.938, 364.971
563.259, 385.834
564.580, 350.277
565.901, 412.825
567.221, 409.314
568.541, 383.646
569.861, 381.274
571.181, 423.397
572.501, 381.706
573.820, 398.985
575.139, 407.427
576.458, 367.650
577.777, 402.065
579.095, 370.748
580.414, 290.345
581.732, 288.498
583.049, 323.704
584.367, 254.960
585.685, 231.169
587.002, 227.630
588.319, 195.691
589.636, 189.493
590.952, 166.902
592.268, 191.300
593.585, 163.701
594.900, 191.114
596.216, 134.530
597.532, 127.959
598.847, 85.404
600.162, 97.842
601.477, 90.539
602.792, 123.699
604.106, 108.129
605.420, 132.568
606.734, 157.002
608.048, 93.425
609.361, 47.836
610.675, 45.228
611.988, 15.054
613.301, 29.951
614.614, 11.276
615.926, 18.574
617.238, 36.844
618.550, 25.085
619.862, 25.297
621.174, 51.519
622.485, 5.609
623.797, 32.292
625.108, 2.761
626.418, 15.215
627.729, 21.772
629.039, 20.732
630.349, 44.665
631.659, 7.428
632.969, 1.446
634.279, 39.705
635.588, 3.102
636.897, 52.113
638.206, 42.628
639.515, 7.647
640.823, 30.062
642.131, 10.243
643.439, 0.564
644.747, 0.106
646.055, 52.237
647.362, 9.615
648.669, 74.011
649.976, 2.451
651.283, 6.902
652.589, 23.641
653.896, 8.179
655.202, 26.711
656.508, 44.751
657.814, 19.763
659.119, 42.726
660.424, 47.757
661.729, 50.763
663.034, 22.684
664.339, 2.875
665.643, 76.445
666.947, 44.934
668.251, 0.297
669.555, 48.642
670.859, 8.971
672.162, 10.283
673.465, 33.580
674.768, 11.139
676.071, 57.122
677.373, 13.627
678.676, 45.605
679.978, 60.828
681.280, 8.058
682.581, 79.286
683.883, 57.487
685.184, 25.682
686.485, 33.871
687.786, 71.055
689.087, 3.764
690.387, 56.408
691.687, 6.422
692.987, 162.753
694.287, 54.637
695.586, 122.801
696.886, 66.965
698.185, 89.542
699.484, 105.711
700.783, 72.885
702.081, 129.063
703.379, 74.271
704.677, 80.579
705.975, 97.208
707.273, 103.594
708.570, 127.118
709.868, 142.297
711.165, 173.477
712.462, 144.656
713.758, 137.834
715.055, 159.012
716.351, 192.188
717.647, 182.363
718.943, 207.537
720.238, 215.711
721.533, 240.886
722.829, 294.063
724.124, 280.241
725.418, 350.422
726.713, 364.603
728.007, 350.788
729.301, 398.975
730.595, 409.166
731.889, 465.357
733.182, 504.134
734.476, 517.524
735.769, 597.948
737.061, 569.147
738.354, 610.346
739.647, 676.545
740.939, 650.742
742.231, 722.938
743.523, 706.132
744.814, 796.213
746.106, 876.277
747.397, 842.253
748.688, 883.339
749.978, 840.318
751.269, 909.418
752.559, 886.290
753.849, 946.141
755.139, 1044.822
756.429, 1073.562
757.719, 1098.278
759.008, 1138.141
760.297, 1252.945
761.586, 1323.859
762.875, 1298.882
764.163, 1422.646
765.451, 1405.227
766.739, 1428.804
768.027, 1500.263
769.315, 1478.791
770.602, 1627.249
771.890, 1695.746
773.177, 1676.327
774.463, 1791.867
775.750, 1837.416
777.036, 1827.839
778.323, 1821.324
779.609, 1914.964
780.894, 1921.394
782.180, 1982.973
783.465, 1983.564
784.750, 2070.160
786.035, 2103.868
787.320, 2202.883
788.605, 2190.321
789.889, 2321.660
791.173, 2266.184
792.457, 2380.805
793.741, 2421.570
795.024, 2378.654
796.307, 2258.391
797.591, 2285.377
798.873, 2074.843
800.156, 2012.351
801.439, 1883.149
802.721, 1775.249
804.003, 1685.732
805.285, 1584.196
806.566, 1391.471
807.848, 1268.322
809.129, 1022.127
810.410, 907.026
811.691, 719.424
812.971, 699.324
814.252, 564.883
815.532, 453.944
816.812, 360.111
818.092, 307.094
819.371, 283.747
820.651, 263.483
821.930, 225.629
823.209, 199.500
824.488, 156.697
825.766, 177.749
827.045, 123.822
828.323, 95.018
829.601, 86.498
830.878, 113.829
832.156, 96.244
833.433, 40.562
834.710, 1.039
835.987, 1.844
837.264, 43.665
838.540, 62.107
839.817, 83.432
841.093, 70.888
842.369, 40.378
843.644, 24.436
844.920, 16.973
846.195, 0.038
847.470, 36.428
848.745, 3.150
850.020, 16.779
851.294, 81.584
852.568, 10.040
853.842, 11.671
855.116, 54.311
856.390, 3.041
857.663, 11.385
858.936, 23.277
860.209, 52.948
861.482, 69.627
862.755, 155.313
864.027, 87.009
865.299, 56.712
866.571, 155.424
867.843, 153.144
869.115, 164.872
870.386, 197.610
871.657, 196.355
872.928, 231.789
874.199, 270.524
875.470, 307.643
876.740, 382.426
878.010, 457.218
879.280, 558.021
880.550, 632.832
881.820, 703.654
883.089, 765.487
884.358, 910.329
885.627, 1022.179
886.896, 1106.039
888.164, 1230.437
889.433, 1321.376
890.701, 1428.667
891.969, 1502.561
893.236, 1575.463
894.504, 1634.375
895.771, 1660.296
897.038, 1628.226
898.305, 1644.167
899.572, 1551.117
900.838, 1516.077
902.105, 1431.049
903.371, 1390.037
904.637, 1295.991
905.902, 1264.039
907.168, 1136.054
908.433, 1031.083
909.698, 1017.130
910.963, 1049.189
912.228, 909.258
913.492, 907.338
914.757, 910.429
916.021, 884.529
917.285, 904.640
918.548, 919.762
919.812, 944.895
921.075, 923.040
922.338, 985.196
923.601, 1008.364
924.864, 1092.543
926.126, 1128.734
927.388, 1248.936
928.650, 1204.148
929.912, 1334.386
931.174, 1339.635
932.435, 1454.905
933.697, 1459.185
934.958, 1404.482
936.218, 1579.789
937.479, 1452.107
938.739, 1513.436
940.000, 1482.778
941.260, 1360.132
942.520, 1344.508
943.779, 1283.998
945.039, 1109.409
946.298, 1143.836
947.557, 1063.301
948.816, 1051.385
950.074, 999.652
951.333, 970.300
952.591, 915.788
953.849, 932.295
955.107, 899.815
956.365, 897.567
957.622, 844.161
958.879, 831.981
960.136, 888.926
961.393, 872.863
962.650, 829.292
963.906, 770.986
965.162, 754.210
966.418, 826.775
967.674, 780.431
968.930, 815.181
970.185, 833.866
971.441, 771.133
972.696, 719.600
973.950, 697.541
975.205, 671.279
976.459, 718.316
977.714, 639.068
978.968, 668.332
980.222, 589.099
981.475, 548.257
982.729, 592.734
983.982, 553.571
985.235, 574.198
986.488, 544.088
987.740, 515.000
988.993, 500.015
990.245, 503.873
991.497, 508.363
992.749, 566.475
994.000, 458.322
995.252, 577.835
996.503, 524.771
997.754, 548.931
999.005, 548.984
1000.256, 532.164
1001.506, 500.044
1002.756, 480.567
1004.006, 453.455
1005.256, 450.091
1006.506, 448.243
1007.755, 436.110
1009.005, 439.883
1010.254, 404.792
1011.502, 413.705
1012.751, 408.629
1014.000, 418.557
1015.248, 381.488
1016.496, 369.423
1017.744, 373.364
1018.991, 409.397
1020.239, 326.397
1021.486, 350.342
1022.733, 348.354
1023.980, 322.305
1025.227, 305.356
1026.473, 276.942
1027.719, 311.242
1028.965, 256.684
1030.211, 290.667
1031.457, 322.037
1032.702, 273.688
1033.948, 283.977
1035.193, 190.714
1036.438, 223.821
1037.682, 187.802
1038.927, 125.819
1040.171, 137.894
1041.415, 130.955
1042.659, 170.073
1043.903, 118.166
1045.146, 131.317
1046.390, 71.635
1047.633, 128.820
1048.876, 93.033
1050.118, 151.150
1051.361, 101.908
1052.603, 92.042
1053.845, 126.035
1055.087, 82.178
1056.329, 150.172
1057.571, 53.361
1058.812, 91.659
1060.053, 119.652
1061.294, 58.010
1062.535, 121.060
1063.775, 126.212
1065.016, 87.274
1066.256, 130.401
1067.496, 95.389
1068.736, 103.481
1069.975, 114.467
1071.214, 88.575
1072.454, 75.559
1073.693, 124.597
1074.931, 157.579
1076.170, 259.559
1077.408, 308.536
1078.647, 441.524
1079.885, 488.496
1081.122, 436.465
1082.360, 320.431
1083.597, 231.394
1084.835, 131.354
1086.072, 138.315
1087.308, 41.268
1088.545, 16.217
1089.781, 55.234
1091.018, 59.213
1092.254, 0.272
1093.490, 18.279
1094.725, 10.493
1095.961, 5.415
1097.196, 8.668
1098.431, 44.722
1099.666, 12.254
1100.900, 33.729
1102.135, 28.224
1103.369, 32.285
1104.603, 1.125
1105.837, 12.957
1107.071, 0.890
1108.304, 18.243
1109.538, 0.323
1110.771, 8.495
1112.004, 8.375
1113.236, 36.788
1114.469, 9.048
1115.701, 44.811
1116.933, 12.543
1118.165, 46.444
1119.397, 49.694
1120.629, 38.029
1121.860, 12.308
1123.091, 37.338
1124.322, 13.015
1125.553, 36.575
1126.783, 31.727
1128.014, 42.172
1129.244, 13.239
1130.474, 1.652
1131.704, 31.043
1132.933, 3.456
1134.163, 19.201
1135.392, 15.826
1136.621, 24.562
1137.850, 37.033
1139.079, 15.493
1140.307, 25.083
1141.535, 54.563
1142.763, 2.012
1143.991, 32.540
1145.219, 11.751
1146.446, 21.785
1147.674, 106.660
1148.901, 60.960
1150.128, 43.251
1151.354, 130.542
1152.581, 55.823
1153.807, 106.094
1155.033, 162.436
1156.259, 130.269
1157.485, 137.103
1158.710, 190.080
1159.936, 106.926
1161.161, 136.320
1162.386, 135.848
1163.611, 104.200
1164.835, 65.451
1166.060, 44.728
1167.284, 53.969
1168.508, 70.220
1169.732, 53.853
1170.955, 86.869
1172.179, 47.224
1173.402, 12.355
1174.625, 22.444
1175.848, 17.626
1177.070, 71.918
1178.293, 21.252
1179.515, 12.480
1180.737, 67.591
1181.959, 69.805
1183.181, 47.834
1184.402, 83.809
1185.624, 70.958
1186.845, 57.908
1188.066, 62.030
1189.286, 49.471
1190.507, 56.107
1191.727, 43.146
1192.947, 29.148
1194.167, 38.016
1195.387, 36.052
1196.607, 54.007
1197.826, 14.565
1199.045, 5.961
1200.264, 107.742
1201.483, 51.705
1202.702, 103.680
1203.920, 42.425
1205.138, 12.418
1206.356, 91.339
1207.574, 32.598
1208.792, 77.328
1210.009, 53.130
1211.227, 74.920
1212.444, 59.838
1213.661, 110.516
1214.877, 68.188
1216.094, 97.956
1217.310, 64.991
1218.526, 118.822
1219.742, 82.929
1220.958, 127.636
1222.173, 105.224
1223.389, 102.815
1224.604, 94.293
1225.819, 119.860
1227.034, 100.379
1228.248, 156.976
1229.463, 104.540
1230.677, 118.945
1231.891, 98.433
1233.105, 113.856
1234.318, 108.245
1235.532, 83.819
1236.745, 92.171
1237.958, 72.510
1239.171, 83.790
1240.384, 46.080
1241.596, 104.413
1242.809, 131.752
1244.021, 93.873
1245.233, 77.402
1246.444, 66.707
1247.656, 74.901
1248.867, 49.097
1250.079, 113.512
1251.290, 106.538
1252.500, 74.692
1253.711, 88.588
1254.921, 70.224
1256.132, 90.175
1257.342, 76.573
1258.552, 82.701
1259.761, 128.309
1260.971, 64.519
1262.180, 93.615
1263.389, 51.567
1264.598, 59.593
1265.807, 102.094
1267.015, 71.315
1268.223, 84.280
1269.432, 82.340
1270.640, 117.124
1271.847, 63.040
1273.055, 28.482
1274.262, 78.371
1275.470, 72.865
1276.677, 43.034
1277.883, 89.967
1279.090, 46.195
1280.296, 52.060
1281.503, 54.716
1282.709, 50.298
1283.915, 77.030
1285.120, 102.120
1286.326, 20.323
1287.531, 65.436
1288.736, 42.478
1289.941, 2.081
1291.146, 52.499
1292.350, 48.946
1293.555, 103.621
1294.759, 86.441
1295.963, 89.973
1297.167, 88.530
1298.370, 82.219
1299.574, 65.010
1300.777, 10.551
1301.980, 10.115
1303.183, 4.691
1304.386, 10.692
1305.588, 40.824
1306.790, 24.282
1307.993, 45.803
1309.195, 67.232
1310.396, 58.645
1311.598, 63.999
1312.799, 59.326
1314.000, 32.696
1315.201, 45.985
1316.402, 31.325
1317.603, 17.446
1318.803, 82.237
1320.003, 56.190
1321.203, 30.991
1322.403, 26.272
1323.603, 35.120
1324.802, 57.690
1326.002, 32.865
1327.201, 71.173
1328.400, 108.301
1329.599, 36.471
1330.797, 93.578
1331.995, 36.672
1333.194, 60.710
1334.392, 42.678
1335.589, 46.657
1336.787, 51.800
1337.985, 92.292
1339.182, 36.139
1340.379, 51.924
1341.576, 2.790
1342.772, 7.335
1343.969, 113.861
1345.165, 32.936
1346.361, 30.531
1347.557, 83.613
1348.753, 14.441
1349.949, 62.020
1351.144, 5.915
1352.339, 60.402
1353.534, 39.835
1354.729, 38.914
1355.924, 20.645
1357.118, 58.295
1358.312, 56.230
1359.506, 30.883
1360.700, 9.626
1361.894, 21.229
1363.088, 4.906
1364.281, 30.499
1365.474, 54.126
1366.667, 49.735
1367.860, 79.320
1369.052, 47.862
1370.245, 55.515
1371.437, 33.118
1372.629, 37.154
1373.821, 82.091
1375.013, 47.511
1376.204, 58.878
1377.395, 63.273
1378.586, 22.467
1379.777, 64.569
1380.968, 64.560
1382.159, 50.435
1383.349, 69.542
1384.539, 54.442
1385.729, 43.674
1386.919, 4.376
1388.109, 45.312
1389.298, 45.577
1390.487, 32.630
1391.676, 74.090
1392.865, 20.939
1394.054, 53.835
1395.242, 60.804
1396.431, 72.853
1397.619, 79.413
1398.807, 56.378
1399.995, 38.247
1401.182, 40.941
1402.370, 37.649
1403.557, 52.660
1404.744, 51.811
1405.931, 84.627
1407.118, 60.323
1408.304, 60.344
1409.490, 55.350
1410.676, 21.239
1411.862, 38.457
1413.048, 26.500
1414.234, 61.715
1415.419, 50.274
1416.604, 79.866
1417.789, 94.242
1418.974, 59.499
1420.159, 24.422
1421.343, 12.684
1422.528, 20.990
1423.712, 9.010
1424.896, 61.638
1426.079, 72.054
1427.263, 82.329
1428.446, 32.533
1429.629, 46.000
1430.812, 61.171
1431.995, 101.683
1433.178, 40.987
1434.360, 131.221
1435.543, 44.002
1436.725, 26.511
1437.907, 113.566
1439.088, 38.489
1440.270, 67.561
1441.451, 15.256
1442.632, 110.867
1443.813, 41.012
1444.994, 34.283
1446.175, 20.293
1447.355, 39.456
1448.535, 50.599
1449.715, 30.507
1450.895, 61.824
1452.075, 59.045
1453.255, 38.051
1454.434, 88.073
1455.613, 87.817
1456.792, 72.548
1457.971, 93.556
1459.149, 83.283
1460.328, 54.485
1461.506, 75.034
1462.684, 52.846
1463.862, 37.917
1465.040, 70.855
1466.217, 41.101
1467.395, 68.796
1468.572, 14.731
1469.749, 28.755
1470.925, 56.757
1472.102, 76.431
1473.278, 28.362
1474.455, 93.962
1475.631, 82.703
1476.807, 138.417
1477.982, 42.156
1479.158, 100.650
1480.333, 57.298
1481.508, 64.280
1482.683, 53.585
1483.858, 38.593
1485.033, 24.887
1486.207, 8.447
1487.381, 9.212
1488.555, 4.591
1489.729, 8.852
1490.903, 51.248
1492.076, 27.495
1493.250, 77.771
1494.423, 51.326
1495.596, 14.188
1496.769, 131.190
1497.941, 57.471
1499.114, 3.694
1500.286, 85.863
1501.458, 76.278
1502.630, 77.350
1503.802, 82.356
1504.973, 26.281
1506.145, 70.345
1507.316, 34.493
1508.487, 39.520
1509.657, 61.795
1510.828, 0.412
1511.999, 0.251
1513.169, 29.408
1514.339, 9.210
1515.509, 35.208
1516.678, 48.216
1517.848, 0.045
1519.017, 0.000
##END=



