##NAMES=Staurolite
##RRUFFID=R050079
##IDEAL CHEMISTRY=Fe^2+^_2_Al_9_Si_4_O_23_(OH)
##LOCALITY=Keivy, Kola Peninsula, Russia
##OWNER=RRUFF
##SOURCE=Rock Currier
##DESCRIPTION=Brown cruciform twins
##STATUS=The identification of this mineral has been confirmed by X-ray diffraction and chemical analysis
##URL=rruff.info/R050079
##MEASURED CHEMISTRY=(Fe^2+^_0.77_Mg_0.23_)_2_(Al_0.99_Ti_0.01_)_9_(Si_0.99_Al_0.01_)_4_O_20_(O_0.76_(OH)_0.24_)_4_
##PIN_ID=L00460
##ORIENTATION=Laser parallel to -c* (0 0 -1). Fiducial mark perpendicular to laser is parallel to a [1 0 0]
193.035, 0.000
194.417, 16.281
195.799, 5.866
197.180, 27.552
198.562, 2.855
199.943, 25.775
201.324, 75.691
202.704, 51.676
204.084, 85.265
205.465, 103.604
206.844, 88.333
208.224, 62.435
209.603, 68.346
210.983, 79.760
212.362, 86.517
213.740, 87.714
215.119, 84.206
216.497, 89.271
217.875, 125.057
219.253, 109.822
220.631, 148.557
222.008, 184.522
223.385, 145.931
224.762, 203.962
226.139, 247.768
227.515, 260.474
228.891, 294.188
230.267, 293.006
231.643, 318.011
233.018, 382.276
234.394, 328.085
235.769, 407.559
237.144, 424.293
238.518, 487.027
239.893, 591.187
241.267, 641.365
242.641, 569.603
244.014, 589.307
245.388, 574.593
246.761, 601.775
248.134, 630.831
249.507, 657.758
250.879, 625.557
252.252, 648.236
253.624, 674.210
254.996, 677.264
256.367, 732.621
257.739, 757.870
259.110, 766.003
260.481, 769.024
261.852, 799.940
263.222, 851.758
264.592, 800.483
265.962, 783.120
267.332, 707.675
268.702, 644.153
270.071, 518.557
271.440, 428.892
272.809, 397.162
274.178, 231.370
275.546, 121.619
276.915, 100.598
278.283, 15.424
279.650, 11.200
281.018, 73.764
282.385, 53.290
283.752, 70.304
285.119, 91.808
286.486, 52.144
287.852, 34.991
289.218, 64.559
290.584, 76.544
291.950, 147.188
293.316, 314.446
294.681, 490.908
296.046, 692.582
297.411, 1004.228
298.775, 1482.895
300.140, 2117.874
301.504, 2946.719
302.868, 3921.589
304.231, 4854.215
305.595, 5922.714
306.958, 6593.202
308.321, 6910.681
309.684, 6653.150
311.047, 6135.611
312.409, 5444.061
313.771, 4579.503
315.133, 3726.936
316.495, 3102.348
317.856, 2545.709
319.217, 2107.934
320.578, 1669.968
321.939, 1429.793
323.299, 1189.485
324.660, 1031.135
326.020, 906.778
327.380, 709.422
328.739, 634.065
330.099, 513.709
331.458, 540.353
332.817, 503.997
334.176, 508.642
335.534, 555.288
336.892, 627.935
338.251, 737.583
339.608, 738.232
340.966, 845.883
342.323, 930.536
343.681, 959.191
345.037, 914.321
346.394, 850.247
347.751, 717.174
349.107, 632.841
350.463, 496.512
351.819, 442.186
353.174, 319.865
354.530, 305.548
355.885, 224.236
357.240, 210.743
358.594, 205.327
359.949, 141.930
361.303, 126.521
362.657, 48.084
364.011, 59.604
365.365, 19.071
366.718, 62.479
368.071, 9.174
369.424, 30.903
370.777, 26.283
372.129, 3.391
373.481, 3.582
374.833, 38.633
376.185, 13.770
377.537, 26.016
378.888, 32.277
380.239, 58.687
381.590, 26.227
382.941, 29.880
384.291, 7.639
385.642, 6.395
386.992, 16.577
388.341, 24.569
389.691, 51.493
391.040, 41.354
392.389, 47.156
393.738, 71.901
395.087, 67.595
396.435, 133.241
397.784, 97.816
399.132, 79.266
400.479, 148.453
401.827, 87.354
403.174, 125.957
404.521, 138.403
405.868, 168.790
407.215, 162.162
408.561, 154.522
409.908, 137.871
411.254, 163.207
412.599, 217.532
413.945, 153.848
415.290, 194.155
416.636, 216.452
417.980, 187.742
419.325, 287.024
420.670, 283.299
422.014, 305.567
423.358, 414.829
424.702, 489.085
426.045, 527.336
427.389, 653.583
428.732, 686.825
430.075, 824.063
431.417, 895.299
432.760, 1146.530
434.102, 1188.759
435.444, 1399.986
436.786, 1547.838
438.127, 1761.846
439.469, 2037.601
440.810, 2224.093
442.151, 2563.065
443.492, 2766.082
444.832, 3036.268
446.172, 3249.366
447.512, 3366.904
448.852, 3437.827
450.192, 3426.517
451.531, 3383.525
452.870, 3392.634
454.209, 3143.425
455.548, 3025.167
456.887, 2838.005
458.225, 2768.841
459.563, 2656.675
460.901, 2686.506
462.238, 2740.340
463.576, 2791.175
464.913, 3031.011
466.250, 2964.851
467.587, 2895.693
468.923, 2583.539
470.259, 2301.390
471.596, 2008.243
472.931, 1698.101
474.267, 1428.962
475.603, 1276.828
476.938, 1169.698
478.273, 1063.571
479.608, 970.450
480.942, 1024.333
482.276, 925.223
483.611, 948.120
484.944, 964.024
486.278, 906.936
487.612, 923.856
488.945, 984.784
490.278, 1009.720
491.611, 1042.208
492.943, 1045.616
494.276, 1113.576
495.608, 1131.544
496.940, 1189.521
498.271, 1203.506
499.603, 1321.500
500.934, 1325.502
502.265, 1328.512
503.596, 1342.036
504.927, 1304.559
506.257, 1268.595
507.587, 1242.640
508.917, 1149.693
510.247, 1103.756
511.577, 1023.829
512.906, 961.425
514.235, 903.360
515.564, 852.148
516.892, 789.288
518.221, 763.391
519.549, 722.473
520.877, 654.297
522.205, 590.064
523.533, 558.024
524.860, 506.638
526.187, 497.473
527.514, 426.854
528.841, 412.529
530.167, 389.385
531.493, 301.470
532.820, 329.989
534.145, 299.371
535.471, 244.307
536.796, 241.306
538.122, 207.377
539.447, 196.764
540.771, 191.511
542.096, 127.469
543.420, 151.069
544.744, 121.091
546.068, 104.893
547.392, 148.960
548.715, 153.483
550.039, 99.919
551.362, 127.282
552.684, 82.706
554.007, 121.349
555.329, 71.970
556.652, 82.918
557.973, 112.727
559.295, 95.468
560.617, 121.510
561.938, 160.311
563.259, 101.289
564.580, 116.337
565.901, 151.530
567.221, 101.713
568.541, 154.882
569.861, 171.000
571.181, 154.242
572.501, 187.552
573.820, 150.791
575.139, 214.120
576.458, 165.458
577.777, 148.806
579.095, 148.163
580.414, 115.530
581.732, 116.907
583.049, 130.293
584.367, 135.690
585.685, 119.096
587.002, 111.512
588.319, 97.939
589.636, 83.514
590.952, 17.823
592.268, 57.279
593.585, 38.747
594.900, 31.225
596.216, 55.714
597.532, 62.219
598.847, 76.742
600.162, 91.290
601.477, 158.872
602.792, 111.503
604.106, 187.179
605.420, 185.905
606.734, 159.687
608.048, 207.514
609.361, 178.385
610.675, 200.278
611.988, 204.193
613.301, 222.125
614.614, 199.070
615.926, 220.028
617.238, 122.998
618.550, 130.982
619.862, 127.978
621.174, 155.986
622.485, 108.008
623.797, 110.042
625.108, 149.090
626.418, 106.150
627.729, 113.223
629.039, 73.309
630.349, 130.408
631.659, 61.520
632.969, 92.645
634.279, 96.783
635.588, 45.934
636.897, 92.098
638.206, 104.275
639.515, 62.465
640.823, 99.668
642.131, 52.884
643.439, 111.114
644.747, 93.356
646.055, 104.612
647.362, 61.881
648.669, 95.163
649.976, 69.459
651.283, 125.767
652.589, 119.089
653.896, 146.424
655.202, 139.772
656.508, 112.133
657.814, 146.508
659.119, 127.895
660.424, 165.296
661.729, 145.710
663.034, 170.137
664.339, 140.578
665.643, 190.031
666.947, 147.499
668.251, 104.437
669.555, 165.329
670.859, 129.037
672.162, 148.747
673.465, 103.205
674.768, 73.684
676.071, 55.900
677.373, 37.508
678.676, 32.211
679.978, 21.871
681.280, 0.073
682.581, 15.051
683.883, 32.330
685.184, 39.136
686.485, 28.055
687.786, 5.786
689.087, 5.822
690.387, 16.378
691.687, 9.949
692.987, 24.261
694.287, 9.362
695.586, 28.187
696.886, 15.040
698.185, 10.072
699.484, 45.840
700.783, 62.780
702.081, 41.740
703.379, 4.282
704.677, 19.288
705.975, 31.718
707.273, 38.738
708.570, 71.773
709.868, 50.824
711.165, 43.888
712.462, 53.966
713.758, 44.056
715.055, 105.159
716.351, 33.276
717.647, 35.405
718.943, 57.547
720.238, 14.701
721.533, 86.868
722.829, 92.046
724.124, 93.236
725.418, 74.437
726.713, 125.649
728.007, 117.874
729.301, 117.109
730.595, 141.356
731.889, 192.613
733.182, 134.882
734.476, 175.160
735.769, 155.450
737.061, 285.751
738.354, 225.063
739.647, 280.385
740.939, 347.717
742.231, 368.060
743.523, 374.414
744.814, 381.778
746.106, 401.152
747.397, 449.537
748.688, 456.933
749.978, 508.338
751.269, 584.754
752.559, 549.180
753.849, 595.616
755.139, 642.062
756.429, 714.519
757.719, 776.985
759.008, 782.460
760.297, 861.945
761.586, 889.438
762.875, 893.941
764.163, 1000.453
765.451, 958.972
766.739, 1074.500
768.027, 1134.037
769.315, 1204.582
770.602, 1212.135
771.890, 1250.695
773.177, 1362.264
774.463, 1370.841
775.750, 1298.426
777.036, 1388.018
778.323, 1363.618
779.609, 1412.227
780.894, 1430.842
782.180, 1461.464
783.465, 1465.095
784.750, 1500.817
786.035, 1508.905
787.320, 1536.038
788.605, 1539.701
789.889, 1500.375
791.173, 1528.064
792.457, 1536.760
793.741, 1562.466
795.024, 1505.178
796.307, 1611.899
797.591, 1520.640
798.873, 1512.398
800.156, 1526.168
801.439, 1380.953
802.721, 1268.745
804.003, 1148.544
805.285, 1022.350
806.566, 992.163
807.848, 771.983
809.129, 730.818
810.410, 625.660
811.691, 474.515
812.971, 351.377
814.252, 277.245
815.532, 173.130
816.812, 161.024
818.092, 83.925
819.371, 74.832
820.651, 15.745
821.930, 1.334
823.209, 20.413
824.488, 35.498
825.766, 15.599
827.045, 29.706
828.323, 9.825
829.601, 23.949
830.878, 49.084
832.156, 50.240
833.433, 40.417
834.710, 45.613
835.987, 37.842
837.264, 40.070
838.540, 65.317
839.817, 48.587
841.093, 38.402
842.369, 25.777
843.644, 47.099
844.920, 19.711
846.195, 43.933
847.470, 4.901
848.745, 59.752
850.020, 19.409
851.294, 53.077
852.568, 59.597
853.842, 51.273
855.116, 138.963
856.390, 143.657
857.663, 145.296
858.936, 164.614
860.209, 183.317
861.482, 241.022
862.755, 240.730
864.027, 324.440
865.299, 339.153
866.571, 358.868
867.843, 423.585
869.115, 406.302
870.386, 480.022
871.657, 536.744
872.928, 571.466
874.199, 638.190
875.470, 624.916
876.740, 692.642
878.010, 774.370
879.280, 801.104
880.550, 894.838
881.820, 991.575
883.089, 1044.313
884.358, 1219.052
885.627, 1309.794
886.896, 1484.536
888.164, 1606.278
889.433, 1660.022
890.701, 1924.767
891.969, 2010.511
893.236, 2236.257
894.504, 2364.004
895.771, 2403.751
897.038, 2658.498
898.305, 2544.246
899.572, 2607.994
900.838, 2539.741
902.105, 2573.491
903.371, 2425.239
904.637, 2476.988
905.902, 2234.735
907.168, 2255.482
908.433, 2221.229
909.698, 2052.974
910.963, 2023.719
912.228, 1978.461
913.492, 1938.204
914.757, 1904.945
916.021, 1942.686
917.285, 1911.425
918.548, 2025.164
919.812, 1918.901
921.075, 1997.637
922.338, 2103.371
923.601, 2190.104
924.864, 2180.835
926.126, 2274.565
927.388, 2513.293
928.650, 2546.019
929.912, 2778.743
931.174, 2865.465
932.435, 2991.185
933.697, 3229.921
934.958, 3312.676
936.218, 3484.712
937.479, 3648.422
938.739, 3701.536
940.000, 3848.253
941.260, 3713.585
942.520, 3717.282
943.779, 3715.038
945.039, 3531.146
946.298, 3418.981
947.557, 3270.035
948.816, 3049.730
950.074, 3005.925
951.333, 2668.554
952.591, 2576.319
953.849, 2287.244
955.107, 2169.049
956.365, 2122.768
957.622, 1885.518
958.879, 1810.576
960.136, 1670.370
961.393, 1548.160
962.650, 1509.465
963.906, 1375.206
965.162, 1370.039
966.418, 1244.249
967.674, 1185.714
968.930, 1097.624
970.185, 1019.411
971.441, 927.341
972.696, 883.338
973.950, 857.616
975.205, 893.153
976.459, 754.529
977.714, 740.909
978.968, 720.550
980.222, 615.251
981.475, 659.266
982.729, 587.858
983.982, 546.767
985.235, 569.851
986.488, 516.696
987.740, 493.178
988.993, 485.209
990.245, 427.712
991.497, 445.666
992.749, 379.104
994.000, 410.834
995.252, 419.428
996.503, 401.499
997.754, 410.410
999.005, 391.094
1000.256, 366.860
1001.506, 337.218
1002.756, 327.824
1004.006, 358.701
1005.256, 377.811
1006.506, 313.856
1007.755, 329.467
1009.005, 298.292
1010.254, 297.746
1011.502, 333.279
1012.751, 303.830
1014.000, 300.270
1015.248, 303.082
1016.496, 239.511
1017.744, 292.934
1018.991, 230.351
1020.239, 267.800
1021.486, 215.314
1022.733, 245.733
1023.980, 214.127
1025.227, 234.658
1026.473, 209.040
1027.719, 209.515
1028.965, 182.930
1030.211, 211.354
1031.457, 157.042
1032.702, 156.684
1033.948, 198.184
1035.193, 156.681
1036.438, 164.175
1037.682, 163.662
1038.927, 137.137
1040.171, 131.531
1041.415, 156.955
1042.659, 154.555
1043.903, 142.994
1045.146, 148.379
1046.390, 135.729
1047.633, 164.231
1048.876, 148.142
1050.118, 99.898
1051.361, 135.672
1052.603, 124.914
1053.845, 122.157
1055.087, 167.493
1056.329, 157.775
1057.571, 121.996
1058.812, 145.219
1060.053, 130.439
1061.294, 106.636
1062.535, 120.919
1063.775, 137.207
1065.016, 136.525
1066.256, 113.694
1067.496, 69.993
1068.736, 104.195
1069.975, 83.406
1071.214, 75.560
1072.454, 82.748
1073.693, 79.936
1074.931, 82.160
1076.170, 85.336
1077.408, 82.225
1078.647, 77.313
1079.885, 74.714
1081.122, 62.786
1082.360, 49.849
1083.597, 44.903
1084.835, 11.949
1086.072, 84.052
1087.308, 9.078
1088.545, 53.121
1089.781, 3.125
1091.018, 18.884
1092.254, 43.080
1093.490, 9.046
1094.725, 24.031
1095.961, 10.964
1097.196, 35.028
1098.431, 27.142
1099.666, 2.287
1100.900, 20.450
1102.135, 16.361
1103.369, 26.160
1104.603, 45.985
1105.837, 37.766
1107.071, 9.537
1108.304, 21.542
1109.538, 26.217
1110.771, 13.969
1112.004, 35.862
1113.236, 20.555
1114.469, 28.768
1115.701, 1.122
1116.933, 14.508
1118.165, 23.166
1119.397, 12.800
1120.629, 9.396
1121.860, 27.978
1123.091, 11.553
1124.322, 94.130
1125.553, 131.831
1126.783, 90.398
1128.014, 46.061
1129.244, 35.638
1130.474, 45.228
1131.704, 5.837
1132.933, 29.400
1134.163, 20.972
1135.392, 11.462
1136.621, 32.093
1137.850, 22.336
1139.079, 3.225
1140.307, 5.790
1141.535, 40.356
1142.763, 30.918
1143.991, 33.480
1145.219, 10.952
1146.446, 4.402
1147.674, 17.221
1148.901, 18.223
1150.128, 37.374
1151.354, 10.237
1152.581, 30.313
1153.807, 3.243
1155.033, 32.823
1156.259, 12.215
1157.485, 75.027
1158.710, 49.507
1159.936, 44.079
1161.161, 72.843
1162.386, 12.305
1163.611, 97.686
1164.835, 86.049
1166.060, 73.438
1167.284, 61.765
1168.508, 45.094
1169.732, 66.495
1170.955, 73.873
1172.179, 37.244
1173.402, 98.528
1174.625, 47.872
1175.848, 4.841
1177.070, 57.655
1178.293, 15.858
1179.515, 19.037
1180.737, 35.235
1181.959, 34.391
1183.181, 33.535
1184.402, 33.745
1185.624, 34.866
1186.845, 53.186
1188.066, 44.383
1189.286, 18.490
1190.507, 37.656
1191.727, 48.848
1192.947, 56.046
1194.167, 25.292
1195.387, 49.425
1196.607, 62.493
1197.826, 5.526
1199.045, 77.520
1200.264, 71.570
1201.483, 47.617
1202.702, 58.696
1203.920, 71.648
1205.138, 69.689
1206.356, 68.260
1207.574, 77.616
1208.792, 53.542
1210.009, 50.613
1211.227, 41.602
1212.444, 75.479
1213.661, 42.346
1214.877, 64.865
1216.094, 60.715
1217.310, 72.712
1218.526, 62.554
1219.742, 60.445
1220.958, 50.267
1222.173, 59.594
1223.389, 57.692
1224.604, 81.740
1225.819, 68.503
1227.034, 80.256
1228.248, 93.999
1229.463, 98.749
1230.677, 79.463
1231.891, 59.944
1233.105, 115.695
1234.318, 69.045
1235.532, 133.784
1236.745, 76.868
1237.958, 104.613
1239.171, 71.265
1240.384, 63.585
1241.596, 80.127
1242.809, 52.510
1244.021, 77.122
1245.233, 103.211
1246.444, 73.884
1247.656, 78.472
1248.867, 101.921
1250.079, 57.355
1251.290, 75.140
1252.500, 68.597
1253.711, 26.809
1254.921, 57.582
1256.132, 41.962
1257.342, 30.817
1258.552, 61.220
1259.761, 67.608
1260.971, 97.760
1262.180, 67.448
1263.389, 49.734
1264.598, 53.152
1265.807, 64.288
1267.015, 61.392
1268.223, 62.783
1269.432, 56.870
1270.640, 27.383
1271.847, 78.871
1273.055, 35.284
1274.262, 54.935
1275.470, 51.210
1276.677, 47.517
1277.883, 59.484
1279.090, 56.265
1280.296, 60.854
1281.503, 59.759
1282.709, 52.976
1283.915, 51.330
1285.120, 49.941
1286.326, 48.747
1287.531, 49.355
1288.736, 50.019
1289.941, 49.884
1291.146, 47.825
1292.350, 26.098
1293.555, 39.229
1294.759, 21.616
1295.963, 3.249
1297.167, 65.643
1298.370, 15.225
1299.574, 8.860
1300.777, 73.911
1301.980, 5.264
1303.183, 20.932
1304.386, 4.024
1305.588, 4.916
1306.790, 17.292
1307.993, 33.067
1309.195, 35.211
1310.396, 26.346
1311.598, 38.474
1312.799, 35.556
1314.000, 15.623
1315.201, 18.708
1316.402, 17.805
1317.603, 35.750
1318.803, 18.828
1320.003, 29.796
1321.203, 2.189
1322.403, 41.802
1323.603, 45.514
1324.802, 36.256
1326.002, 57.126
1327.201, 44.062
1328.400, 24.909
1329.599, 54.745
1330.797, 1.578
1331.995, 19.480
1333.194, 38.454
1334.392, 21.120
1335.589, 11.932
1336.787, 8.782
1337.985, 1.637
1339.182, 17.322
1340.379, 30.131
1341.576, 35.987
1342.772, 48.384
1343.969, 25.273
1345.165, 23.145
1346.361, 12.909
1347.557, 67.711
1348.753, 16.561
1349.949, 42.395
1351.144, 32.785
1352.339, 36.044
1353.534, 3.781
1354.729, 15.490
1355.924, 43.152
1357.118, 54.949
1358.312, 10.398
1359.506, 37.334
1360.700, 4.042
1361.894, 33.793
1363.088, 19.497
1364.281, 33.186
1365.474, 21.826
1366.667, 25.459
1367.860, 37.120
1369.052, 47.855
1370.245, 42.486
1371.437, 40.997
1372.629, 29.004
1373.821, 29.824
1375.013, 15.543
1376.204, 25.134
1377.395, 21.436
1378.586, 19.810
1379.777, 25.918
1380.968, 16.464
1382.159, 20.993
1383.349, 12.494
1384.539, 21.621
1385.729, 6.217
1386.919, 32.172
1388.109, 40.139
1389.298, 27.058
1390.487, 11.832
1391.676, 5.656
1392.865, 32.463
1394.054, 3.581
1395.242, 64.339
1396.431, 16.268
1397.619, 5.780
1398.807, 36.010
1399.995, 32.833
1401.182, 50.700
1402.370, 11.560
1403.557, 2.542
1404.744, 21.354
1405.931, 8.243
1407.118, 5.119
1408.304, 38.987
1409.490, 20.738
1410.676, 11.441
1411.862, 42.869
1413.048, 12.418
1414.234, 15.809
1415.419, 39.325
1416.604, 4.454
1417.789, 61.324
1418.974, 42.077
1420.159, 13.747
1421.343, 32.325
1422.528, 37.001
1423.712, 45.386
1424.896, 28.255
1426.079, 2.095
1427.263, 63.867
1428.446, 12.442
1429.629, 2.147
1430.812, 48.696
1431.995, 17.962
1433.178, 13.672
1434.360, 67.501
1435.543, 3.148
1436.725, 47.827
1437.907, 28.528
1439.088, 12.943
1440.270, 61.304
1441.451, 54.112
1442.632, 62.772
1443.813, 59.250
1444.994, 23.869
1446.175, 50.437
1447.355, 65.203
1448.535, 14.978
1449.715, 32.626
1450.895, 55.131
1452.075, 48.643
1453.255, 63.168
1454.434, 31.626
1455.613, 11.016
1456.792, 43.746
1457.971, 27.227
1459.149, 30.675
1460.328, 57.781
1461.506, 46.463
1462.684, 67.136
1463.862, 39.596
1465.040, 44.559
1466.217, 43.637
1467.395, 66.124
1468.572, 7.504
1469.749, 48.722
1470.925, 27.472
1472.102, 55.048
1473.278, 25.418
1474.455, 2.981
1475.631, 66.083
1476.807, 62.387
1477.982, 44.462
1479.158, 86.969
1480.333, 47.910
1481.508, 39.233
1482.683, 62.453
1483.858, 14.873
1485.033, 45.256
1486.207, 43.664
1487.381, 67.864
1488.555, 65.227
1489.729, 57.577
1490.903, 22.644
1492.076, 37.952
1493.250, 45.277
1494.423, 19.594
1495.596, 52.926
1496.769, 34.854
1497.941, 48.174
1499.114, 35.490
1500.286, 36.110
1501.458, 53.383
1502.630, 54.874
1503.802, 25.391
1504.973, 51.721
1506.145, 57.253
1507.316, 10.194
1508.487, 26.404
1509.657, 25.951
1510.828, 26.634
1511.999, 33.391
1513.169, 67.301
1514.339, 12.301
1515.509, 56.427
1516.678, 11.071
1517.848, 42.334
1519.017, 62.418
1520.187, 15.776
1521.356, 16.835
1522.524, 13.658
1523.693, 0.000
##END=



