##NAMES=Staurolite
##RRUFFID=R050079
##IDEAL CHEMISTRY=Fe^2+^_2_Al_9_Si_4_O_23_(OH)
##LOCALITY=Keivy, Kola Peninsula, Russia
##OWNER=RRUFF
##SOURCE=Rock Currier
##DESCRIPTION=Brown cruciform twins
##STATUS=The identification of this mineral has been confirmed by X-ray diffraction and chemical analysis
##URL=rruff.info/R050079
##MEASURED CHEMISTRY=(Fe^2+^_0.77_Mg_0.23_)_2_(Al_0.99_Ti_0.01_)_9_(Si_0.99_Al_0.01_)_4_O_20_(O_0.76_(OH)_0.24_)_4_
##PIN_ID=m00494
##ORIENTATION=Laser parallel to a* (1 0 0). Fiducial mark perpendicular to laser is parallel to b [0 1 0]
159.799, 0.000
161.187, 111.495
162.574, 60.756
163.961, 51.768
165.348, 124.121
166.734, 30.143
168.121, 53.168
169.507, 169.925
170.893, 141.964
172.278, 197.175
173.664, 166.419
175.049, 88.805
176.434, 46.231
177.819, 16.948
179.203, 28.831
180.587, 35.354
181.971, 13.959
183.355, 48.685
184.739, 143.781
186.122, 20.785
187.505, 28.356
188.888, 149.039
190.271, 89.432
191.653, 232.679
193.035, 331.887
194.417, 324.640
195.799, 340.279
197.180, 357.688
198.562, 486.514
199.943, 394.067
201.324, 472.145
202.704, 407.543
204.084, 399.966
205.465, 425.303
206.844, 473.355
208.224, 380.925
209.603, 291.497
210.983, 316.869
212.362, 329.979
213.740, 396.540
215.119, 229.494
216.497, 343.488
217.875, 250.255
219.253, 173.330
220.631, 211.304
222.008, 239.669
223.385, 190.623
224.762, 175.548
226.139, 135.341
227.515, 129.617
228.891, 117.396
230.267, 100.692
231.643, 99.707
233.018, 77.939
234.394, 106.909
235.769, 88.469
237.144, 120.634
238.518, 12.420
239.893, 104.300
241.267, 85.277
242.641, 118.183
244.014, 155.173
245.388, 59.458
246.761, 104.112
248.134, 53.187
249.507, 90.917
250.879, 126.048
252.252, 188.471
253.624, 151.448
254.996, 126.815
256.367, 146.893
257.739, 187.034
259.110, 142.272
260.481, 181.279
261.852, 140.761
263.222, 223.533
264.592, 114.035
265.962, 199.784
267.332, 157.353
268.702, 268.108
270.071, 118.089
271.440, 36.146
272.809, 71.819
274.178, 49.987
275.546, 74.018
276.915, 134.711
278.283, 93.136
279.650, 180.796
281.018, 174.912
282.385, 205.738
283.752, 242.599
285.119, 234.554
286.486, 360.166
287.852, 350.210
289.218, 465.676
290.584, 577.645
291.950, 801.923
293.316, 1039.090
294.681, 1373.143
296.046, 1828.079
297.411, 2334.898
298.775, 2875.570
300.140, 3248.094
301.504, 3674.480
302.868, 3804.739
304.231, 3692.880
305.595, 3385.909
306.958, 2970.837
308.321, 2548.676
309.684, 2067.430
311.047, 1671.100
312.409, 1383.687
313.771, 1055.190
315.133, 879.612
316.495, 718.953
317.856, 553.214
319.217, 393.398
320.578, 254.506
321.939, 390.538
323.299, 200.508
324.660, 176.257
326.020, 101.530
327.380, 21.924
328.739, 110.908
330.099, 158.350
331.458, 166.283
332.817, 18.569
334.176, 71.063
335.534, 42.502
336.892, 10.566
338.251, 89.958
339.608, 37.230
340.966, 28.338
342.323, 12.208
343.681, 17.782
345.037, 13.411
346.394, 20.635
347.751, 2.702
349.107, 29.609
350.463, 41.873
351.819, 87.024
353.174, 128.707
354.530, 145.909
355.885, 59.488
357.240, 75.976
358.594, 109.256
359.949, 1.671
361.303, 5.808
362.657, 41.856
364.011, 71.315
365.365, 16.599
366.718, 54.701
368.071, 56.618
369.424, 23.641
370.777, 9.080
372.129, 23.552
373.481, 37.660
374.833, 25.713
376.185, 4.090
377.537, 5.234
378.888, 22.234
380.239, 3.010
381.590, 30.418
382.941, 22.365
384.291, 12.342
385.642, 12.373
386.992, 17.230
388.341, 39.629
389.691, 42.739
391.040, 40.707
392.389, 91.475
393.738, 36.989
395.087, 95.379
396.435, 108.478
397.784, 107.714
399.132, 159.692
400.479, 168.840
401.827, 218.702
403.174, 274.517
404.521, 213.066
405.868, 236.774
407.215, 208.555
408.561, 186.055
409.908, 255.646
411.254, 165.195
412.599, 223.943
413.945, 257.755
415.290, 224.717
416.636, 328.275
417.980, 441.460
419.325, 579.689
420.670, 639.333
422.014, 708.045
423.358, 763.158
424.702, 812.831
426.045, 859.858
427.389, 899.069
428.732, 874.714
430.075, 902.862
431.417, 825.445
432.760, 794.904
434.102, 799.006
435.444, 882.528
436.786, 950.526
438.127, 975.829
439.469, 975.728
440.810, 1048.097
442.151, 1119.220
443.492, 1218.229
444.832, 1161.439
446.172, 1151.762
447.512, 1199.990
448.852, 1216.682
450.192, 1119.275
451.531, 1186.296
452.870, 1240.733
454.209, 1386.126
455.548, 1628.474
456.887, 1783.778
458.225, 2202.039
459.563, 2698.256
460.901, 3042.431
462.238, 3201.568
463.576, 3066.659
464.913, 2895.709
466.250, 2474.808
467.587, 2128.777
468.923, 1699.707
470.259, 1353.597
471.596, 1209.509
472.931, 1048.474
474.267, 994.247
475.603, 883.286
476.938, 891.182
478.273, 866.990
479.608, 935.932
480.942, 777.164
482.276, 858.681
483.611, 869.980
484.944, 922.448
486.278, 837.032
487.612, 861.185
488.945, 860.048
490.278, 913.617
491.611, 991.744
492.943, 1014.196
494.276, 1059.607
495.608, 1084.701
496.940, 1057.642
498.271, 1119.481
499.603, 990.415
500.934, 1066.399
502.265, 1048.177
503.596, 1057.127
504.927, 1054.938
506.257, 1012.042
507.587, 1022.740
508.917, 972.843
510.247, 1000.544
511.577, 1010.481
512.906, 1050.376
514.235, 1036.566
515.564, 921.737
516.892, 1067.693
518.221, 1069.805
519.549, 1026.194
520.877, 1148.312
522.205, 1168.761
523.533, 1146.099
524.860, 1230.571
526.187, 1162.208
527.514, 1152.594
528.841, 1149.958
530.167, 1133.283
531.493, 1088.466
532.820, 1122.688
534.145, 1023.973
535.471, 949.958
536.796, 984.736
538.122, 817.914
539.447, 807.987
540.771, 773.224
542.096, 783.699
543.420, 760.642
544.744, 747.516
546.068, 756.672
547.392, 724.611
548.715, 752.058
550.039, 749.539
551.362, 774.951
552.684, 832.066
554.007, 818.346
555.329, 878.449
556.652, 876.635
557.973, 894.790
559.295, 927.355
560.617, 979.971
561.938, 1034.803
563.259, 1078.841
564.580, 1123.598
565.901, 1131.430
567.221, 1112.116
568.541, 1210.688
569.861, 1263.530
571.181, 1207.958
572.501, 1243.627
573.820, 1231.419
575.139, 1299.051
576.458, 1240.098
577.777, 1091.602
579.095, 1168.542
580.414, 983.459
581.732, 944.355
583.049, 913.229
584.367, 868.083
585.685, 816.916
587.002, 747.731
588.319, 721.527
589.636, 655.305
590.952, 625.064
592.268, 588.808
593.585, 532.543
594.900, 527.269
596.216, 541.985
597.532, 455.693
598.847, 563.389
600.162, 446.075
601.477, 487.749
602.792, 355.410
604.106, 380.058
605.420, 326.693
606.734, 310.314
608.048, 347.922
609.361, 290.515
610.675, 328.092
611.988, 274.651
613.301, 256.192
614.614, 216.717
615.926, 220.225
617.238, 181.710
618.550, 185.189
619.862, 135.647
621.174, 139.089
622.485, 146.515
623.797, 106.925
625.108, 156.320
626.418, 137.699
627.729, 148.063
629.039, 102.413
630.349, 77.748
631.659, 146.067
632.969, 36.372
634.279, 58.661
635.588, 67.935
636.897, 18.194
638.206, 17.438
639.515, 30.332
640.823, 35.248
642.131, 5.043
643.439, 23.795
644.747, 66.657
646.055, 11.555
647.362, 40.461
648.669, 98.391
649.976, 13.625
651.283, 28.637
652.589, 29.346
653.896, 80.656
655.202, 19.337
656.508, 27.334
657.814, 12.655
659.119, 27.334
660.424, 46.333
661.729, 51.660
663.034, 47.671
664.339, 15.699
665.643, 80.255
666.947, 54.766
668.251, 36.202
669.555, 24.180
670.859, 2.164
672.162, 0.146
673.465, 18.976
674.768, 15.214
676.071, 31.940
677.373, 19.986
678.676, 10.949
679.978, 20.127
681.280, 34.783
682.581, 37.302
683.883, 54.403
685.184, 41.517
686.485, 125.643
687.786, 25.827
689.087, 48.002
690.387, 88.205
691.687, 109.438
692.987, 96.700
694.287, 138.334
695.586, 227.809
696.886, 126.622
698.185, 246.999
699.484, 207.387
700.783, 183.803
702.081, 272.246
703.379, 252.714
704.677, 318.246
705.975, 297.753
707.273, 281.540
708.570, 320.084
709.868, 394.645
711.165, 452.437
712.462, 482.032
713.758, 521.687
715.055, 570.270
716.351, 545.910
717.647, 652.564
718.943, 632.231
720.238, 718.912
721.533, 756.605
722.829, 804.312
724.124, 784.033
725.418, 876.769
726.713, 922.519
728.007, 919.283
729.301, 1058.062
730.595, 1017.855
731.889, 1116.664
733.182, 1062.485
734.476, 1195.319
735.769, 1175.161
737.061, 1208.013
738.354, 1367.875
739.647, 1219.748
740.939, 1358.631
742.231, 1388.523
743.523, 1452.428
744.814, 1503.342
746.106, 1528.267
747.397, 1711.203
748.688, 1737.151
749.978, 1789.109
751.269, 1900.079
752.559, 1924.061
753.849, 2063.055
755.139, 2231.060
756.429, 2349.077
757.719, 2445.105
759.008, 2589.146
760.297, 2723.199
761.586, 2871.526
762.875, 3021.377
764.163, 3210.433
765.451, 3338.536
766.739, 3540.652
768.027, 3723.782
769.315, 3847.925
770.602, 4088.080
771.890, 4288.249
773.177, 4345.431
774.463, 4741.628
775.750, 4783.835
777.036, 4974.058
778.323, 5195.296
779.609, 5454.459
780.894, 5633.115
782.180, 5913.197
783.465, 6035.302
784.750, 6405.556
786.035, 6635.732
787.320, 6796.079
788.605, 6966.134
789.889, 7326.312
791.173, 7176.555
792.457, 7466.616
793.741, 7606.702
795.024, 7354.917
796.307, 7162.899
797.591, 6912.905
798.873, 6511.566
800.156, 6127.952
801.439, 5587.315
802.721, 5064.229
804.003, 4532.919
805.285, 4028.289
806.566, 3511.752
807.848, 3186.441
809.129, 2687.130
810.410, 2358.413
811.691, 2039.336
812.971, 1852.898
814.252, 1530.911
815.532, 1362.998
816.812, 1214.824
818.092, 953.683
819.371, 849.449
820.651, 814.889
821.930, 632.825
823.209, 594.739
824.488, 441.300
825.766, 529.926
827.045, 419.674
828.323, 335.724
829.601, 382.789
830.878, 252.910
832.156, 280.054
833.433, 175.566
834.710, 139.748
835.987, 212.211
837.264, 84.433
838.540, 160.675
839.817, 112.946
841.093, 2.755
842.369, 87.562
843.644, 101.897
844.920, 6.260
846.195, 32.642
847.470, 59.948
848.745, 54.531
850.020, 30.106
851.294, 1.666
852.568, 26.793
853.842, 18.333
855.116, 27.062
856.390, 11.285
857.663, 4.182
858.936, 27.369
860.209, 20.060
861.482, 63.526
862.755, 65.129
864.027, 17.251
865.299, 69.382
866.571, 51.034
867.843, 69.703
869.115, 64.388
870.386, 73.091
871.657, 163.815
872.928, 63.568
874.199, 161.338
875.470, 162.126
876.740, 162.932
878.010, 175.762
879.280, 232.613
880.550, 210.481
881.820, 293.366
883.089, 295.271
884.358, 314.191
885.627, 365.132
886.896, 403.091
888.164, 461.066
889.433, 482.058
890.701, 505.065
891.969, 534.088
893.236, 497.128
894.504, 591.183
895.771, 664.254
897.038, 714.341
898.305, 691.444
899.572, 688.567
900.838, 705.705
902.105, 792.859
903.371, 772.029
904.637, 847.990
905.902, 883.417
907.168, 949.635
908.433, 981.867
909.698, 1000.117
910.963, 1120.380
912.228, 1137.659
913.492, 1300.953
914.757, 1289.263
916.021, 1463.586
917.285, 1663.925
918.548, 1749.278
919.812, 1924.646
921.075, 2113.027
922.338, 2321.423
923.601, 2439.832
924.864, 2709.255
926.126, 3119.692
927.388, 3217.143
928.650, 3255.607
929.912, 3646.086
931.174, 3799.577
932.435, 4015.081
933.697, 4126.598
934.958, 4163.128
936.218, 4305.868
937.479, 4097.436
938.739, 3980.003
940.000, 4071.586
941.260, 3654.311
942.520, 3699.917
943.779, 3420.349
945.039, 3168.669
946.298, 2991.224
947.557, 2701.895
948.816, 2675.843
950.074, 2549.552
951.333, 2299.280
952.591, 2288.153
953.849, 2171.798
955.107, 2103.781
956.365, 2077.844
957.622, 1979.275
958.879, 1973.635
960.136, 1958.730
961.393, 1825.544
962.650, 2061.114
963.906, 1919.264
965.162, 1876.954
966.418, 1871.221
967.674, 1823.574
968.930, 1977.902
970.185, 1829.594
971.441, 1895.586
972.696, 1931.066
973.950, 1821.538
975.205, 1816.822
976.459, 1784.770
977.714, 1706.982
978.968, 1787.073
980.222, 1720.279
981.475, 1818.367
982.729, 1757.126
983.982, 1667.277
985.235, 1701.590
986.488, 1651.256
987.740, 1645.383
988.993, 1631.980
990.245, 1701.429
991.497, 1665.697
992.749, 1728.813
994.000, 1638.145
995.252, 1691.330
996.503, 1627.729
997.754, 1686.064
999.005, 1717.467
1000.256, 1618.671
1001.506, 1624.596
1002.756, 1638.409
1004.006, 1501.873
1005.256, 1509.394
1006.506, 1483.765
1007.755, 1527.989
1009.005, 1433.610
1010.254, 1338.429
1011.502, 1320.411
1012.751, 1295.669
1014.000, 1276.883
1015.248, 1244.873
1016.496, 1171.251
1017.744, 1223.532
1018.991, 1067.801
1020.239, 1037.404
1021.486, 1054.439
1022.733, 1015.518
1023.980, 989.001
1025.227, 920.741
1026.473, 888.193
1027.719, 821.018
1028.965, 789.539
1030.211, 755.988
1031.457, 731.382
1032.702, 620.391
1033.948, 593.625
1035.193, 518.057
1036.438, 511.484
1037.682, 458.082
1038.927, 448.419
1040.171, 439.650
1041.415, 387.527
1042.659, 389.350
1043.903, 341.557
1045.146, 301.011
1046.390, 361.342
1047.633, 280.696
1048.876, 260.789
1050.118, 329.254
1051.361, 278.562
1052.603, 286.873
1053.845, 247.354
1055.087, 244.826
1056.329, 256.195
1057.571, 206.587
1058.812, 233.024
1060.053, 221.240
1061.294, 225.499
1062.535, 229.602
1063.775, 175.232
1065.016, 225.553
1066.256, 204.796
1067.496, 195.939
1068.736, 291.043
1069.975, 212.261
1071.214, 198.154
1072.454, 120.701
1073.693, 115.785
1074.931, 70.969
1076.170, 101.037
1077.408, 78.162
1078.647, 61.345
1079.885, 67.391
1081.122, 26.429
1082.360, 11.312
1083.597, 16.636
1084.835, 18.505
1086.072, 11.490
1087.308, 55.477
1088.545, 23.455
1089.781, 2.447
1091.018, 50.405
1092.254, 6.353
1093.490, 35.427
1094.725, 33.617
1095.961, 28.539
1097.196, 2.497
1098.431, 29.526
1099.666, 49.603
1100.900, 43.430
1102.135, 6.553
1103.369, 27.620
1104.603, 24.686
1105.837, 27.173
1107.071, 11.073
1108.304, 26.261
1109.538, 14.424
1110.771, 3.214
1112.004, 10.110
1113.236, 17.116
1114.469, 41.503
1115.701, 7.277
1116.933, 41.167
1118.165, 1.411
1119.397, 57.937
1120.629, 57.582
1121.860, 9.142
1123.091, 16.261
1124.322, 47.351
1125.553, 26.048
1126.783, 48.626
1128.014, 33.898
1129.244, 31.759
1130.474, 6.488
1131.704, 54.982
1132.933, 24.170
1134.163, 10.639
1135.392, 79.069
1136.621, 14.205
1137.850, 18.490
1139.079, 15.238
1140.307, 83.937
1141.535, 33.006
1142.763, 12.824
1143.991, 28.348
1145.219, 14.524
1146.446, 14.652
1147.674, 33.729
1148.901, 32.051
1150.128, 14.055
1151.354, 29.211
1152.581, 27.322
1153.807, 42.335
1155.033, 79.253
1156.259, 23.095
1157.485, 17.919
1158.710, 78.902
1159.936, 76.763
1161.161, 88.795
1162.386, 97.327
1163.611, 53.196
1164.835, 78.564
1166.060, 82.478
1167.284, 32.232
1168.508, 16.041
1169.732, 20.330
1170.955, 41.253
1172.179, 28.037
1173.402, 45.849
1174.625, 0.530
1175.848, 6.183
1177.070, 47.816
1178.293, 61.321
1179.515, 21.036
1180.737, 102.584
1181.959, 10.432
1183.181, 59.907
1184.402, 42.280
1185.624, 81.648
1186.845, 106.885
1188.066, 100.635
1189.286, 62.090
1190.507, 118.493
1191.727, 56.818
1192.947, 85.964
1194.167, 80.089
1195.387, 23.405
1196.607, 56.481
1197.826, 90.536
1199.045, 51.570
1200.264, 100.580
1201.483, 56.757
1202.702, 73.817
1203.920, 67.911
1205.138, 59.977
1206.356, 108.877
1207.574, 97.932
1208.792, 56.790
1210.009, 96.742
1211.227, 80.717
1212.444, 98.507
1213.661, 121.275
1214.877, 115.254
1216.094, 100.979
1217.310, 123.877
1218.526, 89.701
1219.742, 132.359
1220.958, 105.023
1222.173, 136.638
1223.389, 116.231
1224.604, 100.971
1225.819, 184.519
1227.034, 144.166
1228.248, 213.046
1229.463, 192.528
1230.677, 172.074
1231.891, 178.660
1233.105, 166.174
1234.318, 148.912
1235.532, 129.348
1236.745, 148.571
1237.958, 158.046
1239.171, 103.293
1240.384, 129.634
1241.596, 74.976
1242.809, 120.230
1244.021, 100.585
1245.233, 87.121
1246.444, 111.337
1247.656, 121.944
1248.867, 103.361
1250.079, 94.562
1251.290, 107.139
1252.500, 129.649
1253.711, 109.492
1254.921, 135.425
1256.132, 102.421
1257.342, 73.157
1258.552, 99.146
1259.761, 135.579
1260.971, 77.469
1262.180, 138.189
1263.389, 108.935
1264.598, 116.214
1265.807, 159.112
1267.015, 117.689
1268.223, 135.335
1269.432, 160.043
1270.640, 102.169
1271.847, 161.016
1273.055, 53.766
1274.262, 93.634
1275.470, 104.361
1276.677, 44.819
1277.883, 114.703
1279.090, 44.270
1280.296, 46.428
1281.503, 115.158
1282.709, 65.292
1283.915, 67.615
1285.120, 76.041
1286.326, 72.693
1287.531, 95.121
1288.736, 59.593
1289.941, 65.921
1291.146, 44.413
1292.350, 64.627
1293.555, 26.062
1294.759, 75.293
1295.963, 38.026
1297.167, 41.147
1298.370, 58.336
1299.574, 76.615
1300.777, 91.147
1301.980, 90.587
1303.183, 47.270
1304.386, 72.833
1305.588, 35.224
1306.790, 2.470
1307.993, 58.799
1309.195, 7.845
1310.396, 41.045
1311.598, 73.193
1312.799, 55.053
1314.000, 91.330
1315.201, 89.544
1316.402, 38.317
1317.603, 31.944
1318.803, 50.738
1320.003, 48.314
1321.203, 44.972
1322.403, 70.706
1323.603, 9.495
1324.802, 48.614
1326.002, 12.526
1327.201, 53.115
1328.400, 72.740
1329.599, 68.170
1330.797, 106.922
1331.995, 13.321
1333.194, 34.563
1334.392, 44.441
1335.589, 58.159
1336.787, 114.603
1337.985, 100.544
1339.182, 44.647
1340.379, 110.527
1341.576, 96.857
1342.772, 122.316
1343.969, 111.750
1345.165, 49.308
1346.361, 71.531
1347.557, 57.829
1348.753, 59.079
1349.949, 127.259
1351.144, 50.636
1352.339, 108.946
1353.534, 64.015
1354.729, 53.280
1355.924, 110.457
1357.118, 100.618
1358.312, 35.851
1359.506, 112.035
1360.700, 44.130
1361.894, 56.289
1363.088, 103.276
1364.281, 83.406
1365.474, 95.406
1366.667, 93.555
1367.860, 48.683
1369.052, 105.583
1370.245, 59.592
1371.437, 17.579
1372.629, 113.546
1373.821, 68.059
1375.013, 19.964
1376.204, 61.848
1377.395, 19.553
1378.586, 70.970
1379.777, 140.749
1380.968, 52.383
1382.159, 91.844
1383.349, 74.346
1384.539, 14.291
1385.729, 100.206
1386.919, 14.606
1388.109, 19.150
1389.298, 78.680
1390.487, 1.909
1391.676, 51.317
1392.865, 26.887
1394.054, 23.511
1395.242, 75.138
1396.431, 93.734
1397.619, 60.125
1398.807, 63.686
1399.995, 37.023
1401.182, 29.996
1402.370, 31.182
1403.557, 26.447
1404.744, 43.094
1405.931, 40.292
1407.118, 62.419
1408.304, 78.359
1409.490, 40.250
1410.676, 26.448
1411.862, 52.876
1413.048, 31.950
1414.234, 30.943
1415.419, 95.233
1416.604, 25.159
1417.789, 82.263
1418.974, 8.300
1420.159, 25.021
1421.343, 54.870
1422.528, 62.218
1423.712, 49.123
1424.896, 79.118
1426.079, 63.335
1427.263, 86.982
1428.446, 45.701
1429.629, 51.979
1430.812, 72.919
1431.995, 53.189
1433.178, 26.150
1434.360, 9.010
1435.543, 25.022
1436.725, 60.967
1437.907, 88.724
1439.088, 65.957
1440.270, 32.777
1441.451, 42.396
1442.632, 20.610
1443.813, 11.496
1444.994, 13.697
1446.175, 9.974
1447.355, 26.026
1448.535, 65.353
1449.715, 43.750
1450.895, 65.655
1452.075, 48.735
1453.255, 54.926
1454.434, 38.517
1455.613, 109.321
1456.792, 115.479
1457.971, 87.003
1459.149, 35.654
1460.328, 60.156
1461.506, 20.635
1462.684, 74.397
1463.862, 59.485
1465.040, 52.709
1466.217, 67.423
1467.395, 80.947
1468.572, 68.882
1469.749, 146.290
1470.925, 111.816
1472.102, 44.837
1473.278, 91.210
1474.455, 22.406
1475.631, 32.378
1476.807, 86.163
1477.982, 75.681
1479.158, 98.839
1480.333, 160.415
1481.508, 29.267
1482.683, 74.005
1483.858, 122.881
1485.033, 18.172
1486.207, 38.449
1487.381, 62.429
1488.555, 71.225
1489.729, 108.531
1490.903, 135.278
1492.076, 89.942
1493.250, 148.417
1494.423, 91.162
1495.596, 104.917
1496.769, 98.140
1497.941, 80.314
1499.114, 142.015
1500.286, 83.594
1501.458, 103.023
1502.630, 125.673
1503.802, 91.990
1504.973, 54.947
1506.145, 83.681
1507.316, 33.033
1508.487, 18.876
1509.657, 138.066
1510.828, 87.174
1511.999, 104.561
1513.169, 86.103
1514.339, 1.458
1515.509, 137.412
1516.678, 103.585
1517.848, 17.070
1519.017, 0.000
##END=



