##NAMES=Staurolite
##RRUFFID=R050079
##IDEAL CHEMISTRY=Fe^2+^_2_Al_9_Si_4_O_23_(OH)
##LOCALITY=Keivy, Kola Peninsula, Russia
##OWNER=RRUFF
##SOURCE=Rock Currier
##DESCRIPTION=Brown cruciform twins
##STATUS=The identification of this mineral has been confirmed by X-ray diffraction and chemical analysis
##URL=rruff.info/R050079
##MEASURED CHEMISTRY=(Fe^2+^_0.77_Mg_0.23_)_2_(Al_0.99_Ti_0.01_)_9_(Si_0.99_Al_0.01_)_4_O_20_(O_0.76_(OH)_0.24_)_4_
##PIN_ID=L00403
##ORIENTATION=Laser parallel to -b* (0 -1 0). Fiducial mark perpendicular to laser is parallel to c [0 0 1]
180.922, 0.000
182.303, 45.588
183.684, 3.440
185.065, 65.893
186.446, 50.926
187.826, 58.854
189.207, 125.983
190.587, 70.966
191.967, 158.248
193.346, 168.456
194.726, 212.456
196.105, 295.987
197.484, 373.257
198.862, 455.781
200.241, 509.269
201.619, 565.539
202.997, 593.487
204.375, 646.204
205.753, 612.950
207.130, 654.793
208.507, 696.241
209.884, 590.272
211.261, 597.879
212.638, 576.224
214.014, 543.444
215.390, 518.657
216.766, 467.959
218.141, 450.437
219.517, 449.165
220.892, 447.210
222.267, 385.631
223.642, 399.487
225.016, 400.837
226.391, 399.735
227.765, 417.221
229.139, 469.311
230.512, 505.512
231.886, 567.544
233.259, 643.435
234.632, 654.110
236.005, 657.004
237.377, 650.973
238.749, 623.360
240.122, 635.621
241.493, 605.764
242.865, 640.796
244.237, 658.725
245.608, 638.557
246.979, 657.295
248.350, 643.370
249.720, 636.226
251.090, 637.891
252.461, 646.222
253.830, 682.463
255.200, 707.642
256.570, 817.696
257.939, 791.697
259.308, 838.627
260.677, 890.492
262.045, 809.294
263.414, 831.065
264.782, 720.880
266.150, 749.741
267.517, 649.649
268.885, 474.603
270.252, 415.600
271.619, 302.934
272.986, 159.733
274.353, 89.725
275.719, 50.851
277.085, 6.532
278.451, 20.561
279.817, 56.043
281.182, 70.453
282.548, 83.874
283.913, 90.435
285.278, 61.883
286.642, 1.716
288.007, 12.063
289.371, 82.052
290.735, 137.039
292.099, 325.021
293.462, 477.000
294.826, 675.975
296.189, 1100.945
297.552, 1598.911
298.914, 2312.872
300.277, 3084.829
301.639, 4277.783
303.001, 5238.732
304.363, 6179.677
305.724, 6890.620
307.086, 7025.559
308.447, 6783.494
309.808, 6149.418
311.168, 5559.292
312.529, 4766.042
313.889, 3924.603
315.249, 3216.957
316.609, 2671.198
317.969, 2183.399
319.328, 1787.599
320.687, 1443.804
322.046, 1292.013
323.405, 1024.227
324.764, 927.445
326.122, 779.668
327.480, 674.896
328.838, 642.129
330.196, 561.369
331.553, 564.614
332.910, 567.865
334.267, 590.123
335.624, 685.388
336.981, 724.659
338.337, 809.938
339.693, 895.225
341.049, 1042.520
342.405, 930.823
343.760, 963.134
345.116, 908.838
346.471, 730.313
347.826, 705.559
349.180, 541.166
350.535, 450.799
351.889, 440.444
353.243, 420.085
354.597, 409.714
355.950, 359.104
357.304, 312.909
358.657, 250.461
360.010, 193.975
361.362, 138.445
362.715, 44.869
364.067, 111.246
365.419, 29.577
366.771, 5.138
368.123, 16.095
369.474, 23.727
370.825, 3.636
372.176, 65.634
373.527, 3.729
374.877, 44.901
376.228, 49.155
377.578, 47.486
378.928, 36.890
380.277, 56.125
381.627, 14.900
382.976, 63.492
384.325, 72.148
385.674, 19.866
387.023, 20.631
388.371, 3.548
389.719, 46.713
391.067, 49.815
392.415, 107.799
393.762, 141.573
395.110, 161.069
396.457, 185.291
397.804, 184.500
399.150, 192.270
400.497, 163.485
401.843, 182.524
403.189, 155.555
404.535, 135.581
405.881, 176.600
407.226, 162.614
408.571, 220.624
409.916, 212.629
411.261, 141.631
412.605, 157.629
413.950, 169.625
415.294, 162.618
416.638, 215.609
417.981, 239.600
419.325, 259.588
420.668, 391.577
422.011, 453.565
423.354, 494.554
424.697, 589.542
426.039, 696.532
427.381, 790.522
428.723, 921.512
430.065, 1048.503
431.406, 1199.190
432.748, 1381.564
434.089, 1549.150
435.430, 1745.148
436.770, 1969.089
438.111, 2203.343
439.451, 2436.091
440.791, 2815.778
442.131, 3015.900
443.471, 3320.806
444.810, 3529.620
446.149, 3765.737
447.488, 3811.619
448.827, 3923.559
450.166, 4011.155
451.504, 3861.041
452.842, 3772.843
454.180, 3568.446
455.518, 3535.057
456.855, 3506.675
458.193, 3598.299
459.530, 3905.930
460.867, 4340.570
462.203, 4981.217
463.540, 5318.871
464.876, 5676.533
466.212, 5366.202
467.548, 5048.878
468.883, 4307.564
470.219, 3506.257
471.554, 2940.957
472.889, 2385.667
474.224, 2083.384
475.558, 1780.112
476.892, 1535.850
478.227, 1382.600
479.561, 1328.362
480.894, 1222.134
482.228, 1232.919
483.561, 1183.716
484.894, 1103.524
486.227, 1075.344
487.559, 1132.176
488.892, 1108.019
490.224, 1103.875
491.556, 1193.743
492.888, 1126.622
494.220, 1208.514
495.551, 1255.417
496.882, 1412.333
498.213, 1337.262
499.544, 1398.202
500.874, 1436.155
502.205, 1384.120
503.535, 1370.097
504.865, 1352.086
506.194, 1256.074
507.524, 1237.062
508.853, 1131.050
510.182, 1108.037
511.511, 1007.025
512.840, 1036.015
514.168, 935.011
515.496, 737.021
516.824, 803.043
518.152, 681.074
519.480, 617.117
520.807, 600.179
522.134, 517.086
523.461, 511.472
524.788, 453.314
526.114, 448.578
527.441, 419.797
528.767, 348.945
530.093, 275.084
531.418, 278.513
532.744, 251.181
534.069, 214.667
535.394, 189.600
536.719, 196.307
538.044, 178.151
539.368, 112.700
540.693, 147.074
542.017, 60.070
543.340, 110.051
544.664, 6.526
545.987, 68.319
547.311, 45.104
548.634, 92.415
549.956, 102.240
551.279, 34.112
552.601, 89.282
553.923, 48.611
555.245, 24.994
556.567, 34.389
557.889, 49.796
559.210, 39.217
560.531, 72.650
561.852, 38.096
563.173, 74.556
564.493, 66.651
565.813, 56.514
567.133, 64.013
568.453, 93.525
569.773, 93.051
571.092, 120.590
572.412, 146.143
573.731, 109.709
575.049, 144.290
576.368, 94.883
577.686, 78.491
579.005, 117.112
580.323, 71.654
581.640, 83.396
582.958, 45.059
584.275, 48.736
585.593, 56.427
586.909, 52.132
588.226, 35.851
589.543, 10.415
590.859, 45.331
592.175, 50.092
593.491, 101.867
594.807, 37.658
596.122, 36.469
597.438, 4.300
598.753, 62.165
600.068, 77.068
601.382, 117.018
602.697, 105.022
604.011, 123.084
605.325, 164.207
606.639, 127.384
607.952, 200.597
609.266, 165.844
610.579, 181.115
611.892, 168.406
613.205, 189.714
614.518, 168.038
615.830, 154.379
617.142, 126.736
618.454, 126.110
619.766, 146.500
621.078, 167.907
622.389, 67.331
623.700, 97.771
625.011, 155.228
626.322, 62.701
627.632, 68.191
628.943, 87.697
630.253, 58.220
631.563, 71.759
632.872, 71.314
634.182, 71.887
635.491, 71.476
636.800, 103.081
638.109, 48.702
639.418, 84.341
640.726, 91.995
642.035, 127.666
643.343, 133.454
644.651, 136.191
645.958, 138.777
647.266, 132.512
648.573, 117.265
649.880, 120.033
651.187, 114.562
652.494, 104.619
653.800, 129.436
655.106, 166.268
656.412, 211.117
657.718, 222.983
659.024, 222.864
660.329, 191.761
661.634, 190.674
662.939, 187.603
664.244, 171.548
665.549, 149.509
666.853, 147.264
668.157, 129.862
669.461, 140.460
670.765, 139.936
672.069, 153.345
673.372, 135.730
674.675, 75.514
675.978, 82.325
677.281, 93.844
678.583, 39.415
679.886, 63.237
681.188, 7.664
682.490, 64.108
683.792, 13.795
685.093, 34.322
686.394, 0.250
687.696, 36.667
688.997, 8.129
690.297, 16.401
691.598, 30.602
692.898, 47.832
694.198, 86.585
695.498, 37.902
696.798, 60.361
698.097, 90.854
699.397, 89.370
700.696, 34.922
701.995, 110.512
703.293, 39.126
704.592, 153.764
705.890, 74.419
707.188, 39.090
708.486, 92.774
709.784, 125.471
711.081, 57.181
712.378, 77.903
713.675, 89.637
714.972, 100.383
716.269, 87.141
717.565, 67.911
718.862, 132.692
720.158, 77.485
721.453, 126.290
722.749, 69.106
724.045, 120.934
725.340, 178.773
726.635, 157.624
727.930, 143.486
729.224, 162.359
730.519, 172.243
731.813, 190.139
733.107, 232.045
734.401, 229.962
735.694, 250.891
736.988, 323.829
738.281, 336.779
739.574, 351.739
740.867, 406.710
742.160, 379.692
743.452, 452.684
744.744, 482.686
746.036, 515.619
747.328, 554.642
748.620, 563.675
749.911, 617.718
751.202, 687.771
752.493, 659.834
753.784, 731.906
755.075, 756.989
756.365, 776.080
757.655, 850.181
758.945, 916.291
760.235, 938.406
761.525, 1007.537
762.814, 990.672
764.103, 1145.815
765.392, 1161.966
766.681, 1178.125
767.969, 1281.292
769.258, 1297.465
770.546, 1273.647
771.834, 1385.836
773.122, 1423.032
774.409, 1445.235
775.697, 1397.445
776.984, 1483.662
778.271, 1510.886
779.558, 1537.117
780.844, 1562.354
782.131, 1549.599
783.417, 1541.851
784.703, 1544.109
785.989, 1610.374
787.274, 1661.652
788.560, 1595.938
789.845, 1705.232
791.130, 1707.533
792.415, 1680.839
793.699, 1709.152
794.983, 1744.471
796.268, 1692.796
797.552, 1634.128
798.835, 1591.466
800.119, 1513.811
801.402, 1373.162
802.686, 1294.518
803.969, 1121.880
805.251, 1085.249
806.534, 869.622
807.816, 726.002
809.098, 640.387
810.380, 527.782
811.662, 452.183
812.944, 338.592
814.225, 246.008
815.506, 221.431
816.787, 129.861
818.068, 75.295
819.349, 58.733
820.629, 24.185
821.909, 3.080
823.189, 0.893
824.469, 17.432
825.749, 50.981
827.028, 39.558
828.307, 32.155
829.586, 38.770
830.865, 65.406
832.144, 33.070
833.422, 52.753
834.700, 93.466
835.978, 45.228
837.256, 128.017
838.534, 76.869
839.811, 34.761
841.088, 57.687
842.365, 37.633
843.642, 14.301
844.919, 0.663
846.195, 35.633
847.472, 11.373
848.748, 18.616
850.023, 69.378
851.299, 82.383
852.575, 102.389
853.850, 94.396
855.125, 136.409
856.400, 159.421
857.674, 165.433
858.949, 143.445
860.223, 147.456
861.497, 234.467
862.771, 206.477
864.045, 273.485
865.318, 311.493
866.591, 353.500
867.864, 379.506
869.137, 430.758
870.410, 468.286
871.682, 523.516
872.955, 569.518
874.227, 609.518
875.499, 692.516
876.770, 663.514
878.042, 792.510
879.313, 829.506
880.584, 953.500
881.855, 1094.495
883.126, 1234.487
884.396, 1386.287
885.667, 1541.467
886.937, 1713.456
888.207, 1877.443
889.476, 2063.429
890.746, 2200.412
892.015, 2390.394
893.284, 2536.376
894.553, 2603.357
895.822, 2693.336
897.090, 2830.312
898.359, 2728.285
899.627, 2823.258
900.895, 2626.228
902.163, 2642.196
903.430, 2511.160
904.698, 2385.122
905.965, 2283.083
907.232, 2242.040
908.499, 2121.993
909.765, 2064.943
911.032, 2054.890
912.298, 2002.841
913.564, 1997.788
914.830, 1975.093
916.095, 1984.312
917.361, 1959.611
918.626, 2027.544
919.891, 2060.472
921.156, 2089.397
922.420, 2260.318
923.685, 2353.234
924.949, 2428.157
926.213, 2646.064
927.477, 2762.966
928.740, 2947.866
930.004, 3189.760
931.267, 3244.706
932.530, 3626.642
933.793, 3691.523
935.056, 3921.550
936.318, 4101.508
937.581, 4112.436
938.843, 4255.942
940.104, 4240.198
941.366, 4127.354
942.628, 4202.328
943.889, 4008.281
945.150, 3778.249
946.411, 3628.207
947.672, 3449.213
948.932, 3210.184
950.193, 3037.430
951.453, 2853.398
952.713, 2628.332
953.973, 2450.415
955.232, 2246.331
956.491, 2058.516
957.751, 1895.381
959.010, 1778.472
960.268, 1681.664
961.527, 1629.476
962.785, 1603.582
964.044, 1612.944
965.302, 1516.738
966.559, 1500.780
967.817, 1324.141
969.075, 1248.000
970.332, 1095.823
971.589, 1023.754
972.846, 961.929
974.102, 842.347
975.359, 868.321
976.615, 799.580
977.871, 752.945
979.127, 705.009
980.383, 681.609
981.638, 647.815
982.893, 637.021
984.149, 562.325
985.404, 641.494
986.658, 535.466
987.913, 571.844
989.167, 558.866
990.421, 513.393
991.675, 511.480
992.929, 454.311
994.183, 454.105
995.436, 406.588
996.689, 446.624
997.942, 411.580
999.195, 409.639
1000.448, 462.315
1001.700, 430.201
1002.952, 402.917
1004.204, 384.571
1005.456, 381.320
1006.708, 401.883
1007.959, 413.435
1009.210, 394.930
1010.461, 386.332
1011.712, 393.902
1012.963, 335.379
1014.213, 332.850
1015.464, 308.314
1016.714, 301.772
1017.964, 303.224
1019.214, 257.668
1020.463, 296.143
1021.712, 259.574
1022.962, 301.133
1024.210, 243.590
1025.459, 223.156
1026.708, 237.610
1027.956, 262.169
1029.204, 255.826
1030.452, 257.436
1031.700, 217.182
1032.948, 204.626
1034.195, 207.078
1035.442, 196.586
1036.689, 192.477
1037.936, 163.057
1039.183, 160.521
1040.429, 153.331
1041.676, 163.388
1042.922, 143.635
1044.168, 176.027
1045.413, 162.583
1046.659, 146.030
1047.904, 169.585
1049.149, 182.136
1050.394, 170.462
1051.639, 132.967
1052.884, 206.423
1054.128, 160.850
1055.372, 147.563
1056.616, 186.798
1057.860, 140.024
1059.104, 154.248
1060.347, 168.671
1061.590, 117.835
1062.833, 215.126
1064.076, 168.526
1065.319, 165.000
1066.561, 152.167
1067.803, 117.326
1069.046, 116.477
1070.287, 103.723
1071.529, 78.117
1072.771, 91.242
1074.012, 45.357
1075.253, 74.537
1076.494, 78.635
1077.735, 77.134
1078.975, 54.235
1080.216, 36.307
1081.456, 37.576
1082.696, 66.764
1083.936, 16.812
1085.175, 29.850
1086.415, 35.878
1087.654, 15.023
1088.893, 6.030
1090.132, 9.015
1091.371, 21.221
1092.609, 25.185
1093.847, 20.137
1095.085, 21.406
1096.323, 15.256
1097.561, 17.934
1098.799, 4.845
1100.036, 16.754
1101.273, 20.668
1102.510, 9.544
1103.747, 22.575
1104.983, 5.314
1106.220, 32.169
1107.456, 11.999
1108.692, 9.966
1109.928, 10.228
1111.163, 6.573
1112.399, 0.348
1113.634, 1.552
1114.869, 0.077
1116.104, 0.160
1117.339, 20.642
1118.573, 27.557
1119.808, 25.712
1121.042, 13.833
1122.276, 27.836
1123.509, 4.505
1124.743, 46.159
1125.976, 38.831
1127.210, 27.450
1128.443, 9.143
1129.675, 8.762
1130.908, 22.482
1132.141, 25.720
1133.373, 12.335
1134.605, 0.930
1135.837, 45.729
1137.068, 21.526
1138.300, 10.801
1139.531, 15.852
1140.762, 3.681
1141.993, 23.501
1143.224, 24.736
1144.455, 7.166
1145.685, 11.934
1146.915, 20.347
1148.145, 56.414
1149.375, 27.987
1150.605, 20.683
1151.834, 31.354
1153.063, 10.100
1154.292, 50.530
1155.521, 52.044
1156.750, 94.554
1157.978, 114.616
1159.207, 125.768
1160.435, 131.476
1161.663, 160.123
1162.891, 128.712
1164.118, 135.155
1165.345, 101.726
1166.573, 94.021
1167.800, 57.660
1169.026, 85.164
1170.253, 34.555
1171.480, 58.701
1172.706, 31.134
1173.932, 56.580
1175.158, 30.027
1176.383, 16.362
1177.609, 20.739
1178.834, 9.286
1180.059, 51.796
1181.284, 48.208
1182.509, 33.518
1183.734, 1.779
1184.958, 20.497
1186.182, 39.729
1187.406, 56.035
1188.630, 35.768
1189.854, 4.034
1191.077, 53.273
1192.301, 20.511
1193.524, 36.724
1194.747, 19.190
1195.969, 19.029
1197.192, 60.617
1198.414, 22.781
1199.636, 27.871
1200.858, 31.024
1202.080, 6.098
1203.302, 92.150
1204.523, 86.313
1205.744, 72.357
1206.966, 26.467
1208.186, 20.457
1209.407, 50.522
1210.628, 26.533
1211.848, 17.495
1213.068, 79.466
1214.288, 92.507
1215.508, 82.545
1216.727, 49.457
1217.947, 21.366
1219.166, 91.252
1220.385, 99.160
1221.604, 57.014
1222.822, 123.877
1224.041, 9.831
1225.259, 69.913
1226.477, 101.874
1227.695, 29.389
1228.913, 44.324
1230.130, 114.287
1231.348, 108.004
1232.565, 94.672
1233.782, 58.386
1234.999, 62.582
1236.215, 103.905
1237.432, 25.484
1238.648, 90.059
1239.864, 138.640
1241.080, 88.303
1242.296, 113.936
1243.511, 91.417
1244.726, 99.019
1245.942, 72.235
1247.156, 68.703
1248.371, 79.412
1249.586, 62.737
1250.800, 104.301
1252.014, 71.490
1253.228, 89.984
1254.442, 39.401
1255.656, 84.686
1256.869, 69.947
1258.083, 73.231
1259.296, 105.143
1260.509, 54.115
1261.722, 27.989
1262.934, 49.863
1264.147, 24.600
1265.359, 63.749
1266.571, 24.007
1267.783, 63.069
1268.994, 63.502
1270.206, 58.065
1271.417, 55.541
1272.628, 84.920
1273.839, 52.370
1275.050, 75.490
1276.260, 36.590
1277.471, 1.400
1278.681, 90.839
1279.891, 41.987
1281.101, 62.701
1282.310, 42.988
1283.520, 48.420
1284.729, 88.821
1285.938, 23.916
1287.147, 26.787
1288.356, 40.914
1289.564, 11.047
1290.773, 29.012
1291.981, 40.997
1293.189, 23.370
1294.397, 86.581
1295.604, 35.465
1296.812, 32.490
1298.019, 92.634
1299.226, 33.596
1300.433, 61.791
1301.640, 56.918
1302.846, 28.085
1304.053, 32.263
1305.259, 10.402
1306.465, 16.522
1307.671, 25.802
1308.876, 69.902
1310.082, 24.992
1311.287, 34.189
1312.492, 66.259
1313.697, 33.283
1314.902, 87.333
1316.106, 7.760
1317.310, 42.232
1318.515, 36.165
1319.719, 33.125
1320.922, 98.988
1322.126, 43.701
1323.329, 9.444
1324.533, 12.034
1325.736, 25.908
1326.939, 47.755
1328.141, 58.523
1329.344, 3.122
1330.546, 62.527
1331.748, 35.270
1332.950, 19.930
1334.152, 82.765
1335.354, 23.672
1336.555, 37.451
1337.757, 40.034
1338.958, 0.690
1340.159, 84.217
1341.359, 13.731
1342.560, 39.452
1343.760, 71.036
1344.960, 35.602
1346.160, 51.164
1347.360, 57.586
1348.560, 23.303
1349.759, 49.010
1350.959, 30.702
1352.158, 35.176
1353.357, 62.892
1354.555, 39.482
1355.754, 47.929
1356.952, 42.284
1358.151, 22.928
1359.349, 20.564
1360.546, 66.223
1361.744, 47.736
1362.941, 70.079
1364.139, 41.676
1365.336, 60.266
1366.533, 46.774
1367.730, 22.351
1368.926, 3.511
1370.123, 14.973
1371.319, 8.562
1372.515, 8.675
1373.711, 9.949
1374.906, 23.333
1376.102, 59.699
1377.297, 12.939
1378.492, 20.855
1379.687, 68.541
1380.882, 10.448
1382.077, 95.342
1383.271, 61.223
1384.465, 19.053
1385.659, 24.856
1386.853, 82.688
1388.047, 21.363
1389.240, 75.175
1390.434, 51.001
1391.627, 4.526
1392.820, 65.999
1394.013, 23.516
1395.205, 55.267
1396.398, 90.955
1397.590, 24.668
1398.782, 75.294
1399.974, 57.383
1401.166, 19.986
1402.357, 120.530
1403.549, 7.086
1404.740, 66.521
1405.931, 39.779
1407.122, 45.230
1408.313, 15.118
1409.503, 38.520
1410.693, 23.172
1411.883, 19.773
1413.073, 41.078
1414.263, 22.397
1415.453, 35.944
1416.642, 10.529
1417.831, 45.098
1419.020, 48.627
1420.209, 5.963
1421.398, 62.630
1422.587, 12.361
1423.775, 48.053
1424.963, 55.996
1426.151, 33.512
1427.339, 2.197
1428.526, 62.107
1429.714, 67.111
1430.901, 48.420
1432.088, 95.922
1433.275, 26.384
1434.462, 37.774
1435.648, 63.184
1436.835, 37.662
1438.021, 35.180
1439.207, 54.541
1440.393, 20.925
1441.579, 81.498
1442.764, 23.028
1443.949, 83.388
1445.135, 76.216
1446.320, 29.934
1447.504, 66.934
1448.689, 76.416
1449.873, 4.711
1451.058, 53.854
1452.242, 61.094
1453.426, 10.367
1454.609, 96.591
1455.793, 49.529
1456.976, 88.742
1458.159, 113.143
1459.342, 37.336
1460.525, 18.481
1461.708, 49.397
1462.890, 28.718
1464.073, 63.046
1465.255, 77.050
1466.437, 61.021
1467.619, 113.946
1468.800, 86.719
1469.982, 57.142
1471.163, 57.258
1472.344, 35.330
1473.525, 36.256
1474.706, 68.313
1475.886, 52.370
1477.066, 49.225
1478.247, 78.218
1479.427, 13.144
1480.607, 68.818
1481.786, 61.472
1482.966, 38.257
1484.145, 95.188
1485.324, 10.416
1486.503, 20.798
1487.682, 76.643
1488.860, 1.456
1490.039, 72.910
1491.217, 59.527
1492.395, 30.341
1493.573, 60.135
1494.751, 53.958
1495.928, 18.951
1497.106, 102.998
1498.283, 75.043
1499.460, 24.715
1500.637, 47.777
1501.814, 11.131
1502.990, 78.371
1504.166, 59.004
1505.342, 52.154
1506.518, 72.365
1507.694, 42.408
1508.870, 45.686
1510.045, 46.050
1511.221, 47.558
1512.396, 46.986
1513.571, 14.136
1514.745, 23.846
1515.920, 13.322
1517.094, 14.318
1518.269, 0.000
##END=



