##NAMES=Staurolite
##RRUFFID=R050079
##IDEAL CHEMISTRY=Fe^2+^_2_Al_9_Si_4_O_23_(OH)
##LOCALITY=Keivy, Kola Peninsula, Russia
##OWNER=RRUFF
##SOURCE=Rock Currier
##DESCRIPTION=Brown cruciform twins
##STATUS=The identification of this mineral has been confirmed by X-ray diffraction and chemical analysis
##URL=rruff.info/R050079
##MEASURED CHEMISTRY=(Fe^2+^_0.77_Mg_0.23_)_2_(Al_0.99_Ti_0.01_)_9_(Si_0.99_Al_0.01_)_4_O_20_(O_0.76_(OH)_0.24_)_4_
##PIN_ID=L00403
##ORIENTATION=Laser parallel to -b* (0 -1 0). Fiducial mark perpendicular to laser is parallel to c [0 0 1]
182.303, 0.000
183.684, 29.749
185.065, 23.519
186.446, 54.741
187.826, 109.824
189.207, 9.323
190.587, 118.989
191.967, 94.275
193.346, 148.208
194.726, 161.951
196.105, 258.755
197.484, 301.094
198.862, 316.582
200.241, 371.038
201.619, 459.542
202.997, 457.968
204.375, 485.466
205.753, 516.159
207.130, 461.646
208.507, 489.444
209.884, 483.409
211.261, 471.410
212.638, 427.717
214.014, 382.041
215.390, 390.811
216.766, 297.055
218.141, 307.598
219.517, 303.828
220.892, 249.615
222.267, 170.846
223.642, 241.819
225.016, 193.391
226.391, 241.788
227.765, 255.542
229.139, 252.935
230.512, 273.605
231.886, 253.182
233.259, 306.275
234.632, 354.133
236.005, 335.992
237.377, 287.930
238.749, 247.659
240.122, 274.167
241.493, 209.474
242.865, 277.582
244.237, 245.499
245.608, 236.819
246.979, 243.323
248.350, 211.198
249.720, 221.428
251.090, 203.500
252.461, 202.419
253.830, 171.195
255.200, 140.834
256.570, 159.042
257.939, 110.225
259.308, 193.080
260.677, 150.504
262.045, 164.146
263.414, 237.840
264.782, 164.614
266.150, 182.200
267.517, 116.667
268.885, 110.239
270.252, 40.964
271.619, 18.104
272.986, 43.536
274.353, 26.705
275.719, 21.423
277.085, 51.468
278.451, 68.379
279.817, 60.651
281.182, 21.701
282.548, 68.682
283.913, 9.972
285.278, 109.307
286.642, 191.831
288.007, 128.392
289.371, 240.207
290.735, 319.716
292.099, 441.051
293.462, 542.751
294.826, 677.022
296.189, 1006.186
297.552, 1254.448
298.914, 1676.881
300.277, 2196.021
301.639, 2829.056
303.001, 3438.070
304.363, 3838.063
305.724, 4244.039
307.086, 4282.989
308.447, 4042.904
309.808, 3660.769
311.168, 3218.545
312.529, 2686.189
313.889, 2217.749
315.249, 1847.238
316.609, 1489.681
317.969, 1214.096
319.328, 1009.493
320.687, 776.873
322.046, 588.234
323.405, 525.579
324.764, 422.907
326.122, 351.218
327.480, 339.512
328.838, 264.789
330.196, 158.051
331.553, 175.296
332.910, 106.526
334.267, 99.741
335.624, 103.951
336.981, 67.154
338.337, 25.352
339.693, 6.448
341.049, 65.754
342.405, 10.949
343.760, 53.102
345.116, 10.215
346.471, 16.952
347.826, 17.634
349.180, 29.654
350.535, 55.851
351.889, 90.055
353.243, 111.733
354.597, 161.078
355.950, 176.388
357.304, 200.666
358.657, 176.910
360.010, 147.114
361.362, 151.272
362.715, 133.384
364.067, 121.690
365.419, 116.480
366.771, 103.423
368.123, 92.336
369.474, 89.195
370.825, 62.992
372.176, 48.719
373.527, 98.379
374.877, 5.969
376.228, 30.513
377.578, 10.926
378.928, 80.700
380.277, 25.413
381.627, 39.201
382.976, 0.068
384.325, 1.507
385.674, 9.005
387.023, 11.070
388.371, 6.205
389.719, 39.426
391.067, 19.245
392.415, 47.753
393.762, 10.045
395.110, 48.225
396.457, 65.302
397.804, 70.330
399.150, 107.312
400.497, 108.264
401.843, 163.186
403.189, 145.079
404.535, 184.911
405.881, 185.750
407.226, 186.565
408.571, 194.734
409.916, 168.120
411.261, 189.827
412.605, 159.548
413.950, 161.177
415.294, 174.781
416.638, 212.233
417.981, 278.539
419.325, 339.900
420.668, 462.982
422.011, 562.430
423.354, 621.652
424.697, 784.863
426.039, 876.290
427.381, 922.392
428.723, 988.517
430.065, 995.295
431.406, 972.005
432.748, 915.926
434.089, 964.377
435.430, 948.322
436.770, 874.425
438.111, 950.851
439.451, 927.377
440.791, 993.824
442.131, 983.807
443.471, 1025.629
444.810, 1105.330
446.149, 1167.487
447.488, 1208.083
448.827, 1275.898
450.166, 1274.896
451.504, 1333.458
452.842, 1332.156
454.180, 1361.841
455.518, 1498.515
456.855, 1605.180
458.193, 1826.837
459.530, 2263.485
460.867, 2668.124
462.203, 3302.754
463.540, 3639.377
464.876, 4000.992
466.212, 3766.599
467.548, 3452.200
468.883, 2824.793
470.219, 2290.379
471.554, 1886.958
472.889, 1474.531
474.224, 1335.099
475.558, 1152.660
476.892, 1075.216
478.227, 950.768
479.561, 877.314
480.894, 793.856
482.228, 784.394
483.561, 773.927
484.894, 741.496
486.227, 720.021
487.559, 825.988
488.892, 734.164
490.224, 812.686
491.556, 778.120
492.888, 797.320
494.220, 901.926
495.551, 923.563
496.882, 946.065
498.213, 923.550
499.544, 1008.235
500.874, 1023.337
502.205, 986.889
503.535, 1082.404
504.865, 976.816
506.194, 1014.339
507.524, 980.038
508.853, 992.736
510.182, 962.693
511.511, 960.081
512.840, 928.823
514.168, 954.738
515.496, 914.811
516.824, 972.913
518.152, 950.571
519.480, 1005.184
520.807, 1027.973
522.134, 943.984
523.461, 1092.195
524.788, 1057.451
526.114, 1017.955
527.441, 1090.534
528.767, 1168.923
530.093, 1139.344
531.418, 1118.460
532.744, 1143.890
534.069, 1100.470
535.394, 1084.475
536.719, 1058.241
538.044, 989.399
539.368, 866.993
540.693, 814.044
542.017, 804.219
543.340, 798.838
544.664, 726.548
545.987, 788.588
547.311, 755.490
548.634, 771.691
549.956, 749.801
551.279, 767.129
552.601, 817.044
553.923, 783.094
555.245, 881.024
556.567, 842.197
557.889, 853.438
559.210, 886.006
560.531, 866.579
561.852, 898.382
563.173, 1018.110
564.493, 1021.005
565.813, 1035.905
567.133, 1104.810
568.453, 1128.750
569.773, 1189.582
571.092, 1206.506
572.412, 1217.305
573.731, 1207.114
575.049, 1286.982
576.368, 1244.911
577.686, 1285.837
579.005, 1363.764
580.323, 1226.690
581.640, 1171.615
582.958, 1136.541
584.275, 1129.466
585.593, 1041.390
586.909, 918.315
588.226, 894.240
589.543, 786.168
590.859, 775.098
592.175, 779.034
593.491, 676.978
594.807, 636.928
596.122, 590.896
597.438, 524.881
598.753, 505.012
600.068, 478.636
601.382, 456.978
602.697, 453.044
604.011, 439.117
605.325, 418.209
606.639, 405.308
607.952, 396.412
609.266, 341.522
610.579, 363.637
611.892, 351.755
613.205, 359.877
614.518, 257.004
615.830, 209.135
617.142, 292.270
618.454, 165.409
619.766, 277.554
621.078, 187.702
622.389, 144.856
623.700, 164.015
625.011, 187.179
626.322, 99.347
627.632, 107.521
628.943, 109.701
630.253, 100.886
631.563, 58.077
632.872, 83.273
634.182, 34.475
635.491, 52.683
636.800, 67.898
638.109, 58.118
639.418, 47.345
640.726, 23.577
642.035, 15.183
643.343, 15.053
644.651, 2.638
645.958, 7.366
647.266, 9.786
648.573, 19.963
649.880, 13.715
651.187, 29.467
652.494, 31.224
653.800, 6.988
655.106, 34.747
656.412, 12.043
657.718, 5.112
659.024, 17.986
660.329, 19.256
661.634, 46.542
662.939, 57.842
664.244, 52.159
665.549, 29.493
666.853, 32.403
668.157, 22.805
669.461, 9.588
670.765, 8.980
672.069, 16.617
673.372, 37.212
674.675, 46.814
675.978, 48.427
677.281, 35.051
678.583, 39.679
679.886, 25.314
681.188, 27.878
682.490, 12.583
683.792, 38.211
685.093, 36.842
686.394, 58.476
687.696, 38.535
688.997, 28.766
690.297, 15.594
691.598, 25.967
692.898, 70.363
694.198, 45.928
695.498, 82.715
696.798, 12.209
698.097, 153.836
699.397, 70.395
700.696, 118.979
701.995, 153.587
703.293, 144.221
704.592, 218.061
705.890, 202.750
707.188, 281.627
708.486, 313.373
709.784, 270.138
711.081, 327.366
712.378, 386.174
713.675, 385.072
714.972, 421.917
716.269, 438.778
717.565, 448.656
718.862, 506.551
720.158, 526.461
721.453, 601.527
722.749, 692.331
724.045, 731.289
725.340, 791.264
726.635, 793.255
727.930, 784.262
729.224, 942.287
730.519, 937.328
731.813, 1004.386
733.107, 976.461
734.401, 1013.552
735.694, 1089.661
736.988, 1124.786
738.281, 1253.929
739.574, 1243.088
740.867, 1338.265
742.160, 1329.458
743.452, 1390.670
744.744, 1411.899
746.036, 1441.146
747.328, 1569.410
748.620, 1632.692
749.911, 1679.991
751.202, 1795.309
752.493, 1843.644
753.784, 1899.997
755.075, 2140.368
756.365, 2088.757
757.655, 2274.163
758.945, 2326.588
760.235, 2641.030
761.525, 2783.490
762.814, 2798.968
764.103, 3160.464
765.392, 3229.978
766.681, 3421.510
767.969, 3688.060
769.258, 3790.628
770.546, 3888.215
771.834, 4121.820
773.122, 4377.444
774.409, 4574.086
775.697, 4800.747
776.984, 5013.426
778.271, 5232.123
779.558, 5397.839
780.844, 5628.574
782.131, 5795.327
783.417, 6129.101
784.703, 6260.890
785.989, 6736.701
787.274, 6776.530
788.560, 6986.377
789.845, 7536.245
791.130, 7596.129
792.415, 7976.035
793.699, 8305.959
794.983, 8495.901
796.268, 8315.864
797.552, 8244.818
798.835, 8174.835
800.119, 7784.425
801.402, 7583.832
802.686, 6973.911
803.969, 6382.794
805.251, 6030.009
806.534, 5291.474
807.816, 4555.878
809.098, 4240.481
810.380, 3617.785
811.662, 3202.244
812.944, 2694.062
814.225, 2358.414
815.506, 2168.787
816.787, 1838.181
818.068, 1606.600
819.349, 1373.040
820.629, 1168.501
821.909, 1032.982
823.189, 873.853
824.469, 835.005
825.749, 661.546
827.028, 581.153
828.307, 527.800
829.586, 402.996
830.865, 366.157
832.144, 379.034
833.422, 291.720
834.700, 256.145
835.978, 199.485
837.256, 173.568
838.534, 123.491
839.811, 138.519
841.088, 120.498
842.365, 108.516
843.642, 47.032
844.919, 100.969
846.195, 53.927
847.472, 54.088
848.748, 24.083
850.023, 24.941
851.299, 10.013
852.575, 66.147
853.850, 139.993
855.125, 149.040
856.400, 16.421
857.674, 15.411
858.949, 14.775
860.223, 14.016
861.497, 73.211
862.771, 14.459
864.045, 29.273
865.318, 42.011
866.591, 7.684
867.864, 29.639
869.137, 68.984
870.410, 22.350
871.682, 87.737
872.955, 62.152
874.227, 110.586
875.499, 90.050
876.770, 127.536
878.042, 144.044
879.313, 158.575
880.584, 207.126
881.855, 249.701
883.126, 255.296
884.396, 309.931
885.667, 337.589
886.937, 401.266
888.207, 377.963
889.476, 484.680
890.746, 525.419
892.015, 487.177
893.284, 554.954
894.553, 689.750
895.822, 645.566
897.090, 710.400
898.359, 675.255
899.627, 805.129
900.895, 750.020
902.163, 769.931
903.430, 815.861
904.698, 804.809
905.965, 926.778
907.232, 971.764
908.499, 925.770
909.765, 1089.793
911.032, 1121.833
912.298, 1055.895
913.564, 1314.973
914.830, 1242.070
916.095, 1386.183
917.361, 1556.312
918.626, 1682.458
919.891, 1843.621
921.156, 1930.800
922.420, 2217.996
923.685, 2386.208
924.949, 2611.435
926.213, 2904.679
927.477, 3110.938
928.740, 3355.214
930.004, 3708.505
931.267, 3855.810
932.530, 4314.131
933.793, 4452.466
935.056, 4563.816
936.318, 4913.181
937.581, 4847.559
938.843, 5058.952
940.104, 5055.358
941.366, 4804.780
942.628, 4935.216
943.889, 4628.665
945.150, 4458.129
946.411, 4180.609
947.672, 3909.434
948.932, 3713.909
950.193, 3450.741
951.453, 3274.278
952.713, 3084.467
953.973, 2867.095
955.232, 2758.614
956.491, 2563.871
957.751, 2499.501
959.010, 2374.198
960.268, 2363.899
961.527, 2304.848
962.785, 2309.499
964.044, 2231.288
965.302, 2367.963
966.559, 2318.093
967.817, 2191.932
969.075, 2265.776
970.332, 2189.650
971.589, 2293.532
972.846, 2250.379
974.102, 2167.211
975.359, 2265.997
976.615, 2227.791
977.871, 2166.593
979.127, 2172.672
980.383, 2099.517
981.638, 1957.704
982.893, 2045.296
984.149, 1997.416
985.404, 2101.258
986.658, 1961.700
987.913, 1952.422
989.167, 2004.613
990.421, 1970.718
991.675, 2003.168
992.929, 1978.685
994.183, 1978.263
995.436, 1986.888
996.689, 1912.017
997.942, 1995.035
999.195, 1921.385
1000.448, 1968.273
1001.700, 1988.558
1002.952, 1899.683
1004.204, 1894.130
1005.456, 1868.265
1006.708, 1810.478
1007.959, 1787.153
1009.210, 1694.579
1010.461, 1701.894
1011.712, 1613.182
1012.963, 1563.291
1014.213, 1589.350
1015.464, 1483.485
1016.714, 1463.565
1017.964, 1392.730
1019.214, 1314.248
1020.463, 1351.756
1021.712, 1224.303
1022.962, 1307.291
1024.210, 1191.580
1025.459, 1212.799
1026.708, 1113.818
1027.956, 1052.612
1029.204, 1014.539
1030.452, 991.930
1031.700, 868.252
1032.948, 846.631
1034.195, 838.865
1035.442, 743.816
1036.689, 692.036
1037.936, 611.828
1039.183, 602.089
1040.429, 626.068
1041.676, 469.322
1042.922, 514.717
1044.168, 415.936
1045.413, 440.498
1046.659, 456.752
1047.904, 339.713
1049.149, 364.804
1050.394, 399.920
1051.639, 279.704
1052.884, 287.887
1054.128, 279.375
1055.372, 303.261
1056.616, 276.288
1057.860, 248.985
1059.104, 258.186
1060.347, 218.294
1061.590, 257.413
1062.833, 230.618
1064.076, 238.899
1065.319, 191.040
1066.561, 213.079
1067.803, 165.254
1069.046, 178.298
1070.287, 207.415
1071.529, 126.706
1072.771, 121.737
1074.012, 88.916
1075.253, 72.883
1076.494, 135.953
1077.735, 67.130
1078.975, 147.060
1080.216, 129.517
1081.456, 100.001
1082.696, 152.826
1083.936, 48.686
1085.175, 100.610
1086.415, 99.453
1087.654, 9.371
1088.893, 55.229
1090.132, 17.049
1091.371, 45.238
1092.609, 23.230
1093.847, 11.007
1095.085, 18.293
1096.323, 2.952
1097.561, 27.147
1098.799, 19.355
1100.036, 18.333
1101.273, 37.805
1102.510, 7.896
1103.747, 73.421
1104.983, 4.705
1106.220, 23.865
1107.456, 14.421
1108.692, 20.066
1109.928, 60.403
1111.163, 54.873
1112.399, 40.416
1113.634, 22.023
1114.869, 3.338
1116.104, 16.681
1117.339, 6.991
1118.573, 16.454
1119.808, 17.829
1121.042, 30.240
1122.276, 37.501
1123.509, 52.747
1124.743, 63.513
1125.976, 118.195
1127.210, 15.426
1128.443, 55.610
1129.675, 38.221
1130.908, 28.041
1132.141, 19.849
1133.373, 14.798
1134.605, 10.307
1135.837, 11.697
1137.068, 18.635
1138.300, 34.496
1139.531, 14.404
1140.762, 13.489
1141.993, 12.591
1143.224, 22.567
1144.455, 50.279
1145.685, 4.090
1146.915, 19.153
1148.145, 38.639
1149.375, 34.448
1150.605, 2.134
1151.834, 0.989
1153.063, 4.638
1154.292, 48.372
1155.521, 8.971
1156.750, 40.587
1157.978, 40.650
1159.207, 32.189
1160.435, 82.897
1161.663, 111.562
1162.891, 27.253
1164.118, 94.933
1165.345, 59.571
1166.573, 33.144
1167.800, 34.533
1169.026, 33.127
1170.253, 4.480
1171.480, 57.084
1172.706, 7.567
1173.932, 15.763
1175.158, 24.260
1176.383, 19.712
1177.609, 50.255
1178.834, 9.501
1180.059, 52.929
1181.284, 53.772
1182.509, 21.253
1183.734, 80.438
1184.958, 28.436
1186.182, 71.658
1187.406, 21.755
1188.630, 73.853
1189.854, 55.701
1191.077, 82.570
1192.301, 43.371
1193.524, 74.278
1194.747, 24.237
1195.969, 113.046
1197.192, 106.898
1198.414, 32.651
1199.636, 90.297
1200.858, 50.918
1202.080, 28.569
1203.302, 126.133
1204.523, 37.946
1205.744, 83.504
1206.966, 105.294
1208.186, 20.822
1209.407, 87.253
1210.628, 67.969
1211.848, 94.349
1213.068, 117.707
1214.288, 84.243
1215.508, 114.655
1216.727, 96.170
1217.947, 69.307
1219.166, 115.539
1220.385, 81.763
1221.604, 128.207
1222.822, 102.363
1224.041, 80.713
1225.259, 133.068
1226.477, 149.155
1227.695, 128.613
1228.913, 122.643
1230.130, 143.789
1231.348, 128.441
1232.565, 145.908
1233.782, 125.976
1234.999, 139.526
1236.215, 146.497
1237.432, 73.842
1238.648, 101.682
1239.864, 193.940
1241.080, 63.100
1242.296, 184.869
1243.511, 137.353
1244.726, 132.705
1245.942, 188.057
1247.156, 106.827
1248.371, 135.234
1249.586, 136.808
1250.800, 118.241
1252.014, 180.257
1253.228, 184.879
1254.442, 125.941
1255.656, 197.472
1256.869, 134.765
1258.083, 137.457
1259.296, 142.864
1260.509, 147.446
1261.722, 139.605
1262.934, 157.120
1264.147, 105.710
1265.359, 161.237
1266.571, 86.744
1267.783, 145.269
1268.994, 238.667
1270.206, 352.143
1271.417, 277.514
1272.628, 133.815
1273.839, 176.877
1275.050, 168.323
1276.260, 125.362
1277.471, 111.046
1278.681, 176.356
1279.891, 112.571
1281.101, 147.201
1282.310, 108.456
1283.520, 81.231
1284.729, 149.105
1285.938, 82.695
1287.147, 73.252
1288.356, 149.748
1289.564, 117.236
1290.773, 121.225
1291.981, 155.113
1293.189, 108.615
1294.397, 100.306
1295.604, 144.125
1296.812, 71.739
1298.019, 143.299
1299.226, 89.964
1300.433, 117.713
1301.640, 106.656
1302.846, 32.208
1304.053, 118.421
1305.259, 72.694
1306.465, 78.273
1307.671, 68.695
1308.876, 65.765
1310.082, 71.365
1311.287, 81.845
1312.492, 119.911
1313.697, 65.011
1314.902, 107.147
1316.106, 58.648
1317.310, 101.902
1318.515, 95.151
1319.719, 53.557
1320.922, 55.267
1322.126, 40.559
1323.329, 87.679
1324.533, 46.734
1325.736, 60.658
1326.939, 105.705
1328.141, 60.126
1329.344, 99.130
1330.546, 45.739
1331.748, 62.658
1332.950, 54.834
1334.152, 111.813
1335.354, 97.520
1336.555, 135.378
1337.757, 75.865
1338.958, 57.633
1340.159, 85.760
1341.359, 69.635
1342.560, 87.430
1343.760, 109.532
1344.960, 147.191
1346.160, 91.515
1347.360, 106.409
1348.560, 44.133
1349.759, 92.159
1350.959, 39.793
1352.158, 87.347
1353.357, 161.863
1354.555, 37.287
1355.754, 111.544
1356.952, 115.667
1358.151, 52.130
1359.349, 75.424
1360.546, 45.814
1361.744, 0.100
1362.941, 107.183
1364.139, 94.494
1365.336, 40.620
1366.533, 118.926
1367.730, 45.098
1368.926, 41.089
1370.123, 94.290
1371.319, 23.528
1372.515, 97.645
1373.711, 60.749
1374.906, 6.024
1376.102, 116.982
1377.297, 59.977
1378.492, 5.808
1379.687, 70.847
1380.882, 14.296
1382.077, 89.778
1383.271, 16.689
1384.465, 22.573
1385.659, 89.265
1386.853, 72.004
1388.047, 11.916
1389.240, 73.684
1390.434, 66.505
1391.627, 19.431
1392.820, 113.339
1394.013, 48.931
1395.205, 67.671
1396.398, 70.489
1397.590, 5.241
1398.782, 73.996
1399.974, 69.578
1401.166, 44.256
1402.357, 77.916
1403.549, 60.452
1404.740, 49.681
1405.931, 34.380
1407.122, 23.090
1408.313, 25.623
1409.503, 25.229
1410.693, 25.679
1411.883, 45.235
1413.073, 35.197
1414.263, 53.319
1415.453, 64.302
1416.642, 52.509
1417.831, 25.578
1419.020, 32.670
1420.209, 25.978
1421.398, 10.726
1422.587, 64.528
1423.775, 58.242
1424.963, 88.484
1426.151, 78.545
1427.339, 73.020
1428.526, 56.958
1429.714, 48.299
1430.901, 46.375
1432.088, 34.535
1433.275, 32.067
1434.462, 105.512
1435.648, 52.521
1436.835, 65.434
1438.021, 25.437
1439.207, 87.966
1440.393, 32.949
1441.579, 142.475
1442.764, 32.942
1443.949, 36.959
1445.135, 49.578
1446.320, 18.710
1447.504, 114.510
1448.689, 79.669
1449.873, 3.434
1451.058, 89.833
1452.242, 56.306
1453.426, 42.901
1454.609, 71.028
1455.793, 57.999
1456.976, 35.420
1458.159, 93.928
1459.342, 41.488
1460.525, 54.209
1461.708, 66.688
1462.890, 35.013
1464.073, 100.562
1465.255, 69.901
1466.437, 45.504
1467.619, 85.360
1468.800, 65.514
1469.982, 27.792
1471.163, 111.378
1472.344, 15.462
1473.525, 79.943
1474.706, 90.048
1475.886, 28.628
1477.066, 94.708
1478.247, 73.587
1479.427, 55.730
1480.607, 117.135
1481.786, 28.506
1482.966, 106.461
1484.145, 106.254
1485.324, 37.547
1486.503, 97.740
1487.682, 66.599
1488.860, 41.000
1490.039, 72.059
1491.217, 78.271
1492.395, 9.003
1493.573, 66.932
1494.751, 46.041
1495.928, 68.433
1497.106, 96.167
1498.283, 7.734
1499.460, 104.913
1500.637, 43.459
1501.814, 69.183
1502.990, 67.887
1504.166, 69.773
1505.342, 42.677
1506.518, 37.047
1507.694, 40.102
1508.870, 45.458
1510.045, 41.001
1511.221, 34.660
1512.396, 12.776
1513.571, 21.468
1514.745, 3.338
1515.920, 0.395
1517.094, 56.865
1518.269, 34.186
1519.443, 0.000
##END=



