##NAMES=Staurolite
##RRUFFID=R050079
##IDEAL CHEMISTRY=Fe^2+^_2_Al_9_Si_4_O_23_(OH)
##LOCALITY=Keivy, Kola Peninsula, Russia
##OWNER=RRUFF
##SOURCE=Rock Currier
##DESCRIPTION=Brown cruciform twins
##STATUS=The identification of this mineral has been confirmed by X-ray diffraction and chemical analysis
##URL=rruff.info/R050079
##MEASURED CHEMISTRY=(Fe^2+^_0.77_Mg_0.23_)_2_(Al_0.99_Ti_0.01_)_9_(Si_0.99_Al_0.01_)_4_O_20_(O_0.76_(OH)_0.24_)_4_
##PIN_ID=L00460
##ORIENTATION=Laser parallel to -c* (0 0 -1). Fiducial mark perpendicular to laser is parallel to a [1 0 0]
113.881, 0.000
115.277, 47.752
116.672, 139.755
118.066, 71.469
119.461, 89.343
120.855, 96.396
122.249, 348.257
123.643, 620.608
125.036, 1017.809
126.430, 1502.744
127.823, 1942.481
129.216, 2089.849
130.608, 2203.278
132.001, 2074.500
133.393, 1634.450
134.785, 1327.165
136.176, 903.708
137.568, 618.405
138.959, 529.835
140.350, 532.088
141.741, 654.093
143.131, 586.065
144.521, 571.235
145.911, 511.329
147.301, 388.986
148.691, 390.829
150.080, 374.743
151.469, 242.731
152.858, 234.366
154.247, 193.129
155.635, 90.480
157.024, 90.182
158.411, 97.280
159.799, 52.073
161.187, 21.125
162.574, 26.305
163.961, 19.685
165.348, 30.326
166.734, 33.658
168.121, 39.123
169.507, 62.989
170.893, 23.216
172.278, 20.825
173.664, 22.728
175.049, 10.030
176.434, 110.655
177.819, 80.748
179.203, 192.651
180.587, 251.366
181.971, 271.580
183.355, 343.651
184.739, 425.942
186.122, 517.882
187.505, 631.162
188.888, 740.738
190.271, 888.098
191.653, 1009.275
193.035, 1161.798
194.417, 1316.320
195.799, 1576.787
197.180, 1822.104
198.562, 2043.222
199.943, 2258.434
201.324, 2392.455
202.704, 2603.591
204.084, 2761.666
205.465, 2818.041
206.844, 2788.830
208.224, 2815.824
209.603, 2693.536
210.983, 2620.282
212.362, 2429.044
213.740, 2322.809
215.119, 2092.573
216.497, 1886.334
217.875, 1662.871
219.253, 1490.164
220.631, 1314.971
222.008, 1139.918
223.385, 1040.331
224.762, 932.953
226.139, 802.590
227.515, 697.833
228.891, 672.767
230.267, 592.017
231.643, 533.629
233.018, 486.545
234.394, 421.429
235.769, 366.869
237.144, 300.276
238.518, 259.644
239.893, 236.965
241.267, 213.237
242.641, 131.539
244.014, 136.712
245.388, 107.007
246.761, 97.813
248.134, 114.186
249.507, 78.271
250.879, 36.425
252.252, 60.610
253.624, 44.613
254.996, 25.210
256.367, 40.785
257.739, 66.304
259.110, 65.760
260.481, 108.147
261.852, 175.732
263.222, 196.516
264.592, 264.624
265.962, 282.476
267.332, 272.203
268.702, 163.560
270.071, 121.300
271.440, 40.976
272.809, 1.401
274.178, 34.832
275.546, 65.332
276.915, 106.945
278.283, 114.452
279.650, 69.579
281.018, 95.288
282.385, 80.034
283.752, 29.887
285.119, 34.873
286.486, 42.019
287.852, 23.351
289.218, 15.871
290.584, 9.440
291.950, 13.188
293.316, 79.392
294.681, 60.047
296.046, 109.489
297.411, 210.737
298.775, 315.809
300.140, 431.691
301.504, 627.381
302.868, 745.858
304.231, 988.123
305.595, 1178.128
306.958, 1246.748
308.321, 1315.097
309.684, 1299.227
311.047, 1136.239
312.409, 1044.156
313.771, 892.999
315.133, 757.761
316.495, 605.445
317.856, 533.021
319.217, 476.329
320.578, 361.101
321.939, 311.760
323.299, 248.323
324.660, 245.402
326.020, 216.009
327.380, 216.545
328.739, 198.551
330.099, 171.199
331.458, 161.596
332.817, 119.511
334.176, 82.795
335.534, 116.448
336.892, 130.132
338.251, 133.580
339.608, 118.769
340.966, 126.990
342.323, 135.291
343.681, 144.602
345.037, 164.729
346.394, 180.185
347.751, 201.798
349.107, 223.308
350.463, 259.714
351.819, 375.033
353.174, 479.281
354.530, 669.469
355.885, 776.594
357.240, 830.637
358.594, 866.547
359.949, 751.256
361.303, 681.763
362.657, 530.079
364.011, 506.261
365.365, 439.313
366.718, 436.264
368.071, 430.141
369.424, 419.956
370.777, 448.729
372.129, 427.470
373.481, 418.182
374.833, 400.865
376.185, 377.515
377.537, 326.135
378.888, 307.722
380.239, 266.277
381.590, 183.796
382.941, 228.268
384.291, 224.694
385.642, 149.072
386.992, 183.399
388.341, 158.671
389.691, 133.892
391.040, 219.069
392.389, 264.205
393.738, 351.309
395.087, 416.032
396.435, 465.544
397.784, 539.082
399.132, 562.542
400.479, 586.703
401.827, 625.686
403.174, 552.577
404.521, 429.351
405.868, 352.445
407.215, 371.573
408.561, 341.385
409.908, 313.072
411.254, 296.958
412.599, 258.371
413.945, 279.951
415.290, 297.033
416.636, 265.786
417.980, 304.018
419.325, 316.682
420.670, 301.822
422.014, 371.948
423.358, 425.626
424.702, 508.865
426.045, 606.250
427.389, 700.901
428.732, 851.607
430.075, 999.251
431.417, 1087.319
432.760, 1163.022
434.102, 1109.666
435.444, 1100.771
436.786, 1118.792
438.127, 1066.911
439.469, 1121.433
440.810, 1176.501
442.151, 1250.336
443.492, 1368.501
444.832, 1389.563
446.172, 1558.710
447.512, 1582.482
448.852, 1730.743
450.192, 1806.114
451.531, 2013.895
452.870, 2080.135
454.209, 2316.471
455.548, 2648.126
456.887, 3101.512
458.225, 3688.574
459.563, 4549.312
460.901, 5934.525
462.238, 7655.334
463.576, 9720.095
464.913, 11929.991
466.250, 13092.892
467.587, 13422.658
468.923, 12282.982
470.259, 10482.650
471.596, 8423.123
472.931, 6556.789
474.267, 5123.332
475.603, 3952.868
476.938, 3226.553
478.273, 2659.708
479.608, 2189.184
480.942, 1979.582
482.276, 1735.966
483.611, 1495.560
484.944, 1448.573
486.278, 1216.912
487.612, 1221.575
488.945, 1139.438
490.278, 1082.490
491.611, 1021.409
492.943, 949.285
494.276, 944.748
495.608, 870.311
496.940, 915.894
498.271, 897.511
499.603, 849.129
500.934, 870.656
502.265, 889.279
503.596, 902.202
504.927, 833.912
506.257, 906.719
507.587, 822.633
508.917, 888.577
510.247, 864.102
511.577, 861.299
512.906, 856.958
514.235, 827.672
515.564, 766.499
516.892, 870.244
518.221, 813.596
519.549, 859.380
520.877, 878.044
522.205, 926.806
523.533, 893.323
524.860, 881.752
526.187, 988.195
527.514, 942.647
528.841, 987.986
530.167, 1024.303
531.493, 1047.707
532.820, 1048.076
534.145, 1087.303
535.471, 950.463
536.796, 994.497
538.122, 897.305
539.447, 849.025
540.771, 753.561
542.096, 740.741
543.420, 701.096
544.744, 590.426
546.068, 520.430
547.392, 469.679
548.715, 503.940
550.039, 395.085
551.362, 439.206
552.684, 392.230
554.007, 348.295
555.329, 317.845
556.652, 311.034
557.973, 311.777
559.295, 321.900
560.617, 302.958
561.938, 356.481
563.259, 341.157
564.580, 313.989
565.901, 352.240
567.221, 258.666
568.541, 365.363
569.861, 313.591
571.181, 310.262
572.501, 370.705
573.820, 319.257
575.139, 339.788
576.458, 324.204
577.777, 349.467
579.095, 408.192
580.414, 346.984
581.732, 415.840
583.049, 413.690
584.367, 369.530
585.685, 401.360
587.002, 318.180
588.319, 371.988
589.636, 400.786
590.952, 536.575
592.268, 584.356
593.585, 579.136
594.900, 495.920
596.216, 405.718
597.532, 298.537
598.847, 214.387
600.162, 146.272
601.477, 164.180
602.792, 134.116
604.106, 182.078
605.420, 202.053
606.734, 172.042
608.048, 180.047
609.361, 142.064
610.675, 165.092
611.988, 132.122
613.301, 112.156
614.614, 102.186
615.926, 70.215
617.238, 74.238
618.550, 54.253
619.862, 16.257
621.174, 62.247
622.485, 19.224
623.797, 53.813
625.108, 30.110
626.418, 10.982
627.729, 34.908
629.039, 15.216
630.349, 17.640
631.659, 35.518
632.969, 31.294
634.279, 0.907
635.588, 12.122
636.897, 19.644
638.206, 27.397
639.515, 43.862
640.823, 39.848
642.131, 11.451
643.439, 20.236
644.747, 8.084
646.055, 12.416
647.362, 24.239
648.669, 14.887
649.976, 8.530
651.283, 27.167
652.589, 5.199
653.896, 2.428
655.202, 23.051
656.508, 31.669
657.814, 20.400
659.119, 8.894
660.424, 3.499
661.729, 13.100
663.034, 18.694
664.339, 18.717
665.643, 10.857
666.947, 8.574
668.251, 19.017
669.555, 1.525
670.859, 48.701
672.162, 15.224
673.465, 28.767
674.768, 8.727
676.071, 6.764
677.373, 29.247
678.676, 2.721
679.978, 53.187
681.280, 68.644
682.581, 60.096
683.883, 52.541
685.184, 70.980
686.485, 62.413
687.786, 48.840
689.087, 50.260
690.387, 72.675
691.687, 66.596
692.987, 88.489
694.287, 90.889
695.586, 94.286
696.886, 133.679
698.185, 126.071
699.484, 118.461
700.783, 101.850
702.081, 65.238
703.379, 36.626
704.677, 6.012
705.975, 16.604
707.273, 28.170
708.570, 40.876
709.868, 35.545
711.165, 3.239
712.462, 10.059
713.758, 26.650
715.055, 17.622
716.351, 50.112
717.647, 89.877
718.943, 7.694
720.238, 63.522
721.533, 22.388
722.829, 24.271
724.124, 13.171
725.418, 43.083
726.713, 9.979
728.007, 25.597
729.301, 22.768
730.595, 71.148
731.889, 42.200
733.182, 7.750
734.476, 22.292
735.769, 2.330
737.061, 114.364
738.354, 165.395
739.647, 157.570
740.939, 133.447
742.231, 195.468
743.523, 89.487
744.814, 187.502
746.106, 160.514
747.397, 179.524
748.688, 152.531
749.978, 202.535
751.269, 252.537
752.559, 227.535
753.849, 237.532
755.139, 252.525
756.429, 289.516
757.719, 268.502
759.008, 279.487
760.297, 324.468
761.586, 338.445
762.875, 341.419
764.163, 353.390
765.451, 378.357
766.739, 379.896
768.027, 418.046
769.315, 447.255
770.602, 467.997
771.890, 455.019
773.177, 485.431
774.463, 498.357
775.750, 510.427
777.036, 537.309
778.323, 542.933
779.609, 549.411
780.894, 549.685
782.180, 563.730
783.465, 576.547
784.750, 590.302
786.035, 603.825
787.320, 617.911
788.605, 629.019
789.889, 656.418
791.173, 675.313
792.457, 674.855
793.741, 701.431
795.024, 717.522
796.307, 727.168
797.591, 710.120
798.873, 716.708
800.156, 684.347
801.439, 692.734
802.721, 621.358
804.003, 558.951
805.285, 537.524
806.566, 515.178
807.848, 373.451
809.129, 396.011
810.410, 318.659
811.691, 254.350
812.971, 238.997
814.252, 127.601
815.532, 140.965
816.812, 177.601
818.092, 76.283
819.371, 145.900
820.651, 56.556
821.930, 82.701
823.209, 25.304
824.488, 22.091
825.766, 8.732
827.045, 1.581
828.323, 6.171
829.601, 27.292
830.878, 15.979
832.156, 13.763
833.433, 16.564
834.710, 7.299
835.987, 13.306
837.264, 4.250
838.540, 7.173
839.817, 22.177
841.093, 42.152
842.369, 48.380
843.644, 58.655
844.920, 68.036
846.195, 71.047
847.470, 75.078
848.745, 83.109
850.020, 86.141
851.294, 149.175
852.568, 66.209
853.842, 113.246
855.116, 219.283
856.390, 172.322
857.663, 170.250
858.936, 170.055
860.209, 172.863
861.482, 229.044
862.755, 208.503
864.027, 273.279
865.299, 257.782
866.571, 246.635
867.843, 307.921
869.115, 333.816
870.386, 300.768
871.657, 406.245
872.928, 390.561
874.199, 447.712
875.470, 495.275
876.740, 565.744
878.010, 557.820
879.280, 637.252
880.550, 696.177
881.820, 701.176
883.089, 850.171
884.358, 908.267
885.627, 1058.362
886.896, 1254.786
888.164, 1345.815
889.433, 1420.724
890.701, 1652.845
891.969, 1728.970
893.236, 1920.100
894.504, 2102.234
895.771, 2176.371
897.038, 2274.512
898.305, 2306.665
899.572, 2275.826
900.838, 2344.993
902.105, 2307.170
903.371, 2111.352
904.637, 2196.538
905.902, 1886.733
907.168, 1898.933
908.433, 1704.136
909.698, 1521.344
910.963, 1533.556
912.228, 1369.772
913.492, 1248.993
914.757, 1202.219
916.021, 1162.448
917.285, 1037.682
918.548, 1026.920
919.812, 930.163
921.075, 824.410
922.338, 891.662
923.601, 818.919
924.864, 770.181
926.126, 763.449
927.388, 805.722
928.650, 805.002
929.912, 794.287
931.174, 774.578
932.435, 830.888
933.697, 778.205
934.958, 773.531
936.218, 819.862
937.479, 907.203
938.739, 798.550
940.000, 884.912
941.260, 823.280
942.520, 837.654
943.779, 887.038
945.039, 866.427
946.298, 873.625
947.557, 871.037
948.816, 884.012
950.074, 879.969
951.333, 797.001
952.591, 882.639
953.849, 864.855
955.107, 879.458
956.365, 1003.623
957.622, 1011.122
958.879, 1221.957
960.136, 1558.488
961.393, 1996.975
962.650, 3309.853
963.906, 5465.350
965.162, 8767.417
966.418, 10146.382
967.674, 8633.940
968.930, 5789.923
970.185, 3621.555
971.441, 2331.107
972.696, 1606.665
973.950, 1136.210
975.205, 1000.095
976.459, 774.031
977.714, 656.595
978.968, 680.057
980.222, 513.670
981.475, 530.513
982.729, 436.150
983.982, 394.528
985.235, 399.123
986.488, 269.599
987.740, 352.359
988.993, 350.164
990.245, 320.803
991.497, 237.063
992.749, 270.676
994.000, 278.292
995.252, 267.998
996.503, 216.628
997.754, 200.416
999.005, 268.043
1000.256, 206.676
1001.506, 233.311
1002.756, 154.947
1004.006, 232.599
1005.256, 157.253
1006.506, 205.912
1007.755, 205.572
1009.005, 114.235
1010.254, 146.900
1011.502, 188.577
1012.751, 134.264
1014.000, 205.965
1015.248, 91.678
1016.496, 102.405
1017.744, 116.135
1018.991, 108.874
1020.239, 94.638
1021.486, 130.417
1022.733, 96.221
1023.980, 120.033
1025.227, 132.864
1026.473, 137.702
1027.719, 157.551
1028.965, 101.485
1030.211, 151.353
1031.457, 166.346
1032.702, 93.216
1033.948, 253.089
1035.193, 169.720
1036.438, 189.594
1037.682, 190.754
1038.927, 205.886
1040.171, 247.775
1041.415, 294.686
1042.659, 461.644
1043.903, 567.534
1045.146, 420.425
1046.390, 288.476
1047.633, 276.479
1048.876, 213.825
1050.118, 299.558
1051.361, 415.398
1052.603, 503.235
1053.845, 651.176
1055.087, 679.119
1056.329, 538.006
1057.571, 404.930
1058.812, 308.822
1060.053, 314.731
1061.294, 206.708
1062.535, 240.600
1063.775, 208.490
1065.016, 98.432
1066.256, 193.345
1067.496, 174.230
1068.736, 139.114
1069.975, 161.079
1071.214, 91.023
1072.454, 139.901
1073.693, 122.777
1074.931, 13.847
1076.170, 58.719
1077.408, 64.589
1078.647, 85.457
1079.885, 173.323
1081.122, 220.186
1082.360, 267.049
1083.597, 181.908
1084.835, 178.766
1086.072, 152.621
1087.308, 97.482
1088.545, 68.332
1089.781, 38.179
1091.018, 54.023
1092.254, 46.864
1093.490, 28.703
1094.725, 46.455
1095.961, 24.359
1097.196, 73.830
1098.431, 4.940
1099.666, 13.804
1100.900, 19.359
1102.135, 11.573
1103.369, 17.838
1104.603, 10.022
1105.837, 22.694
1107.071, 3.600
1108.304, 19.098
1109.538, 72.792
1110.771, 3.447
1112.004, 34.233
1113.236, 6.091
1114.469, 20.425
1115.701, 24.475
1116.933, 67.855
1118.165, 10.953
1119.397, 32.547
1120.629, 33.566
1121.860, 40.149
1123.091, 0.272
1124.322, 35.404
1125.553, 56.971
1126.783, 9.468
1128.014, 32.223
1129.244, 62.236
1130.474, 30.297
1131.704, 6.259
1132.933, 47.250
1134.163, 23.222
1135.392, 8.440
1136.621, 12.000
1137.850, 39.563
1139.079, 2.822
1140.307, 73.698
1141.535, 60.252
1142.763, 29.108
1143.991, 48.674
1145.219, 12.215
1146.446, 59.756
1147.674, 73.809
1148.901, 142.210
1150.128, 91.558
1151.354, 60.178
1152.581, 126.599
1153.807, 93.580
1155.033, 132.944
1156.259, 110.321
1157.485, 188.711
1158.710, 187.114
1159.936, 229.402
1161.161, 372.908
1162.386, 353.351
1163.611, 476.943
1164.835, 429.370
1166.060, 358.746
1167.284, 302.358
1168.508, 252.588
1169.732, 178.810
1170.955, 191.980
1172.179, 132.209
1173.402, 129.446
1174.625, 79.052
1175.848, 56.229
1177.070, 128.640
1178.293, 47.056
1179.515, 107.230
1180.737, 92.670
1181.959, 7.795
1183.181, 82.965
1184.402, 25.420
1185.624, 27.506
1186.845, 112.311
1188.066, 76.486
1189.286, 65.643
1190.507, 122.846
1191.727, 89.067
1192.947, 45.185
1194.167, 3.238
1195.387, 2.253
1196.607, 57.291
1197.826, 2.701
1199.045, 55.232
1200.264, 73.226
1201.483, 5.193
1202.702, 119.083
1203.920, 80.659
1205.138, 109.528
1206.356, 84.387
1207.574, 68.899
1208.792, 96.734
1210.009, 91.560
1211.227, 77.374
1212.444, 84.177
1213.661, 98.969
1214.877, 117.792
1216.094, 71.562
1217.310, 76.321
1218.526, 95.068
1219.742, 140.826
1220.958, 45.552
1222.173, 108.264
1223.389, 108.966
1224.604, 103.804
1225.819, 127.484
1227.034, 157.212
1228.248, 123.175
1229.463, 177.824
1230.677, 108.717
1231.891, 129.345
1233.105, 92.962
1234.318, 122.698
1235.532, 191.297
1236.745, 121.886
1237.958, 120.690
1239.171, 174.261
1240.384, 113.549
1241.596, 111.294
1242.809, 104.831
1244.021, 99.326
1245.233, 68.762
1246.444, 74.223
1247.656, 6.523
1248.867, 110.244
1250.079, 67.683
1251.290, 88.445
1252.500, 145.869
1253.711, 97.055
1254.921, 124.440
1256.132, 72.861
1257.342, 103.885
1258.552, 108.285
1259.761, 119.107
1260.971, 36.077
1262.180, 82.399
1263.389, 37.349
1264.598, 144.584
1265.807, 20.880
1267.015, 101.163
1268.223, 127.454
1269.432, 59.401
1270.640, 89.646
1271.847, 109.887
1273.055, 50.163
1274.262, 117.312
1275.470, 72.221
1276.677, 1.328
1277.883, 72.729
1279.090, 66.863
1280.296, 31.118
1281.503, 50.068
1282.709, 44.342
1283.915, 31.998
1285.120, 49.412
1286.326, 39.514
1287.531, 12.555
1288.736, 33.498
1289.941, 37.509
1291.146, 35.409
1292.350, 4.395
1293.555, 65.362
1294.759, 112.320
1295.963, 37.732
1297.167, 55.192
1298.370, 5.105
1299.574, 65.007
1300.777, 59.898
1301.980, 54.778
1303.183, 3.355
1304.386, 77.495
1305.588, 27.335
1306.790, 34.164
1307.993, 23.021
1309.195, 33.758
1310.396, 43.526
1311.598, 71.722
1312.799, 88.996
1314.000, 131.703
1315.201, 1.602
1316.402, 67.077
1317.603, 62.745
1318.803, 12.402
1320.003, 72.045
1321.203, 23.595
1322.403, 22.214
1323.603, 64.697
1324.802, 18.293
1326.002, 139.878
1327.201, 55.696
1328.400, 14.260
1329.599, 108.532
1330.797, 15.177
1331.995, 42.349
1333.194, 43.844
1334.392, 30.733
1335.589, 27.229
1336.787, 45.715
1337.985, 58.032
1339.182, 51.389
1340.379, 58.392
1341.576, 52.728
1342.772, 90.669
1343.969, 45.978
1345.165, 49.353
1346.361, 66.717
1347.557, 16.871
1348.753, 123.497
1349.949, 72.890
1351.144, 0.740
1352.339, 82.553
1353.534, 114.927
1354.729, 92.299
1355.924, 104.918
1357.118, 108.914
1358.312, 48.256
1359.506, 98.596
1360.700, 71.849
1361.894, 118.120
1363.088, 51.452
1364.281, 71.784
1365.474, 76.919
1366.667, 72.252
1367.860, 21.589
1369.052, 165.931
1370.245, 41.671
1371.437, 8.032
1372.629, 145.406
1373.821, 10.719
1375.013, 54.005
1376.204, 103.283
1377.395, 23.003
1378.586, 64.714
1379.777, 94.407
1380.968, 12.082
1382.159, 121.771
1383.349, 19.720
1384.539, 99.867
1385.729, 120.443
1386.919, 0.884
1388.109, 98.697
1389.298, 88.346
1390.487, 80.712
1391.676, 102.108
1392.865, 23.285
1394.054, 143.932
1395.242, 119.445
1396.431, 24.907
1397.619, 73.507
1398.807, 78.996
1399.995, 98.323
1401.182, 75.664
1402.370, 154.932
1403.557, 35.804
1404.744, 83.998
1405.931, 31.520
1407.118, 83.053
1408.304, 168.286
1409.490, 70.898
1410.676, 42.204
1411.862, 97.223
1413.048, 79.160
1414.234, 97.203
1415.419, 53.010
1416.604, 57.321
1417.789, 113.231
1418.974, 83.841
1420.159, 17.740
1421.343, 75.558
1422.528, 24.335
1423.712, 29.931
1424.896, 138.508
1426.079, 61.348
1427.263, 43.959
1428.446, 10.882
1429.629, 69.883
1430.812, 98.962
1431.995, 27.916
1433.178, 3.252
1434.360, 110.375
1435.543, 103.347
1436.725, 57.437
1437.907, 62.518
1439.088, 59.515
1440.270, 45.121
1441.451, 60.592
1442.632, 29.639
1443.813, 70.394
1444.994, 44.708
1446.175, 45.195
1447.355, 128.161
1448.535, 57.843
1449.715, 49.288
1450.895, 96.510
1452.075, 48.312
1453.255, 131.930
1454.434, 47.647
1455.613, 37.087
1456.792, 142.742
1457.971, 107.120
1459.149, 169.718
1460.328, 169.286
1461.506, 77.710
1462.684, 109.073
1463.862, 111.654
1465.040, 14.225
1466.217, 163.823
1467.395, 59.603
1468.572, 97.399
1469.749, 121.067
1470.925, 58.825
1472.102, 100.677
1473.278, 159.373
1474.455, 112.213
1475.631, 15.143
1476.807, 159.761
1477.982, 134.668
1479.158, 3.565
1480.333, 93.450
1481.508, 18.343
1482.683, 198.256
1483.858, 97.182
1485.033, 67.253
1486.207, 118.394
1487.381, 73.575
1488.555, 126.809
1489.729, 120.097
1490.903, 52.457
1492.076, 107.885
1493.250, 105.373
1494.423, 52.934
1495.596, 120.570
1496.769, 81.209
1497.941, 86.849
1499.114, 113.572
1500.286, 68.396
1501.458, 116.333
1502.630, 86.378
1503.802, 11.541
1504.973, 76.827
1506.145, 54.245
1507.316, 39.001
1508.487, 154.215
1509.657, 50.786
1510.828, 4.188
1511.999, 188.470
1513.169, 47.973
1514.339, 72.927
1515.509, 164.670
1516.678, 0.000
##END=



