##NAMES=Staurolite
##RRUFFID=R050079
##IDEAL CHEMISTRY=Fe^2+^_2_Al_9_Si_4_O_23_(OH)
##LOCALITY=Keivy, Kola Peninsula, Russia
##OWNER=RRUFF
##SOURCE=Rock Currier
##DESCRIPTION=Brown cruciform twins
##STATUS=The identification of this mineral has been confirmed by X-ray diffraction and chemical analysis
##URL=rruff.info/R050079
##MEASURED CHEMISTRY=(Fe^2+^_0.77_Mg_0.23_)_2_(Al_0.99_Ti_0.01_)_9_(Si_0.99_Al_0.01_)_4_O_20_(O_0.76_(OH)_0.24_)_4_
##PIN_ID=m00494
##ORIENTATION=Laser parallel to a* (1 0 0). Fiducial mark perpendicular to laser is parallel to b [0 1 0]
159.799, 0.000
161.187, 69.016
162.574, 122.919
163.961, 65.136
165.348, 80.021
166.734, 2.546
168.121, 8.935
169.507, 131.286
170.893, 96.078
172.278, 40.593
173.664, 134.188
175.049, 128.876
176.434, 86.305
177.819, 86.499
179.203, 120.327
180.587, 235.892
181.971, 230.853
183.355, 295.871
184.739, 427.799
186.122, 429.042
187.505, 601.249
188.888, 598.239
190.271, 748.101
191.653, 909.716
193.035, 1107.899
194.417, 1206.586
195.799, 1333.419
197.180, 1506.089
198.562, 1667.058
199.943, 1677.467
201.324, 1964.795
202.704, 1972.019
204.084, 1973.511
205.465, 1942.693
206.844, 1876.605
208.224, 1745.388
209.603, 1704.683
210.983, 1546.523
212.362, 1435.719
213.740, 1259.754
215.119, 1108.869
216.497, 982.157
217.875, 905.574
219.253, 785.713
220.631, 805.414
222.008, 677.875
223.385, 641.670
224.762, 509.607
226.139, 425.802
227.515, 415.867
228.891, 368.788
230.267, 366.565
231.643, 438.191
233.018, 271.662
234.394, 265.976
235.769, 195.138
237.144, 263.158
238.518, 169.045
239.893, 156.805
241.267, 189.098
242.641, 175.660
244.014, 160.656
245.388, 135.437
246.761, 108.794
248.134, 144.627
249.507, 126.216
250.879, 136.922
252.252, 132.017
253.624, 206.773
254.996, 297.011
256.367, 330.678
257.739, 336.376
259.110, 399.099
260.481, 556.835
261.852, 543.576
263.222, 589.312
264.592, 501.038
265.962, 289.744
267.332, 225.424
268.702, 168.666
270.071, 101.305
271.440, 9.783
272.809, 27.675
274.178, 72.115
275.546, 23.689
276.915, 159.376
278.283, 62.957
279.650, 5.552
281.018, 43.396
282.385, 105.573
283.752, 94.656
285.119, 50.773
286.486, 73.680
287.852, 104.910
289.218, 224.000
290.584, 291.355
291.950, 410.736
293.316, 632.417
294.681, 867.160
296.046, 1148.648
297.411, 1542.163
298.775, 1987.562
300.140, 2473.787
301.504, 2966.765
302.868, 3251.582
304.231, 3236.172
305.595, 3153.594
306.958, 2796.954
308.321, 2851.279
309.684, 2887.585
311.047, 1846.872
312.409, 1527.146
313.771, 1198.427
315.133, 1015.747
316.495, 848.092
317.856, 665.442
319.217, 571.812
320.578, 387.174
321.939, 330.547
323.299, 258.928
324.660, 289.480
326.020, 218.678
327.380, 172.510
328.739, 166.808
330.099, 157.035
331.458, 134.599
332.817, 148.483
334.176, 131.312
335.534, 115.996
336.892, 77.292
338.251, 126.734
339.608, 79.045
340.966, 175.054
342.323, 142.900
343.681, 222.713
345.037, 230.477
346.394, 272.095
347.751, 422.569
349.107, 425.905
350.463, 630.110
351.819, 814.189
353.174, 841.137
354.530, 928.942
355.885, 873.596
357.240, 876.093
358.594, 818.430
359.949, 741.619
361.303, 844.648
362.657, 810.516
364.011, 843.212
365.365, 777.752
366.718, 788.134
368.071, 890.356
369.424, 783.427
370.777, 757.365
372.129, 535.204
373.481, 515.955
374.833, 482.636
376.185, 370.250
377.537, 255.769
378.888, 183.171
380.239, 125.402
381.590, 105.408
382.941, 487.073
384.291, 218.733
385.642, 367.759
386.992, 5.809
388.341, 6.653
389.691, 49.099
391.040, 109.471
392.389, 89.626
393.738, 67.738
395.087, 81.122
396.435, 88.770
397.784, 43.361
399.132, 99.334
400.479, 245.853
401.827, 225.540
403.174, 246.061
404.521, 156.897
405.868, 118.589
407.215, 160.082
408.561, 212.221
409.908, 176.942
411.254, 122.110
412.599, 94.995
413.945, 84.966
415.290, 56.836
416.636, 123.406
417.980, 168.491
419.325, 183.688
420.670, 302.877
422.014, 404.301
423.358, 480.145
424.702, 536.959
426.045, 617.740
427.389, 749.482
428.732, 840.461
430.075, 995.958
431.417, 1040.954
432.760, 1231.378
434.102, 1267.295
435.444, 1559.901
436.786, 1641.751
438.127, 1914.117
439.469, 2037.486
440.810, 2214.786
442.151, 2380.462
443.492, 2507.111
444.832, 2551.042
446.172, 2616.263
447.512, 2728.608
448.852, 2680.333
450.192, 2708.174
451.531, 2787.242
452.870, 2776.951
454.209, 3036.866
455.548, 3587.275
456.887, 4226.621
458.225, 5382.958
459.563, 6814.312
460.901, 8279.674
462.238, 9475.656
463.576, 9412.263
464.913, 8889.348
466.250, 7638.229
467.587, 6566.654
468.923, 4720.434
470.259, 3767.071
471.596, 3031.694
472.931, 2386.301
474.267, 2084.792
475.603, 1765.960
476.938, 1547.288
478.273, 1488.688
479.608, 1286.209
480.942, 1190.298
482.276, 1175.643
483.611, 1121.802
484.944, 1097.870
486.278, 1088.889
487.612, 1075.242
488.945, 1068.631
490.278, 1051.974
491.611, 1168.952
492.943, 1113.901
494.276, 1207.788
495.608, 1153.524
496.940, 1200.062
498.271, 1242.164
499.603, 1356.823
500.934, 1353.321
502.265, 1334.478
503.596, 1335.075
504.927, 1386.991
506.257, 1406.945
507.587, 1455.990
508.917, 1464.473
510.247, 1512.952
511.577, 1429.479
512.906, 1521.021
514.235, 1568.431
515.564, 1555.801
516.892, 1760.130
518.221, 1709.420
519.549, 1783.670
520.877, 1812.883
522.205, 1831.057
523.533, 2006.195
524.860, 2064.295
526.187, 2118.359
527.514, 2220.388
528.841, 2158.383
530.167, 2156.342
531.493, 2083.322
532.820, 2030.215
534.145, 1875.075
535.471, 1620.902
536.796, 1628.306
538.122, 1364.201
539.447, 1224.900
540.771, 1113.707
542.096, 1029.768
543.420, 914.187
544.744, 804.447
546.068, 811.440
547.392, 747.888
548.715, 618.609
550.039, 622.143
551.362, 544.137
552.684, 569.886
554.007, 531.154
555.329, 530.319
556.652, 507.298
557.973, 466.392
559.295, 505.169
560.617, 518.683
561.938, 467.102
563.259, 459.599
564.580, 467.712
565.901, 497.516
567.221, 441.624
568.541, 504.944
569.861, 544.112
571.181, 524.939
572.501, 492.540
573.820, 456.055
575.139, 510.255
576.458, 421.086
577.777, 384.174
579.095, 422.312
580.414, 303.935
581.732, 385.969
583.049, 343.028
584.367, 228.065
585.685, 294.082
587.002, 158.077
588.319, 206.053
589.636, 198.014
590.952, 139.961
592.268, 197.896
593.585, 183.829
594.900, 172.760
596.216, 203.710
597.532, 153.659
598.847, 175.650
600.162, 145.660
601.477, 135.670
602.792, 89.693
604.106, 124.743
605.420, 145.820
606.734, 81.911
608.048, 155.992
609.361, 111.063
610.675, 17.120
611.988, 80.157
613.301, 37.175
614.614, 45.170
615.926, 40.145
617.238, 29.098
618.550, 20.476
619.862, 5.062
621.174, 16.182
622.485, 24.336
623.797, 53.528
625.108, 46.774
626.418, 37.070
627.729, 19.410
629.039, 19.785
630.349, 2.423
631.659, 66.631
632.969, 5.874
634.279, 1.357
635.588, 35.184
636.897, 3.766
638.206, 63.375
639.515, 25.039
640.823, 8.738
642.131, 18.539
643.439, 44.800
644.747, 23.955
646.055, 29.738
647.362, 23.448
648.669, 9.378
649.976, 24.776
651.283, 55.919
652.589, 43.054
653.896, 46.198
655.202, 35.296
656.508, 11.408
657.814, 3.490
659.119, 19.399
660.424, 18.670
661.729, 47.732
663.034, 33.784
664.339, 40.827
665.643, 73.860
666.947, 65.883
668.251, 83.574
669.555, 68.061
670.859, 105.267
672.162, 114.247
673.465, 132.218
674.768, 94.311
676.071, 144.264
677.373, 148.257
678.676, 148.192
679.978, 185.119
681.280, 97.037
682.581, 193.948
683.883, 138.850
685.184, 192.745
686.485, 98.633
687.786, 53.514
689.087, 67.386
690.387, 80.253
691.687, 65.113
692.987, 76.966
694.287, 82.815
695.586, 23.662
696.886, 9.494
698.185, 16.345
699.484, 31.816
700.783, 81.999
702.081, 12.223
703.379, 22.459
704.677, 27.696
705.975, 25.939
707.273, 59.188
708.570, 15.536
709.868, 36.737
711.165, 32.022
712.462, 64.319
713.758, 10.358
715.055, 7.041
716.351, 64.726
717.647, 68.411
718.943, 40.097
720.238, 126.782
721.533, 63.470
722.829, 101.162
724.124, 104.855
725.418, 163.549
726.713, 181.761
728.007, 160.946
729.301, 233.650
730.595, 276.359
731.889, 290.075
733.182, 341.794
734.476, 380.516
735.769, 397.240
737.061, 442.965
738.354, 532.689
739.647, 515.411
740.939, 616.133
742.231, 678.853
743.523, 645.423
744.814, 667.142
746.106, 708.860
747.397, 706.374
748.688, 819.092
749.978, 833.804
751.269, 870.477
752.559, 840.194
753.849, 934.801
755.139, 958.506
756.429, 1020.093
757.719, 1093.644
759.008, 1064.010
760.297, 1096.527
761.586, 1170.140
762.875, 1182.490
764.163, 1367.156
765.451, 1356.641
766.739, 1438.738
768.027, 1480.162
769.315, 1465.100
770.602, 1498.533
771.890, 1511.753
773.177, 1485.933
774.463, 1537.768
775.750, 1620.594
777.036, 1604.461
778.323, 1640.830
779.609, 1666.383
780.894, 1659.377
782.180, 1690.998
783.465, 1716.746
784.750, 1792.491
786.035, 1868.237
787.320, 1819.083
788.605, 1850.234
789.889, 1941.212
791.173, 1951.109
792.457, 1901.868
793.741, 1997.051
795.024, 1841.665
796.307, 1797.220
797.591, 1758.572
798.873, 1739.052
800.156, 1512.857
801.439, 1378.349
802.721, 1272.792
804.003, 1167.475
805.285, 1031.263
806.566, 1004.622
807.848, 781.243
809.129, 694.893
810.410, 597.516
811.691, 379.056
812.971, 321.224
814.252, 251.592
815.532, 226.209
816.812, 206.968
818.092, 145.690
819.371, 90.457
820.651, 106.393
821.930, 14.686
823.209, 80.324
824.488, 17.715
825.766, 65.349
827.045, 18.421
828.323, 12.481
829.601, 8.623
830.878, 5.263
832.156, 55.864
833.433, 86.004
834.710, 5.164
835.987, 87.340
837.264, 51.531
838.540, 145.740
839.817, 101.964
841.093, 58.197
842.369, 111.385
843.644, 180.638
844.920, 164.903
846.195, 193.180
847.470, 175.469
848.745, 235.775
850.020, 247.954
851.294, 270.572
852.568, 316.752
853.842, 287.319
855.116, 364.020
856.390, 401.599
857.663, 410.134
858.936, 384.591
860.209, 442.582
861.482, 515.814
862.755, 523.121
864.027, 596.644
865.299, 640.435
866.571, 676.499
867.843, 768.853
869.115, 879.210
870.386, 986.682
871.657, 1121.164
872.928, 1165.661
874.199, 1346.169
875.470, 1475.688
876.740, 1679.220
878.010, 1923.765
879.280, 2117.320
880.550, 2381.889
881.820, 2666.469
883.089, 2979.061
884.358, 3354.664
885.627, 3796.277
886.896, 4235.900
888.164, 4555.535
889.433, 4920.182
890.701, 5238.841
891.969, 5460.510
893.236, 5792.190
894.504, 5947.882
895.771, 5944.584
897.038, 5907.297
898.305, 5844.021
899.572, 5587.754
900.838, 5348.500
902.105, 4876.256
903.371, 4588.024
904.637, 4240.802
905.902, 4103.589
907.168, 3625.388
908.433, 3397.197
909.698, 3093.020
910.963, 2829.853
912.228, 2651.697
913.492, 2490.552
914.757, 2385.418
916.021, 2252.272
917.285, 2191.184
918.548, 2080.084
919.812, 1937.996
921.075, 1921.919
922.338, 1921.854
923.601, 2063.801
924.864, 1915.760
926.126, 1872.730
927.388, 1936.713
928.650, 1851.711
929.912, 1984.728
931.174, 2025.765
932.435, 2039.830
933.697, 2055.921
934.958, 2046.035
936.218, 2046.326
937.479, 2003.319
938.739, 2016.453
940.000, 1962.910
941.260, 1925.923
942.520, 1860.003
943.779, 1815.321
945.039, 1814.751
946.298, 1726.106
947.557, 1678.457
948.816, 1683.539
950.074, 1599.886
951.333, 1542.037
952.591, 1568.509
953.849, 1514.984
955.107, 1538.132
956.365, 1557.778
957.622, 1561.613
958.879, 1538.906
960.136, 1670.499
961.393, 1576.192
962.650, 1547.983
963.906, 1645.087
965.162, 1588.807
966.418, 1860.373
967.674, 1888.015
968.930, 1926.175
970.185, 1942.807
971.441, 1721.204
972.696, 1567.138
973.950, 1284.425
975.205, 1101.989
976.459, 1077.837
977.714, 1036.437
978.968, 989.358
980.222, 908.789
981.475, 862.516
982.729, 817.556
983.982, 738.298
985.235, 704.387
986.488, 680.678
987.740, 683.106
988.993, 659.647
990.245, 629.709
991.497, 607.502
992.749, 577.298
994.000, 586.512
995.252, 583.580
996.503, 549.268
997.754, 566.244
999.005, 599.206
1000.256, 493.014
1001.506, 606.890
1002.756, 499.599
1004.006, 482.371
1005.256, 482.142
1006.506, 507.687
1007.755, 439.365
1009.005, 436.050
1010.254, 440.744
1011.502, 452.446
1012.751, 441.165
1014.000, 395.889
1015.248, 414.628
1016.496, 391.380
1017.744, 319.206
1018.991, 295.048
1020.239, 339.138
1021.486, 334.021
1022.733, 280.955
1023.980, 313.858
1025.227, 280.867
1026.473, 319.267
1027.719, 253.578
1028.965, 282.465
1030.211, 263.178
1031.457, 256.985
1032.702, 213.287
1033.948, 260.170
1035.193, 181.083
1036.438, 205.009
1037.682, 177.877
1038.927, 156.487
1040.171, 130.385
1041.415, 125.406
1042.659, 117.557
1043.903, 112.371
1045.146, 169.365
1046.390, 96.171
1047.633, 63.101
1048.876, 150.082
1050.118, 146.049
1051.361, 98.874
1052.603, 118.844
1053.845, 129.604
1055.087, 106.493
1056.329, 116.436
1057.571, 139.374
1058.812, 98.552
1060.053, 154.317
1061.294, 133.151
1062.535, 174.008
1063.775, 208.839
1065.016, 121.668
1066.256, 157.438
1067.496, 116.219
1068.736, 47.936
1069.975, 100.650
1071.214, 22.416
1072.454, 52.198
1073.693, 102.895
1074.931, 70.588
1076.170, 83.276
1077.408, 91.958
1078.647, 118.635
1079.885, 192.306
1081.122, 148.050
1082.360, 150.709
1083.597, 131.364
1084.835, 34.012
1086.072, 101.656
1087.308, 12.292
1088.545, 29.926
1089.781, 36.548
1091.018, 31.837
1092.254, 7.948
1093.490, 19.470
1094.725, 12.093
1095.961, 18.825
1097.196, 59.523
1098.431, 14.966
1099.666, 27.459
1100.900, 15.723
1102.135, 12.722
1103.369, 8.842
1104.603, 64.299
1105.837, 18.924
1107.071, 41.570
1108.304, 3.750
1109.538, 14.942
1110.771, 0.635
1112.004, 4.180
1113.236, 3.187
1114.469, 26.554
1115.701, 11.180
1116.933, 18.870
1118.165, 19.507
1119.397, 52.264
1120.629, 2.801
1121.860, 1.671
1123.091, 46.526
1124.322, 14.279
1125.553, 42.941
1126.783, 58.872
1128.014, 56.257
1129.244, 19.331
1130.474, 12.410
1131.704, 6.433
1132.933, 27.479
1134.163, 14.353
1135.392, 16.122
1136.621, 17.541
1137.850, 9.518
1139.079, 19.670
1140.307, 20.729
1141.535, 5.721
1142.763, 9.757
1143.991, 1.673
1145.219, 13.988
1146.446, 21.190
1147.674, 28.581
1148.901, 20.344
1150.128, 55.998
1151.354, 43.002
1152.581, 86.766
1153.807, 81.392
1155.033, 167.638
1156.259, 179.224
1157.485, 147.798
1158.710, 167.502
1159.936, 151.333
1161.161, 148.512
1162.386, 178.227
1163.611, 120.844
1164.835, 72.990
1166.060, 70.999
1167.284, 27.625
1168.508, 63.237
1169.732, 3.702
1170.955, 60.320
1172.179, 35.818
1173.402, 17.385
1174.625, 20.918
1175.848, 67.659
1177.070, 10.146
1178.293, 88.902
1179.515, 23.227
1180.737, 71.695
1181.959, 65.153
1183.181, 62.430
1184.402, 76.664
1185.624, 14.998
1186.845, 70.296
1188.066, 42.444
1189.286, 33.685
1190.507, 90.902
1191.727, 48.194
1192.947, 93.447
1194.167, 63.598
1195.387, 51.778
1196.607, 54.909
1197.826, 88.915
1199.045, 54.023
1200.264, 113.042
1201.483, 73.057
1202.702, 59.996
1203.920, 60.917
1205.138, 35.924
1206.356, 101.805
1207.574, 84.704
1208.792, 78.551
1210.009, 84.501
1211.227, 84.746
1212.444, 97.953
1213.661, 94.991
1214.877, 119.850
1216.094, 109.592
1217.310, 96.391
1218.526, 92.097
1219.742, 130.785
1220.958, 143.556
1222.173, 140.908
1223.389, 146.810
1224.604, 113.490
1225.819, 150.203
1227.034, 94.785
1228.248, 139.412
1229.463, 187.194
1230.677, 158.943
1231.891, 118.719
1233.105, 126.210
1234.318, 114.185
1235.532, 135.138
1236.745, 147.638
1237.958, 68.201
1239.171, 126.587
1240.384, 115.804
1241.596, 72.254
1242.809, 89.568
1244.021, 99.179
1245.233, 106.576
1246.444, 50.196
1247.656, 136.534
1248.867, 142.907
1250.079, 79.622
1251.290, 107.840
1252.500, 122.836
1253.711, 121.342
1254.921, 110.497
1256.132, 55.422
1257.342, 111.407
1258.552, 78.908
1259.761, 75.875
1260.971, 98.566
1262.180, 82.614
1263.389, 59.177
1264.598, 92.366
1265.807, 35.731
1267.015, 103.092
1268.223, 77.424
1269.432, 75.446
1270.640, 62.976
1271.847, 67.896
1273.055, 66.461
1274.262, 79.837
1275.470, 37.574
1276.677, 119.282
1277.883, 119.098
1279.090, 41.444
1280.296, 88.567
1281.503, 75.588
1282.709, 41.556
1283.915, 19.808
1285.120, 29.578
1286.326, 37.094
1287.531, 28.238
1288.736, 59.638
1289.941, 6.274
1291.146, 58.611
1292.350, 61.134
1293.555, 59.811
1294.759, 85.276
1295.963, 17.839
1297.167, 49.371
1298.370, 78.983
1299.574, 4.581
1300.777, 99.163
1301.980, 86.797
1303.183, 47.353
1304.386, 23.938
1305.588, 4.480
1306.790, 5.639
1307.993, 4.344
1309.195, 4.139
1310.396, 8.613
1311.598, 42.044
1312.799, 41.163
1314.000, 72.471
1315.201, 30.708
1316.402, 53.959
1317.603, 33.090
1318.803, 35.795
1320.003, 13.575
1321.203, 37.758
1322.403, 10.097
1323.603, 66.459
1324.802, 29.226
1326.002, 28.350
1327.201, 64.413
1328.400, 70.444
1329.599, 42.518
1330.797, 44.834
1331.995, 76.835
1333.194, 49.695
1334.392, 50.408
1335.589, 29.442
1336.787, 32.999
1337.985, 53.290
1339.182, 42.152
1340.379, 48.913
1341.576, 87.739
1342.772, 45.654
1343.969, 62.417
1345.165, 60.071
1346.361, 95.861
1347.557, 91.631
1348.753, 48.335
1349.949, 121.780
1351.144, 64.621
1352.339, 103.370
1353.534, 43.076
1354.729, 46.026
1355.924, 87.724
1357.118, 94.462
1358.312, 47.172
1359.506, 86.078
1360.700, 52.817
1361.894, 98.485
1363.088, 112.092
1364.281, 45.760
1365.474, 66.412
1366.667, 118.049
1367.860, 64.656
1369.052, 41.246
1370.245, 85.805
1371.437, 52.265
1372.629, 18.874
1373.821, 20.369
1375.013, 15.843
1376.204, 72.288
1377.395, 56.714
1378.586, 66.048
1379.777, 50.163
1380.968, 86.073
1382.159, 50.984
1383.349, 65.906
1384.539, 28.695
1385.729, 62.780
1386.919, 55.736
1388.109, 41.842
1389.298, 33.740
1390.487, 24.706
1391.676, 20.281
1392.865, 17.539
1394.054, 17.027
1395.242, 19.987
1396.431, 22.765
1397.619, 31.551
1398.807, 81.221
1399.995, 26.741
1401.182, 63.075
1402.370, 39.872
1403.557, 2.814
1404.744, 35.671
1405.931, 24.799
1407.118, 12.605
1408.304, 29.531
1409.490, 44.923
1410.676, 62.083
1411.862, 46.070
1413.048, 41.474
1414.234, 52.965
1415.419, 72.486
1416.604, 16.602
1417.789, 89.960
1418.974, 3.347
1420.159, 25.640
1421.343, 51.626
1422.528, 63.691
1423.712, 41.853
1424.896, 24.508
1426.079, 8.135
1427.263, 25.463
1428.446, 43.757
1429.629, 49.087
1430.812, 20.438
1431.995, 54.976
1433.178, 67.518
1434.360, 14.223
1435.543, 12.751
1436.725, 36.394
1437.907, 85.692
1439.088, 40.377
1440.270, 69.880
1441.451, 98.420
1442.632, 85.908
1443.813, 34.553
1444.994, 56.974
1446.175, 39.060
1447.355, 45.064
1448.535, 29.416
1449.715, 28.846
1450.895, 42.507
1452.075, 31.019
1453.255, 34.318
1454.434, 46.654
1455.613, 47.183
1456.792, 57.250
1457.971, 67.842
1459.149, 66.656
1460.328, 80.994
1461.506, 85.124
1462.684, 66.572
1463.862, 44.857
1465.040, 13.623
1466.217, 29.703
1467.395, 54.694
1468.572, 72.938
1469.749, 86.134
1470.925, 99.914
1472.102, 52.915
1473.278, 102.850
1474.455, 73.400
1475.631, 46.914
1476.807, 55.843
1477.982, 57.459
1479.158, 30.057
1480.333, 38.660
1481.508, 60.358
1482.683, 39.755
1483.858, 51.097
1485.033, 26.957
1486.207, 8.028
1487.381, 71.029
1488.555, 16.291
1489.729, 49.539
1490.903, 55.913
1492.076, 42.311
1493.250, 52.718
1494.423, 40.058
1495.596, 0.535
1496.769, 94.890
1497.941, 35.460
1499.114, 145.835
1500.286, 2.241
1501.458, 73.684
1502.630, 83.036
1503.802, 51.223
1504.973, 41.775
1506.145, 71.707
1507.316, 102.631
1508.487, 45.476
1509.657, 31.755
1510.828, 44.277
1511.999, 48.854
1513.169, 0.501
1514.339, 46.873
1515.509, 62.422
1516.678, 2.847
1517.848, 0.027
1519.017, 0.000
##END=



