##NAMES=Staurolite
##RRUFFID=R050079
##IDEAL CHEMISTRY=Fe^2+^_2_Al_9_Si_4_O_23_(OH)
##LOCALITY=Keivy, Kola Peninsula, Russia
##OWNER=RRUFF
##SOURCE=Rock Currier
##DESCRIPTION=Brown cruciform twins
##STATUS=The identification of this mineral has been confirmed by X-ray diffraction and chemical analysis
##URL=rruff.info/R050079
##MEASURED CHEMISTRY=(Fe^2+^_0.77_Mg_0.23_)_2_(Al_0.99_Ti_0.01_)_9_(Si_0.99_Al_0.01_)_4_O_20_(O_0.76_(OH)_0.24_)_4_
##PIN_ID=L00403
##ORIENTATION=Laser parallel to -b* (0 -1 0). Fiducial mark perpendicular to laser is parallel to c [0 0 1]
179.540, 0.000
180.922, 0.310
182.303, 19.317
183.684, 17.951
185.065, 22.361
186.446, 20.795
187.826, 58.274
189.207, 6.532
190.587, 64.995
191.967, 108.900
193.346, 200.688
194.726, 246.195
196.105, 297.931
197.484, 311.587
198.862, 332.982
200.241, 342.009
201.619, 428.611
202.997, 390.020
204.375, 441.276
205.753, 439.243
207.130, 396.129
208.507, 389.327
209.884, 386.418
211.261, 368.510
212.638, 349.702
214.014, 248.078
215.390, 279.736
216.766, 180.686
218.141, 218.011
219.517, 202.762
220.892, 171.985
222.267, 161.730
223.642, 161.050
225.016, 135.058
226.391, 132.391
227.765, 129.624
229.139, 235.803
230.512, 244.524
231.886, 255.042
233.259, 292.430
234.632, 276.760
236.005, 285.705
237.377, 337.026
238.749, 283.925
240.122, 322.666
241.493, 269.251
242.865, 333.692
244.237, 302.996
245.608, 287.166
246.979, 316.203
248.350, 281.106
249.720, 288.881
251.090, 258.533
252.461, 279.069
253.830, 275.495
255.200, 279.817
256.570, 330.040
257.939, 316.169
259.308, 355.209
260.677, 352.163
262.045, 395.067
263.414, 391.003
264.782, 359.177
266.150, 323.269
267.517, 275.272
268.885, 214.294
270.252, 138.677
271.619, 50.217
272.986, 64.481
274.353, 14.220
275.719, 17.982
277.085, 48.826
278.451, 8.562
279.817, 50.077
281.182, 19.803
282.548, 4.353
283.913, 5.958
285.278, 7.086
286.642, 0.614
288.007, 40.576
289.371, 114.537
290.735, 78.186
292.099, 169.041
293.462, 266.667
294.826, 403.766
296.189, 632.658
297.552, 865.436
298.914, 1220.106
300.277, 1594.665
301.639, 2276.214
303.001, 2717.752
304.363, 3127.280
305.724, 3542.796
307.086, 3574.299
308.447, 3458.769
309.808, 3149.169
311.168, 2774.460
312.529, 2379.622
313.889, 1964.687
315.249, 1619.664
316.609, 1336.584
317.969, 1070.475
319.328, 838.354
320.687, 725.227
322.046, 607.092
323.405, 528.951
324.764, 472.804
326.122, 359.650
327.480, 292.490
328.838, 319.326
330.196, 258.655
331.553, 258.420
332.910, 233.802
334.267, 268.619
335.624, 248.432
336.981, 294.241
338.337, 316.048
339.693, 337.852
341.049, 392.653
342.405, 343.452
343.760, 425.851
345.116, 283.917
346.471, 316.095
347.826, 252.233
349.180, 184.294
350.535, 225.316
351.889, 196.308
353.243, 248.936
354.597, 232.846
355.950, 218.711
357.304, 218.528
358.657, 136.293
360.010, 99.004
361.362, 44.662
362.715, 3.267
364.067, 29.815
365.419, 11.689
366.771, 0.257
368.123, 11.887
369.474, 8.592
370.825, 24.363
372.176, 22.318
373.527, 33.130
374.877, 34.121
376.228, 55.179
377.578, 49.052
378.928, 47.498
380.277, 46.777
381.627, 33.105
382.976, 38.491
384.325, 34.933
385.674, 17.427
387.023, 3.968
388.371, 20.394
389.719, 67.648
391.067, 71.711
392.415, 173.756
393.762, 138.611
395.110, 203.339
396.457, 182.946
397.804, 131.493
399.150, 203.997
400.497, 201.484
401.843, 138.954
403.189, 202.408
404.535, 206.848
405.881, 190.273
407.226, 119.686
408.571, 132.085
409.916, 142.470
411.261, 133.845
412.605, 127.208
413.950, 181.553
415.294, 139.895
416.638, 186.227
417.981, 212.551
419.325, 278.866
420.668, 304.173
422.011, 353.586
423.354, 399.695
424.697, 439.051
426.039, 509.329
427.381, 542.600
428.723, 642.863
430.065, 656.119
431.406, 746.236
432.748, 791.027
434.089, 773.910
435.430, 938.941
436.770, 1016.397
438.111, 1040.347
439.451, 1195.249
440.791, 1339.344
442.131, 1426.485
443.471, 1554.247
444.810, 1638.265
446.149, 1730.305
447.488, 1869.440
448.827, 1796.247
450.166, 1810.740
451.504, 1833.486
452.842, 1703.792
454.180, 1751.015
455.518, 1816.655
456.855, 1891.385
458.193, 1966.115
459.530, 2234.845
460.867, 2494.576
462.203, 3014.308
463.540, 3347.041
464.876, 3577.776
466.212, 3487.512
467.548, 3290.251
468.883, 2764.990
470.219, 2266.731
471.554, 1938.476
472.889, 1530.222
474.224, 1285.972
475.558, 1105.726
476.892, 940.484
478.227, 867.247
479.561, 786.014
480.894, 834.787
482.228, 730.564
483.561, 719.347
484.894, 685.134
486.227, 667.579
487.559, 639.122
488.892, 702.527
490.224, 614.336
491.556, 681.150
492.888, 748.970
494.220, 694.795
495.551, 658.626
496.882, 801.463
498.213, 785.305
499.544, 801.154
500.874, 824.008
502.205, 778.868
503.535, 825.735
504.865, 772.592
506.194, 741.442
507.524, 707.284
508.853, 677.118
510.182, 682.837
511.511, 625.656
512.840, 603.414
514.168, 617.221
515.496, 527.022
516.824, 622.816
518.152, 479.605
519.480, 503.090
520.807, 451.612
522.134, 465.175
523.461, 461.318
524.788, 376.126
526.114, 393.396
527.441, 356.647
528.767, 350.648
530.093, 321.724
531.418, 322.640
532.744, 281.364
534.069, 222.469
535.394, 285.604
536.719, 301.620
538.044, 217.753
539.368, 217.008
540.693, 212.495
542.017, 194.711
543.340, 214.619
544.664, 179.783
545.987, 159.070
547.311, 142.227
548.634, 167.110
549.956, 200.473
551.279, 133.882
552.601, 228.745
553.923, 169.472
555.245, 250.396
556.567, 279.326
557.889, 230.061
559.210, 250.003
560.531, 275.951
561.852, 229.758
563.173, 307.719
564.493, 256.687
565.813, 273.661
567.133, 333.443
568.453, 313.290
569.773, 270.196
571.092, 272.079
572.412, 309.949
573.731, 248.967
575.049, 333.920
576.368, 300.953
577.686, 292.993
579.005, 311.041
580.323, 322.097
581.640, 229.161
582.958, 240.233
584.275, 275.313
585.593, 190.401
586.909, 203.498
588.226, 180.603
589.543, 139.716
590.859, 153.838
592.175, 128.971
593.491, 125.118
594.807, 136.279
596.122, 124.465
597.438, 123.670
598.753, 133.910
600.068, 131.177
601.382, 158.484
602.697, 154.822
604.011, 182.188
605.325, 235.581
606.639, 201.000
607.952, 256.448
609.266, 238.917
610.579, 222.401
611.892, 235.902
613.205, 259.418
614.518, 202.945
615.830, 214.484
617.142, 317.035
618.454, 218.597
619.766, 244.171
621.078, 250.758
622.389, 206.355
623.700, 226.965
625.011, 244.586
626.322, 260.220
627.632, 219.865
628.943, 255.523
630.253, 228.192
631.563, 249.874
632.872, 277.567
634.182, 232.273
635.491, 255.990
636.800, 227.720
638.109, 199.462
639.418, 262.217
640.726, 327.984
642.035, 261.763
643.343, 330.554
644.651, 299.357
645.958, 283.173
647.266, 321.001
648.573, 328.842
649.880, 334.696
651.187, 296.562
652.494, 394.440
653.800, 428.331
655.106, 408.235
656.412, 458.151
657.718, 454.080
659.024, 426.021
660.329, 414.976
661.634, 352.944
662.939, 347.923
664.244, 254.917
665.549, 266.923
666.853, 248.943
668.157, 173.976
669.461, 192.022
670.765, 103.082
672.069, 157.156
673.372, 52.242
674.675, 69.343
675.978, 43.457
677.281, 13.414
678.583, 32.454
679.886, 35.452
681.188, 6.793
682.490, 18.448
683.792, 45.058
685.093, 29.807
686.394, 94.538
687.696, 17.080
688.997, 81.477
690.297, 2.628
691.598, 36.992
692.898, 12.615
694.198, 23.935
695.498, 24.516
696.798, 6.811
698.097, 95.228
699.397, 33.027
700.696, 19.985
701.995, 57.507
703.293, 53.052
704.592, 57.617
705.890, 65.199
707.188, 72.795
708.486, 78.406
709.784, 108.030
711.081, 62.667
712.378, 130.317
713.675, 133.979
714.972, 114.654
716.269, 148.341
717.565, 177.041
718.862, 197.753
720.158, 158.478
721.453, 217.215
722.749, 235.964
724.045, 274.727
725.340, 335.502
726.635, 304.290
727.930, 312.091
729.224, 343.905
730.519, 382.730
731.813, 383.568
733.107, 423.419
734.401, 462.281
735.694, 442.156
736.988, 556.043
738.281, 602.941
739.574, 646.853
740.867, 644.775
742.160, 659.710
743.452, 712.657
744.744, 704.615
746.036, 772.586
747.328, 871.569
748.620, 849.563
749.911, 894.569
751.202, 927.587
752.493, 948.616
753.784, 941.657
755.075, 1105.710
756.365, 1066.774
757.655, 1139.849
758.945, 1120.935
760.235, 1249.031
761.525, 1294.138
762.814, 1279.257
764.103, 1424.385
765.392, 1467.525
766.681, 1530.675
767.969, 1630.835
769.258, 1661.005
770.546, 1683.186
771.834, 1700.376
773.122, 1817.577
774.409, 1874.788
775.697, 1947.009
776.984, 2009.240
778.271, 2038.481
779.558, 2093.733
780.844, 2124.993
782.131, 2144.263
783.417, 2262.543
784.703, 2210.834
785.989, 2412.134
787.274, 2342.446
788.560, 2384.772
789.845, 2573.111
791.130, 2589.462
792.415, 2596.824
793.699, 2676.197
794.983, 2665.578
796.268, 2574.969
797.552, 2599.373
798.835, 2502.788
800.119, 2437.223
801.402, 2349.684
802.686, 2144.152
803.969, 1883.638
805.251, 1807.132
806.534, 1592.637
807.816, 1328.163
809.098, 1196.697
810.380, 1016.254
811.662, 893.820
812.944, 718.394
814.225, 572.992
815.506, 545.601
816.787, 400.221
818.068, 314.866
819.349, 260.520
820.629, 177.208
821.909, 174.854
823.189, 93.534
824.469, 87.223
825.749, 90.920
827.028, 38.626
828.307, 60.340
829.586, 71.062
830.865, 18.778
832.144, 5.652
833.422, 61.595
834.700, 20.865
835.978, 48.233
837.256, 14.526
838.534, 10.069
839.811, 30.076
841.088, 53.933
842.365, 18.614
843.642, 43.959
844.919, 39.381
846.195, 34.821
847.472, 37.479
848.748, 17.839
850.023, 1.796
851.299, 62.730
852.575, 20.116
853.850, 41.509
855.125, 12.082
856.400, 63.678
857.674, 68.280
858.949, 73.886
860.223, 22.498
861.497, 91.115
862.771, 77.737
864.045, 88.363
865.318, 143.994
866.591, 137.631
867.864, 158.271
869.137, 168.917
870.410, 205.566
871.682, 241.221
872.955, 210.880
874.227, 322.543
875.499, 285.212
876.770, 346.885
878.042, 449.564
879.313, 417.247
880.584, 480.934
881.855, 592.627
883.126, 666.324
884.396, 649.027
885.667, 797.734
886.937, 859.445
888.207, 922.160
889.476, 1090.879
890.746, 1180.603
892.015, 1240.329
893.284, 1332.058
894.553, 1385.790
895.822, 1437.526
897.090, 1504.266
898.359, 1501.010
899.627, 1525.757
900.895, 1461.507
902.163, 1464.259
903.430, 1472.014
904.698, 1349.771
905.965, 1453.531
907.232, 1393.293
908.499, 1334.057
909.765, 1370.823
911.032, 1437.592
912.298, 1455.362
913.564, 1461.417
914.830, 1529.526
916.095, 1463.688
917.361, 1619.468
918.626, 1681.249
919.891, 1689.032
921.156, 1852.816
922.420, 1960.603
923.685, 2041.391
924.949, 2197.180
926.213, 2374.970
927.477, 2510.761
928.740, 2620.555
930.004, 2913.349
931.267, 3034.144
932.530, 3294.940
933.793, 3396.737
935.056, 3495.534
936.318, 3711.332
937.581, 3734.253
938.843, 3836.510
940.104, 3801.253
941.366, 3705.888
942.628, 3770.162
943.889, 3581.374
945.150, 3397.269
946.411, 3262.132
947.672, 3126.036
948.932, 2928.461
950.193, 2763.743
951.453, 2567.153
952.713, 2414.684
953.973, 2248.540
955.232, 2112.904
956.491, 1959.771
957.751, 1828.898
959.010, 1740.505
960.268, 1732.394
961.527, 1608.296
962.785, 1616.217
964.044, 1584.138
965.302, 1520.287
966.559, 1504.801
967.817, 1411.119
969.075, 1371.779
970.332, 1280.804
971.589, 1236.879
972.846, 1151.806
974.102, 1147.635
975.359, 1153.662
976.615, 1111.597
977.871, 1042.659
979.127, 1044.577
980.383, 1046.513
981.638, 1010.641
982.893, 1010.822
984.149, 951.426
985.404, 957.847
986.658, 999.303
987.913, 965.252
989.167, 935.703
990.421, 963.493
991.675, 971.095
992.929, 923.993
994.183, 873.385
995.436, 927.788
996.689, 923.249
997.942, 912.138
999.195, 919.481
1000.448, 927.207
1001.700, 884.165
1002.952, 853.288
1004.204, 825.795
1005.456, 844.180
1006.708, 840.892
1007.959, 770.611
1009.210, 803.317
1010.461, 779.026
1011.712, 702.730
1012.963, 698.431
1014.213, 727.126
1015.464, 662.818
1016.714, 654.505
1017.964, 665.187
1019.214, 545.865
1020.463, 592.538
1021.712, 583.225
1022.962, 588.967
1024.210, 534.748
1025.459, 532.560
1026.708, 525.374
1027.956, 510.233
1029.204, 520.038
1030.452, 509.829
1031.700, 478.782
1032.948, 448.638
1034.195, 432.611
1035.442, 407.107
1036.689, 416.224
1037.936, 357.018
1039.183, 366.733
1040.429, 319.437
1041.676, 293.022
1042.922, 330.638
1044.168, 239.211
1045.413, 257.927
1046.659, 266.818
1047.904, 256.488
1049.149, 262.189
1050.394, 257.809
1051.639, 270.389
1052.884, 236.965
1054.128, 236.484
1055.372, 237.048
1056.616, 220.552
1057.860, 164.051
1059.104, 203.586
1060.347, 153.126
1061.590, 161.698
1062.833, 210.430
1064.076, 185.769
1065.319, 186.510
1066.561, 208.957
1067.803, 115.688
1069.046, 144.130
1070.287, 135.582
1071.529, 144.235
1072.771, 130.642
1074.012, 98.091
1075.253, 97.519
1076.494, 109.986
1077.735, 50.618
1078.975, 50.008
1080.216, 115.373
1081.456, 78.969
1082.696, 91.334
1083.936, 95.695
1085.175, 69.067
1086.415, 22.431
1087.654, 5.854
1088.893, 3.303
1090.132, 1.521
1091.371, 5.886
1092.609, 8.139
1093.847, 32.454
1095.085, 40.786
1096.323, 31.572
1097.561, 2.381
1098.799, 6.598
1100.036, 29.219
1101.273, 44.983
1102.510, 48.196
1103.747, 14.680
1104.983, 42.730
1106.220, 13.796
1107.456, 32.150
1108.692, 38.153
1109.928, 36.833
1111.163, 30.145
1112.399, 30.123
1113.634, 42.919
1114.869, 4.015
1116.104, 6.042
1117.339, 49.070
1118.573, 20.145
1119.808, 17.089
1121.042, 29.015
1122.276, 49.901
1123.509, 19.707
1124.743, 27.497
1125.976, 17.378
1127.210, 29.144
1128.443, 27.017
1129.675, 11.971
1130.908, 20.027
1132.141, 1.911
1133.373, 21.395
1134.605, 4.306
1135.837, 20.980
1137.068, 3.345
1138.300, 48.602
1139.531, 17.621
1140.762, 14.366
1141.993, 71.096
1143.224, 7.163
1144.455, 55.654
1145.685, 27.277
1146.915, 50.026
1148.145, 55.822
1149.375, 9.422
1150.605, 73.989
1151.834, 45.877
1153.063, 43.443
1154.292, 76.165
1155.521, 73.905
1156.750, 121.749
1157.978, 108.218
1159.207, 110.750
1160.435, 204.376
1161.663, 247.006
1162.891, 191.587
1164.118, 200.126
1165.345, 128.709
1166.573, 108.225
1167.800, 87.759
1169.026, 77.268
1170.253, 63.270
1171.480, 53.165
1172.706, 44.774
1173.932, 43.289
1175.158, 36.469
1176.383, 44.817
1177.609, 47.152
1178.834, 25.735
1180.059, 35.065
1181.284, 23.542
1182.509, 53.929
1183.734, 32.409
1184.958, 40.903
1186.182, 57.939
1187.406, 59.444
1188.630, 89.823
1189.854, 78.020
1191.077, 92.401
1192.301, 51.573
1193.524, 26.730
1194.747, 60.064
1195.969, 51.366
1197.192, 69.598
1198.414, 77.366
1199.636, 77.217
1200.858, 96.976
1202.080, 77.039
1203.302, 102.114
1204.523, 92.290
1205.744, 79.321
1206.966, 76.340
1208.186, 67.478
1209.407, 35.469
1210.628, 106.744
1211.848, 51.818
1213.068, 119.768
1214.288, 32.864
1215.508, 88.786
1216.727, 84.694
1217.947, 39.747
1219.166, 103.627
1220.385, 80.573
1221.604, 83.540
1222.822, 72.378
1224.041, 39.596
1225.259, 89.557
1226.477, 113.352
1227.695, 41.265
1228.913, 90.213
1230.130, 89.060
1231.348, 85.009
1232.565, 84.730
1233.782, 68.471
1234.999, 84.802
1236.215, 97.739
1237.432, 59.707
1238.648, 106.894
1239.864, 75.146
1241.080, 68.893
1242.296, 60.454
1243.511, 86.961
1244.726, 88.380
1245.942, 123.514
1247.156, 70.871
1248.371, 71.870
1249.586, 82.377
1250.800, 23.278
1252.014, 97.735
1253.228, 101.995
1254.442, 27.922
1255.656, 132.319
1256.869, 87.851
1258.083, 80.897
1259.296, 105.258
1260.509, 76.339
1261.722, 50.175
1262.934, 88.062
1264.147, 11.280
1265.359, 50.543
1266.571, 51.860
1267.783, 59.482
1268.994, 75.817
1270.206, 84.118
1271.417, 52.462
1272.628, 108.480
1273.839, 9.719
1275.050, 141.895
1276.260, 18.637
1277.471, 33.013
1278.681, 113.695
1279.891, 68.875
1281.101, 87.960
1282.310, 79.923
1283.520, 15.253
1284.729, 43.604
1285.938, 7.903
1287.147, 48.710
1288.356, 44.889
1289.564, 23.809
1290.773, 83.354
1291.981, 51.285
1293.189, 12.482
1294.397, 62.022
1295.604, 67.667
1296.812, 6.774
1298.019, 81.750
1299.226, 28.704
1300.433, 21.872
1301.640, 7.918
1302.846, 27.036
1304.053, 62.990
1305.259, 38.008
1306.465, 34.011
1307.671, 43.013
1308.876, 49.994
1310.082, 36.964
1311.287, 49.923
1312.492, 42.764
1313.697, 45.896
1314.902, 41.813
1316.106, 35.646
1317.310, 47.467
1318.515, 32.179
1319.719, 9.129
1320.922, 90.519
1322.126, 71.222
1323.329, 11.901
1324.533, 59.374
1325.736, 20.925
1326.939, 38.342
1328.141, 16.974
1329.344, 13.457
1330.546, 58.186
1331.748, 50.778
1332.950, 23.364
1334.152, 67.119
1335.354, 18.752
1336.555, 67.403
1337.757, 76.892
1338.958, 19.188
1340.159, 21.699
1341.359, 35.186
1342.560, 37.750
1343.760, 61.310
1344.960, 67.834
1346.160, 97.386
1347.360, 59.618
1348.560, 32.144
1349.759, 79.658
1350.959, 81.358
1352.158, 31.790
1353.357, 106.171
1354.555, 7.520
1355.754, 36.967
1356.952, 63.278
1358.151, 24.701
1359.349, 67.823
1360.546, 74.208
1361.744, 24.564
1362.941, 98.630
1364.139, 42.916
1365.336, 34.123
1366.533, 66.314
1367.730, 17.569
1368.926, 24.348
1370.123, 60.467
1371.319, 28.656
1372.515, 18.501
1373.711, 36.544
1374.906, 14.541
1376.102, 64.488
1377.297, 21.405
1378.492, 36.012
1379.687, 15.621
1380.882, 26.287
1382.077, 57.768
1383.271, 53.430
1384.465, 14.050
1385.659, 59.689
1386.853, 69.067
1388.047, 2.508
1389.240, 50.222
1390.434, 1.063
1391.627, 47.527
1392.820, 95.868
1394.013, 40.381
1395.205, 93.030
1396.398, 38.635
1397.590, 15.105
1398.782, 87.270
1399.974, 18.757
1401.166, 6.556
1402.357, 47.804
1403.549, 24.931
1404.740, 76.385
1405.931, 64.841
1407.122, 5.883
1408.313, 29.803
1409.503, 11.098
1410.693, 0.660
1411.883, 44.058
1413.073, 10.516
1414.263, 14.825
1415.453, 102.175
1416.642, 32.543
1417.831, 39.868
1419.020, 98.154
1420.209, 0.655
1421.398, 29.886
1422.587, 38.005
1423.775, 1.902
1424.963, 58.928
1426.151, 26.313
1427.339, 9.554
1428.526, 84.740
1429.714, 82.926
1430.901, 150.943
1432.088, 129.483
1433.275, 1.297
1434.462, 68.892
1435.648, 56.325
1436.835, 1.475
1438.021, 47.240
1439.207, 76.373
1440.393, 62.786
1441.579, 122.912
1442.764, 31.967
1443.949, 78.759
1445.135, 85.849
1446.320, 63.621
1447.504, 50.396
1448.689, 52.471
1449.873, 48.737
1451.058, 103.333
1452.242, 62.200
1453.426, 80.524
1454.609, 89.798
1455.793, 28.114
1456.976, 47.211
1458.159, 86.269
1459.342, 35.569
1460.525, 69.616
1461.708, 52.360
1462.890, 43.722
1464.073, 36.367
1465.255, 39.708
1466.437, 50.000
1467.619, 75.451
1468.800, 61.952
1469.982, 42.783
1471.163, 71.168
1472.344, 9.673
1473.525, 108.398
1474.706, 89.125
1475.886, 27.825
1477.066, 51.955
1478.247, 53.847
1479.427, 43.253
1480.607, 46.243
1481.786, 38.248
1482.966, 32.204
1484.145, 28.572
1485.324, 33.865
1486.503, 39.143
1487.682, 90.973
1488.860, 19.913
1490.039, 56.082
1491.217, 79.238
1492.395, 7.169
1493.573, 115.449
1494.751, 62.664
1495.928, 13.761
1497.106, 56.017
1498.283, 29.801
1499.460, 44.127
1500.637, 65.336
1501.814, 73.881
1502.990, 52.782
1504.166, 46.347
1505.342, 27.140
1506.518, 51.903
1507.694, 37.927
1508.870, 48.587
1510.045, 29.935
1511.221, 19.188
1512.396, 0.195
1513.571, 20.390
1514.745, 10.993
1515.920, 5.918
1517.094, 14.171
1518.269, 0.000
##END=



