##NAMES=Stellerite
##RRUFFID=R040174
##IDEAL CHEMISTRY=Ca_4_(Si_28_Al_8_)O_72_&#183;28H_2_O
##LOCALITY=unknown
##OWNER=RRUFF
##SOURCE=University of Arizona Mineral Museum
##DESCRIPTION=Parallel aggregates of thin tabular brown crystals
##STATUS=The identification of this mineral has been confirmed by X-ray diffraction and chemical analysis
##URL=rruff.info/R040174
##MEASURED CHEMISTRY=(Ca_3.89_Na_0.06_K_0.05_)_Σ=4_(Si_28.11_Al_7.89_)O_72_·15.18H_2_O; H_2_O estimated by difference
##PIN_ID=L00419
##ORIENTATION=Laser parallel to -b* (0 -1 0). Fiducial mark perpendicular to laser is parallel to -c [0 0 -1]
101.812, 0.000
103.206, 13.301
104.600, 238.419
105.994, 523.975
107.387, 991.184
108.781, 1359.322
110.174, 1846.872
111.566, 2406.127
112.959, 2841.834
114.351, 3201.057
115.744, 3951.889
117.136, 4141.957
118.527, 4369.305
119.919, 4342.471
121.310, 4630.345
122.701, 4622.124
124.092, 4808.059
125.482, 4459.235
126.873, 4425.732
128.263, 4316.506
129.653, 3919.033
131.042, 4062.615
132.432, 3587.037
133.821, 3442.130
135.210, 3207.764
136.599, 3033.834
137.987, 2840.248
139.376, 2696.941
140.764, 2563.857
142.152, 2331.059
143.539, 2109.478
144.927, 2011.158
146.314, 2115.631
147.701, 1953.982
149.088, 1826.187
150.474, 1807.870
151.861, 1574.188
153.247, 1514.590
154.633, 1381.576
156.018, 1485.535
157.404, 1388.984
158.789, 1261.971
160.174, 1104.532
161.559, 1106.709
162.943, 1158.529
164.327, 950.022
165.711, 941.216
167.095, 922.124
168.479, 822.758
169.862, 733.129
171.246, 703.249
172.628, 573.132
174.011, 472.801
175.394, 642.266
176.776, 411.549
178.158, 340.657
179.540, 349.604
180.922, 148.404
182.303, 191.983
183.684, 96.613
185.065, 137.095
186.446, 16.676
187.826, 11.974
189.207, 2.261
190.587, 97.991
191.967, 71.344
193.346, 85.644
194.726, 14.606
196.105, 74.896
197.484, 3.898
198.862, 28.736
200.241, 96.561
201.619, 34.386
202.997, 12.047
204.375, 29.549
205.753, 23.292
207.130, 44.106
208.507, 58.814
209.884, 111.851
211.261, 84.989
212.638, 198.221
214.014, 321.537
215.390, 314.933
216.766, 348.404
218.141, 431.945
219.517, 525.551
220.892, 479.215
222.267, 542.939
223.642, 636.713
225.016, 680.536
226.391, 717.351
227.765, 748.295
229.139, 732.189
230.512, 696.053
231.886, 639.868
233.259, 593.614
234.632, 477.251
236.005, 560.822
237.377, 504.342
238.749, 227.841
240.122, 331.380
241.493, 384.929
242.865, 168.522
244.237, 332.172
245.608, 195.882
246.979, 149.636
248.350, 163.436
249.720, 217.302
251.090, 181.185
252.461, 225.084
253.830, 189.002
255.200, 202.985
256.570, 197.013
257.939, 181.153
259.308, 205.332
260.677, 129.517
262.045, 3.725
263.414, 127.954
264.782, 97.812
266.150, 33.656
267.517, 74.941
268.885, 93.807
270.252, 160.883
271.619, 166.820
272.986, 18.076
274.353, 266.345
275.719, 200.299
277.085, 143.875
278.451, 277.138
279.817, 210.188
281.182, 173.067
282.548, 125.810
283.913, 108.438
285.278, 250.979
286.642, 43.489
288.007, 165.939
289.371, 38.380
290.735, 20.803
292.099, 183.233
293.462, 24.269
294.826, 31.745
296.189, 159.192
297.552, 176.622
298.914, 284.034
300.277, 271.424
301.639, 398.791
303.001, 436.135
304.363, 473.451
305.724, 650.739
307.086, 717.998
308.447, 1075.225
309.808, 1042.396
311.168, 1189.453
312.529, 1176.385
313.889, 1503.164
315.249, 1499.792
316.609, 1686.208
317.969, 1622.479
319.328, 1658.622
320.687, 1704.706
322.046, 1600.730
323.405, 1596.698
324.764, 1752.612
326.122, 1558.472
327.480, 1444.280
328.838, 1620.039
330.196, 1475.747
331.553, 1441.406
332.910, 1417.018
334.267, 1462.584
335.624, 1328.104
336.981, 1323.578
338.337, 1319.010
339.693, 1274.397
341.049, 1289.742
342.405, 1305.044
343.760, 1290.305
345.116, 1415.523
346.471, 1290.676
347.826, 1255.715
349.180, 1120.610
350.535, 1315.137
351.889, 1199.536
353.243, 1313.692
354.597, 1354.778
355.950, 1358.443
357.304, 1318.517
358.657, 1381.672
360.010, 1510.656
361.362, 1572.184
362.715, 1482.404
364.067, 1729.244
365.419, 1809.147
366.771, 2060.047
368.123, 2070.105
369.474, 2242.386
370.825, 2471.645
372.176, 2754.673
373.527, 2953.667
374.877, 2984.229
376.228, 3417.050
377.578, 3480.067
378.928, 3684.729
380.277, 3959.369
381.627, 4215.788
382.976, 4540.893
384.325, 4737.268
385.674, 5082.643
387.023, 5405.891
388.371, 5774.442
389.719, 6188.377
391.067, 6602.676
392.415, 7182.201
393.762, 7707.961
395.110, 8412.669
396.457, 9066.079
397.804, 9911.049
399.150, 10784.272
400.497, 11528.433
401.843, 12743.395
403.189, 13797.396
404.535, 14893.502
405.881, 15714.073
407.226, 16466.936
408.571, 16913.863
409.916, 17452.748
411.261, 17456.102
412.605, 17078.990
413.950, 16492.412
415.294, 15577.257
416.638, 14939.656
417.981, 13726.535
419.325, 12969.254
420.668, 12192.813
422.011, 11282.511
423.354, 10495.731
424.697, 9665.339
426.039, 9217.374
427.381, 8321.607
428.723, 8038.875
430.065, 7464.000
431.406, 7028.316
432.748, 6448.671
434.089, 6017.817
435.430, 5917.444
436.770, 5410.150
438.111, 5206.773
439.451, 5126.504
440.791, 4807.828
442.131, 4653.107
443.471, 4560.469
444.810, 4460.410
446.149, 4601.153
447.488, 4752.871
448.827, 4896.989
450.166, 5073.544
451.504, 5357.533
452.842, 5812.338
454.180, 5877.065
455.518, 6344.006
456.855, 6691.114
458.193, 6761.848
459.530, 6672.639
460.867, 6593.386
462.203, 6344.088
463.540, 6064.744
464.876, 5525.353
466.212, 5185.920
467.548, 4826.439
468.883, 4656.916
470.219, 4227.344
471.554, 3947.729
472.889, 3468.068
474.224, 3378.363
475.558, 3198.616
476.892, 3288.824
478.227, 3048.992
479.561, 3099.117
480.894, 3179.201
482.228, 3229.244
483.561, 3229.247
484.894, 3536.246
486.227, 3819.129
487.559, 4229.010
488.892, 4798.850
490.224, 5318.650
491.556, 5988.408
492.888, 6758.129
494.220, 7196.769
495.551, 7519.328
496.882, 7542.107
498.213, 7606.607
499.544, 6906.126
500.874, 6305.607
502.205, 5375.049
503.535, 4634.453
504.865, 3743.816
506.194, 3173.141
507.524, 2612.427
508.853, 2181.673
510.182, 1860.883
511.511, 1490.060
512.840, 1249.201
514.168, 1138.311
515.496, 947.707
516.824, 816.763
518.152, 705.930
519.480, 654.943
520.807, 533.515
522.134, 504.483
523.461, 455.489
524.788, 452.271
526.114, 391.881
527.441, 390.862
528.767, 349.847
530.093, 289.229
531.418, 179.252
532.744, 158.183
534.069, 2.508
535.394, 216.613
536.719, 165.796
538.044, 44.920
539.368, 44.318
540.693, 6.484
542.017, 23.169
543.340, 7.409
544.664, 11.360
545.987, 9.978
547.311, 8.467
548.634, 71.159
549.956, 49.721
551.279, 61.410
552.601, 2.312
553.923, 25.984
555.245, 94.251
556.567, 12.832
557.889, 51.421
559.210, 89.367
560.531, 8.010
561.852, 45.859
563.173, 15.511
564.493, 87.685
565.813, 120.656
567.133, 31.672
568.453, 63.883
569.773, 136.161
571.092, 101.247
572.412, 58.631
573.731, 3.714
575.049, 153.822
576.368, 38.697
577.686, 98.646
579.005, 35.763
580.323, 87.184
581.640, 49.792
582.958, 196.724
584.275, 183.980
585.593, 121.167
586.909, 218.112
588.226, 185.093
589.543, 112.035
590.859, 99.184
592.175, 266.621
593.491, 193.607
594.807, 280.570
596.122, 287.588
597.438, 331.101
598.753, 411.721
600.068, 408.857
601.382, 546.035
602.697, 493.242
604.011, 530.469
605.325, 647.712
606.639, 585.008
607.952, 752.308
609.266, 749.640
610.579, 796.974
611.892, 834.309
613.205, 864.876
614.518, 1039.053
615.830, 966.433
617.142, 1083.784
618.454, 1181.106
619.766, 1088.397
621.078, 1195.661
622.389, 1082.893
623.700, 1350.096
625.011, 1227.270
626.322, 1254.421
627.632, 1341.541
628.943, 1258.642
630.253, 1055.712
631.563, 1092.752
632.872, 789.767
634.182, 1136.752
635.491, 863.716
636.800, 960.651
638.109, 977.559
639.418, 864.437
640.726, 821.286
642.035, 778.105
643.343, 744.898
644.651, 701.663
645.958, 718.398
647.266, 925.107
648.573, 661.787
649.880, 638.439
651.187, 715.063
652.494, 491.660
653.800, 568.229
655.106, 514.770
656.412, 571.284
657.718, 417.771
659.024, 374.228
660.329, 400.969
661.634, 417.579
662.939, 433.956
664.244, 380.310
665.549, 373.236
666.853, 355.111
668.157, 289.912
669.461, 296.567
670.765, 233.083
672.069, 159.682
673.372, 376.151
674.675, 202.744
675.978, 239.084
677.281, 225.875
678.583, 92.085
679.886, 153.962
681.188, 140.205
682.490, 89.160
683.792, 297.923
685.093, 268.348
686.394, 148.010
687.696, 44.361
688.997, 280.300
690.297, 145.635
691.598, 171.881
692.898, 157.960
694.198, 163.266
695.498, 88.823
696.798, 142.994
698.097, 54.970
699.397, 218.360
700.696, 60.290
701.995, 203.412
703.293, 306.677
704.592, 40.507
705.890, 183.785
707.188, 97.361
708.486, 45.727
709.784, 187.645
711.081, 180.562
712.378, 94.804
713.675, 77.588
714.972, 251.053
716.269, 55.181
717.565, 277.650
718.862, 41.354
720.158, 196.201
721.453, 60.129
722.749, 204.431
724.045, 154.775
725.340, 142.947
726.635, 176.600
727.930, 189.684
729.224, 113.357
730.519, 125.711
731.813, 129.957
733.107, 140.354
734.401, 184.088
735.694, 187.500
736.988, 250.424
738.281, 203.730
739.574, 115.152
740.867, 136.359
742.160, 281.840
743.452, 188.607
744.744, 253.137
746.036, 147.756
747.328, 81.805
748.620, 226.355
749.911, 210.908
751.202, 315.619
752.493, 307.203
753.784, 316.174
755.075, 270.707
756.365, 285.080
757.655, 259.434
758.945, 203.816
760.235, 218.119
761.525, 213.326
762.814, 316.707
764.103, 240.938
765.392, 335.143
766.681, 339.506
767.969, 234.109
769.258, 398.238
770.546, 358.219
771.834, 262.297
773.122, 376.352
774.409, 240.379
775.697, 384.393
776.984, 338.371
778.271, 422.477
779.558, 346.404
780.844, 371.498
782.131, 425.375
783.417, 490.668
784.703, 624.498
785.989, 588.301
787.274, 623.936
788.560, 556.291
789.845, 621.461
791.130, 505.170
792.415, 558.850
793.699, 672.508
794.983, 486.141
796.268, 609.750
797.552, 573.336
798.835, 506.898
800.119, 670.438
801.402, 433.953
802.686, 597.445
803.969, 590.914
805.251, 494.361
806.534, 507.783
807.816, 361.184
809.098, 424.561
810.380, 307.914
811.662, 211.248
812.944, 394.559
814.225, 87.846
815.506, 111.111
816.787, 404.350
818.068, 218.193
819.349, 141.391
820.629, 75.080
821.909, 88.230
823.189, 59.488
824.469, 85.189
825.749, 58.266
827.028, 81.012
828.307, 44.043
829.586, 96.924
830.865, 9.906
832.144, 112.836
833.422, 74.814
834.700, 87.705
835.978, 29.854
837.256, 27.682
838.534, 54.934
839.811, 43.613
841.088, 19.980
842.365, 31.535
843.642, 154.127
844.919, 186.289
846.195, 61.428
847.472, 140.727
848.748, 17.115
850.023, 155.299
851.299, 76.617
852.575, 38.008
853.850, 70.252
855.125, 11.719
856.400, 16.090
857.674, 56.246
858.949, 26.092
860.223, 96.375
861.497, 78.111
862.771, 149.541
864.045, 201.711
865.318, 93.854
866.591, 55.631
867.864, 107.340
869.137, 89.639
870.410, 91.189
871.682, 13.475
872.955, 55.074
874.227, 112.900
875.499, 308.645
876.770, 60.811
878.042, 102.795
879.313, 144.770
880.584, 143.035
881.855, 49.096
883.126, 10.906
884.396, 92.777
885.667, 54.656
886.937, 116.607
888.207, 8.734
889.476, 99.125
890.746, 132.990
892.015, 114.902
893.284, 113.182
894.553, 21.463
895.822, 39.520
897.090, 32.357
898.359, 5.740
899.627, 25.945
900.895, 67.350
902.163, 9.219
903.430, 14.969
904.698, 2.926
905.965, 25.240
907.232, 46.570
908.499, 88.373
909.765, 90.168
911.032, 51.953
912.298, 103.729
913.564, 165.498
914.830, 47.258
916.095, 109.010
917.361, 70.754
918.626, 12.492
919.891, 5.779
921.156, 155.938
922.420, 112.354
923.685, 149.301
924.949, 70.943
926.213, 112.582
927.477, 44.215
928.740, 175.842
930.004, 7.463
931.267, 149.076
932.530, 29.312
933.793, 282.281
935.056, 36.129
936.318, 95.441
937.581, 107.006
938.843, 11.434
940.104, 210.117
941.366, 38.334
942.628, 63.197
943.889, 154.725
945.150, 56.248
946.411, 217.770
947.672, 39.287
948.932, 70.799
950.193, 32.314
951.453, 53.824
952.713, 175.332
953.973, 246.840
955.232, 98.344
956.491, 119.850
957.751, 61.352
959.010, 112.854
960.268, 64.359
961.527, 165.859
962.785, 57.361
964.044, 138.881
965.302, 60.402
966.559, 81.613
967.817, 32.924
969.075, 25.555
970.332, 175.957
971.589, 22.598
972.846, 218.568
974.102, 30.203
975.359, 130.896
976.615, 112.111
977.871, 143.219
979.127, 174.428
980.383, 95.490
981.638, 286.779
982.893, 57.590
984.149, 358.992
985.404, 84.695
986.658, 276.010
987.913, 394.592
989.167, 213.338
990.421, 200.398
991.675, 338.199
992.929, 339.285
994.183, 250.465
995.436, 302.102
996.689, 313.742
997.942, 310.635
999.195, 462.312
1000.448, 392.051
1001.700, 663.168
1002.952, 674.658
1004.204, 476.002
1005.456, 567.496
1006.708, 268.758
1007.959, 448.842
1009.210, 420.385
1010.461, 321.848
1011.712, 493.645
1012.963, 265.381
1014.213, 357.316
1015.464, 629.258
1016.714, 271.141
1017.964, 692.881
1019.214, 524.852
1020.463, 386.762
1021.712, 678.693
1022.962, 450.312
1024.210, 718.641
1025.459, 693.375
1026.708, 345.406
1027.956, 767.283
1029.204, 339.334
1030.452, 611.393
1031.700, 574.439
1032.948, 546.320
1034.195, 608.061
1035.442, 463.438
1036.689, 568.018
1037.936, 629.328
1039.183, 649.197
1040.429, 499.102
1041.676, 567.168
1042.922, 543.258
1044.168, 724.789
1045.413, 545.604
1046.659, 635.551
1047.904, 737.605
1049.149, 479.238
1050.394, 701.330
1051.639, 763.672
1052.884, 425.785
1054.128, 577.934
1055.372, 790.023
1056.616, 691.027
1057.860, 533.352
1059.104, 585.781
1060.347, 648.217
1061.590, 600.633
1062.833, 563.105
1064.076, 545.588
1065.319, 558.064
1066.561, 490.604
1067.803, 753.150
1069.046, 495.527
1070.287, 767.646
1071.529, 610.223
1072.771, 576.936
1074.012, 769.527
1075.253, 562.154
1076.494, 714.785
1077.735, 527.410
1078.975, 540.658
1080.216, 793.230
1081.456, 625.967
1082.696, 827.525
1083.936, 900.277
1085.175, 591.605
1086.415, 884.391
1087.654, 937.182
1088.893, 699.598
1090.132, 902.479
1091.371, 643.922
1092.609, 1166.836
1093.847, 1089.738
1095.085, 742.652
1096.323, 1155.570
1097.561, 1248.496
1098.799, 1021.598
1100.036, 1194.533
1101.273, 1117.477
1102.510, 1070.805
1103.747, 1273.766
1104.983, 1247.186
1106.220, 1570.162
1107.456, 1213.143
1108.692, 1317.000
1109.928, 1479.996
1111.163, 1372.998
1112.399, 1620.930
1113.634, 1383.941
1114.869, 1296.961
1116.104, 1549.988
1117.339, 1633.838
1118.573, 1486.402
1119.808, 1589.445
1121.042, 1501.998
1122.276, 2126.096
1123.509, 2118.426
1124.743, 1971.682
1125.976, 1894.752
1127.210, 1667.826
1128.443, 1711.682
1129.675, 1804.963
1130.908, 1578.061
1132.141, 1689.154
1133.373, 1702.369
1134.605, 1825.502
1135.837, 1730.311
1137.068, 1883.461
1138.300, 1857.328
1139.531, 1911.344
1140.762, 1574.551
1141.993, 1854.787
1143.224, 1958.750
1144.455, 1522.213
1145.685, 2151.105
1146.915, 1724.342
1148.145, 1588.248
1149.375, 1805.285
1150.605, 1788.566
1151.834, 1952.240
1153.063, 1746.420
1154.292, 1640.836
1155.521, 2009.270
1156.750, 1542.711
1157.978, 1896.613
1159.207, 1796.979
1160.435, 1810.420
1161.663, 1880.863
1162.891, 1654.803
1164.118, 1680.410
1165.345, 2044.721
1166.573, 1718.781
1167.800, 1992.631
1169.026, 1646.465
1170.253, 1659.809
1171.480, 1673.691
1172.706, 1577.299
1173.932, 1590.766
1175.158, 1755.334
1176.383, 1538.795
1177.609, 1782.633
1178.834, 1577.223
1180.059, 1610.504
1181.284, 1815.424
1182.509, 1398.865
1183.734, 1492.053
1184.958, 1707.244
1186.182, 1440.758
1187.406, 1534.559
1188.630, 1329.008
1189.854, 1252.912
1191.077, 1287.068
1192.301, 1261.686
1193.524, 1254.828
1194.747, 1232.195
1195.969, 864.094
1197.192, 1187.793
1198.414, 914.998
1199.636, 908.812
1200.858, 941.990
1202.080, 886.254
1203.302, 699.273
1204.523, 822.900
1205.744, 606.939
1206.966, 919.910
1208.186, 608.986
1209.407, 461.914
1210.628, 774.822
1211.848, 558.193
1213.068, 511.061
1214.288, 585.229
1215.508, 419.234
1216.727, 672.033
1217.947, 496.145
1219.166, 349.717
1220.385, 582.484
1221.604, 271.078
1222.822, 513.939
1224.041, 546.637
1225.259, 56.523
1226.477, 550.121
1227.695, 533.812
1228.913, 257.510
1230.130, 430.105
1231.348, 344.750
1232.565, 510.062
1233.782, 502.719
1234.999, 233.211
1236.215, 385.732
1237.432, 758.199
1238.648, 222.705
1239.864, 685.160
1241.080, 427.973
1242.296, 510.736
1243.511, 613.158
1244.726, 195.834
1245.942, 468.232
1247.156, 380.598
1248.371, 154.918
1249.586, 657.256
1250.800, 139.582
1252.014, 342.994
1253.228, 575.287
1254.442, 48.795
1255.656, 701.455
1256.869, 483.664
1258.083, 64.012
1259.296, 448.281
1260.509, 350.408
1261.722, 304.084
1262.934, 76.139
1264.147, 238.484
1265.359, 400.727
1266.571, 272.674
1267.783, 45.537
1268.994, 567.688
1270.206, 239.445
1271.417, 301.141
1272.628, 512.799
1273.839, 104.426
1275.050, 248.447
1276.260, 580.018
1277.471, 98.434
1278.681, 273.631
1279.891, 415.078
1281.101, 6.871
1282.310, 378.252
1283.520, 139.598
1284.729, 111.432
1285.938, 462.701
1287.147, 76.129
1288.356, 135.938
1289.564, 256.834
1290.773, 52.303
1291.981, 318.500
1293.189, 159.264
1294.397, 20.051
1295.604, 420.686
1296.812, 231.221
1298.019, 111.705
1299.226, 82.146
1300.433, 197.457
1301.640, 292.797
1302.846, 182.879
1304.053, 67.094
1305.259, 292.861
1306.465, 67.264
1307.671, 172.389
1308.876, 11.998
1310.082, 101.537
1311.287, 141.025
1312.492, 190.463
1313.697, 192.271
1314.902, 309.176
1316.106, 178.439
1317.310, 247.641
1318.515, 286.787
1319.719, 75.877
1320.922, 284.896
1322.126, 193.855
1323.329, 72.756
1324.533, 331.582
1325.736, 50.357
1326.939, 289.068
1328.141, 347.695
1329.344, 36.256
1330.546, 264.746
1331.748, 193.174
1332.950, 91.531
1334.152, 169.809
1335.354, 128.023
1336.555, 123.824
1337.757, 374.219
1338.958, 7.801
1340.159, 79.900
1341.359, 217.904
1342.560, 164.350
1343.760, 183.281
1344.960, 330.854
1346.160, 108.375
1347.360, 395.838
1348.560, 213.250
1349.759, 130.604
1350.959, 517.900
1352.158, 34.852
1353.357, 362.318
1354.555, 519.439
1355.754, 103.488
1356.952, 523.496
1358.151, 100.637
1359.349, 117.527
1360.546, 384.373
1361.744, 102.834
1362.941, 169.602
1364.139, 516.330
1365.336, 26.975
1366.533, 329.668
1367.730, 416.289
1368.926, 207.127
1370.123, 148.840
1371.319, 135.289
1372.515, 131.596
1373.711, 357.863
1374.906, 55.285
1376.102, 31.455
1377.297, 327.188
1378.492, 217.492
1379.687, 353.031
1380.882, 413.498
1382.077, 63.928
1383.271, 744.314
1384.465, 284.480
1385.659, 294.383
1386.853, 634.139
1388.047, 314.326
1389.240, 393.521
1390.434, 628.227
1391.627, 78.209
1392.820, 777.225
1394.013, 486.930
1395.205, 155.543
1396.398, 655.084
1397.590, 144.793
1398.782, 293.324
1399.974, 873.498
1401.166, 352.816
1402.357, 350.205
1403.549, 657.680
1404.740, 108.328
1405.931, 676.211
1407.122, 298.158
1408.313, 311.439
1409.503, 559.775
1410.693, 175.926
1411.883, 284.635
1413.073, 732.896
1414.263, 431.375
1415.453, 395.406
1416.642, 630.869
1417.831, 47.135
1419.020, 583.912
1420.209, 450.883
1421.398, 216.414
1422.587, 701.217
1423.775, 266.289
1424.963, 413.531
1426.151, 717.531
1427.339, 232.064
1428.526, 366.787
1429.714, 556.318
1430.901, 122.920
1432.088, 946.213
1433.275, 674.480
1434.462, 495.807
1435.648, 629.438
1436.835, 435.395
1438.021, 281.561
1439.207, 729.396
1440.393, 290.781
1441.579, 694.113
1442.764, 748.250
1443.949, 342.703
1445.135, 865.641
1446.320, 476.543
1447.504, 289.010
1448.689, 1023.926
1449.873, 491.766
1451.058, 515.178
1452.242, 844.184
1453.426, 425.637
1454.609, 657.701
1455.793, 920.102
1456.976, 477.873
1458.159, 1027.154
1459.342, 695.750
1460.525, 575.973
1461.708, 1136.223
1462.890, 992.977
1464.073, 622.568
1465.255, 1182.123
1466.437, 328.922
1467.619, 499.189
1468.800, 879.326
1469.982, 392.342
1471.163, 789.992
1472.344, 767.871
1473.525, 356.473
1474.706, 993.125
1475.886, 548.352
1477.066, 187.305
1478.247, 1035.934
1479.427, 264.125
1480.607, 462.787
1481.786, 761.160
1482.966, 309.973
1484.145, 809.072
1485.324, 698.783
1486.503, 168.930
1487.682, 768.994
1488.860, 648.959
1490.039, 99.000
1491.217, 789.039
1492.395, 439.205
1493.573, 359.459
1494.751, 749.770
1495.928, 150.484
1497.106, 361.441
1498.283, 362.822
1499.460, 34.553
1500.637, 576.643
1501.814, 449.137
1502.990, 27.975
1504.166, 535.268
1505.342, 98.941
1506.518, 353.146
1507.694, 487.984
1508.870, 163.553
1510.045, 497.100
1511.221, 494.002
1512.396, 61.418
1513.571, 394.803
1514.745, 326.932
1515.920, 3.436
1517.094, 447.027
1518.269, 215.711
1519.443, 0.000
##END=



