##NAMES=Stellerite
##RRUFFID=R040174
##IDEAL CHEMISTRY=Ca_4_(Si_28_Al_8_)O_72_&#183;28H_2_O
##LOCALITY=unknown
##OWNER=RRUFF
##SOURCE=University of Arizona Mineral Museum
##DESCRIPTION=Parallel aggregates of thin tabular brown crystals
##STATUS=The identification of this mineral has been confirmed by X-ray diffraction and chemical analysis
##URL=rruff.info/R040174
##MEASURED CHEMISTRY=(Ca_3.89_Na_0.06_K_0.05_)_Σ=4_(Si_28.11_Al_7.89_)O_72_·15.18H_2_O; H_2_O estimated by difference
##PIN_ID=M00484
##ORIENTATION=Laser parallel to a* (1 0 0). Fiducial mark perpendicular to laser is parallel to b [0 1 0]
182.803, 0.000
184.183, 103.882
185.562, 0.703
186.940, 50.034
188.319, 84.916
189.698, 44.808
191.076, 2.402
192.454, 43.694
193.831, 50.062
195.209, 102.239
196.586, 96.383
197.963, 50.074
199.340, 58.554
200.717, 57.660
202.093, 135.483
203.470, 84.968
204.846, 147.129
206.221, 162.354
207.597, 99.718
208.972, 115.737
210.347, 79.954
211.722, 253.558
213.097, 218.501
214.472, 242.382
215.846, 196.588
217.220, 245.494
218.594, 204.528
219.967, 212.834
221.341, 218.513
222.714, 259.405
224.087, 219.006
225.460, 198.350
226.832, 260.918
228.204, 222.228
229.577, 260.325
230.948, 296.270
232.320, 309.171
233.692, 317.851
235.063, 274.582
236.434, 282.260
237.805, 356.173
239.175, 329.395
240.545, 261.540
241.916, 296.067
243.286, 226.190
244.655, 209.629
246.025, 222.557
247.394, 197.183
248.763, 192.738
250.132, 206.707
251.501, 138.220
252.869, 130.750
254.237, 114.063
255.605, 134.458
256.973, 134.398
258.340, 118.829
259.708, 87.222
261.075, 27.974
262.442, 36.060
263.808, 105.510
265.175, 12.222
266.541, 42.792
267.907, 10.762
269.273, 18.009
270.639, 32.923
272.004, 6.037
273.369, 20.890
274.734, 66.653
276.099, 47.337
277.463, 55.632
278.828, 33.528
280.192, 28.056
281.556, 13.546
282.919, 15.994
284.283, 52.553
285.646, 52.124
287.009, 43.688
288.372, 5.766
289.734, 3.251
291.097, 46.224
292.459, 10.343
293.821, 64.049
295.183, 111.397
296.544, 81.701
297.905, 160.957
299.266, 116.166
300.627, 194.317
301.988, 231.410
303.348, 238.444
304.709, 257.399
306.069, 254.283
307.428, 342.078
308.788, 291.786
310.147, 299.401
311.507, 387.859
312.865, 296.170
314.224, 398.369
315.583, 363.504
316.941, 375.597
318.299, 384.479
319.657, 277.594
321.015, 352.524
322.372, 264.431
323.729, 233.321
325.086, 268.202
326.443, 189.076
327.800, 177.948
329.156, 225.819
330.512, 167.690
331.868, 194.563
333.224, 123.438
334.579, 134.311
335.935, 165.180
337.290, 171.042
338.645, 179.507
339.999, 177.311
341.354, 173.586
342.708, 158.418
344.062, 128.243
345.416, 122.061
346.769, 183.281
348.123, 185.223
349.476, 277.875
350.829, 197.357
352.182, 310.627
353.534, 312.699
354.887, 404.356
356.239, 349.973
357.591, 378.384
358.942, 426.650
360.294, 491.699
361.645, 463.394
362.996, 573.903
364.347, 525.200
365.698, 660.560
367.048, 668.595
368.398, 812.631
369.748, 879.489
371.098, 910.866
372.448, 1044.073
373.797, 1105.937
375.146, 1246.361
376.495, 1309.370
377.844, 1405.496
379.192, 1580.229
380.540, 1622.244
381.889, 1761.595
383.236, 1853.939
384.584, 1966.440
385.932, 2046.710
387.279, 2227.361
388.626, 2380.713
389.973, 2471.274
391.319, 2710.195
392.666, 2834.811
394.012, 3077.246
395.358, 3366.506
396.704, 3674.710
398.049, 3991.661
399.394, 4269.505
400.740, 4507.559
402.084, 4714.459
403.429, 4855.201
404.774, 4955.917
406.118, 4976.217
407.462, 4934.897
408.806, 4852.895
410.150, 4646.135
411.493, 4442.811
412.836, 4111.146
414.179, 3916.312
415.522, 3512.097
416.865, 3320.737
418.207, 3134.512
419.549, 2860.293
420.891, 2650.950
422.233, 2446.388
423.575, 2261.585
424.916, 2108.127
426.257, 1970.806
427.598, 1786.602
428.939, 1689.284
430.279, 1561.979
431.619, 1468.248
432.959, 1373.155
434.299, 1288.468
435.639, 1195.699
436.978, 1144.016
438.318, 1063.716
439.657, 1006.818
440.996, 1001.353
442.334, 943.341
443.673, 1066.217
445.011, 1027.655
446.349, 1058.819
447.687, 1222.993
449.024, 1268.059
450.361, 1310.634
451.699, 1479.406
453.036, 1468.562
454.372, 1569.971
455.709, 1569.379
457.045, 1654.236
458.381, 1547.853
459.717, 1482.067
461.053, 1496.990
462.388, 1268.350
463.724, 1252.867
465.059, 1214.417
466.394, 1124.050
467.728, 967.674
469.063, 958.670
470.397, 918.460
471.731, 842.288
473.065, 874.332
474.398, 845.160
475.732, 875.202
477.065, 881.245
478.398, 935.287
479.731, 972.330
481.063, 1131.123
482.396, 1222.166
483.728, 1405.923
485.060, 1529.560
486.391, 1925.351
487.723, 2110.820
489.054, 2376.251
490.385, 2640.892
491.716, 2857.298
493.047, 2991.826
494.377, 2874.161
495.708, 2733.454
497.038, 2463.884
498.368, 2158.346
499.697, 1789.853
501.027, 1546.357
502.356, 1239.856
503.685, 994.299
505.014, 772.633
506.342, 623.098
507.671, 525.629
508.999, 468.137
510.327, 374.174
511.655, 339.678
512.982, 302.590
514.310, 300.661
515.637, 221.380
516.964, 242.495
518.291, 220.581
519.617, 185.755
520.944, 132.735
522.270, 138.714
523.596, 153.542
524.921, 179.853
526.247, 107.175
527.572, 125.258
528.897, 142.794
530.222, 118.691
531.547, 137.406
532.871, 110.270
534.196, 59.235
535.520, 144.065
536.844, 56.103
538.167, 73.100
539.491, 11.142
540.814, 88.725
542.137, 58.734
543.460, 4.552
544.783, 27.463
546.105, 88.223
547.427, 82.635
548.749, 51.361
550.071, 100.231
551.393, 123.990
552.714, 121.950
554.035, 144.745
555.356, 135.652
556.677, 142.572
557.998, 119.475
559.318, 110.321
560.638, 119.911
561.958, 72.428
563.278, 119.950
564.597, 11.581
565.917, 30.237
567.236, 74.084
568.555, 101.899
569.874, 2.191
571.192, 121.604
572.511, 11.302
573.829, 89.886
575.147, 84.516
576.464, 114.127
577.782, 115.863
579.099, 107.694
580.416, 64.367
581.733, 79.248
583.050, 95.003
584.366, 71.632
585.683, 91.469
586.999, 117.338
588.315, 67.159
589.630, 64.276
590.946, 129.104
592.261, 5.103
593.576, 41.933
594.891, 109.726
596.206, 67.515
597.520, 97.254
598.834, 133.017
600.148, 80.986
601.462, 234.786
602.776, 169.297
604.089, 250.421
605.402, 173.425
606.715, 172.291
608.028, 271.118
609.341, 255.954
610.653, 357.797
611.965, 359.641
613.277, 351.493
614.589, 404.345
615.901, 369.194
617.212, 366.042
618.523, 426.887
619.834, 435.727
621.145, 403.562
622.456, 387.391
623.766, 362.215
625.076, 324.032
626.386, 320.300
627.696, 263.646
629.006, 298.441
630.315, 321.228
631.624, 304.007
632.933, 295.777
634.242, 276.539
635.551, 260.292
636.859, 172.036
638.167, 214.770
639.475, 197.496
640.783, 180.212
642.090, 239.920
643.398, 185.620
644.705, 109.310
646.012, 193.993
647.318, 181.668
648.625, 191.335
649.931, 103.995
651.237, 73.646
652.543, 174.290
653.849, 115.926
655.155, 129.553
656.460, 133.292
657.765, 151.902
659.070, 128.586
660.375, 104.180
661.679, 95.808
662.984, 60.464
664.288, 110.110
665.592, 146.766
666.895, 58.829
668.199, 103.602
669.502, 99.729
670.805, 55.295
672.108, 13.755
673.411, 36.155
674.713, 37.977
676.016, 11.805
677.318, 53.541
678.620, 49.289
679.921, 38.953
681.223, 5.167
682.524, 63.373
683.825, 59.519
685.126, 50.767
686.427, 20.899
687.727, 37.229
689.028, 20.451
690.328, 21.983
691.628, 18.253
692.927, 8.464
694.227, 14.655
695.526, 3.344
696.825, 47.634
698.124, 4.679
699.423, 79.273
700.721, 4.262
702.020, 62.253
703.318, 7.575
704.616, 66.863
705.913, 31.948
707.211, 59.087
708.508, 12.629
709.805, 52.873
711.102, 26.613
712.399, 23.009
713.695, 27.651
714.992, 40.978
716.288, 102.582
717.584, 136.871
718.879, 120.934
720.175, 94.298
721.470, 94.625
722.765, 54.287
724.060, 67.026
725.355, 47.740
726.649, 74.339
727.944, 97.284
729.238, 131.596
730.532, 120.988
731.825, 125.951
733.119, 102.099
734.412, 99.906
735.705, 101.578
736.998, 72.373
738.291, 105.880
739.584, 137.613
740.876, 88.619
742.168, 83.241
743.460, 96.090
744.752, 28.619
746.043, 99.277
747.334, 109.029
748.626, 57.642
749.916, 118.921
751.207, 126.513
752.498, 146.946
753.788, 153.378
755.078, 99.672
756.368, 247.959
757.658, 156.534
758.947, 215.757
760.237, 102.953
761.526, 136.203
762.815, 172.358
764.104, 175.824
765.392, 148.125
766.680, 278.220
767.969, 188.296
769.257, 273.352
770.544, 224.619
771.832, 249.912
773.119, 252.908
774.406, 257.884
775.693, 299.840
776.980, 222.775
778.267, 226.856
779.553, 251.751
780.839, 194.875
782.125, 249.729
783.411, 268.639
784.697, 270.884
785.982, 288.317
787.267, 306.090
788.552, 316.954
789.837, 325.686
791.122, 325.493
792.406, 331.184
793.690, 306.854
794.974, 328.505
796.258, 327.134
797.542, 308.743
798.825, 356.341
800.108, 317.909
801.391, 312.456
802.674, 274.996
803.957, 349.502
805.239, 318.987
806.522, 251.354
807.804, 307.798
809.085, 223.221
810.367, 115.624
811.649, 235.005
812.930, 124.365
814.211, 196.704
815.492, 133.021
816.772, 124.309
818.053, 124.426
819.333, 119.680
820.613, 26.912
821.893, 85.952
823.173, 23.136
824.452, 130.294
825.732, 4.247
827.011, 39.500
828.290, 57.308
829.568, 52.101
830.847, 70.760
832.125, 64.569
833.403, 58.336
834.681, 43.212
835.959, 36.436
837.236, 19.562
838.514, 15.284
839.791, 20.363
841.068, 20.964
842.345, 12.709
843.621, 18.733
844.898, 27.320
846.174, 23.949
847.450, 40.425
848.726, 11.324
850.001, 28.839
851.277, 23.427
852.552, 45.446
853.827, 9.274
855.102, 28.967
856.376, 43.229
857.651, 5.808
858.925, 7.957
860.199, 5.901
861.473, 11.765
862.746, 7.440
864.020, 0.177
865.293, 7.077
866.566, 0.938
867.839, 7.792
869.112, 0.678
870.384, 7.474
871.656, 13.670
872.928, 24.094
874.200, 50.905
875.472, 39.474
876.744, 38.253
878.015, 20.541
879.286, 16.049
880.557, 41.731
881.828, 53.510
883.098, 41.327
884.369, 52.101
885.639, 42.125
886.909, 51.495
888.178, 23.915
889.448, 7.641
890.717, 7.945
891.987, 43.581
893.256, 0.781
894.524, 57.631
895.793, 6.002
897.061, 45.408
898.330, 6.514
899.598, 12.897
900.865, 36.698
902.133, 59.445
903.401, 34.830
904.668, 38.229
905.935, 62.681
907.202, 10.883
908.468, 71.343
909.735, 12.740
911.001, 27.881
912.267, 131.465
913.533, 73.619
914.799, 103.896
916.064, 11.199
917.330, 45.485
918.595, 226.755
919.860, 208.011
921.124, 126.254
922.389, 31.483
923.653, 19.697
924.918, 118.894
926.182, 120.078
927.445, 113.248
928.709, 91.406
929.972, 42.551
931.236, 92.681
932.499, 20.799
933.761, 79.901
935.024, 60.991
936.286, 61.068
937.549, 106.131
938.811, 134.184
940.073, 49.223
941.334, 120.250
942.596, 51.265
943.857, 112.267
945.118, 102.256
946.379, 85.234
947.640, 123.200
948.900, 87.155
950.161, 67.098
951.421, 73.586
952.681, 92.950
953.940, 63.860
955.200, 81.757
956.459, 87.644
957.719, 115.520
958.978, 167.386
960.236, 121.240
961.495, 171.084
962.753, 144.799
964.012, 167.623
965.270, 117.354
966.527, 138.156
967.785, 147.622
969.043, 100.607
970.300, 171.301
971.557, 191.967
972.814, 173.205
974.071, 204.712
975.327, 211.847
976.583, 198.522
977.840, 218.795
979.095, 127.083
980.351, 248.438
981.607, 254.765
982.862, 191.164
984.117, 257.530
985.372, 286.864
986.627, 286.142
987.882, 265.390
989.136, 310.501
990.390, 294.565
991.644, 327.795
992.898, 301.039
994.152, 337.150
995.405, 277.505
996.659, 363.360
997.912, 344.461
999.165, 308.803
1000.417, 372.700
1001.670, 267.987
1002.922, 299.291
1004.174, 318.170
1005.426, 211.335
1006.678, 359.677
1007.930, 259.077
1009.181, 309.180
1010.432, 275.489
1011.683, 236.934
1012.934, 344.016
1014.185, 289.377
1015.435, 250.222
1016.685, 299.396
1017.935, 284.307
1019.185, 298.720
1020.435, 303.067
1021.684, 315.638
1022.934, 327.673
1024.183, 306.004
1025.432, 383.729
1026.680, 359.182
1027.929, 303.725
1029.177, 362.394
1030.425, 297.702
1031.673, 325.120
1032.921, 349.764
1034.169, 322.610
1035.416, 378.667
1036.663, 323.104
1037.911, 324.604
1039.157, 345.223
1040.404, 311.548
1041.650, 330.209
1042.897, 428.701
1044.143, 315.822
1045.389, 325.394
1046.634, 354.777
1047.880, 280.328
1049.125, 342.721
1050.371, 309.144
1051.615, 400.206
1052.860, 322.839
1054.105, 253.387
1055.349, 314.951
1056.593, 278.636
1057.837, 284.441
1059.081, 322.170
1060.325, 325.664
1061.568, 379.489
1062.812, 302.323
1064.055, 283.082
1065.298, 377.918
1066.540, 271.423
1067.783, 226.076
1069.025, 266.917
1070.267, 253.760
1071.509, 301.603
1072.751, 280.216
1073.993, 263.788
1075.234, 299.636
1076.475, 305.485
1077.716, 263.542
1078.957, 311.393
1080.198, 266.086
1081.438, 323.946
1082.679, 325.557
1083.919, 380.416
1085.159, 408.202
1086.398, 388.173
1087.638, 376.163
1088.877, 390.026
1090.116, 387.919
1091.355, 397.785
1092.594, 452.555
1093.833, 398.420
1095.071, 502.287
1096.309, 458.153
1097.547, 464.101
1098.785, 488.968
1100.023, 484.884
1101.260, 525.843
1102.498, 510.712
1103.735, 511.569
1104.972, 516.440
1106.208, 491.340
1107.445, 526.287
1108.681, 520.161
1109.918, 528.104
1111.154, 518.038
1112.389, 516.917
1113.625, 467.795
1114.860, 559.733
1116.096, 575.617
1117.331, 531.491
1118.566, 594.205
1119.800, 630.972
1121.035, 643.213
1122.269, 557.418
1123.503, 598.240
1124.737, 600.220
1125.971, 628.451
1127.205, 572.360
1128.438, 524.588
1129.671, 569.502
1130.904, 600.577
1132.137, 613.578
1133.370, 615.327
1134.602, 571.540
1135.834, 570.616
1137.066, 578.626
1138.298, 518.771
1139.530, 600.939
1140.762, 509.301
1141.993, 530.362
1143.224, 626.494
1144.455, 459.771
1145.686, 538.123
1146.917, 549.182
1148.147, 584.259
1149.377, 509.326
1150.607, 536.217
1151.837, 519.444
1153.067, 536.858
1154.296, 527.167
1155.526, 500.546
1156.755, 536.492
1157.984, 459.714
1159.213, 588.030
1160.441, 571.392
1161.670, 472.473
1162.898, 584.561
1164.126, 540.616
1165.354, 493.503
1166.581, 482.738
1167.809, 479.283
1169.036, 475.485
1170.263, 463.819
1171.490, 493.208
1172.717, 483.124
1173.943, 493.339
1175.170, 458.764
1176.396, 455.123
1177.622, 530.650
1178.848, 469.155
1180.073, 487.549
1181.299, 388.103
1182.524, 503.485
1183.749, 492.057
1184.974, 380.552
1186.199, 423.881
1187.423, 408.342
1188.648, 354.049
1189.872, 431.517
1191.096, 417.407
1192.320, 386.637
1193.543, 336.814
1194.767, 317.057
1195.990, 302.884
1197.213, 307.700
1198.436, 282.457
1199.659, 261.185
1200.881, 223.660
1202.104, 216.112
1203.326, 200.014
1204.548, 210.053
1205.770, 176.351
1206.991, 197.224
1208.213, 183.385
1209.434, 172.498
1210.655, 160.916
1211.876, 121.158
1213.096, 118.352
1214.317, 71.661
1215.537, 111.655
1216.757, 210.057
1217.977, 117.275
1219.197, 176.350
1220.417, 95.608
1221.636, 167.563
1222.855, 133.749
1224.074, 5.088
1225.293, 188.018
1226.512, 77.883
1227.731, 103.012
1228.949, 144.125
1230.167, 68.026
1231.385, 82.951
1232.603, 16.836
1233.820, 31.535
1235.038, 91.402
1236.255, 29.580
1237.472, 109.460
1238.689, 83.519
1239.906, 107.425
1241.122, 96.264
1242.338, 102.086
1243.555, 48.183
1244.771, 92.985
1245.986, 54.783
1247.202, 47.708
1248.417, 104.679
1249.633, 98.468
1250.848, 113.354
1252.063, 65.304
1253.277, 55.261
1254.492, 90.150
1255.706, 57.922
1256.920, 61.104
1258.134, 76.867
1259.348, 82.683
1260.562, 64.005
1261.775, 77.752
1262.988, 74.504
1264.201, 75.229
1265.414, 78.078
1266.627, 77.975
1267.839, 77.692
1269.052, 73.403
1270.264, 29.288
1271.476, 5.961
1272.688, 149.666
1273.899, 10.310
1275.111, 98.060
1276.322, 49.809
1277.533, 68.391
1278.744, 84.960
1279.955, 64.519
1281.165, 54.067
1282.376, 70.597
1283.586, 40.283
1284.796, 35.621
1286.006, 0.102
1287.215, 63.539
1288.425, 47.957
1289.634, 16.359
1290.843, 5.714
1292.052, 75.019
1293.261, 71.311
1294.469, 76.046
1295.678, 72.181
1296.886, 38.993
1298.094, 6.152
1299.302, 77.715
1300.509, 11.380
1301.717, 39.540
1302.924, 46.507
1304.131, 25.536
1305.338, 16.542
1306.545, 84.532
1307.752, 84.507
1308.958, 7.547
1310.164, 4.620
1311.370, 51.290
1312.576, 2.178
1313.782, 60.048
1314.987, 28.902
1316.193, 19.742
1317.398, 19.438
1318.603, 62.652
1319.807, 19.772
1321.012, 34.279
1322.216, 10.721
1323.421, 13.487
1324.625, 27.188
1325.829, 27.134
1327.032, 33.503
1328.236, 74.881
1329.439, 18.693
1330.642, 6.755
1331.845, 23.771
1333.048, 4.273
1334.251, 24.247
1335.453, 46.796
1336.656, 72.618
1337.858, 82.988
1339.060, 68.360
1340.261, 74.689
1341.463, 26.999
1342.664, 4.289
1343.866, 11.441
1345.067, 39.195
1346.267, 129.020
1347.468, 47.783
1348.669, 42.381
1349.869, 49.527
1351.069, 13.344
1352.269, 79.760
1353.469, 91.848
1354.668, 26.916
1355.868, 57.967
1357.067, 67.999
1358.266, 39.015
1359.465, 1.013
1360.664, 25.992
1361.862, 55.954
1363.061, 88.901
1364.259, 3.166
1365.457, 129.748
1366.655, 57.649
1367.852, 29.536
1369.050, 156.203
1370.247, 12.822
1371.444, 64.020
1372.641, 65.923
1373.838, 134.744
1375.035, 107.556
1376.231, 124.360
1377.427, 6.976
1378.623, 156.639
1379.819, 42.583
1381.015, 110.211
1382.211, 65.977
1383.406, 100.741
1384.601, 114.337
1385.796, 148.013
1386.991, 48.460
1388.185, 146.612
1389.380, 208.649
1390.574, 86.638
1391.768, 75.702
1392.962, 150.643
1394.156, 95.601
1395.350, 80.549
1396.543, 78.480
1397.736, 94.430
1398.929, 241.339
1400.122, 39.227
1401.315, 147.838
1402.507, 110.359
1403.700, 28.871
1404.892, 174.443
1406.084, 124.130
1407.276, 10.665
1408.467, 141.926
1409.659, 87.041
1410.850, 133.165
1412.041, 193.312
1413.232, 86.778
1414.423, 138.140
1415.614, 103.650
1416.804, 109.998
1417.994, 82.774
1419.184, 81.664
1420.374, 123.643
1421.564, 149.607
1422.753, 129.023
1423.943, 147.443
1425.132, 182.951
1426.321, 154.282
1427.510, 201.265
1428.698, 181.536
1429.887, 172.747
1431.075, 176.102
1432.263, 157.627
1433.451, 136.487
1434.639, 119.013
1435.827, 123.780
1437.014, 118.727
1438.201, 130.027
1439.388, 115.331
1440.575, 108.864
1441.762, 118.064
1442.949, 97.585
1444.135, 111.604
1445.321, 128.230
1446.507, 104.308
1447.693, 132.057
1448.879, 83.742
1450.064, 125.104
1451.250, 165.263
1452.435, 97.833
1453.620, 181.681
1454.805, 131.013
1455.989, 176.167
1457.174, 169.386
1458.358, 110.082
1459.542, 138.195
1460.726, 205.535
1461.910, 49.677
1463.093, 121.526
1464.277, 210.206
1465.460, 54.496
1466.643, 132.448
1467.826, 75.133
1469.009, 145.399
1470.191, 134.688
1471.373, 98.269
1472.556, 86.351
1473.738, 213.745
1474.919, 86.551
1476.101, 176.041
1477.283, 144.446
1478.464, 118.412
1479.645, 159.058
1480.826, 95.542
1482.007, 158.037
1483.187, 161.771
1484.368, 108.555
1485.548, 130.531
1486.728, 188.539
1487.908, 130.531
1489.088, 63.551
1490.268, 115.560
1491.447, 95.640
1492.626, 133.695
1493.805, 133.751
1494.984, 104.774
1496.163, 141.458
1497.341, 55.449
1498.520, 44.256
1499.698, 183.371
1500.876, 85.583
1502.054, 138.867
1503.232, 84.249
1504.409, 72.711
1505.586, 79.274
1506.763, 164.934
1507.940, 146.671
1509.117, 125.029
1510.294, 131.209
1511.470, 17.355
1512.647, 99.448
1513.823, 28.703
1514.999, 55.146
1516.174, 164.777
1517.350, 60.609
1518.526, 97.667
1519.701, 163.983
1520.876, 8.200
1522.051, 61.192
1523.226, 109.029
1524.400, 90.143
1525.574, 89.182
1526.749, 7.722
1527.923, 31.965
1529.097, 0.000
##END=



