##NAMES=Stellerite
##RRUFFID=R040174
##IDEAL CHEMISTRY=Ca_4_(Si_28_Al_8_)O_72_&#183;28H_2_O
##LOCALITY=unknown
##OWNER=RRUFF
##SOURCE=University of Arizona Mineral Museum
##DESCRIPTION=Parallel aggregates of thin tabular brown crystals
##STATUS=The identification of this mineral has been confirmed by X-ray diffraction and chemical analysis
##URL=rruff.info/R040174
##MEASURED CHEMISTRY=(Ca_3.89_Na_0.06_K_0.05_)_Σ=4_(Si_28.11_Al_7.89_)O_72_·15.18H_2_O; H_2_O estimated by difference
##PIN_ID=M00484
##ORIENTATION=Laser parallel to a* (1 0 0). Fiducial mark perpendicular to laser is parallel to b [0 1 0]
203.470, 0.000
204.846, 98.367
206.221, 2.641
207.597, 75.582
208.972, 227.949
210.347, 271.729
211.722, 384.398
213.097, 507.173
214.472, 608.275
215.846, 682.276
217.220, 797.852
218.594, 921.334
219.967, 1016.874
221.341, 1219.674
222.714, 1248.081
224.087, 1383.073
225.460, 1495.859
226.832, 1518.155
228.204, 1575.354
229.577, 1725.587
230.948, 1655.961
232.320, 1651.209
233.692, 1719.801
235.063, 1590.579
236.434, 1582.331
237.805, 1452.281
239.175, 1300.469
240.545, 1079.678
241.916, 1003.246
243.286, 841.666
244.655, 719.203
246.025, 607.529
247.394, 535.773
248.763, 448.622
250.132, 376.600
251.501, 345.240
252.869, 191.033
254.237, 231.423
255.605, 138.482
256.973, 177.834
258.340, 15.041
259.708, 23.836
261.075, 97.448
262.442, 1.740
263.808, 59.118
265.175, 21.737
266.541, 49.132
267.907, 19.969
269.273, 111.888
270.639, 109.190
272.004, 23.168
273.369, 183.376
274.734, 303.277
276.099, 536.166
277.463, 183.044
278.828, 184.908
280.192, 163.757
281.556, 173.593
282.919, 181.415
284.283, 163.242
285.646, 73.146
287.009, 45.240
288.372, 102.517
289.734, 18.038
291.097, 86.601
292.459, 8.453
293.821, 57.161
295.183, 50.376
296.544, 47.118
297.905, 57.044
299.266, 12.143
300.627, 0.201
301.988, 46.746
303.348, 10.682
304.709, 9.610
306.069, 163.523
307.428, 112.409
308.788, 180.263
310.147, 198.119
311.507, 173.148
312.865, 205.458
314.224, 155.937
315.583, 161.211
316.941, 184.319
318.299, 122.307
319.657, 102.221
321.015, 164.074
322.372, 164.889
323.729, 244.652
325.086, 193.367
326.443, 182.030
327.800, 135.628
329.156, 101.137
330.512, 223.538
331.868, 165.850
333.224, 179.040
334.579, 297.148
335.935, 262.190
337.290, 258.184
338.645, 220.142
339.999, 338.066
341.354, 305.954
342.708, 309.805
344.062, 385.617
345.416, 339.395
346.769, 389.142
348.123, 400.852
349.476, 426.528
350.829, 475.174
352.182, 459.796
353.534, 493.397
354.887, 470.983
356.239, 548.556
357.591, 630.115
358.942, 590.662
360.294, 719.197
361.645, 679.722
362.996, 852.701
364.347, 804.635
365.698, 900.938
367.048, 1010.590
368.398, 1232.533
369.748, 1290.688
371.098, 1469.153
372.448, 1563.498
373.797, 1740.116
375.146, 1894.828
376.495, 1970.558
377.844, 2107.211
379.192, 2357.511
380.540, 2508.486
381.889, 2652.940
383.236, 2983.920
384.584, 3393.149
385.932, 3659.376
387.279, 3737.590
388.626, 4184.462
389.973, 4357.642
391.319, 4890.641
392.666, 5213.322
394.012, 5617.061
395.358, 6309.083
396.704, 6880.728
398.049, 7451.893
399.394, 7832.705
400.740, 8333.410
402.084, 8883.888
403.429, 9214.734
404.774, 9185.441
406.118, 9515.967
407.462, 8935.969
408.806, 8825.890
410.150, 8365.848
411.493, 7865.657
412.836, 7385.176
414.179, 6944.343
415.522, 6464.219
416.865, 5861.160
418.207, 5528.907
419.549, 4996.828
420.891, 4482.226
422.233, 4258.016
423.575, 3786.552
424.916, 3591.339
426.257, 3332.344
427.598, 3099.728
428.939, 2889.984
430.279, 2652.304
431.619, 2488.012
432.959, 2265.237
434.299, 2130.200
435.639, 2054.916
436.978, 1901.127
438.318, 1942.560
439.657, 1750.255
440.996, 1864.949
442.334, 1648.547
443.673, 1749.178
445.011, 1838.833
446.349, 1781.404
447.687, 2059.308
449.024, 2065.862
450.361, 2218.001
451.699, 2339.212
453.036, 2332.203
454.372, 2549.048
455.709, 2527.839
457.045, 2613.417
458.381, 2487.938
459.717, 2458.715
461.053, 2319.299
462.388, 2187.621
463.724, 2155.058
465.059, 1997.858
466.394, 1764.611
467.728, 1667.876
469.063, 1467.843
470.397, 1433.129
471.731, 1380.467
473.065, 1368.677
474.398, 1372.998
475.732, 1319.088
477.065, 1436.181
478.398, 1533.349
479.731, 1691.238
481.063, 1915.947
482.396, 2058.972
483.728, 2560.981
485.060, 2863.306
486.391, 3366.396
487.723, 4041.420
489.054, 4628.231
490.385, 5274.823
491.716, 5651.965
493.047, 6018.849
494.377, 5925.771
495.708, 5663.171
497.038, 5070.571
498.368, 4387.900
499.697, 3765.333
501.027, 3112.126
502.356, 2522.852
503.685, 2065.775
505.014, 1588.501
506.342, 1436.285
507.671, 1219.083
508.999, 975.940
510.327, 791.835
511.655, 678.677
512.982, 735.691
514.310, 535.527
515.637, 614.555
516.964, 332.401
518.291, 237.420
519.617, 236.092
520.944, 134.900
522.270, 105.517
523.596, 85.425
524.921, 57.387
526.247, 98.000
527.572, 74.854
528.897, 31.572
530.222, 76.533
531.547, 45.283
532.871, 90.834
534.196, 43.712
535.520, 23.741
536.844, 62.105
538.167, 58.917
539.491, 135.973
540.814, 114.883
542.137, 78.785
543.460, 85.956
544.783, 41.027
546.105, 75.376
547.427, 56.577
548.749, 3.773
550.071, 4.238
551.393, 19.653
552.714, 19.082
554.035, 19.485
555.356, 22.348
556.677, 59.582
557.998, 97.391
559.318, 91.483
560.638, 128.568
561.958, 33.449
563.278, 42.523
564.597, 70.293
565.917, 177.113
567.236, 177.060
568.555, 138.541
569.874, 131.235
571.192, 182.756
572.511, 199.365
573.829, 208.043
575.147, 214.504
576.464, 234.338
577.782, 287.846
579.099, 305.203
580.416, 365.749
581.733, 404.057
583.050, 340.446
584.366, 392.043
585.683, 373.366
586.999, 331.841
588.315, 353.443
589.630, 348.954
590.946, 261.396
592.261, 281.651
593.576, 266.251
594.891, 308.654
596.206, 256.243
597.520, 311.633
598.834, 271.781
600.148, 281.125
601.462, 370.325
602.776, 379.495
604.089, 416.580
605.402, 465.673
606.715, 488.783
608.028, 566.786
609.341, 603.766
610.653, 658.908
611.965, 621.854
613.277, 697.787
614.589, 689.718
615.901, 765.653
617.212, 730.542
618.523, 739.429
619.834, 811.301
621.145, 782.157
622.456, 788.992
623.766, 817.806
625.076, 651.602
626.386, 767.371
627.696, 644.114
629.006, 650.831
630.315, 675.519
631.624, 591.182
632.933, 598.487
634.242, 586.427
635.551, 542.009
636.859, 541.563
638.167, 520.090
639.475, 454.592
640.783, 463.065
642.090, 450.511
643.398, 371.928
644.705, 309.316
646.012, 339.677
647.318, 319.010
648.625, 312.316
649.931, 297.595
651.237, 264.845
652.543, 248.066
653.849, 207.256
655.155, 216.415
656.460, 148.542
657.765, 162.636
659.070, 156.258
660.375, 108.760
661.679, 163.749
662.984, 144.719
664.288, 137.086
665.592, 118.635
666.895, 105.118
668.199, 113.499
669.502, 67.922
670.805, 113.118
672.108, 48.445
673.411, 94.861
674.713, 48.718
676.016, 126.815
677.318, 89.596
678.620, 130.057
679.921, 56.445
681.223, 77.560
682.524, 73.646
683.825, 58.109
685.126, 78.250
686.427, 17.835
687.727, 45.581
689.028, 90.120
690.328, 62.623
691.628, 134.317
692.927, 160.479
694.227, 127.444
695.526, 162.867
696.825, 89.522
698.124, 53.574
699.423, 92.908
700.721, 40.519
702.020, 87.063
703.318, 27.339
704.616, 111.728
705.913, 72.729
707.211, 76.584
708.508, 105.897
709.805, 76.936
711.102, 132.180
712.399, 85.080
713.695, 181.152
714.992, 110.638
716.288, 103.913
717.584, 150.444
718.879, 99.747
720.175, 169.961
721.470, 155.119
722.765, 119.925
724.060, 228.450
725.355, 166.509
726.649, 207.576
727.944, 178.790
729.238, 164.942
730.532, 210.335
731.825, 120.727
733.119, 197.121
734.412, 227.544
735.705, 179.011
736.998, 245.387
738.291, 216.756
739.584, 164.136
740.876, 249.503
742.168, 194.047
743.460, 159.211
744.752, 179.343
746.043, 190.517
747.334, 244.422
748.626, 144.032
749.916, 185.231
751.207, 134.046
752.498, 175.241
753.788, 259.334
755.078, 176.448
756.368, 205.181
757.658, 208.233
758.947, 225.643
760.237, 217.063
761.526, 207.653
762.815, 230.066
764.104, 263.347
765.392, 184.950
766.680, 255.328
767.969, 279.479
769.257, 370.796
770.544, 218.125
771.832, 294.384
773.119, 339.560
774.406, 315.525
775.693, 401.568
776.980, 431.804
778.267, 370.645
779.553, 455.656
780.839, 343.383
782.125, 388.326
783.411, 491.072
784.697, 415.696
785.982, 480.593
787.267, 462.564
788.552, 509.167
789.837, 519.655
791.122, 438.109
792.406, 515.528
793.690, 514.991
794.974, 495.412
796.258, 527.729
797.542, 442.013
798.825, 468.263
800.108, 543.479
801.391, 477.796
802.674, 490.147
803.957, 558.263
805.239, 469.343
806.522, 485.392
807.804, 404.406
809.085, 349.224
810.367, 252.048
811.649, 243.570
812.930, 195.093
814.211, 221.570
815.492, 215.817
816.772, 198.262
818.053, 94.597
819.333, 41.863
820.613, 48.016
821.893, 63.076
823.173, 43.136
824.452, 87.968
825.732, 46.955
827.011, 15.635
828.290, 139.473
829.568, 18.085
830.847, 82.989
832.125, 48.703
833.403, 5.445
834.681, 63.053
835.959, 5.392
837.236, 89.155
838.514, 16.679
839.791, 76.499
841.068, 92.407
842.345, 65.703
843.621, 1.157
844.898, 22.253
846.174, 49.117
847.450, 49.521
848.726, 0.471
850.001, 36.887
851.277, 11.041
852.552, 9.924
853.827, 56.275
855.102, 21.274
856.376, 7.536
857.651, 50.404
858.925, 24.702
860.199, 23.189
861.473, 29.114
862.746, 45.970
864.020, 2.995
865.293, 47.161
866.566, 23.895
867.839, 44.600
869.112, 22.332
870.384, 44.792
871.656, 32.789
872.928, 47.054
874.200, 45.093
875.472, 17.259
876.744, 4.381
878.015, 9.575
879.286, 58.808
880.557, 53.055
881.828, 73.229
883.098, 18.342
884.369, 45.924
885.639, 29.631
886.909, 44.928
888.178, 25.588
889.448, 38.017
890.717, 30.642
891.987, 19.047
893.256, 12.461
894.524, 2.000
895.793, 42.354
897.061, 40.535
898.330, 20.775
899.598, 74.037
900.865, 8.564
902.133, 0.555
903.401, 68.600
904.668, 3.482
905.935, 1.421
907.202, 23.168
908.468, 49.831
909.735, 24.073
911.001, 31.005
912.267, 96.092
913.533, 46.132
914.799, 79.110
916.064, 101.149
917.330, 15.167
918.595, 58.986
919.860, 103.955
921.124, 54.902
922.389, 42.827
923.653, 49.704
924.918, 60.583
926.182, 101.440
927.445, 73.277
928.709, 18.092
929.972, 102.885
931.236, 52.658
932.499, 140.410
933.761, 50.143
935.024, 87.854
936.286, 120.546
937.549, 33.220
938.811, 5.873
940.073, 84.503
941.334, 122.116
942.596, 101.710
943.857, 136.287
945.118, 80.846
946.379, 81.387
947.640, 171.910
948.900, 120.417
950.161, 99.906
951.421, 135.378
952.681, 59.835
953.940, 42.273
955.200, 181.694
956.459, 115.099
957.719, 146.488
958.978, 180.861
960.236, 221.219
961.495, 172.561
962.753, 206.889
964.012, 205.204
965.270, 220.468
966.527, 228.756
967.785, 194.034
969.043, 204.282
970.300, 218.087
971.557, 212.662
972.814, 256.254
974.071, 254.906
975.327, 254.464
976.583, 229.204
977.840, 388.764
979.095, 326.186
980.351, 351.120
981.607, 393.540
982.862, 355.224
984.117, 383.759
985.372, 361.199
986.627, 410.782
987.882, 387.230
989.136, 386.423
990.390, 435.797
991.644, 495.416
992.898, 443.100
994.152, 454.791
995.405, 421.686
996.659, 505.130
997.912, 511.898
999.165, 487.396
1000.417, 558.295
1001.670, 531.736
1002.922, 532.081
1004.174, 550.371
1005.426, 496.902
1006.678, 626.284
1007.930, 489.750
1009.181, 540.251
1010.432, 589.643
1011.683, 560.147
1012.934, 607.302
1014.185, 605.420
1015.435, 629.586
1016.685, 637.208
1017.935, 632.649
1019.185, 590.918
1020.435, 626.337
1021.684, 513.622
1022.934, 664.679
1024.183, 644.859
1025.432, 613.195
1026.680, 702.300
1027.929, 628.666
1029.177, 657.310
1030.425, 660.897
1031.673, 633.524
1032.921, 650.251
1034.169, 627.739
1035.416, 683.224
1036.663, 600.762
1037.911, 639.380
1039.157, 681.929
1040.404, 670.535
1041.650, 620.113
1042.897, 653.647
1044.143, 629.168
1045.389, 669.479
1046.634, 614.146
1047.880, 636.816
1049.125, 602.408
1050.371, 577.228
1051.615, 575.320
1052.860, 562.793
1054.105, 569.625
1055.349, 540.606
1056.593, 597.512
1057.837, 515.949
1059.081, 553.733
1060.325, 614.166
1061.568, 552.206
1062.812, 585.202
1064.055, 561.995
1065.298, 557.931
1066.540, 554.582
1067.783, 499.674
1069.025, 552.573
1070.267, 558.666
1071.509, 609.567
1072.751, 509.423
1073.993, 571.312
1075.234, 660.254
1076.475, 523.377
1077.716, 630.396
1078.957, 662.194
1080.198, 642.354
1081.438, 797.309
1082.679, 690.515
1083.919, 713.471
1085.159, 759.591
1086.398, 756.799
1087.638, 776.704
1088.877, 930.500
1090.116, 891.631
1091.355, 902.846
1092.594, 979.062
1093.833, 935.299
1095.071, 998.440
1096.309, 1002.592
1097.547, 1005.907
1098.785, 1110.130
1100.023, 1140.355
1101.260, 1153.755
1102.498, 1194.485
1103.735, 1151.926
1104.972, 1229.156
1106.208, 1195.386
1107.445, 1234.618
1108.681, 1270.852
1109.918, 1243.086
1111.154, 1308.447
1112.389, 1268.685
1113.625, 1231.073
1114.860, 1344.482
1116.096, 1335.018
1117.331, 1283.022
1118.566, 1365.673
1119.800, 1415.766
1121.035, 1435.007
1122.269, 1331.283
1123.503, 1386.332
1124.737, 1377.489
1125.971, 1400.295
1127.205, 1387.672
1128.438, 1292.065
1129.671, 1318.535
1130.904, 1315.974
1132.137, 1324.408
1133.370, 1354.790
1134.602, 1263.214
1135.834, 1315.521
1137.066, 1298.902
1138.298, 1364.354
1139.530, 1220.705
1140.762, 1244.271
1141.993, 1204.692
1143.224, 1234.699
1144.455, 1230.980
1145.686, 1328.673
1146.917, 1200.279
1148.147, 1155.701
1149.377, 1207.686
1150.607, 1326.451
1151.837, 1364.167
1153.067, 1290.941
1154.296, 1260.717
1155.526, 1123.377
1156.755, 1170.179
1157.984, 1158.861
1159.213, 1209.354
1160.441, 1204.159
1161.670, 1146.720
1162.898, 1173.509
1164.126, 1215.044
1165.354, 1156.929
1166.581, 1163.010
1167.809, 1143.022
1169.036, 1114.844
1170.263, 1126.866
1171.490, 1115.468
1172.717, 982.351
1173.943, 1117.182
1175.170, 945.164
1176.396, 1071.779
1177.622, 934.233
1178.848, 903.791
1180.073, 888.157
1181.299, 858.039
1182.524, 826.102
1183.749, 845.648
1184.974, 757.887
1186.199, 809.901
1187.423, 776.989
1188.648, 728.027
1189.872, 733.104
1191.096, 676.473
1192.320, 702.411
1193.543, 627.596
1194.767, 632.617
1195.990, 588.562
1197.213, 539.533
1198.436, 552.597
1199.659, 578.078
1200.881, 458.789
1202.104, 485.392
1203.326, 484.127
1204.548, 389.840
1205.770, 335.653
1206.991, 362.133
1208.213, 278.823
1209.434, 324.729
1210.655, 245.729
1211.876, 212.458
1213.096, 242.679
1214.317, 162.817
1215.537, 282.962
1216.757, 230.721
1217.977, 178.571
1219.197, 244.118
1220.417, 155.721
1221.636, 195.615
1222.855, 90.264
1224.074, 187.039
1225.293, 234.426
1226.512, 234.249
1227.731, 49.354
1228.949, 99.773
1230.167, 124.302
1231.385, 138.073
1232.603, 217.536
1233.820, 68.692
1235.038, 244.142
1236.255, 54.798
1237.472, 105.580
1238.689, 67.113
1239.906, 51.748
1241.122, 118.374
1242.338, 97.166
1243.555, 36.773
1244.771, 126.263
1245.986, 76.693
1247.202, 79.211
1248.417, 125.572
1249.633, 9.038
1250.848, 122.395
1252.063, 129.955
1253.277, 74.306
1254.492, 86.738
1255.706, 74.082
1256.920, 39.528
1258.134, 85.859
1259.348, 35.187
1260.562, 31.509
1261.775, 3.064
1262.988, 111.375
1264.201, 133.745
1265.414, 44.047
1266.627, 30.344
1267.839, 17.365
1269.052, 75.904
1270.264, 66.167
1271.476, 69.476
1272.688, 56.706
1273.899, 55.014
1275.111, 38.227
1276.322, 47.415
1277.533, 50.390
1278.744, 64.721
1279.955, 58.362
1281.165, 94.458
1282.376, 73.154
1283.586, 64.537
1284.796, 101.863
1286.006, 40.850
1287.215, 76.922
1288.425, 46.097
1289.634, 34.009
1290.843, 24.917
1292.052, 50.755
1293.261, 99.551
1294.469, 3.668
1295.678, 47.924
1296.886, 30.926
1298.094, 19.596
1299.302, 20.245
1300.509, 48.878
1301.717, 17.495
1302.924, 47.300
1304.131, 93.832
1305.338, 44.667
1306.545, 40.197
1307.752, 42.221
1308.958, 23.389
1310.164, 28.027
1311.370, 14.692
1312.576, 4.613
1313.782, 36.875
1314.987, 11.860
1316.193, 4.622
1317.398, 56.328
1318.603, 7.153
1319.807, 41.004
1321.012, 18.889
1322.216, 47.803
1323.421, 1.087
1324.625, 2.271
1325.829, 50.271
1327.032, 61.246
1328.236, 18.801
1329.439, 8.119
1330.642, 21.986
1331.845, 17.875
1333.048, 23.710
1334.251, 19.519
1335.453, 26.703
1336.656, 41.039
1337.858, 39.247
1339.060, 4.573
1340.261, 38.069
1341.463, 32.687
1342.664, 4.721
1343.866, 11.157
1345.067, 14.624
1346.267, 125.877
1347.468, 30.646
1348.669, 89.798
1349.869, 66.220
1351.069, 6.622
1352.269, 94.983
1353.469, 44.322
1354.668, 29.639
1355.868, 83.933
1357.067, 15.206
1358.266, 83.545
1359.465, 18.655
1360.664, 70.832
1361.862, 15.013
1363.061, 143.113
1364.259, 103.219
1365.457, 37.306
1366.655, 3.374
1367.852, 8.583
1369.050, 0.542
1370.247, 83.430
1371.444, 61.407
1372.641, 81.369
1373.838, 106.315
1375.035, 46.248
1376.231, 123.167
1377.427, 18.017
1378.623, 174.913
1379.819, 67.800
1381.015, 41.681
1382.211, 92.558
1383.406, 66.433
1384.601, 66.183
1385.796, 59.929
1386.991, 39.633
1388.185, 91.222
1389.380, 102.919
1390.574, 82.451
1391.768, 151.731
1392.962, 95.223
1394.156, 151.696
1395.350, 73.020
1396.543, 123.294
1397.736, 103.215
1398.929, 126.601
1400.122, 99.611
1401.315, 156.074
1402.507, 139.273
1403.700, 171.319
1404.892, 71.199
1406.084, 155.172
1407.276, 114.246
1408.467, 150.237
1409.659, 133.156
1410.850, 157.988
1412.041, 232.998
1413.232, 130.841
1414.423, 111.164
1415.614, 188.388
1416.804, 108.661
1417.994, 171.863
1419.184, 157.495
1420.374, 143.061
1421.564, 118.070
1422.753, 35.441
1423.943, 134.281
1425.132, 184.275
1426.321, 193.445
1427.510, 34.500
1428.698, 95.801
1429.887, 72.732
1431.075, 42.894
1432.263, 132.594
1433.451, 84.173
1434.639, 106.748
1435.827, 138.359
1437.014, 109.195
1438.201, 190.959
1439.388, 48.452
1440.575, 136.044
1441.762, 80.881
1442.949, 109.764
1444.135, 119.363
1445.321, 14.941
1446.507, 142.911
1447.693, 111.237
1448.879, 122.640
1450.064, 82.264
1451.250, 188.419
1452.435, 104.614
1453.620, 169.826
1454.805, 86.326
1455.989, 9.350
1457.174, 146.453
1458.358, 142.221
1459.542, 31.566
1460.726, 207.709
1461.910, 160.797
1463.093, 92.858
1464.277, 206.584
1465.460, 71.438
1466.643, 112.123
1467.826, 87.920
1469.009, 203.048
1470.191, 140.420
1471.373, 134.793
1472.556, 128.080
1473.738, 140.143
1474.919, 121.555
1476.101, 87.097
1477.283, 114.797
1478.464, 53.890
1479.645, 91.201
1480.826, 148.034
1482.007, 238.560
1483.187, 184.625
1484.368, 107.976
1485.548, 96.938
1486.728, 102.420
1487.908, 57.838
1489.088, 78.657
1490.268, 67.380
1491.447, 60.191
1492.626, 73.033
1493.805, 145.166
1494.984, 162.865
1496.163, 131.225
1497.341, 164.873
1498.520, 56.502
1499.698, 203.114
1500.876, 46.742
1502.054, 59.386
1503.232, 96.075
1504.409, 84.850
1505.586, 47.734
1506.763, 120.734
1507.940, 73.828
1509.117, 63.010
1510.294, 147.282
1511.470, 82.632
1512.647, 72.158
1513.823, 91.923
1514.999, 58.845
1516.174, 92.953
1517.350, 69.287
1518.526, 14.117
1519.701, 158.773
1520.876, 15.013
1522.051, 79.683
1523.226, 124.853
1524.400, 103.640
1525.574, 111.942
1526.749, 90.652
1527.923, 68.770
1529.097, 69.524
1530.270, 0.000
##END=



