##NAMES=Stellerite
##RRUFFID=R040174
##IDEAL CHEMISTRY=Ca_4_(Si_28_Al_8_)O_72_&#183;28H_2_O
##LOCALITY=unknown
##OWNER=RRUFF
##SOURCE=University of Arizona Mineral Museum
##DESCRIPTION=Parallel aggregates of thin tabular brown crystals
##STATUS=The identification of this mineral has been confirmed by X-ray diffraction and chemical analysis
##URL=rruff.info/R040174
##MEASURED CHEMISTRY=(Ca_3.89_Na_0.06_K_0.05_)_Σ=4_(Si_28.11_Al_7.89_)O_72_·15.18H_2_O; H_2_O estimated by difference
##PIN_ID=M00319
##ORIENTATION=Laser parallel to c* (0 0 1). Fiducial mark perpendicular to laser is parallel to -b [0 -1 0]
83.453, 0.000
84.865, 3.008
86.276, 21.299
87.687, 167.725
89.098, 234.336
90.508, 637.494
91.918, 1173.830
93.328, 1766.346
94.738, 2350.064
96.147, 2659.725
97.556, 3181.027
98.964, 3061.820
100.373, 3452.715
101.781, 3684.479
103.188, 4085.779
104.596, 4183.771
106.003, 4345.402
107.410, 4978.389
108.817, 5341.254
110.223, 6064.098
111.629, 6227.637
113.035, 7263.811
114.440, 8106.738
115.845, 8700.305
117.250, 9045.711
118.655, 9879.742
120.059, 11418.270
121.463, 11171.994
122.867, 11507.062
124.270, 11096.898
125.673, 10880.775
127.076, 10516.961
128.479, 9925.730
129.881, 10277.652
131.283, 9463.414
132.685, 9443.607
134.086, 8920.594
135.487, 8623.127
136.888, 8246.906
138.288, 7726.092
139.689, 7568.824
141.089, 7141.799
142.488, 7251.223
143.888, 6761.566
145.287, 6586.229
146.686, 6665.416
148.084, 6546.014
149.482, 6811.520
150.880, 6607.344
152.278, 6901.262
153.675, 6583.859
155.072, 6869.641
156.469, 6897.180
157.866, 6576.316
159.262, 6748.461
160.658, 6083.281
162.054, 6178.160
163.449, 5811.242
164.844, 5589.227
166.239, 5337.365
167.633, 4805.958
169.028, 4810.416
170.422, 4239.457
171.815, 4186.545
173.209, 3871.456
174.602, 3549.296
175.994, 3493.489
177.387, 2950.525
178.779, 2888.178
180.171, 2516.396
181.563, 2565.131
182.954, 2194.340
184.345, 1983.975
185.736, 1753.984
187.127, 1564.318
188.517, 1554.932
189.907, 1275.783
191.296, 1286.837
192.686, 898.061
194.075, 849.428
195.464, 870.909
196.852, 422.475
198.240, 464.084
199.628, 235.685
201.016, 407.229
202.403, 38.661
203.790, 39.946
205.177, 121.048
206.564, 218.047
207.950, 57.351
209.336, 336.865
210.722, 306.582
212.107, 166.500
213.492, 354.531
214.877, 346.912
216.262, 517.399
217.646, 328.070
219.030, 428.949
220.414, 220.056
221.797, 251.416
223.180, 323.057
224.563, 155.047
225.946, 367.440
227.328, 220.355
228.710, 303.869
230.092, 338.163
231.473, 113.346
232.854, 169.413
234.235, 3.533
235.616, 114.367
236.996, 42.967
238.376, 37.814
239.756, 12.021
241.135, 187.510
242.514, 226.564
243.893, 415.201
245.272, 383.511
246.650, 451.600
248.028, 739.573
249.406, 727.478
250.783, 1092.066
252.161, 947.442
253.538, 1324.659
254.914, 1442.995
256.291, 1581.934
257.667, 1761.254
259.043, 1620.785
260.418, 2060.408
261.793, 1980.024
263.168, 2449.539
264.543, 2528.922
265.917, 2768.095
267.291, 3147.019
268.665, 3065.630
270.039, 3573.883
271.412, 3681.751
272.785, 4039.200
274.158, 4436.230
275.530, 4712.834
276.902, 5269.004
278.274, 5094.740
279.646, 5610.028
281.017, 5494.834
282.388, 5899.109
283.759, 6012.802
285.130, 5955.874
286.500, 6098.303
287.870, 5700.082
289.239, 5731.223
290.609, 5681.745
291.978, 5321.686
293.347, 5361.074
294.715, 4769.943
296.083, 4908.322
297.451, 4476.236
298.819, 4333.711
300.186, 4160.756
301.554, 3837.351
302.920, 3873.488
304.287, 3529.146
305.653, 3394.306
307.019, 3258.882
308.385, 3092.841
309.751, 3245.996
311.116, 2888.248
312.481, 3079.449
313.845, 2809.596
315.210, 2908.580
316.574, 2886.363
317.937, 2773.122
319.301, 2978.945
320.664, 2693.903
322.027, 2928.034
323.390, 2761.412
324.752, 2974.236
326.114, 2926.539
327.476, 2758.447
328.838, 2940.109
330.199, 2801.592
331.560, 3022.940
332.921, 2774.194
334.281, 2825.371
335.642, 2866.495
337.002, 2597.573
338.361, 2738.616
339.721, 2689.620
341.080, 2670.581
342.438, 2581.499
343.797, 2632.368
345.155, 2783.190
346.513, 2433.961
347.871, 2594.679
349.228, 2764.777
350.586, 2603.881
351.942, 2972.158
353.299, 2770.362
354.655, 3067.357
356.011, 2984.361
357.367, 3188.967
358.723, 3483.145
360.078, 3417.487
361.433, 3826.936
362.788, 3807.065
364.142, 4122.840
365.496, 4342.083
366.850, 4470.887
368.204, 4999.855
369.557, 4982.457
370.910, 5505.568
372.263, 5668.866
373.615, 6204.737
374.967, 6652.609
376.319, 6999.725
377.671, 7824.781
379.022, 7961.379
380.374, 8697.157
381.724, 9275.325
383.075, 10048.611
384.425, 10723.632
385.775, 11359.301
387.125, 12490.308
388.474, 13033.961
389.824, 14365.320
391.173, 15624.855
392.521, 16310.201
393.870, 18470.844
395.218, 19623.947
396.566, 21793.713
397.913, 23423.934
399.260, 25476.998
400.607, 28594.383
401.954, 30286.971
403.301, 33886.508
404.647, 36263.816
405.993, 38802.895
407.338, 41704.492
408.684, 43246.297
410.029, 46099.500
411.374, 45714.848
412.718, 46534.297
414.063, 45982.898
415.407, 43509.504
416.750, 42858.625
418.094, 39670.621
419.437, 38064.434
420.780, 34665.961
422.123, 32448.906
423.465, 30603.619
424.807, 27184.188
426.149, 26330.801
427.491, 23500.881
428.832, 22072.764
430.173, 20561.922
431.514, 18541.182
432.854, 17951.307
434.194, 16238.909
435.534, 15617.472
436.874, 14514.759
438.213, 13451.806
439.552, 13239.050
440.891, 12175.686
442.230, 11882.207
443.568, 11458.620
444.906, 10994.920
446.244, 10971.120
447.582, 10447.207
448.919, 10763.194
450.256, 10309.083
451.592, 10574.872
452.929, 10910.573
454.265, 10676.179
455.601, 11621.693
456.937, 11527.121
458.272, 12172.463
459.607, 12467.724
460.942, 12222.900
462.276, 13138.001
463.611, 12593.021
464.945, 12907.960
466.278, 12332.830
467.612, 11747.623
468.945, 11232.351
470.278, 10157.011
471.611, 9691.604
472.943, 8926.138
474.275, 8330.616
475.607, 8015.043
476.939, 7149.424
478.270, 6923.764
479.601, 6418.065
480.932, 6662.336
482.262, 6716.576
483.592, 7180.789
484.922, 7604.980
486.252, 7519.152
487.582, 8673.305
488.911, 9387.441
490.240, 10421.562
491.568, 12685.665
492.897, 13709.756
494.225, 16603.832
495.553, 18957.893
496.880, 21351.943
498.207, 23505.980
499.534, 24280.000
500.861, 24403.404
502.188, 23808.305
503.514, 21992.281
504.840, 19626.867
506.166, 16221.407
507.491, 14185.772
508.816, 11280.612
510.141, 9415.116
511.466, 7730.350
512.790, 6185.828
514.114, 5300.777
515.438, 4045.816
516.761, 3620.740
518.085, 2905.738
519.408, 2422.846
520.731, 2150.388
522.053, 1647.251
523.375, 1482.422
524.697, 1200.868
526.019, 1107.621
527.340, 976.518
528.662, 706.318
529.982, 775.919
531.303, 555.269
532.623, 527.738
533.944, 436.954
535.263, 285.999
536.583, 432.582
537.902, 129.643
539.221, 176.346
540.540, 73.574
541.859, 46.591
543.177, 100.907
544.495, 79.113
545.812, 71.233
547.130, 123.562
548.447, 145.215
549.764, 117.488
551.081, 139.521
552.397, 71.703
553.713, 3.598
555.029, 4.970
556.345, 103.172
557.660, 91.424
558.975, 179.544
560.290, 158.037
561.604, 236.082
562.919, 244.137
564.233, 52.396
565.546, 140.515
566.860, 28.802
568.173, 12.955
569.486, 25.211
570.799, 116.603
572.111, 48.439
573.423, 0.306
574.735, 42.176
576.047, 106.074
577.358, 136.027
578.669, 69.043
579.980, 119.104
581.291, 136.226
582.601, 39.423
583.911, 178.661
585.221, 31.989
586.531, 82.357
587.840, 8.765
589.149, 17.203
590.458, 46.637
591.766, 208.850
593.074, 4.685
594.382, 223.751
595.690, 251.168
596.998, 177.567
598.305, 325.948
599.612, 323.311
600.918, 550.659
602.225, 647.993
603.531, 655.312
604.837, 902.615
606.142, 829.903
607.448, 1157.328
608.753, 1304.589
610.058, 1301.835
611.362, 1729.068
612.666, 1646.287
613.970, 1993.493
615.274, 2010.684
616.578, 2047.857
617.881, 2175.019
619.184, 2282.164
620.487, 2589.295
621.789, 2516.410
623.091, 2553.510
624.393, 2720.596
625.695, 2327.664
626.997, 2624.720
628.298, 2341.760
629.599, 2378.784
630.899, 2355.793
632.200, 2192.785
633.500, 2179.763
634.800, 1886.725
636.099, 1833.672
637.399, 1660.601
638.698, 1517.515
639.997, 1514.410
641.295, 1301.290
642.593, 1188.151
643.892, 1134.997
645.189, 901.825
646.487, 918.634
647.784, 829.424
649.081, 790.193
650.378, 753.944
651.674, 502.675
652.971, 629.385
654.267, 453.075
655.562, 383.743
656.858, 374.390
658.153, 219.015
659.448, 387.615
660.743, 144.193
662.037, 152.780
663.331, 192.496
664.625, 76.173
665.919, 155.040
667.212, 20.377
668.505, 13.485
669.798, 49.965
671.091, 32.385
672.383, 60.864
673.675, 49.033
674.967, 18.493
676.259, 26.022
677.550, 10.851
678.841, 38.298
680.132, 39.104
681.423, 3.725
682.713, 44.109
684.003, 57.647
685.293, 51.300
686.582, 41.966
687.871, 93.939
689.161, 28.164
690.449, 18.449
691.738, 48.853
693.026, 41.616
694.314, 107.210
695.602, 59.638
696.889, 2.779
698.176, 72.870
699.463, 2.321
700.750, 67.498
702.037, 146.331
703.323, 53.560
704.609, 239.367
705.894, 103.229
707.180, 217.556
708.465, 193.340
709.750, 93.644
711.035, 237.084
712.319, 235.659
713.603, 305.491
714.887, 248.469
716.171, 376.582
717.454, 407.128
718.737, 376.532
720.020, 460.340
721.303, 383.243
722.585, 397.581
723.867, 560.476
725.149, 451.855
726.431, 463.147
727.712, 552.425
728.993, 440.932
730.274, 494.508
731.554, 465.651
732.835, 544.277
734.115, 450.573
735.395, 504.795
736.674, 432.688
737.953, 514.399
739.232, 467.211
740.511, 432.091
741.790, 483.840
743.068, 498.256
744.346, 403.123
745.624, 427.146
746.901, 478.235
748.179, 436.104
749.456, 479.851
750.732, 444.662
752.009, 448.240
753.285, 472.196
754.561, 467.145
755.837, 539.025
757.112, 458.833
758.388, 451.593
759.663, 460.299
760.937, 381.006
762.212, 455.614
763.486, 494.180
764.760, 477.673
766.034, 551.305
767.307, 482.586
768.580, 598.455
769.853, 551.488
771.126, 571.296
772.399, 577.277
773.671, 604.887
774.943, 662.812
776.214, 685.994
777.486, 617.508
778.757, 655.835
780.028, 704.410
781.299, 763.614
782.569, 698.883
783.839, 667.743
785.109, 802.793
786.379, 732.117
787.648, 767.003
788.918, 803.970
790.187, 759.429
791.455, 767.098
792.724, 747.753
793.992, 774.226
795.260, 749.806
796.527, 686.329
797.795, 813.652
799.062, 729.605
800.329, 766.591
801.596, 733.533
802.862, 674.277
804.128, 793.131
805.394, 728.742
806.660, 695.280
807.925, 763.745
809.190, 592.140
810.455, 591.465
811.720, 611.416
812.984, 503.601
814.248, 411.093
815.512, 373.548
816.776, 376.094
818.039, 323.079
819.303, 203.318
820.566, 248.747
821.828, 149.854
823.091, 155.411
824.353, 132.805
825.615, 68.242
826.876, 116.537
828.138, 101.658
829.399, 58.282
830.660, 146.538
831.920, 76.441
833.181, 82.044
834.441, 65.296
835.701, 5.592
836.961, 8.606
838.220, 11.019
839.479, 57.335
840.738, 42.770
841.997, 60.871
843.255, 62.733
844.513, 69.105
845.771, 28.879
847.029, 75.212
848.286, 21.957
849.544, 20.770
850.801, 22.061
852.057, 76.323
853.314, 4.457
854.570, 3.686
855.826, 69.828
857.081, 11.538
858.337, 29.721
859.592, 75.577
860.847, 7.333
862.102, 31.741
863.356, 39.322
864.610, 93.513
865.864, 75.573
867.118, 33.021
868.371, 100.049
869.625, 51.116
870.878, 119.560
872.130, 5.665
873.383, 15.883
874.635, 23.583
875.887, 74.043
877.139, 60.618
878.390, 27.721
879.641, 20.997
880.892, 12.204
882.143, 5.345
883.394, 12.563
884.644, 11.475
885.894, 3.460
887.144, 29.399
888.393, 61.302
889.642, 10.152
890.891, 41.974
892.140, 40.258
893.389, 38.438
894.637, 98.079
895.885, 44.629
897.133, 108.168
898.380, 158.649
899.628, 136.713
900.875, 167.776
902.122, 132.769
903.368, 141.030
904.614, 125.234
905.860, 124.008
907.106, 123.473
908.352, 117.507
909.597, 112.417
910.842, 94.406
912.087, 100.122
913.332, 91.932
914.576, 91.686
915.820, 40.385
917.064, 106.027
918.308, 186.616
919.551, 129.153
920.794, 164.638
922.037, 105.073
923.280, 175.455
924.522, 81.788
925.764, 247.068
927.006, 143.302
928.248, 169.487
929.489, 91.624
930.730, 161.710
931.971, 127.749
933.212, 206.740
934.452, 142.686
935.693, 58.584
936.932, 144.433
938.172, 106.237
939.412, 208.993
940.651, 139.707
941.890, 124.375
943.129, 149.000
944.367, 104.581
945.605, 99.116
946.843, 127.607
948.081, 241.055
949.319, 170.463
950.556, 161.830
951.793, 215.157
953.030, 144.444
954.266, 183.692
955.502, 181.902
956.739, 201.074
957.974, 180.210
959.210, 201.308
960.445, 268.369
961.680, 194.395
962.915, 252.385
964.150, 269.304
965.384, 233.035
966.618, 204.744
967.852, 305.202
969.086, 322.127
970.319, 262.219
971.552, 298.875
972.785, 243.526
974.018, 345.058
975.250, 292.835
976.482, 428.248
977.714, 363.591
978.946, 411.158
980.177, 382.677
981.409, 509.685
982.640, 513.834
983.870, 479.682
985.101, 559.603
986.331, 531.561
987.561, 604.456
988.791, 649.576
990.020, 613.854
991.250, 766.113
992.479, 776.358
993.707, 785.215
994.936, 837.618
996.164, 772.129
997.392, 886.011
998.620, 773.409
999.848, 867.408
1001.075, 855.125
1002.302, 986.381
1003.529, 1035.172
1004.756, 1037.385
1005.982, 1040.636
1007.208, 1086.438
1008.434, 1127.395
1009.660, 1131.570
1010.885, 1096.530
1012.111, 1114.891
1013.336, 1151.895
1014.560, 1171.070
1015.785, 1237.962
1017.009, 1194.703
1018.233, 1190.555
1019.457, 1168.144
1020.680, 1224.969
1021.903, 1259.827
1023.127, 1251.627
1024.349, 1280.313
1025.572, 1361.890
1026.794, 1267.080
1028.016, 1492.244
1029.238, 1368.183
1030.460, 1420.996
1031.681, 1445.859
1032.902, 1486.869
1034.123, 1460.722
1035.344, 1450.019
1036.564, 1358.469
1037.784, 1537.584
1039.004, 1418.974
1040.224, 1526.506
1041.443, 1560.932
1042.663, 1444.611
1043.881, 1545.071
1045.100, 1455.804
1046.319, 1588.752
1047.537, 1514.630
1048.755, 1444.644
1049.973, 1506.520
1051.190, 1548.446
1052.408, 1510.313
1053.625, 1498.186
1054.842, 1483.065
1056.058, 1495.926
1057.274, 1493.783
1058.491, 1419.573
1059.706, 1535.396
1060.922, 1400.193
1062.138, 1519.000
1063.353, 1584.601
1064.568, 1509.493
1065.782, 1493.733
1066.997, 1498.743
1068.211, 1580.912
1069.425, 1638.842
1070.639, 1703.078
1071.852, 1765.779
1073.065, 1738.470
1074.279, 1873.613
1075.491, 1895.878
1076.704, 1928.829
1077.916, 2153.086
1079.128, 2266.212
1080.340, 2338.691
1081.552, 2406.916
1082.763, 2593.808
1083.974, 2685.075
1085.185, 2897.194
1086.396, 2925.757
1087.606, 3286.045
1088.816, 3346.281
1090.026, 3376.639
1091.236, 3626.826
1092.446, 3597.007
1093.655, 3837.326
1094.864, 3857.953
1096.073, 4008.481
1097.281, 4148.994
1098.490, 4319.638
1099.698, 4433.160
1100.905, 4515.180
1102.113, 4631.760
1103.320, 4662.513
1104.528, 4673.189
1105.734, 4803.927
1106.941, 4834.616
1108.148, 4985.311
1109.354, 5012.921
1110.560, 4986.717
1111.765, 5077.433
1112.971, 5048.155
1114.176, 5048.887
1115.381, 5149.713
1116.586, 5160.669
1117.791, 5121.459
1118.995, 5202.414
1120.199, 5253.202
1121.403, 5144.008
1122.606, 5124.983
1123.810, 5145.819
1125.013, 5136.822
1126.216, 5138.015
1127.419, 5039.088
1128.621, 5060.887
1129.823, 4921.903
1131.025, 4984.455
1132.227, 4976.297
1133.428, 4827.535
1134.630, 4718.798
1135.831, 4880.058
1137.031, 4911.336
1138.232, 4812.736
1139.432, 4784.158
1140.633, 4696.250
1141.832, 4670.069
1143.032, 4762.269
1144.231, 4593.853
1145.431, 4682.030
1146.630, 4764.295
1147.828, 4655.975
1149.027, 4628.644
1150.225, 4690.188
1151.423, 4647.223
1152.621, 4510.387
1153.818, 4524.781
1155.016, 4638.691
1156.213, 4365.127
1157.410, 4419.715
1158.606, 4284.729
1159.802, 4238.343
1160.999, 4134.943
1162.195, 3976.546
1163.390, 3872.135
1164.586, 3639.569
1165.781, 3582.006
1166.976, 3386.095
1168.171, 3219.742
1169.365, 3111.896
1170.559, 2978.551
1171.753, 2743.857
1172.947, 2779.066
1174.141, 2584.677
1175.334, 2358.035
1176.527, 2473.044
1177.720, 2179.186
1178.913, 2105.232
1180.105, 2064.355
1181.298, 1851.398
1182.490, 1836.399
1183.681, 1659.932
1184.873, 1598.475
1186.064, 1636.657
1187.255, 1481.893
1188.446, 1514.033
1189.637, 1354.167
1190.827, 1296.935
1192.017, 1153.111
1193.207, 1216.771
1194.397, 1047.851
1195.586, 1017.034
1196.775, 835.846
1197.964, 826.352
1199.153, 777.456
1200.341, 692.399
1201.530, 678.499
1202.718, 635.720
1203.906, 561.023
1205.093, 537.069
1206.281, 544.423
1207.468, 495.058
1208.655, 467.152
1209.841, 391.403
1211.028, 394.463
1212.214, 410.585
1213.400, 295.740
1214.586, 286.833
1215.771, 343.033
1216.956, 305.846
1218.142, 255.862
1219.326, 213.804
1220.511, 175.116
1221.695, 208.037
1222.879, 181.169
1224.063, 144.439
1225.247, 207.931
1226.431, 152.230
1227.614, 212.162
1228.797, 152.212
1229.980, 158.256
1231.162, 97.072
1232.344, 115.064
1233.526, 120.375
1234.708, 117.459
1235.890, 97.792
1237.071, 103.631
1238.253, 101.748
1239.433, 63.488
1240.614, 129.335
1241.795, 53.336
1242.975, 12.395
1244.155, 102.528
1245.335, 18.527
1246.514, 82.554
1247.694, 28.408
1248.873, 43.414
1250.052, 148.388
1251.230, 48.227
1252.409, 78.060
1253.587, 90.038
1254.765, 90.988
1255.943, 74.917
1257.120, 35.719
1258.297, 8.481
1259.475, 53.233
1260.651, 17.995
1261.828, 63.365
1263.004, 64.156
1264.181, 28.776
1265.356, 66.445
1266.532, 31.984
1267.708, 1.537
1268.883, 23.915
1270.058, 21.656
1271.233, 46.762
1272.407, 35.862
1273.582, 19.476
1274.756, 16.857
1275.930, 21.134
1277.103, 31.288
1278.277, 37.152
1279.450, 18.723
1280.623, 23.853
1281.796, 15.842
1282.968, 43.767
1284.140, 15.630
1285.313, 16.375
1286.484, 109.639
1287.656, 13.587
1288.827, 17.315
1289.999, 18.120
1291.170, 65.897
1292.340, 85.266
1293.511, 22.445
1294.681, 40.667
1295.851, 31.950
1297.021, 71.286
1298.191, 40.680
1299.360, 46.109
1300.529, 22.510
1301.698, 69.021
1302.867, 4.409
1304.035, 26.189
1305.203, 94.831
1306.371, 1.468
1307.539, 24.029
1308.707, 16.063
1309.874, 26.356
1311.041, 2.061
1312.208, 10.183
1313.375, 28.269
1314.541, 42.677
1315.707, 12.322
1316.873, 87.271
1318.039, 0.764
1319.205, 83.100
1320.370, 46.885
1321.535, 29.066
1322.700, 99.708
1323.865, 51.546
1325.029, 66.848
1326.193, 63.867
1327.357, 52.526
1328.521, 76.106
1329.685, 78.653
1330.848, 35.840
1332.011, 69.619
1333.174, 18.082
1334.336, 7.524
1335.499, 69.831
1336.661, 16.154
1337.823, 26.444
1338.985, 89.699
1340.146, 3.089
1341.307, 91.083
1342.469, 62.227
1343.629, 44.314
1344.790, 104.435
1345.950, 40.457
1347.111, 4.445
1348.271, 93.945
1349.430, 55.860
1350.590, 100.743
1351.749, 85.593
1352.908, 77.411
1354.067, 91.196
1355.226, 15.950
1356.384, 25.668
1357.542, 107.351
1358.700, 123.969
1359.858, 48.557
1361.015, 127.109
1362.173, 0.630
1363.330, 52.106
1364.486, 12.555
1365.643, 49.974
1366.799, 118.377
1367.956, 88.788
1369.112, 92.920
1370.267, 159.028
1371.423, 29.106
1372.578, 58.149
1373.733, 95.163
1374.888, 25.150
1376.043, 241.750
1377.197, 94.590
1378.351, 46.429
1379.505, 165.304
1380.659, 129.152
1381.812, 77.971
1382.966, 151.438
1384.119, 134.966
1385.272, 130.504
1386.424, 202.198
1387.577, 138.292
1388.729, 145.614
1389.881, 193.135
1391.032, 216.297
1392.184, 143.244
1393.335, 151.146
1394.486, 155.152
1395.637, 194.139
1396.788, 177.376
1397.938, 208.983
1399.088, 169.301
1400.238, 64.855
1401.388, 245.823
1402.538, 123.057
1403.687, 128.447
1404.836, 206.663
1405.985, 141.625
1407.134, 191.664
1408.282, 144.700
1409.430, 130.960
1410.578, 137.067
1411.726, 122.270
1412.874, 141.922
1414.021, 125.694
1415.168, 123.184
1416.315, 134.672
1417.462, 118.257
1418.608, 104.207
1419.754, 55.859
1420.900, 147.104
1422.046, 75.750
1423.192, 99.062
1424.337, 163.144
1425.482, 69.099
1426.627, 115.109
1427.772, 12.858
1428.916, 54.795
1430.060, 169.518
1431.205, 79.865
1432.348, 82.862
1433.492, 89.231
1434.635, 93.257
1435.779, 117.221
1436.921, 130.575
1438.064, 65.038
1439.207, 144.367
1440.349, 90.208
1441.491, 95.926
1442.633, 112.075
1443.775, 119.691
1444.916, 26.857
1446.057, 150.902
1447.198, 59.484
1448.339, 4.558
1449.479, 107.763
1450.620, 124.182
1451.760, 142.880
1452.900, 157.678
1454.039, 6.959
1455.179, 244.656
1456.318, 123.744
1457.457, 12.759
1458.596, 108.688
1459.735, 111.709
1460.873, 71.987
1462.011, 193.315
1463.149, 22.023
1464.287, 27.045
1465.424, 140.921
1466.562, 32.723
1467.699, 82.180
1468.835, 66.929
1469.972, 21.897
1471.108, 56.974
1472.245, 92.687
1473.381, 93.771
1474.516, 114.877
1475.652, 120.605
1476.787, 107.399
1477.922, 119.440
