##NAMES=Stellerite
##RRUFFID=R040174
##IDEAL CHEMISTRY=Ca_4_(Si_28_Al_8_)O_72_&#183;28H_2_O
##LOCALITY=unknown
##OWNER=RRUFF
##SOURCE=University of Arizona Mineral Museum
##DESCRIPTION=Parallel aggregates of thin tabular brown crystals
##STATUS=The identification of this mineral has been confirmed by X-ray diffraction and chemical analysis
##URL=rruff.info/R040174
##MEASURED CHEMISTRY=(Ca_3.89_Na_0.06_K_0.05_)_Σ=4_(Si_28.11_Al_7.89_)O_72_·15.18H_2_O; H_2_O estimated by difference
##PIN_ID=L00419
##ORIENTATION=Laser parallel to -b* (0 -1 0). Fiducial mark perpendicular to laser is parallel to -c [0 0 -1]
94.838, 0.000
96.233, 16.260
97.628, 35.266
99.023, 197.843
100.418, 216.942
101.812, 514.803
103.206, 591.085
104.600, 899.092
105.994, 1414.175
107.387, 1923.096
108.781, 2533.604
110.174, 2873.891
111.566, 3692.441
112.959, 4158.011
114.351, 4389.581
115.744, 5066.328
117.136, 5007.643
118.527, 5143.287
119.919, 5003.113
121.310, 5376.784
122.701, 5083.771
124.092, 5203.585
125.482, 4945.836
126.873, 4930.208
128.263, 4896.439
129.653, 4454.314
131.042, 4503.650
132.432, 4144.295
133.821, 4016.117
135.210, 3919.009
136.599, 3752.968
137.987, 3707.955
139.376, 3575.159
140.764, 3454.750
142.152, 3346.619
143.539, 3291.285
144.927, 3197.459
146.314, 3154.615
147.701, 3162.029
149.088, 2909.259
150.474, 2966.335
151.861, 2793.291
153.247, 2720.150
154.633, 2626.938
156.018, 2553.671
157.404, 2570.367
158.789, 2267.042
160.174, 2293.705
161.559, 2130.367
162.943, 2117.034
164.327, 1853.712
165.711, 1890.406
167.095, 1787.124
168.479, 1793.874
169.862, 1560.665
171.246, 1577.506
172.628, 1434.404
174.011, 1211.370
175.394, 1338.405
176.776, 1235.518
178.158, 1077.519
179.540, 1064.258
180.922, 923.115
182.303, 941.999
183.684, 978.701
185.065, 894.538
186.446, 763.866
187.826, 626.190
189.207, 646.669
190.587, 463.074
191.967, 654.865
193.346, 534.978
194.726, 551.700
196.105, 441.738
197.484, 444.617
198.862, 467.591
200.241, 450.769
201.619, 344.148
202.997, 317.723
204.375, 251.484
205.753, 325.428
207.130, 249.545
208.507, 433.831
209.884, 378.280
211.261, 352.889
212.638, 287.648
214.014, 432.555
215.390, 477.604
216.766, 502.790
218.141, 518.111
219.517, 553.562
220.892, 529.135
222.267, 564.826
223.642, 610.624
225.016, 646.520
226.391, 552.504
227.765, 558.567
229.139, 564.702
230.512, 540.908
231.886, 567.183
233.259, 383.528
234.632, 439.948
236.005, 406.443
237.377, 453.021
238.749, 319.709
240.122, 206.548
241.493, 343.482
242.865, 90.576
244.237, 337.786
245.608, 135.218
246.979, 62.764
248.350, 80.467
249.720, 198.276
251.090, 176.217
252.461, 144.286
253.830, 162.449
255.200, 190.823
256.570, 49.302
257.939, 97.837
259.308, 86.442
260.677, 56.138
262.045, 62.939
263.414, 14.215
264.782, 16.815
266.150, 19.536
267.517, 45.029
268.885, 209.807
270.252, 174.003
271.619, 287.689
272.986, 50.960
274.353, 173.827
275.719, 226.360
277.085, 158.608
278.451, 200.592
279.817, 102.352
281.182, 203.889
282.548, 195.250
283.913, 276.451
285.278, 307.532
286.642, 168.518
288.007, 249.395
289.371, 140.193
290.735, 10.905
292.099, 261.513
293.462, 92.077
294.826, 82.571
296.189, 63.003
297.552, 73.371
298.914, 36.314
300.277, 43.933
301.639, 5.867
303.001, 175.722
304.363, 195.627
305.724, 265.573
307.086, 445.550
308.447, 455.545
309.808, 595.552
311.168, 595.562
312.529, 695.579
313.889, 775.600
315.249, 875.626
316.609, 975.658
317.969, 925.696
319.328, 1015.740
320.687, 975.791
322.046, 915.848
323.405, 1045.911
324.764, 975.979
326.122, 1066.053
327.480, 826.133
328.838, 986.218
330.196, 906.308
331.553, 806.402
332.910, 906.500
334.267, 846.604
335.624, 736.709
336.981, 776.818
338.337, 786.931
339.693, 767.044
341.049, 657.159
342.405, 677.250
343.760, 697.342
345.116, 827.421
346.471, 577.401
347.826, 737.208
349.180, 736.928
350.535, 536.504
351.889, 745.966
353.243, 685.281
354.597, 814.382
355.950, 793.332
357.304, 822.693
358.657, 890.987
360.010, 849.694
361.362, 898.374
362.715, 867.035
364.067, 1105.715
365.419, 1144.415
366.771, 1283.134
368.123, 1361.868
369.474, 1421.387
370.825, 1570.153
372.176, 1684.695
373.527, 1918.270
374.877, 1998.563
376.228, 2217.400
377.578, 2417.887
378.928, 2576.730
380.277, 2833.792
381.627, 2936.307
382.976, 3157.498
384.325, 3368.519
385.674, 3588.362
387.023, 3856.654
388.371, 4036.908
389.719, 4380.799
391.067, 4731.740
392.415, 4984.736
393.762, 5589.816
395.110, 5941.379
396.457, 6553.391
397.804, 7212.979
399.150, 7712.054
400.497, 8275.891
401.843, 9218.849
403.189, 9873.168
404.535, 10797.150
405.881, 11403.284
407.226, 11953.372
408.571, 12256.022
409.916, 12729.842
411.261, 12632.094
412.605, 12550.250
413.950, 12081.568
415.294, 11433.946
416.638, 10992.724
417.981, 10145.839
419.325, 9636.389
420.668, 8988.703
422.011, 8310.843
423.354, 7778.830
424.697, 7120.739
426.039, 6881.979
427.381, 6200.769
428.723, 5929.760
430.065, 5616.323
431.406, 5095.904
432.748, 4768.328
434.089, 4503.307
435.430, 4299.312
436.770, 4059.686
438.111, 3767.350
439.451, 3728.195
440.791, 3426.874
442.131, 3410.073
443.471, 3378.296
444.810, 3246.805
446.149, 3151.088
447.488, 3453.664
448.827, 3393.071
450.166, 3678.271
451.504, 3758.805
452.842, 4005.217
454.180, 4049.367
455.518, 4341.818
456.855, 4504.588
458.193, 4568.137
459.530, 4641.088
460.867, 4618.652
462.203, 4422.718
463.540, 4158.957
464.876, 3837.184
466.212, 3635.383
467.548, 3363.551
468.883, 3291.689
470.219, 2939.799
471.554, 2667.875
472.889, 2365.922
474.224, 2314.508
475.558, 2208.441
476.892, 2289.874
478.227, 2267.795
479.561, 2235.684
480.894, 2383.541
482.228, 2401.365
483.561, 2379.158
484.894, 2936.920
486.227, 2914.644
487.559, 3262.338
488.892, 3699.997
490.224, 3997.623
491.556, 4645.215
492.888, 5322.774
494.220, 5710.298
495.551, 6047.787
496.882, 6145.241
498.213, 6162.658
499.544, 5600.043
500.874, 5267.391
502.205, 4454.703
503.535, 3761.979
504.865, 3309.221
506.194, 2556.670
507.524, 2203.839
508.853, 1840.997
510.182, 1538.096
511.511, 1195.271
512.840, 1182.409
514.168, 869.760
515.496, 867.476
516.824, 615.063
518.152, 553.141
519.480, 471.164
520.807, 409.932
522.134, 258.084
523.461, 425.826
524.788, 523.636
526.114, 590.859
527.441, 348.447
528.767, 116.893
530.093, 293.584
531.418, 131.743
532.744, 208.383
534.069, 86.429
535.394, 183.821
536.719, 81.878
538.044, 239.169
539.368, 53.730
540.693, 22.860
542.017, 62.145
543.340, 68.785
544.664, 119.182
545.987, 74.578
547.311, 111.792
548.634, 0.789
549.956, 77.229
551.279, 145.496
552.601, 19.350
553.923, 56.842
555.245, 42.541
556.567, 91.482
557.889, 174.230
559.210, 0.223
560.531, 16.342
561.852, 8.271
563.173, 3.221
564.493, 37.793
565.813, 117.545
567.133, 22.412
568.453, 2.025
569.773, 136.793
571.092, 72.023
572.412, 62.428
573.731, 26.811
575.049, 211.391
576.368, 6.209
577.686, 90.789
579.005, 25.193
580.323, 29.484
581.640, 93.705
582.958, 37.844
584.275, 62.168
585.593, 246.227
586.909, 109.998
588.226, 314.309
589.543, 168.004
590.859, 91.855
592.175, 325.537
593.491, 289.236
594.807, 343.656
596.122, 337.324
597.438, 374.568
598.753, 424.701
600.068, 468.367
601.382, 392.014
602.697, 445.707
604.011, 339.359
605.325, 773.027
606.639, 566.719
607.952, 550.410
609.266, 794.166
610.579, 607.859
611.892, 861.521
613.205, 815.201
614.518, 898.863
615.830, 912.529
617.142, 966.174
618.454, 969.812
619.766, 963.414
621.078, 1056.990
622.389, 900.533
623.700, 984.031
625.011, 1107.484
626.322, 850.893
627.632, 1154.258
628.943, 1007.580
630.253, 900.863
631.563, 934.113
632.872, 697.322
634.182, 900.486
635.491, 623.602
636.800, 806.684
638.109, 859.719
639.418, 772.709
640.726, 645.654
642.035, 688.555
643.343, 651.408
644.651, 624.219
645.958, 526.982
647.266, 779.701
648.573, 642.377
649.880, 475.006
651.187, 657.590
652.494, 430.127
653.800, 602.621
655.106, 415.070
656.412, 557.475
657.718, 529.832
659.024, 382.145
660.329, 384.451
661.634, 416.711
662.939, 248.926
664.244, 461.094
665.549, 303.219
666.853, 445.297
668.157, 291.215
669.461, 293.209
670.765, 236.184
672.069, 181.070
673.372, 192.738
674.675, 143.416
675.978, 145.158
677.281, 194.508
678.583, 66.250
679.886, 168.580
681.188, 161.570
682.490, 223.549
683.792, 175.482
685.093, 108.953
686.394, 329.971
687.696, 126.912
688.997, 357.711
690.297, 128.971
691.598, 178.576
692.898, 119.980
694.198, 181.803
695.498, 209.848
696.798, 284.205
698.097, 44.703
699.397, 243.494
700.696, 2.510
701.995, 312.195
703.293, 243.180
704.592, 113.051
705.890, 68.553
707.188, 107.363
708.486, 193.660
709.784, 167.824
711.081, 256.160
712.378, 173.293
713.675, 193.186
714.972, 222.234
716.269, 78.328
717.565, 215.391
718.862, 270.061
720.158, 155.197
721.453, 172.314
722.749, 270.975
724.045, 117.635
725.340, 142.768
726.635, 199.105
727.930, 254.346
729.224, 271.514
730.519, 177.828
731.813, 117.426
733.107, 143.945
734.401, 170.594
735.694, 176.789
736.988, 173.113
738.281, 180.814
739.574, 117.799
740.867, 165.568
742.160, 244.861
743.452, 92.734
744.744, 332.275
746.036, 181.709
747.328, 241.678
748.620, 280.951
749.911, 71.131
751.202, 450.396
752.493, 219.402
753.784, 208.617
755.075, 307.553
756.365, 236.453
757.655, 205.322
758.945, 234.154
760.235, 332.951
761.525, 351.715
762.814, 320.443
764.103, 199.139
765.392, 427.889
766.681, 346.512
767.969, 375.102
769.258, 433.656
770.546, 307.594
771.834, 416.076
773.122, 447.582
774.409, 356.703
775.697, 305.082
776.984, 513.449
778.271, 631.760
779.558, 340.037
780.844, 578.373
782.131, 666.582
783.417, 646.430
784.703, 774.572
785.989, 606.021
787.274, 844.719
788.560, 582.760
789.845, 730.768
791.130, 830.508
792.415, 728.449
793.699, 856.357
794.983, 654.230
796.268, 802.074
797.552, 719.885
798.835, 457.664
800.119, 875.410
801.402, 643.125
802.686, 800.809
803.969, 688.463
805.251, 476.082
806.534, 513.674
807.816, 561.234
809.098, 498.764
810.380, 526.264
811.662, 333.732
812.944, 501.174
814.225, 196.967
815.506, 314.348
816.787, 511.699
818.068, 348.777
819.349, 256.070
820.629, 263.311
821.909, 39.451
823.189, 198.920
824.469, 5.975
825.749, 2.748
827.028, 179.092
828.307, 55.504
829.586, 261.361
830.865, 102.783
832.144, 143.436
833.422, 7.811
834.700, 6.264
835.978, 39.527
837.256, 35.844
838.534, 18.268
839.811, 41.592
841.088, 76.645
842.365, 118.459
843.642, 125.023
844.919, 180.121
846.195, 55.807
847.472, 29.230
848.748, 103.580
850.023, 17.828
851.299, 44.570
852.575, 51.705
853.850, 27.656
855.125, 139.781
856.400, 165.998
857.674, 11.988
858.949, 336.865
860.223, 21.061
861.497, 115.932
862.771, 221.812
864.045, 2.434
865.318, 153.740
866.591, 19.564
867.864, 145.551
869.137, 161.645
870.410, 13.357
871.682, 82.734
872.955, 39.086
874.227, 235.020
875.499, 260.814
876.770, 2.941
878.042, 22.529
879.313, 238.254
880.584, 85.676
881.855, 100.602
883.126, 26.873
884.396, 202.879
885.667, 98.592
886.937, 24.471
888.207, 10.459
889.476, 6.492
890.746, 72.520
892.015, 11.416
893.284, 15.611
894.553, 80.393
895.822, 86.625
897.090, 2.271
898.359, 11.512
899.627, 55.473
900.895, 30.703
902.163, 23.133
903.430, 12.266
904.698, 178.400
905.965, 4.527
907.232, 270.604
908.499, 126.711
909.765, 62.809
911.032, 98.855
912.298, 224.938
913.564, 171.014
914.830, 137.082
916.095, 144.652
917.361, 29.143
918.626, 125.191
919.891, 61.230
921.156, 167.264
922.420, 116.709
923.685, 409.266
924.949, 74.766
926.213, 18.830
927.477, 137.092
928.740, 33.010
930.004, 78.934
931.267, 154.850
932.530, 10.768
933.793, 226.678
935.056, 47.416
936.318, 108.475
937.581, 85.641
938.843, 19.785
940.104, 86.057
941.366, 211.900
942.628, 52.258
943.889, 93.564
945.150, 29.389
946.411, 265.205
947.672, 171.027
948.932, 166.846
950.193, 182.666
951.453, 328.484
952.713, 284.303
953.973, 180.123
955.232, 35.943
956.491, 231.766
957.751, 77.590
959.010, 193.412
960.268, 259.240
961.527, 305.072
962.785, 260.902
964.044, 96.736
965.302, 187.426
966.559, 88.338
967.817, 144.105
969.075, 59.873
970.332, 275.645
971.589, 101.418
972.846, 157.191
974.102, 50.900
975.359, 374.883
976.615, 299.643
977.871, 134.250
979.127, 350.049
980.383, 75.359
981.638, 271.180
982.893, 129.350
984.149, 375.137
985.404, 300.289
986.658, 334.734
987.913, 320.152
989.167, 445.568
990.421, 309.463
991.675, 495.002
992.929, 575.342
994.183, 401.250
995.436, 427.197
996.689, 473.270
997.942, 368.994
999.195, 592.619
1000.448, 521.650
1001.700, 836.160
1002.952, 799.039
1004.204, 544.916
1005.456, 600.717
1006.708, 326.984
1007.959, 583.348
1009.210, 689.246
1010.461, 425.635
1011.712, 601.664
1012.963, 508.115
1014.213, 684.641
1015.464, 800.473
1016.714, 487.021
1017.964, 823.203
1019.214, 639.777
1020.463, 656.363
1021.712, 881.902
1022.962, 698.428
1024.210, 934.811
1025.459, 817.023
1026.708, 543.695
1027.956, 889.771
1029.204, 586.164
1030.452, 672.875
1031.700, 804.756
1032.948, 571.504
1034.195, 698.000
1035.442, 764.768
1036.689, 451.545
1037.936, 908.092
1039.183, 504.594
1040.429, 851.096
1041.676, 917.895
1042.922, 603.984
1044.168, 899.936
1045.413, 476.859
1046.659, 753.789
1047.904, 930.408
1049.149, 696.682
1050.394, 831.104
1051.639, 848.000
1052.884, 573.965
1054.128, 1040.820
1055.372, 767.910
1056.616, 764.760
1057.860, 811.867
1059.104, 908.980
1060.347, 836.104
1061.590, 633.252
1062.833, 690.404
1064.076, 697.568
1065.319, 794.746
1066.561, 531.932
1067.803, 809.039
1069.046, 446.254
1070.287, 933.475
1071.529, 670.703
1072.771, 612.525
1074.012, 949.768
1075.253, 433.994
1076.494, 690.576
1077.735, 647.867
1078.975, 567.242
1080.216, 714.645
1081.456, 672.066
1082.696, 709.473
1083.936, 1046.979
1085.175, 662.822
1086.415, 1050.348
1087.654, 1174.531
1088.893, 711.467
1090.132, 989.029
1091.371, 836.598
1092.609, 1142.406
1093.847, 1089.988
1095.085, 837.574
1096.323, 1065.529
1097.561, 1033.125
1098.799, 961.010
1100.036, 1158.615
1101.273, 866.223
1102.510, 1064.617
1103.747, 1232.240
1104.983, 1090.062
1106.220, 1497.828
1107.456, 1085.467
1108.692, 1304.424
1109.928, 1392.072
1111.163, 1159.729
1112.399, 1478.018
1113.634, 1225.678
1114.869, 1204.961
1116.104, 1422.875
1117.339, 1240.547
1118.573, 1568.225
1119.808, 1199.936
1121.042, 1353.600
1122.276, 1444.943
1123.509, 1470.439
1124.743, 1250.779
1125.976, 1350.053
1127.210, 1321.115
1128.443, 1287.383
1129.675, 1431.652
1130.908, 1247.832
1132.141, 1540.355
1133.373, 1458.121
1134.605, 1545.889
1135.837, 1674.750
1137.068, 1532.537
1138.300, 1572.500
1139.531, 1721.451
1140.762, 1359.238
1141.993, 1509.684
1143.224, 1577.555
1144.455, 1146.582
1145.685, 1908.734
1146.915, 1326.529
1148.145, 1368.840
1149.375, 1675.344
1150.605, 1443.170
1151.834, 1742.172
1153.063, 1531.143
1154.292, 1309.256
1155.521, 1757.242
1156.750, 1275.051
1157.978, 1563.523
1159.207, 1390.242
1160.435, 1638.465
1161.663, 1539.211
1162.891, 1437.600
1164.118, 1276.805
1165.345, 1765.398
1166.573, 1153.930
1167.800, 1372.393
1169.026, 1511.965
1170.253, 1169.969
1171.480, 1553.762
1172.706, 1431.637
1173.932, 1399.627
1175.158, 1399.326
1176.383, 1147.523
1177.609, 1465.572
1178.834, 1347.963
1180.059, 1165.773
1181.284, 1504.354
1182.509, 1182.613
1183.734, 1130.264
1184.958, 1370.635
1186.182, 948.607
1187.406, 1356.514
1188.630, 1285.721
1189.854, 985.881
1191.077, 1223.344
1192.301, 943.363
1193.524, 1000.893
1194.747, 909.020
1195.969, 755.031
1197.192, 807.582
1198.414, 873.430
1199.636, 751.291
1200.858, 879.781
1202.080, 727.547
1203.302, 774.801
1204.523, 763.115
1205.744, 560.586
1206.966, 707.760
1208.186, 620.088
1209.407, 397.344
1210.628, 764.436
1211.848, 304.211
1213.068, 591.250
1214.288, 669.049
1215.508, 449.445
1216.727, 806.396
1217.947, 434.148
1219.166, 451.744
1220.385, 708.635
1221.604, 272.600
1222.822, 439.764
1224.041, 536.693
1225.259, 29.932
1226.477, 562.848
1227.695, 513.141
1228.913, 317.121
1230.130, 513.781
1231.348, 481.107
1232.565, 649.217
1233.782, 555.791
1234.999, 417.357
1236.215, 663.959
1237.432, 680.488
1238.648, 358.215
1239.864, 524.725
1241.080, 661.217
1242.296, 227.691
1243.511, 674.150
1244.726, 250.594
1245.942, 547.016
1247.156, 543.416
1248.371, 141.076
1249.586, 857.443
1250.800, 283.793
1252.014, 300.748
1253.228, 817.047
1254.442, 53.574
1255.656, 540.449
1256.869, 726.611
1258.083, 192.916
1259.296, 649.033
1260.509, 645.059
1261.722, 291.805
1262.934, 407.803
1264.147, 454.016
1265.359, 410.150
1266.571, 645.979
1267.783, 7.986
1268.994, 698.162
1270.206, 473.738
1271.417, 199.357
1272.628, 514.787
1273.839, 260.184
1275.050, 156.529
1276.260, 761.807
1277.471, 172.947
1278.681, 433.166
1279.891, 648.248
1281.101, 124.307
1282.310, 379.311
1283.520, 145.734
1284.729, 119.518
1285.938, 514.518
1287.147, 9.205
1288.356, 374.432
1289.564, 118.877
1290.773, 16.727
1291.981, 457.834
1293.189, 17.873
1294.397, 83.678
1295.604, 450.443
1296.812, 134.504
1298.019, 138.490
1299.226, 332.428
1300.433, 263.682
1301.640, 480.049
1302.846, 243.580
1304.053, 83.014
1305.259, 300.164
1306.465, 146.725
1307.671, 256.236
1308.876, 109.146
1310.082, 201.988
1311.287, 214.775
1312.492, 227.506
1313.697, 70.174
1314.902, 332.770
1316.106, 34.699
1317.310, 357.740
1318.515, 340.113
1319.719, 62.422
1320.922, 284.654
1322.126, 316.816
1323.329, 11.086
1324.533, 370.922
1325.736, 182.863
1326.939, 254.740
1328.141, 396.539
1329.344, 28.264
1330.546, 309.898
1331.748, 321.465
1332.950, 92.959
1334.152, 34.369
1335.354, 465.703
1336.555, 133.029
1337.757, 388.119
1338.958, 239.201
1340.159, 69.789
1341.359, 381.121
1342.560, 148.029
1343.760, 282.709
1344.960, 153.389
1346.160, 294.008
1347.360, 484.572
1348.560, 165.080
1349.759, 345.529
1350.959, 755.928
1352.158, 13.727
1353.357, 376.547
1354.555, 656.770
1355.754, 36.949
1356.952, 727.070
1358.151, 217.154
1359.349, 17.195
1360.546, 617.188
1361.744, 207.146
1362.941, 237.074
1364.139, 406.977
1365.336, 43.145
1366.533, 326.689
1367.730, 376.510
1368.926, 193.672
1370.123, 25.945
1371.319, 16.430
1372.515, 203.822
1373.711, 495.893
1374.906, 235.664
1376.102, 114.967
1377.297, 584.014
1378.492, 7.123
1379.687, 386.891
1380.882, 580.854
1382.077, 154.764
1383.271, 838.250
1384.465, 491.764
1385.659, 474.701
1386.853, 788.184
1388.047, 481.672
1389.240, 413.822
1390.434, 546.637
1391.627, 160.078
1392.820, 853.191
1394.013, 796.518
1395.205, 266.523
1396.398, 909.705
1397.590, 362.031
1398.782, 273.518
1399.974, 820.453
1401.166, 373.234
1402.357, 504.637
1403.549, 711.098
1404.740, 230.301
1405.931, 821.047
1407.122, 337.879
1408.313, 323.377
1409.503, 723.834
1410.693, 333.865
1411.883, 249.334
1413.073, 868.129
1414.263, 311.494
1415.453, 349.705
1416.642, 848.379
1417.831, 135.615
1419.020, 627.400
1420.209, 437.311
1421.398, 134.252
1422.587, 747.289
1423.775, 125.996
1424.963, 475.219
1426.151, 790.596
1427.339, 237.570
1428.526, 283.520
1429.714, 723.705
1430.901, 148.578
1432.088, 686.068
1433.275, 662.371
1434.462, 230.590
1435.648, 807.287
1436.835, 457.395
1438.021, 385.875
1439.207, 769.805
1440.393, 400.895
1441.579, 827.785
1442.764, 924.801
1443.949, 249.262
1445.135, 845.785
1446.320, 744.793
1447.504, 298.172
1448.689, 1170.148
1449.873, 786.219
1451.058, 581.832
1452.242, 924.758
1453.426, 609.855
1454.609, 804.645
1455.793, 1159.133
1456.976, 400.438
1458.159, 1132.758
1459.342, 905.586
1460.525, 587.309
1461.708, 1059.867
1462.890, 861.020
1464.073, 772.973
1465.255, 1174.898
1466.437, 605.508
1467.619, 678.004
1468.800, 1110.797
1469.982, 480.621
1471.163, 1020.156
1472.344, 829.270
1473.525, 400.980
1474.706, 980.594
1475.886, 790.270
1477.066, 172.391
1478.247, 1263.449
1479.427, 375.113
1480.607, 866.605
1481.786, 907.848
1482.966, 349.516
1484.145, 792.613
1485.324, 686.371
1486.503, 400.203
1487.682, 743.980
1488.860, 727.738
1490.039, 121.605
1491.217, 925.590
1492.395, 559.754
1493.573, 74.121
1494.751, 658.684
1495.928, 73.617
1497.106, 579.043
1498.283, 545.012
1499.460, 171.484
1500.637, 508.516
1501.814, 476.230
1502.990, 104.547
1504.166, 943.453
1505.342, 383.082
1506.518, 453.582
1507.694, 485.105
1508.870, 87.844
1510.045, 461.945
1511.221, 707.641
1512.396, 24.789
1513.571, 545.105
1514.745, 457.902
