##NAMES=Stellerite
##RRUFFID=R040174
##IDEAL CHEMISTRY=Ca_4_(Si_28_Al_8_)O_72_&#183;28H_2_O
##LOCALITY=unknown
##OWNER=RRUFF
##SOURCE=University of Arizona Mineral Museum
##DESCRIPTION=Parallel aggregates of thin tabular brown crystals
##STATUS=The identification of this mineral has been confirmed by X-ray diffraction and chemical analysis
##URL=rruff.info/R040174
##MEASURED CHEMISTRY=(Ca_3.89_Na_0.06_K_0.05_)_Σ=4_(Si_28.11_Al_7.89_)O_72_·15.18H_2_O; H_2_O estimated by difference
##PIN_ID=M00319
##ORIENTATION=Laser parallel to c* (0 0 1). Fiducial mark perpendicular to laser is parallel to -b [0 -1 0]
70.737, 0.000
72.151, 410.188
73.565, 48.465
74.978, 72.094
76.391, 164.127
77.804, 568.824
79.217, 923.623
80.629, 889.574
82.042, 1100.711
83.453, 1482.955
84.865, 1692.744
86.276, 2587.041
87.687, 3143.385
89.098, 3909.820
90.508, 5035.307
91.918, 5909.762
93.328, 7632.811
94.738, 8663.316
96.147, 9759.834
97.556, 10861.254
98.964, 11546.717
100.373, 12375.564
101.781, 12857.270
103.188, 13471.430
104.596, 13377.701
106.003, 13885.812
107.410, 14175.889
108.817, 15010.344
110.223, 15520.000
111.629, 15616.602
113.035, 16028.527
114.440, 15774.277
115.845, 16302.906
117.250, 15900.918
118.655, 16287.842
120.059, 16423.660
121.463, 17038.514
122.867, 17212.529
124.270, 15295.816
125.673, 15258.475
127.076, 14760.582
128.479, 15142.215
129.881, 15203.434
131.283, 14114.301
132.685, 14694.854
134.086, 14545.141
135.487, 15665.191
136.888, 14925.037
138.288, 15004.695
139.689, 15144.191
141.089, 15433.549
142.488, 15667.779
143.888, 15727.266
145.287, 16484.250
146.686, 16565.971
148.084, 17204.633
149.482, 17584.738
150.880, 17419.682
152.278, 18459.930
153.675, 17608.426
155.072, 18636.365
156.469, 17749.299
157.866, 17020.602
159.262, 16996.350
160.658, 15174.723
162.054, 15190.750
163.449, 13496.525
164.844, 13093.684
166.239, 11991.258
167.633, 10859.254
169.028, 10357.668
170.422, 9036.492
171.815, 8925.727
173.209, 7875.354
174.602, 7775.371
175.994, 6655.760
177.387, 6346.512
178.779, 5847.607
180.171, 5169.035
181.563, 5250.777
182.954, 4362.828
184.345, 4355.170
185.736, 3807.797
187.127, 3370.695
188.517, 3223.855
189.907, 2807.273
191.296, 2940.934
192.686, 2314.824
194.075, 2378.926
195.464, 2153.215
196.852, 1497.666
198.240, 1822.262
199.628, 1176.986
201.016, 1591.834
202.403, 796.801
203.790, 961.887
205.177, 907.088
206.564, 522.406
207.950, 737.836
209.336, 333.377
210.722, 459.027
212.107, 114.787
213.492, 170.652
214.877, 186.623
216.262, 127.305
217.646, 11.133
219.030, 384.865
220.414, 111.502
221.797, 302.037
223.180, 275.484
224.563, 188.842
225.946, 522.109
227.328, 235.312
228.710, 608.561
230.092, 301.840
231.473, 275.232
232.854, 448.789
234.235, 262.461
235.616, 556.021
236.996, 169.574
238.376, 481.098
239.756, 423.949
241.135, 208.131
242.514, 586.738
243.893, 133.873
245.272, 599.684
246.650, 184.492
248.028, 118.350
249.406, 138.639
250.783, 166.379
252.161, 85.207
253.538, 143.775
254.914, 76.750
256.291, 323.176
257.667, 103.500
259.043, 254.180
260.418, 365.205
261.793, 324.309
263.168, 588.055
264.543, 309.818
265.917, 791.783
267.291, 603.918
268.665, 466.209
270.039, 828.646
271.412, 621.219
272.785, 1153.910
274.158, 896.711
275.530, 1169.600
276.902, 1382.551
278.274, 1275.527
279.646, 1788.506
281.017, 1511.469
282.388, 2104.395
283.759, 1917.293
285.130, 1980.164
286.500, 2463.010
287.870, 1995.838
289.239, 2308.650
290.609, 2011.449
291.978, 2184.238
293.347, 2197.018
294.715, 2239.791
296.083, 2352.561
297.451, 2045.326
298.819, 2418.088
300.186, 2030.848
301.554, 2233.607
302.920, 2316.367
304.287, 2189.123
305.653, 2501.881
307.019, 2074.641
308.385, 2347.398
309.751, 2410.080
311.116, 2202.535
312.481, 2424.840
313.845, 2196.907
315.210, 2528.608
316.574, 2149.878
317.937, 2310.822
319.301, 2141.406
320.664, 1791.719
322.027, 2021.783
323.390, 1531.561
324.752, 1961.035
326.114, 1480.505
327.476, 1649.979
328.838, 1599.458
330.199, 1328.988
331.560, 1558.569
332.921, 1188.196
334.281, 1427.869
335.642, 1397.586
337.002, 1177.343
338.361, 1317.139
339.721, 1046.970
341.080, 1336.839
342.438, 906.743
343.797, 1136.678
345.155, 1136.647
346.513, 806.648
347.871, 1126.680
349.228, 946.741
350.586, 1076.830
351.942, 1226.948
353.299, 1117.091
354.655, 1487.257
356.011, 1227.444
357.367, 1607.653
358.723, 1457.880
360.078, 1668.127
361.433, 1978.395
362.788, 1918.679
364.142, 2218.978
365.496, 2219.295
366.850, 2989.624
368.204, 2969.971
369.557, 3150.327
370.910, 3890.696
372.263, 3781.075
373.615, 4611.462
374.967, 4681.857
376.319, 5512.258
377.671, 6053.108
379.022, 6004.280
380.374, 7138.902
381.724, 7029.164
383.075, 8151.461
384.425, 8274.437
385.775, 8783.396
387.125, 9912.274
388.474, 9807.266
389.824, 11155.950
391.173, 11559.794
392.521, 12273.376
393.870, 13619.959
395.218, 14419.603
396.566, 16203.335
397.913, 16788.139
399.260, 18901.004
400.607, 20615.021
401.954, 21907.430
403.301, 24589.064
404.647, 25745.803
405.993, 28243.691
407.338, 29328.098
408.684, 30644.135
410.029, 32633.197
411.374, 32067.646
412.718, 33023.965
414.063, 31680.127
415.407, 30831.625
416.750, 29867.322
418.094, 27826.221
419.437, 27112.383
420.780, 24038.475
422.123, 23272.557
423.465, 21467.031
424.807, 19355.861
426.149, 18698.908
427.491, 16504.693
428.832, 15937.153
430.173, 14179.702
431.514, 13153.676
432.854, 12495.814
434.194, 11077.744
435.534, 10999.546
436.874, 9550.974
438.213, 9211.978
439.552, 8582.310
440.891, 7692.932
442.230, 7633.254
443.568, 6932.784
444.906, 6842.721
446.244, 6252.144
447.582, 6151.508
448.919, 6260.816
450.256, 5470.068
451.592, 6089.266
452.929, 5588.406
454.265, 5817.488
455.601, 5986.515
456.937, 5745.484
458.272, 6234.395
459.607, 6233.248
460.942, 6342.041
462.276, 6480.777
463.611, 6479.451
464.945, 6678.068
466.278, 6066.623
467.612, 6375.119
468.945, 5913.552
470.278, 5661.926
471.611, 5510.236
472.943, 5098.489
474.275, 5296.680
475.607, 4904.811
476.939, 4922.884
478.270, 4900.900
479.601, 4838.861
480.932, 5376.768
482.262, 5504.622
483.592, 6122.421
484.922, 6870.168
486.252, 7327.867
487.582, 8995.514
488.911, 9623.107
490.240, 11650.649
491.568, 13788.141
492.897, 15845.578
494.225, 19332.957
495.553, 21690.285
496.880, 25417.564
498.207, 27364.779
499.534, 29101.939
500.861, 30039.561
502.188, 27997.143
503.514, 26354.400
504.840, 22912.709
506.166, 19470.340
507.491, 16528.631
508.816, 13336.635
510.141, 11294.867
511.466, 8933.313
512.790, 7661.104
514.114, 6319.225
515.438, 5116.989
516.761, 4484.711
518.085, 3422.455
519.408, 3350.274
520.731, 2768.869
522.053, 2236.442
523.375, 2094.022
524.697, 1642.012
526.019, 1669.202
527.340, 1197.439
528.662, 1064.649
529.982, 1101.738
531.303, 698.636
532.623, 695.534
533.944, 542.352
535.263, 538.729
536.583, 435.373
537.902, 364.121
539.221, 320.538
540.540, 234.356
541.859, 199.992
543.177, 146.239
544.495, 72.539
545.812, 148.065
547.130, 61.233
548.447, 19.376
549.764, 24.805
551.081, 139.801
552.397, 74.805
553.713, 260.084
555.029, 155.614
556.345, 171.245
557.660, 77.028
558.975, 82.861
560.290, 158.812
561.604, 94.878
562.919, 151.017
564.233, 177.304
565.546, 213.695
566.860, 160.292
568.173, 168.887
569.486, 203.817
570.799, 130.885
572.111, 128.149
573.423, 135.610
574.735, 56.764
576.047, 90.991
577.358, 41.115
578.669, 43.088
579.980, 95.039
581.291, 106.636
582.601, 11.808
583.911, 189.601
585.221, 50.910
586.531, 232.089
587.840, 223.181
589.149, 124.169
590.458, 255.065
591.766, 275.862
593.074, 286.562
594.382, 327.180
595.690, 397.699
596.998, 548.146
598.305, 468.506
599.612, 528.774
600.918, 788.968
602.225, 599.075
603.531, 919.101
604.837, 909.058
606.142, 1128.931
607.448, 1228.725
608.753, 1218.435
610.058, 1538.062
611.362, 1657.606
612.666, 1637.064
613.970, 1906.438
615.274, 1895.726
616.578, 2094.928
617.881, 2004.048
619.184, 2203.080
620.487, 2432.028
621.789, 2130.891
623.091, 2639.665
624.393, 2358.368
625.695, 2396.982
626.997, 2515.518
628.298, 2223.965
629.599, 2492.326
630.899, 2190.602
632.200, 2288.791
633.500, 2066.891
634.800, 1924.902
636.099, 2052.827
637.399, 1740.664
638.698, 1688.412
639.997, 1666.069
641.295, 1393.641
642.593, 1621.123
643.892, 1288.516
645.189, 1265.819
646.487, 1103.032
647.784, 980.160
649.081, 1017.198
650.378, 824.147
651.674, 841.007
652.971, 867.774
654.267, 774.453
655.562, 801.041
656.858, 647.537
658.153, 643.938
659.448, 710.243
660.743, 444.453
662.037, 592.561
663.331, 420.568
664.625, 476.474
665.919, 407.276
667.212, 360.974
668.505, 484.564
669.798, 391.053
671.091, 461.436
672.383, 456.715
673.675, 435.891
674.967, 402.962
676.259, 290.929
677.550, 430.782
678.841, 413.532
680.132, 339.176
681.423, 474.902
682.713, 293.335
684.003, 437.668
685.293, 450.689
686.582, 480.058
687.871, 463.612
689.161, 466.331
690.449, 556.035
691.738, 475.090
693.026, 528.398
694.314, 608.303
695.602, 415.678
696.889, 652.443
698.176, 507.189
699.463, 470.555
700.750, 644.769
702.037, 536.658
703.323, 662.743
704.609, 644.275
705.894, 632.656
707.180, 698.646
708.465, 741.795
709.750, 748.705
711.035, 819.640
712.319, 740.627
713.603, 803.265
714.887, 798.752
716.171, 828.228
717.454, 746.097
718.737, 788.606
720.020, 874.744
721.303, 737.713
722.585, 838.389
723.867, 870.947
725.149, 675.357
726.431, 846.791
727.712, 761.456
728.993, 932.976
730.274, 824.718
731.554, 840.249
732.835, 986.327
734.115, 788.695
735.395, 986.630
736.674, 878.951
737.953, 849.853
739.232, 1002.165
740.511, 777.956
741.790, 1070.519
743.068, 951.290
744.346, 968.266
745.624, 990.182
746.901, 967.215
748.179, 1036.549
749.456, 1094.608
750.732, 1060.618
752.009, 1217.021
753.285, 1156.407
754.561, 1179.264
755.837, 1359.324
757.112, 1260.381
758.388, 1423.714
759.663, 1433.547
760.937, 1494.951
762.212, 1514.458
763.486, 1474.938
764.760, 1704.745
766.034, 1654.020
767.307, 1773.560
768.580, 2012.874
769.853, 1972.130
771.126, 2182.152
772.399, 2101.122
773.671, 2350.249
774.943, 2459.229
776.214, 2417.846
777.486, 2869.625
778.757, 2847.990
780.028, 2897.838
781.299, 3186.062
782.569, 3194.596
783.839, 3413.456
785.109, 3551.479
786.379, 3739.348
787.648, 3877.362
788.918, 3995.090
790.187, 4053.139
791.455, 4310.356
792.724, 4147.820
793.992, 4375.615
795.260, 4442.957
796.527, 4410.398
797.795, 4587.469
799.062, 4704.250
800.329, 4952.467
801.596, 4939.103
802.862, 5136.170
804.128, 5263.020
805.394, 5109.519
806.660, 5396.273
807.925, 5142.557
809.190, 5088.947
810.455, 4834.697
811.720, 4260.236
812.984, 4025.979
814.248, 3480.538
815.512, 3125.648
816.776, 2800.049
818.039, 2254.533
819.303, 1988.658
820.566, 1662.442
821.828, 1409.754
823.091, 1311.606
824.353, 1004.688
825.615, 995.682
826.876, 780.523
828.138, 758.161
829.399, 670.897
830.660, 545.523
831.920, 485.013
833.181, 364.964
834.441, 478.583
835.701, 402.025
836.961, 210.366
838.220, 338.694
839.479, 267.082
840.738, 195.337
841.997, 181.537
843.255, 160.047
844.513, 256.153
845.771, 105.421
847.029, 157.960
848.286, 147.635
849.544, 52.242
850.801, 176.186
852.057, 76.928
853.314, 5.637
854.570, 209.278
855.826, 23.310
857.081, 38.975
858.337, 54.187
859.592, 87.264
860.847, 111.418
862.102, 42.822
863.356, 46.081
864.610, 4.645
865.864, 82.644
867.118, 132.013
868.371, 74.312
869.625, 79.685
870.878, 73.909
872.130, 59.474
873.383, 35.862
874.635, 45.258
875.887, 16.660
877.139, 74.046
878.390, 77.463
879.641, 100.914
880.892, 51.593
882.143, 124.933
883.394, 40.478
884.644, 115.141
885.894, 13.854
887.144, 55.431
888.393, 47.318
889.642, 28.110
890.891, 15.040
892.140, 59.837
893.389, 10.211
894.637, 95.783
895.885, 8.137
897.133, 19.986
898.380, 59.163
899.628, 43.587
900.875, 78.705
902.122, 6.082
903.368, 56.489
904.614, 57.982
905.860, 87.471
907.106, 26.120
908.352, 59.769
909.597, 78.506
910.842, 30.264
912.087, 113.907
913.332, 13.964
914.576, 4.112
915.820, 106.144
917.064, 22.134
918.308, 55.080
919.551, 47.987
920.794, 17.149
922.037, 74.665
923.280, 16.439
924.522, 31.173
925.764, 96.866
927.006, 64.478
928.248, 116.111
929.489, 29.335
930.730, 108.167
931.971, 14.635
933.212, 10.936
934.452, 95.452
935.693, 111.804
936.932, 57.124
938.172, 105.410
939.412, 8.663
940.651, 186.880
941.890, 108.069
943.129, 9.227
944.367, 97.350
945.605, 54.443
946.843, 122.504
948.081, 172.537
949.319, 26.457
950.556, 197.508
951.793, 45.447
953.030, 78.357
954.266, 142.240
955.502, 62.097
956.739, 194.927
957.974, 110.732
959.210, 120.513
960.445, 271.271
961.680, 174.008
962.915, 187.724
964.150, 247.423
965.384, 119.105
966.618, 245.770
967.852, 262.420
969.086, 251.056
970.319, 237.680
971.552, 307.289
972.785, 372.885
974.018, 307.468
975.250, 437.039
976.482, 443.597
977.714, 428.143
978.946, 567.681
980.177, 523.209
981.409, 611.727
982.640, 655.044
983.870, 676.543
985.101, 846.027
986.331, 837.709
987.561, 904.931
988.791, 974.529
990.020, 1036.482
991.250, 1052.072
992.479, 1144.573
993.707, 1148.501
994.936, 1321.807
996.164, 1295.334
997.392, 1283.844
998.620, 1531.940
999.848, 1430.576
1001.075, 1599.815
1002.302, 1716.689
1003.529, 1690.495
1004.756, 1852.359
1005.982, 1863.457
1007.208, 1919.343
1008.434, 2005.649
1009.660, 1965.102
1010.885, 2050.977
1012.111, 1976.678
1013.336, 2005.504
1014.560, 2138.987
1015.785, 2228.573
1017.009, 2192.670
1018.233, 2246.476
1019.457, 2105.866
1020.680, 2381.008
1021.903, 2337.662
1023.127, 2343.756
1024.349, 2531.695
1025.572, 2316.058
1026.794, 2500.234
1028.016, 2532.976
1029.238, 2362.320
1030.460, 2663.642
1031.681, 2502.976
1032.902, 2504.972
1034.123, 2543.310
1035.344, 2442.741
1036.564, 2579.121
1037.784, 2556.742
1039.004, 2356.026
1040.224, 2701.732
1041.443, 2501.020
1042.663, 2554.546
1043.881, 2493.836
1045.100, 2282.084
1046.319, 2558.025
1047.537, 2397.516
1048.755, 2372.345
1049.973, 2511.327
1051.190, 2370.906
1052.408, 2337.177
1053.625, 2336.916
1054.842, 2275.117
1056.058, 2231.424
1057.274, 2081.195
1058.491, 2119.315
1059.706, 2209.254
1060.922, 2038.143
1062.138, 2087.627
1063.353, 1967.567
1064.568, 1947.167
1065.782, 1936.914
1066.997, 1886.662
1068.211, 2015.568
1069.425, 2045.451
1070.639, 1955.117
1071.852, 2054.857
1073.065, 2004.886
1074.279, 2171.690
1075.491, 2211.836
1076.704, 2170.428
1077.916, 2380.568
1079.128, 2480.331
1080.340, 2529.699
1081.552, 2799.831
1082.763, 2710.048
1083.974, 2900.178
1085.185, 3210.406
1086.396, 3150.249
1087.606, 3590.854
1088.816, 3491.145
1090.026, 3591.035
1091.236, 4061.309
1092.446, 3871.416
1093.655, 4261.824
1094.864, 4322.457
1096.073, 4301.585
1097.281, 4462.230
1098.490, 4572.377
1099.698, 4702.978
1100.905, 4804.041
1102.113, 4823.822
1103.320, 4964.625
1104.528, 4985.125
1105.734, 5015.679
1106.941, 5306.366
1108.148, 5287.059
1109.354, 5257.961
1110.560, 5408.665
1111.765, 5279.289
1112.971, 5410.385
1114.176, 5381.104
1115.381, 5351.922
1116.586, 5562.908
1117.791, 5373.641
1118.995, 5374.769
1120.199, 5535.743
1121.403, 5246.488
1122.606, 5497.568
1123.810, 5278.321
1125.013, 5149.453
1126.216, 5320.719
1127.419, 5151.484
1128.621, 5192.527
1129.823, 4954.318
1131.025, 4865.096
1132.227, 5176.414
1133.428, 4777.395
1134.630, 4718.636
1135.831, 4863.773
1137.031, 4544.580
1138.232, 4700.701
1139.432, 4672.848
1140.633, 4343.967
1141.832, 4559.726
1143.032, 4400.803
1144.231, 4271.985
1145.431, 4386.143
1146.630, 4237.415
1147.828, 4129.507
1149.027, 4254.705
1150.225, 4075.596
1151.423, 4113.542
1152.621, 4403.738
1153.818, 3945.080
1155.016, 4103.182
1156.213, 3724.295
1157.410, 3805.623
1158.606, 3489.205
1159.802, 3470.538
1160.999, 3578.176
1162.195, 3332.764
1163.390, 3254.182
1164.586, 3196.464
1165.781, 2967.878
1166.976, 2949.465
1168.171, 2875.633
1169.365, 2646.852
1170.559, 2578.681
1171.753, 2351.608
1172.947, 2303.011
1174.141, 2391.462
1175.334, 2162.984
1176.527, 2154.822
1177.720, 2082.205
1178.913, 1819.518
1180.105, 1916.385
1181.298, 1676.634
1182.490, 1746.246
1183.681, 1692.553
1184.873, 1486.037
1186.064, 1554.645
1187.255, 1413.645
1188.446, 1307.203
1189.637, 1410.913
1190.827, 1064.233
1192.017, 1120.103
1193.207, 1074.709
1194.397, 909.880
1195.586, 1096.577
1196.775, 822.000
1197.964, 818.942
1199.153, 944.738
1200.341, 530.895
1201.530, 684.330
1202.718, 685.070
1203.906, 547.094
1205.093, 580.677
1206.281, 508.608
1207.468, 369.335
1208.655, 593.754
1209.841, 371.610
1211.028, 442.282
1212.214, 682.988
1213.400, 188.230
1214.586, 467.629
1215.771, 344.705
1216.956, 135.138
1218.142, 375.531
1219.326, 204.398
1220.511, 198.505
1221.695, 326.116
1222.879, 233.661
1224.063, 345.454
1225.247, 210.345
1226.431, 25.096
1227.614, 343.462
1228.797, 139.705
1229.980, 146.137
1231.162, 201.513
1232.344, 84.323
1233.526, 129.779
1234.708, 130.163
1235.890, 69.000
1237.071, 256.387
1238.253, 115.115
1239.433, 113.098
1240.614, 182.489
1241.795, 4.125
1242.975, 153.775
1244.155, 134.165
1245.335, 50.468
1246.514, 120.851
1247.694, 87.231
1248.873, 126.821
1250.052, 168.190
1251.230, 41.531
1252.409, 92.110
1253.587, 111.407
1254.765, 4.874
1255.943, 136.113
1257.120, 76.339
1258.297, 39.690
1259.475, 134.844
1260.651, 10.969
1261.828, 51.386
1263.004, 193.456
1264.181, 31.457
1265.356, 137.524
1266.532, 24.497
1267.708, 0.428
1268.883, 177.333
1270.058, 53.182
1271.233, 14.567
1272.407, 147.213
1273.582, 0.966
1274.756, 79.859
1275.930, 20.562
1277.103, 66.753
1278.277, 171.891
1279.450, 80.543
1280.623, 15.986
1281.796, 64.490
1282.968, 72.121
1284.140, 80.332
1285.313, 58.661
1286.484, 44.033
1287.656, 42.576
1288.827, 9.205
1289.999, 58.042
1291.170, 213.067
1292.340, 73.859
1293.511, 1.625
1294.681, 53.360
1295.851, 99.709
1297.021, 116.489
1298.191, 71.326
1299.360, 24.866
1300.529, 82.678
1301.698, 87.584
1302.867, 37.907
1304.035, 79.993
1305.203, 0.582
1306.371, 89.151
1307.539, 52.914
1308.707, 58.604
1309.874, 150.050
1311.041, 18.443
1312.208, 4.201
1313.375, 128.151
1314.541, 90.571
1315.707, 110.641
1316.873, 37.108
1318.039, 70.754
1319.205, 197.325
1320.370, 2.368
1321.535, 16.370
1322.700, 110.334
1323.865, 2.735
1325.029, 13.152
1326.193, 118.096
1327.357, 37.907
1328.521, 137.684
1329.685, 103.736
1330.848, 94.562
1332.011, 70.075
1333.174, 2.337
1334.336, 32.204
1335.499, 117.709
1336.661, 13.825
1337.823, 62.592
1338.985, 99.048
1340.146, 119.604
1341.307, 200.663
1342.469, 116.975
1343.629, 54.178
1344.790, 154.347
1345.950, 70.481
1347.111, 118.572
1348.271, 210.677
1349.430, 32.295
1350.590, 129.685
1351.749, 124.082
1352.908, 21.000
1354.067, 199.870
1355.226, 53.015
1356.384, 7.171
1357.542, 254.607
1358.700, 82.309
1359.858, 52.792
1361.015, 141.160
1362.173, 33.722
1363.330, 94.479
1364.486, 77.140
1365.643, 8.368
1366.799, 250.208
1367.956, 53.757
1369.112, 47.281
1370.267, 235.780
1371.423, 109.250
1372.578, 196.371
1373.733, 243.781
1374.888, 110.017
1376.043, 355.366
1377.197, 140.458
1378.351, 94.747
1379.505, 281.576
1380.659, 169.396
1381.812, 167.140
1382.966, 340.035
1384.119, 77.784
1385.272, 320.848
1386.424, 334.591
1387.577, 186.402
1388.729, 326.518
1389.881, 300.566
1391.032, 168.815
1392.184, 245.559
1393.335, 182.704
1394.486, 281.652
1395.637, 353.094
1396.788, 189.917
1397.938, 296.899
1399.088, 210.012
1400.238, 139.522
1401.388, 363.668
1402.538, 207.567
1403.687, 185.285
1404.836, 388.017
1405.985, 233.432
1407.134, 208.621
1408.282, 300.261
1409.430, 94.479
1410.578, 201.625
1411.726, 265.060
1412.874, 144.725
1414.021, 344.632
1415.168, 213.389
1416.315, 163.974
1417.462, 277.363
1418.608, 165.318
1419.754, 190.989
1420.900, 223.155
1422.046, 131.850
1423.192, 240.709
1424.337, 321.370
1425.482, 62.310
1426.627, 234.143
1427.772, 235.715
1428.916, 137.215
1430.060, 358.741
1431.205, 89.239
1432.348, 175.317
1433.492, 285.455
1434.635, 52.472
1435.779, 216.853
1436.921, 239.148
1438.064, 10.327
1439.207, 334.511
1440.349, 223.886
1441.491, 58.190
1442.633, 337.245
1443.775, 115.193
1444.916, 58.385
1446.057, 290.351
1447.198, 58.381
1448.339, 237.843
1449.479, 284.864
1450.620, 97.414
1451.760, 293.884
1452.900, 253.080
1454.039, 32.482
1455.179, 387.694
1456.318, 176.180
