##NAMES=Stilbite-Ca
##RRUFFID=R050012
##IDEAL CHEMISTRY=NaCa_4_(Si_27_Al_9_)O_72_&#183;28H_2_O
##LOCALITY=Harborville, Nova Scotia, Canada
##OWNER=RRUFF
##SOURCE=University of Arizona Mineral Museum
##DESCRIPTION=Globular aggregate of thin tabular white single crystals
##STATUS=The identification of this mineral has been confirmed by X-ray diffraction and chemical analysis
##URL=rruff.info/R050012
##MEASURED CHEMISTRY=(Na_1.50_K_0.03_)_Σ=1.53_Ca_4.15_(Si_26.17_Al_9.83_)O_72_·27.91H_2_O; H_2_O estimated by difference
##PIN_ID=M00488
##ORIENTATION=Laser parallel to (-1 0 -1). Fiducial mark perpendicular to laser is parallel to -b [0 -1 0]
84.264, 0.000
85.664, 138.884
87.064, 44.068
88.463, 17.227
89.863, 29.058
91.262, 161.737
92.661, 354.995
94.059, 628.302
95.458, 935.375
96.856, 1333.752
98.254, 1707.537
99.652, 2110.053
101.049, 2589.426
102.446, 2958.071
103.843, 3465.700
105.240, 3905.609
106.637, 4251.207
108.033, 4707.033
109.429, 5098.344
110.825, 5378.673
112.220, 5849.852
113.616, 6394.066
115.011, 6650.989
116.406, 6930.350
117.800, 6751.921
119.195, 6595.511
120.589, 6670.952
121.983, 6642.159
123.377, 6746.832
124.770, 6867.041
126.163, 6978.633
127.556, 7231.486
128.949, 7195.479
130.342, 7369.094
131.734, 7337.957
133.126, 7617.711
134.518, 7669.860
135.909, 7873.399
137.301, 8127.562
138.692, 8462.104
140.083, 8717.030
141.473, 9022.345
142.864, 9298.914
144.254, 9567.188
145.644, 9870.597
147.034, 10137.448
148.423, 10484.682
149.812, 10842.294
151.201, 11060.279
152.590, 11228.635
153.979, 11197.354
155.367, 10846.431
156.755, 10545.866
158.143, 10325.646
159.530, 9925.772
160.918, 9346.251
162.305, 8867.085
163.692, 8368.281
165.078, 7779.838
166.465, 7361.769
167.851, 6903.931
169.237, 6555.939
170.623, 6057.855
172.008, 5639.777
173.393, 5151.772
174.778, 4915.300
176.163, 4695.233
177.548, 4182.022
178.932, 3959.651
180.316, 3708.286
181.700, 3463.002
183.083, 3180.462
184.467, 3077.749
185.850, 2875.577
187.233, 2674.462
188.616, 2565.172
189.998, 2405.106
191.380, 2236.941
192.762, 2114.816
194.144, 1919.586
195.525, 1795.628
196.907, 1646.938
198.288, 1629.514
199.669, 1469.349
201.049, 1403.441
202.429, 1276.788
203.810, 1167.384
205.189, 1120.225
206.569, 1011.309
207.949, 938.630
209.328, 955.187
210.707, 931.974
212.085, 803.988
213.464, 665.226
214.842, 702.683
216.220, 692.347
217.598, 637.212
218.976, 566.271
220.353, 485.521
221.730, 540.959
223.107, 487.584
224.483, 467.394
225.860, 448.386
227.236, 400.561
228.612, 387.913
229.988, 434.443
231.363, 403.159
232.738, 468.077
234.113, 363.274
235.488, 382.766
236.863, 418.544
238.237, 469.652
239.611, 457.925
240.985, 440.889
242.359, 434.975
243.732, 391.354
245.105, 356.021
246.478, 463.958
247.851, 377.142
249.223, 419.540
250.595, 405.057
251.967, 356.875
253.339, 269.836
254.711, 261.967
256.082, 231.561
257.453, 118.570
258.824, 95.397
260.195, 109.954
261.565, 13.165
262.935, 14.969
264.305, 39.685
265.675, 92.846
267.044, 93.556
268.414, 151.851
269.783, 158.765
271.151, 185.377
272.520, 299.560
273.888, 209.506
275.256, 297.168
276.624, 268.581
277.992, 362.754
279.359, 274.720
280.726, 330.477
282.093, 158.044
283.460, 239.406
284.827, 173.585
286.193, 167.579
287.559, 125.396
288.925, 83.038
290.290, 29.504
291.656, 13.797
293.021, 45.008
294.386, 107.125
295.750, 136.332
297.115, 161.692
298.479, 190.193
299.843, 226.824
301.207, 257.579
302.570, 285.454
303.933, 356.447
305.296, 416.558
306.659, 596.784
308.022, 625.123
309.384, 754.573
310.746, 715.134
312.108, 817.802
313.470, 797.576
314.831, 807.456
316.193, 832.019
317.554, 923.520
318.914, 839.702
320.275, 825.981
321.635, 843.357
322.995, 722.828
324.355, 746.391
325.715, 595.045
327.074, 622.789
328.434, 520.620
329.792, 461.538
331.151, 471.541
332.510, 431.626
333.868, 463.796
335.226, 436.051
336.584, 407.257
337.941, 404.813
339.299, 318.310
340.656, 332.851
342.013, 250.405
343.370, 311.928
344.726, 299.414
346.082, 330.828
347.438, 282.182
348.794, 294.531
350.150, 353.890
351.505, 339.292
352.860, 355.769
354.215, 382.336
355.570, 475.991
356.924, 573.729
358.278, 635.704
359.632, 686.463
360.986, 822.460
362.339, 825.542
363.693, 961.707
365.046, 1162.952
366.399, 1266.284
367.751, 1482.692
369.104, 1710.185
370.456, 1933.752
371.808, 2118.404
373.159, 2381.131
374.511, 2598.548
375.862, 2829.376
377.213, 3091.460
378.564, 3375.605
379.914, 3664.216
381.265, 3800.275
382.615, 4023.473
383.965, 4355.114
385.315, 4529.448
386.664, 4803.699
388.013, 5161.098
389.362, 5457.598
390.711, 5817.021
392.060, 6244.515
393.408, 6790.373
394.756, 7107.289
396.104, 7934.147
397.451, 8490.840
398.799, 9328.206
400.146, 9932.000
401.493, 10708.578
402.840, 11716.724
404.186, 12171.216
405.533, 12947.798
406.879, 13412.364
408.225, 13795.566
409.570, 13916.417
410.916, 13682.683
412.261, 13587.065
413.606, 13109.854
414.951, 12431.022
416.295, 11801.974
417.639, 11352.113
418.983, 10602.707
420.327, 10012.319
421.671, 9322.142
423.014, 8611.393
424.357, 8180.298
425.700, 7669.259
427.043, 7177.491
428.386, 6464.432
429.728, 6111.375
431.070, 5706.565
432.412, 5161.534
433.753, 4835.621
435.095, 4455.511
436.436, 4188.788
437.777, 3740.756
439.118, 3527.792
440.458, 3481.068
441.798, 3161.852
443.138, 2898.431
444.478, 2856.448
445.818, 2667.524
447.157, 2658.016
448.496, 2547.705
449.835, 2474.801
451.174, 2670.231
452.513, 2621.138
453.851, 2686.423
455.189, 2685.201
456.527, 2711.004
457.864, 2849.832
459.202, 2828.683
460.539, 2745.558
461.876, 2825.454
463.212, 2693.373
464.549, 2594.312
465.885, 2386.271
467.221, 2543.247
468.557, 2501.244
469.893, 2459.259
471.228, 2381.291
472.563, 2373.339
473.898, 2432.402
475.233, 2535.481
476.567, 2704.575
477.902, 2886.683
479.236, 3136.805
480.570, 3517.938
481.903, 3955.083
483.237, 4504.241
484.570, 5004.410
485.903, 6044.587
487.235, 6954.775
488.568, 7904.973
489.900, 9435.176
491.232, 10745.392
492.564, 11985.613
493.896, 13175.841
495.227, 13586.073
496.558, 13906.314
497.889, 13536.559
499.220, 12506.806
500.551, 11047.060
501.881, 9667.313
503.211, 8327.571
504.541, 6947.835
505.870, 5858.101
507.200, 4768.468
508.529, 4000.740
509.858, 3409.017
511.187, 2778.778
512.515, 2342.680
513.844, 2004.092
515.172, 1668.360
516.500, 1430.996
517.827, 1236.444
519.155, 1065.672
520.482, 933.465
521.809, 892.285
523.136, 640.043
524.462, 515.095
525.789, 559.100
527.115, 358.571
528.441, 382.522
529.766, 290.411
531.092, 215.033
532.417, 175.236
533.742, 137.586
535.067, 54.103
536.391, 123.894
537.716, 15.113
539.040, 10.480
540.364, 84.859
541.688, 33.487
543.011, 4.450
544.334, 48.118
545.657, 44.426
546.980, 95.990
548.303, 78.684
549.625, 126.601
550.947, 91.777
552.269, 62.091
553.591, 78.362
554.913, 75.725
556.234, 71.274
557.555, 81.124
558.876, 18.678
560.197, 64.790
561.517, 90.175
562.837, 26.573
564.157, 61.030
565.477, 25.579
566.797, 1.202
568.116, 8.117
569.435, 19.630
570.754, 18.453
572.073, 11.109
573.391, 53.699
574.709, 63.709
576.027, 94.685
577.345, 82.636
578.663, 124.561
579.980, 119.453
581.297, 155.322
582.614, 249.166
583.931, 257.987
585.248, 283.785
586.564, 283.564
587.880, 258.338
589.196, 363.099
590.511, 409.853
591.827, 392.611
593.142, 416.369
594.457, 508.141
595.772, 522.929
597.086, 547.729
598.401, 619.554
599.715, 645.410
601.029, 701.566
602.343, 772.165
603.656, 823.053
604.969, 890.952
606.282, 986.845
607.595, 1068.730
608.908, 1110.605
610.220, 1149.458
611.532, 1161.289
612.844, 1201.097
614.156, 1295.873
615.468, 1299.616
616.779, 1250.332
618.090, 1364.014
619.401, 1332.667
620.712, 1382.283
622.022, 1411.871
623.332, 1426.424
624.642, 1373.949
625.952, 1351.444
627.262, 1319.903
628.571, 1256.325
629.880, 1244.711
631.189, 1206.065
632.498, 1225.391
633.807, 1092.679
635.115, 1183.930
636.423, 1080.144
637.731, 1010.321
639.039, 1041.462
640.346, 966.571
641.653, 903.642
642.960, 931.673
644.267, 820.667
645.574, 814.629
646.880, 820.551
648.186, 752.434
649.492, 688.276
650.798, 591.079
652.103, 650.840
653.409, 570.560
654.714, 594.238
656.019, 463.876
657.323, 474.471
658.628, 470.024
659.932, 426.536
661.236, 349.005
662.540, 434.431
663.843, 284.815
665.147, 316.155
666.450, 326.451
667.753, 244.705
669.056, 234.910
670.358, 206.065
671.660, 216.166
672.963, 263.213
674.264, 208.329
675.566, 222.846
676.868, 148.049
678.169, 192.874
679.470, 196.640
680.771, 183.480
682.071, 142.126
683.372, 214.704
684.672, 145.225
685.972, 193.677
687.271, 119.233
688.571, 179.550
689.870, 172.804
691.169, 165.207
692.468, 198.005
693.767, 231.543
695.065, 216.022
696.364, 196.746
697.662, 149.290
698.960, 157.535
700.257, 186.428
701.555, 159.300
702.852, 221.478
704.149, 215.358
705.446, 218.136
706.742, 219.065
708.038, 213.551
709.335, 196.188
710.631, 188.308
711.926, 187.763
713.222, 131.531
714.517, 154.659
715.812, 201.642
717.107, 127.025
718.402, 229.763
719.696, 211.526
720.990, 222.905
722.284, 251.484
723.578, 183.955
724.872, 256.052
726.165, 267.550
727.458, 262.853
728.751, 238.773
730.044, 239.335
731.336, 299.194
732.629, 226.819
733.921, 369.975
735.213, 337.479
736.504, 269.744
737.796, 406.983
739.087, 380.077
740.378, 363.246
741.669, 414.372
742.960, 378.250
744.250, 468.182
745.540, 591.171
746.830, 608.390
748.120, 636.086
749.410, 747.106
750.699, 589.882
751.988, 679.381
753.277, 618.074
754.566, 723.534
755.854, 771.083
757.143, 863.416
758.431, 884.205
759.719, 893.836
761.006, 978.273
762.294, 1011.491
763.581, 1130.062
764.868, 1184.139
766.155, 1225.079
767.442, 1351.249
768.728, 1345.449
770.014, 1515.415
771.300, 1613.367
772.586, 1678.245
773.872, 1835.641
775.157, 1860.373
776.442, 2085.969
777.727, 2224.646
779.012, 2335.796
780.297, 2511.308
781.581, 2556.831
782.865, 2850.135
784.149, 2936.567
785.433, 3018.873
786.716, 3113.762
787.999, 3110.149
789.282, 3136.423
790.565, 3193.688
791.848, 3225.026
793.130, 3205.237
794.413, 3078.975
795.695, 3042.888
796.977, 3127.023
798.258, 2971.849
799.540, 2968.627
800.821, 2953.396
802.102, 2787.052
803.382, 2749.738
804.663, 2544.489
805.943, 2470.986
807.224, 2193.446
808.504, 2104.868
809.783, 1835.344
811.063, 1596.692
812.342, 1345.004
813.621, 1285.278
814.900, 1001.515
816.179, 1033.716
817.457, 875.881
818.736, 784.911
820.014, 607.003
821.292, 526.060
822.569, 530.597
823.847, 440.961
825.124, 479.782
826.401, 363.712
827.678, 337.242
828.954, 305.924
830.231, 313.791
831.507, 238.058
832.783, 284.262
834.059, 163.491
835.334, 204.390
836.610, 235.298
837.885, 228.702
839.160, 191.589
840.435, 144.500
841.709, 190.639
842.983, 197.158
844.258, 124.490
845.532, 115.617
846.805, 60.419
848.079, 59.677
849.352, 95.833
850.625, 60.640
851.898, 77.612
853.171, 64.848
854.443, 122.725
855.715, 74.169
856.988, 104.792
858.259, 104.459
859.531, 102.265
860.803, 87.234
862.074, 129.253
863.345, 9.149
864.616, 97.047
865.886, 21.953
867.157, 60.306
868.427, 27.926
869.697, 9.371
870.967, 13.854
872.236, 52.745
873.506, 5.623
874.775, 3.004
876.044, 29.363
877.313, 12.717
878.581, 5.067
879.849, 22.413
881.118, 14.243
882.386, 29.918
883.653, 30.627
884.921, 45.373
886.188, 44.837
887.455, 3.997
888.722, 33.867
889.989, 7.773
891.255, 21.289
892.522, 7.323
893.788, 7.327
895.054, 31.697
896.319, 20.233
897.585, 8.135
898.850, 39.990
900.115, 15.835
901.380, 6.633
902.645, 51.596
903.909, 41.121
905.174, 52.186
906.438, 17.547
907.701, 18.057
908.965, 17.364
910.229, 25.819
911.492, 24.311
912.755, 9.159
914.018, 29.605
915.280, 4.973
916.543, 41.421
917.805, 17.207
919.067, 22.866
920.329, 3.441
921.590, 26.724
922.852, 22.014
924.113, 27.215
925.374, 11.577
926.635, 41.604
927.895, 19.237
929.156, 33.894
930.416, 31.997
931.676, 20.922
932.936, 40.123
934.195, 82.149
935.454, 41.157
936.714, 20.854
937.973, 33.892
939.231, 21.035
940.490, 37.944
941.748, 29.834
943.006, 3.705
944.264, 22.557
945.522, 37.609
946.780, 73.191
948.037, 9.976
949.294, 73.742
950.551, 42.508
951.808, 67.208
953.064, 83.909
954.320, 66.595
955.577, 41.267
956.832, 181.922
958.088, 128.564
959.344, 165.193
960.599, 66.808
961.854, 128.409
963.109, 125.998
964.364, 167.572
965.618, 97.135
966.872, 153.686
968.127, 230.225
969.380, 184.752
970.634, 236.269
971.888, 222.773
973.141, 218.276
974.394, 229.771
975.647, 230.342
976.900, 253.373
978.152, 268.212
979.404, 311.678
980.656, 371.138
981.908, 417.593
983.160, 339.048
984.411, 424.051
985.663, 433.205
986.914, 479.264
988.165, 524.714
989.415, 503.162
990.666, 571.612
991.916, 620.896
993.166, 537.354
994.416, 628.821
995.665, 644.076
996.915, 695.324
998.164, 725.200
999.413, 794.082
1000.662, 895.263
1001.911, 903.182
1003.159, 922.271
1004.407, 929.277
1005.655, 917.259
1006.903, 822.749
1008.151, 906.041
1009.398, 836.332
1010.646, 874.613
1011.893, 847.829
1013.139, 885.219
1014.386, 908.754
1015.633, 886.006
1016.879, 950.109
1018.125, 996.175
1019.371, 1003.950
1020.616, 1019.536
1021.862, 1070.189
1023.107, 1046.461
1024.352, 1128.020
1025.597, 1067.375
1026.842, 1090.201
1028.086, 1072.867
1029.330, 1024.438
1030.574, 1070.215
1031.818, 1020.013
1033.062, 1119.840
1034.305, 1069.644
1035.548, 1038.532
1036.791, 1061.479
1038.034, 1008.098
1039.277, 990.770
1040.519, 1129.064
1041.762, 1077.867
1043.004, 1039.553
1044.246, 1039.241
1045.487, 937.135
1046.729, 1076.935
1047.970, 1129.636
1049.211, 1059.060
1050.452, 1088.841
1051.692, 1062.552
1052.933, 1058.314
1054.173, 1073.331
1055.413, 1092.111
1056.653, 1083.083
1057.893, 1079.619
1059.132, 1012.963
1060.371, 1064.491
1061.610, 1036.146
1062.849, 1066.953
1064.088, 998.937
1065.326, 1058.529
1066.565, 1036.574
1067.803, 1043.728
1069.041, 1117.611
1070.278, 1147.421
1071.516, 1108.573
1072.753, 1217.550
1073.990, 1168.567
1075.227, 1258.019
1076.464, 1324.093
1077.700, 1290.264
1078.936, 1443.314
1080.173, 1502.852
1081.408, 1553.992
1082.644, 1647.083
1083.880, 1602.530
1085.115, 1760.633
1086.350, 1778.821
1087.585, 1896.392
1088.820, 1926.432
1090.054, 1956.547
1091.288, 1982.704
1092.522, 2027.755
1093.756, 2052.735
1094.990, 2113.229
1096.224, 2174.509
1097.457, 2210.527
1098.690, 2273.688
1099.923, 2313.117
1101.156, 2369.471
1102.388, 2371.815
1103.621, 2395.093
1104.853, 2493.466
1106.085, 2525.858
1107.316, 2434.285
1108.548, 2516.743
1109.779, 2495.045
1111.010, 2551.440
1112.241, 2584.958
1113.472, 2476.424
1114.703, 2604.874
1115.933, 2486.273
1117.163, 2466.089
1118.393, 2564.490
1119.623, 2460.899
1120.853, 2480.716
1122.082, 2645.191
1123.311, 2404.593
1124.540, 2447.008
1125.769, 2286.488
1126.997, 2355.032
1128.226, 2288.437
1129.454, 2283.880
1130.682, 2142.287
1131.910, 2113.714
1133.138, 2122.292
1134.365, 2155.720
1135.592, 1981.154
1136.819, 2001.788
1138.046, 1820.417
1139.273, 1858.863
1140.499, 1891.970
1141.725, 1756.706
1142.951, 1798.308
1144.177, 1649.629
1145.403, 1674.040
1146.628, 1587.517
1147.854, 1551.138
1149.079, 1442.554
1150.304, 1541.245
1151.528, 1490.916
1152.753, 1380.334
1153.977, 1278.403
1155.201, 1295.047
1156.425, 1340.567
1157.649, 1193.038
1158.872, 1120.454
1160.096, 1172.192
1161.319, 1024.754
1162.542, 1017.229
1163.764, 1010.956
1164.987, 896.448
1166.209, 902.888
1167.431, 846.090
1168.653, 750.533
1169.875, 761.034
1171.097, 687.157
1172.318, 730.611
1173.539, 692.743
1174.760, 680.461
1175.981, 633.476
1177.202, 602.930
1178.422, 583.516
1179.642, 538.010
1180.862, 529.927
1182.082, 529.411
1183.302, 482.490
1184.521, 443.559
1185.740, 420.068
1186.959, 447.229
1188.178, 379.887
1189.397, 409.447
1190.615, 297.219
1191.834, 249.986
1193.052, 312.878
1194.269, 259.752
1195.487, 206.431
1196.705, 261.918
1197.922, 142.320
1199.139, 185.976
1200.356, 162.568
1201.573, 155.229
1202.789, 138.086
1204.006, 100.786
1205.222, 108.343
1206.438, 153.138
1207.653, 58.007
1208.869, 83.836
1210.084, 100.663
1211.299, 46.920
1212.514, 106.709
1213.729, 33.562
1214.944, 117.340
1216.158, 82.146
1217.372, 0.769
1218.586, 50.809
1219.800, 29.460
1221.014, 43.301
1222.227, 65.856
1223.440, 69.886
1224.654, 43.861
1225.866, 43.500
1227.079, 59.677
1228.292, 47.542
1229.504, 0.719
1230.716, 46.093
1231.928, 104.673
1233.139, 48.069
1234.351, 81.951
1235.562, 69.494
1236.773, 26.032
1237.984, 57.570
1239.195, 82.110
1240.406, 100.694
1241.616, 90.244
1242.826, 65.792
1244.036, 62.342
1245.246, 78.891
1246.456, 28.477
1247.665, 57.054
1248.874, 67.609
1250.083, 3.361
1251.292, 82.913
1252.501, 43.452
1253.709, 37.187
1254.917, 82.722
1256.125, 62.257
1257.333, 25.013
1258.541, 38.592
1259.748, 43.230
1260.956, 110.755
1262.163, 5.739
1263.370, 64.872
1264.576, 56.351
1265.783, 42.173
1266.989, 42.282
1268.195, 116.708
1269.401, 58.252
1270.607, 43.777
1271.813, 29.190
1273.018, 93.686
1274.223, 55.091
1275.428, 91.487
1276.633, 59.990
1277.838, 25.358
1279.042, 61.722
1280.246, 61.155
1281.450, 14.472
1282.654, 15.791
1283.858, 60.065
1285.061, 7.683
1286.265, 34.325
1287.468, 24.898
1288.671, 58.888
1289.873, 87.277
1291.076, 57.409
1292.278, 23.532
1293.480, 153.625
1294.682, 15.306
1295.884, 13.747
1297.086, 101.785
1298.287, 68.211
1299.488, 21.760
1300.689, 51.721
1301.890, 63.673
1303.091, 155.608
1304.291, 4.521
1305.491, 42.421
1306.691, 64.309
1307.891, 7.159
1309.091, 63.000
1310.290, 75.830
1311.490, 3.350
1312.689, 78.456
1313.888, 13.250
1315.086, 3.033
1316.285, 119.800
1317.483, 32.447
1318.681, 20.282
1319.879, 80.995
1321.077, 38.308
1322.275, 18.363
1323.472, 10.019
1324.669, 27.340
1325.866, 84.274
1327.063, 29.127
1328.260, 28.554
1329.456, 96.992
1330.653, 29.478
1331.849, 53.026
1333.045, 76.515
1334.240, 25.987
1335.436, 27.444
1336.631, 10.886
1337.826, 13.313
1339.021, 50.726
1340.216, 32.874
1341.411, 0.500
1342.605, 58.858
1343.799, 49.797
1344.993, 60.519
1346.187, 20.823
1347.381, 34.886
1348.574, 92.380
1349.767, 32.634
1350.961, 21.124
1352.153, 27.096
1353.346, 27.305
1354.539, 5.501
1355.731, 35.691
1356.923, 36.135
1358.115, 38.014
1359.307, 32.321
1360.498, 10.453
1361.690, 85.429
1362.881, 68.544
1364.072, 26.646
1365.263, 93.749
1366.453, 12.865
1367.644, 14.958
1368.834, 70.046
1370.024, 7.876
1371.214, 25.192
1372.404, 48.134
1373.593, 32.026
1374.783, 84.097
1375.972, 6.177
1377.161, 17.914
1378.349, 157.951
1379.538, 103.595
1380.726, 114.694
1381.915, 97.857
1383.103, 85.011
1384.290, 164.156
1385.478, 102.203
1386.665, 100.119
1387.853, 150.191
1389.040, 92.221
1390.227, 95.172
1391.413, 125.110
1392.600, 53.708
1393.786, 133.739
1394.972, 106.977
1396.158, 53.956
1397.344, 121.690
1398.530, 113.613
1399.715, 49.542
1400.900, 92.260
1402.085, 77.892
1403.270, 145.497
1404.455, 122.731
1405.639, 68.555
1406.824, 172.267
1408.008, 120.610
1409.192, 137.620
1410.375, 107.412
1411.559, 66.651
1412.742, 71.229
1413.925, 103.246
1415.108, 76.375
1416.291, 125.871
1417.474, 122.412
1418.656, 70.979
1419.839, 111.802
1421.021, 114.934
1422.202, 70.622
1423.384, 174.026
1424.566, 82.613
1425.747, 119.131
1426.928, 118.213
1428.109, 54.966
1429.290, 145.206
1430.470, 185.585
1431.651, 133.681
1432.831, 211.045
1434.011, 197.312
1435.191, 162.059
1436.370, 215.648
1437.550, 206.526
1438.729, 164.676
1439.908, 323.242
1441.087, 250.469
1442.266, 240.809
1443.444, 290.807
1444.623, 249.625
1445.801, 281.839
1446.979, 292.243
1448.157, 195.965
1449.334, 292.941
1450.512, 225.078
1451.689, 240.154
1452.866, 374.059
1454.043, 339.975
1455.220, 239.747
1456.396, 292.452
1457.573, 267.674
1458.749, 273.843
1459.925, 201.358
1461.100, 276.130
1462.276, 219.166
1463.451, 160.169
1464.627, 197.432
1465.802, 237.693
1466.977, 254.317
1468.151, 205.196
1469.326, 211.208
1470.500, 174.855
1471.674, 153.533
1472.848, 236.492
1474.022, 112.596
1475.195, 155.305
1476.369, 214.362
1477.542, 56.587
1478.715, 187.931
1479.888, 173.299
1481.061, 129.817
1482.233, 136.299
1483.405, 55.831
1484.577, 69.186
1485.749, 160.141
1486.921, 88.857
1488.093, 109.553
1489.264, 168.248
1490.435, 85.969
1491.606, 128.739
1492.777, 79.561
1493.948, 207.438
1495.118, 129.404
1496.288, 27.479
1497.459, 125.663
1498.628, 157.975
1499.798, 0.602
1500.968, 131.932
1502.137, 92.579
