##NAMES=Stilbite-Ca
##RRUFFID=R050012
##IDEAL CHEMISTRY=NaCa_4_(Si_27_Al_9_)O_72_&#183;28H_2_O
##LOCALITY=Harborville, Nova Scotia, Canada
##OWNER=RRUFF
##SOURCE=University of Arizona Mineral Museum
##DESCRIPTION=Globular aggregate of thin tabular white single crystals
##STATUS=The identification of this mineral has been confirmed by X-ray diffraction and chemical analysis
##URL=rruff.info/R050012
##MEASURED CHEMISTRY=(Na_1.50_K_0.03_)_Σ=1.53_Ca_4.15_(Si_26.17_Al_9.83_)O_72_·27.91H_2_O; H_2_O estimated by difference
##PIN_ID=M00467
##ORIENTATION=Laser parallel to c* (0 0 1). Fiducial mark perpendicular to laser is parallel to -a [-1 0 0]
80.062, 0.000
81.463, 28.102
82.863, 7.688
84.264, 7.686
85.664, 1.503
87.064, 21.352
88.463, 67.609
89.863, 78.371
91.262, 245.973
92.661, 273.914
94.059, 531.847
95.458, 528.502
96.856, 737.638
98.254, 850.050
99.652, 936.565
101.049, 1090.039
102.446, 1117.351
103.843, 1301.410
105.240, 1324.194
106.637, 1388.712
108.033, 1355.898
109.429, 1412.658
110.825, 1488.911
112.220, 1397.594
113.616, 1610.654
115.011, 1480.047
116.406, 1604.737
117.800, 1489.693
119.195, 1441.889
120.589, 1514.302
121.983, 1474.913
123.377, 1506.701
124.770, 1393.646
126.163, 1316.797
127.556, 1386.231
128.949, 1379.210
130.342, 1398.780
131.734, 1341.925
133.126, 1387.327
134.518, 1329.762
135.909, 1437.182
137.301, 1416.573
138.692, 1584.941
140.083, 1583.292
141.473, 1557.629
142.864, 1811.958
144.254, 1748.279
145.644, 1978.598
147.034, 2093.917
148.423, 2178.237
149.812, 2186.560
151.201, 2243.887
152.590, 2375.219
153.979, 2273.558
155.367, 2309.905
156.755, 2191.260
158.143, 2105.624
159.530, 2107.001
160.918, 1902.394
162.305, 2025.803
163.692, 1700.213
165.078, 1654.579
166.465, 1466.910
167.851, 1452.227
169.237, 1440.540
170.623, 1183.857
172.008, 1192.923
173.393, 976.534
174.778, 977.988
176.163, 902.020
177.548, 778.467
178.932, 807.073
180.316, 733.860
181.700, 764.420
183.083, 621.521
184.467, 600.718
185.850, 614.687
187.233, 553.337
188.616, 534.153
189.998, 422.896
191.380, 426.680
192.762, 393.500
194.144, 372.358
195.525, 374.251
196.907, 299.178
198.288, 312.140
199.669, 281.134
201.049, 262.159
202.429, 227.215
203.810, 233.302
205.189, 223.417
206.569, 180.561
207.949, 222.733
209.328, 111.931
210.707, 165.155
212.085, 133.403
213.464, 133.672
214.842, 135.961
216.220, 87.267
217.598, 153.590
218.976, 35.930
220.353, 69.286
221.730, 76.658
223.107, 115.047
224.483, 71.451
225.860, 41.872
227.236, 92.308
228.612, 58.760
229.988, 64.226
231.363, 65.717
232.738, 95.233
234.113, 93.772
235.488, 60.339
236.863, 111.955
238.237, 30.621
239.611, 69.329
240.985, 68.069
242.359, 90.836
243.732, 102.636
245.105, 29.475
246.478, 87.602
247.851, 11.819
249.223, 48.089
250.595, 81.406
251.967, 48.180
253.339, 68.132
254.711, 55.220
256.082, 82.428
257.453, 4.743
258.824, 11.151
260.195, 38.644
261.565, 46.787
262.935, 3.842
264.305, 7.532
265.675, 3.719
267.044, 10.920
268.414, 53.075
269.783, 5.195
271.151, 85.275
272.520, 33.336
273.888, 67.371
275.256, 31.388
276.624, 49.383
277.992, 111.362
279.359, 61.342
280.726, 62.312
282.093, 43.273
283.460, 75.224
284.827, 11.173
286.193, 42.106
287.559, 24.032
288.925, 11.053
290.290, 13.846
291.656, 42.265
293.021, 8.610
294.386, 3.478
295.750, 1.339
297.115, 12.802
298.479, 28.948
299.843, 40.099
301.207, 43.253
302.570, 106.412
303.933, 68.574
305.296, 138.741
306.659, 82.913
308.022, 114.088
309.384, 87.268
310.746, 122.452
312.108, 176.640
313.470, 87.833
314.831, 165.029
316.193, 183.230
317.554, 178.435
318.914, 147.643
320.275, 111.856
321.635, 183.072
322.995, 121.292
324.355, 142.516
325.715, 94.743
327.074, 136.974
328.434, 93.208
329.792, 57.446
331.151, 128.688
332.510, 70.933
333.868, 108.182
335.226, 118.435
336.584, 62.674
337.941, 107.915
339.299, 71.136
340.656, 65.326
342.013, 102.482
343.370, 119.614
344.726, 105.686
346.082, 80.725
347.438, 98.736
348.794, 103.729
350.150, 95.722
351.505, 77.718
352.860, 91.713
354.215, 145.715
355.570, 104.724
356.924, 187.740
358.278, 146.764
359.632, 167.794
360.986, 208.830
362.339, 135.881
363.693, 220.938
365.046, 213.007
366.399, 323.081
367.751, 316.163
369.104, 314.253
370.456, 399.347
371.808, 373.452
373.159, 496.561
374.511, 534.675
375.862, 572.794
377.213, 684.917
378.564, 612.792
379.914, 774.954
381.265, 681.137
382.615, 889.281
383.965, 933.423
385.315, 881.291
386.664, 980.439
388.013, 941.053
389.362, 1147.056
390.711, 1132.531
392.060, 1198.582
393.408, 1376.956
394.756, 1335.158
396.104, 1540.690
397.451, 1580.271
398.799, 1809.709
400.146, 1894.044
401.493, 1945.371
402.840, 2317.392
404.186, 2205.748
405.533, 2517.615
406.879, 2476.846
408.225, 2519.407
409.570, 2643.861
410.916, 2433.290
412.261, 2657.053
413.606, 2407.538
414.951, 2330.327
416.295, 2316.558
417.639, 2054.850
418.983, 2091.153
420.327, 1868.388
421.671, 1811.624
423.014, 1730.861
424.357, 1564.016
425.700, 1524.252
427.043, 1298.488
428.386, 1313.536
429.728, 1156.301
431.070, 1050.360
432.412, 1018.323
433.753, 839.286
435.095, 838.003
436.436, 768.888
437.777, 764.614
439.118, 699.414
440.458, 621.764
441.798, 670.874
443.138, 536.907
444.478, 572.929
445.818, 479.209
447.157, 462.759
448.496, 478.777
449.835, 440.683
451.174, 541.879
452.513, 458.238
453.851, 459.428
455.189, 496.993
456.527, 410.777
457.864, 503.639
459.202, 407.818
460.539, 454.994
461.876, 485.167
463.212, 471.336
464.549, 481.502
465.885, 433.666
467.221, 449.826
468.557, 427.982
469.893, 409.136
471.228, 443.286
472.563, 381.432
473.898, 496.575
475.233, 428.714
476.567, 467.850
477.902, 569.981
479.236, 571.110
480.570, 637.234
481.903, 696.355
483.237, 793.471
484.570, 972.585
485.903, 1107.694
487.235, 1382.799
488.568, 1361.900
489.900, 1849.997
491.232, 1991.089
492.564, 2209.178
493.896, 2633.262
495.227, 2480.342
496.558, 2734.418
497.889, 2533.489
499.220, 2317.555
500.551, 2145.617
501.881, 1663.676
503.211, 1546.730
504.541, 1207.780
505.870, 1041.826
507.200, 847.951
508.529, 677.056
509.858, 650.092
511.187, 522.367
512.515, 448.445
513.844, 383.469
515.172, 265.006
516.500, 271.238
517.827, 229.784
519.155, 233.965
520.482, 214.286
521.809, 199.653
523.136, 185.299
524.462, 161.611
525.789, 136.504
527.115, 128.639
528.441, 86.318
529.766, 99.533
531.092, 67.028
532.417, 111.136
533.742, 63.438
535.067, 64.614
536.391, 61.807
537.716, 0.130
539.040, 22.141
540.364, 4.497
541.688, 25.584
543.011, 45.613
544.334, 15.001
545.657, 37.887
546.980, 10.718
548.303, 32.768
549.625, 11.166
550.947, 49.083
552.269, 16.075
553.591, 35.108
554.913, 11.012
556.234, 9.199
557.555, 6.714
558.876, 20.484
560.197, 20.792
561.517, 0.015
562.837, 5.359
564.157, 29.451
565.477, 28.333
566.797, 10.987
568.116, 15.759
569.435, 17.320
570.754, 10.433
572.073, 17.770
573.391, 6.620
574.709, 49.227
576.027, 30.730
577.345, 30.246
578.663, 66.734
579.980, 49.246
581.297, 62.757
582.614, 62.222
583.931, 69.727
585.248, 113.187
586.564, 45.640
587.880, 98.086
589.196, 15.528
590.511, 98.970
591.827, 72.412
593.142, 35.865
594.457, 138.322
595.772, 115.787
597.086, 152.250
598.401, 152.718
599.715, 95.203
601.029, 192.695
602.343, 130.193
603.656, 160.694
604.969, 178.208
606.282, 168.719
607.595, 209.231
608.908, 216.467
610.220, 231.244
611.532, 248.745
612.844, 256.115
614.156, 269.996
615.468, 277.210
616.779, 291.689
618.090, 305.166
619.401, 317.395
620.712, 400.098
622.022, 355.564
623.332, 387.022
624.642, 409.472
625.952, 375.914
627.262, 396.349
628.571, 300.776
629.880, 343.196
631.189, 271.609
632.498, 310.016
633.807, 275.414
635.115, 268.815
636.423, 279.207
637.731, 203.593
639.039, 269.977
640.346, 263.352
641.653, 212.719
642.960, 305.077
644.267, 185.427
645.574, 221.772
646.880, 248.109
648.186, 227.438
649.492, 267.758
650.798, 244.070
652.103, 189.373
653.409, 214.667
654.714, 191.953
656.019, 184.230
657.323, 117.499
658.628, 98.763
659.932, 164.018
661.236, 84.264
662.540, 133.503
663.843, 49.732
665.147, 53.952
666.450, 84.163
667.753, 29.365
669.056, 58.557
670.358, 76.739
671.660, 12.912
672.963, 32.076
674.264, 12.226
675.566, 37.362
676.868, 24.488
678.169, 22.398
679.470, 29.756
680.771, 10.170
682.071, 67.882
683.372, 3.017
684.672, 6.006
685.972, 31.014
687.271, 8.989
688.571, 41.986
689.870, 22.950
691.169, 32.903
692.468, 30.845
693.767, 20.776
695.065, 54.947
696.364, 16.824
697.662, 37.673
698.960, 43.554
700.257, 13.435
701.555, 69.577
702.852, 10.432
704.149, 47.813
705.446, 41.798
706.742, 2.697
708.038, 11.223
709.335, 6.190
710.631, 8.558
711.926, 45.967
713.222, 3.679
714.517, 0.805
715.812, 48.384
717.107, 28.035
718.402, 52.911
719.696, 9.524
720.990, 15.537
722.284, 37.392
723.578, 14.814
724.872, 63.355
726.165, 37.212
727.458, 127.875
728.751, 83.547
730.044, 29.668
731.336, 64.315
732.629, 47.874
733.921, 75.555
735.213, 45.221
736.504, 43.825
737.796, 100.400
739.087, 43.990
740.378, 104.572
741.669, 82.196
742.960, 62.814
744.250, 123.354
745.540, 62.647
746.830, 127.372
748.120, 62.892
749.410, 106.689
750.699, 135.195
751.988, 92.694
753.277, 165.316
754.566, 144.805
755.854, 127.438
757.143, 150.908
758.431, 132.371
759.719, 165.066
761.006, 177.514
762.294, 220.955
763.581, 223.420
764.868, 180.847
766.155, 262.623
767.442, 213.263
768.728, 258.667
770.014, 368.062
771.300, 281.997
772.586, 335.748
773.872, 381.272
775.157, 352.672
776.442, 466.995
777.727, 387.345
779.012, 457.752
780.297, 555.167
781.581, 516.496
782.865, 604.131
784.149, 586.725
785.433, 597.408
786.716, 623.924
787.999, 607.245
789.282, 650.969
790.565, 588.245
791.848, 605.159
793.130, 687.580
794.413, 562.851
795.695, 658.097
796.977, 607.387
798.258, 602.617
799.540, 593.753
800.821, 538.968
802.102, 593.221
803.382, 549.422
804.663, 466.616
805.943, 539.822
807.224, 384.001
808.504, 388.173
809.783, 336.384
811.063, 264.542
812.342, 331.434
813.621, 262.578
814.900, 207.753
816.179, 226.882
817.457, 143.004
818.736, 190.115
820.014, 103.156
821.292, 164.258
822.569, 138.150
823.847, 102.187
825.124, 148.267
826.401, 56.825
827.678, 104.677
828.954, 72.205
830.231, 65.086
831.507, 98.817
832.783, 37.491
834.059, 69.273
835.334, 99.700
836.610, 37.699
837.885, 91.562
839.160, 65.870
840.435, 56.632
841.709, 120.102
842.983, 77.948
844.258, 101.589
845.532, 84.347
846.805, 61.076
848.079, 74.740
849.352, 58.550
850.625, 60.073
851.898, 88.862
853.171, 44.691
854.443, 132.152
855.715, 103.093
856.988, 109.516
858.259, 169.366
859.531, 129.209
860.803, 178.222
862.074, 93.800
863.345, 116.708
864.616, 99.288
865.886, 48.186
867.157, 103.371
868.427, 70.826
869.697, 22.743
870.967, 58.586
872.236, 20.536
873.506, 57.217
874.775, 0.002
876.044, 9.898
877.313, 6.666
878.581, 43.632
879.849, 37.900
881.118, 3.134
882.386, 19.827
883.653, 26.689
884.921, 31.644
886.188, 0.574
887.455, 16.521
888.722, 29.431
889.989, 70.331
891.255, 29.266
892.522, 29.160
893.788, 17.087
895.054, 17.010
896.319, 39.930
897.585, 15.845
898.850, 18.242
900.115, 61.657
901.380, 20.447
902.645, 52.435
903.909, 101.313
905.174, 1.189
906.438, 31.061
907.701, 0.070
908.965, 47.795
910.229, 58.656
911.492, 19.485
912.755, 45.360
914.018, 38.202
915.280, 23.042
916.543, 29.878
917.805, 5.289
919.067, 2.461
920.329, 34.361
921.590, 44.181
922.852, 9.000
924.113, 22.189
925.374, 0.392
926.635, 20.400
927.895, 47.810
929.156, 36.958
930.416, 12.722
931.676, 8.485
932.936, 59.244
934.195, 4.999
935.454, 4.247
936.714, 6.500
937.973, 2.759
939.231, 18.978
940.490, 40.286
941.748, 37.426
943.006, 11.864
944.264, 20.162
945.522, 20.530
946.780, 56.219
948.037, 11.907
949.294, 29.602
950.551, 16.706
951.808, 25.977
953.064, 12.662
954.320, 39.344
955.577, 77.025
956.832, 17.705
958.088, 48.383
959.344, 34.059
960.599, 10.733
961.854, 46.406
963.109, 14.922
964.364, 33.741
965.618, 11.403
966.872, 28.064
968.127, 33.724
969.380, 1.388
970.634, 50.051
971.888, 21.713
973.141, 9.374
974.394, 84.034
975.647, 55.695
976.900, 68.354
978.152, 93.010
979.404, 43.671
980.656, 54.333
981.908, 81.995
983.160, 82.657
984.411, 91.616
985.663, 68.932
986.914, 95.610
988.165, 76.228
989.415, 74.911
990.666, 133.597
991.916, 126.282
993.166, 88.979
994.416, 144.676
995.665, 73.374
996.915, 135.072
998.164, 176.771
999.413, 232.471
1000.662, 245.179
1001.911, 255.873
1003.159, 231.575
1004.407, 215.273
1005.655, 144.977
1006.903, 192.680
1008.151, 159.386
1009.398, 153.092
1010.646, 232.797
1011.893, 125.507
1013.139, 176.218
1014.386, 157.933
1015.633, 171.649
1016.879, 224.365
1018.125, 162.084
1019.371, 252.805
1020.616, 231.455
1021.862, 201.176
1023.107, 224.829
1024.352, 176.563
1025.597, 229.082
1026.842, 232.700
1028.086, 177.306
1029.330, 210.046
1030.574, 189.796
1031.818, 202.237
1033.062, 191.816
1034.305, 175.637
1035.548, 178.373
1036.791, 160.983
1038.034, 163.530
1039.277, 151.407
1040.519, 166.169
1041.762, 171.680
1043.004, 172.590
1044.246, 192.346
1045.487, 191.040
1046.729, 207.807
1047.970, 202.501
1049.211, 217.069
1050.452, 173.837
1051.692, 175.275
1052.933, 260.046
1054.173, 209.147
1055.413, 228.789
1056.653, 215.639
1057.893, 186.259
1059.132, 231.035
1060.371, 186.923
1061.610, 136.536
1062.849, 261.319
1064.088, 164.109
1065.326, 205.868
1066.565, 171.657
1067.803, 182.095
1069.041, 263.661
1070.278, 200.457
1071.516, 280.638
1072.753, 211.888
1073.990, 232.345
1075.227, 273.006
1076.464, 267.769
1077.700, 285.746
1078.936, 322.544
1080.173, 256.356
1081.408, 323.129
1082.644, 348.930
1083.880, 299.417
1085.115, 413.938
1086.350, 343.362
1087.585, 395.093
1088.820, 405.867
1090.054, 325.231
1091.288, 382.095
1092.522, 400.255
1093.756, 348.259
1094.990, 434.048
1096.224, 324.855
1097.457, 418.636
1098.690, 410.447
1099.923, 322.345
1101.156, 459.053
1102.388, 401.822
1103.621, 431.642
1104.853, 448.456
1106.085, 395.250
1107.316, 489.064
1108.548, 459.880
1109.779, 380.664
1111.010, 498.480
1112.241, 367.554
1113.472, 418.518
1114.703, 453.297
1115.933, 370.116
1117.163, 476.311
1118.393, 418.056
1119.623, 387.878
1120.853, 455.787
1122.082, 387.576
1123.311, 455.408
1124.540, 417.240
1125.769, 353.073
1126.997, 487.962
1128.226, 366.796
1129.454, 385.630
1130.682, 413.465
1131.910, 294.300
1133.138, 361.141
1134.365, 336.021
1135.592, 280.858
1136.819, 366.837
1138.046, 293.674
1139.273, 327.511
1140.499, 310.423
1141.725, 255.261
1142.951, 323.099
1144.177, 292.937
1145.403, 265.774
1146.628, 308.723
1147.854, 245.561
1149.079, 193.398
1150.304, 240.235
1151.528, 177.072
1152.753, 218.908
1153.977, 197.744
1155.201, 167.579
1156.425, 218.415
1157.649, 175.250
1158.872, 148.084
1160.096, 166.917
1161.319, 121.751
1162.542, 167.583
1163.764, 176.435
1164.987, 146.266
1166.209, 145.097
1167.431, 116.927
1168.653, 105.758
1169.875, 150.398
1171.097, 39.227
1172.318, 126.054
1173.539, 92.175
1174.760, 31.002
1175.981, 118.830
1177.202, 77.691
1178.422, 76.516
1179.642, 82.547
1180.862, 65.574
1182.082, 117.398
1183.302, 106.838
1184.521, 33.660
1185.740, 119.550
1186.959, 60.612
1188.178, 67.463
1189.397, 160.387
1190.615, 32.758
1191.834, 48.572
1193.052, 57.660
1194.269, 97.915
1195.487, 61.835
1196.705, 87.994
1197.922, 77.806
1199.139, 78.242
1200.356, 7.795
1201.573, 49.114
1202.789, 3.936
1204.006, 32.757
1205.222, 58.562
1206.438, 0.979
1207.653, 9.780
1208.869, 95.671
1210.084, 38.287
1211.299, 80.089
1212.514, 45.888
1213.729, 49.709
1214.944, 119.568
1216.158, 45.493
1217.372, 6.710
1218.586, 80.081
1219.800, 23.931
1221.014, 27.727
1222.227, 39.521
1223.440, 18.688
1224.654, 54.104
1225.866, 14.239
1227.079, 20.099
1228.292, 47.884
1229.504, 38.824
1230.716, 96.643
1231.928, 113.460
1233.139, 0.481
1234.351, 58.254
1235.562, 47.108
1236.773, 20.891
1237.984, 57.671
1239.195, 4.555
1240.406, 57.222
1241.616, 37.994
1242.826, 30.939
1244.036, 93.823
1245.246, 59.583
1246.456, 12.652
1247.665, 37.107
1248.874, 35.858
1250.083, 54.730
1251.292, 81.479
1252.501, 46.227
1253.709, 49.974
1254.917, 35.720
1256.125, 76.465
1257.333, 73.208
1258.541, 4.953
1259.748, 42.696
1260.956, 68.433
1262.163, 18.832
1263.370, 70.400
1264.576, 68.126
1265.783, 24.543
1266.989, 139.266
1268.195, 50.988
1269.401, 61.708
1270.607, 62.427
1271.813, 31.145
1273.018, 120.860
1274.223, 66.574
1275.428, 49.270
1276.633, 114.956
1277.838, 44.640
1279.042, 35.322
1280.246, 83.037
1281.450, 12.695
1282.654, 70.424
1283.858, 89.075
1285.061, 11.280
1286.265, 53.391
1287.468, 62.021
1288.671, 60.677
1289.873, 84.293
1291.076, 21.907
1292.278, 71.510
1293.480, 107.098
1294.682, 57.670
1295.884, 63.238
1297.086, 105.795
1298.287, 74.348
1299.488, 83.897
1300.689, 83.442
1301.890, 88.984
1303.091, 101.520
1304.291, 52.050
1305.491, 94.576
1306.691, 79.096
1307.891, 46.613
1309.091, 110.125
1310.290, 78.635
1311.490, 72.137
1312.689, 137.635
1313.888, 36.870
1315.086, 108.607
1316.285, 100.081
1317.483, 12.450
1318.681, 102.010
1319.879, 78.465
1321.077, 44.910
1322.275, 112.331
1323.472, 10.747
1324.669, 11.157
1325.866, 74.561
1327.063, 33.042
1328.260, 72.339
1329.456, 37.714
1330.653, 8.082
1331.849, 46.445
1333.045, 28.800
1334.240, 0.150
1335.436, 94.492
1336.631, 2.172
1337.826, 52.158
1339.021, 28.482
1340.216, 4.801
1341.411, 69.114
1342.605, 0.518
1343.799, 19.783
1344.993, 31.748
1346.187, 52.038
1347.381, 6.758
1348.574, 113.518
1349.767, 16.211
1350.961, 96.944
1352.153, 35.674
1353.346, 19.073
1354.539, 86.168
1355.731, 56.407
1356.923, 6.358
1358.115, 41.871
1359.307, 26.605
1360.498, 83.825
1361.690, 73.879
1362.881, 43.096
1364.072, 83.281
1365.263, 111.534
1366.453, 57.718
1367.644, 73.755
1368.834, 6.002
1370.024, 39.038
1371.214, 141.117
1372.404, 20.187
1373.593, 47.219
1374.783, 47.333
1375.972, 11.452
1377.161, 103.980
1378.349, 37.616
1379.538, 57.189
1380.726, 126.452
1381.915, 86.980
1383.103, 65.578
1384.290, 108.227
1385.478, 7.801
1386.665, 145.379
1387.853, 81.938
1389.040, 112.508
1390.227, 118.913
1391.413, 84.943
1392.600, 27.480
1393.786, 111.908
1394.972, 62.418
1396.158, 91.859
1397.344, 82.359
1398.530, 65.854
1399.715, 80.284
1400.900, 74.599
1402.085, 95.076
1403.270, 110.232
1404.455, 75.687
1405.639, 2.998
1406.824, 140.443
1408.008, 16.116
1409.192, 86.321
1410.375, 73.755
1411.559, 67.185
1412.742, 104.612
1413.925, 100.009
1415.108, 73.429
1416.291, 63.968
1417.474, 84.429
1418.656, 97.099
1419.839, 102.265
1421.021, 62.495
1422.202, 47.229
1423.384, 131.665
1424.566, 35.832
1425.747, 107.677
1426.928, 53.912
1428.109, 43.045
1429.290, 67.073
1430.470, 44.734
1431.651, 114.687
1432.831, 163.687
1434.011, 119.171
1435.191, 104.588
1436.370, 158.427
1437.550, 97.476
1438.729, 174.598
1439.908, 152.368
1441.087, 134.250
1442.266, 265.229
1443.444, 180.209
1444.623, 139.391
1445.801, 277.046
1446.979, 197.846
1448.157, 190.306
1449.334, 242.065
1450.512, 222.986
1451.689, 284.908
1452.866, 234.177
1454.043, 200.044
1455.220, 229.900
1456.396, 195.469
1457.573, 185.281
1458.749, 233.065
1459.925, 159.820
1461.100, 210.558
1462.276, 210.010
1463.451, 148.323
1464.627, 176.852
1465.802, 183.338
1466.977, 104.779
1468.151, 170.217
1469.326, 105.702
1470.500, 138.039
1471.674, 153.328
1472.848, 119.814
1474.022, 139.183
1475.195, 153.563
1476.369, 61.048
1477.542, 99.647
1478.715, 159.294
1479.888, 90.955
1481.061, 196.594
1482.233, 84.238
1483.405, 19.877
1484.577, 147.506
1485.749, 67.121
1486.921, 104.725
1488.093, 77.315
1489.264, 81.885
1490.435, 102.463
1491.606, 85.257
1492.777, 5.926
1493.948, 114.922
1495.118, 54.812
1496.288, 46.748
1497.459, 138.737
1498.628, 70.764
1499.798, 4.170
1500.968, 78.448
1502.137, 1.581
1503.306, 99.782
1504.475, 108.075
1505.644, 14.267
1506.813, 104.072
1507.981, 100.813
1509.149, 6.336
1510.318, 115.542
1511.485, 17.274
1512.653, 27.643
1513.821, 137.144
1514.988, 0.785
1516.155, 0.147
1517.322, 0.000
##END=



