##NAMES=Stilbite-Ca
##RRUFFID=R050012
##IDEAL CHEMISTRY=NaCa_4_(Si_27_Al_9_)O_72_&#183;28H_2_O
##LOCALITY=Harborville, Nova Scotia, Canada
##OWNER=RRUFF
##SOURCE=University of Arizona Mineral Museum
##DESCRIPTION=Globular aggregate of thin tabular white single crystals
##STATUS=The identification of this mineral has been confirmed by X-ray diffraction and chemical analysis
##URL=rruff.info/R050012
##MEASURED CHEMISTRY=(Na_1.50_K_0.03_)_Σ=1.53_Ca_4.15_(Si_26.17_Al_9.83_)O_72_·27.91H_2_O; H_2_O estimated by difference
##PIN_ID=M00431
##ORIENTATION=Laser parallel to -b* (0 -1 0). Fiducial mark perpendicular to laser is parallel to c [0 0 1]
84.264, 0.000
85.664, 219.773
87.064, 21.443
88.463, 272.352
89.863, 376.956
91.262, 623.500
92.661, 776.076
94.059, 1091.508
95.458, 1257.245
96.856, 1610.747
98.254, 1813.904
99.652, 2084.348
101.049, 2283.960
102.446, 2728.960
103.843, 3028.309
105.240, 3300.503
106.637, 3494.336
108.033, 3888.901
109.429, 4173.744
110.825, 4809.066
112.220, 5085.215
113.616, 5332.969
115.011, 5254.755
116.406, 5412.582
117.800, 5505.520
119.195, 5631.027
120.589, 5718.385
121.983, 5694.217
123.377, 5777.479
124.770, 5877.902
126.163, 5665.564
127.556, 5740.460
128.949, 5562.613
130.342, 5372.143
131.734, 5269.088
133.126, 5074.529
134.518, 4922.465
135.909, 4851.487
137.301, 4800.953
138.692, 4582.735
140.083, 4351.631
141.473, 4161.543
142.864, 3990.158
144.254, 3768.486
145.644, 3581.182
147.034, 3637.037
148.423, 3649.098
149.812, 3539.278
151.201, 3535.493
152.590, 3327.501
153.979, 3197.662
155.367, 3097.289
156.755, 3056.755
158.143, 2810.828
159.530, 2731.992
160.918, 2610.017
162.305, 2366.884
163.692, 2315.612
165.078, 2140.270
166.465, 2025.592
167.851, 1869.928
169.237, 1815.675
170.623, 1687.459
172.008, 1547.531
173.393, 1338.249
174.778, 1216.828
176.163, 1118.650
177.548, 1068.283
178.932, 972.679
180.316, 887.326
181.700, 822.204
183.083, 717.290
184.467, 639.563
185.850, 573.002
187.233, 524.584
188.616, 462.287
189.998, 421.094
191.380, 341.047
192.762, 318.956
194.144, 196.983
195.525, 138.058
196.907, 98.161
198.288, 145.276
199.669, 27.377
201.049, 38.438
202.429, 34.561
203.810, 103.637
205.189, 47.524
206.569, 85.085
207.949, 117.391
209.328, 242.544
210.707, 189.244
212.085, 244.139
213.464, 247.497
214.842, 147.205
216.220, 123.979
217.598, 149.248
218.976, 134.250
220.353, 138.533
221.730, 117.016
223.107, 169.655
224.483, 207.469
225.860, 170.072
227.236, 52.769
228.612, 72.366
229.988, 68.348
231.363, 61.214
232.738, 38.342
234.113, 22.204
235.488, 45.799
236.863, 43.124
238.237, 59.130
239.611, 25.971
240.985, 125.704
242.359, 180.415
243.732, 54.047
245.105, 133.593
246.478, 107.072
247.851, 107.483
249.223, 198.827
250.595, 213.163
251.967, 166.230
253.339, 154.921
254.711, 335.136
256.082, 246.664
257.453, 347.390
258.824, 410.238
260.195, 328.146
261.565, 377.057
262.935, 483.932
264.305, 530.746
265.675, 660.472
267.044, 704.084
268.414, 698.558
269.783, 912.872
271.151, 923.011
272.520, 954.969
273.888, 1148.740
275.256, 1143.322
276.624, 1245.710
277.992, 1230.900
279.359, 1350.887
280.726, 1418.647
282.093, 1324.155
283.460, 1320.388
284.827, 1448.335
286.193, 1466.984
287.559, 1445.342
288.925, 1435.421
290.290, 1305.231
291.656, 1318.787
293.021, 1277.095
294.386, 1166.169
295.750, 1187.021
297.115, 1137.661
298.479, 1105.362
299.843, 1152.312
301.207, 1064.309
302.570, 1063.081
303.933, 1046.618
305.296, 973.891
306.659, 954.893
308.022, 967.581
309.384, 955.608
310.746, 973.652
312.108, 998.921
313.470, 1038.607
314.831, 1075.761
316.193, 1041.482
317.554, 1011.790
318.914, 1005.691
320.275, 924.147
321.635, 935.327
322.995, 908.298
324.355, 870.118
325.715, 883.800
327.074, 811.350
328.434, 823.803
329.792, 798.147
331.151, 815.394
332.510, 749.562
333.868, 805.644
335.226, 828.659
336.584, 696.613
337.941, 759.502
339.299, 800.336
340.656, 710.125
342.013, 725.871
343.370, 819.579
344.726, 735.248
346.082, 792.612
347.438, 743.506
348.794, 847.041
350.150, 843.264
351.505, 857.251
352.860, 855.941
354.215, 940.425
355.570, 1066.288
356.924, 1090.941
358.278, 1079.420
359.632, 1102.111
360.986, 1298.113
362.339, 1321.028
363.693, 1473.647
365.046, 1520.787
366.399, 1562.755
367.751, 1704.593
369.104, 1858.142
370.456, 1965.179
371.808, 2103.259
373.159, 2293.484
374.511, 2455.400
375.862, 2602.976
377.213, 2815.379
378.564, 3041.468
379.914, 3251.880
381.265, 3446.215
382.615, 3813.940
383.965, 4143.023
385.315, 4517.142
386.664, 4964.262
388.013, 5366.485
389.362, 5892.035
390.711, 6386.204
392.060, 6849.296
393.408, 7731.889
394.756, 8312.090
396.104, 9200.999
397.451, 9969.146
398.799, 10964.502
400.146, 11679.710
401.493, 12395.311
402.840, 13340.449
404.186, 14037.129
405.533, 14674.286
406.879, 14799.816
408.225, 14816.469
409.570, 14552.525
410.916, 14098.603
412.261, 13685.744
413.606, 13012.571
414.951, 12259.225
416.295, 11405.513
417.639, 10492.946
418.983, 9749.490
420.327, 9050.237
421.671, 8391.920
423.014, 7871.237
424.357, 7308.075
425.700, 6895.599
427.043, 6512.880
428.386, 6090.322
429.728, 5667.850
431.070, 5425.262
432.412, 5133.208
433.753, 4901.077
435.095, 4738.866
436.436, 4666.582
437.777, 4444.222
439.118, 4461.789
440.458, 4509.279
441.798, 4446.698
443.138, 4334.043
444.478, 4481.317
445.818, 4518.519
447.157, 4675.650
448.496, 5072.712
449.835, 5019.705
451.174, 5296.630
452.513, 5323.490
453.851, 5550.285
455.189, 5467.013
456.527, 5423.678
457.864, 5430.281
459.202, 5246.821
460.539, 4953.299
461.876, 4679.719
463.212, 4226.077
464.549, 3972.377
465.885, 3608.618
467.221, 3234.804
468.557, 3010.932
469.893, 2825.006
471.228, 2715.028
472.563, 2449.999
473.898, 2348.920
475.233, 2306.795
476.567, 2338.627
477.902, 2425.956
479.236, 2549.166
480.570, 2763.876
481.903, 3028.549
483.237, 3285.187
484.570, 3560.765
485.903, 4376.156
487.235, 4931.579
488.568, 5286.675
489.900, 6211.797
491.232, 6746.789
492.564, 7221.827
493.896, 7486.567
495.227, 7431.519
496.558, 7086.545
497.889, 6610.993
499.220, 5905.681
500.551, 5000.518
501.881, 4264.955
503.211, 3579.436
504.541, 2959.397
505.870, 2517.085
507.200, 2065.107
508.529, 1659.738
509.858, 1462.061
511.187, 1163.341
512.515, 914.401
513.844, 766.176
515.172, 737.990
516.500, 530.770
517.827, 520.282
519.155, 473.916
520.482, 387.685
521.809, 307.896
523.136, 216.495
524.462, 188.101
525.789, 212.735
527.115, 173.913
528.441, 129.699
529.766, 166.423
531.092, 149.295
532.417, 149.890
533.742, 73.772
535.067, 49.809
536.391, 42.586
537.716, 59.497
539.040, 106.779
540.364, 19.652
541.688, 70.938
543.011, 96.671
544.334, 34.687
545.657, 44.649
546.980, 53.511
548.303, 68.821
549.625, 87.981
550.947, 88.895
552.269, 76.280
553.591, 93.834
554.913, 79.161
556.234, 73.645
557.555, 1.394
558.876, 6.597
560.197, 3.564
561.517, 6.584
562.837, 0.857
564.157, 21.404
565.477, 19.672
566.797, 27.922
568.116, 93.685
569.435, 92.426
570.754, 64.209
572.073, 148.961
573.391, 77.812
574.709, 125.737
576.027, 162.710
577.345, 202.730
578.663, 155.871
579.980, 119.716
581.297, 220.878
582.614, 231.966
583.931, 150.854
585.248, 231.946
586.564, 315.694
587.880, 342.577
589.196, 419.542
590.511, 396.154
591.827, 460.233
593.142, 492.952
594.457, 531.017
595.772, 562.754
597.086, 568.327
598.401, 583.634
599.715, 647.337
601.029, 779.526
602.343, 762.853
603.656, 828.094
604.969, 851.188
606.282, 897.298
607.595, 921.249
608.908, 1019.267
610.220, 931.216
611.532, 959.091
612.844, 994.938
614.156, 1084.770
615.468, 1135.587
616.779, 1143.384
618.090, 1048.156
619.401, 1246.900
620.712, 1204.625
622.022, 1354.325
623.332, 1296.999
624.642, 1311.647
625.952, 1210.269
627.262, 1198.875
628.571, 1129.453
629.880, 996.006
631.189, 966.556
632.498, 879.090
633.807, 841.624
635.115, 844.149
636.423, 785.650
637.731, 800.136
639.039, 769.596
640.346, 723.034
641.653, 686.446
642.960, 712.833
644.267, 757.194
645.574, 683.531
646.880, 629.844
648.186, 712.134
649.492, 654.398
650.798, 621.641
652.103, 557.860
653.409, 507.056
654.714, 433.227
656.019, 384.377
657.323, 399.503
658.628, 286.813
659.932, 295.893
661.236, 223.952
662.540, 199.239
663.843, 171.412
665.147, 210.645
666.450, 143.899
667.753, 146.016
669.056, 208.082
670.358, 32.198
671.660, 30.248
672.963, 33.269
674.264, 92.302
675.566, 59.275
676.868, 24.233
678.169, 155.273
679.470, 59.062
680.771, 56.368
682.071, 47.532
683.372, 69.352
684.672, 6.848
685.972, 37.920
687.271, 19.610
688.571, 5.231
689.870, 39.211
691.169, 3.970
692.468, 2.057
693.767, 56.015
695.065, 3.629
696.364, 56.699
697.662, 1.384
698.960, 9.991
700.257, 22.944
701.555, 8.659
702.852, 24.798
704.149, 42.507
705.446, 7.091
706.742, 26.964
708.038, 17.987
709.335, 6.317
710.631, 50.790
711.926, 68.496
713.222, 10.913
714.517, 5.728
715.812, 5.634
717.107, 3.437
718.402, 46.317
719.696, 13.456
720.990, 72.597
722.284, 14.191
723.578, 229.934
724.872, 195.471
726.165, 162.884
727.458, 162.964
728.751, 132.216
730.044, 107.992
731.336, 89.312
732.629, 70.955
733.921, 35.430
735.213, 102.088
736.504, 18.548
737.796, 30.848
739.087, 71.595
740.378, 14.949
741.669, 89.674
742.960, 50.675
744.250, 23.387
745.540, 102.284
746.830, 89.933
748.120, 63.022
749.410, 100.610
750.699, 41.411
751.988, 73.172
753.277, 128.753
754.566, 50.461
755.854, 118.196
757.143, 101.833
758.431, 116.164
759.719, 145.428
761.006, 133.968
762.294, 192.981
763.581, 142.435
764.868, 154.255
766.155, 214.870
767.442, 173.360
768.728, 196.189
770.014, 234.743
771.300, 212.197
772.586, 283.671
773.872, 289.864
775.157, 329.933
776.442, 304.222
777.727, 378.504
779.012, 362.841
780.297, 336.756
781.581, 421.910
782.865, 463.771
784.149, 444.003
785.433, 538.000
786.716, 452.321
787.999, 592.951
789.282, 525.986
790.565, 543.004
791.848, 564.226
793.130, 500.069
794.413, 509.296
795.695, 526.077
796.977, 487.730
798.258, 472.270
799.540, 349.071
800.821, 372.566
802.102, 312.190
803.382, 289.616
804.663, 358.388
805.943, 328.759
807.224, 250.258
808.504, 239.635
809.783, 205.079
811.063, 227.513
812.342, 120.985
813.621, 176.194
814.900, 181.657
816.179, 107.700
817.457, 128.950
818.736, 107.955
820.014, 95.886
821.292, 121.662
822.569, 126.281
823.847, 107.103
825.124, 117.019
826.401, 115.272
827.678, 103.970
828.954, 110.205
830.231, 105.275
831.507, 77.174
832.783, 92.595
834.059, 110.588
835.334, 109.546
836.610, 139.446
837.885, 54.258
839.160, 31.531
840.435, 211.323
841.709, 144.969
842.983, 225.074
844.258, 130.586
845.532, 170.146
846.805, 257.003
848.079, 124.765
849.352, 134.728
850.625, 217.268
851.898, 237.231
853.171, 235.640
854.443, 258.321
855.715, 248.949
856.988, 272.792
858.259, 262.308
859.531, 310.361
860.803, 266.259
862.074, 264.980
863.345, 319.157
864.616, 185.049
865.886, 131.047
867.157, 79.261
868.427, 142.700
869.697, 81.126
870.967, 132.630
872.236, 67.510
873.506, 93.241
874.775, 67.205
876.044, 86.151
877.313, 47.542
878.581, 69.916
879.849, 115.205
881.118, 37.483
882.386, 65.617
883.653, 100.635
884.921, 53.562
886.188, 96.398
887.455, 25.930
888.722, 33.983
889.989, 0.470
891.255, 63.107
892.522, 69.396
893.788, 54.674
895.054, 49.099
896.319, 110.697
897.585, 8.833
898.850, 185.939
900.115, 6.644
901.380, 140.218
902.645, 49.936
903.909, 51.391
905.174, 86.964
906.438, 48.951
907.701, 34.632
908.965, 50.920
910.229, 4.441
911.492, 3.767
912.755, 52.007
914.018, 0.283
915.280, 58.541
916.543, 15.749
917.805, 8.985
919.067, 28.749
920.329, 34.504
921.590, 46.773
922.852, 12.086
924.113, 8.582
925.374, 65.232
926.635, 24.131
927.895, 28.474
929.156, 23.064
930.416, 7.638
931.676, 161.194
932.936, 28.264
934.195, 99.268
935.454, 6.786
936.714, 75.713
937.973, 33.270
939.231, 86.862
940.490, 62.006
941.748, 16.776
943.006, 33.945
944.264, 44.298
945.522, 0.472
946.780, 44.739
948.037, 67.938
949.294, 88.124
950.551, 18.298
951.808, 84.458
953.064, 46.605
954.320, 113.747
955.577, 3.877
956.832, 87.993
958.088, 48.098
959.344, 70.190
960.599, 47.271
961.854, 42.340
963.109, 26.396
964.364, 98.233
965.618, 14.267
966.872, 85.287
968.127, 3.043
969.380, 23.878
970.634, 73.616
971.888, 37.297
973.141, 70.080
974.394, 80.875
975.647, 18.416
976.900, 51.314
978.152, 14.034
979.404, 95.701
980.656, 132.390
981.908, 162.058
983.160, 143.605
984.411, 139.217
985.663, 121.901
986.914, 211.579
988.165, 211.380
989.415, 223.863
990.666, 144.254
991.916, 196.150
993.166, 359.013
994.416, 281.905
995.665, 297.744
996.915, 471.654
998.164, 458.563
999.413, 724.390
1000.662, 754.263
1001.911, 689.183
1003.159, 648.103
1004.407, 453.021
1005.655, 454.934
1006.903, 392.849
1008.151, 397.768
1009.398, 412.683
1010.646, 414.599
1011.893, 377.518
1013.139, 479.433
1014.386, 428.347
1015.633, 500.270
1016.879, 473.187
1018.125, 460.924
1019.371, 506.838
1020.616, 520.584
1021.862, 672.493
1023.107, 678.179
1024.352, 626.970
1025.597, 626.649
1026.842, 583.412
1028.086, 568.008
1029.330, 579.692
1030.574, 553.562
1031.818, 599.100
1033.062, 522.753
1034.305, 553.548
1035.548, 587.150
1036.791, 541.930
1038.034, 582.554
1039.277, 518.067
1040.519, 528.134
1041.762, 650.767
1043.004, 535.427
1044.246, 614.026
1045.487, 587.599
1046.729, 572.427
1047.970, 578.034
1049.211, 534.868
1050.452, 531.318
1051.692, 586.054
1052.933, 525.001
1054.173, 561.590
1055.413, 615.328
1056.653, 613.067
1057.893, 624.593
1059.132, 569.398
1060.371, 596.263
1061.610, 563.158
1062.849, 679.779
1064.088, 662.880
1065.326, 638.518
1066.565, 613.805
1067.803, 727.218
1069.041, 624.861
1070.278, 765.332
1071.516, 768.724
1072.753, 799.021
1073.990, 988.458
1075.227, 931.468
1076.464, 999.232
1077.700, 1084.073
1078.936, 1038.561
1080.173, 1208.964
1081.408, 1235.760
1082.644, 1166.526
1083.880, 1365.314
1085.115, 1239.703
1086.350, 1293.309
1087.585, 1512.547
1088.820, 1351.447
1090.054, 1428.913
1091.288, 1393.366
1092.522, 1497.692
1093.756, 1485.260
1094.990, 1530.415
1096.224, 1486.270
1097.457, 1629.939
1098.690, 1488.746
1099.923, 1625.219
1101.156, 1648.960
1102.388, 1627.204
1103.621, 1726.958
1104.853, 1717.392
1106.085, 1885.351
1107.316, 1830.947
1108.548, 1832.636
1109.779, 1872.232
1111.010, 1820.808
1112.241, 1862.479
1113.472, 1931.265
1114.703, 1798.728
1115.933, 1955.472
1117.163, 1864.879
1118.393, 1856.390
1119.623, 1934.110
1120.853, 1813.683
1122.082, 1859.394
1123.311, 1961.140
1124.540, 1803.477
1125.769, 1876.239
1126.997, 1875.734
1128.226, 1752.485
1129.454, 1922.626
1130.682, 1773.384
1131.910, 1763.944
1133.138, 1905.704
1134.365, 1782.463
1135.592, 1829.295
1136.819, 1861.054
1138.046, 1811.815
1139.273, 1832.577
1140.499, 1821.338
1141.725, 1830.184
1142.951, 1881.221
1144.177, 1764.980
1145.403, 1959.738
1146.628, 1843.494
1147.854, 1651.250
1149.079, 1913.005
1150.304, 1644.758
1151.528, 1673.511
1152.753, 1656.278
1153.977, 1506.027
1155.201, 1641.818
1156.425, 1447.564
1157.649, 1425.309
1158.872, 1336.051
1160.096, 1242.792
1161.319, 1134.532
1162.542, 1140.270
1163.764, 989.005
1164.987, 1097.739
1166.209, 915.472
1167.431, 832.203
1168.653, 862.933
1169.875, 685.661
1171.097, 684.389
1172.318, 728.115
1173.539, 570.840
1174.760, 623.564
1175.981, 463.287
1177.202, 553.009
1178.422, 488.729
1179.642, 411.450
1180.862, 413.169
1182.082, 465.368
1183.302, 269.121
1184.521, 426.837
1185.740, 231.869
1186.959, 333.592
1188.178, 289.414
1189.397, 181.099
1190.615, 140.821
1191.834, 222.779
1193.052, 150.500
1194.269, 137.216
1195.487, 77.168
1196.705, 199.886
1197.922, 226.605
1199.139, 8.609
1200.356, 122.102
1201.573, 130.848
1202.789, 0.444
1204.006, 32.262
1205.222, 24.233
1206.438, 35.458
1207.653, 74.159
1208.869, 37.433
1210.084, 79.127
1211.299, 79.007
1212.514, 18.299
1213.729, 137.390
1214.944, 15.407
1216.158, 85.804
1217.372, 59.851
1218.586, 28.900
1219.800, 44.754
1221.014, 3.592
1222.227, 60.146
1223.440, 3.199
1224.654, 326.493
1225.866, 240.143
1227.079, 183.792
1228.292, 82.555
1229.504, 215.055
1230.716, 102.964
1231.928, 47.369
1233.139, 202.994
1234.351, 51.823
1235.562, 101.480
1236.773, 200.151
1237.984, 25.822
1239.195, 107.503
1240.406, 57.183
1241.616, 1.135
1242.826, 118.538
1244.036, 40.210
1245.246, 50.881
1246.456, 121.553
1247.665, 23.777
1248.874, 93.886
1250.083, 40.548
1251.292, 4.573
1252.501, 114.333
1253.709, 100.994
1254.917, 74.769
1256.125, 242.426
1257.333, 17.079
1258.541, 45.731
1259.748, 236.382
1260.956, 92.393
1262.163, 91.043
1263.370, 140.686
1264.576, 59.328
1265.783, 167.969
1266.989, 150.610
1268.195, 147.871
1269.401, 265.509
1270.607, 30.152
1271.813, 174.944
1273.018, 157.586
1274.223, 0.414
1275.428, 262.171
1276.633, 6.194
1277.838, 63.552
1279.042, 259.181
1280.246, 45.808
1281.450, 140.434
1282.654, 138.048
1283.858, 81.658
1285.061, 186.278
1286.265, 43.877
1287.468, 12.527
1288.671, 115.039
1289.873, 89.604
1291.076, 205.157
1292.278, 238.709
1293.480, 116.246
1294.682, 201.780
1295.884, 106.279
1297.086, 62.759
1298.287, 165.217
1299.488, 56.672
1300.689, 155.103
1301.890, 282.531
1303.091, 75.955
1304.291, 213.375
1305.491, 256.792
1306.691, 85.207
1307.891, 257.616
1309.091, 168.021
1310.290, 141.424
1311.490, 390.824
1312.689, 221.221
1313.888, 151.614
1315.086, 264.004
1316.285, 84.387
1317.483, 241.766
1318.681, 79.139
1319.879, 153.509
1321.077, 277.871
1322.275, 123.229
1323.472, 76.583
1324.669, 73.925
1325.866, 12.738
1327.063, 62.575
1328.260, 94.866
1329.456, 9.150
1330.653, 105.426
1331.849, 48.696
1333.045, 4.040
1334.240, 81.213
1335.436, 15.459
1336.631, 98.699
1337.826, 137.933
1339.021, 39.838
1340.216, 118.373
1341.411, 103.581
1342.605, 5.215
1343.799, 143.617
1344.993, 64.809
1346.187, 100.997
1347.381, 117.117
1348.574, 16.715
1349.767, 77.237
1350.961, 71.475
1352.153, 61.364
1353.346, 156.759
1354.539, 23.104
1355.731, 74.021
1356.923, 119.099
1358.115, 25.705
1359.307, 48.284
1360.498, 144.382
1361.690, 31.501
1362.881, 208.779
1364.072, 117.031
1365.263, 46.801
1366.453, 249.911
1367.644, 58.935
1368.834, 97.057
1370.024, 221.182
1371.214, 67.278
1372.404, 121.064
1373.593, 149.082
1374.783, 40.056
1375.972, 113.985
1377.161, 18.354
1378.349, 86.253
1379.538, 313.680
1380.726, 116.143
1381.915, 216.710
1383.103, 242.984
1384.290, 78.479
1385.478, 233.299
1386.665, 174.776
1387.853, 118.082
1389.040, 233.603
1390.227, 133.945
1391.413, 138.408
1392.600, 226.910
1393.786, 4.407
1394.972, 44.901
1396.158, 136.383
1397.344, 41.717
1398.530, 144.728
1399.715, 107.228
1400.900, 85.647
1402.085, 160.977
1403.270, 6.384
1404.455, 87.681
1405.639, 163.511
1406.824, 85.883
1408.008, 85.251
1409.192, 126.613
1410.375, 0.051
1411.559, 150.247
1412.742, 145.595
1413.925, 8.058
1415.108, 281.284
1416.291, 8.377
1417.474, 43.957
1418.656, 280.289
1419.839, 45.618
1421.021, 89.942
1422.202, 204.264
1423.384, 88.583
1424.566, 339.672
1425.747, 221.499
1426.928, 70.632
1428.109, 330.440
1429.290, 228.327
1430.470, 255.528
1431.651, 411.706
1432.831, 285.169
1434.011, 445.267
1435.191, 466.451
1436.370, 353.567
1437.550, 556.929
1438.729, 596.180
1439.908, 540.079
1441.087, 762.823
1442.266, 575.146
1443.444, 647.882
1444.623, 785.699
1445.801, 639.579
1446.979, 800.479
1448.157, 750.229
1449.334, 681.782
1450.512, 794.710
1451.689, 791.624
1452.866, 758.519
1454.043, 962.419
1455.220, 751.299
1456.396, 683.154
1457.573, 902.171
1458.749, 625.729
1459.925, 742.217
1461.100, 687.961
1462.276, 546.804
1463.451, 593.487
1464.627, 565.153
1465.802, 326.190
1466.977, 544.752
1468.151, 378.185
1469.326, 365.000
1470.500, 526.947
1471.674, 231.154
1472.848, 389.331
1474.022, 450.453
1475.195, 206.596
1476.369, 454.817
1477.542, 361.033
1478.715, 284.278
1479.888, 377.755
1481.061, 308.382
1482.233, 234.138
1483.405, 296.881
1484.577, 125.610
1485.749, 189.331
1486.921, 317.031
1488.093, 19.708
1489.264, 219.377
1490.435, 253.060
1491.606, 25.750
1492.777, 244.449
1493.948, 128.223
1495.118, 74.254
1496.288, 128.452
1497.459, 50.744
1498.628, 31.145
1499.798, 196.664
1500.968, 17.707
1502.137, 84.017
1503.306, 146.854
1504.475, 17.943
1505.644, 180.027
1506.813, 206.503
1507.981, 14.952
1509.149, 180.612
1510.318, 133.489
