##NAMES=Stilbite-Ca
##RRUFFID=R050012
##IDEAL CHEMISTRY=NaCa_4_(Si_27_Al_9_)O_72_&#183;28H_2_O
##LOCALITY=Harborville, Nova Scotia, Canada
##OWNER=RRUFF
##SOURCE=University of Arizona Mineral Museum
##DESCRIPTION=Globular aggregate of thin tabular white single crystals
##STATUS=The identification of this mineral has been confirmed by X-ray diffraction and chemical analysis
##URL=rruff.info/R050012
##MEASURED CHEMISTRY=(Na_1.50_K_0.03_)_Σ=1.53_Ca_4.15_(Si_26.17_Al_9.83_)O_72_·27.91H_2_O; H_2_O estimated by difference
##PIN_ID=M00431
##ORIENTATION=Laser parallel to -b* (0 -1 0). Fiducial mark perpendicular to laser is parallel to c [0 0 1]
77.260, 0.000
78.661, 9.378
80.062, 325.317
81.463, 308.380
82.863, 67.511
84.264, 49.217
85.664, 24.048
87.064, 251.120
88.463, 634.740
89.863, 1075.568
91.262, 1322.625
92.661, 2075.139
94.059, 2662.443
95.458, 3013.977
96.856, 3729.266
98.254, 4227.905
99.652, 4709.543
101.049, 5083.879
102.446, 5400.706
103.843, 5919.855
105.240, 5871.189
106.637, 6204.516
108.033, 6259.641
109.429, 6766.396
110.825, 7204.652
112.220, 6934.297
113.616, 7025.226
115.011, 7087.341
116.406, 7360.559
117.800, 7084.808
119.195, 6930.023
120.589, 6886.125
121.983, 6803.025
123.377, 6800.660
124.770, 6649.055
126.163, 6678.725
127.556, 6639.121
128.949, 6680.318
130.342, 6362.760
131.734, 6575.943
133.126, 6539.714
134.518, 6433.934
135.909, 6698.479
137.301, 6623.349
138.692, 6908.538
140.083, 6724.041
141.473, 7039.855
142.864, 7226.080
144.254, 7002.724
145.644, 7219.691
147.034, 7086.951
148.423, 7204.479
149.812, 7332.273
151.201, 7200.330
152.590, 6918.642
153.979, 6957.211
155.367, 6696.041
156.755, 6505.135
158.143, 6224.490
159.530, 5864.113
160.918, 5463.929
162.305, 5303.690
163.692, 4733.418
165.078, 4503.089
166.465, 4332.800
167.851, 4162.584
169.237, 4142.465
170.623, 3672.463
172.008, 3656.775
173.393, 3099.680
174.778, 3000.750
176.163, 2880.962
177.548, 2661.429
178.932, 2627.405
180.316, 2355.965
181.700, 2485.905
183.083, 2175.793
184.467, 2293.345
185.850, 1985.954
187.233, 1901.180
188.616, 1777.111
189.998, 1619.799
191.380, 1431.166
192.762, 1632.711
194.144, 1584.438
195.525, 1486.340
196.907, 1268.416
198.288, 1260.662
199.669, 1223.078
201.049, 1305.658
202.429, 918.402
203.810, 1131.309
205.189, 974.371
206.569, 998.711
207.949, 1098.434
209.328, 992.410
210.707, 1088.809
212.085, 732.529
213.464, 646.643
214.842, 710.895
216.220, 735.000
217.598, 699.240
218.976, 583.609
220.353, 748.109
221.730, 662.740
223.107, 647.516
224.483, 482.418
225.860, 627.445
227.236, 492.633
228.612, 368.016
229.988, 493.547
231.363, 469.289
232.738, 505.283
234.113, 431.504
235.488, 438.002
236.863, 524.678
238.237, 491.529
239.611, 398.572
240.985, 245.770
242.359, 273.209
243.732, 313.145
245.105, 301.674
246.478, 381.266
247.851, 377.846
249.223, 460.807
250.595, 378.238
251.967, 338.754
253.339, 280.467
254.711, 182.609
256.082, 205.191
257.453, 48.139
258.824, 151.443
260.195, 95.062
261.565, 38.977
262.935, 11.664
264.305, 42.312
265.675, 87.521
267.044, 182.506
268.414, 117.281
269.783, 61.807
271.151, 196.145
272.520, 59.695
273.888, 5.711
275.256, 71.898
276.624, 1.752
277.992, 135.246
279.359, 31.395
280.726, 141.820
282.093, 64.914
283.460, 357.879
284.827, 0.770
286.193, 203.535
287.559, 43.791
288.925, 151.236
290.290, 161.205
291.656, 126.439
293.021, 55.811
294.386, 17.969
295.750, 100.033
297.115, 122.021
298.479, 176.064
299.843, 45.766
301.207, 282.484
302.570, 150.816
303.933, 319.229
305.296, 247.721
306.659, 76.287
308.022, 364.932
309.384, 133.650
310.746, 352.439
312.108, 311.301
313.470, 280.229
314.831, 549.227
316.193, 338.289
317.554, 537.420
318.914, 266.613
320.275, 235.867
321.635, 245.186
322.995, 14.564
324.355, 184.000
325.715, 63.492
327.074, 243.045
328.434, 42.656
329.792, 112.326
331.151, 202.055
332.510, 28.160
333.868, 71.680
335.226, 148.422
336.584, 11.494
337.941, 111.406
339.299, 8.676
340.656, 361.293
342.013, 68.686
343.370, 321.355
344.726, 11.412
346.082, 211.434
347.438, 1.482
348.794, 1.549
350.150, 231.672
351.505, 31.822
352.860, 212.002
354.215, 442.270
355.570, 402.584
356.924, 462.957
358.278, 143.379
359.632, 383.846
360.986, 324.422
362.339, 225.039
363.693, 555.717
365.046, 538.059
366.399, 1038.822
367.751, 889.646
369.104, 1020.510
370.456, 1251.463
371.808, 1202.371
373.159, 1383.312
374.511, 1082.354
375.862, 1533.357
377.213, 1411.645
378.564, 1742.730
379.914, 1923.850
381.265, 1825.053
382.615, 2336.258
383.965, 2281.064
385.315, 2545.586
386.664, 2536.900
388.013, 2701.137
389.362, 3312.514
390.711, 3299.736
392.060, 3581.182
393.408, 3953.986
394.756, 4033.609
396.104, 4755.137
397.451, 4767.953
398.799, 5629.520
400.146, 5581.105
401.493, 5947.191
402.840, 6608.807
404.186, 6942.465
405.533, 7494.115
406.879, 7325.410
408.225, 7698.523
409.570, 7460.361
410.916, 7289.752
412.261, 7021.775
413.606, 6666.949
414.951, 6420.617
416.295, 5962.840
417.639, 5554.713
418.983, 5376.848
420.327, 4873.311
421.671, 4905.514
423.014, 4097.742
424.357, 4218.234
425.700, 3650.506
427.043, 3497.523
428.386, 3248.615
429.728, 2798.832
431.070, 3030.465
432.412, 2511.695
433.753, 2451.646
435.095, 2344.029
436.436, 2056.408
437.777, 2088.814
439.118, 1791.154
440.458, 1770.512
441.798, 1782.939
443.138, 1541.744
444.478, 1672.857
445.818, 1313.205
447.157, 1615.580
448.496, 1742.092
449.835, 1354.539
451.174, 1706.988
452.513, 1394.986
453.851, 1777.436
455.189, 1378.686
456.527, 1540.795
457.864, 1690.734
459.202, 1429.910
460.539, 1772.352
461.876, 1463.777
463.212, 1446.211
464.549, 1408.637
465.885, 1021.061
467.221, 1293.480
468.557, 1075.891
469.893, 1438.299
471.228, 1410.697
472.563, 1163.086
473.898, 1525.469
475.233, 1227.842
476.567, 1720.205
477.902, 1582.559
479.236, 1714.902
480.570, 1917.232
481.903, 2049.553
483.237, 2701.859
484.570, 2634.154
485.903, 3676.436
487.235, 4038.949
488.568, 4391.205
489.900, 5483.445
491.232, 5615.672
492.564, 6247.883
493.896, 6569.912
495.227, 6202.090
496.558, 6501.223
497.889, 5723.363
499.220, 5365.492
500.551, 4527.354
501.881, 3989.443
503.211, 3569.268
504.541, 2491.320
505.870, 2283.336
507.200, 1809.133
508.529, 1620.904
509.858, 1455.674
511.187, 1098.068
512.515, 1240.004
513.844, 721.953
515.172, 973.846
516.500, 758.412
517.827, 430.268
519.155, 732.102
520.482, 358.486
521.809, 500.270
523.136, 255.078
524.462, 47.322
525.789, 699.217
527.115, 255.697
528.441, 437.328
529.766, 119.883
531.092, 401.490
532.417, 333.068
533.742, 54.629
535.067, 236.814
536.391, 38.338
537.716, 153.830
539.040, 325.285
540.364, 78.355
541.688, 402.777
543.011, 131.484
544.334, 39.463
545.657, 220.344
546.980, 276.627
548.303, 493.990
549.625, 161.254
550.947, 209.504
552.269, 100.672
553.591, 35.549
554.913, 574.664
556.234, 83.814
557.555, 216.660
558.876, 236.656
560.197, 132.424
561.517, 247.371
562.837, 250.918
564.157, 298.971
565.477, 51.545
566.797, 127.885
568.116, 457.195
569.435, 13.070
570.754, 246.100
572.073, 75.227
573.391, 124.828
574.709, 243.898
576.027, 46.074
577.345, 323.152
578.663, 52.000
579.980, 343.609
581.297, 472.332
582.614, 18.898
583.931, 459.688
585.248, 131.777
586.564, 197.627
587.880, 105.988
589.196, 75.297
590.511, 472.877
591.827, 101.006
593.142, 539.980
594.457, 638.010
595.772, 375.992
597.086, 693.930
598.401, 281.816
599.715, 579.861
601.029, 687.662
602.343, 415.428
603.656, 863.168
604.969, 490.912
606.282, 1018.602
607.595, 796.271
608.908, 733.887
610.220, 1061.477
611.532, 579.039
612.844, 936.545
614.156, 834.037
615.468, 801.482
616.779, 1218.891
618.090, 846.262
619.401, 1593.578
620.712, 950.855
622.022, 1438.078
623.332, 1285.246
624.642, 822.398
625.952, 1199.496
627.262, 866.574
628.571, 963.598
629.880, 1290.564
631.189, 627.479
632.498, 1454.340
633.807, 711.146
635.115, 937.895
636.423, 984.588
637.731, 561.289
639.039, 977.938
640.346, 904.545
641.653, 691.098
642.960, 1047.594
644.267, 404.039
645.574, 1170.426
646.880, 626.754
648.186, 1013.025
649.492, 1049.240
650.798, 305.461
652.103, 1001.625
653.409, 187.729
654.714, 703.781
656.019, 699.777
657.323, 445.715
658.628, 1051.592
659.932, 487.412
661.236, 733.211
662.540, 728.947
663.843, 114.627
665.147, 680.225
666.450, 145.766
667.753, 401.271
669.056, 617.236
670.358, 27.383
671.660, 877.852
672.963, 165.375
674.264, 740.463
675.566, 605.666
676.868, 99.363
678.169, 785.422
679.470, 150.146
680.771, 404.785
682.071, 477.734
683.372, 82.250
684.672, 826.662
685.972, 319.439
687.271, 773.670
688.571, 578.115
689.870, 362.279
691.169, 738.301
692.468, 132.699
693.767, 329.404
695.065, 493.283
696.364, 67.822
697.662, 911.504
698.960, 75.684
700.257, 795.684
701.555, 765.939
702.852, 169.797
704.149, 780.264
705.446, 63.557
706.742, 400.953
708.038, 294.096
709.335, 77.582
710.631, 712.455
711.926, 195.387
713.222, 366.988
714.517, 479.793
715.812, 243.225
717.107, 541.430
718.402, 124.059
719.696, 354.598
720.990, 577.096
722.284, 88.027
723.578, 1102.959
724.872, 327.316
726.165, 702.012
727.458, 1034.064
728.751, 331.805
730.044, 772.201
731.336, 204.027
732.629, 356.982
733.921, 918.844
735.213, 47.641
736.504, 939.375
737.796, 411.061
739.087, 701.553
740.378, 1073.133
741.669, 189.826
742.960, 960.777
744.250, 329.561
745.540, 520.230
746.830, 971.543
748.120, 200.551
749.410, 1041.756
750.699, 582.912
751.988, 825.475
753.277, 1166.531
754.566, 367.420
755.854, 1298.730
757.143, 759.639
758.431, 654.561
759.719, 1235.371
761.006, 566.131
762.294, 1327.748
763.581, 1008.412
764.868, 954.602
766.155, 1655.854
767.442, 826.375
768.728, 1494.818
770.014, 1395.242
771.300, 1196.986
772.586, 1647.314
773.872, 1087.594
775.157, 1640.172
776.442, 1750.355
777.727, 1420.492
779.012, 2299.451
780.297, 1569.492
781.581, 1987.502
782.865, 2177.447
784.149, 1677.344
785.433, 2548.301
786.716, 1578.100
787.999, 2378.527
789.282, 2188.230
790.565, 1787.893
791.848, 2792.848
793.130, 1722.416
794.413, 2166.420
795.695, 2135.891
796.977, 1675.316
798.258, 2066.453
799.540, 1425.541
800.821, 1744.824
802.102, 2034.543
803.382, 1383.736
804.663, 2147.979
805.943, 1416.363
807.224, 1525.416
808.504, 1743.266
809.783, 832.227
811.063, 1411.143
812.342, 739.834
813.621, 808.658
814.900, 1283.131
816.179, 571.865
817.457, 1300.555
818.736, 1028.084
820.014, 566.684
821.292, 1182.938
822.569, 321.006
823.847, 849.469
825.124, 818.561
826.401, 36.934
827.678, 1232.559
828.954, 390.824
830.231, 759.045
831.507, 653.279
832.783, 461.416
834.059, 1096.463
835.334, 455.104
836.610, 622.922
837.885, 746.541
839.160, 85.514
840.435, 1081.398
841.709, 349.547
842.983, 447.297
844.258, 1084.561
845.532, 312.271
846.805, 906.506
848.079, 534.305
849.352, 221.762
850.625, 644.240
851.898, 261.832
853.171, 734.744
854.443, 522.316
855.715, 279.871
856.988, 1105.205
858.259, 392.787
859.531, 1146.150
860.803, 943.377
862.074, 10.119
863.345, 1104.160
864.616, 461.660
865.886, 367.783
867.157, 594.834
868.427, 202.285
869.697, 958.740
870.967, 516.182
872.236, 561.639
873.506, 858.750
874.775, 3.811
876.044, 883.561
877.313, 9.029
878.581, 387.873
879.849, 1035.232
881.118, 277.438
882.386, 749.244
883.653, 536.379
884.921, 152.480
886.188, 929.260
887.455, 36.609
888.722, 720.836
889.989, 437.875
891.255, 95.207
892.522, 981.748
893.788, 151.324
895.054, 344.557
896.319, 771.410
897.585, 37.859
898.850, 1004.729
900.115, 181.602
901.380, 577.566
902.645, 564.396
903.909, 1.301
905.174, 628.164
906.438, 285.004
907.701, 241.629
908.965, 1078.422
910.229, 54.814
911.492, 691.889
912.755, 768.568
914.018, 105.305
915.280, 1082.008
916.543, 81.311
917.805, 155.906
919.067, 742.551
920.329, 120.828
921.590, 825.695
922.852, 2.199
924.113, 418.756
925.374, 955.293
926.635, 28.195
927.895, 808.324
929.156, 484.816
930.416, 138.705
931.676, 817.672
932.936, 125.973
934.195, 890.314
935.454, 556.576
936.714, 42.820
937.973, 1169.035
939.231, 145.232
940.490, 691.402
941.748, 757.557
943.006, 246.309
944.264, 859.717
945.522, 74.277
946.780, 321.666
948.037, 777.600
949.294, 16.486
950.551, 989.391
951.808, 565.250
953.064, 181.092
954.320, 1096.916
955.577, 247.275
956.832, 778.387
958.088, 654.123
959.344, 89.840
960.599, 1035.543
961.854, 501.232
963.109, 466.904
964.364, 1112.561
965.618, 101.799
966.872, 1013.773
968.127, 579.336
969.380, 45.115
970.634, 1040.408
971.888, 184.076
973.141, 771.338
974.394, 596.225
975.647, 111.617
976.900, 1207.033
978.152, 420.090
979.404, 755.490
980.656, 990.707
981.908, 126.121
983.160, 891.576
984.411, 697.020
985.663, 12.467
986.914, 1197.893
988.165, 163.311
989.415, 698.736
990.666, 765.719
991.916, 181.125
993.166, 1326.291
994.416, 191.668
995.665, 437.039
996.915, 1092.033
998.164, 27.398
999.413, 1102.748
1000.662, 597.363
1001.911, 692.719
1003.159, 1667.533
1004.407, 372.885
1005.655, 1038.227
1006.903, 1053.131
1008.151, 258.461
1009.398, 1473.775
1010.646, 319.100
1011.893, 864.420
1013.139, 1387.984
1014.386, 283.301
1015.633, 1568.605
1016.879, 953.908
1018.125, 819.195
1019.371, 1593.789
1020.616, 429.059
1021.862, 1454.314
1023.107, 1209.672
1024.352, 714.916
1025.597, 1728.131
1026.842, 643.549
1028.086, 1296.707
1029.330, 1621.961
1030.574, 877.199
1031.818, 2003.594
1033.062, 1019.529
1034.305, 644.736
1035.548, 1529.137
1036.791, 175.639
1038.034, 1019.541
1039.277, 1204.732
1040.519, 489.914
1041.762, 1757.982
1043.004, 823.434
1044.246, 1268.033
1045.487, 1613.184
1046.729, 872.119
1047.970, 1566.014
1049.211, 917.756
1050.452, 562.818
1051.692, 1637.941
1052.933, 276.574
1054.173, 1010.221
1055.413, 1465.309
1056.653, 571.854
1057.893, 1666.566
1059.132, 771.627
1060.371, 762.883
1061.610, 1467.920
1062.849, 472.264
1064.088, 1286.379
1065.326, 1021.393
1066.565, 146.889
1067.803, 1851.197
1069.041, 746.178
1070.278, 1233.174
1071.516, 2048.125
1072.753, 603.324
1073.990, 2048.307
1075.227, 1393.277
1076.464, 936.980
1077.700, 2111.924
1078.936, 838.160
1080.173, 1434.920
1081.408, 1989.822
1082.644, 991.160
1083.880, 2286.143
1085.115, 1371.111
1086.350, 1495.902
1087.585, 2371.000
1088.820, 985.410
1090.054, 2111.668
1091.288, 1416.725
1092.522, 1255.979
1093.756, 2431.006
1094.990, 1141.533
1096.224, 1878.162
1097.457, 2823.150
1098.690, 1056.395
1099.923, 2271.359
1101.156, 2076.312
1102.388, 1102.371
1103.621, 2827.297
1104.853, 1147.107
1106.085, 2223.480
1107.316, 2238.363
1108.548, 1412.387
1109.779, 2928.072
1111.010, 1942.963
1112.241, 1737.838
1113.472, 2742.777
1114.703, 1081.984
1115.933, 1998.922
1117.163, 2083.816
1118.393, 896.031
1119.623, 2062.535
1120.853, 1356.664
1122.082, 1512.510
1123.311, 2557.416
1124.540, 1401.598
1125.769, 2236.834
1126.997, 2491.715
1128.226, 1026.584
1129.454, 2730.070
1130.682, 1124.279
1131.910, 1619.102
1133.138, 2495.270
1134.365, 1088.971
1135.592, 2244.773
1136.819, 2239.086
1138.046, 1083.842
1139.273, 2479.641
1140.499, 1234.066
1141.725, 1638.828
1142.951, 2294.117
1144.177, 738.848
1145.403, 2374.289
1146.628, 1678.002
1147.854, 672.684
1149.079, 2759.004
1150.304, 923.666
1151.528, 1928.311
1152.753, 1983.631
1153.977, 528.242
1155.201, 1982.838
1156.425, 1167.410
1157.649, 851.969
1158.872, 1768.879
1160.096, 1053.398
1161.319, 1197.908
1162.542, 1822.951
1163.764, 357.416
1164.987, 2231.863
1166.209, 926.289
1167.431, 510.695
1168.653, 1865.082
1169.875, 339.447
1171.097, 1143.789
1172.318, 1500.828
1173.539, 335.135
1174.760, 1719.420
1175.981, 744.020
1177.202, 848.270
1178.422, 1852.496
1179.642, 206.779
1180.862, 1231.037
1182.082, 985.754
1183.302, 69.967
1184.521, 1353.885
1185.740, 560.920
1186.959, 485.051
1188.178, 1759.158
1189.397, 323.973
1190.615, 1008.086
1191.834, 1272.643
1193.052, 53.252
1194.269, 1190.791
1195.487, 99.764
1196.705, 274.168
1197.922, 1218.070
1199.139, 367.223
1200.356, 676.422
1201.573, 1320.043
1202.789, 23.635
1204.006, 1717.191
1205.222, 512.582
1206.438, 356.082
1207.653, 1629.652
1208.869, 295.057
1210.084, 868.287
1211.299, 1264.363
1212.514, 241.363
1213.729, 1581.236
1214.944, 675.377
1216.158, 798.463
1217.372, 1601.553
1218.586, 321.881
1219.800, 1100.967
1221.014, 1073.793
1222.227, 153.414
1223.440, 1379.254
1224.654, 142.840
1225.866, 285.648
1227.079, 1978.225
1228.292, 33.314
1229.504, 1229.170
1230.716, 1401.607
1231.928, 331.070
1233.139, 1963.477
1234.351, 705.865
1235.562, 239.014
1236.773, 2071.316
1237.984, 96.398
1239.195, 855.895
1240.406, 1518.164
1241.616, 141.260
1242.826, 1843.410
1244.036, 525.539
1245.246, 629.156
1246.456, 1721.248
1247.665, 153.318
1248.874, 775.424
1250.083, 1617.438
1251.292, 279.910
1252.501, 1632.035
1253.709, 763.914
1254.917, 366.875
1256.125, 2308.699
1257.333, 580.504
1258.541, 900.779
1259.748, 1792.527
1260.956, 134.277
1262.163, 1175.994
1263.370, 1317.680
1264.576, 190.480
1265.783, 1862.123
1266.989, 343.789
1268.195, 1262.363
1269.401, 2303.957
1270.607, 515.531
1271.813, 1719.113
1273.018, 1670.637
1274.223, 47.881
1275.428, 2303.537
1276.633, 754.934
1277.838, 287.270
1279.042, 2578.604
1280.246, 369.918
1281.450, 1372.949
1282.654, 2084.188
1283.858, 375.398
1285.061, 2239.635
1286.265, 940.750
1287.468, 421.836
1288.671, 1942.895
1289.873, 453.932
1291.076, 1054.926
1292.278, 1915.887
1293.480, 236.803
1294.682, 2329.576
1295.884, 1510.420
1297.086, 471.135
1298.287, 2571.824
1299.488, 892.490
1300.689, 833.125
1301.890, 2183.520
1303.091, 163.889
1304.291, 2134.004
1305.491, 2043.980
1306.691, 513.932
1307.891, 2223.852
1309.091, 1663.734
1310.290, 1273.578
1311.490, 2373.387
1312.689, 693.168
1313.888, 1692.914
1315.086, 1782.408
1316.285, 141.975
1317.483, 2291.301
1318.681, 1250.439
1319.879, 579.676
1321.077, 2399.416
1322.275, 1178.369
1323.472, 1057.258
1324.669, 2217.166
1325.866, 545.963
1327.063, 1924.693
1328.260, 1312.041
1329.456, 140.654
1330.653, 2229.156
1331.849, 1177.605
1333.045, 495.998
1334.240, 2510.926
1335.436, 569.172
1336.631, 1907.359
1337.826, 2102.074
1339.021, 40.145
1340.216, 2261.543
1341.411, 1078.938
1342.605, 466.836
1343.799, 2151.164
1344.993, 838.965
1346.187, 1196.719
1347.381, 2093.691
1348.574, 241.359
1349.767, 2168.949
1350.961, 1685.766
1352.153, 273.297
1353.346, 2631.484
1354.539, 148.746
1355.731, 415.973
1356.923, 1967.090
1358.115, 394.254
1359.307, 941.398
1360.498, 1968.527
1361.690, 104.398
1362.881, 2319.996
1364.072, 1349.672
1365.263, 625.375
1366.453, 2499.828
1367.644, 385.152
1368.834, 558.977
1370.024, 2092.695
1371.214, 313.176
1372.404, 1426.172
1373.593, 1279.824
1374.783, 489.863
1375.972, 2091.051
1377.161, 1180.711
1378.349, 411.668
1379.538, 2420.699
1380.726, 881.348
1381.915, 1351.984
1383.103, 2020.879
1384.290, 378.223
1385.478, 1838.543
1386.665, 1507.867
1387.853, 257.930
1389.040, 2555.586
1390.227, 1115.457
1391.413, 593.422
1392.600, 2871.945
1393.786, 471.078
1394.972, 1210.562
1396.158, 2189.738
1397.344, 72.598
1398.530, 1505.383
1399.715, 1884.531
1400.900, 187.645
1402.085, 2390.301
1403.270, 858.336
1404.455, 1047.227
1405.639, 2363.922
1406.824, 351.770
1408.008, 840.465
1409.192, 2089.113
1410.375, 155.484
1411.559, 1822.289
1412.742, 1740.777
1413.925, 229.227
1415.108, 3127.637
1416.291, 672.133
1417.474, 930.438
1418.656, 2788.234
1419.839, 406.473
1421.021, 1703.953
1422.202, 1912.137
1423.384, 275.879
1424.566, 2352.879
1425.747, 1840.195
1426.928, 158.180
1428.109, 2967.418
1429.290, 1294.023
1430.470, 1512.324
1431.651, 3150.637
1432.831, 685.762
1434.011, 1790.715
1435.191, 2514.090
1436.370, 280.656
1437.550, 2137.250
1438.729, 1990.684
1439.908, 849.125
1441.087, 3407.695
1442.266, 1124.160
1443.444, 1531.820
1444.623, 3490.066
1445.801, 522.613
1446.979, 2367.820
1448.157, 2434.672
1449.334, 911.387
1450.512, 2476.391
1451.689, 2139.906
1452.866, 926.621
1454.043, 3143.102
1455.220, 1858.215
1456.396, 1607.992
1457.573, 3223.945
1458.749, 1183.246
1459.925, 1537.973
1461.100, 2979.582
1462.276, 373.902
1463.451, 2551.520
1464.627, 1768.680
1465.802, 131.172
1466.977, 3173.406
1468.151, 1642.410
1469.326, 828.500
1470.500, 3759.637
1471.674, 820.504
1472.848, 1980.832
1474.022, 2730.711
1475.195, 39.727
