##NAMES=Stilbite-Ca
##RRUFFID=R050012
##IDEAL CHEMISTRY=NaCa_4_(Si_27_Al_9_)O_72_&#183;28H_2_O
##LOCALITY=Harborville, Nova Scotia, Canada
##OWNER=RRUFF
##SOURCE=University of Arizona Mineral Museum
##DESCRIPTION=Globular aggregate of thin tabular white single crystals
##STATUS=The identification of this mineral has been confirmed by X-ray diffraction and chemical analysis
##URL=rruff.info/R050012
##MEASURED CHEMISTRY=(Na_1.50_K_0.03_)_Σ=1.53_Ca_4.15_(Si_26.17_Al_9.83_)O_72_·27.91H_2_O; H_2_O estimated by difference
##PIN_ID=M00467
##ORIENTATION=Laser parallel to c* (0 0 1). Fiducial mark perpendicular to laser is parallel to -a [-1 0 0]
80.062, 0.000
81.463, 3.079
82.863, 27.678
84.264, 16.909
85.664, 5.996
87.064, 11.911
88.463, 22.967
89.863, 34.707
91.262, 83.787
92.661, 78.965
94.059, 182.083
95.458, 248.011
96.856, 284.624
98.254, 389.812
99.652, 426.484
101.049, 559.562
102.446, 531.004
103.843, 720.802
105.240, 709.959
106.637, 802.478
108.033, 802.314
109.429, 804.406
110.825, 930.702
112.220, 1026.161
113.616, 1088.752
115.011, 1074.447
116.406, 1129.226
117.800, 1073.073
119.195, 1032.973
120.589, 1005.919
121.983, 973.060
123.377, 1020.086
124.770, 938.405
126.163, 910.978
127.556, 911.860
128.949, 823.946
130.342, 853.311
131.734, 761.003
133.126, 773.748
134.518, 755.459
135.909, 719.084
137.301, 745.599
138.692, 704.010
140.083, 729.327
141.473, 733.555
142.864, 682.702
144.254, 661.772
145.644, 687.772
147.034, 644.704
148.423, 646.574
149.812, 652.385
151.201, 638.139
152.590, 663.840
153.979, 656.490
155.367, 636.091
156.755, 645.647
158.143, 569.161
159.530, 567.733
160.918, 510.167
162.305, 538.765
163.692, 475.242
165.078, 473.133
166.465, 468.410
167.851, 420.723
169.237, 495.932
170.623, 382.301
172.008, 427.400
173.393, 322.802
174.778, 367.100
176.163, 360.525
177.548, 315.971
178.932, 323.546
180.316, 278.214
181.700, 275.250
183.083, 243.375
184.467, 246.382
185.850, 250.918
187.233, 224.733
188.616, 237.167
189.998, 159.638
191.380, 161.974
192.762, 182.278
194.144, 139.619
195.525, 169.940
196.907, 135.268
198.288, 124.604
199.669, 115.945
201.049, 102.292
202.429, 91.644
203.810, 76.000
205.189, 68.360
206.569, 52.724
207.949, 67.089
209.328, 34.455
210.707, 89.821
212.085, 39.185
213.464, 49.547
214.842, 62.904
216.220, 37.255
217.598, 58.602
218.976, 26.943
220.353, 62.278
221.730, 43.608
223.107, 65.933
224.483, 29.252
225.860, 34.566
227.236, 57.875
228.612, 49.181
229.988, 51.499
231.363, 78.815
232.738, 44.135
234.113, 66.463
235.488, 40.799
236.863, 49.131
238.237, 16.460
239.611, 45.787
240.985, 39.112
242.359, 8.436
243.732, 43.757
245.105, 32.072
246.478, 15.414
247.851, 6.203
249.223, 10.744
250.595, 55.805
251.967, 10.746
253.339, 15.933
254.711, 37.663
256.082, 27.565
257.453, 10.765
258.824, 24.060
260.195, 12.088
261.565, 17.219
262.935, 21.340
264.305, 4.453
265.675, 37.558
267.044, 19.665
268.414, 8.228
269.783, 4.873
271.151, 19.973
272.520, 6.077
273.888, 19.185
275.256, 6.301
276.624, 20.422
277.992, 47.553
279.359, 28.703
280.726, 37.621
282.093, 13.046
283.460, 18.237
284.827, 17.440
286.193, 7.344
287.559, 8.878
288.925, 2.888
290.290, 17.645
291.656, 3.393
293.021, 9.129
294.386, 8.147
295.750, 35.560
297.115, 32.254
298.479, 48.934
299.843, 66.601
301.207, 50.255
302.570, 94.897
303.933, 64.526
305.296, 54.145
306.659, 87.752
308.022, 96.349
309.384, 96.934
310.746, 81.510
312.108, 139.075
313.470, 121.631
314.831, 173.177
316.193, 145.714
317.554, 124.241
318.914, 141.760
320.275, 121.270
321.635, 154.771
322.995, 119.264
324.355, 116.748
325.715, 125.224
327.074, 116.691
328.434, 129.150
329.792, 106.583
331.151, 129.001
332.510, 86.410
333.868, 118.785
335.226, 129.143
336.584, 83.468
337.941, 121.758
339.299, 107.026
340.656, 100.268
342.013, 109.484
343.370, 95.672
344.726, 118.814
346.082, 100.920
347.438, 111.995
348.794, 119.054
350.150, 138.104
351.505, 129.143
352.860, 105.170
354.215, 132.193
355.570, 119.217
356.924, 128.241
358.278, 125.261
359.632, 136.277
360.986, 197.290
362.339, 162.301
363.693, 183.309
365.046, 212.315
366.399, 184.318
367.751, 213.317
369.104, 262.313
370.456, 289.407
371.808, 318.398
373.159, 331.459
374.511, 324.559
375.862, 355.237
377.213, 374.340
378.564, 404.540
379.914, 436.278
381.265, 422.498
382.615, 492.759
383.965, 530.781
385.315, 533.955
386.664, 622.199
388.013, 633.378
389.362, 656.438
390.711, 691.530
392.060, 728.698
393.408, 810.715
394.756, 848.808
396.104, 945.076
397.451, 977.131
398.799, 1052.609
400.146, 1157.662
401.493, 1146.727
402.840, 1377.789
404.186, 1368.824
405.533, 1421.816
406.879, 1525.812
408.225, 1447.809
409.570, 1557.787
410.916, 1425.297
412.261, 1506.468
413.606, 1425.607
414.951, 1333.626
416.295, 1316.598
417.639, 1215.612
418.983, 1195.059
420.327, 1085.807
421.671, 1025.462
423.014, 978.151
424.357, 911.568
425.700, 915.659
427.043, 795.767
428.386, 761.778
429.728, 756.926
431.070, 696.496
432.412, 658.446
433.753, 598.530
435.095, 573.362
436.436, 542.309
437.777, 502.076
439.118, 504.899
440.458, 441.997
441.798, 469.256
443.138, 456.936
444.478, 463.134
445.818, 447.984
447.157, 424.864
448.496, 490.164
449.835, 485.539
451.174, 540.621
452.513, 516.091
453.851, 519.158
455.189, 564.420
456.527, 534.740
457.864, 652.297
459.202, 602.830
460.539, 611.424
461.876, 582.039
463.212, 536.618
464.549, 538.219
465.885, 463.813
467.221, 478.381
468.557, 446.961
469.893, 381.535
471.228, 396.101
472.563, 363.661
473.898, 350.214
475.233, 343.760
476.567, 352.300
477.902, 352.833
479.236, 381.359
480.570, 339.879
481.903, 389.392
483.237, 378.899
484.570, 446.398
485.903, 478.891
487.235, 583.378
488.568, 590.858
489.900, 719.332
491.232, 739.799
492.564, 808.260
493.896, 958.715
495.227, 910.163
496.558, 986.605
497.889, 893.065
499.220, 827.495
500.551, 766.974
501.881, 634.434
503.211, 586.847
504.541, 476.573
505.870, 355.014
507.200, 331.411
508.529, 278.855
509.858, 217.242
511.187, 191.665
512.515, 168.179
513.844, 159.698
515.172, 130.402
516.500, 138.486
517.827, 133.857
519.155, 120.209
520.482, 96.655
521.809, 81.651
523.136, 79.907
524.462, 77.010
525.789, 74.434
527.115, 76.966
528.441, 58.398
529.766, 28.726
531.092, 56.064
532.417, 36.461
533.742, 25.821
535.067, 22.415
536.391, 23.854
537.716, 6.345
539.040, 24.629
540.364, 9.933
541.688, 0.389
543.011, 37.689
544.334, 31.095
545.657, 0.424
546.980, 4.977
548.303, 27.565
549.625, 18.734
550.947, 6.100
552.269, 34.288
553.591, 16.234
554.913, 0.488
556.234, 24.773
557.555, 3.505
558.876, 23.724
560.197, 10.906
561.517, 19.213
562.837, 24.306
564.157, 12.061
565.477, 32.257
566.797, 30.466
568.116, 19.573
569.435, 1.368
570.754, 0.132
572.073, 4.061
573.391, 8.957
574.709, 14.103
576.027, 18.135
577.345, 6.761
578.663, 52.290
579.980, 8.687
581.297, 36.388
582.614, 19.436
583.931, 31.052
585.248, 36.082
586.564, 35.093
587.880, 26.122
589.196, 61.214
590.511, 45.264
591.827, 20.279
593.142, 44.349
594.457, 61.430
595.772, 45.449
597.086, 53.466
598.401, 89.508
599.715, 73.546
601.029, 52.623
602.343, 75.671
603.656, 95.720
604.969, 83.771
606.282, 98.824
607.595, 122.874
608.908, 109.924
610.220, 114.971
611.532, 107.021
612.844, 103.069
614.156, 140.116
615.468, 135.163
616.779, 121.205
618.090, 142.241
619.401, 109.273
620.712, 141.299
622.022, 127.319
623.332, 147.221
624.642, 150.571
625.952, 145.708
627.262, 156.345
628.571, 141.339
629.880, 143.327
631.189, 144.311
632.498, 108.288
633.807, 90.260
635.115, 62.227
636.423, 63.078
637.731, 101.146
639.039, 77.104
640.346, 102.056
641.653, 117.002
642.960, 106.950
644.267, 121.891
645.574, 89.828
646.880, 93.759
648.186, 81.684
649.492, 100.604
650.798, 109.518
652.103, 113.427
653.409, 77.330
654.714, 47.227
656.019, 87.119
657.323, 40.005
658.628, 42.886
659.932, 60.760
661.236, 0.629
662.540, 43.490
663.843, 76.344
665.147, 40.193
666.450, 74.177
667.753, 43.067
669.056, 19.900
670.358, 17.726
671.660, 15.363
672.963, 5.548
674.264, 49.255
675.566, 53.039
676.868, 28.841
678.169, 4.386
679.470, 36.375
680.771, 3.870
682.071, 28.874
683.372, 6.611
684.672, 24.341
685.972, 48.065
687.271, 10.320
688.571, 28.383
689.870, 36.007
691.169, 1.417
692.468, 49.568
693.767, 3.118
695.065, 42.559
696.364, 7.099
697.662, 27.904
698.960, 31.254
700.257, 55.832
701.555, 0.752
702.852, 1.416
704.149, 18.028
705.446, 47.463
706.742, 2.926
708.038, 39.289
709.335, 8.207
710.631, 14.208
711.926, 13.484
713.222, 5.002
714.517, 19.066
715.812, 28.510
717.107, 1.894
718.402, 52.271
719.696, 6.274
720.990, 18.100
722.284, 13.584
723.578, 36.005
724.872, 47.367
726.165, 14.503
727.458, 55.624
728.751, 55.869
730.044, 19.129
731.336, 63.738
732.629, 26.112
733.921, 38.262
735.213, 54.748
736.504, 28.426
737.796, 35.366
739.087, 5.324
740.378, 40.027
741.669, 48.626
742.960, 40.956
744.250, 26.273
745.540, 34.711
746.830, 50.890
748.120, 31.140
749.410, 29.064
750.699, 66.509
751.988, 51.850
753.277, 39.688
754.566, 43.052
755.854, 34.435
757.143, 48.607
758.431, 47.498
759.719, 47.304
761.006, 57.695
762.294, 46.068
763.581, 54.397
764.868, 51.721
766.155, 87.876
767.442, 78.542
768.728, 75.264
770.014, 144.650
771.300, 97.012
772.586, 79.305
773.872, 135.658
775.157, 107.941
776.442, 144.217
777.727, 76.509
779.012, 91.776
780.297, 151.048
781.581, 119.729
782.865, 155.021
784.149, 163.267
785.433, 120.612
786.716, 160.847
787.999, 137.078
789.282, 137.369
790.565, 166.590
791.848, 131.534
793.130, 142.795
794.413, 126.001
795.695, 101.250
796.977, 134.963
798.258, 124.154
799.540, 134.372
800.821, 141.552
802.102, 125.751
803.382, 122.921
804.663, 106.086
805.943, 117.246
807.224, 121.418
808.504, 81.568
809.783, 100.689
811.063, 49.842
812.342, 70.923
813.621, 69.011
814.900, 45.137
816.179, 66.938
817.457, 61.015
818.736, 57.126
820.014, 9.179
821.292, 30.280
822.569, 50.581
823.847, 69.534
825.124, 20.473
826.401, 38.217
827.678, 37.570
828.954, 42.627
830.231, 34.694
831.507, 46.656
832.783, 49.940
834.059, 49.808
835.334, 55.469
836.610, 52.415
837.885, 53.140
839.160, 57.275
840.435, 52.177
841.709, 54.170
842.983, 56.704
844.258, 36.048
845.532, 62.586
846.805, 42.602
848.079, 53.387
849.352, 61.199
850.625, 23.185
851.898, 77.104
853.171, 48.036
854.443, 57.041
855.715, 40.724
856.988, 48.363
858.259, 68.956
859.531, 29.958
860.803, 39.753
862.074, 66.717
863.345, 42.913
864.616, 12.766
865.886, 17.627
867.157, 12.016
868.427, 20.886
869.697, 18.284
870.967, 30.565
872.236, 14.542
873.506, 16.846
874.775, 10.700
876.044, 22.532
877.313, 19.456
878.581, 23.818
879.849, 36.198
881.118, 18.157
882.386, 25.115
883.653, 3.037
884.921, 8.914
886.188, 5.216
887.455, 13.702
888.722, 2.644
889.989, 7.479
891.255, 19.419
892.522, 17.746
893.788, 2.340
895.054, 25.585
896.319, 17.496
897.585, 15.344
898.850, 11.776
900.115, 73.133
901.380, 8.015
902.645, 7.820
903.909, 43.717
905.174, 6.389
906.438, 31.479
907.701, 17.359
908.965, 11.797
910.229, 36.079
911.492, 6.952
912.755, 18.823
914.018, 12.691
915.280, 26.560
916.543, 44.426
917.805, 28.710
919.067, 4.863
920.329, 6.022
921.590, 0.814
922.852, 5.275
924.113, 23.476
925.374, 4.304
926.635, 22.130
927.895, 21.954
929.156, 14.779
930.416, 21.603
931.676, 16.424
932.936, 6.755
934.195, 9.059
935.454, 36.872
936.714, 0.316
937.973, 43.493
939.231, 34.300
940.490, 2.107
941.748, 35.912
943.006, 12.283
944.264, 17.486
945.522, 18.303
946.780, 5.092
948.037, 25.122
949.294, 42.650
950.551, 8.420
951.808, 37.189
953.064, 9.956
954.320, 27.722
955.577, 47.488
956.832, 51.253
958.088, 11.017
959.344, 39.780
960.599, 28.542
961.854, 11.302
963.109, 29.062
964.364, 30.820
965.618, 57.578
966.872, 27.335
968.127, 47.093
969.380, 14.849
970.634, 15.605
971.888, 50.218
973.141, 5.080
974.394, 72.671
975.647, 40.421
976.900, 13.079
978.152, 68.821
979.404, 69.568
980.656, 78.326
981.908, 73.060
983.160, 47.818
984.411, 104.577
985.663, 44.342
986.914, 53.109
988.165, 83.876
989.415, 69.643
990.666, 52.410
991.916, 97.177
993.166, 87.949
994.416, 82.720
995.665, 67.489
996.915, 83.262
998.164, 95.035
999.413, 98.808
1000.662, 105.056
1001.911, 114.301
1003.159, 102.074
1004.407, 113.846
1005.655, 101.618
1006.903, 71.391
1008.151, 75.166
1009.398, 71.946
1010.646, 99.714
1011.893, 75.494
1013.139, 92.274
1014.386, 95.059
1015.633, 110.764
1016.879, 106.506
1018.125, 127.230
1019.371, 90.992
1020.616, 148.743
1021.862, 119.543
1023.107, 131.281
1024.352, 83.033
1025.597, 94.761
1026.842, 146.538
1028.086, 113.304
1029.330, 112.088
1030.574, 125.903
1031.818, 138.681
1033.062, 105.495
1034.305, 86.995
1035.548, 92.743
1036.791, 119.117
1038.034, 96.886
1039.277, 114.609
1040.519, 81.849
1041.762, 99.646
1043.004, 93.441
1044.246, 72.005
1045.487, 73.830
1046.729, 86.628
1047.970, 90.417
1049.211, 109.423
1050.452, 127.250
1051.692, 131.497
1052.933, 137.821
1054.173, 66.133
1055.413, 130.496
1056.653, 103.326
1057.893, 85.518
1059.132, 148.552
1060.371, 96.383
1061.610, 99.150
1062.849, 147.968
1064.088, 38.332
1065.326, 138.163
1066.565, 81.994
1067.803, 78.005
1069.041, 97.483
1070.278, 110.905
1071.516, 121.669
1072.753, 128.443
1073.990, 138.086
1075.227, 147.934
1076.464, 145.893
1077.700, 154.513
1078.936, 145.344
1080.173, 116.188
1081.408, 167.077
1082.644, 188.497
1083.880, 134.471
1085.115, 164.318
1086.350, 180.062
1087.585, 219.989
1088.820, 192.837
1090.054, 200.037
1091.288, 209.981
1092.522, 199.139
1093.756, 220.714
1094.990, 212.586
1096.224, 196.386
1097.457, 215.718
1098.690, 232.569
1099.923, 243.386
1101.156, 253.237
1102.388, 255.280
1103.621, 218.305
1104.853, 249.208
1106.085, 224.060
1107.316, 210.932
1108.548, 248.785
1109.779, 228.681
1111.010, 276.604
1112.241, 190.458
1113.472, 225.313
1114.703, 273.229
1115.933, 195.085
1117.163, 284.987
1118.393, 246.844
1119.623, 213.701
1120.853, 243.558
1122.082, 214.170
1123.311, 272.028
1124.540, 282.888
1125.769, 244.748
1126.997, 289.031
1128.226, 254.892
1129.454, 214.752
1130.682, 234.613
1131.910, 228.475
1133.138, 240.656
1134.365, 243.227
1135.592, 238.121
1136.819, 251.333
1138.046, 230.225
1139.273, 244.197
1140.499, 244.222
1141.725, 174.115
1142.951, 230.979
1144.177, 218.861
1145.403, 216.724
1146.628, 259.606
1147.854, 228.469
1149.079, 192.332
1150.304, 209.194
1151.528, 189.057
1152.753, 198.919
1153.977, 216.818
1155.201, 217.762
1156.425, 220.624
1157.649, 206.556
1158.872, 164.417
1160.096, 230.277
1161.319, 131.423
1162.542, 185.282
1163.764, 207.044
1164.987, 140.903
1166.209, 197.762
1167.431, 165.697
1168.653, 167.554
1169.875, 193.459
1171.097, 128.315
1172.318, 194.171
1173.539, 166.027
1174.760, 141.882
1175.981, 167.755
1177.202, 141.541
1178.422, 123.394
1179.642, 152.668
1180.862, 115.635
1182.082, 111.487
1183.302, 86.338
1184.521, 95.191
1185.740, 92.042
1186.959, 72.937
1188.178, 49.279
1189.397, 113.166
1190.615, 46.034
1191.834, 104.920
1193.052, 56.125
1194.269, 27.984
1195.487, 88.832
1196.705, 72.730
1197.922, 43.578
1199.139, 79.187
1200.356, 2.065
1201.573, 81.913
1202.789, 29.820
1204.006, 8.165
1205.222, 71.678
1206.438, 21.558
1207.653, 22.402
1208.869, 56.245
1210.084, 10.893
1211.299, 39.942
1212.514, 20.802
1213.729, 9.635
1214.944, 52.474
1216.158, 36.108
1217.372, 12.586
1218.586, 58.425
1219.800, 23.349
1221.014, 41.186
1222.227, 58.027
1223.440, 13.125
1224.654, 12.707
1225.866, 24.697
1227.079, 3.529
1228.292, 49.357
1229.504, 2.304
1230.716, 59.521
1231.928, 41.345
1233.139, 0.182
1234.351, 39.001
1235.562, 6.181
1236.773, 0.368
1237.984, 9.441
1239.195, 11.742
1240.406, 13.163
1241.616, 28.974
1242.826, 23.190
1244.036, 20.656
1245.246, 33.470
1246.456, 29.289
1247.665, 46.101
1248.874, 5.087
1250.083, 7.792
1251.292, 33.600
1252.501, 11.502
1253.709, 61.309
1254.917, 10.113
1256.125, 0.968
1257.333, 48.763
1258.541, 36.557
1259.748, 6.530
1260.956, 51.321
1262.163, 10.110
1263.370, 61.898
1264.576, 32.685
1265.783, 39.484
1266.989, 73.283
1268.195, 45.114
1269.401, 37.006
1270.607, 63.789
1271.813, 4.432
1273.018, 51.334
1274.223, 31.099
1275.428, 76.907
1276.633, 46.822
1277.838, 18.417
1279.042, 19.837
1280.246, 24.568
1281.450, 7.298
1282.654, 17.026
1283.858, 1.752
1285.061, 0.473
1286.265, 17.190
1287.468, 23.904
1288.671, 20.084
1289.873, 56.320
1291.076, 20.023
1292.278, 53.722
1293.480, 74.420
1294.682, 30.116
1295.884, 45.810
1297.086, 25.502
1298.287, 16.186
1299.488, 5.864
1300.689, 60.538
1301.890, 8.211
1303.091, 75.872
1304.291, 33.531
1305.491, 0.817
1306.691, 56.832
1307.891, 26.522
1309.091, 33.114
1310.290, 53.747
1311.490, 7.378
1312.689, 63.005
1313.888, 14.631
1315.086, 63.253
1316.285, 86.872
1317.483, 34.488
1318.681, 54.102
1319.879, 21.710
1321.077, 26.683
1322.275, 45.912
1323.472, 18.495
1324.669, 4.086
1325.866, 80.665
1327.063, 33.240
1328.260, 27.811
1329.456, 33.372
1330.653, 15.931
1331.849, 3.513
1333.045, 18.038
1334.240, 22.587
1335.436, 18.132
1336.631, 1.324
1337.826, 24.215
1339.021, 54.752
1340.216, 15.286
1341.411, 66.818
1342.605, 7.651
1343.799, 19.874
1344.993, 52.356
1346.187, 12.878
1347.381, 2.398
1348.574, 44.532
1349.767, 18.049
1350.961, 30.564
1352.153, 28.091
1353.346, 21.839
1354.539, 35.547
1355.731, 20.070
1356.923, 26.584
1358.115, 29.083
1359.307, 8.402
1360.498, 5.888
1361.690, 58.615
1362.881, 8.130
1364.072, 67.647
1365.263, 44.389
1366.453, 25.914
1367.644, 38.663
1368.834, 13.813
1370.024, 26.725
1371.214, 56.217
1372.404, 3.338
1373.593, 47.926
1374.783, 38.333
1375.972, 23.714
1377.161, 72.001
1378.349, 42.373
1379.538, 42.590
1380.726, 59.490
1381.915, 25.186
1383.103, 7.903
1384.290, 85.618
1385.478, 12.920
1386.665, 64.573
1387.853, 34.238
1389.040, 25.804
1390.227, 64.501
1391.413, 58.127
1392.600, 11.766
1393.786, 67.454
1394.972, 9.139
1396.158, 78.820
1397.344, 34.011
1398.530, 15.683
1399.715, 26.798
1400.900, 68.426
1402.085, 2.953
1403.270, 61.267
1404.455, 45.865
1405.639, 44.476
1406.824, 61.083
1408.008, 24.712
1409.192, 24.338
1410.375, 16.809
1411.559, 8.338
1412.742, 29.871
1413.925, 63.196
1415.108, 53.240
1416.291, 44.718
1417.474, 15.233
1418.656, 3.812
1419.839, 62.390
1421.021, 4.825
1422.202, 65.657
1423.384, 64.003
1424.566, 35.514
1425.747, 76.958
1426.928, 27.666
1428.109, 43.080
1429.290, 55.001
1430.470, 74.410
1431.651, 86.676
1432.831, 109.092
1434.011, 43.180
1435.191, 106.580
1436.370, 119.038
1437.550, 40.462
1438.729, 74.878
1439.908, 134.931
1441.087, 91.220
1442.266, 145.480
1443.444, 114.855
1444.623, 99.071
1445.801, 142.423
1446.979, 138.786
1448.157, 123.094
1449.334, 190.430
1450.512, 105.772
1451.689, 126.903
1452.866, 149.103
1454.043, 150.414
1455.220, 138.700
1456.396, 135.829
1457.573, 121.881
1458.749, 171.131
1459.925, 145.263
1461.100, 123.083
1462.276, 125.319
1463.451, 75.539
1464.627, 133.674
1465.802, 118.455
1466.977, 88.617
1468.151, 130.823
1469.326, 94.458
1470.500, 51.177
1471.674, 121.404
1472.848, 77.619
1474.022, 78.842
1475.195, 55.069
1476.369, 65.317
1477.542, 87.566
1478.715, 84.803
1479.888, 66.049
1481.061, 90.344
1482.233, 81.671
1483.405, 17.049
1484.577, 69.447
1485.749, 69.851
1486.921, 22.269
1488.093, 78.697
1489.264, 78.149
1490.435, 89.630
1491.606, 59.139
1492.777, 11.687
1493.948, 97.276
1495.118, 76.969
1496.288, 13.749
1497.459, 89.586
1498.628, 60.487
1499.798, 58.464
1500.968, 101.524
1502.137, 46.672
1503.306, 63.923
1504.475, 101.295
1505.644, 13.190
1506.813, 105.342
1507.981, 88.026
1509.149, 71.125
1510.318, 132.430
1511.485, 63.041
1512.653, 13.498
1513.821, 65.115
1514.988, 25.038
1516.155, 35.905
1517.322, 103.351
1518.489, 0.000
##END=



