##NAMES=Stilbite-Ca
##RRUFFID=R050012
##IDEAL CHEMISTRY=NaCa_4_(Si_27_Al_9_)O_72_&#183;28H_2_O
##LOCALITY=Harborville, Nova Scotia, Canada
##OWNER=RRUFF
##SOURCE=University of Arizona Mineral Museum
##DESCRIPTION=Globular aggregate of thin tabular white single crystals
##STATUS=The identification of this mineral has been confirmed by X-ray diffraction and chemical analysis
##URL=rruff.info/R050012
##MEASURED CHEMISTRY=(Na_1.50_K_0.03_)_Σ=1.53_Ca_4.15_(Si_26.17_Al_9.83_)O_72_·27.91H_2_O; H_2_O estimated by difference
##PIN_ID=M00431
##ORIENTATION=Laser parallel to -b* (0 -1 0). Fiducial mark perpendicular to laser is parallel to c [0 0 1]
85.664, 0.000
87.064, 7.791
88.463, 26.547
89.863, 65.848
91.262, 186.897
92.661, 181.586
94.059, 380.094
95.458, 411.186
96.856, 583.324
98.254, 723.188
99.652, 848.679
101.049, 1055.074
102.446, 1222.267
103.843, 1369.859
105.240, 1553.384
106.637, 1658.460
108.033, 1811.896
109.429, 1921.271
110.825, 2216.237
112.220, 2237.552
113.616, 2444.205
115.011, 2499.297
116.406, 2556.733
117.800, 2655.506
119.195, 2636.107
120.589, 2685.208
121.983, 2818.993
123.377, 2691.304
124.770, 2826.446
126.163, 2653.437
127.556, 2720.537
128.949, 2621.121
130.342, 2554.915
131.734, 2542.846
133.126, 2525.862
134.518, 2465.529
135.909, 2424.479
137.301, 2369.974
138.692, 2295.457
140.083, 2257.671
141.473, 2184.302
142.864, 2188.924
144.254, 2103.501
145.644, 2079.397
147.034, 1997.458
148.423, 2089.084
149.812, 2065.340
151.201, 2030.891
152.590, 1929.824
153.979, 1893.857
155.367, 1802.934
156.755, 1823.281
158.143, 1676.230
159.530, 1643.637
160.918, 1580.031
162.305, 1465.227
163.692, 1397.685
165.078, 1323.033
166.465, 1193.354
167.851, 1116.715
169.237, 1074.255
170.623, 1016.338
172.008, 886.292
173.393, 867.820
174.778, 768.347
176.163, 820.524
177.548, 631.434
178.932, 501.532
180.316, 576.030
181.700, 519.487
183.083, 444.038
184.467, 396.676
185.850, 348.395
187.233, 362.186
188.616, 292.041
189.998, 256.951
191.380, 174.910
192.762, 151.918
194.144, 132.179
195.525, 97.569
196.907, 104.011
198.288, 78.180
199.669, 46.325
201.049, 43.554
202.429, 27.673
203.810, 11.220
205.189, 16.131
206.569, 29.066
207.949, 29.510
209.328, 81.195
210.707, 61.135
212.085, 70.625
213.464, 43.089
214.842, 57.818
216.220, 54.339
217.598, 46.370
218.976, 83.647
220.353, 77.843
221.730, 29.188
223.107, 49.571
224.483, 112.996
225.860, 64.464
227.236, 6.977
228.612, 50.566
229.988, 12.745
231.363, 12.085
232.738, 86.034
234.113, 42.092
235.488, 94.243
236.863, 30.534
238.237, 19.224
239.611, 43.157
240.985, 53.553
242.359, 37.706
243.732, 34.568
245.105, 29.805
246.478, 26.095
247.851, 82.292
249.223, 17.450
250.595, 4.581
251.967, 12.391
253.339, 14.686
254.711, 8.071
256.082, 9.963
257.453, 19.305
258.824, 24.751
260.195, 40.327
261.565, 9.994
262.935, 92.720
264.305, 106.488
265.675, 49.278
267.044, 125.075
268.414, 156.867
269.783, 195.641
271.151, 215.385
272.520, 246.677
273.888, 304.750
275.256, 294.361
276.624, 322.919
277.992, 339.421
279.359, 338.866
280.726, 364.477
282.093, 374.745
283.460, 407.812
284.827, 399.969
286.193, 442.032
287.559, 444.000
288.925, 458.869
290.290, 416.640
291.656, 417.686
293.021, 365.892
294.386, 379.379
295.750, 354.776
297.115, 328.087
298.479, 360.317
299.843, 349.470
301.207, 278.547
302.570, 279.553
303.933, 303.486
305.296, 285.345
306.659, 299.126
308.022, 335.827
309.384, 314.440
310.746, 361.920
312.108, 323.248
313.470, 311.371
314.831, 341.317
316.193, 350.094
317.554, 335.694
318.914, 350.141
320.275, 361.403
321.635, 354.515
322.995, 357.786
324.355, 336.497
325.715, 342.260
327.074, 299.978
328.434, 279.578
329.792, 301.076
331.151, 314.535
332.510, 241.960
333.868, 232.325
335.226, 315.621
336.584, 248.867
337.941, 281.076
339.299, 270.249
340.656, 324.394
342.013, 267.516
343.370, 256.619
344.726, 287.705
346.082, 313.774
347.438, 318.874
348.794, 367.863
350.150, 342.882
351.505, 324.885
352.860, 325.870
354.215, 370.844
355.570, 384.632
356.924, 484.304
358.278, 453.871
359.632, 460.273
360.986, 567.680
362.339, 587.967
363.693, 600.014
365.046, 609.296
366.399, 672.427
367.751, 782.594
369.104, 790.759
370.456, 942.917
371.808, 1007.055
373.159, 968.941
374.511, 1125.158
375.862, 1197.228
377.213, 1292.661
378.564, 1403.904
379.914, 1488.902
381.265, 1597.108
382.615, 1719.055
383.965, 1817.187
385.315, 2030.741
386.664, 2151.785
388.013, 2335.699
389.362, 2609.051
390.711, 2783.740
392.060, 3008.714
393.408, 3387.901
394.756, 3637.687
396.104, 4029.023
397.451, 4270.161
398.799, 4771.271
400.146, 5078.938
401.493, 5324.540
402.840, 5741.683
404.186, 6010.852
405.533, 6311.037
406.879, 6371.564
408.225, 6265.161
409.570, 6188.421
410.916, 5972.329
412.261, 5725.566
413.606, 5396.162
414.951, 5122.926
416.295, 4856.461
417.639, 4510.426
418.983, 4139.039
420.327, 3904.238
421.671, 3604.520
423.014, 3321.477
424.357, 3128.895
425.700, 2933.561
427.043, 2751.145
428.386, 2576.183
429.728, 2344.770
431.070, 2264.299
432.412, 2208.056
433.753, 2023.593
435.095, 2006.215
436.436, 1888.883
437.777, 1851.516
439.118, 1815.113
440.458, 1810.675
441.798, 1793.202
443.138, 1781.693
444.478, 1811.199
445.818, 1830.572
447.157, 1884.960
448.496, 1908.314
449.835, 1959.635
451.174, 2077.922
452.513, 2058.176
453.851, 2129.398
455.189, 2182.588
456.527, 2119.746
457.864, 2172.872
459.202, 2063.967
460.539, 1912.031
461.876, 1773.064
463.212, 1760.916
464.549, 1585.005
465.885, 1468.914
467.221, 1357.383
468.557, 1188.172
469.893, 1137.026
471.228, 1035.809
472.563, 1027.605
473.898, 995.356
475.233, 1004.024
476.567, 999.741
477.902, 1043.739
479.236, 1112.995
480.570, 1174.740
481.903, 1326.359
483.237, 1434.955
484.570, 1605.529
485.903, 1950.080
487.235, 2253.611
488.568, 2514.972
489.900, 2947.225
491.232, 3056.546
492.564, 3344.904
493.896, 3456.938
495.227, 3397.910
496.558, 3231.212
497.889, 3060.214
499.220, 2656.517
500.551, 2318.827
501.881, 1966.344
503.211, 1669.377
504.541, 1381.004
505.870, 1145.404
507.200, 952.844
508.529, 754.487
509.858, 590.103
511.187, 552.800
512.515, 454.405
513.844, 369.294
515.172, 395.770
516.500, 340.380
517.827, 267.849
519.155, 205.086
520.482, 216.598
521.809, 179.023
523.136, 169.080
524.462, 98.904
525.789, 78.027
527.115, 126.839
528.441, 47.306
529.766, 90.197
531.092, 81.473
532.417, 77.465
533.742, 52.954
535.067, 17.575
536.391, 24.966
537.716, 11.545
539.040, 7.955
540.364, 45.034
541.688, 5.372
543.011, 92.185
544.334, 2.927
545.657, 15.620
546.980, 61.521
548.303, 36.326
549.625, 31.685
550.947, 48.286
552.269, 69.574
553.591, 6.704
554.913, 44.362
556.234, 31.122
557.555, 1.681
558.876, 67.549
560.197, 30.430
561.517, 16.379
562.837, 81.304
564.157, 74.124
565.477, 39.000
566.797, 63.990
568.116, 126.760
569.435, 106.347
570.754, 89.913
572.073, 130.463
573.391, 68.003
574.709, 85.533
576.027, 71.055
577.345, 112.800
578.663, 58.303
579.980, 95.968
581.297, 118.715
582.614, 130.172
583.931, 84.688
585.248, 110.367
586.564, 115.853
587.880, 105.279
589.196, 138.763
590.511, 112.202
591.827, 177.645
593.142, 216.958
594.457, 179.325
595.772, 273.648
597.086, 237.905
598.401, 213.144
599.715, 285.363
601.029, 341.563
602.343, 335.748
603.656, 338.913
604.969, 377.070
606.282, 411.209
607.595, 380.330
608.908, 330.432
610.220, 422.516
611.532, 421.586
612.844, 431.638
614.156, 491.672
615.468, 475.688
616.779, 392.686
618.090, 530.667
619.401, 531.631
620.712, 493.578
622.022, 592.507
623.332, 517.420
624.642, 537.316
625.952, 477.194
627.262, 447.056
628.571, 440.900
629.880, 403.736
631.189, 406.560
632.498, 401.366
633.807, 308.166
635.115, 385.949
636.423, 364.716
637.731, 360.477
639.039, 280.225
640.346, 306.964
641.653, 324.691
642.960, 315.404
644.267, 297.099
645.574, 296.778
646.880, 291.534
648.186, 250.088
649.492, 265.719
650.798, 254.335
652.103, 184.934
653.409, 199.520
654.714, 185.088
656.019, 108.641
657.323, 91.177
658.628, 90.695
659.932, 98.195
661.236, 32.677
662.540, 67.139
663.843, 78.583
665.147, 30.011
666.450, 49.418
667.753, 24.907
669.056, 30.345
670.358, 14.995
671.660, 63.569
672.963, 27.402
674.264, 56.674
675.566, 4.854
676.868, 37.436
678.169, 54.319
679.470, 34.367
680.771, 0.960
682.071, 4.082
683.372, 0.612
684.672, 24.399
685.972, 16.850
687.271, 65.782
688.571, 2.692
689.870, 14.836
691.169, 19.198
692.468, 5.065
693.767, 10.056
695.065, 6.398
696.364, 4.093
697.662, 15.109
698.960, 7.050
700.257, 34.127
701.555, 18.792
702.852, 63.646
704.149, 31.607
705.446, 23.864
706.742, 4.113
708.038, 28.424
709.335, 61.853
710.631, 9.066
711.926, 84.065
713.222, 12.789
714.517, 57.984
715.812, 50.242
717.107, 29.104
718.402, 33.089
719.696, 58.356
720.990, 43.481
722.284, 18.180
723.578, 65.902
724.872, 166.505
726.165, 136.574
727.458, 156.713
728.751, 174.624
730.044, 155.812
731.336, 141.002
732.629, 50.954
733.921, 110.622
735.213, 65.386
736.504, 41.730
737.796, 128.717
739.087, 88.908
740.378, 44.843
741.669, 85.958
742.960, 96.010
744.250, 77.078
745.540, 83.151
746.830, 76.875
748.120, 129.559
749.410, 85.770
750.699, 90.953
751.988, 136.107
753.277, 101.233
754.566, 110.380
755.854, 156.376
757.143, 120.104
758.431, 123.261
759.719, 177.545
761.006, 129.589
762.294, 220.722
763.581, 230.682
764.868, 225.617
766.155, 193.503
767.442, 222.490
768.728, 245.356
770.014, 243.381
771.300, 247.332
772.586, 273.896
773.872, 258.296
775.157, 320.200
776.442, 326.090
777.727, 343.945
779.012, 399.778
780.297, 407.988
781.581, 413.194
782.865, 453.078
784.149, 471.643
785.433, 483.684
786.716, 396.409
787.999, 448.353
789.282, 375.080
790.565, 410.836
791.848, 429.289
793.130, 375.660
794.413, 390.160
795.695, 386.847
796.977, 399.759
798.258, 360.405
799.540, 289.062
800.821, 380.626
802.102, 265.211
803.382, 269.645
804.663, 333.270
805.943, 212.674
807.224, 216.190
808.504, 177.565
809.783, 201.924
811.063, 189.084
812.342, 153.330
813.621, 186.388
814.900, 154.562
816.179, 128.371
817.457, 128.297
818.736, 117.943
820.014, 107.734
821.292, 69.542
822.569, 76.252
823.847, 17.970
825.124, 31.449
826.401, 1.259
827.678, 103.899
828.954, 37.714
830.231, 73.662
831.507, 1.694
832.783, 44.000
834.059, 16.033
835.334, 28.267
836.610, 63.170
837.885, 100.356
839.160, 7.867
840.435, 68.932
841.709, 91.595
842.983, 69.525
844.258, 133.957
845.532, 105.399
846.805, 26.758
848.079, 60.156
849.352, 44.529
850.625, 44.379
851.898, 77.808
853.171, 116.198
854.443, 169.743
855.715, 87.221
856.988, 133.890
858.259, 137.451
859.531, 171.549
860.803, 98.857
862.074, 91.828
863.345, 71.595
864.616, 68.140
865.886, 15.993
867.157, 38.033
868.427, 15.287
869.697, 90.454
870.967, 11.049
872.236, 14.654
873.506, 37.355
874.775, 27.012
876.044, 35.485
877.313, 30.825
878.581, 67.012
879.849, 29.841
881.118, 8.340
882.386, 0.462
883.653, 2.254
884.921, 41.036
886.188, 6.425
887.455, 12.667
888.722, 2.100
889.989, 65.357
891.255, 23.079
892.522, 34.718
893.788, 13.167
895.054, 29.779
896.319, 11.426
897.585, 39.986
898.850, 10.564
900.115, 2.109
901.380, 28.754
902.645, 31.319
903.909, 33.897
905.174, 36.517
906.438, 27.569
907.701, 59.727
908.965, 8.680
910.229, 12.898
911.492, 35.534
912.755, 32.007
914.018, 6.538
915.280, 44.059
916.543, 45.948
917.805, 13.924
919.067, 25.564
920.329, 50.046
921.590, 8.526
922.852, 21.998
924.113, 8.460
925.374, 8.802
926.635, 21.362
927.895, 20.803
929.156, 25.235
930.416, 26.662
931.676, 48.081
932.936, 72.493
934.195, 2.898
935.454, 29.705
936.714, 21.332
937.973, 29.021
939.231, 36.632
940.490, 20.687
941.748, 9.999
943.006, 45.698
944.264, 11.426
945.522, 31.167
946.780, 17.933
948.037, 3.714
949.294, 12.496
950.551, 5.697
951.808, 23.892
953.064, 15.079
954.320, 58.262
955.577, 0.438
956.832, 73.611
958.088, 15.778
959.344, 56.938
960.599, 75.098
961.854, 48.250
963.109, 3.398
964.364, 84.541
965.618, 17.679
966.872, 41.812
968.127, 41.948
969.380, 10.921
970.634, 30.200
971.888, 69.318
973.141, 37.331
974.394, 37.371
975.647, 19.167
976.900, 52.027
978.152, 87.596
979.404, 24.703
980.656, 53.585
981.908, 100.623
983.160, 87.043
984.411, 142.956
985.663, 91.776
986.914, 176.649
988.165, 119.688
989.415, 150.814
990.666, 174.625
991.916, 199.704
993.166, 210.831
994.416, 260.567
995.665, 284.035
996.915, 353.179
998.164, 357.089
999.413, 392.139
1000.662, 437.125
1001.911, 386.118
1003.159, 341.247
1004.407, 234.374
1005.655, 298.500
1006.903, 248.624
1008.151, 282.745
1009.398, 312.865
1010.646, 320.988
1011.893, 305.114
1013.139, 308.244
1014.386, 312.370
1015.633, 366.485
1016.879, 380.380
1018.125, 373.370
1019.371, 382.262
1020.616, 372.377
1021.862, 337.249
1023.107, 371.134
1024.352, 365.113
1025.597, 387.353
1026.842, 328.321
1028.086, 373.318
1029.330, 338.414
1030.574, 376.353
1031.818, 342.673
1033.062, 338.438
1034.305, 326.257
1035.548, 303.236
1036.791, 236.656
1038.034, 371.739
1039.277, 304.381
1040.519, 363.458
1041.762, 326.362
1043.004, 288.322
1044.246, 372.192
1045.487, 309.146
1046.729, 377.022
1047.970, 405.017
1049.211, 257.915
1050.452, 359.778
1051.692, 359.734
1052.933, 283.701
1054.173, 357.339
1055.413, 330.324
1056.653, 344.271
1057.893, 333.360
1059.132, 308.690
1060.371, 373.573
1061.610, 310.322
1062.849, 327.298
1064.088, 310.165
1065.326, 287.190
1066.565, 315.223
1067.803, 335.285
1069.041, 338.891
1070.278, 384.177
1071.516, 442.144
1072.753, 443.188
1073.990, 424.054
1075.227, 483.706
1076.464, 522.753
1077.700, 568.673
1078.936, 508.295
1080.173, 629.239
1081.408, 550.412
1082.644, 571.467
1083.880, 626.312
1085.115, 625.506
1086.350, 640.160
1087.585, 622.111
1088.820, 688.829
1090.054, 723.746
1091.288, 694.618
1092.522, 757.775
1093.756, 712.080
1094.990, 722.227
1096.224, 760.281
1097.457, 791.996
1098.690, 745.928
1099.923, 768.783
1101.156, 809.714
1102.388, 784.370
1103.621, 863.399
1104.853, 813.892
1106.085, 927.084
1107.316, 811.012
1108.548, 934.889
1109.779, 878.914
1111.010, 945.937
1112.241, 896.918
1113.472, 893.940
1114.703, 928.853
1115.933, 912.182
1117.163, 938.195
1118.393, 962.522
1119.623, 925.602
1120.853, 899.725
1122.082, 858.857
1123.311, 849.853
1124.540, 835.888
1125.769, 845.903
1126.997, 838.918
1128.226, 810.868
1129.454, 945.902
1130.682, 855.935
1131.910, 801.169
1133.138, 977.095
1134.365, 823.340
1135.592, 847.452
1136.819, 891.555
1138.046, 795.747
1139.273, 879.882
1140.499, 862.913
1141.725, 850.711
1142.951, 824.794
1144.177, 819.890
1145.403, 795.479
1146.628, 832.934
1147.854, 763.954
1149.079, 735.870
1150.304, 740.888
1151.528, 684.989
1152.753, 750.167
1153.977, 698.177
1155.201, 704.254
1156.425, 653.333
1157.649, 683.335
1158.872, 541.840
1160.096, 579.839
1161.319, 538.835
1162.542, 530.829
1163.764, 420.820
1164.987, 450.811
1166.209, 378.798
1167.431, 341.785
1168.653, 366.769
1169.875, 313.750
1171.097, 298.731
1172.318, 270.709
1173.539, 256.693
1174.760, 288.675
1175.981, 198.715
1177.202, 242.701
1178.422, 130.869
1179.642, 156.860
1180.862, 195.009
1182.082, 177.017
1183.302, 115.996
1184.521, 204.896
1185.740, 114.125
1186.959, 85.220
1188.178, 124.318
1189.397, 91.097
1190.615, 80.468
1191.834, 100.786
1193.052, 109.934
1194.269, 42.927
1195.487, 30.824
1196.705, 30.783
1197.922, 51.715
1199.139, 38.668
1200.356, 13.382
1201.573, 70.561
1202.789, 42.599
1204.006, 35.533
1205.222, 82.585
1206.438, 63.515
1207.653, 37.386
1208.869, 43.954
1210.084, 63.884
1211.299, 43.015
1212.514, 51.985
1213.729, 88.905
1214.944, 10.997
1216.158, 20.084
1217.372, 20.813
1218.586, 16.733
1219.800, 46.632
1221.014, 12.346
1222.227, 14.553
1223.440, 68.522
1224.654, 10.478
1225.866, 45.381
1227.079, 11.237
1228.292, 49.654
1229.504, 46.500
1230.716, 34.413
1231.928, 101.260
1233.139, 58.109
1234.351, 103.131
1235.562, 73.057
1236.773, 61.910
1237.984, 47.760
1239.195, 28.338
1240.406, 31.482
1241.616, 5.348
1242.826, 29.212
1244.036, 37.076
1245.246, 76.934
1246.456, 58.791
1247.665, 9.354
1248.874, 64.490
1250.083, 7.668
1251.292, 11.168
1252.501, 44.030
1253.709, 10.138
1254.917, 52.778
1256.125, 91.601
1257.333, 20.415
1258.541, 97.718
1259.748, 91.511
1260.956, 16.704
1262.163, 75.073
1263.370, 61.847
1264.576, 26.692
1265.783, 28.462
1266.989, 21.749
1268.195, 127.981
1269.401, 27.733
1270.607, 88.482
1271.813, 95.228
1273.018, 78.971
1274.223, 68.513
1275.428, 101.250
1276.633, 12.983
1277.838, 6.098
1279.042, 11.817
1280.246, 40.661
1281.450, 45.039
1282.654, 23.727
1283.858, 37.409
1285.061, 94.073
1286.265, 3.291
1287.468, 49.325
1288.671, 45.931
1289.873, 63.531
1291.076, 107.125
1292.278, 88.962
1293.480, 4.706
1294.682, 72.845
1295.884, 43.389
1297.086, 24.927
1298.287, 69.459
1299.488, 47.987
1300.689, 47.507
1301.890, 123.021
1303.091, 2.531
1304.291, 93.028
1305.491, 106.520
1306.691, 75.005
1307.891, 132.484
1309.091, 132.959
1310.290, 88.428
1311.490, 109.892
1312.689, 128.350
1313.888, 148.804
1315.086, 147.166
1316.285, 161.692
1317.483, 124.128
1318.681, 98.552
1319.879, 54.970
1321.077, 117.382
1322.275, 23.788
1323.472, 66.187
1324.669, 28.580
1325.866, 61.966
1327.063, 72.290
1328.260, 2.398
1329.456, 16.902
1330.653, 41.194
1331.849, 39.477
1333.045, 16.249
1334.240, 9.011
1335.436, 40.739
1336.631, 25.491
1337.826, 61.712
1339.021, 18.073
1340.216, 77.107
1341.411, 2.721
1342.605, 79.459
1343.799, 73.633
1344.993, 68.137
1346.187, 44.295
1347.381, 84.446
1348.574, 39.580
1349.767, 87.714
1350.961, 2.160
1352.153, 29.053
1353.346, 116.045
1354.539, 23.137
1355.731, 57.222
1356.923, 117.322
1358.115, 26.398
1359.307, 170.992
1360.498, 127.139
1361.690, 61.108
1362.881, 65.055
1364.072, 34.958
1365.263, 61.453
1366.453, 43.382
1367.644, 35.546
1368.834, 90.901
1370.024, 72.912
1371.214, 3.772
1372.404, 72.760
1373.593, 50.017
1374.783, 70.914
1375.972, 184.743
1377.161, 25.459
1378.349, 49.092
1379.538, 175.720
1380.726, 145.189
1381.915, 114.536
1383.103, 128.094
1384.290, 128.897
1385.478, 152.775
1386.665, 122.147
1387.853, 106.798
1389.040, 146.211
1390.227, 156.757
1391.413, 115.834
1392.600, 85.228
1393.786, 93.465
1394.972, 61.228
1396.158, 149.339
1397.344, 46.808
1398.530, 76.012
1399.715, 104.131
1400.900, 5.760
1402.085, 91.802
1403.270, 72.211
1404.455, 95.388
1405.639, 74.715
1406.824, 46.900
1408.008, 64.090
1409.192, 72.172
1410.375, 67.272
1411.559, 136.885
1412.742, 85.149
1413.925, 66.407
1415.108, 123.660
1416.291, 63.095
1417.474, 70.145
1418.656, 72.378
1419.839, 26.532
1421.021, 85.487
1422.202, 112.447
1423.384, 97.613
1424.566, 120.056
1425.747, 154.871
1426.928, 69.639
1428.109, 103.243
1429.290, 103.172
1430.470, 103.113
1431.651, 226.561
1432.831, 144.358
1434.011, 254.113
1435.191, 267.461
1436.370, 251.852
1437.550, 278.259
1438.729, 277.774
1439.908, 335.605
1441.087, 372.374
1442.266, 322.912
1443.444, 301.306
1444.623, 367.125
1445.801, 296.836
1446.979, 387.482
1448.157, 358.901
1449.334, 356.498
1450.512, 350.211
1451.689, 391.903
1452.866, 397.583
1454.043, 465.250
1455.220, 336.897
1456.396, 494.528
1457.573, 375.062
1458.749, 386.411
1459.925, 359.777
1461.100, 438.365
1462.276, 319.932
1463.451, 360.288
1464.627, 331.816
1465.802, 201.326
1466.977, 285.797
1468.151, 149.728
1469.326, 187.250
1470.500, 292.251
1471.674, 103.216
1472.848, 215.193
1474.022, 223.346
1475.195, 125.539
1476.369, 180.691
1477.542, 147.914
1478.715, 147.182
1479.888, 202.416
1481.061, 112.625
1482.233, 168.815
1483.405, 137.992
1484.577, 93.135
1485.749, 101.233
1486.921, 101.284
1488.093, 61.284
1489.264, 94.267
1490.435, 114.220
1491.606, 47.122
1492.777, 87.960
1493.948, 162.418
1495.118, 44.929
1496.288, 36.483
1497.459, 20.071
1498.628, 67.690
1499.798, 1.655
1500.968, 3.953
1502.137, 86.813
1503.306, 71.673
1504.475, 17.660
1505.644, 18.825
1506.813, 81.133
1507.981, 6.305
1509.149, 73.936
1510.318, 63.391
1511.485, 74.931
1512.653, 54.675
1513.821, 0.588
1514.988, 74.446
1516.155, 45.396
1517.322, 0.000
##END=



