##NAMES=Stilbite-Ca
##RRUFFID=R050012
##IDEAL CHEMISTRY=NaCa_4_(Si_27_Al_9_)O_72_&#183;28H_2_O
##LOCALITY=Harborville, Nova Scotia, Canada
##OWNER=RRUFF
##SOURCE=University of Arizona Mineral Museum
##DESCRIPTION=Globular aggregate of thin tabular white single crystals
##STATUS=The identification of this mineral has been confirmed by X-ray diffraction and chemical analysis
##URL=rruff.info/R050012
##MEASURED CHEMISTRY=(Na_1.50_K_0.03_)_Σ=1.53_Ca_4.15_(Si_26.17_Al_9.83_)O_72_·27.91H_2_O; H_2_O estimated by difference
##PIN_ID=M00488
##ORIENTATION=Laser parallel to (-1 0 -1). Fiducial mark perpendicular to laser is parallel to -b [0 -1 0]
89.863, 0.000
91.262, 135.108
92.661, 21.104
94.059, 79.191
95.458, 332.406
96.856, 365.342
98.254, 580.098
99.652, 838.041
101.049, 1142.903
102.446, 1270.412
103.843, 1622.874
105.240, 1923.906
106.637, 2115.380
108.033, 2303.380
109.429, 2390.162
110.825, 2705.123
112.220, 3141.917
113.616, 3455.388
115.011, 3482.177
116.406, 3821.864
117.800, 3764.083
119.195, 3798.529
120.589, 4014.952
121.983, 4023.146
123.377, 4182.934
124.770, 4124.169
126.163, 4146.724
127.556, 4170.489
128.949, 4285.373
130.342, 4141.293
131.734, 4368.284
133.126, 4197.102
134.518, 4148.363
135.909, 4331.466
137.301, 4305.792
138.692, 4380.785
140.083, 4496.110
141.473, 4351.719
142.864, 4437.588
144.254, 4513.690
145.644, 4690.017
147.034, 4846.572
148.423, 5003.355
149.812, 4930.369
151.201, 5037.612
152.590, 4885.086
153.979, 4849.280
155.367, 4770.721
156.755, 4638.874
158.143, 4537.245
159.530, 4365.831
160.918, 4134.629
162.305, 3993.639
163.692, 3712.862
165.078, 3482.302
166.465, 3311.966
167.851, 3111.859
169.237, 3001.982
170.623, 2796.756
172.008, 2802.919
173.393, 2418.176
174.778, 2370.969
176.163, 2172.136
177.548, 1964.729
178.932, 1801.126
180.316, 1630.813
181.700, 1575.650
183.083, 1387.045
184.467, 1392.741
185.850, 1182.643
187.233, 1067.452
188.616, 1095.230
189.998, 984.229
191.380, 830.653
192.762, 725.809
194.144, 682.587
195.525, 630.557
196.907, 527.813
198.288, 468.157
199.669, 468.683
201.049, 453.387
202.429, 382.266
203.810, 271.316
205.189, 343.535
206.569, 215.918
207.949, 240.463
209.328, 226.165
210.707, 270.021
212.085, 232.029
213.464, 274.185
214.842, 257.486
216.220, 275.926
217.598, 292.525
218.976, 286.685
220.353, 384.035
221.730, 263.965
223.107, 315.008
224.483, 250.162
225.860, 396.426
227.236, 382.797
228.612, 390.275
229.988, 430.858
231.363, 415.765
232.738, 410.367
234.113, 402.358
235.488, 362.576
236.863, 317.978
238.237, 302.801
239.611, 253.443
240.985, 237.532
242.359, 300.842
243.732, 240.352
245.105, 198.020
246.478, 105.902
247.851, 153.981
249.223, 150.221
250.595, 74.572
251.967, 57.031
253.339, 64.591
254.711, 25.223
256.082, 99.959
257.453, 79.408
258.824, 138.428
260.195, 104.537
261.565, 280.804
262.935, 220.395
264.305, 210.398
265.675, 271.891
267.044, 148.944
268.414, 136.590
269.783, 174.869
271.151, 166.823
272.520, 177.483
273.888, 77.878
275.256, 130.013
276.624, 110.918
277.992, 101.607
279.359, 43.902
280.726, 107.390
282.093, 48.486
283.460, 36.465
284.827, 32.261
286.193, 48.090
287.559, 11.415
288.925, 26.213
290.290, 12.970
291.656, 67.850
293.021, 44.152
294.386, 19.949
295.750, 21.157
297.115, 48.466
298.479, 135.869
299.843, 49.354
301.207, 10.913
302.570, 97.537
303.933, 98.226
305.296, 194.977
306.659, 215.789
308.022, 177.661
309.384, 215.591
310.746, 273.579
312.108, 179.622
313.470, 188.721
314.831, 339.873
316.193, 267.078
317.554, 346.334
318.914, 321.640
320.275, 297.996
321.635, 290.398
322.995, 179.849
324.355, 197.345
325.715, 181.885
327.074, 125.946
328.434, 175.759
329.792, 201.075
331.151, 203.178
332.510, 112.469
333.868, 145.003
335.226, 137.826
336.584, 46.683
337.941, 132.549
339.299, 85.394
340.656, 184.163
342.013, 41.847
343.370, 166.451
344.726, 104.014
346.082, 174.524
347.438, 152.025
348.794, 141.513
350.150, 173.019
351.505, 120.559
352.860, 143.134
354.215, 212.748
355.570, 188.491
356.924, 337.091
358.278, 254.821
359.632, 361.593
360.986, 492.405
362.339, 432.254
363.693, 526.142
365.046, 648.067
366.399, 754.027
367.751, 859.022
369.104, 863.137
370.456, 1121.943
371.808, 1236.061
373.159, 1306.236
374.511, 1529.482
375.862, 1708.880
377.213, 1832.508
378.564, 1983.494
379.914, 2173.968
381.265, 2338.281
382.615, 2527.961
383.965, 2845.358
385.315, 2913.587
386.664, 3119.228
388.013, 3572.920
389.362, 3780.347
390.711, 4077.368
392.060, 4439.861
393.408, 4805.860
394.756, 5240.923
396.104, 5783.738
397.451, 6307.199
398.799, 7075.970
400.146, 7490.934
401.493, 8018.814
402.840, 8741.619
404.186, 9247.790
405.533, 9869.342
406.879, 10091.639
408.225, 10301.926
409.570, 10384.764
410.916, 10234.792
412.261, 10038.255
413.606, 9856.827
414.951, 9327.111
416.295, 8697.228
417.639, 8185.969
418.983, 7662.500
420.327, 7189.033
421.671, 6814.185
423.014, 6279.902
424.357, 5858.523
425.700, 5359.683
427.043, 5061.249
428.386, 4610.310
429.728, 4384.341
431.070, 4038.820
432.412, 3729.776
433.753, 3502.037
435.095, 3252.816
436.436, 3178.356
437.777, 3005.953
439.118, 2779.237
440.458, 2772.839
441.798, 2662.697
443.138, 2525.009
444.478, 2558.870
445.818, 2480.606
447.157, 2473.443
448.496, 2561.301
449.835, 2590.695
451.174, 2775.546
452.513, 2815.393
453.851, 2860.234
455.189, 2895.488
456.527, 2937.318
457.864, 3077.140
459.202, 2960.954
460.539, 2929.760
461.876, 2769.557
463.212, 2567.282
464.549, 2518.059
465.885, 2230.825
467.221, 2150.581
468.557, 2019.325
469.893, 1957.058
471.228, 1834.778
472.563, 1714.485
473.898, 1676.178
475.233, 1627.858
476.567, 1759.524
477.902, 1868.176
479.236, 1989.812
480.570, 2101.432
481.903, 2287.037
483.237, 2468.626
484.570, 2803.197
485.903, 3488.752
487.235, 3856.289
488.568, 4356.808
489.900, 5275.309
491.232, 5873.791
492.564, 6662.254
493.896, 7330.699
495.227, 7589.123
496.558, 7717.525
497.889, 7405.908
499.220, 7034.271
500.551, 6092.612
501.881, 5440.933
503.211, 4539.288
504.541, 3770.746
505.870, 3226.005
507.200, 2666.687
508.529, 2264.957
509.858, 1826.792
511.187, 1536.539
512.515, 1234.436
513.844, 1042.089
515.172, 932.036
516.500, 788.586
517.827, 626.694
519.155, 616.130
520.482, 475.170
521.809, 373.207
523.136, 346.789
524.462, 247.251
525.789, 199.208
527.115, 221.532
528.441, 135.116
529.766, 93.159
531.092, 148.335
532.417, 20.662
533.742, 83.668
535.067, 78.537
536.391, 1.139
537.716, 53.219
539.040, 49.119
540.364, 23.902
541.688, 12.559
543.011, 70.583
544.334, 34.927
545.657, 24.513
546.980, 72.105
548.303, 66.949
549.625, 59.550
550.947, 15.074
552.269, 60.419
553.591, 6.827
554.913, 11.643
556.234, 1.136
557.555, 82.732
558.876, 21.543
560.197, 67.489
561.517, 15.778
562.837, 39.354
564.157, 48.451
565.477, 29.266
566.797, 90.979
568.116, 17.616
569.435, 103.188
570.754, 5.714
572.073, 188.195
573.391, 95.610
574.709, 103.088
576.027, 171.412
577.345, 140.707
578.663, 187.989
579.980, 145.252
581.297, 226.513
582.614, 221.764
583.931, 215.022
585.248, 272.286
586.564, 190.545
587.880, 271.809
589.196, 372.058
590.511, 308.291
591.827, 337.519
593.142, 389.738
594.457, 401.948
595.772, 463.133
597.086, 439.300
598.401, 473.445
599.715, 590.576
601.029, 589.671
602.343, 595.744
603.656, 622.776
604.969, 663.783
606.282, 664.757
607.595, 799.691
608.908, 831.589
610.220, 826.446
611.532, 943.263
612.844, 862.040
614.156, 868.783
615.468, 937.486
616.779, 902.146
618.090, 871.766
619.401, 987.346
620.712, 979.884
622.022, 1007.382
623.332, 976.836
624.642, 912.249
625.952, 924.619
627.262, 820.946
628.571, 861.229
629.880, 803.473
631.189, 773.673
632.498, 746.832
633.807, 735.945
635.115, 732.016
636.423, 691.042
637.731, 700.023
639.039, 645.961
640.346, 704.854
641.653, 620.703
642.960, 616.508
644.267, 592.268
645.574, 525.983
646.880, 519.653
648.186, 529.278
649.492, 498.859
650.798, 354.395
652.103, 451.886
653.409, 382.331
654.714, 436.730
656.019, 408.085
657.323, 346.395
658.628, 379.658
659.932, 307.875
661.236, 285.047
662.540, 336.172
663.843, 248.251
665.147, 320.280
666.450, 230.262
667.753, 236.192
669.056, 223.119
670.358, 243.946
671.660, 216.803
672.963, 174.532
674.264, 201.470
675.566, 179.300
676.868, 204.171
678.169, 203.091
679.470, 239.052
680.771, 173.375
682.071, 288.411
683.372, 195.388
684.672, 234.059
685.972, 195.669
687.271, 184.489
688.571, 174.035
689.870, 187.549
691.169, 200.051
692.468, 215.385
693.767, 168.588
695.065, 197.739
696.364, 148.896
697.662, 186.572
698.960, 205.256
700.257, 222.542
701.555, 235.349
702.852, 219.983
704.149, 237.020
705.446, 179.066
706.742, 144.181
708.038, 144.819
709.335, 252.704
710.631, 259.655
711.926, 233.817
713.222, 129.586
714.517, 247.596
715.812, 262.508
717.107, 166.629
718.402, 322.735
719.696, 232.943
720.990, 214.802
722.284, 227.116
723.578, 264.797
724.872, 262.538
726.165, 292.441
727.458, 221.718
728.751, 308.894
730.044, 203.518
731.336, 279.634
732.629, 289.980
733.921, 305.031
735.213, 274.234
736.504, 268.403
737.796, 339.725
739.087, 261.414
740.378, 306.751
741.669, 379.461
742.960, 359.062
744.250, 369.989
745.540, 462.563
746.830, 404.475
748.120, 385.907
749.410, 349.477
750.699, 480.512
751.988, 508.912
753.277, 478.296
754.566, 509.917
755.854, 476.609
757.143, 574.861
758.431, 534.039
759.719, 553.658
761.006, 574.087
762.294, 682.211
763.581, 606.244
764.868, 648.215
766.155, 723.111
767.442, 708.032
768.728, 790.795
770.014, 878.575
771.300, 849.292
772.586, 928.854
773.872, 943.753
775.157, 964.393
776.442, 1062.989
777.727, 1100.300
779.012, 1173.833
780.297, 1184.176
781.581, 1179.253
782.865, 1345.299
784.149, 1454.396
785.433, 1444.468
786.716, 1422.733
787.999, 1517.656
789.282, 1426.626
790.565, 1462.526
791.848, 1354.325
793.130, 1425.229
794.413, 1373.945
795.695, 1372.735
796.977, 1445.464
798.258, 1310.056
799.540, 1251.690
800.821, 1231.212
802.102, 1169.831
803.382, 1100.559
804.663, 1117.805
805.943, 962.187
807.224, 923.535
808.504, 895.906
809.783, 816.186
811.063, 638.432
812.342, 598.644
813.621, 610.823
814.900, 317.915
816.179, 451.848
817.457, 362.927
818.736, 394.529
820.014, 254.491
821.292, 278.835
822.569, 195.214
823.847, 210.389
825.124, 184.754
826.401, 200.771
827.678, 135.130
828.954, 145.877
830.231, 120.241
831.507, 93.945
832.783, 71.596
834.059, 27.643
835.334, 45.900
836.610, 18.925
837.885, 80.429
839.160, 63.232
840.435, 76.520
841.709, 61.610
842.983, 53.492
844.258, 41.621
845.532, 38.898
846.805, 24.471
848.079, 2.443
849.352, 36.901
850.625, 78.352
851.898, 65.921
853.171, 17.478
854.443, 90.256
855.715, 26.188
856.988, 44.036
858.259, 22.036
859.531, 72.693
860.803, 65.031
862.074, 69.406
863.345, 5.401
864.616, 76.828
865.886, 21.955
867.157, 7.641
868.427, 73.599
869.697, 34.885
870.967, 47.859
872.236, 52.848
873.506, 5.599
874.775, 58.437
876.044, 33.267
877.313, 28.098
878.581, 4.048
879.849, 21.172
881.118, 14.806
882.386, 21.646
883.653, 11.690
884.921, 26.652
886.188, 63.652
887.455, 23.707
888.722, 82.798
889.989, 42.955
891.255, 47.842
892.522, 29.385
893.788, 22.350
895.054, 18.060
896.319, 5.253
897.585, 24.408
898.850, 27.955
900.115, 21.353
901.380, 1.216
902.645, 15.239
903.909, 14.277
905.174, 7.771
906.438, 45.757
907.701, 11.635
908.965, 8.074
910.229, 15.455
911.492, 34.186
912.755, 9.861
914.018, 0.438
915.280, 8.716
916.543, 12.974
917.805, 20.592
919.067, 4.428
920.329, 31.625
921.590, 17.803
922.852, 22.320
924.113, 49.102
925.374, 7.776
926.635, 10.325
927.895, 10.408
929.156, 68.472
930.416, 5.520
931.676, 40.550
932.936, 94.562
934.195, 91.561
935.454, 25.455
936.714, 65.507
937.973, 9.454
939.231, 81.386
940.490, 60.304
941.748, 67.207
943.006, 81.760
944.264, 46.973
945.522, 81.835
946.780, 54.684
948.037, 59.519
949.294, 128.341
950.551, 63.151
951.808, 88.948
953.064, 47.734
954.320, 53.508
955.577, 113.269
956.832, 116.020
958.088, 103.759
959.344, 60.488
960.599, 78.766
961.854, 143.912
963.109, 81.607
964.364, 80.293
965.618, 62.974
966.872, 143.645
968.127, 198.306
969.380, 171.977
970.634, 243.640
971.888, 205.293
973.141, 225.942
974.394, 226.537
975.647, 212.175
976.900, 247.727
978.152, 354.346
979.404, 285.697
980.656, 326.096
981.908, 329.394
983.160, 297.585
984.411, 422.678
985.663, 428.352
986.914, 462.251
988.165, 523.156
989.415, 457.310
990.666, 439.396
991.916, 614.556
993.166, 543.656
994.416, 608.711
995.665, 552.682
996.915, 590.648
998.164, 581.488
999.413, 621.996
1000.662, 745.002
1001.911, 829.619
1003.159, 751.832
1004.407, 677.698
1005.655, 655.020
1006.903, 758.992
1008.151, 816.126
1009.398, 751.081
1010.646, 824.341
1011.893, 748.575
1013.139, 814.830
1014.386, 815.302
1015.633, 807.588
1016.879, 772.608
1018.125, 796.043
1019.371, 831.348
1020.616, 841.493
1021.862, 861.693
1023.107, 903.398
1024.352, 892.108
1025.597, 901.428
1026.842, 875.421
1028.086, 842.760
1029.330, 820.698
1030.574, 885.784
1031.818, 823.821
1033.062, 858.656
1034.305, 881.132
1035.548, 855.724
1036.791, 821.030
1038.034, 800.879
1039.277, 858.045
1040.519, 858.737
1041.762, 849.020
1043.004, 860.625
1044.246, 862.819
1045.487, 835.997
1046.729, 878.896
1047.970, 870.108
1049.211, 813.942
1050.452, 810.141
1051.692, 799.319
1052.933, 751.906
1054.173, 797.101
1055.413, 808.271
1056.653, 808.165
1057.893, 829.646
1059.132, 805.128
1060.371, 832.345
1061.610, 802.100
1062.849, 769.005
1064.088, 749.176
1065.326, 746.398
1066.565, 763.643
1067.803, 765.923
1069.041, 808.140
1070.278, 792.473
1071.516, 845.752
1072.753, 947.181
1073.990, 865.599
1075.227, 953.693
1076.464, 1020.960
1077.700, 1001.285
1078.936, 1110.812
1080.173, 1079.085
1081.408, 1092.521
1082.644, 1263.186
1083.880, 1262.073
1085.115, 1303.898
1086.350, 1422.676
1087.585, 1429.214
1088.820, 1413.979
1090.054, 1428.598
1091.288, 1528.219
1092.522, 1626.881
1093.756, 1570.401
1094.990, 1588.071
1096.224, 1612.632
1097.457, 1661.300
1098.690, 1672.987
1099.923, 1690.693
1101.156, 1740.617
1102.388, 1771.295
1103.621, 1791.877
1104.853, 1824.749
1106.085, 1899.437
1107.316, 1810.339
1108.548, 1950.969
1109.779, 1841.655
1111.010, 1861.340
1112.241, 1871.215
1113.472, 1829.033
1114.703, 1942.696
1115.933, 1890.383
1117.163, 1967.552
1118.393, 2044.238
1119.623, 2033.295
1120.853, 1966.959
1122.082, 2079.945
1123.311, 1952.778
1124.540, 1969.649
1125.769, 1877.332
1126.997, 1934.256
1128.226, 1804.973
1129.454, 1799.847
1130.682, 1802.528
1131.910, 1781.571
1133.138, 1774.404
1134.365, 1833.267
1135.592, 1648.143
1136.819, 1733.202
1138.046, 1629.322
1139.273, 1693.128
1140.499, 1672.120
1141.725, 1673.270
1142.951, 1610.397
1144.177, 1601.683
1145.403, 1619.524
1146.628, 1579.623
1147.854, 1561.686
1149.079, 1484.296
1150.304, 1464.284
1151.528, 1394.454
1152.753, 1305.405
1153.977, 1344.521
1155.201, 1369.597
1156.425, 1274.458
1157.649, 1309.389
1158.872, 1095.409
1160.096, 1156.305
1161.319, 1069.306
1162.542, 971.354
1163.764, 949.956
1164.987, 934.728
1166.209, 827.873
1167.431, 842.766
1168.653, 746.623
1169.875, 809.720
1171.097, 684.922
1172.318, 668.616
1173.539, 670.693
1174.760, 594.827
1175.981, 624.542
1177.202, 609.542
1178.422, 477.474
1179.642, 472.684
1180.862, 503.855
1182.082, 467.021
1183.302, 410.588
1184.521, 453.590
1185.740, 448.756
1186.959, 403.968
1188.178, 326.854
1189.397, 392.296
1190.615, 317.775
1191.834, 232.811
1193.052, 307.245
1194.269, 123.352
1195.487, 142.533
1196.705, 304.766
1197.922, 145.992
1199.139, 237.880
1200.356, 119.811
1201.573, 230.535
1202.789, 194.456
1204.006, 111.531
1205.222, 153.314
1206.438, 69.349
1207.653, 92.853
1208.869, 116.646
1210.084, 66.653
1211.299, 141.572
1212.514, 194.373
1213.729, 70.214
1214.944, 63.917
1216.158, 61.641
1217.372, 81.402
1218.586, 28.103
1219.800, 136.841
1221.014, 48.022
1222.227, 132.825
1223.440, 48.595
1224.654, 75.366
1225.866, 164.365
1227.079, 101.487
1228.292, 81.091
1229.504, 15.061
1230.716, 9.810
1231.928, 18.538
1233.139, 26.768
1234.351, 46.758
1235.562, 62.262
1236.773, 70.730
1237.984, 85.682
1239.195, 85.173
1240.406, 110.821
1241.616, 108.303
1242.826, 60.944
1244.036, 98.417
1245.246, 58.979
1246.456, 26.651
1247.665, 54.187
1248.874, 137.610
1250.083, 41.172
1251.292, 132.581
1252.501, 34.983
1253.709, 96.603
1254.917, 99.990
1256.125, 93.371
1257.333, 44.724
1258.541, 16.931
1259.748, 94.050
1260.956, 146.451
1262.163, 69.278
1263.370, 105.298
1264.576, 84.528
1265.783, 21.816
1266.989, 24.018
1268.195, 61.209
1269.401, 52.388
1270.607, 130.523
1271.813, 40.774
1273.018, 91.047
1274.223, 54.149
1275.428, 111.228
1276.633, 15.368
1277.838, 66.435
1279.042, 60.386
1280.246, 58.396
1281.450, 17.272
1282.654, 45.808
1283.858, 79.003
1285.061, 34.794
1286.265, 13.423
1287.468, 8.325
1288.671, 14.958
1289.873, 72.785
1291.076, 13.463
1292.278, 67.912
1293.480, 35.675
1294.682, 45.244
1295.884, 9.796
1297.086, 54.332
1298.287, 16.846
1299.488, 8.659
1300.689, 75.783
1301.890, 59.188
1303.091, 37.570
1304.291, 66.908
1305.491, 41.225
1306.691, 30.519
1307.891, 79.208
1309.091, 96.019
1310.290, 7.773
1311.490, 3.595
1312.689, 74.556
1313.888, 54.314
1315.086, 10.774
1316.285, 169.839
1317.483, 27.874
1318.681, 21.885
1319.879, 129.868
1321.077, 48.828
1322.275, 63.763
1323.472, 22.327
1324.669, 37.454
1325.866, 37.216
1327.063, 43.421
1328.260, 34.071
1329.456, 21.647
1330.653, 18.340
1331.849, 84.010
1333.045, 24.344
1334.240, 8.270
1335.436, 45.857
1336.631, 9.421
1337.826, 29.959
1339.021, 20.475
1340.216, 15.968
1341.411, 16.439
1342.605, 74.889
1343.799, 15.684
1344.993, 111.714
1346.187, 63.092
1347.381, 31.450
1348.574, 95.787
1349.767, 35.106
1350.961, 56.594
1352.153, 89.667
1353.346, 36.913
1354.539, 56.140
1355.731, 82.352
1356.923, 71.062
1358.115, 101.729
1359.307, 94.899
1360.498, 84.056
1361.690, 96.202
1362.881, 85.224
1364.072, 16.353
1365.263, 65.425
1366.453, 71.543
1367.644, 13.393
1368.834, 1.088
1370.024, 18.977
1371.214, 103.138
1372.404, 27.598
1373.593, 63.009
1374.783, 89.256
1375.972, 21.388
1377.161, 26.184
1378.349, 139.819
1379.538, 33.436
1380.726, 168.947
1381.915, 163.170
1383.103, 85.592
1384.290, 246.925
1385.478, 86.199
1386.665, 172.688
1387.853, 101.687
1389.040, 75.116
1390.227, 97.446
1391.413, 179.385
1392.600, 89.179
1393.786, 145.249
1394.972, 177.185
1396.158, 72.198
1397.344, 215.803
1398.530, 133.551
1399.715, 130.080
1400.900, 138.682
1402.085, 23.404
1403.270, 100.248
1404.455, 169.375
1405.639, 43.538
1406.824, 154.522
1408.008, 100.045
1409.192, 131.360
1410.375, 212.467
1411.559, 151.348
1412.742, 153.828
1413.925, 76.753
1415.108, 57.844
1416.291, 95.599
1417.474, 97.905
1418.656, 80.912
1419.839, 89.264
1421.021, 167.190
1422.202, 58.506
1423.384, 265.117
1424.566, 64.657
1425.747, 132.914
1426.928, 193.025
1428.109, 78.247
1429.290, 129.878
1430.470, 182.848
1431.651, 65.470
1432.831, 134.324
1434.011, 109.276
1435.191, 182.651
1436.370, 299.423
1437.550, 159.480
1438.729, 266.373
1439.908, 314.295
1441.087, 190.742
1442.266, 294.848
1443.444, 249.679
1444.623, 134.241
1445.801, 258.068
1446.979, 300.676
1448.157, 229.259
1449.334, 327.267
1450.512, 222.139
1451.689, 184.026
1452.866, 321.335
1454.043, 252.952
1455.220, 186.773
1456.396, 273.921
1457.573, 179.513
1458.749, 276.383
1459.925, 161.624
1461.100, 257.169
1462.276, 301.283
1463.451, 249.455
1464.627, 142.313
1465.802, 196.916
1466.977, 143.669
1468.151, 161.718
1469.326, 202.869
1470.500, 138.158
1471.674, 174.604
1472.848, 227.061
1474.022, 72.309
1475.195, 184.879
1476.369, 194.368
1477.542, 81.773
1478.715, 281.222
1479.888, 153.886
1481.061, 92.722
1482.233, 188.562
1483.405, 63.387
1484.577, 134.229
1485.749, 171.083
1486.921, 79.001
1488.093, 117.019
1489.264, 66.125
1490.435, 117.343
1491.606, 160.699
1492.777, 121.173
1493.948, 143.756
1495.118, 156.471
1496.288, 38.327
1497.459, 137.353
1498.628, 43.538
1499.798, 30.913
1500.968, 175.518
1502.137, 50.390
1503.306, 12.561
1504.475, 215.072
1505.644, 41.986
1506.813, 44.380
1507.981, 302.366
1509.149, 2.183
1510.318, 152.404
1511.485, 151.181
1512.653, 0.240
1513.821, 0.000
##END=



