##NAMES=Stilbite-Ca
##RRUFFID=R050012
##IDEAL CHEMISTRY=NaCa_4_(Si_27_Al_9_)O_72_&#183;28H_2_O
##LOCALITY=Harborville, Nova Scotia, Canada
##OWNER=RRUFF
##SOURCE=University of Arizona Mineral Museum
##DESCRIPTION=Globular aggregate of thin tabular white single crystals
##STATUS=The identification of this mineral has been confirmed by X-ray diffraction and chemical analysis
##URL=rruff.info/R050012
##MEASURED CHEMISTRY=(Na_1.50_K_0.03_)_Σ=1.53_Ca_4.15_(Si_26.17_Al_9.83_)O_72_·27.91H_2_O; H_2_O estimated by difference
##PIN_ID=M00353
##ORIENTATION=Laser parallel to a* (1 0 0). Fiducial mark perpendicular to laser is parallel to b [0 1 0]
80.062, 0.000
81.463, 41.021
82.863, 129.572
84.264, 55.804
85.664, 12.637
87.064, 30.431
88.463, 4.162
89.863, 130.666
91.262, 216.201
92.661, 290.890
94.059, 484.307
95.458, 599.098
96.856, 799.967
98.254, 1019.669
99.652, 1145.002
101.049, 1304.795
102.446, 1379.904
103.843, 1655.217
105.240, 1698.663
106.637, 1824.139
108.033, 1840.544
109.429, 1940.795
110.825, 2146.820
112.220, 2167.557
113.616, 2305.953
115.011, 2231.960
116.406, 2287.539
117.800, 2446.653
119.195, 2447.272
120.589, 2490.369
121.983, 2468.920
123.377, 2534.891
124.770, 2481.253
126.163, 2576.048
127.556, 2516.440
128.949, 2528.332
130.342, 2498.540
131.734, 2520.985
133.126, 2474.665
134.518, 2444.573
135.909, 2480.698
137.301, 2481.034
138.692, 2489.572
140.083, 2515.308
141.473, 2530.239
142.864, 2576.359
144.254, 2588.664
145.644, 2697.149
147.034, 2763.812
148.423, 2825.648
149.812, 2884.654
151.201, 2984.824
152.590, 3005.158
153.979, 3007.650
155.367, 2986.300
156.755, 2842.109
158.143, 2772.081
159.530, 2730.215
160.918, 2509.515
162.305, 2477.981
163.692, 2282.569
165.078, 2158.150
166.465, 2060.720
167.851, 1890.490
169.237, 1872.103
170.623, 1686.832
172.008, 1729.179
173.393, 1399.972
174.778, 1470.188
176.163, 1328.886
177.548, 1256.161
178.932, 1181.201
180.316, 1033.175
181.700, 1012.170
183.083, 898.258
184.467, 891.438
185.850, 753.155
187.233, 696.514
188.616, 662.967
189.998, 608.511
191.380, 529.241
192.762, 486.968
194.144, 408.784
195.525, 374.690
196.907, 375.686
198.288, 397.769
199.669, 301.939
201.049, 282.196
202.429, 219.538
203.810, 270.964
205.189, 255.474
206.569, 187.065
207.949, 173.739
209.328, 171.492
210.707, 176.323
212.085, 122.232
213.464, 141.216
214.842, 151.833
216.220, 209.406
217.598, 212.611
218.976, 191.889
220.353, 236.237
221.730, 205.656
223.107, 213.145
224.483, 245.703
225.860, 175.330
227.236, 242.034
228.612, 232.832
229.988, 190.752
231.363, 191.799
232.738, 260.003
234.113, 200.357
235.488, 139.851
236.863, 230.477
238.237, 187.235
239.611, 142.118
240.985, 176.123
242.359, 151.247
243.732, 122.477
245.105, 129.792
246.478, 91.773
247.851, 92.593
249.223, 51.328
250.595, 78.385
251.967, 72.399
253.339, 2.013
254.711, 10.186
256.082, 19.883
257.453, 9.150
258.824, 3.399
260.195, 18.220
261.565, 64.003
262.935, 81.085
264.305, 22.035
265.675, 100.856
267.044, 86.562
268.414, 57.159
269.783, 58.649
271.151, 74.037
272.520, 26.331
273.888, 39.529
275.256, 44.637
276.624, 4.659
277.992, 3.596
279.359, 29.549
280.726, 45.774
282.093, 57.077
283.460, 13.453
284.827, 49.902
286.193, 25.421
287.559, 45.007
288.925, 47.659
290.290, 22.624
291.656, 44.152
293.021, 13.988
294.386, 44.880
295.750, 30.828
297.115, 4.830
298.479, 52.885
299.843, 43.993
301.207, 5.849
302.570, 15.359
303.933, 19.616
305.296, 19.921
306.659, 45.274
308.022, 67.673
309.384, 90.117
310.746, 64.607
312.108, 87.140
313.470, 69.717
314.831, 124.335
316.193, 122.996
317.554, 195.697
318.914, 168.438
320.275, 159.219
321.635, 165.038
322.995, 187.895
324.355, 206.789
325.715, 198.792
327.074, 124.685
328.434, 212.686
329.792, 162.722
331.151, 228.793
332.510, 173.898
333.868, 167.037
335.226, 209.211
336.584, 161.398
337.941, 221.600
339.299, 145.815
340.656, 217.047
342.013, 151.304
343.370, 184.590
344.726, 159.908
346.082, 227.260
347.438, 246.644
348.794, 239.060
350.150, 228.506
351.505, 242.982
352.860, 237.490
354.215, 245.781
355.570, 277.596
356.924, 298.195
358.278, 323.824
359.632, 359.386
360.986, 395.166
362.339, 418.879
363.693, 501.620
365.046, 510.388
366.399, 623.183
367.751, 692.011
369.104, 717.968
370.456, 828.259
371.808, 880.438
373.159, 951.357
374.511, 1080.343
375.862, 1206.638
377.213, 1360.249
378.564, 1430.650
379.914, 1550.108
381.265, 1656.383
382.615, 1805.994
383.965, 1988.307
385.315, 2135.465
386.664, 2350.902
388.013, 2527.342
389.362, 2842.505
390.711, 3024.144
392.060, 3266.442
393.408, 3684.154
394.756, 3902.717
396.104, 4431.440
397.451, 4767.956
398.799, 5299.514
400.146, 5657.998
401.493, 6068.638
402.840, 6740.823
404.186, 6959.173
405.533, 7561.389
406.879, 7894.327
408.225, 7959.313
409.570, 8014.412
410.916, 7859.330
412.261, 7709.923
413.606, 7446.147
414.951, 7138.666
416.295, 6719.131
417.639, 6301.755
418.983, 5901.360
420.327, 5524.387
421.671, 5175.982
423.014, 4831.635
424.357, 4478.234
425.700, 4238.421
427.043, 3863.881
428.386, 3614.548
429.728, 3399.638
431.070, 3164.472
432.412, 3009.288
433.753, 2787.728
435.095, 2663.202
436.436, 2474.454
437.777, 2484.610
439.118, 2293.400
440.458, 2314.211
441.798, 2204.076
443.138, 2151.952
444.478, 2190.839
445.818, 2156.737
447.157, 2148.644
448.496, 2246.562
449.835, 2288.489
451.174, 2331.425
452.513, 2358.085
453.851, 2441.039
455.189, 2469.999
456.527, 2427.968
457.864, 2501.943
459.202, 2402.926
460.539, 2317.916
461.876, 2186.910
463.212, 1935.848
464.549, 1860.855
465.885, 1662.868
467.221, 1607.885
468.557, 1435.907
469.893, 1374.934
471.228, 1314.965
472.563, 1241.000
473.898, 1210.972
475.233, 1183.080
476.567, 1166.125
477.902, 1175.172
479.236, 1193.222
480.570, 1347.274
481.903, 1475.329
483.237, 1600.384
484.570, 1693.441
485.903, 2008.499
487.235, 2284.558
488.568, 2564.619
489.900, 3009.679
491.232, 3403.739
492.564, 3809.800
493.896, 4207.859
495.227, 4228.918
496.558, 4350.978
497.889, 4056.035
499.220, 3755.091
500.551, 3275.146
501.881, 2800.200
503.211, 2427.251
504.541, 1990.302
505.870, 1648.349
507.200, 1363.395
508.529, 1087.438
509.858, 929.478
511.187, 700.515
512.515, 605.548
513.844, 501.621
515.172, 382.774
516.500, 380.125
517.827, 280.161
519.155, 255.176
520.482, 213.187
521.809, 160.250
523.136, 136.332
524.462, 97.459
525.789, 70.538
527.115, 42.105
528.441, 36.409
529.766, 25.883
531.092, 31.480
532.417, 6.066
533.742, 12.674
535.067, 43.964
536.391, 3.022
537.716, 43.015
539.040, 9.138
540.364, 70.331
541.688, 57.476
543.011, 37.681
544.334, 48.925
545.657, 36.274
546.980, 35.208
548.303, 29.721
549.625, 36.267
550.947, 29.811
552.269, 35.446
553.591, 32.097
554.913, 17.827
556.234, 29.592
557.555, 29.404
558.876, 27.390
560.197, 13.161
561.517, 21.101
562.837, 7.083
564.157, 12.898
565.477, 0.851
566.797, 46.770
568.116, 44.678
569.435, 52.571
570.754, 19.457
572.073, 68.316
573.391, 95.165
574.709, 41.008
576.027, 71.831
577.345, 84.645
578.663, 61.449
579.980, 104.237
581.297, 102.672
582.614, 95.778
583.931, 140.538
585.248, 141.294
586.564, 182.038
587.880, 198.781
589.196, 191.518
590.511, 251.246
591.827, 246.964
593.142, 270.675
594.457, 285.374
595.772, 285.061
597.086, 313.737
598.401, 347.399
599.715, 364.047
601.029, 382.769
602.343, 410.298
603.656, 412.900
604.969, 439.487
606.282, 468.059
607.595, 484.478
608.908, 482.155
610.220, 526.679
611.532, 541.191
612.844, 549.686
614.156, 599.164
615.468, 523.626
616.779, 601.072
618.090, 561.501
619.401, 578.914
620.712, 591.310
622.022, 539.692
623.332, 536.057
624.642, 544.404
625.952, 535.734
627.262, 529.046
628.571, 508.341
629.880, 499.752
631.189, 500.879
632.498, 465.121
633.807, 457.346
635.115, 423.553
636.423, 462.741
637.731, 411.911
639.039, 418.063
640.346, 402.196
641.653, 385.310
642.960, 379.590
644.267, 311.483
645.574, 346.542
646.880, 337.583
648.186, 302.605
649.492, 331.608
650.798, 272.593
652.103, 293.558
653.409, 305.504
654.714, 245.430
656.019, 249.337
657.323, 227.225
658.628, 203.093
659.932, 191.942
661.236, 173.771
662.540, 167.320
663.843, 174.371
665.147, 168.141
666.450, 163.542
667.753, 156.623
669.056, 150.333
670.358, 141.132
671.660, 133.802
672.963, 119.563
674.264, 146.238
675.566, 156.059
676.868, 158.747
678.169, 143.542
679.470, 141.306
680.771, 137.129
682.071, 141.757
683.372, 107.695
684.672, 123.315
685.972, 112.994
687.271, 106.528
688.571, 114.224
689.870, 96.509
691.169, 114.953
692.468, 136.292
693.767, 135.200
695.065, 137.745
696.364, 142.673
697.662, 124.618
698.960, 121.312
700.257, 119.136
701.555, 97.592
702.852, 99.911
704.149, 127.014
705.446, 154.775
706.742, 109.263
708.038, 118.739
709.335, 105.626
710.631, 118.774
711.926, 118.805
713.222, 114.795
714.517, 144.327
715.812, 140.946
717.107, 135.826
718.402, 132.579
719.696, 129.824
720.990, 184.051
722.284, 165.654
723.578, 129.216
724.872, 162.382
726.165, 124.953
727.458, 183.278
728.751, 171.928
730.044, 135.066
731.336, 183.340
732.629, 130.903
733.921, 204.613
735.213, 164.310
736.504, 147.256
737.796, 168.205
739.087, 179.909
740.378, 170.951
741.669, 158.957
742.960, 194.325
744.250, 198.097
745.540, 203.955
746.830, 220.727
748.120, 218.442
749.410, 208.109
750.699, 255.963
751.988, 224.593
753.277, 262.244
754.566, 224.969
755.854, 247.585
757.143, 296.174
758.431, 298.732
759.719, 297.288
761.006, 312.771
762.294, 300.274
763.581, 357.805
764.868, 335.268
766.155, 366.998
767.442, 371.478
768.728, 381.837
770.014, 452.148
771.300, 471.529
772.586, 481.021
773.872, 519.371
775.157, 514.717
776.442, 537.544
777.727, 553.750
779.012, 600.001
780.297, 628.167
781.581, 633.380
782.865, 715.659
784.149, 668.929
785.433, 707.111
786.716, 700.376
787.999, 677.537
789.282, 720.599
790.565, 634.659
791.848, 672.692
793.130, 660.709
794.413, 618.717
795.695, 618.728
796.977, 593.748
798.258, 570.753
799.540, 529.871
800.821, 496.906
802.102, 478.921
803.382, 466.920
804.663, 437.809
805.943, 407.684
807.224, 328.546
808.504, 329.393
809.783, 283.226
811.063, 245.046
812.342, 232.853
813.621, 197.645
814.900, 187.425
816.179, 138.191
817.457, 136.943
818.736, 139.682
820.014, 81.409
821.292, 87.122
822.569, 109.822
823.847, 54.509
825.124, 89.140
826.401, 52.674
827.678, 66.993
828.954, 34.610
830.231, 53.230
831.507, 31.836
832.783, 32.372
834.059, 23.870
835.334, 45.306
836.610, 12.770
837.885, 35.727
839.160, 16.927
840.435, 11.063
841.709, 22.797
842.983, 22.779
844.258, 35.445
845.532, 13.465
846.805, 22.822
848.079, 9.827
849.352, 7.568
850.625, 20.001
851.898, 4.672
853.171, 20.330
854.443, 11.003
855.715, 3.133
856.988, 15.348
858.259, 1.182
859.531, 4.710
860.803, 0.717
862.074, 8.195
863.345, 1.648
864.616, 15.862
865.886, 14.620
867.157, 5.890
868.427, 6.398
869.697, 10.095
870.967, 4.408
872.236, 2.306
873.506, 15.589
874.775, 4.086
876.044, 15.417
877.313, 10.937
878.581, 30.472
879.849, 10.967
881.118, 11.597
882.386, 17.177
883.653, 2.779
884.921, 11.389
886.188, 12.015
887.455, 2.658
888.722, 4.688
889.989, 2.024
891.255, 13.650
892.522, 3.342
893.788, 3.046
895.054, 9.762
896.319, 11.508
897.585, 0.232
898.850, 6.554
900.115, 12.293
901.380, 19.491
902.645, 3.286
903.909, 19.926
905.174, 10.519
906.438, 0.675
907.701, 10.511
908.965, 12.688
910.229, 15.857
911.492, 12.018
912.755, 25.171
914.018, 16.316
915.280, 5.453
916.543, 17.583
917.805, 7.296
919.067, 4.815
920.329, 29.919
921.590, 37.016
922.852, 16.105
924.113, 2.812
925.374, 15.263
926.635, 12.330
927.895, 13.610
929.156, 37.439
930.416, 22.482
931.676, 46.518
932.936, 23.548
934.195, 3.572
935.454, 1.590
936.714, 18.601
937.973, 1.395
939.231, 15.603
940.490, 35.594
941.748, 31.581
943.006, 38.663
944.264, 36.650
945.522, 32.509
946.780, 27.475
948.037, 21.439
949.294, 21.396
950.551, 2.651
951.808, 6.291
953.064, 7.237
954.320, 7.173
955.577, 49.108
956.832, 41.038
958.088, 54.967
959.344, 43.893
960.599, 38.814
961.854, 64.731
963.109, 74.645
964.364, 103.555
965.618, 81.461
966.872, 64.364
968.127, 90.262
969.380, 58.156
970.634, 87.047
971.888, 119.933
973.141, 118.818
974.394, 134.699
975.647, 129.469
976.900, 125.345
978.152, 181.106
979.404, 172.929
980.656, 164.581
981.908, 175.344
983.160, 154.977
984.411, 220.617
985.663, 191.176
986.914, 228.906
988.165, 243.305
989.415, 219.995
990.666, 260.501
991.916, 233.826
993.166, 271.437
994.416, 254.055
995.665, 259.781
996.915, 268.307
998.164, 290.949
999.413, 278.491
1000.662, 309.937
1001.911, 297.877
1003.159, 314.799
1004.407, 312.756
1005.655, 324.303
1006.903, 344.705
1008.151, 341.532
1009.398, 361.550
1010.646, 344.576
1011.893, 367.953
1013.139, 370.504
1014.386, 397.941
1015.633, 358.329
1016.879, 392.964
1018.125, 351.010
1019.371, 408.043
1020.616, 391.653
1021.862, 388.835
1023.107, 425.358
1024.352, 365.025
1025.597, 423.582
1026.842, 395.126
1028.086, 398.963
1029.330, 404.586
1030.574, 393.222
1031.818, 427.055
1033.062, 449.554
1034.305, 373.977
1035.548, 416.872
1036.791, 392.748
1038.034, 434.218
1039.277, 415.838
1040.519, 401.438
1041.762, 419.268
1043.004, 411.744
1044.246, 405.244
1045.487, 396.365
1046.729, 409.066
1047.970, 407.665
1049.211, 421.334
1050.452, 423.044
1051.692, 428.785
1052.933, 468.325
1054.173, 392.072
1055.413, 413.782
1056.653, 432.402
1057.893, 372.116
1059.132, 411.840
1060.371, 386.580
1061.610, 420.306
1062.849, 427.089
1064.088, 426.838
1065.326, 444.546
1066.565, 401.307
1067.803, 467.785
1069.041, 437.506
1070.278, 436.327
1071.516, 466.180
1072.753, 509.948
1073.990, 501.589
1075.227, 556.357
1076.464, 556.115
1077.700, 537.376
1078.936, 598.245
1080.173, 577.055
1081.408, 632.933
1082.644, 625.751
1083.880, 655.521
1085.115, 708.253
1086.350, 696.058
1087.585, 744.766
1088.820, 765.564
1090.054, 764.459
1091.288, 786.334
1092.522, 784.218
1093.756, 801.160
1094.990, 828.042
1096.224, 804.354
1097.457, 890.194
1098.690, 846.036
1099.923, 845.761
1101.156, 924.556
1102.388, 884.347
1103.621, 882.094
1104.853, 981.024
1106.085, 923.580
1107.316, 960.572
1108.548, 979.463
1109.779, 916.359
1111.010, 993.419
1112.241, 979.313
1113.472, 923.207
1114.703, 1007.102
1115.933, 980.997
1117.163, 972.897
1118.393, 942.793
1119.623, 985.690
1120.853, 1006.801
1122.082, 975.760
1123.311, 1006.741
1124.540, 949.662
1125.769, 926.627
1126.997, 960.558
1128.226, 917.459
1129.454, 930.428
1130.682, 969.358
1131.910, 929.313
1133.138, 896.426
1134.365, 962.427
1135.592, 897.787
1136.819, 938.106
1138.046, 860.567
1139.273, 872.929
1140.499, 913.911
1141.725, 806.883
1142.951, 903.916
1144.177, 803.589
1145.403, 817.520
1146.628, 859.452
1147.854, 783.390
1149.079, 747.390
1150.304, 740.746
1151.528, 727.888
1152.753, 699.275
1153.977, 695.956
1155.201, 646.031
1156.425, 637.333
1157.649, 600.361
1158.872, 579.416
1160.096, 570.368
1161.319, 487.401
1162.542, 518.450
1163.764, 477.868
1164.987, 435.850
1166.209, 487.327
1167.431, 382.323
1168.653, 390.312
1169.875, 359.944
1171.097, 321.022
1172.318, 376.040
1173.539, 325.034
1174.760, 293.116
1175.981, 314.120
1177.202, 252.268
1178.422, 250.371
1179.642, 253.518
1180.862, 230.078
1182.082, 228.165
1183.302, 208.984
1184.521, 199.066
1185.740, 189.135
1186.959, 189.265
1188.178, 166.505
1189.397, 161.849
1190.615, 147.570
1191.834, 142.101
1193.052, 126.150
1194.269, 118.187
1195.487, 127.675
1196.705, 113.712
1197.922, 122.794
1199.139, 104.211
1200.356, 56.323
1201.573, 89.446
1202.789, 65.562
1204.006, 66.677
1205.222, 83.804
1206.438, 48.934
1207.653, 48.094
1208.869, 57.328
1210.084, 45.593
1211.299, 53.214
1212.514, 34.332
1213.729, 26.419
1214.944, 5.446
1216.158, 48.224
1217.372, 37.246
1218.586, 32.324
1219.800, 21.386
1221.014, 24.404
1222.227, 32.509
1223.440, 11.625
1224.654, 59.987
1225.866, 18.043
1227.079, 60.055
1228.292, 12.130
1229.504, 4.240
1230.716, 29.371
1231.928, 49.443
1233.139, 24.503
1234.351, 26.645
1235.562, 10.693
1236.773, 12.751
1237.984, 49.803
1239.195, 0.823
1240.406, 28.820
1241.616, 11.182
1242.826, 20.879
1244.036, 23.024
1245.246, 14.113
1246.456, 14.099
1247.665, 30.086
1248.874, 18.890
1250.083, 8.093
1251.292, 13.927
1252.501, 0.950
1253.709, 31.052
1254.917, 18.049
1256.125, 2.978
1257.333, 23.992
1258.541, 21.957
1259.748, 37.910
1260.956, 33.862
1262.163, 19.808
1263.370, 38.754
1264.576, 28.698
1265.783, 3.363
1266.989, 7.574
1268.195, 2.506
1269.401, 17.436
1270.607, 7.359
1271.813, 16.271
1273.018, 25.173
1274.223, 8.103
1275.428, 18.176
1276.633, 13.062
1277.838, 2.055
1279.042, 3.266
1280.246, 6.265
1281.450, 5.421
1282.654, 7.522
1283.858, 21.690
1285.061, 12.135
1286.265, 16.783
1287.468, 2.587
1288.671, 9.612
1289.873, 32.306
1291.076, 35.093
1292.278, 41.876
1293.480, 14.662
1294.682, 3.567
1295.884, 0.254
1297.086, 8.010
1298.287, 16.757
1299.488, 3.499
1300.689, 1.764
1301.890, 15.971
1303.091, 10.694
1304.291, 11.588
1305.491, 17.120
1306.691, 13.822
1307.891, 18.482
1309.091, 60.203
1310.290, 19.116
1311.490, 30.551
1312.689, 37.213
1313.888, 21.130
1315.086, 12.514
1316.285, 27.152
1317.483, 49.785
1318.681, 13.412
1319.879, 37.033
1321.077, 4.649
1322.275, 12.259
1323.472, 12.138
1324.669, 18.546
1325.866, 19.034
1327.063, 22.394
1328.260, 22.164
1329.456, 25.715
1330.653, 11.260
1331.849, 3.799
1333.045, 1.679
1334.240, 7.167
1335.436, 12.334
1336.631, 32.852
1337.826, 37.341
1339.021, 0.143
1340.216, 42.333
1341.411, 24.802
1342.605, 1.266
1343.799, 17.723
1344.993, 15.173
1346.187, 16.618
1347.381, 17.056
1348.574, 13.968
1349.767, 12.915
1350.961, 9.334
1352.153, 5.880
1353.346, 5.155
1354.539, 1.445
1355.731, 14.958
1356.923, 22.344
1358.115, 36.726
1359.307, 3.610
1360.498, 64.758
1361.690, 24.150
1362.881, 27.509
1364.072, 66.863
1365.263, 17.216
1366.453, 14.562
1367.644, 3.904
1368.834, 28.246
1370.024, 49.554
1371.214, 22.856
1372.404, 15.149
1373.593, 12.402
1374.783, 22.794
1375.972, 25.056
1377.161, 11.191
1378.349, 28.002
1379.538, 25.815
1380.726, 27.569
1381.915, 34.912
1383.103, 44.700
1384.290, 58.482
1385.478, 23.214
1386.665, 11.167
1387.853, 16.924
1389.040, 55.497
1390.227, 47.246
1391.413, 31.985
1392.600, 73.723
1393.786, 75.145
1394.972, 45.750
1396.158, 35.360
1397.344, 36.995
1398.530, 54.614
1399.715, 44.959
1400.900, 52.621
1402.085, 56.237
1403.270, 54.390
1404.455, 62.971
1405.639, 67.823
1406.824, 73.737
1408.008, 78.954
1409.192, 75.355
1410.375, 74.152
1411.559, 68.950
1412.742, 59.908
1413.925, 48.413
1415.108, 43.892
1416.291, 30.368
1417.474, 7.438
1418.656, 72.850
1419.839, 62.171
1421.021, 46.274
1422.202, 20.782
1423.384, 57.393
1424.566, 16.584
1425.747, 39.432
1426.928, 26.587
1428.109, 8.313
1429.290, 33.232
1430.470, 45.399
1431.651, 4.885
1432.831, 38.817
1434.011, 38.725
1435.191, 26.526
1436.370, 44.942
1437.550, 12.899
1438.729, 38.913
1439.908, 65.673
1441.087, 40.573
1442.266, 29.482
1443.444, 23.699
1444.623, 27.652
1445.801, 46.350
1446.979, 37.975
1448.157, 51.564
1449.334, 43.307
1450.512, 26.082
1451.689, 82.976
1452.866, 57.374
1454.043, 63.005
1455.220, 52.737
1456.396, 58.516
1457.573, 55.145
1458.749, 34.852
1459.925, 41.536
1461.100, 56.241
1462.276, 29.929
1463.451, 55.585
1464.627, 27.219
1465.802, 48.834
1466.977, 53.494
1468.151, 39.561
1469.326, 29.208
1470.500, 34.961
1471.674, 24.142
1472.848, 41.011
1474.022, 22.108
1475.195, 21.382
1476.369, 39.048
1477.542, 11.683
1478.715, 47.149
1479.888, 8.839
1481.061, 53.497
1482.233, 28.177
1483.405, 26.858
1484.577, 54.534
1485.749, 43.202
1486.921, 74.872
1488.093, 36.534
1489.264, 35.191
1490.435, 31.842
1491.606, 42.489
1492.777, 20.133
1493.948, 35.801
1495.118, 33.476
1496.288, 12.218
1497.459, 23.061
1498.628, 43.770
1499.798, 3.599
1500.968, 45.285
1502.137, 8.192
1503.306, 29.128
1504.475, 47.102
1505.644, 15.126
1506.813, 20.211
1507.981, 50.209
1509.149, 7.672
1510.318, 41.709
1511.485, 34.016
1512.653, 20.865
1513.821, 11.887
1514.988, 0.122
1516.155, 51.478
1517.322, 0.000
##END=



