##NAMES=Stilbite-Ca
##RRUFFID=R050012
##IDEAL CHEMISTRY=NaCa_4_(Si_27_Al_9_)O_72_&#183;28H_2_O
##LOCALITY=Harborville, Nova Scotia, Canada
##OWNER=RRUFF
##SOURCE=University of Arizona Mineral Museum
##DESCRIPTION=Globular aggregate of thin tabular white single crystals
##STATUS=The identification of this mineral has been confirmed by X-ray diffraction and chemical analysis
##URL=rruff.info/R050012
##MEASURED CHEMISTRY=(Na_1.50_K_0.03_)_Σ=1.53_Ca_4.15_(Si_26.17_Al_9.83_)O_72_·27.91H_2_O; H_2_O estimated by difference
##PIN_ID=M00488
##ORIENTATION=Laser parallel to (-1 0 -1). Fiducial mark perpendicular to laser is parallel to -b [0 -1 0]
89.863, 0.000
91.262, 16.789
92.661, 5.452
94.059, 69.957
95.458, 441.331
96.856, 523.206
98.254, 975.103
99.652, 1370.452
101.049, 1794.330
102.446, 2103.047
103.843, 2653.854
105.240, 3115.351
106.637, 3416.650
108.033, 3936.123
109.429, 4172.297
110.825, 4694.074
112.220, 5110.624
113.616, 5821.281
115.011, 5995.514
116.406, 6672.889
117.800, 6823.373
119.195, 7099.334
120.589, 7421.963
121.983, 7968.070
123.377, 8106.221
124.770, 8375.179
126.163, 8174.775
127.556, 8375.028
128.949, 8345.949
130.342, 7977.545
131.734, 8159.847
133.126, 7662.810
134.518, 7396.361
135.909, 7420.474
137.301, 7105.133
138.692, 6750.326
140.083, 6536.049
141.473, 6322.289
142.864, 6139.042
144.254, 5758.582
145.644, 5799.856
147.034, 5571.328
148.423, 5558.732
149.812, 5584.990
151.201, 5490.781
152.590, 5340.367
153.979, 5263.394
155.367, 4895.541
156.755, 4840.014
158.143, 4587.274
159.530, 4555.117
160.918, 4243.518
162.305, 4092.450
163.692, 3711.901
165.078, 3441.868
166.465, 3332.354
167.851, 3253.361
169.237, 3004.890
170.623, 2716.929
172.008, 2629.474
173.393, 2353.265
174.778, 2226.060
176.163, 2068.922
177.548, 1821.929
178.932, 1685.131
180.316, 1588.562
181.700, 1402.249
183.083, 1216.204
184.467, 1040.439
185.850, 974.961
187.233, 849.773
188.616, 724.882
189.998, 560.279
191.380, 415.967
192.762, 431.941
194.144, 148.199
195.525, 124.737
196.907, 18.448
198.288, 1.360
199.669, 25.996
201.049, 46.382
202.429, 148.505
203.810, 240.387
205.189, 202.038
206.569, 353.467
207.949, 334.674
209.328, 325.661
210.707, 176.435
212.085, 296.992
213.464, 227.342
214.842, 77.481
216.220, 165.148
217.598, 64.905
218.976, 204.464
220.353, 6.175
221.730, 112.991
223.107, 28.035
224.483, 29.251
225.860, 130.653
227.236, 182.229
228.612, 183.974
229.988, 275.806
231.363, 257.671
232.738, 339.554
234.113, 371.654
235.488, 174.017
236.863, 326.664
238.237, 299.680
239.611, 203.088
240.985, 316.910
242.359, 311.131
243.732, 125.787
245.105, 320.808
246.478, 206.136
247.851, 281.742
249.223, 127.608
250.595, 313.694
251.967, 109.923
253.339, 216.299
254.711, 17.177
256.082, 73.820
257.453, 114.702
258.824, 88.782
260.195, 64.337
261.565, 51.090
262.935, 18.842
264.305, 197.450
265.675, 46.801
267.044, 116.806
268.414, 147.394
269.783, 548.506
271.151, 410.092
272.520, 572.104
273.888, 634.504
275.256, 667.260
276.624, 840.345
277.992, 843.735
279.359, 1047.412
280.726, 1071.359
282.093, 1105.560
283.460, 1080.000
284.827, 1124.654
286.193, 1119.492
287.559, 1044.496
288.925, 1049.658
290.290, 974.972
291.656, 990.435
293.021, 786.046
294.386, 791.799
295.750, 767.691
297.115, 563.721
298.479, 519.885
299.843, 576.178
301.207, 492.600
302.570, 419.146
303.933, 425.815
305.296, 386.774
306.659, 349.512
308.022, 386.533
309.384, 393.652
310.746, 400.862
312.108, 328.026
313.470, 355.081
314.831, 381.986
316.193, 318.832
317.554, 405.684
318.914, 332.573
320.275, 409.503
321.635, 366.511
322.995, 243.630
324.355, 320.857
325.715, 298.190
327.074, 235.629
328.434, 253.167
329.792, 100.804
331.151, 128.538
332.510, 186.365
333.868, 84.284
335.226, 142.292
336.584, 80.387
337.941, 188.561
339.299, 106.818
340.656, 34.839
342.013, 33.580
343.370, 42.080
344.726, 30.663
346.082, 159.326
347.438, 188.069
348.794, 246.889
350.150, 275.787
351.505, 304.762
352.860, 233.809
354.215, 312.931
355.570, 392.126
356.924, 531.392
358.278, 540.727
359.632, 600.130
360.986, 829.049
362.339, 768.380
363.693, 907.978
365.046, 1116.424
366.399, 1341.923
367.751, 1554.339
369.104, 1718.400
370.456, 1888.905
371.808, 2210.304
373.159, 2494.031
374.511, 2678.979
375.862, 2953.156
377.213, 3333.532
378.564, 3696.959
379.914, 4177.161
381.265, 4497.750
382.615, 4887.441
383.965, 5301.644
385.315, 5941.506
386.664, 6398.121
388.013, 7292.248
389.362, 7934.110
390.711, 8587.947
392.060, 9484.419
393.408, 10563.117
394.756, 11395.566
396.104, 12730.049
397.451, 13951.651
398.799, 15331.857
400.146, 16362.503
401.493, 17640.451
402.840, 19310.910
404.186, 20349.240
405.533, 21507.779
406.879, 22204.832
408.225, 22539.691
409.570, 22432.613
410.916, 22103.676
412.261, 21539.096
413.606, 20491.010
414.951, 19317.168
416.295, 18188.229
417.639, 17049.107
418.983, 15920.436
420.327, 14691.659
421.671, 13683.119
423.014, 12700.785
424.357, 11765.840
425.700, 10947.267
427.043, 10348.734
428.386, 9610.235
429.728, 9051.771
431.070, 8513.333
432.412, 8044.922
433.753, 7516.537
435.095, 7438.170
436.436, 7229.830
437.777, 6981.510
439.118, 6573.202
440.458, 6664.910
441.798, 6496.630
443.138, 6458.359
444.478, 6440.098
445.818, 6531.845
447.157, 6623.598
448.496, 7095.356
449.835, 6957.117
451.174, 7588.883
452.513, 7700.650
453.851, 7942.420
455.189, 8144.189
456.527, 8225.961
457.864, 8165.667
459.202, 7979.492
460.539, 7671.256
461.876, 7403.014
463.212, 6734.768
464.549, 6256.514
465.885, 5808.256
467.221, 5319.988
468.557, 4831.714
469.893, 4373.432
471.228, 4125.139
472.563, 3856.833
473.898, 3685.729
475.233, 3490.193
476.567, 3501.859
477.902, 3573.515
479.236, 3525.160
480.570, 3686.793
481.903, 4008.417
483.237, 4450.028
484.570, 4731.627
485.903, 5533.211
487.235, 6424.785
488.568, 7156.342
489.900, 8427.883
491.232, 9419.407
492.564, 10470.917
493.896, 11572.409
495.227, 11823.877
496.558, 11955.330
497.889, 11506.762
499.220, 10518.173
500.551, 9279.566
501.881, 7969.199
503.211, 6750.548
504.541, 5681.872
505.870, 4723.176
507.200, 3844.456
508.529, 3157.882
509.858, 2686.946
511.187, 2118.575
512.515, 1749.761
513.844, 1531.368
515.172, 1053.103
516.500, 954.292
517.827, 805.871
519.155, 647.182
520.482, 668.740
521.809, 599.992
523.136, 263.156
524.462, 213.333
525.789, 230.573
527.115, 202.918
528.441, 170.051
529.766, 80.997
531.092, 79.767
532.417, 28.080
533.742, 67.311
535.067, 121.412
536.391, 16.252
537.716, 143.882
539.040, 28.902
540.364, 87.827
541.688, 141.408
543.011, 113.966
544.334, 90.641
545.657, 146.096
546.980, 104.077
548.303, 65.710
549.625, 94.978
550.947, 134.854
552.269, 167.725
553.591, 66.299
554.913, 96.735
556.234, 49.046
557.555, 24.905
558.876, 30.212
560.197, 15.222
561.517, 24.016
562.837, 11.814
564.157, 9.702
565.477, 42.332
566.797, 103.486
568.116, 173.111
569.435, 291.641
570.754, 93.479
572.073, 227.785
573.391, 76.225
574.709, 314.326
576.027, 275.391
577.345, 285.498
578.663, 406.460
579.980, 290.590
581.297, 416.734
582.614, 447.576
583.931, 401.583
585.248, 431.412
586.564, 515.174
587.880, 517.134
589.196, 613.727
590.511, 596.506
591.827, 737.288
593.142, 656.766
594.457, 869.740
595.772, 756.453
597.086, 941.854
598.401, 939.168
599.715, 1039.388
601.029, 1179.548
602.343, 1255.651
603.656, 1311.811
604.969, 1377.809
606.282, 1383.736
607.595, 1559.607
608.908, 1495.419
610.220, 1541.184
611.532, 1696.918
612.844, 1642.592
614.156, 1738.205
615.468, 1703.759
616.779, 1709.251
618.090, 1874.681
619.401, 1850.051
620.712, 1965.360
622.022, 1930.610
623.332, 1915.797
624.642, 1860.921
625.952, 1800.992
627.262, 1760.979
628.571, 1675.925
629.880, 1590.810
631.189, 1575.630
632.498, 1350.387
633.807, 1345.078
635.115, 1299.705
636.423, 1294.269
637.731, 1238.768
639.039, 1223.224
640.346, 1206.787
641.653, 1200.359
642.960, 1173.194
644.267, 1200.387
645.574, 1172.516
646.880, 1136.579
648.186, 1075.574
649.492, 1107.504
650.798, 1030.365
652.103, 998.161
653.409, 940.891
654.714, 853.551
656.019, 801.146
657.323, 758.965
658.628, 656.494
659.932, 675.900
661.236, 586.752
662.540, 605.339
663.843, 652.943
665.147, 542.092
666.450, 513.344
667.753, 429.817
669.056, 567.464
670.358, 432.042
671.660, 414.990
672.963, 503.794
674.264, 430.978
675.566, 467.316
676.868, 430.976
678.169, 474.857
679.470, 492.545
680.771, 485.431
682.071, 465.939
683.372, 448.904
684.672, 346.463
685.972, 411.629
687.271, 318.638
688.571, 448.449
689.870, 406.978
691.169, 360.879
692.468, 414.288
693.767, 293.799
695.065, 414.129
696.364, 345.011
697.662, 247.668
698.960, 394.498
700.257, 274.919
701.555, 239.695
702.852, 285.902
704.149, 341.795
705.446, 323.377
706.742, 251.955
708.038, 110.862
709.335, 253.921
710.631, 216.060
711.926, 298.854
713.222, 152.549
714.517, 183.852
715.812, 287.747
717.107, 117.546
718.402, 374.566
719.696, 150.338
720.990, 354.408
722.284, 183.807
723.578, 258.692
724.872, 264.032
726.165, 196.727
727.458, 285.519
728.751, 238.938
730.044, 310.044
731.336, 310.632
732.629, 131.382
733.921, 360.455
735.213, 240.921
736.504, 235.457
737.796, 295.138
739.087, 244.938
740.378, 279.285
741.669, 282.327
742.960, 228.633
744.250, 420.137
745.540, 245.865
746.830, 243.415
748.120, 302.342
749.410, 107.191
750.699, 225.529
751.988, 285.297
753.277, 302.371
754.566, 405.687
755.854, 351.715
757.143, 433.787
758.431, 287.010
759.719, 310.914
761.006, 371.240
762.294, 423.052
763.581, 379.689
764.868, 308.049
766.155, 477.373
767.442, 424.980
768.728, 332.208
770.014, 467.692
771.300, 444.928
772.586, 449.102
773.872, 576.482
775.157, 496.591
776.442, 639.223
777.727, 543.876
779.012, 688.930
780.297, 732.480
781.581, 562.983
782.865, 772.637
784.149, 810.362
785.433, 792.842
786.716, 769.495
787.999, 811.750
789.282, 855.955
790.565, 745.497
791.848, 713.969
793.130, 828.083
794.413, 713.095
795.695, 689.060
796.977, 702.976
798.258, 612.845
799.540, 625.453
800.821, 540.228
802.102, 475.955
803.382, 629.637
804.663, 464.271
805.943, 479.027
807.224, 376.571
808.504, 403.072
809.783, 314.688
811.063, 212.095
812.342, 265.846
813.621, 309.160
814.900, 155.430
816.179, 200.746
817.457, 178.920
818.736, 294.953
820.014, 71.037
821.292, 161.068
822.569, 114.635
823.847, 0.570
825.124, 230.003
826.401, 68.237
827.678, 35.939
828.954, 98.176
830.231, 6.604
831.507, 149.703
832.783, 40.037
834.059, 23.384
835.334, 181.637
836.610, 78.760
837.885, 130.720
839.160, 146.564
840.435, 165.116
841.709, 158.522
842.983, 41.346
844.258, 174.822
845.532, 144.910
846.805, 34.644
848.079, 200.086
849.352, 16.979
850.625, 43.694
851.898, 204.344
853.171, 19.243
854.443, 166.118
855.715, 137.653
856.988, 81.021
858.259, 216.993
859.531, 311.927
860.803, 358.333
862.074, 104.589
863.345, 134.387
864.616, 286.921
865.886, 6.187
867.157, 125.155
868.427, 106.681
869.697, 26.966
870.967, 98.729
872.236, 98.766
873.506, 46.542
874.775, 74.990
876.044, 17.193
877.313, 94.045
878.581, 35.708
879.849, 81.134
881.118, 40.410
882.386, 43.465
883.653, 39.247
884.921, 57.987
886.188, 9.099
887.455, 162.271
888.722, 94.805
889.989, 81.997
891.255, 18.980
892.522, 41.212
893.788, 129.642
895.054, 63.517
896.319, 53.024
897.585, 2.854
898.850, 103.590
900.115, 147.854
901.380, 63.479
902.645, 17.593
903.909, 138.844
905.174, 87.679
906.438, 45.215
907.701, 34.249
908.965, 9.688
910.229, 4.900
911.492, 21.371
912.755, 145.723
914.018, 16.060
915.280, 43.371
916.543, 19.340
917.805, 154.093
919.067, 9.065
920.329, 86.200
921.590, 10.313
922.852, 56.405
924.113, 57.474
925.374, 0.522
926.635, 45.547
927.895, 15.448
929.156, 129.529
930.416, 17.490
931.676, 149.429
932.936, 159.352
934.195, 66.743
935.454, 42.117
936.714, 87.958
937.973, 32.783
939.231, 118.604
940.490, 142.411
941.748, 20.202
943.006, 23.976
944.264, 101.270
945.522, 143.427
946.780, 108.108
948.037, 118.776
949.294, 242.430
950.551, 15.930
951.808, 178.691
953.064, 123.299
954.320, 99.895
955.577, 131.476
956.832, 54.046
958.088, 134.604
959.344, 90.151
960.599, 50.688
961.854, 270.211
963.109, 38.569
964.364, 113.854
965.618, 128.332
966.872, 60.286
968.127, 244.425
969.380, 76.527
970.634, 193.884
971.888, 183.113
973.141, 81.045
974.394, 164.725
975.647, 149.395
976.900, 132.615
978.152, 288.900
979.404, 238.729
980.656, 283.324
981.908, 314.521
983.160, 173.416
984.411, 389.428
985.663, 291.170
986.914, 384.213
988.165, 536.722
989.415, 279.561
990.666, 472.479
991.916, 453.712
993.166, 438.483
994.416, 560.753
995.665, 423.837
996.915, 516.827
998.164, 579.111
999.413, 602.353
1000.662, 854.450
1001.911, 883.483
1003.159, 776.776
1004.407, 709.009
1005.655, 642.155
1006.903, 655.220
1008.151, 678.055
1009.398, 671.435
1010.646, 744.812
1011.893, 745.699
1013.139, 761.170
1014.386, 794.277
1015.633, 757.664
1016.879, 790.033
1018.125, 813.155
1019.371, 856.205
1020.616, 857.015
1021.862, 820.043
1023.107, 830.727
1024.352, 869.258
1025.597, 812.208
1026.842, 833.829
1028.086, 826.884
1029.330, 827.398
1030.574, 910.424
1031.818, 793.279
1033.062, 926.161
1034.305, 826.622
1035.548, 829.583
1036.791, 832.292
1038.034, 865.749
1039.277, 892.897
1040.519, 926.041
1041.762, 818.010
1043.004, 1008.646
1044.246, 892.034
1045.487, 851.366
1046.729, 944.460
1047.970, 837.285
1049.211, 984.231
1050.452, 927.750
1051.692, 947.291
1052.933, 1000.281
1054.173, 893.821
1055.413, 982.003
1056.653, 992.891
1057.893, 806.082
1059.132, 1049.105
1060.371, 901.945
1061.610, 945.049
1062.849, 948.680
1064.088, 911.861
1065.326, 1025.077
1066.565, 1007.518
1067.803, 1041.963
1069.041, 1225.070
1070.278, 1178.516
1071.516, 1231.783
1072.753, 1365.117
1073.990, 1218.487
1075.227, 1521.631
1076.464, 1534.941
1077.700, 1517.678
1078.936, 1731.346
1080.173, 1974.561
1081.408, 1758.232
1082.644, 1861.904
1083.880, 1872.474
1085.115, 2075.826
1086.350, 2069.379
1087.585, 2156.329
1088.820, 2100.025
1090.054, 2053.723
1091.288, 2207.045
1092.522, 2410.390
1093.756, 2309.254
1094.990, 2462.965
1096.224, 2366.677
1097.457, 2480.398
1098.690, 2504.115
1099.923, 2537.367
1101.156, 2691.104
1102.388, 2584.823
1103.621, 2628.546
1104.853, 2862.590
1106.085, 2856.293
1107.316, 2740.361
1108.548, 2864.209
1109.779, 2647.776
1111.010, 2871.609
1112.241, 2983.956
1113.472, 2667.900
1114.703, 2871.641
1115.933, 2725.292
1117.163, 2949.508
1118.393, 2980.478
1119.623, 2724.231
1120.853, 2758.429
1122.082, 2832.194
1123.311, 2815.964
1124.540, 2959.904
1125.769, 2683.691
1126.997, 2977.621
1128.226, 2791.801
1129.454, 2735.607
1130.682, 2769.450
1131.910, 2743.451
1133.138, 2768.221
1134.365, 2842.346
1135.592, 2596.182
1136.819, 2860.545
1138.046, 2654.902
1139.273, 2688.833
1140.499, 2795.119
1141.725, 2629.202
1142.951, 2803.279
1144.177, 2742.266
1145.403, 2746.115
1146.628, 2809.968
1147.854, 2756.851
1149.079, 2719.956
1150.304, 2692.907
1151.528, 2566.777
1152.753, 2450.898
1153.977, 2360.074
1155.201, 2204.177
1156.425, 2318.567
1157.649, 2192.945
1158.872, 1907.062
1160.096, 2212.462
1161.319, 1746.475
1162.542, 1900.352
1163.764, 1923.551
1164.987, 1487.403
1166.209, 1551.421
1167.431, 1405.639
1168.653, 1169.492
1169.875, 1506.492
1171.097, 1061.183
1172.318, 1105.058
1173.539, 1094.277
1174.760, 918.151
1175.981, 1012.022
1177.202, 911.583
1178.422, 825.457
1179.642, 872.315
1180.862, 700.333
1182.082, 754.207
1183.302, 697.076
1184.521, 544.212
1185.740, 628.071
1186.959, 656.942
1188.178, 480.872
1189.397, 577.076
1190.615, 337.605
1191.834, 552.003
1193.052, 469.885
1194.269, 216.439
1195.487, 370.308
1196.705, 325.551
1197.922, 339.429
1199.139, 753.538
1200.356, 196.064
1201.573, 399.936
1202.789, 344.683
1204.006, 48.941
1205.222, 292.818
1206.438, 211.309
1207.653, 95.769
1208.869, 229.623
1210.084, 53.968
1211.299, 218.233
1212.514, 182.235
1213.729, 110.407
1214.944, 214.257
1216.158, 239.864
1217.372, 53.980
1218.586, 227.802
1219.800, 82.151
1221.014, 75.952
1222.227, 269.748
1223.440, 104.059
1224.654, 177.936
1225.866, 101.981
1227.079, 136.304
1228.292, 250.056
1229.504, 74.867
1230.716, 98.608
1231.928, 242.338
1233.139, 70.161
1234.351, 223.524
1235.562, 147.205
1236.773, 113.142
1237.984, 196.818
1239.195, 60.491
1240.406, 184.476
1241.616, 168.162
1242.826, 112.251
1244.036, 185.926
1245.246, 39.599
1246.456, 113.366
1247.665, 127.031
1248.874, 130.689
1250.083, 44.718
1251.292, 87.804
1252.501, 42.004
1253.709, 95.636
1254.917, 129.263
1256.125, 103.065
1257.333, 146.674
1258.541, 80.279
1259.748, 184.213
1260.956, 267.790
1262.163, 21.331
1263.370, 105.207
1264.576, 238.739
1265.783, 32.395
1266.989, 205.881
1268.195, 239.353
1269.401, 103.066
1270.607, 286.511
1271.813, 109.895
1273.018, 53.563
1274.223, 176.904
1275.428, 140.232
1276.633, 103.651
1277.838, 3.109
1279.042, 80.098
1280.246, 203.265
1281.450, 26.341
1282.654, 29.564
1283.858, 132.563
1285.061, 24.498
1286.265, 98.369
1287.468, 101.211
1288.671, 65.963
1289.873, 236.764
1291.076, 169.468
1292.278, 82.120
1293.480, 94.752
1294.682, 7.359
1295.884, 189.910
1297.086, 102.431
1298.287, 65.070
1299.488, 107.383
1300.689, 39.812
1301.890, 42.218
1303.091, 104.599
1304.291, 3.052
1305.491, 129.237
1306.691, 161.507
1307.891, 126.268
1309.091, 225.894
1310.290, 128.028
1311.490, 80.140
1312.689, 252.224
1313.888, 25.721
1315.086, 16.295
1316.285, 268.281
1317.483, 59.762
1318.681, 172.140
1319.879, 194.012
1321.077, 64.148
1322.275, 207.637
1323.472, 20.611
1324.669, 38.905
1325.866, 192.750
1327.063, 115.628
1328.260, 24.074
1329.456, 207.435
1330.653, 51.088
1331.849, 160.342
1333.045, 8.256
1334.240, 76.890
1335.436, 54.421
1336.631, 34.293
1337.826, 13.051
1339.021, 278.156
1340.216, 9.339
1341.411, 190.490
1342.605, 121.618
1343.799, 107.277
1344.993, 233.768
1346.187, 24.789
1347.381, 85.785
1348.574, 176.688
1349.767, 42.361
1350.961, 48.553
1352.153, 279.443
1353.346, 60.318
1354.539, 71.087
1355.731, 131.927
1356.923, 37.248
1358.115, 183.548
1359.307, 4.331
1360.498, 105.099
1361.690, 275.724
1362.881, 56.478
1364.072, 177.201
1365.263, 258.796
1366.453, 59.549
1367.644, 150.306
1368.834, 107.295
1370.024, 55.601
1371.214, 172.607
1372.404, 23.812
1373.593, 224.387
1374.783, 254.880
1375.972, 24.786
1377.161, 294.405
1378.349, 337.174
1379.538, 0.301
1380.726, 302.414
1381.915, 235.098
1383.103, 107.410
1384.290, 370.056
1385.478, 82.179
1386.665, 244.272
1387.853, 386.727
1389.040, 159.039
1390.227, 201.550
1391.413, 303.375
1392.600, 95.333
1393.786, 387.756
1394.972, 329.974
1396.158, 201.744
1397.344, 334.054
1398.530, 145.033
1399.715, 256.963
1400.900, 277.959
1402.085, 107.084
1403.270, 338.678
1404.455, 314.397
1405.639, 106.054
1406.824, 516.766
1408.008, 158.456
1409.192, 293.219
1410.375, 343.753
1411.559, 123.227
1412.742, 354.816
1413.925, 293.860
1415.108, 104.766
1416.291, 451.992
1417.474, 222.401
1418.656, 136.281
1419.839, 369.477
1421.021, 206.409
1422.202, 241.489
1423.384, 414.197
1424.566, 87.497
1425.747, 284.599
1426.928, 314.100
1428.109, 114.069
1429.290, 442.278
1430.470, 402.245
1431.651, 218.289
1432.831, 526.298
1434.011, 318.481
1435.191, 417.324
1436.370, 475.521
1437.550, 317.268
1438.729, 483.695
1439.908, 582.686
1441.087, 291.144
1442.266, 579.538
1443.444, 648.131
1444.623, 366.273
1445.801, 763.319
1446.979, 494.795
1448.157, 443.689
1449.334, 627.749
1450.512, 485.657
1451.689, 603.147
1452.866, 651.346
1454.043, 449.161
1455.220, 676.169
1456.396, 643.838
1457.573, 481.321
1458.749, 628.184
1459.925, 494.479
1461.100, 511.512
1462.276, 607.532
1463.451, 363.945
1464.627, 509.897
1465.802, 616.466
1466.977, 302.168
1468.151, 598.231
1469.326, 434.778
1470.500, 251.539
1471.674, 517.978
1472.848, 475.299
1474.022, 392.667
1475.195, 360.306
1476.369, 308.079
1477.542, 335.906
1478.715, 503.854
1479.888, 351.751
1481.061, 419.601
1482.233, 477.578
1483.405, 85.707
1484.577, 523.923
1485.749, 252.149
1486.921, 190.432
1488.093, 338.778
1489.264, 217.259
1490.435, 255.914
1491.606, 414.785
1492.777, 143.924
1493.948, 343.316
1495.118, 352.978
1496.288, 102.868
1497.459, 352.989
1498.628, 293.359
1499.798, 134.033
1500.968, 415.037
1502.137, 106.426
1503.306, 238.271
