##NAMES=Stilbite-Ca
##RRUFFID=R050012
##IDEAL CHEMISTRY=NaCa_4_(Si_27_Al_9_)O_72_&#183;28H_2_O
##LOCALITY=Harborville, Nova Scotia, Canada
##OWNER=RRUFF
##SOURCE=University of Arizona Mineral Museum
##DESCRIPTION=Globular aggregate of thin tabular white single crystals
##STATUS=The identification of this mineral has been confirmed by X-ray diffraction and chemical analysis
##URL=rruff.info/R050012
##MEASURED CHEMISTRY=(Na_1.50_K_0.03_)_Σ=1.53_Ca_4.15_(Si_26.17_Al_9.83_)O_72_·27.91H_2_O; H_2_O estimated by difference
##PIN_ID=M00467
##ORIENTATION=Laser parallel to c* (0 0 1). Fiducial mark perpendicular to laser is parallel to -a [-1 0 0]
91.262, 0.000
92.661, 0.476
94.059, 26.593
95.458, 2.232
96.856, 40.289
98.254, 40.728
99.652, 127.330
101.049, 196.579
102.446, 190.025
103.843, 310.384
105.240, 339.564
106.637, 450.579
108.033, 447.330
109.429, 370.505
110.825, 509.904
112.220, 511.439
113.616, 685.175
115.011, 598.047
116.406, 789.246
117.800, 696.968
119.195, 731.164
120.589, 731.108
121.983, 684.808
123.377, 792.439
124.770, 672.557
126.163, 740.086
127.556, 675.921
128.949, 658.624
130.342, 613.159
131.734, 471.021
133.126, 538.143
134.518, 436.115
135.909, 468.312
137.301, 437.802
138.692, 400.802
140.083, 379.972
141.473, 303.365
142.864, 342.458
144.254, 247.799
145.644, 290.542
147.034, 274.741
148.423, 275.911
149.812, 294.896
151.201, 214.392
152.590, 295.604
153.979, 216.173
155.367, 243.206
156.755, 218.561
158.143, 248.569
159.530, 240.637
160.918, 207.532
162.305, 236.535
163.692, 185.937
165.078, 153.078
166.465, 189.770
167.851, 129.509
169.237, 222.207
170.623, 140.826
172.008, 186.134
173.393, 113.047
174.778, 110.875
176.163, 124.723
177.548, 96.873
178.932, 129.723
180.316, 71.488
181.700, 136.223
183.083, 79.824
184.467, 68.525
185.850, 91.113
187.233, 32.496
188.616, 69.173
189.998, 6.200
191.380, 24.427
192.762, 7.969
194.144, 24.297
195.525, 35.908
196.907, 12.888
198.288, 34.263
199.669, 4.582
201.049, 34.572
202.429, 28.279
203.810, 9.140
205.189, 20.016
206.569, 56.912
207.949, 39.172
209.328, 33.766
210.707, 10.727
212.085, 37.713
213.464, 23.727
214.842, 1.767
216.220, 4.161
217.598, 18.056
218.976, 13.495
220.353, 12.736
221.730, 0.484
223.107, 28.252
224.483, 29.932
225.860, 1.444
227.236, 22.123
228.612, 67.629
229.988, 53.071
231.363, 33.430
232.738, 69.693
234.113, 46.883
235.488, 4.986
236.863, 42.035
238.237, 26.046
239.611, 26.021
240.985, 11.959
242.359, 16.860
243.732, 47.736
245.105, 10.610
246.478, 48.462
247.851, 5.714
249.223, 18.091
250.595, 32.871
251.967, 12.630
253.339, 12.362
254.711, 5.069
256.082, 13.749
257.453, 14.062
258.824, 19.827
260.195, 3.465
261.565, 20.252
262.935, 19.043
264.305, 16.682
265.675, 10.556
267.044, 1.755
268.414, 4.092
269.783, 26.009
271.151, 11.942
272.520, 59.043
273.888, 7.031
275.256, 0.172
276.624, 67.620
277.992, 5.651
279.359, 44.007
280.726, 43.599
282.093, 60.123
283.460, 40.577
284.827, 41.959
286.193, 61.265
287.559, 68.492
288.925, 126.641
290.290, 92.714
291.656, 104.714
293.021, 112.644
294.386, 74.503
295.750, 151.293
297.115, 158.017
298.479, 174.670
299.843, 193.252
301.207, 226.764
302.570, 236.208
303.933, 207.581
305.296, 295.880
306.659, 264.089
308.022, 306.214
309.384, 332.245
310.746, 335.194
312.108, 330.046
313.470, 314.792
314.831, 410.430
316.193, 336.960
317.554, 366.376
318.914, 347.726
320.275, 313.027
321.635, 365.272
322.995, 331.476
324.355, 367.629
325.715, 332.751
327.074, 304.840
328.434, 342.890
329.792, 299.800
331.151, 335.781
332.510, 248.518
333.868, 300.436
335.226, 298.135
336.584, 256.984
337.941, 304.497
339.299, 285.947
340.656, 310.393
342.013, 288.666
343.370, 298.021
344.726, 309.042
346.082, 278.333
347.438, 339.331
348.794, 263.203
350.150, 315.199
351.505, 295.639
352.860, 315.438
354.215, 332.131
355.570, 318.392
356.924, 373.158
358.278, 360.398
359.632, 354.809
360.986, 402.347
362.339, 373.722
363.693, 441.783
365.046, 411.148
366.399, 487.724
367.751, 541.503
369.104, 515.618
370.456, 598.401
371.808, 567.986
373.159, 675.324
374.511, 666.167
375.862, 713.296
377.213, 783.239
378.564, 760.055
379.914, 876.731
381.265, 872.933
382.615, 995.321
383.965, 1016.438
385.315, 983.033
386.664, 1191.235
388.013, 1137.627
389.362, 1329.053
390.711, 1346.346
392.060, 1426.114
393.408, 1594.623
394.756, 1601.577
396.104, 1868.129
397.451, 1850.892
398.799, 2011.198
400.146, 2203.513
401.493, 2249.868
402.840, 2592.956
404.186, 2438.237
405.533, 2734.576
406.879, 2808.095
408.225, 2694.675
409.570, 2913.125
410.916, 2701.171
412.261, 2819.433
413.606, 2660.792
414.951, 2533.967
416.295, 2514.996
417.639, 2203.144
418.983, 2274.308
420.327, 1987.992
421.671, 1958.366
423.014, 1842.129
424.357, 1659.420
425.700, 1712.433
427.043, 1479.980
428.386, 1474.768
429.728, 1358.272
431.070, 1288.510
432.412, 1285.442
433.753, 1111.015
435.095, 1095.183
436.436, 1020.011
437.777, 1021.243
439.118, 998.393
440.458, 914.231
441.798, 971.161
443.138, 864.067
444.478, 949.090
445.818, 935.930
447.157, 923.761
448.496, 1033.734
449.835, 1005.730
451.174, 1090.952
452.513, 1135.014
453.851, 1192.110
455.189, 1284.222
456.527, 1283.071
457.864, 1321.156
459.202, 1300.655
460.539, 1294.964
461.876, 1301.337
463.212, 1195.733
464.549, 1249.117
465.885, 999.488
467.221, 1060.846
468.557, 919.191
469.893, 855.526
471.228, 895.848
472.563, 749.159
473.898, 754.460
475.233, 713.750
476.567, 686.031
477.902, 734.302
479.236, 615.564
480.570, 746.817
481.903, 684.062
483.237, 712.299
484.570, 725.528
485.903, 789.749
487.235, 905.962
488.568, 919.168
489.900, 1052.367
491.232, 1213.558
492.564, 1200.743
493.896, 1456.922
495.227, 1351.093
496.558, 1489.259
497.889, 1359.418
499.220, 1237.572
500.551, 1143.721
501.881, 916.865
503.211, 856.005
504.541, 658.142
505.870, 573.275
507.200, 504.405
508.529, 372.531
509.858, 330.655
511.187, 271.910
512.515, 235.031
513.844, 228.159
515.172, 175.326
516.500, 217.447
517.827, 143.648
519.155, 156.771
520.482, 94.932
521.809, 101.063
523.136, 104.120
524.462, 101.804
525.789, 115.940
527.115, 77.534
528.441, 54.938
529.766, 58.119
531.092, 11.924
532.417, 34.116
533.742, 21.206
535.067, 25.413
536.391, 40.634
537.716, 11.466
539.040, 40.765
540.364, 20.133
541.688, 8.533
543.011, 8.769
544.334, 0.038
545.657, 55.366
546.980, 13.631
548.303, 24.991
549.625, 9.316
550.947, 1.555
552.269, 32.829
553.591, 49.861
554.913, 62.451
556.234, 7.298
557.555, 12.586
558.876, 54.658
560.197, 2.930
561.517, 19.771
562.837, 5.592
564.157, 4.373
565.477, 11.801
566.797, 13.917
568.116, 28.255
569.435, 18.580
570.754, 0.602
572.073, 16.771
573.391, 0.938
574.709, 34.176
576.027, 5.623
577.345, 8.920
578.663, 52.100
579.980, 29.306
581.297, 32.083
582.614, 32.298
583.931, 35.040
585.248, 12.250
586.564, 63.517
587.880, 46.884
589.196, 16.109
590.511, 69.516
591.827, 68.774
593.142, 49.109
594.457, 70.419
595.772, 54.658
597.086, 61.037
598.401, 84.333
599.715, 80.584
601.029, 91.902
602.343, 91.154
603.656, 106.464
604.969, 126.716
606.282, 113.968
607.595, 135.208
608.908, 112.473
610.220, 150.724
611.532, 144.978
612.844, 138.230
614.156, 186.482
615.468, 140.735
616.779, 204.987
618.090, 213.237
619.401, 189.486
620.712, 191.732
622.022, 166.977
623.332, 214.219
624.642, 179.459
625.952, 164.698
627.262, 198.934
628.571, 169.168
629.880, 181.400
631.189, 144.631
632.498, 146.860
633.807, 147.086
635.115, 120.311
636.423, 134.534
637.731, 132.757
639.039, 101.978
640.346, 133.197
641.653, 116.420
642.960, 152.641
644.267, 103.861
645.574, 117.079
646.880, 126.296
648.186, 82.511
649.492, 112.724
650.798, 96.936
652.103, 121.146
653.409, 97.354
654.714, 89.561
656.019, 91.766
657.323, 79.970
658.628, 82.172
659.932, 74.881
661.236, 64.848
662.540, 73.044
663.843, 54.261
665.147, 74.455
666.450, 53.716
667.753, 3.910
669.056, 40.097
670.358, 33.284
671.660, 24.484
672.963, 36.678
674.264, 16.905
675.566, 36.088
676.868, 26.308
678.169, 42.494
679.470, 21.789
680.771, 4.981
682.071, 56.265
683.372, 5.399
684.672, 1.142
685.972, 31.168
687.271, 8.686
688.571, 32.308
689.870, 12.754
691.169, 40.238
692.468, 54.388
693.767, 25.467
695.065, 43.202
696.364, 3.291
697.662, 11.233
698.960, 17.879
700.257, 15.187
701.555, 11.648
702.852, 26.728
704.149, 3.633
705.446, 12.574
706.742, 32.447
708.038, 23.287
709.335, 14.256
710.631, 5.597
711.926, 19.649
713.222, 6.572
714.517, 18.935
715.812, 11.976
717.107, 4.886
718.402, 49.980
719.696, 20.718
720.990, 50.432
722.284, 4.309
723.578, 28.665
724.872, 34.058
726.165, 27.241
727.458, 47.795
728.751, 39.677
730.044, 17.343
731.336, 26.287
732.629, 2.382
733.921, 55.162
735.213, 30.162
736.504, 5.273
737.796, 32.644
739.087, 4.399
740.378, 50.519
741.669, 23.340
742.960, 4.211
744.250, 49.689
745.540, 14.482
746.830, 29.466
748.120, 12.399
749.410, 18.409
750.699, 37.333
751.988, 5.273
753.277, 23.189
754.566, 42.003
755.854, 20.957
757.143, 37.946
758.431, 22.846
759.719, 45.812
761.006, 53.704
762.294, 50.652
763.581, 59.536
764.868, 42.480
766.155, 42.954
767.442, 53.861
768.728, 45.744
770.014, 58.193
771.300, 38.815
772.586, 67.672
773.872, 63.531
775.157, 49.381
776.442, 104.273
777.727, 51.130
779.012, 80.972
780.297, 66.806
781.581, 70.640
782.865, 95.489
784.149, 64.311
785.433, 82.181
786.716, 103.996
787.999, 81.837
789.282, 108.644
790.565, 69.448
791.848, 63.523
793.130, 92.356
794.413, 56.147
795.695, 81.230
796.977, 71.014
798.258, 79.794
799.540, 88.715
800.821, 58.486
802.102, 59.254
803.382, 70.018
804.663, 59.777
805.943, 61.157
807.224, 42.326
808.504, 46.074
809.783, 55.817
811.063, 35.557
812.342, 48.293
813.621, 28.025
814.900, 4.752
816.179, 36.478
817.457, 30.195
818.736, 50.908
820.014, 18.617
821.292, 34.322
822.569, 35.889
823.847, 34.586
825.124, 31.269
826.401, 31.733
827.678, 23.596
828.954, 33.199
830.231, 23.875
831.507, 31.510
832.783, 9.195
834.059, 19.802
835.334, 14.042
836.610, 6.697
837.885, 9.900
839.160, 6.294
840.435, 44.917
841.709, 20.931
842.983, 23.448
844.258, 27.276
845.532, 5.884
846.805, 9.488
848.079, 6.417
849.352, 16.015
850.625, 35.473
851.898, 37.961
853.171, 19.477
854.443, 50.023
855.715, 26.508
856.988, 26.053
858.259, 39.499
859.531, 47.980
860.803, 75.542
862.074, 34.063
863.345, 42.544
864.616, 66.007
865.886, 4.526
867.157, 8.576
868.427, 26.091
869.697, 7.573
870.967, 27.023
872.236, 12.586
873.506, 26.105
874.775, 22.664
876.044, 31.110
877.313, 43.661
878.581, 20.786
879.849, 6.260
881.118, 24.273
882.386, 25.197
883.653, 31.250
884.921, 22.269
886.188, 7.140
887.455, 22.344
888.722, 22.193
889.989, 43.696
891.255, 14.144
892.522, 35.069
893.788, 32.525
895.054, 11.073
896.319, 4.777
897.585, 24.658
898.850, 18.913
900.115, 31.313
901.380, 3.640
902.645, 29.988
903.909, 16.410
905.174, 31.692
906.438, 11.946
907.701, 9.459
908.965, 2.795
910.229, 52.195
911.492, 3.535
912.755, 21.930
914.018, 5.323
915.280, 29.713
916.543, 4.100
917.805, 7.515
919.067, 10.866
920.329, 15.244
921.590, 3.380
922.852, 40.990
924.113, 24.358
925.374, 16.724
926.635, 18.088
927.895, 6.450
929.156, 13.809
930.416, 16.166
931.676, 25.520
932.936, 15.873
934.195, 11.224
935.454, 38.573
936.714, 3.919
937.973, 18.263
939.231, 8.606
940.490, 23.946
941.748, 17.284
943.006, 3.379
944.264, 5.953
945.522, 28.283
946.780, 20.389
948.037, 20.930
949.294, 38.247
950.551, 1.437
951.808, 39.875
953.064, 29.187
954.320, 15.496
955.577, 47.804
956.832, 3.111
958.088, 21.415
959.344, 27.722
960.599, 26.028
961.854, 42.332
963.109, 12.633
964.364, 51.934
965.618, 15.201
966.872, 10.255
968.127, 68.552
969.380, 20.829
970.634, 44.128
971.888, 32.354
973.141, 12.647
974.394, 69.942
975.647, 38.234
976.900, 25.511
978.152, 59.790
979.404, 34.034
980.656, 78.317
981.908, 45.561
983.160, 4.836
984.411, 72.999
985.663, 68.226
986.914, 52.432
988.165, 75.545
989.415, 64.732
990.666, 75.845
991.916, 77.135
993.166, 83.378
994.416, 84.770
995.665, 92.190
996.915, 96.179
998.164, 116.380
999.413, 119.559
1000.662, 148.800
1001.911, 128.100
1003.159, 140.399
1004.407, 122.656
1005.655, 95.959
1006.903, 109.254
1008.151, 88.546
1009.398, 125.849
1010.646, 104.151
1011.893, 84.454
1013.139, 110.756
1014.386, 124.059
1015.633, 107.361
1016.879, 107.527
1018.125, 89.754
1019.371, 120.055
1020.616, 153.279
1021.862, 86.584
1023.107, 161.829
1024.352, 99.132
1025.597, 110.419
1026.842, 148.726
1028.086, 118.031
1029.330, 119.750
1030.574, 106.381
1031.818, 89.679
1033.062, 134.128
1034.305, 102.436
1035.548, 122.072
1036.791, 90.670
1038.034, 97.969
1039.277, 92.628
1040.519, 90.942
1041.762, 114.213
1043.004, 114.530
1044.246, 114.846
1045.487, 119.252
1046.729, 117.048
1047.970, 62.369
1049.211, 94.684
1050.452, 121.012
1051.692, 68.259
1052.933, 103.594
1054.173, 50.910
1055.413, 145.247
1056.653, 101.683
1057.893, 91.976
1059.132, 152.232
1060.371, 85.808
1061.610, 115.082
1062.849, 138.426
1064.088, 74.782
1065.326, 138.128
1066.565, 61.416
1067.803, 129.955
1069.041, 135.273
1070.278, 119.615
1071.516, 157.627
1072.753, 133.990
1073.990, 142.369
1075.227, 145.728
1076.464, 155.093
1077.700, 157.412
1078.936, 203.763
1080.173, 173.125
1081.408, 203.492
1082.644, 193.856
1083.880, 187.203
1085.115, 259.573
1086.350, 189.900
1087.585, 238.286
1088.820, 227.629
1090.054, 237.001
1091.288, 267.375
1092.522, 229.473
1093.756, 239.877
1094.990, 274.253
1096.224, 205.065
1097.457, 285.608
1098.690, 237.002
1099.923, 241.236
1101.156, 308.694
1102.388, 280.075
1103.621, 255.456
1104.853, 346.845
1106.085, 290.193
1107.316, 368.542
1108.548, 292.934
1109.779, 305.328
1111.010, 382.771
1112.241, 296.166
1113.472, 307.600
1114.703, 313.999
1115.933, 277.396
1117.163, 385.648
1118.393, 292.051
1119.623, 287.454
1120.853, 359.954
1122.082, 307.360
1123.311, 341.768
1124.540, 399.177
1125.769, 326.586
1126.997, 373.008
1128.226, 329.420
1129.454, 332.833
1130.682, 370.247
1131.910, 302.645
1133.138, 348.639
1134.365, 341.056
1135.592, 326.474
1136.819, 375.914
1138.046, 320.387
1139.273, 325.810
1140.499, 333.488
1141.725, 253.912
1142.951, 357.345
1144.177, 317.784
1145.403, 353.219
1146.628, 393.655
1147.854, 286.093
1149.079, 341.530
1150.304, 386.978
1151.528, 312.417
1152.753, 368.856
1153.977, 325.296
1155.201, 322.737
1156.425, 359.195
1157.649, 307.636
1158.872, 338.093
1160.096, 396.622
1161.319, 306.136
1162.542, 361.579
1163.764, 285.278
1164.987, 332.722
1166.209, 374.167
1167.431, 310.612
1168.653, 328.057
1169.875, 387.540
1171.097, 270.986
1172.318, 332.432
1173.539, 297.310
1174.760, 294.757
1175.981, 314.224
1177.202, 257.678
1178.422, 270.135
1179.642, 208.321
1180.862, 205.804
1182.082, 237.268
1183.302, 209.777
1184.521, 206.276
1185.740, 217.808
1186.959, 111.373
1188.178, 139.855
1189.397, 178.346
1190.615, 82.827
1191.834, 128.338
1193.052, 116.337
1194.269, 82.825
1195.487, 110.496
1196.705, 81.983
1197.922, 109.470
1199.139, 83.289
1200.356, 40.846
1201.573, 70.520
1202.789, 47.145
1204.006, 49.695
1205.222, 88.206
1206.438, 7.856
1207.653, 23.734
1208.869, 27.220
1210.084, 3.236
1211.299, 31.264
1212.514, 31.777
1213.729, 16.739
1214.944, 42.750
1216.158, 53.998
1217.372, 8.476
1218.586, 52.272
1219.800, 1.813
1221.014, 15.290
1222.227, 52.767
1223.440, 19.242
1224.654, 17.717
1225.866, 19.192
1227.079, 28.693
1228.292, 23.165
1229.504, 7.788
1230.716, 45.259
1231.928, 5.752
1233.139, 4.327
1234.351, 54.822
1235.562, 13.291
1236.773, 37.785
1237.984, 10.255
1239.195, 1.259
1240.406, 31.248
1241.616, 13.285
1242.826, 3.768
1244.036, 5.696
1245.246, 49.161
1246.456, 1.374
1247.665, 50.091
1248.874, 36.554
1250.083, 14.469
1251.292, 44.929
1252.501, 15.610
1253.709, 34.250
1254.917, 21.706
1256.125, 1.223
1257.333, 73.675
1258.541, 4.158
1259.748, 27.088
1260.956, 39.537
1262.163, 13.014
1263.370, 46.482
1264.576, 19.927
1265.783, 0.531
1266.989, 17.912
1268.195, 17.570
1269.401, 39.012
1270.607, 58.454
1271.813, 12.893
1273.018, 29.500
1274.223, 54.938
1275.428, 20.459
1276.633, 54.894
1277.838, 7.672
1279.042, 44.758
1280.246, 37.184
1281.450, 12.641
1282.654, 5.086
1283.858, 25.508
1285.061, 2.071
1286.265, 28.344
1287.468, 21.757
1288.671, 17.170
1289.873, 30.572
1291.076, 20.692
1292.278, 34.367
1293.480, 19.759
1294.682, 17.149
1295.884, 28.530
1297.086, 38.910
1298.287, 28.283
1299.488, 20.644
1300.689, 16.004
1301.890, 22.361
1303.091, 16.718
1304.291, 2.071
1305.491, 3.422
1306.691, 21.770
1307.891, 0.884
1309.091, 38.460
1310.290, 24.801
1311.490, 32.140
1312.689, 71.477
1313.888, 12.813
1315.086, 26.132
1316.285, 35.446
1317.483, 3.244
1318.681, 54.062
1319.879, 17.361
1321.077, 22.656
1322.275, 32.948
1323.472, 7.766
1324.669, 18.514
1325.866, 30.789
1327.063, 14.060
1328.260, 17.327
1329.456, 9.591
1330.653, 4.851
1331.849, 41.106
1333.045, 21.358
1334.240, 23.606
1335.436, 16.851
1336.631, 3.908
1337.826, 24.328
1339.021, 1.560
1340.216, 30.788
1341.411, 36.013
1342.605, 16.766
1343.799, 7.447
1344.993, 1.656
1346.187, 2.860
1347.381, 10.061
1348.574, 19.258
1349.767, 2.548
1350.961, 4.409
1352.153, 39.595
1353.346, 10.779
1354.539, 20.939
1355.731, 11.837
1356.923, 30.336
1358.115, 21.792
1359.307, 8.038
1360.498, 31.127
1361.690, 16.709
1362.881, 9.448
1364.072, 30.588
1365.263, 55.744
1366.453, 38.898
1367.644, 49.049
1368.834, 25.196
1370.024, 18.344
1371.214, 35.491
1372.404, 2.639
1373.593, 53.789
1374.783, 20.150
1375.972, 5.302
1377.161, 19.246
1378.349, 37.673
1379.538, 20.099
1380.726, 34.454
1381.915, 20.949
1383.103, 16.345
1384.290, 53.673
1385.478, 15.075
1386.665, 46.441
1387.853, 30.819
1389.040, 69.142
1390.227, 44.471
1391.413, 24.892
1392.600, 18.753
1393.786, 73.490
1394.972, 62.836
1396.158, 1.835
1397.344, 40.503
1398.530, 11.839
1399.715, 64.483
1400.900, 18.783
1402.085, 2.961
1403.270, 70.043
1404.455, 35.347
1405.639, 14.654
1406.824, 60.959
1408.008, 7.250
1409.192, 36.550
1410.375, 1.826
1411.559, 53.102
1412.742, 34.182
1413.925, 54.125
1415.108, 3.408
1416.291, 67.689
1417.474, 9.916
1418.656, 59.582
1419.839, 41.821
1421.021, 41.087
1422.202, 35.256
1423.384, 19.451
1424.566, 22.579
1425.747, 64.699
1426.928, 31.929
1428.109, 58.324
1429.290, 46.263
1430.470, 79.489
1431.651, 57.435
1432.831, 55.088
1434.011, 70.134
1435.191, 90.379
1436.370, 82.450
1437.550, 49.795
1438.729, 111.923
1439.908, 98.688
1441.087, 55.297
1442.266, 105.383
1443.444, 119.465
1444.623, 83.492
1445.801, 118.275
1446.979, 97.297
1448.157, 117.096
1449.334, 133.092
1450.512, 103.092
1451.689, 95.043
1452.866, 132.973
1454.043, 71.996
1455.220, 102.010
1456.396, 127.716
1457.573, 100.716
1458.749, 122.474
1459.925, 106.295
1461.100, 80.997
1462.276, 100.710
1463.451, 83.276
1464.627, 98.501
1465.802, 62.255
1466.977, 64.533
1468.151, 109.000
1469.326, 48.683
1470.500, 63.351
1471.674, 80.840
1472.848, 53.462
1474.022, 65.077
1475.195, 19.693
1476.369, 62.327
1477.542, 68.959
1478.715, 98.615
1479.888, 48.323
1481.061, 83.045
1482.233, 76.748
1483.405, 40.436
1484.577, 55.104
1485.749, 46.750
1486.921, 36.365
1488.093, 57.101
1489.264, 64.138
1490.435, 52.620
1491.606, 55.154
1492.777, 19.289
1493.948, 41.164
1495.118, 0.060
1496.288, 0.988
1497.459, 35.947
1498.628, 1.059
1499.798, 17.969
1500.968, 60.036
1502.137, 25.155
1503.306, 33.343
1504.475, 68.597
1505.644, 46.923
1506.813, 75.720
1507.981, 55.524
1509.149, 15.851
1510.318, 65.205
1511.485, 46.578
1512.653, 24.979
1513.821, 79.703
1514.988, 0.225
1516.155, 58.299
1517.322, 0.000
##END=



