##NAMES=Stilbite-Ca
##RRUFFID=R050012
##IDEAL CHEMISTRY=NaCa_4_(Si_27_Al_9_)O_72_&#183;28H_2_O
##LOCALITY=Harborville, Nova Scotia, Canada
##OWNER=RRUFF
##SOURCE=University of Arizona Mineral Museum
##DESCRIPTION=Globular aggregate of thin tabular white single crystals
##STATUS=The identification of this mineral has been confirmed by X-ray diffraction and chemical analysis
##URL=rruff.info/R050012
##MEASURED CHEMISTRY=(Na_1.50_K_0.03_)_Σ=1.53_Ca_4.15_(Si_26.17_Al_9.83_)O_72_·27.91H_2_O; H_2_O estimated by difference
##PIN_ID=M00353
##ORIENTATION=Laser parallel to a* (1 0 0). Fiducial mark perpendicular to laser is parallel to b [0 1 0]
85.664, 0.000
87.064, 73.761
88.463, 9.144
89.863, 31.034
91.262, 49.405
92.661, 61.568
94.059, 184.279
95.458, 234.970
96.856, 416.488
98.254, 515.989
99.652, 696.893
101.049, 793.715
102.446, 949.039
103.843, 1136.514
105.240, 1319.852
106.637, 1535.813
108.033, 1595.198
109.429, 1773.895
110.825, 2019.931
112.220, 2133.217
113.616, 2437.582
115.011, 2430.875
116.406, 2720.979
117.800, 2748.796
119.195, 2850.246
120.589, 2879.263
121.983, 2981.789
123.377, 2990.778
124.770, 2934.188
126.163, 2851.984
127.556, 2831.137
128.949, 2758.612
130.342, 2582.380
131.734, 2506.687
133.126, 2393.193
134.518, 2191.788
135.909, 2059.118
137.301, 1987.700
138.692, 1864.278
140.083, 1815.848
141.473, 1602.417
142.864, 1548.993
144.254, 1473.583
145.644, 1420.194
147.034, 1377.829
148.423, 1238.492
149.812, 1241.189
151.201, 1226.921
152.590, 1101.691
153.979, 1072.500
155.367, 1098.350
156.755, 948.241
158.143, 982.174
159.530, 968.150
160.918, 953.173
162.305, 920.244
163.692, 860.367
165.078, 858.542
166.465, 794.774
167.851, 809.064
169.237, 781.385
170.623, 722.633
172.008, 695.839
173.393, 628.033
174.778, 642.363
176.163, 595.750
177.548, 557.408
178.932, 530.319
180.316, 501.679
181.700, 497.868
183.083, 404.546
184.467, 461.597
185.850, 398.452
187.233, 412.467
188.616, 352.454
189.998, 307.771
191.380, 258.166
192.762, 250.639
194.144, 246.187
195.525, 181.810
196.907, 149.505
198.288, 135.270
199.669, 107.489
201.049, 106.206
202.429, 96.972
203.810, 108.003
205.189, 124.097
206.569, 124.252
207.949, 155.467
209.328, 100.740
210.707, 166.070
212.085, 118.456
213.464, 189.897
214.842, 175.390
216.220, 165.933
217.598, 282.521
218.976, 207.150
220.353, 208.818
221.730, 241.526
223.107, 280.272
224.483, 275.057
225.860, 302.878
227.236, 337.737
228.612, 384.632
229.988, 372.564
231.363, 350.546
232.738, 342.587
234.113, 291.680
235.488, 318.838
236.863, 285.057
238.237, 264.359
239.611, 277.715
240.985, 226.124
242.359, 247.601
243.732, 172.141
245.105, 223.768
246.478, 113.477
247.851, 129.251
249.223, 139.109
250.595, 142.015
251.967, 114.863
253.339, 61.288
254.711, 79.458
256.082, 44.811
257.453, 28.493
258.824, 22.451
260.195, 14.647
261.565, 8.050
262.935, 0.836
264.305, 17.598
265.675, 22.695
267.044, 73.659
268.414, 95.513
269.783, 114.271
271.151, 120.945
272.520, 126.546
273.888, 128.081
275.256, 103.556
276.624, 127.975
277.992, 72.347
279.359, 117.667
280.726, 91.949
282.093, 79.191
283.460, 119.394
284.827, 32.570
286.193, 25.704
287.559, 16.799
288.925, 9.145
290.290, 8.871
291.656, 26.150
293.021, 12.208
294.386, 39.301
295.750, 111.429
297.115, 86.588
298.479, 112.773
299.843, 188.979
301.207, 218.203
302.570, 182.443
303.933, 267.699
305.296, 363.972
306.659, 351.261
308.022, 495.566
309.384, 470.887
310.746, 452.224
312.108, 577.577
313.470, 562.946
314.831, 662.330
316.193, 654.729
317.554, 650.143
318.914, 630.571
320.275, 596.014
321.635, 583.097
322.995, 569.943
324.355, 532.429
325.715, 562.928
327.074, 530.440
328.434, 470.966
329.792, 463.504
331.151, 485.054
332.510, 421.617
333.868, 448.192
335.226, 424.780
336.584, 412.379
337.941, 436.992
339.299, 407.615
340.656, 417.239
342.013, 378.823
343.370, 393.345
344.726, 386.799
346.082, 465.194
347.438, 453.545
348.794, 445.860
350.150, 441.142
351.505, 442.427
352.860, 445.724
354.215, 481.037
355.570, 536.366
356.924, 565.710
358.278, 551.070
359.632, 617.444
360.986, 643.833
362.339, 693.236
363.693, 756.652
365.046, 805.082
366.399, 864.525
367.751, 984.981
369.104, 1076.450
370.456, 1184.930
371.808, 1215.450
373.159, 1390.655
374.511, 1405.262
375.862, 1561.548
377.213, 1681.209
378.564, 1889.155
379.914, 1991.071
381.265, 2044.061
382.615, 2254.518
383.965, 2337.591
385.315, 2548.137
386.664, 2678.102
388.013, 2874.677
389.362, 3123.412
390.711, 3315.887
392.060, 3592.381
393.408, 3876.479
394.756, 4173.658
396.104, 4509.108
397.451, 4859.307
398.799, 5406.998
400.146, 5803.288
401.493, 6119.958
402.840, 6657.269
404.186, 6988.580
405.533, 7534.936
406.879, 7646.974
408.225, 7834.070
409.570, 7838.897
410.916, 7741.454
412.261, 7714.502
413.606, 7284.738
414.951, 7130.917
416.295, 6728.049
417.639, 6306.394
418.983, 6031.598
420.327, 5639.398
421.671, 5459.417
423.014, 5121.229
424.357, 4914.167
425.700, 4542.923
427.043, 4413.250
428.386, 4040.404
429.728, 3838.567
431.070, 3676.724
432.412, 3540.995
433.753, 3346.468
435.095, 3203.535
436.436, 3014.042
437.777, 2901.708
439.118, 2779.158
440.458, 2699.699
441.798, 2716.115
443.138, 2617.212
444.478, 2666.872
445.818, 2692.596
447.157, 2721.211
448.496, 2877.071
449.835, 2995.250
451.174, 3244.135
452.513, 3333.558
453.851, 3482.445
455.189, 3564.331
456.527, 3517.218
457.864, 3768.105
459.202, 3679.992
460.539, 3586.879
461.876, 3349.765
463.212, 3098.651
464.549, 2983.535
465.885, 2690.419
467.221, 2533.303
468.557, 2332.185
469.893, 2224.066
471.228, 2113.946
472.563, 1915.824
473.898, 1811.701
475.233, 1743.576
476.567, 1739.449
477.902, 1708.320
479.236, 1690.189
480.570, 1780.057
481.903, 1693.921
483.237, 1874.783
484.570, 1954.644
485.903, 2139.501
487.235, 2292.355
488.568, 2507.207
489.900, 2869.055
491.232, 3085.900
492.564, 3309.743
493.896, 3510.582
495.227, 3445.417
496.558, 3567.249
497.889, 3308.077
499.220, 3041.902
500.551, 2598.723
501.881, 2263.541
503.211, 1964.354
504.541, 1611.165
505.870, 1378.973
507.200, 1091.778
508.529, 924.581
509.858, 819.381
511.187, 594.179
512.515, 495.975
513.844, 455.770
515.172, 408.565
516.500, 367.358
517.827, 312.833
519.155, 267.588
520.482, 208.721
521.809, 174.503
523.136, 139.283
524.462, 103.066
525.789, 149.846
527.115, 82.624
528.441, 81.397
529.766, 93.168
531.092, 39.965
532.417, 10.736
533.742, 2.505
535.067, 8.741
536.391, 33.992
537.716, 2.231
539.040, 23.482
540.364, 18.668
541.688, 8.029
543.011, 3.098
544.334, 10.420
545.657, 16.725
546.980, 42.014
548.303, 38.595
549.625, 10.198
550.947, 5.214
552.269, 17.354
553.591, 34.087
554.913, 12.462
556.234, 1.970
557.555, 41.423
558.876, 2.930
560.197, 72.493
561.517, 2.834
562.837, 34.472
564.157, 19.139
565.477, 31.206
566.797, 62.496
568.116, 26.250
569.435, 12.966
570.754, 2.271
572.073, 23.452
573.391, 15.378
574.709, 29.818
576.027, 21.952
577.345, 1.078
578.663, 57.178
579.980, 39.271
581.297, 73.360
582.614, 46.442
583.931, 75.514
585.248, 119.582
586.564, 87.646
587.880, 100.708
589.196, 83.774
590.511, 158.853
591.827, 145.945
593.142, 185.049
594.457, 175.169
595.772, 217.310
597.086, 231.461
598.401, 219.637
599.715, 258.821
601.029, 330.018
602.343, 257.223
603.656, 378.433
604.969, 347.658
606.282, 372.881
607.595, 392.100
608.908, 325.314
610.220, 431.518
611.532, 413.717
612.844, 454.905
614.156, 442.084
615.468, 434.254
616.779, 459.414
618.090, 429.563
619.401, 470.703
620.712, 428.833
622.022, 440.953
623.332, 444.062
624.642, 405.163
625.952, 470.252
627.262, 428.332
628.571, 420.401
629.880, 428.460
631.189, 419.510
632.498, 383.548
633.807, 361.576
635.115, 371.594
636.423, 335.601
637.731, 375.598
639.039, 362.583
640.346, 363.558
641.653, 325.523
642.960, 336.477
644.267, 302.420
645.574, 327.353
646.880, 292.275
648.186, 335.187
649.492, 338.087
650.798, 259.976
652.103, 293.854
653.409, 192.722
654.714, 266.578
656.019, 223.422
657.323, 222.256
658.628, 223.143
659.932, 192.955
661.236, 188.049
662.540, 167.924
663.843, 215.818
665.147, 176.583
666.450, 191.362
667.753, 207.276
669.056, 176.148
670.358, 140.425
671.660, 149.673
672.963, 133.560
674.264, 155.561
675.566, 125.413
676.868, 101.273
678.169, 142.061
679.470, 96.920
680.771, 151.293
682.071, 147.084
683.372, 106.020
684.672, 139.715
685.972, 120.672
687.271, 88.486
688.571, 94.561
689.870, 127.003
691.169, 157.585
692.468, 111.611
693.767, 86.779
695.065, 127.035
696.364, 79.616
697.662, 113.942
698.960, 70.949
700.257, 116.960
701.555, 92.226
702.852, 82.521
704.149, 104.428
705.446, 117.803
706.742, 109.162
708.038, 103.387
709.335, 96.723
710.631, 86.730
711.926, 78.338
713.222, 79.333
714.517, 82.578
715.812, 105.306
717.107, 48.668
718.402, 118.552
719.696, 92.518
720.990, 70.208
722.284, 90.544
723.578, 116.629
724.872, 124.581
726.165, 53.156
727.458, 91.225
728.751, 79.088
730.044, 58.780
731.336, 108.738
732.629, 69.440
733.921, 114.323
735.213, 121.505
736.504, 77.993
737.796, 140.205
739.087, 80.221
740.378, 106.078
741.669, 107.420
742.960, 102.958
744.250, 90.133
745.540, 85.204
746.830, 96.360
748.120, 105.164
749.410, 111.526
750.699, 120.402
751.988, 129.024
753.277, 131.310
754.566, 135.536
755.854, 134.045
757.143, 131.975
758.431, 123.922
759.719, 127.107
761.006, 118.126
762.294, 150.141
763.581, 144.092
764.868, 134.053
766.155, 158.026
767.442, 117.877
768.728, 140.739
770.014, 197.578
771.300, 161.376
772.586, 174.162
773.872, 202.936
775.157, 200.698
776.442, 196.560
777.727, 214.298
779.012, 220.589
780.297, 248.855
781.581, 250.558
782.865, 284.250
784.149, 301.023
785.433, 299.709
786.716, 287.435
787.999, 298.079
789.282, 280.711
790.565, 280.389
791.848, 270.942
793.130, 268.540
794.413, 240.126
795.695, 225.770
796.977, 204.333
798.258, 168.886
799.540, 185.693
800.821, 206.222
802.102, 150.740
803.382, 203.246
804.663, 150.741
805.943, 144.226
807.224, 112.698
808.504, 77.160
809.783, 108.611
811.063, 107.050
812.342, 57.479
813.621, 97.896
814.900, 23.302
816.179, 51.695
817.457, 44.075
818.736, 88.445
820.014, 65.513
821.292, 34.150
822.569, 37.485
823.847, 5.808
825.124, 6.116
826.401, 30.408
827.678, 17.688
828.954, 30.955
830.231, 28.209
831.507, 35.452
832.783, 24.683
834.059, 16.098
835.334, 29.095
836.610, 13.276
837.885, 41.445
839.160, 9.602
840.435, 18.746
841.709, 1.849
842.983, 47.041
844.258, 30.039
845.532, 15.113
846.805, 2.817
848.079, 26.191
849.352, 61.760
850.625, 12.117
851.898, 2.120
853.171, 40.075
854.443, 20.110
855.715, 13.806
856.988, 47.320
858.259, 35.608
859.531, 40.526
860.803, 6.439
862.074, 2.651
863.345, 16.246
864.616, 40.122
865.886, 13.041
867.157, 25.211
868.427, 43.633
869.697, 11.491
870.967, 7.117
872.236, 32.002
873.506, 27.867
874.775, 18.304
876.044, 3.548
877.313, 9.587
878.581, 6.276
879.849, 6.028
881.118, 6.952
882.386, 12.271
883.653, 8.518
884.921, 16.351
886.188, 9.175
887.455, 32.000
888.722, 23.183
889.989, 20.614
891.255, 36.403
892.522, 10.815
893.788, 1.048
895.054, 6.291
896.319, 14.455
897.585, 15.808
898.850, 12.913
900.115, 44.625
901.380, 7.331
902.645, 22.971
903.909, 18.707
905.174, 37.623
906.438, 11.979
907.701, 7.651
908.965, 45.274
910.229, 33.890
911.492, 3.500
912.755, 10.101
914.018, 7.694
915.280, 19.281
916.543, 13.860
917.805, 7.433
919.067, 32.999
920.329, 27.423
921.590, 29.112
922.852, 38.660
924.113, 41.201
925.374, 44.738
926.635, 43.269
927.895, 6.794
929.156, 47.313
930.416, 4.827
931.676, 37.334
932.936, 46.837
934.195, 58.334
935.454, 7.827
936.714, 25.313
937.973, 12.795
939.231, 68.271
940.490, 38.743
941.748, 70.210
943.006, 34.673
944.264, 52.131
945.522, 46.585
946.780, 9.034
948.037, 38.479
949.294, 71.919
950.551, 7.646
951.808, 93.784
953.064, 59.211
954.320, 68.634
955.577, 47.053
956.832, 47.469
958.088, 71.880
959.344, 39.288
960.599, 98.693
961.854, 86.094
963.109, 31.491
964.364, 135.820
965.618, 59.210
966.872, 85.302
968.127, 118.600
969.380, 128.872
970.634, 118.257
971.888, 108.614
973.141, 92.823
974.394, 158.059
975.647, 126.876
976.900, 99.707
978.152, 156.885
979.404, 100.934
980.656, 155.118
981.908, 168.280
983.160, 179.500
984.411, 219.635
985.663, 207.799
986.914, 239.424
988.165, 208.444
989.415, 176.691
990.666, 188.678
991.916, 234.794
993.166, 173.611
994.416, 228.372
995.665, 200.591
996.915, 246.692
998.164, 200.274
999.413, 206.486
1000.662, 261.400
1001.911, 239.493
1003.159, 290.436
1004.407, 225.757
1005.655, 200.346
1006.903, 288.484
1008.151, 230.397
1009.398, 270.677
1010.646, 208.980
1011.893, 177.060
1013.139, 217.837
1014.386, 271.025
1015.633, 229.339
1016.879, 294.526
1018.125, 277.963
1019.371, 252.313
1020.616, 269.643
1021.862, 280.801
1023.107, 285.877
1024.352, 275.175
1025.597, 286.139
1026.842, 283.285
1028.086, 250.834
1029.330, 249.024
1030.574, 263.217
1031.818, 281.422
1033.062, 305.868
1034.305, 255.111
1035.548, 294.405
1036.791, 256.672
1038.034, 266.051
1039.277, 269.903
1040.519, 320.239
1041.762, 309.643
1043.004, 293.319
1044.246, 236.499
1045.487, 315.473
1046.729, 290.801
1047.970, 274.224
1049.211, 311.552
1050.452, 294.016
1051.692, 314.327
1052.933, 313.846
1054.173, 266.731
1055.413, 303.882
1056.653, 280.660
1057.893, 262.992
1059.132, 321.469
1060.371, 314.918
1061.610, 298.120
1062.849, 314.483
1064.088, 253.840
1065.326, 365.249
1066.565, 294.639
1067.803, 322.006
1069.041, 377.485
1070.278, 332.944
1071.516, 384.415
1072.753, 380.918
1073.990, 430.423
1075.227, 449.930
1076.464, 466.440
1077.700, 465.839
1078.936, 511.354
1080.173, 488.756
1081.408, 550.282
1082.644, 522.814
1083.880, 561.348
1085.115, 646.791
1086.350, 556.312
1087.585, 667.874
1088.820, 696.418
1090.054, 705.964
1091.288, 749.512
1092.522, 743.062
1093.756, 703.614
1094.990, 790.168
1096.224, 778.656
1097.457, 828.215
1098.690, 853.820
1099.923, 795.079
1101.156, 888.113
1102.388, 849.681
1103.621, 848.252
1104.853, 917.862
1106.085, 918.437
1107.316, 918.070
1108.548, 943.650
1109.779, 930.524
1111.010, 984.817
1112.241, 927.404
1113.472, 928.022
1114.703, 943.615
1115.933, 913.213
1117.163, 1001.588
1118.393, 986.192
1119.623, 941.798
1120.853, 1015.524
1122.082, 994.136
1123.311, 1004.837
1124.540, 1007.462
1125.769, 1003.829
1126.997, 1076.712
1128.226, 1001.342
1129.454, 990.975
1130.682, 973.612
1131.910, 901.251
1133.138, 1012.030
1134.365, 915.688
1135.592, 957.469
1136.819, 957.189
1138.046, 935.394
1139.273, 1014.063
1140.499, 964.396
1141.725, 915.200
1142.951, 965.250
1144.177, 967.839
1145.403, 966.538
1146.628, 993.646
1147.854, 898.420
1149.079, 961.750
1150.304, 995.870
1151.528, 928.603
1152.753, 1005.696
1153.977, 948.627
1155.201, 944.750
1156.425, 1043.587
1157.649, 970.467
1158.872, 917.347
1160.096, 979.409
1161.319, 914.192
1162.542, 973.661
1163.764, 888.685
1164.987, 929.477
1166.209, 934.592
1167.431, 866.394
1168.653, 873.202
1169.875, 838.776
1171.097, 737.596
1172.318, 826.430
1173.539, 790.354
1174.760, 725.142
1175.981, 693.087
1177.202, 688.022
1178.422, 639.857
1179.642, 641.724
1180.862, 572.208
1182.082, 584.049
1183.302, 562.390
1184.521, 481.964
1185.740, 482.825
1186.959, 478.730
1188.178, 421.580
1189.397, 422.315
1190.615, 353.167
1191.834, 322.020
1193.052, 318.979
1194.269, 317.834
1195.487, 282.724
1196.705, 302.881
1197.922, 213.832
1199.139, 217.857
1200.356, 163.804
1201.573, 233.701
1202.789, 150.750
1204.006, 191.675
1205.222, 191.591
1206.438, 135.565
1207.653, 138.436
1208.869, 112.547
1210.084, 111.420
1211.299, 115.306
1212.514, 70.177
1213.729, 92.047
1214.944, 91.916
1216.158, 74.866
1217.372, 30.892
1218.586, 70.934
1219.800, 64.810
1221.014, 103.688
1222.227, 86.595
1223.440, 84.340
1224.654, 83.611
1225.866, 65.852
1227.079, 50.156
1228.292, 57.863
1229.504, 34.842
1230.716, 43.899
1231.928, 89.784
1233.139, 2.372
1234.351, 96.470
1235.562, 49.356
1236.773, 56.194
1237.984, 32.032
1239.195, 43.872
1240.406, 93.712
1241.616, 46.553
1242.826, 16.461
1244.036, 58.302
1245.246, 15.269
1246.456, 11.889
1247.665, 62.951
1248.874, 58.800
1250.083, 9.633
1251.292, 79.465
1252.501, 6.298
1253.709, 34.146
1254.917, 31.978
1256.125, 62.810
1257.333, 36.642
1258.541, 15.468
1259.748, 82.589
1260.956, 25.396
1262.163, 30.761
1263.370, 82.270
1264.576, 51.043
1265.783, 0.067
1266.989, 76.698
1268.195, 5.457
1269.401, 25.213
1270.607, 75.966
1271.813, 34.730
1273.018, 59.456
1274.223, 32.178
1275.428, 63.095
1276.633, 34.810
1277.838, 17.478
1279.042, 49.664
1280.246, 3.353
1281.450, 19.017
1282.654, 54.337
1283.858, 41.285
1285.061, 8.095
1286.265, 3.658
1287.468, 2.739
1288.671, 27.141
1289.873, 50.443
1291.076, 18.978
1292.278, 19.592
1293.480, 5.844
1294.682, 2.288
1295.884, 52.254
1297.086, 1.208
1298.287, 2.323
1299.488, 1.152
1300.689, 23.366
1301.890, 13.878
1303.091, 14.383
1304.291, 0.869
1305.491, 48.339
1306.691, 5.198
1307.891, 45.742
1309.091, 64.764
1310.290, 1.194
1311.490, 46.617
1312.689, 53.034
1313.888, 5.557
1315.086, 48.872
1316.285, 39.265
1317.483, 19.651
1318.681, 23.969
1319.879, 16.394
1321.077, 19.747
1322.275, 65.090
1323.472, 24.576
1324.669, 18.257
1325.866, 61.047
1327.063, 31.656
1328.260, 3.379
1329.456, 40.888
1330.653, 32.129
1331.849, 68.364
1333.045, 5.408
1334.240, 51.807
1335.436, 68.016
1336.631, 21.218
1337.826, 79.411
1339.021, 7.598
1340.216, 18.777
1341.411, 24.948
1342.605, 11.112
1343.799, 27.268
1344.993, 39.485
1346.187, 10.626
1347.381, 35.760
1348.574, 37.886
1349.767, 24.004
1350.961, 68.116
1352.153, 9.248
1353.346, 58.845
1354.539, 45.931
1355.731, 53.012
1356.923, 55.519
1358.115, 53.157
1359.307, 30.222
1360.498, 15.282
1361.690, 13.429
1362.881, 47.477
1364.072, 46.521
1365.263, 39.562
1366.453, 13.575
1367.644, 22.584
1368.834, 6.587
1370.024, 11.415
1371.214, 1.818
1372.404, 20.537
1373.593, 12.504
1374.783, 42.469
1375.972, 66.436
1377.161, 79.316
1378.349, 41.565
1379.538, 53.287
1380.726, 111.931
1381.915, 67.570
1383.103, 91.204
1384.290, 119.826
1385.478, 37.960
1386.665, 90.533
1387.853, 25.080
1389.040, 68.679
1390.227, 103.272
1391.413, 54.828
1392.600, 96.450
1393.786, 59.002
1394.972, 62.414
1396.158, 52.846
1397.344, 60.628
1398.530, 57.901
1399.715, 70.417
1400.900, 64.583
1402.085, 14.851
1403.270, 119.072
1404.455, 44.537
1405.639, 12.187
1406.824, 71.819
1408.008, 22.325
1409.192, 87.160
1410.375, 70.813
1411.559, 87.565
1412.742, 134.586
1413.925, 48.497
1415.108, 74.532
1416.291, 87.316
1417.474, 11.511
1418.656, 52.643
1419.839, 63.657
1421.021, 14.111
1422.202, 59.864
1423.384, 84.653
1424.566, 72.027
1425.747, 45.896
1426.928, 93.773
1428.109, 6.375
1429.290, 51.136
1430.470, 66.717
1431.651, 95.282
1432.831, 109.760
1434.011, 36.285
1435.191, 85.986
1436.370, 99.659
1437.550, 60.384
1438.729, 98.143
1439.908, 133.915
1441.087, 60.248
1442.266, 76.650
1443.444, 73.260
1444.623, 60.417
1445.801, 92.651
1446.979, 38.395
1448.157, 127.494
1449.334, 155.049
1450.512, 13.497
1451.689, 89.998
1452.866, 87.456
1454.043, 51.734
1455.220, 159.836
1456.396, 22.140
1457.573, 64.449
1458.749, 114.672
1459.925, 30.881
1461.100, 112.048
1462.276, 122.506
1463.451, 66.986
1464.627, 131.887
1465.802, 96.068
1466.977, 70.222
1468.151, 84.357
1469.326, 92.014
1470.500, 98.175
1471.674, 92.186
1472.848, 130.402
1474.022, 80.655
1475.195, 101.456
1476.369, 100.675
1477.542, 42.864
1478.715, 78.032
1479.888, 99.225
1481.061, 82.385
1482.233, 132.525
1483.405, 89.701
1484.577, 98.976
1485.749, 0.952
1486.921, 90.184
1488.093, 46.408
1489.264, 34.498
1490.435, 86.705
1491.606, 87.927
1492.777, 10.799
1493.948, 112.486
1495.118, 44.790
1496.288, 26.220
1497.459, 140.774
1498.628, 60.379
1499.798, 53.024
1500.968, 112.716
1502.137, 0.531
1503.306, 33.721
1504.475, 55.584
1505.644, 83.546
1506.813, 73.311
1507.981, 89.779
1509.149, 49.473
1510.318, 89.165
1511.485, 74.362
1512.653, 49.771
1513.821, 115.431
1514.988, 34.586
1516.155, 22.090
1517.322, 125.453
1518.489, 0.307
1519.656, 0.000
##END=



