##NAMES=Strontianite
##RRUFFID=R040037
##IDEAL CHEMISTRY=SrCO_3_
##LOCALITY=Alston Moor, Cumbria, England
##OWNER=RRUFF
##SOURCE=University of Arizona Mineral Museum
##DESCRIPTION=Group of tan colored crystals
##STATUS=The identification of this mineral has been confirmed by X-ray diffraction and chemical analysis
##URL=rruff.info/R040037
##MEASURED CHEMISTRY=(Sr_0.91_Ca_0.09_)_Î£=1_CO_3_; CO_2_ estimated by difference
##PIN_ID=L00367
##ORIENTATION=Laser parallel to -a* (-1 0 0). Fiducial mark perpendicular to laser is parallel to -b [0 -1 0]
82.218, 0.000
83.614, 11.002
85.009, 3.453
86.404, 0.407
87.798, 1.956
89.193, 16.673
90.587, 51.019
91.981, 93.979
93.375, 79.847
94.768, 117.109
96.161, 138.376
97.554, 144.347
98.947, 183.784
100.340, 228.500
101.732, 256.341
103.124, 269.180
104.516, 333.911
105.908, 423.438
107.300, 397.678
108.691, 524.562
110.082, 677.030
111.473, 763.036
112.864, 970.537
114.254, 1161.494
115.644, 1268.873
117.034, 1174.648
118.424, 907.792
119.813, 745.279
121.203, 628.089
122.592, 512.202
123.981, 443.600
125.369, 482.256
126.758, 399.143
128.146, 443.244
129.534, 436.542
130.922, 509.027
132.309, 499.686
133.696, 560.511
135.083, 526.496
136.470, 560.631
137.857, 585.955
139.243, 692.450
140.630, 773.082
142.016, 893.839
143.401, 1013.722
144.787, 1132.755
146.172, 1353.906
147.557, 1483.165
148.942, 1586.555
150.327, 1589.073
151.711, 1421.727
153.096, 1235.468
154.480, 1068.291
155.863, 949.196
157.247, 839.946
158.630, 763.793
160.013, 723.562
161.396, 691.859
162.779, 721.245
164.161, 756.694
165.544, 743.177
166.926, 839.622
168.308, 933.048
169.689, 967.472
171.070, 1060.903
172.452, 1239.356
173.833, 1375.836
175.213, 1351.345
176.594, 1410.887
177.974, 1329.460
179.354, 1381.065
180.734, 1358.706
182.114, 1424.410
183.493, 1509.158
184.872, 1640.945
186.251, 1617.780
187.630, 1485.655
189.008, 1244.568
190.387, 1011.518
191.765, 862.146
193.143, 643.212
194.520, 508.250
195.898, 402.103
197.275, 338.206
198.652, 347.350
200.029, 292.627
201.405, 273.880
202.782, 241.486
204.158, 226.812
205.534, 203.303
206.909, 207.370
208.285, 150.785
209.660, 194.376
211.035, 207.885
212.410, 116.609
213.784, 152.320
215.159, 138.085
216.533, 117.707
217.907, 126.095
219.281, 129.432
220.654, 144.252
222.027, 136.955
223.400, 123.693
224.773, 111.458
226.146, 149.259
227.518, 134.101
228.891, 151.957
230.263, 118.310
231.634, 148.598
233.006, 143.037
234.377, 187.560
235.748, 178.169
237.119, 273.142
238.490, 294.568
239.860, 380.673
241.231, 386.991
242.601, 446.031
243.970, 539.107
245.340, 668.265
246.709, 799.394
248.079, 936.571
249.448, 1079.037
250.816, 1087.695
252.185, 1053.706
253.553, 889.917
254.921, 713.299
256.289, 653.831
257.657, 593.495
259.024, 555.279
260.391, 507.172
261.758, 549.985
263.125, 470.089
264.492, 447.256
265.858, 347.653
267.224, 291.971
268.590, 251.702
269.956, 208.721
271.321, 179.460
272.687, 174.216
274.052, 133.830
275.416, 131.494
276.781, 114.205
278.146, 67.961
279.510, 44.189
280.874, 106.013
282.237, 30.941
283.601, 86.856
284.964, 14.806
286.327, 19.976
287.690, 86.476
289.053, 34.926
290.416, 5.024
291.778, 69.143
293.140, 57.292
294.502, 71.468
295.863, 32.670
297.225, 49.898
298.586, 5.151
299.947, 23.374
301.308, 19.923
302.668, 51.759
304.029, 32.044
305.389, 16.399
306.749, 26.225
308.108, 31.168
309.468, 5.581
310.827, 15.011
312.186, 50.711
313.545, 19.213
314.903, 4.558
316.262, 19.943
317.620, 52.918
318.978, 10.450
320.336, 12.888
321.693, 25.671
323.051, 18.312
324.408, 33.749
325.765, 31.654
327.121, 55.005
328.478, 7.376
329.834, 17.343
331.190, 2.297
332.546, 39.949
333.902, 6.359
335.257, 21.315
336.612, 4.875
337.967, 28.635
339.322, 15.343
340.677, 6.673
342.031, 18.120
343.385, 5.071
344.739, 35.967
346.093, 18.964
347.446, 36.033
348.799, 0.854
350.153, 20.638
351.505, 19.570
352.858, 38.760
354.210, 8.052
355.563, 4.131
356.915, 46.686
358.267, 9.511
359.618, 35.340
360.969, 14.069
362.321, 20.917
363.672, 14.812
365.022, 37.674
366.373, 51.593
367.723, 14.467
369.073, 1.458
370.423, 27.337
371.773, 2.223
373.122, 37.113
374.471, 31.600
375.821, 18.296
377.169, 7.707
378.518, 51.406
379.866, 31.695
381.215, 3.200
382.563, 11.908
383.910, 26.986
385.258, 12.891
386.605, 4.511
387.952, 42.042
389.299, 19.181
390.646, 7.256
391.992, 6.752
393.339, 15.160
394.685, 2.073
396.031, 25.017
397.376, 59.888
398.722, 34.793
400.067, 19.701
401.412, 23.187
402.757, 21.081
404.101, 11.379
405.446, 6.291
406.790, 14.467
408.134, 75.232
409.478, 38.262
410.821, 55.314
412.165, 73.313
413.508, 25.313
414.851, 84.337
416.193, 59.324
417.536, 31.321
418.878, 56.329
420.220, 33.632
421.562, 18.159
422.904, 9.807
424.245, 11.995
425.586, 58.035
426.927, 6.777
428.268, 54.835
429.609, 1.898
430.949, 47.964
432.289, 20.033
433.629, 54.108
434.969, 22.187
436.309, 72.496
437.648, 52.649
438.987, 71.740
440.326, 18.165
441.665, 9.036
443.003, 15.044
444.342, 68.128
445.680, 37.215
447.018, 10.314
448.355, 2.431
449.693, 4.548
451.030, 21.579
452.367, 28.674
453.704, 55.450
455.041, 58.181
456.377, 54.785
457.713, 66.901
459.049, 25.077
460.385, 14.194
461.721, 36.884
463.056, 48.000
464.391, 5.819
465.726, 36.930
467.061, 86.417
468.395, 36.991
469.730, 52.245
471.064, 93.353
472.398, 13.587
473.731, 23.938
475.065, 16.960
476.398, 42.795
477.731, 11.121
479.064, 44.101
480.397, 21.170
481.729, 43.004
483.062, 24.069
484.394, 1.131
485.725, 65.220
487.057, 25.428
488.389, 72.889
489.720, 11.870
491.051, 32.518
492.382, 51.585
493.712, 28.620
495.043, 45.540
496.373, 33.430
497.703, 27.572
499.032, 81.570
500.362, 18.566
501.691, 28.413
503.020, 28.400
504.349, 16.273
505.678, 19.156
507.007, 19.478
508.335, 29.457
509.663, 34.775
510.991, 42.747
512.319, 52.583
513.646, 53.207
514.973, 60.166
516.300, 48.009
517.627, 36.961
518.954, 94.917
520.280, 3.082
521.607, 56.254
522.933, 33.186
524.259, 74.112
525.584, 1.035
526.910, 57.943
528.235, 29.847
529.560, 60.732
530.885, 116.626
532.209, 51.511
533.534, 3.604
534.858, 47.946
536.182, 31.809
537.506, 25.315
538.829, 47.167
540.152, 76.634
541.476, 42.467
542.799, 93.756
544.121, 24.591
545.444, 13.808
546.766, 10.623
548.088, 24.433
549.410, 28.235
550.732, 33.960
552.053, 97.415
553.375, 54.200
554.696, 69.894
556.017, 95.426
557.337, 50.197
558.658, 52.963
559.978, 12.725
561.298, 30.522
562.618, 19.198
563.938, 52.910
565.257, 32.597
566.576, 44.297
567.895, 33.116
569.214, 32.860
570.533, 38.506
571.851, 40.181
573.170, 39.090
574.488, 56.753
575.805, 83.410
577.123, 54.263
578.440, 25.908
579.758, 17.862
581.075, 52.533
582.391, 9.330
583.708, 85.916
585.024, 11.515
586.341, 57.717
587.657, 58.298
588.972, 112.578
590.288, 108.145
591.603, 91.788
592.918, 52.341
594.233, 30.928
595.548, 40.796
596.863, 71.326
598.177, 82.849
599.491, 42.299
600.805, 91.823
602.119, 57.667
603.432, 66.325
604.746, 90.254
606.059, 46.547
607.372, 45.573
608.685, 26.366
609.997, 72.223
611.309, 13.678
612.621, 56.299
613.933, 40.571
615.245, 60.992
616.557, 45.379
617.868, 70.756
619.179, 115.038
620.490, 72.655
621.801, 44.034
623.111, 138.999
624.421, 26.345
625.731, 86.680
627.041, 39.010
628.351, 71.330
629.660, 40.642
630.970, 32.694
632.279, 135.953
633.588, 13.491
634.896, 103.763
636.205, 35.746
637.513, 53.000
638.821, 54.131
640.129, 94.655
641.437, 85.819
642.744, 45.191
644.051, 56.407
645.358, 22.637
646.665, 42.838
647.972, 50.684
649.278, 45.990
650.584, 67.236
651.890, 63.290
653.196, 82.715
654.502, 71.008
655.807, 53.205
657.113, 73.489
658.418, 79.368
659.722, 73.168
661.027, 72.731
662.331, 60.607
663.636, 69.468
664.940, 48.990
666.244, 24.195
667.547, 156.280
668.851, 21.530
670.154, 147.521
671.457, 79.570
672.760, 47.611
674.062, 134.712
675.365, 47.797
676.667, 30.816
677.969, 29.007
679.271, 99.011
680.572, 88.963
681.874, 72.948
683.175, 71.874
684.476, 83.854
685.777, 124.711
687.077, 111.721
688.378, 87.678
689.678, 228.628
690.978, 253.269
692.278, 451.279
693.577, 709.346
694.877, 1484.085
696.176, 2193.379
697.475, 2946.405
698.774, 2767.317
700.072, 2319.437
701.371, 1924.192
702.669, 1397.691
703.967, 1076.875
705.265, 612.880
706.562, 461.716
707.860, 271.627
709.157, 123.487
710.454, 156.345
711.751, 90.191
713.047, 189.034
714.344, 64.214
715.640, 109.255
716.936, 49.531
718.232, 129.387
719.527, 62.803
720.823, 40.675
722.118, 89.355
723.413, 30.141
724.708, 42.886
726.002, 53.538
727.297, 68.251
728.591, 21.015
729.885, 124.888
731.179, 56.628
732.472, 23.361
733.766, 62.204
735.059, 15.635
736.352, 37.841
737.645, 58.541
738.937, 56.484
740.230, 93.174
741.522, 16.805
742.814, 65.018
744.106, 35.674
745.397, 87.325
746.689, 31.969
747.980, 60.605
749.271, 39.235
750.562, 11.633
751.853, 85.182
753.143, 48.856
754.433, 9.482
755.723, 114.062
757.013, 7.657
758.303, 22.243
759.592, 29.179
760.881, 66.372
762.170, 40.899
763.459, 54.419
764.748, 19.051
766.036, 8.420
767.325, 14.635
768.613, 38.075
769.901, 40.284
771.188, 65.754
772.476, 60.157
773.763, 23.615
775.050, 10.066
776.337, 41.519
777.624, 27.875
778.910, 59.363
780.196, 58.414
781.482, 91.836
782.768, 91.335
784.054, 94.327
785.339, 89.929
786.625, 90.083
787.910, 79.477
789.195, 76.203
790.479, 12.594
791.764, 56.911
793.048, 102.296
794.332, 3.675
795.616, 48.047
796.900, 86.503
798.183, 57.832
799.467, 28.240
800.750, 55.180
802.033, 31.471
803.316, 17.833
804.598, 28.853
805.880, 25.753
807.163, 22.950
808.445, 42.272
809.726, 18.600
811.008, 13.967
812.289, 42.283
813.570, 22.596
814.851, 11.904
816.132, 16.206
817.413, 74.503
818.693, 40.083
819.973, 11.202
821.253, 77.182
822.533, 17.441
823.813, 73.276
825.092, 65.525
826.371, 59.770
827.650, 26.188
828.929, 28.556
830.208, 76.787
831.486, 24.850
832.764, 16.155
834.042, 54.265
835.320, 58.555
836.598, 76.781
837.875, 75.590
839.152, 95.758
840.429, 33.036
841.706, 107.254
842.983, 69.468
844.259, 22.679
845.536, 26.891
846.812, 0.344
848.088, 36.303
849.363, 5.294
850.639, 17.900
851.914, 45.238
853.189, 0.424
854.464, 24.642
855.739, 18.134
857.013, 4.685
858.288, 18.393
859.562, 13.563
860.836, 14.729
862.110, 66.893
863.383, 42.052
864.656, 63.208
865.930, 44.360
867.203, 5.490
868.475, 0.347
869.748, 35.800
871.020, 37.943
872.292, 79.097
873.564, 26.250
874.836, 55.372
876.108, 77.530
877.379, 24.561
878.650, 79.690
879.922, 49.838
881.192, 32.984
882.463, 1.888
883.733, 51.027
885.004, 47.164
886.274, 15.095
887.544, 109.224
888.813, 111.033
890.083, 72.113
891.352, 40.234
892.621, 110.356
893.890, 35.475
895.159, 3.828
896.427, 53.941
897.695, 53.000
898.964, 65.112
900.232, 102.140
901.499, 61.247
902.767, 69.310
904.034, 57.081
905.301, 26.181
906.568, 36.277
907.835, 36.008
909.102, 73.098
910.368, 53.792
911.634, 69.666
912.900, 58.348
914.166, 54.424
915.432, 85.462
916.697, 32.533
917.962, 80.449
919.227, 103.496
920.492, 72.363
921.757, 90.568
923.021, 46.612
924.285, 54.679
925.550, 44.744
926.813, 37.694
928.077, 35.090
929.341, 40.130
930.604, 24.504
931.867, 51.553
933.130, 53.600
934.393, 43.643
935.655, 58.271
936.918, 5.721
938.180, 56.756
939.442, 45.787
940.703, 25.815
941.965, 77.845
943.226, 19.692
944.488, 45.714
945.749, 61.731
947.009, 75.462
948.270, 17.472
949.530, 66.479
950.791, 27.563
952.051, 98.495
953.311, 44.496
954.570, 35.442
955.830, 95.322
957.089, 13.251
958.348, 31.162
959.607, 63.058
960.866, 43.031
962.124, 29.902
963.383, 52.738
964.641, 67.896
965.899, 98.858
967.156, 107.668
968.414, 74.543
969.671, 12.567
970.928, 34.867
972.185, 24.341
973.442, 57.460
974.699, 12.289
975.955, 86.315
977.211, 60.260
978.468, 0.016
979.723, 12.091
980.979, 67.292
982.234, 30.369
983.490, 103.483
984.745, 0.328
986.000, 30.541
987.254, 55.831
988.509, 49.206
989.763, 96.129
991.017, 79.120
992.271, 129.474
993.525, 141.675
994.779, 139.341
996.032, 96.765
997.285, 117.824
998.538, 58.735
999.791, 0.124
1001.044, 159.541
1002.296, 11.608
1003.548, 88.721
1004.800, 38.629
1006.052, 18.710
1007.304, 85.648
1008.555, 23.354
1009.807, 111.602
1011.058, 103.502
1012.309, 53.505
1013.559, 129.533
1014.810, 52.734
1016.060, 56.810
1017.310, 108.981
1018.560, 124.552
1019.810, 88.494
1021.060, 117.390
1022.309, 98.314
1023.558, 112.586
1024.807, 78.614
1026.056, 74.416
1027.305, 138.236
1028.553, 126.920
1029.801, 172.937
1031.049, 221.368
1032.297, 116.473
1033.545, 68.317
1034.793, 144.392
1036.040, 134.304
1037.287, 173.178
1038.534, 182.037
1039.781, 211.977
1041.027, 233.780
1042.274, 105.822
1043.520, 183.707
1044.766, 207.576
1046.012, 198.310
1047.257, 285.447
1048.503, 284.354
1049.748, 464.449
1050.993, 457.210
1052.238, 423.156
1053.483, 295.019
1054.727, 304.169
1055.971, 262.967
1057.216, 387.921
1058.459, 299.794
1059.703, 361.535
1060.947, 412.168
1062.190, 429.888
1063.433, 559.785
1064.676, 708.721
1065.919, 1085.544
1067.162, 1628.353
1068.404, 2824.204
1069.646, 4799.841
1070.888, 10108.415
1072.130, 24208.102
1073.372, 48940.855
1074.613, 56984.504
1075.855, 35686.168
1077.096, 13822.812
1078.337, 5792.425
1079.578, 2855.078
1080.818, 1513.701
1082.059, 914.470
1083.299, 560.971
1084.539, 413.525
1085.779, 366.363
1087.018, 330.924
1088.258, 244.383
1089.497, 232.980
1090.736, 261.739
1091.975, 142.166
1093.213, 199.729
1094.452, 140.174
1095.690, 222.699
1096.928, 108.084
1098.166, 149.456
1099.404, 59.051
1100.642, 121.359
1101.879, 105.789
1103.116, 158.466
1104.353, 113.776
1105.590, 88.337
1106.827, 128.806
1108.063, 182.252
1109.299, 112.712
1110.536, 102.403
1111.771, 100.998
1113.007, 36.280
1114.243, 62.510
1115.478, 125.149
1116.713, 76.354
1117.948, 68.730
1119.183, 152.903
1120.418, 6.923
1121.652, 44.353
1122.886, 102.627
1124.120, 67.873
1125.354, 105.318
1126.588, 24.450
1127.821, 30.966
1129.055, 10.509
1130.288, 54.200
1131.521, 27.505
1132.753, 41.981
1133.986, 20.051
1135.218, 5.362
1136.450, 78.421
1137.682, 0.912
1138.914, 63.376
1140.146, 2.650
1141.377, 47.206
1142.609, 37.084
1143.840, 10.196
1145.071, 29.553
1146.301, 25.634
1147.532, 17.700
1148.762, 48.446
1149.992, 22.367
1151.222, 36.258
1152.452, 33.465
1153.682, 23.841
1154.911, 50.674
1156.140, 89.460
1157.369, 0.407
1158.598, 52.640
1159.827, 28.622
1161.055, 54.799
1162.284, 14.633
1163.512, 41.457
1164.740, 18.355
1165.967, 78.118
1167.195, 27.926
1168.422, 72.900
1169.650, 68.176
1170.877, 4.751
1172.103, 29.407
1173.330, 38.138
1174.557, 93.574
1175.783, 132.481
1177.009, 45.328
1178.235, 0.135
1179.461, 17.750
1180.686, 45.627
1181.912, 31.278
1183.137, 68.492
1184.362, 51.884
1185.587, 82.550
1186.811, 62.127
1188.036, 93.261
1189.260, 31.647
1190.484, 73.364
1191.708, 67.702
1192.932, 72.168
1194.155, 20.233
1195.378, 5.324
1196.602, 23.919
1197.825, 98.838
1199.047, 52.853
1200.270, 71.243
1201.492, 15.527
1202.715, 69.749
1203.937, 41.159
1205.159, 59.662
1206.380, 95.725
1207.602, 119.578
1208.823, 97.431
1210.044, 55.355
1211.265, 44.341
1212.486, 69.263
1213.707, 63.134
1214.927, 58.799
1216.147, 108.535
1217.367, 126.195
1218.587, 95.995
1219.807, 78.886
1221.027, 98.589
1222.246, 96.475
1223.465, 96.758
1224.684, 100.740
1225.903, 91.230
1227.121, 88.741
1228.340, 64.446
1229.558, 133.925
1230.776, 111.560
1231.994, 40.953
1233.212, 72.451
1234.429, 136.929
1235.646, 91.453
1236.864, 38.002
1238.081, 172.325
1239.297, 73.763
1240.514, 118.056
1241.730, 96.421
1242.947, 141.757
1244.163, 107.178
1245.378, 1.592
1246.594, 172.033
1247.810, 109.149
1249.025, 2.740
1250.240, 136.781
1251.455, 71.838
1252.670, 64.880
1253.885, 84.900
1255.099, 87.984
1256.313, 34.964
1257.527, 39.918
1258.741, 121.851
1259.955, 169.569
1261.168, 35.376
1262.382, 187.392
1263.595, 87.205
1264.808, 104.235
1266.021, 128.237
1267.233, 88.317
1268.446, 100.645
1269.658, 76.809
1270.870, 53.428
1272.082, 101.101
1273.294, 22.957
1274.505, 14.382
1275.716, 11.650
1276.928, 52.070
1278.139, 25.356
1279.349, 69.955
1280.560, 34.160
1281.770, 100.254
1282.981, 51.639
1284.191, 37.803
1285.401, 109.083
1286.610, 14.071
1287.820, 123.250
1289.029, 63.322
1290.239, 19.256
1291.448, 43.242
1292.656, 81.184
1293.865, 86.059
1295.073, 48.964
1296.282, 55.851
1297.490, 24.699
1298.698, 7.510
1299.906, 63.257
1301.113, 99.093
1302.320, 35.067
1303.528, 12.537
1304.735, 39.308
1305.942, 24.071
1307.148, 65.617
1308.355, 63.098
1309.561, 40.682
1310.767, 68.142
1311.973, 27.830
1313.179, 38.249
1314.384, 2.863
1315.590, 89.417
1316.795, 64.604
1318.000, 107.937
1319.205, 33.538
1320.410, 9.091
1321.614, 12.674
1322.819, 10.026
1324.023, 36.826
1325.227, 12.071
1326.431, 25.131
1327.634, 144.250
1328.838, 21.499
1330.041, 15.644
1331.244, 23.890
1332.447, 141.027
1333.650, 51.270
1334.852, 12.768
1336.055, 52.333
1337.257, 9.612
1338.459, 107.431
1339.661, 21.201
1340.862, 51.173
1342.064, 3.072
1343.265, 94.989
1344.466, 14.837
1345.667, 24.740
1346.868, 9.671
1348.068, 5.457
1349.269, 0.878
1350.469, 50.678
1351.669, 95.569
1352.869, 90.541
1354.069, 68.401
1355.268, 48.068
1356.468, 57.672
1357.667, 64.363
1358.866, 113.011
1360.065, 85.626
1361.263, 98.584
1362.462, 60.435
1363.660, 33.163
1364.858, 72.805
1366.056, 25.518
1367.254, 114.209
1368.451, 46.891
1369.649, 102.581
1370.846, 38.777
1372.043, 40.818
1373.240, 89.306
1374.436, 47.274
1375.633, 99.954
1376.829, 69.341
1378.025, 68.866
1379.221, 54.280
1380.417, 42.840
1381.613, 90.473
1382.808, 58.992
1384.003, 89.534
1385.199, 68.130
1386.393, 69.504
1387.588, 42.621
1388.783, 83.917
1389.977, 16.055
1391.171, 103.792
1392.365, 97.797
1393.559, 14.232
1394.753, 108.965
1395.946, 99.191
1397.140, 138.193
1398.333, 79.883
1399.526, 154.439
1400.719, 151.265
1401.911, 118.540
1403.104, 185.011
1404.296, 141.706
1405.488, 64.343
1406.680, 148.081
1407.872, 31.218
1409.063, 48.634
1410.255, 106.276
1411.446, 49.279
1412.637, 84.000
1413.828, 104.272
1415.018, 113.925
1416.209, 173.066
1417.399, 76.062
1418.589, 121.929
1419.779, 201.111
1420.969, 122.339
1422.159, 115.504
1423.348, 149.687
1424.537, 191.749
1425.726, 161.462
1426.915, 30.858
1428.104, 135.068
1429.293, 83.194
1430.481, 33.837
1431.669, 121.076
1432.857, 130.424
1434.045, 169.200
1435.233, 170.199
1436.420, 123.452
1437.608, 224.223
1438.795, 136.235
1439.982, 141.739
1441.169, 199.261
1442.355, 215.283
1443.542, 106.032
1444.728, 184.360
1445.914, 240.840
1447.100, 350.441
1448.286, 396.248
1449.472, 406.752
1450.657, 425.188
1451.842, 379.355
1453.027, 325.564
1454.212, 273.846
1455.397, 276.974
1456.581, 140.980
1457.766, 164.222
1458.950, 228.529
1460.134, 57.903
1461.318, 146.036
1462.501, 145.312
1463.685, 97.551
1464.868, 122.389
1466.051, 120.879
1467.234, 116.281
1468.417, 95.150
1469.600, 120.250
1470.782, 195.256
1471.965, 183.353
1473.147, 61.409
1474.329, 159.462
1475.510, 146.993
1476.692, 110.105
1477.873, 169.710
1479.055, 158.860
1480.236, 94.047
1481.416, 258.265
1482.597, 102.456
1483.778, 153.608
1484.958, 56.739
1486.138, 118.933
1487.318, 52.205
1488.498, 44.421
1489.678, 173.742
1490.857, 46.080
1492.037, 26.595
1493.216, 79.131
1494.395, 135.696
1495.574, 57.340
1496.752, 207.061
1497.931, 52.839
1499.109, 112.686
1500.287, 64.633
1501.465, 149.691
1502.643, 2.843
1503.820, 45.104
1504.998, 52.496
1506.175, 89.035
1507.352, 102.744
1508.529, 97.234
1509.706, 45.293
1510.882, 78.579
1512.059, 71.129
1513.235, 94.892
1514.411, 127.829
1515.587, 9.107
1516.762, 181.844
1517.938, 69.046
1519.113, 229.367
1520.288, 0.995
1521.463, 217.929
1522.638, 0.000
##END=



