##NAMES=Strontianite
##RRUFFID=R040037
##IDEAL CHEMISTRY=SrCO_3_
##LOCALITY=Alston Moor, Cumbria, England
##OWNER=RRUFF
##SOURCE=University of Arizona Mineral Museum
##DESCRIPTION=Group of tan colored crystals
##STATUS=The identification of this mineral has been confirmed by X-ray diffraction and chemical analysis
##URL=rruff.info/R040037
##MEASURED CHEMISTRY=(Sr_0.91_Ca_0.09_)_Î£=1_CO_3_; CO_2_ estimated by difference
##PIN_ID=L00367
##ORIENTATION=Laser parallel to -a* (-1 0 0). Fiducial mark perpendicular to laser is parallel to -b [0 -1 0]
91.981, 0.000
93.375, 8.000
94.768, 16.213
96.161, 36.132
97.554, 44.742
98.947, 131.355
100.340, 282.883
101.732, 432.643
103.124, 573.760
104.516, 536.865
105.908, 484.949
107.300, 445.247
108.691, 455.662
110.082, 428.185
111.473, 497.922
112.864, 593.024
114.254, 639.199
115.644, 688.504
117.034, 805.875
118.424, 770.083
119.813, 647.684
121.203, 706.560
122.592, 731.603
123.981, 789.698
125.369, 889.750
126.758, 949.665
128.146, 1136.361
129.534, 1229.760
130.922, 1551.795
132.309, 1781.408
133.696, 2133.547
135.083, 2551.154
136.470, 3191.180
137.857, 3881.583
139.243, 5059.601
140.630, 6253.077
142.016, 8104.204
143.401, 10199.885
144.787, 12819.944
146.172, 15912.294
147.557, 18598.949
148.942, 20265.074
150.327, 19852.521
151.711, 17289.240
153.096, 13793.134
154.480, 10806.155
155.863, 7928.420
157.247, 6088.831
158.630, 4686.356
160.013, 3761.980
161.396, 3094.657
162.779, 2560.474
164.161, 2240.310
165.544, 1945.192
166.926, 1907.096
168.308, 1808.033
169.689, 1855.060
171.070, 1924.107
172.452, 2281.194
173.833, 2598.299
175.213, 2993.407
176.594, 3530.403
177.974, 4050.355
179.354, 4812.255
180.734, 5461.130
182.114, 5703.005
183.493, 5753.888
184.872, 5458.992
186.251, 4626.230
187.630, 3751.971
189.008, 2862.333
190.387, 2212.667
191.765, 1642.667
193.143, 1311.290
194.520, 1053.142
195.898, 884.158
197.275, 716.447
198.652, 730.770
200.029, 647.666
201.405, 586.888
202.782, 524.990
204.158, 343.809
205.534, 279.295
206.909, 283.217
208.285, 225.221
209.660, 222.177
211.035, 289.050
212.410, 226.920
213.784, 283.687
215.159, 261.304
216.533, 443.323
217.907, 450.827
219.281, 382.242
220.654, 335.911
222.027, 243.197
223.400, 234.617
224.773, 164.125
226.146, 147.955
227.518, 67.691
228.891, 111.633
230.263, 122.488
231.634, 206.815
233.006, 293.577
234.377, 301.363
235.748, 338.162
237.119, 533.426
238.490, 523.244
239.860, 652.224
241.231, 665.073
242.601, 707.653
243.970, 681.724
245.340, 787.780
246.709, 822.696
248.079, 762.527
249.448, 746.361
250.816, 734.786
252.185, 604.669
253.553, 487.500
254.921, 425.218
256.289, 345.439
257.657, 303.235
259.024, 260.541
260.391, 230.872
261.758, 234.731
263.125, 208.614
264.492, 242.646
265.858, 241.194
267.224, 61.827
268.590, 97.857
269.956, 45.480
271.321, 82.355
272.687, 76.801
274.052, 19.468
275.416, 93.786
276.781, 36.201
278.146, 52.831
279.510, 75.770
280.874, 5.626
282.237, 23.350
283.601, 23.954
284.964, 36.670
286.327, 106.236
287.690, 16.239
289.053, 118.232
290.416, 65.270
291.778, 23.673
293.140, 69.038
294.502, 21.844
295.863, 42.459
297.225, 51.702
298.586, 44.961
299.947, 14.202
301.308, 25.579
302.668, 23.545
304.029, 58.793
305.389, 22.037
306.749, 21.119
308.108, 51.269
309.468, 1.306
310.827, 10.449
312.186, 39.397
313.545, 77.541
314.903, 23.324
316.262, 39.486
317.620, 82.571
318.978, 73.238
320.336, 44.063
321.693, 49.873
323.051, 29.337
324.408, 40.658
325.765, 68.568
327.121, 67.185
328.478, 24.066
329.834, 31.332
331.190, 6.387
332.546, 23.098
333.902, 15.381
335.257, 30.891
336.612, 0.848
337.967, 3.673
339.322, 14.009
340.677, 39.335
342.031, 61.296
343.385, 65.079
344.739, 42.520
346.093, 34.673
347.446, 38.944
348.799, 26.502
350.153, 23.399
351.505, 18.898
352.858, 31.382
354.210, 3.830
355.563, 27.217
356.915, 53.573
358.267, 4.086
359.618, 51.215
360.969, 99.566
362.321, 111.835
363.672, 13.881
365.022, 45.770
366.373, 74.972
367.723, 43.587
369.073, 32.509
370.423, 128.579
371.773, 74.630
373.122, 67.500
374.471, 136.502
375.821, 108.481
377.169, 76.450
378.518, 105.405
379.866, 17.336
381.215, 83.264
382.563, 66.426
383.910, 57.282
385.258, 78.066
386.605, 85.203
387.952, 129.000
389.299, 39.778
390.646, 101.542
391.992, 83.350
393.339, 60.088
394.685, 78.791
396.031, 6.517
397.376, 140.150
398.722, 34.809
400.067, 119.445
401.412, 125.070
402.757, 99.684
404.101, 198.399
405.446, 83.175
406.790, 26.782
408.134, 80.328
409.478, 151.920
410.821, 136.439
412.165, 165.935
413.508, 47.957
414.851, 151.548
416.193, 79.036
417.536, 40.898
418.878, 75.663
420.220, 23.390
421.562, 112.848
422.904, 17.771
424.245, 82.440
425.586, 145.030
426.927, 86.452
428.268, 237.021
429.609, 90.433
430.949, 71.840
432.289, 70.228
433.629, 237.892
434.969, 103.052
436.309, 164.624
437.648, 96.015
438.987, 181.578
440.326, 124.522
441.665, 154.608
443.003, 102.841
444.342, 150.213
445.680, 136.609
447.018, 172.923
448.355, 164.239
449.693, 183.578
451.030, 75.455
452.367, 188.441
453.704, 140.408
455.041, 81.429
456.377, 183.728
457.713, 97.468
459.049, 142.818
460.385, 114.338
461.721, 102.238
463.056, 155.102
464.391, 105.624
465.726, 157.272
467.061, 180.288
468.395, 117.460
469.730, 43.486
471.064, 204.264
472.398, 81.804
473.731, 131.080
475.065, 67.251
476.398, 97.200
477.731, 83.110
479.064, 135.951
480.397, 42.768
481.729, 74.285
483.062, 98.260
484.394, 69.328
485.725, 121.106
487.057, 120.471
488.389, 88.178
489.720, 102.247
491.051, 86.129
492.382, 95.405
493.712, 55.964
495.043, 111.450
496.373, 63.023
497.703, 40.860
499.032, 103.412
500.362, 79.455
501.691, 86.498
503.020, 122.966
504.349, 84.200
505.678, 43.630
507.007, 39.149
508.335, 107.678
509.663, 16.522
510.991, 113.594
512.319, 88.655
513.646, 101.194
514.973, 87.969
516.300, 81.295
517.627, 179.096
518.954, 165.781
520.280, 70.690
521.607, 110.873
522.933, 34.103
524.259, 38.603
525.584, 97.422
526.910, 57.521
528.235, 112.352
529.560, 153.964
530.885, 119.110
532.209, 28.429
533.534, 123.428
534.858, 118.410
536.182, 176.374
537.506, 82.328
538.829, 121.264
540.152, 73.898
541.476, 13.799
542.799, 125.667
544.121, 24.390
545.444, 53.218
546.766, 87.025
548.088, 98.814
549.410, 143.925
550.732, 73.681
552.053, 115.420
553.375, 146.943
554.696, 128.648
556.017, 168.014
557.337, 131.025
558.658, 184.662
559.978, 153.298
561.298, 102.085
562.618, 67.014
563.938, 60.601
565.257, 83.156
566.576, 171.337
567.895, 74.818
569.214, 128.686
570.533, 100.185
571.851, 2.668
573.170, 74.279
574.488, 194.931
575.805, 8.185
577.123, 52.366
578.440, 7.329
579.758, 6.016
581.075, 40.682
582.391, 54.594
583.708, 61.095
585.024, 121.067
586.341, 62.568
587.657, 109.043
588.972, 94.158
590.288, 148.795
591.603, 48.353
592.918, 20.512
594.233, 53.524
595.548, 129.646
596.863, 51.730
598.177, 113.625
599.491, 74.811
600.805, 87.845
602.119, 30.096
603.432, 67.188
604.746, 108.337
606.059, 158.304
607.372, 69.577
608.685, 1.526
609.997, 126.067
611.309, 45.666
612.621, 52.584
613.933, 72.452
615.245, 122.704
616.557, 94.622
617.868, 174.833
619.179, 139.695
620.490, 98.921
621.801, 39.751
623.111, 179.695
624.421, 113.526
625.731, 222.338
627.041, 60.110
628.351, 135.760
629.660, 81.560
630.970, 73.100
632.279, 216.834
633.588, 59.181
634.896, 149.890
636.205, 67.638
637.513, 118.639
638.821, 101.433
640.129, 64.387
641.437, 111.046
642.744, 101.514
644.051, 36.402
645.358, 110.741
646.665, 105.353
647.972, 67.960
649.278, 139.560
650.584, 130.218
651.890, 137.296
653.196, 182.169
654.502, 123.611
655.807, 152.508
657.113, 95.250
658.418, 32.731
659.722, 193.731
661.027, 62.216
662.331, 148.777
663.636, 86.877
664.940, 79.653
666.244, 12.906
667.547, 115.161
668.851, 68.727
670.154, 38.117
671.457, 17.736
672.760, 40.266
674.062, 22.327
675.365, 72.287
676.667, 13.602
677.969, 118.857
679.271, 98.644
680.572, 88.146
681.874, 153.508
683.175, 181.248
684.476, 191.217
685.777, 159.528
687.077, 87.868
688.378, 44.093
689.678, 152.725
690.978, 202.107
692.278, 298.289
693.577, 350.229
694.877, 872.382
696.176, 1190.725
697.475, 1651.830
698.774, 1569.654
700.072, 1636.795
701.371, 1528.935
702.669, 1425.697
703.967, 969.768
705.265, 806.185
706.562, 589.253
707.860, 361.333
709.157, 185.354
710.454, 440.655
711.751, 285.652
713.047, 340.770
714.344, 143.753
715.640, 178.729
716.936, 72.009
718.232, 35.107
719.527, 124.062
720.823, 141.873
722.118, 75.986
723.413, 169.888
724.708, 30.875
726.002, 122.751
727.297, 159.614
728.591, 84.057
729.885, 58.820
731.179, 172.598
732.472, 111.381
733.766, 64.823
735.059, 108.363
736.352, 19.031
737.645, 127.476
738.937, 98.968
740.230, 65.571
741.522, 9.278
742.814, 41.819
744.106, 86.499
745.397, 123.370
746.689, 133.196
747.980, 139.086
749.271, 133.232
750.562, 91.639
751.853, 68.259
753.143, 6.066
754.433, 68.524
755.723, 119.010
757.013, 29.461
758.303, 79.504
759.592, 62.041
760.881, 126.557
762.170, 29.061
763.459, 120.425
764.748, 111.587
766.036, 116.521
767.325, 150.485
768.613, 57.744
769.901, 14.013
771.188, 82.396
772.476, 18.692
773.763, 134.033
775.050, 33.637
776.337, 131.615
777.624, 66.556
778.910, 91.834
780.196, 92.104
781.482, 118.363
782.768, 112.241
784.054, 85.655
785.339, 109.801
786.625, 94.869
787.910, 111.096
789.195, 167.074
790.479, 65.273
791.764, 50.721
793.048, 205.430
794.332, 0.524
795.616, 135.451
796.900, 88.563
798.183, 35.628
799.467, 8.736
800.750, 156.335
802.033, 128.735
803.316, 109.873
804.598, 57.932
805.880, 61.889
807.163, 120.024
808.445, 53.059
809.726, 53.267
811.008, 40.285
812.289, 134.216
813.570, 4.257
814.851, 100.157
816.132, 75.919
817.413, 47.890
818.693, 17.001
819.973, 172.806
821.253, 82.907
822.533, 52.852
823.813, 123.601
825.092, 32.155
826.371, 49.425
827.650, 42.217
828.929, 52.559
830.208, 126.290
831.486, 84.480
832.764, 5.629
834.042, 91.158
835.320, 37.962
836.598, 159.866
837.875, 122.093
839.152, 78.013
840.429, 68.922
841.706, 172.764
842.983, 27.369
844.259, 47.320
845.536, 193.208
846.812, 31.908
848.088, 120.983
849.363, 44.397
850.639, 163.521
851.914, 92.359
853.189, 84.196
854.464, 196.130
855.739, 257.215
857.013, 281.035
858.288, 6.120
859.562, 86.926
860.836, 66.728
862.110, 181.522
863.383, 22.311
864.656, 220.093
865.930, 62.868
867.203, 156.638
868.475, 124.398
869.748, 16.160
871.020, 55.745
872.292, 60.167
873.564, 72.907
874.836, 35.643
876.108, 120.225
877.379, 52.949
878.650, 145.505
879.922, 125.215
881.192, 167.938
882.463, 43.665
883.733, 133.164
885.004, 30.125
886.274, 167.572
887.544, 90.075
888.813, 157.771
890.083, 42.073
891.352, 99.769
892.621, 75.430
893.890, 115.943
895.159, 154.152
896.427, 105.555
897.695, 37.139
898.964, 215.798
900.232, 92.451
901.499, 120.098
902.767, 181.752
904.034, 95.354
905.301, 13.851
906.568, 127.643
907.835, 93.130
909.102, 144.752
910.368, 116.086
911.634, 50.604
912.900, 158.041
914.166, 130.643
915.432, 224.932
916.697, 171.521
917.962, 2.889
919.227, 263.027
920.492, 38.603
921.757, 70.994
923.021, 76.196
924.285, 125.680
925.550, 226.891
926.813, 123.436
928.077, 126.595
929.341, 51.130
930.604, 119.521
931.867, 82.013
933.130, 134.497
934.393, 72.003
935.655, 95.511
936.918, 72.939
938.180, 116.426
939.442, 78.892
940.703, 99.364
941.965, 174.832
943.226, 141.157
944.488, 223.562
945.749, 81.755
947.009, 336.774
948.270, 172.233
949.530, 174.624
950.791, 218.787
952.051, 194.490
953.311, 1.106
954.570, 18.291
955.830, 167.146
957.089, 107.459
958.348, 219.187
959.607, 168.551
960.866, 39.161
962.124, 129.529
963.383, 106.814
964.641, 124.446
965.899, 4.635
967.156, 115.967
968.414, 116.504
969.671, 23.263
970.928, 98.130
972.185, 36.916
973.442, 121.716
974.699, 155.135
975.955, 115.678
977.211, 115.202
978.468, 31.070
979.723, 129.663
980.979, 166.266
982.234, 91.925
983.490, 238.272
984.745, 96.367
986.000, 121.766
987.254, 135.812
988.509, 18.975
989.763, 202.265
991.017, 195.341
992.271, 97.497
993.525, 159.751
994.779, 94.287
996.032, 236.787
997.285, 141.687
998.538, 99.246
999.791, 5.241
1001.044, 41.105
1002.296, 157.551
1003.548, 114.229
1004.800, 84.587
1006.052, 47.839
1007.304, 219.562
1008.555, 45.706
1009.807, 201.063
1011.058, 162.209
1012.309, 140.703
1013.559, 169.282
1014.810, 161.956
1016.060, 163.281
1017.310, 194.745
1018.560, 191.435
1019.810, 215.857
1021.060, 195.918
1022.309, 257.594
1023.558, 226.150
1024.807, 253.692
1026.056, 122.031
1027.305, 254.301
1028.553, 76.344
1029.801, 277.281
1031.049, 178.195
1032.297, 120.374
1033.545, 254.480
1034.793, 324.998
1036.040, 167.708
1037.287, 321.793
1038.534, 337.283
1039.781, 286.749
1041.027, 253.925
1042.274, 189.354
1043.520, 206.139
1044.766, 187.941
1046.012, 264.204
1047.257, 275.879
1048.503, 354.096
1049.748, 558.183
1050.993, 386.967
1052.238, 562.565
1053.483, 391.450
1054.727, 324.744
1055.971, 377.154
1057.216, 461.598
1058.459, 365.351
1059.703, 407.395
1060.947, 441.328
1062.190, 529.647
1063.433, 551.739
1064.676, 608.570
1065.919, 943.906
1067.162, 1414.856
1068.404, 2649.467
1069.646, 4100.139
1070.888, 8474.364
1072.130, 21115.855
1073.372, 41202.660
1074.613, 45811.609
1075.855, 28215.240
1077.096, 11871.401
1078.337, 5468.258
1079.578, 3085.622
1080.818, 1587.203
1082.059, 945.583
1083.299, 568.941
1084.539, 527.313
1085.779, 432.628
1087.018, 404.583
1088.258, 342.738
1089.497, 296.567
1090.736, 252.227
1091.975, 206.433
1093.213, 184.986
1094.452, 162.592
1095.690, 164.088
1096.928, 157.780
1098.166, 193.960
1099.404, 231.411
1100.642, 260.474
1101.879, 188.677
1103.116, 306.399
1104.353, 57.138
1105.590, 148.761
1106.827, 52.868
1108.063, 184.857
1109.299, 69.795
1110.536, 126.608
1111.771, 132.964
1113.007, 102.773
1114.243, 152.809
1115.478, 108.379
1116.713, 105.489
1117.948, 23.394
1119.183, 40.795
1120.418, 60.441
1121.652, 50.086
1122.886, 110.311
1124.120, 117.987
1125.354, 63.421
1126.588, 7.110
1127.821, 55.757
1129.055, 29.387
1130.288, 86.267
1131.521, 154.979
1132.753, 14.746
1133.986, 101.782
1135.218, 6.001
1136.450, 190.154
1137.682, 103.946
1138.914, 187.700
1140.146, 23.653
1141.377, 156.689
1142.609, 26.089
1143.840, 52.460
1145.071, 15.573
1146.301, 141.038
1147.532, 96.430
1148.762, 54.195
1149.992, 138.821
1151.222, 50.080
1152.452, 117.861
1153.682, 149.127
1154.911, 33.989
1156.140, 170.345
1157.369, 31.215
1158.598, 0.789
1159.827, 66.268
1161.055, 80.182
1162.284, 16.256
1163.512, 129.160
1164.740, 80.024
1165.967, 172.006
1167.195, 15.000
1168.422, 216.444
1169.650, 36.482
1170.877, 54.895
1172.103, 68.753
1173.330, 1.532
1174.557, 152.837
1175.783, 171.138
1177.009, 254.167
1178.235, 50.980
1179.461, 178.665
1180.686, 157.177
1181.912, 98.437
1183.137, 192.069
1184.362, 210.521
1185.587, 110.804
1186.811, 114.294
1188.036, 136.122
1189.260, 117.642
1190.484, 267.013
1191.708, 237.898
1192.932, 179.858
1194.155, 58.246
1195.378, 109.473
1196.602, 186.727
1197.825, 278.066
1199.047, 66.011
1200.270, 225.533
1201.492, 123.927
1202.715, 356.591
1203.937, 81.828
1205.159, 242.795
1206.380, 169.688
1207.602, 194.699
1208.823, 70.111
1210.044, 149.387
1211.265, 207.486
1212.486, 84.559
1213.707, 172.238
1214.927, 148.877
1216.147, 238.137
1217.367, 69.697
1218.587, 321.746
1219.807, 188.438
1221.027, 155.152
1222.246, 225.594
1223.465, 97.163
1224.684, 165.502
1225.903, 250.149
1227.121, 222.920
1228.340, 284.381
1229.558, 341.606
1230.776, 249.798
1231.994, 287.903
1233.212, 101.263
1234.429, 235.395
1235.646, 186.855
1236.864, 164.897
1238.081, 341.921
1239.297, 179.973
1240.514, 268.781
1241.730, 222.561
1242.947, 235.308
1244.163, 252.284
1245.378, 181.960
1246.594, 300.079
1247.810, 231.689
1249.025, 52.568
1250.240, 269.675
1251.455, 114.710
1252.670, 232.087
1253.885, 254.022
1255.099, 260.537
1256.313, 240.460
1257.527, 148.583
1258.741, 295.691
1259.955, 212.632
1261.168, 39.739
1262.382, 182.615
1263.595, 225.437
1264.808, 105.203
1266.021, 123.642
1267.233, 79.117
1268.446, 121.501
1269.658, 246.090
1270.870, 76.669
1272.082, 228.972
1273.294, 175.928
1274.505, 174.046
1275.716, 209.516
1276.928, 187.642
1278.139, 70.981
1279.349, 117.771
1280.560, 127.196
1281.770, 59.408
1282.981, 242.659
1284.191, 115.728
1285.401, 108.846
1286.610, 159.815
1287.820, 5.010
1289.029, 133.273
1290.239, 33.376
1291.448, 106.691
1292.656, 110.264
1293.865, 125.605
1295.073, 34.726
1296.282, 125.150
1297.490, 39.158
1298.698, 83.400
1299.906, 132.723
1301.113, 76.520
1302.320, 110.840
1303.528, 69.465
1304.735, 111.728
1305.942, 69.564
1307.148, 89.108
1308.355, 120.374
1309.561, 38.838
1310.767, 84.668
1311.973, 6.515
1313.179, 25.194
1314.384, 44.873
1315.590, 178.178
1316.795, 73.312
1318.000, 86.451
1319.205, 21.416
1320.410, 20.982
1321.614, 4.371
1322.819, 31.035
1324.023, 60.537
1325.227, 68.787
1326.431, 113.900
1327.634, 47.727
1328.838, 94.104
1330.041, 81.047
1331.244, 50.729
1332.447, 169.385
1333.650, 37.092
1334.852, 49.678
1336.055, 125.779
1337.257, 98.789
1338.459, 225.518
1339.661, 33.346
1340.862, 235.990
1342.064, 27.617
1343.265, 65.494
1344.466, 141.508
1345.667, 162.188
1346.868, 87.408
1348.068, 180.152
1349.269, 297.131
1350.469, 40.752
1351.669, 203.035
1352.869, 97.391
1354.069, 119.164
1355.268, 150.271
1356.468, 11.594
1357.667, 266.367
1358.866, 373.484
1360.065, 74.480
1361.263, 252.826
1362.462, 111.506
1363.660, 187.914
1364.858, 171.990
1366.056, 226.908
1367.254, 186.348
1368.451, 256.994
1369.649, 146.918
1370.846, 108.186
1372.043, 294.332
1373.240, 161.656
1374.436, 217.898
1375.633, 293.744
1376.829, 157.588
1378.025, 200.666
1379.221, 111.197
1380.417, 200.420
1381.613, 193.475
1382.808, 177.424
1384.003, 242.926
1385.199, 297.602
1386.393, 268.205
1387.588, 153.594
1388.783, 242.033
1389.977, 107.988
1391.171, 321.334
1392.365, 149.689
1393.559, 86.635
1394.753, 299.473
1395.946, 262.229
1397.140, 261.102
1398.333, 190.701
1399.526, 383.783
1400.719, 364.277
1401.911, 322.637
1403.104, 248.236
1404.296, 221.898
1405.488, 223.701
1406.680, 295.334
1407.872, 135.947
1409.063, 373.170
1410.255, 428.555
1411.446, 253.297
1412.637, 298.035
1413.828, 247.223
1415.018, 234.160
1416.209, 326.670
1417.399, 369.846
1418.589, 101.523
1419.779, 324.561
1420.969, 216.541
1422.159, 263.219
1423.348, 269.729
1424.537, 332.863
1425.726, 375.986
1426.915, 301.967
1428.104, 296.107
1429.293, 156.408
1430.481, 94.018
1431.669, 265.447
1432.857, 287.939
1434.045, 389.295
1435.233, 254.646
1436.420, 356.793
1437.608, 464.648
1438.795, 406.238
1439.982, 518.209
1441.169, 521.916
1442.355, 431.639
1443.542, 357.447
1444.728, 648.410
1445.914, 644.387
1447.100, 1001.711
1448.286, 1443.729
1449.472, 1574.381
1450.657, 1493.289
1451.842, 1323.199
1453.027, 971.479
1454.212, 643.393
1455.397, 732.334
1456.581, 346.572
1457.766, 436.104
1458.950, 585.111
1460.134, 389.129
1461.318, 504.887
1462.501, 300.281
1463.685, 274.859
1464.868, 432.328
1466.051, 206.713
1467.234, 583.201
1468.417, 369.518
1469.600, 275.762
1470.782, 370.932
1471.965, 414.273
1473.147, 225.738
1474.329, 506.340
1475.510, 378.074
1476.692, 310.990
1477.873, 310.111
1479.055, 236.486
1480.236, 280.754
1481.416, 426.141
1482.597, 171.551
1483.778, 358.992
1484.958, 259.500
1486.138, 247.043
1487.318, 221.602
1488.498, 195.416
1489.678, 323.859
1490.857, 270.566
1492.037, 225.320
1493.216, 436.203
1494.395, 282.209
1495.574, 294.322
1496.752, 218.590
1497.931, 205.033
1499.109, 342.664
1500.287, 226.533
1501.465, 323.594
1502.643, 139.861
1503.820, 72.652
1504.998, 250.045
1506.175, 213.984
1507.352, 182.199
1508.529, 89.732
1509.706, 162.629
1510.882, 221.938
1512.059, 227.711
1513.235, 211.004
1514.411, 311.875
1515.587, 42.652
1516.762, 205.564
1517.938, 118.531
1519.113, 216.799
1520.288, 323.064
1521.463, 246.568
1522.638, 106.416
1523.813, 0.875
1524.987, 0.000
##END=



