##NAMES=Strontiohurlbutite
##RRUFFID=R141104
##IDEAL CHEMISTRY=SrBe_2_(PO_4_)_2_
##LOCALITY=Nanping No. 31 pegmatite, Fujian province, southeastern China
##OWNER=Can Rao
##SOURCE=Can Rao
##DESCRIPTION=Light blue platy subhedral-to-anhedral crystals. Associated with quartz, muscovite, beryl, hurlbutite, hydroxylherderite, apatite-group minerals,  and phenakite. Data from Rao et al (2014)
##STATUS=The identification of this mineral has been confirmed by X-ray diffraction and chemical analysis
##URL=rruff.info/R141104
##MEASURED CHEMISTRY=(Sr_0.81_Ca_0.05_Ba_0.01_)_Î£=0.87_Be_2.02_P_2.05_O_8_; Be content determined using SIMS with a CamecaIMS-4F ion microprobe
108.8500, 0.0000000E+00
110.2400, 32.41586
111.6300, 64.31184
113.0100, 182.4066
114.4000, 173.7879
115.7900, 174.3921
117.1700, 85.42397
118.5600, 24.54370
119.9500, 0.6424920
121.3400, 3.047246
122.7200, 3.359504
124.1100, 2.3489000E-02
125.5000, 12.77901
126.8800, 59.06036
128.2700, 185.3550
129.6600, 295.8116
131.0400, 392.9699
132.4300, 523.4169
133.8200, 547.7365
135.2000, 579.5604
136.5900, 640.3406
137.9800, 721.5928
139.3600, 741.8940
140.7500, 768.8176
142.1400, 862.0006
143.5300, 1031.318
144.9100, 1271.837
146.3000, 1550.614
147.6900, 1756.023
149.0700, 1838.482
150.4600, 1787.979
151.8500, 1620.106
153.2300, 1290.363
154.6200, 1064.133
156.0100, 859.7132
157.3900, 651.0873
158.7800, 544.8843
160.1700, 540.5336
161.5500, 554.0158
162.9400, 591.4347
164.3300, 673.2928
165.7200, 842.5040
167.1000, 1051.102
168.4900, 1307.161
169.8800, 1634.040
171.2600, 2039.683
172.6500, 2781.684
174.0400, 3602.444
175.4200, 4320.382
176.8100, 4681.481
178.2000, 4183.006
179.5800, 3134.898
180.9700, 2325.363
182.3600, 1701.898
183.7400, 1161.150
185.1300, 805.8593
186.5200, 553.8090
187.9000, 406.0039
189.2900, 323.3382
190.6800, 239.8952
192.0700, 464.7911
193.4500, 491.5677
194.8400, 507.3260
196.2300, 613.2611
197.6100, 867.9717
199.0000, 1770.396
200.3900, 3345.133
201.7700, 5406.109
203.1600, 7454.483
204.5500, 8151.418
205.9300, 6255.751
207.3200, 3856.145
208.7100, 1885.183
210.0900, 921.4633
211.4800, 505.4067
212.8700, 217.0097
214.2600, 124.3945
215.6400, 160.9084
217.0300, 195.1490
218.4200, 23.11614
219.8000, 3.892988
221.1900, 3.890832
222.5800, 6.888606
223.9600, 2.792996
225.3500, 5.060302
226.7400, 7.401548
228.1200, 6.897518
229.5100, 6.681178
230.9000, 1.292373
232.2800, 93.54565
233.6700, 247.8757
235.0600, 494.6938
236.4400, 846.4417
237.8300, 1015.055
239.2200, 1032.016
240.6100, 1062.589
241.9900, 1216.689
243.3800, 1565.972
244.7700, 2039.863
246.1500, 2073.173
247.5400, 1900.183
248.9300, 1514.026
250.3100, 947.9564
251.7000, 687.7965
253.0900, 415.9488
254.4700, 411.3802
255.8600, 603.8937
257.2500, 800.7853
258.6300, 732.6204
260.0200, 700.7918
261.4100, 614.5403
262.8000, 463.9652
264.1800, 280.8662
265.5700, 89.13998
266.9600, 8.085715
268.3400, 1.958073
269.7300, 0.1911680
271.1200, 5.317581
272.5000, 4.310008
273.8900, 4.161209
275.2800, 4.579515
276.6600, 5.926429
278.0500, 180.5968
279.4400, 426.5030
280.8200, 708.5598
282.2100, 898.2249
283.6000, 885.3742
284.9900, 571.5646
286.3700, 336.9835
287.7600, 158.8646
289.1500, 24.93502
290.5300, 0.3304610
291.9200, 6.110689
293.3100, 0.1782710
294.6900, 4.818052
296.0800, 0.2392640
297.4700, 0.8637770
298.8500, 0.7945270
300.2400, 5.2320998E-02
301.6300, 0.6640450
303.0100, 0.2894040
304.4000, 1.121486
305.7900, 0.9850250
307.1800, 1.162048
308.5600, 0.5835080
309.9500, 0.6465450
311.3400, 2.505432
312.7200, 3.589324
314.1100, 0.1230650
315.5000, 1.898376
316.8800, 0.4610300
318.2700, 141.0811
319.6600, 177.0927
321.0400, 339.7761
322.4300, 661.2808
323.8200, 1014.402
325.2000, 1403.351
326.5900, 2121.619
327.9800, 2566.992
329.3600, 2692.479
330.7500, 2602.052
332.1400, 2390.617
333.5300, 2108.144
334.9100, 1981.638
336.3000, 2242.492
337.6900, 2785.641
339.0700, 3538.876
340.4600, 4511.470
341.8500, 5101.577
343.2300, 5132.910
344.6200, 4534.622
346.0100, 3491.753
347.3900, 2482.615
348.7800, 1644.271
350.1700, 1110.515
351.5500, 759.1783
352.9400, 527.9857
354.3300, 414.1508
355.7200, 168.3533
357.1000, 200.6538
358.4900, 193.3655
359.8800, 105.1287
361.2600, 121.3283
362.6500, 42.96348
364.0400, 31.13473
365.4200, 0.7367090
366.8100, 0.4604030
368.2000, 9.350150
369.5800, 0.8067400
370.9700, 0.2816590
372.3600, 5.7964999E-02
373.7400, 1.2250000E-02
375.1300, 0.4772720
376.5200, 2.2996999E-02
377.9000, 0.1700520
379.2900, 1.8100001E-02
380.6800, 1.0560000E-02
382.0700, 20.43884
383.4500, 48.67387
384.8400, 56.03818
386.2300, 157.7993
387.6100, 314.5915
389.0000, 512.4587
390.3900, 897.3027
391.7700, 1370.853
393.1600, 1640.350
394.5500, 1671.678
395.9300, 1457.048
397.3200, 970.2581
398.7100, 385.6569
400.0900, 233.0708
401.4800, 148.4966
402.8700, 2.806329
404.2600, 2.303396
405.6400, 0.7996480
407.0300, 0.5563220
408.4200, 42.18586
409.8000, 45.27296
411.1900, 39.27990
412.5800, 341.3028
413.9600, 595.3407
415.3500, 927.3970
416.7400, 1404.471
418.1200, 2069.559
419.5100, 2962.667
420.9000, 3784.788
422.2800, 3781.927
423.6700, 3138.023
425.0600, 2195.130
426.4400, 1258.253
427.8300, 932.3930
429.2200, 677.5486
430.6100, 555.7170
431.9900, 697.9015
433.3800, 1259.098
434.7700, 1860.331
436.1500, 2636.909
437.5400, 3364.876
438.9300, 4068.195
440.3100, 4851.541
441.7000, 5386.551
443.0900, 4906.685
444.4700, 3786.092
445.8600, 2374.540
447.2500, 1097.204
448.6300, 570.2771
450.0200, 209.5334
451.4100, 60.77081
452.8000, 29.00496
454.1800, 3.199578
455.5700, 2.927253
456.9600, 3.521790
458.3400, 2.975762
459.7300, 2.920306
461.1200, 0.8860960
462.5000, 2.822135
463.8900, 207.7552
465.2800, 288.2377
466.6600, 466.4358
468.0500, 662.0992
469.4400, 703.6551
470.8200, 353.0015
472.2100, 170.8787
473.6000, 2.405306
474.9900, 0.1731460
476.3700, 0.5709120
477.7600, 0.6439550
479.1500, 0.1076020
480.5300, 1.337006
481.9200, 0.4773650
483.3100, 7.4222997E-02
484.6900, 108.0281
486.0800, 318.2514
487.4700, 811.7305
488.8500, 1565.808
490.2400, 2301.875
491.6300, 2738.596
493.0100, 2686.006
494.4000, 2130.812
495.7900, 1592.075
497.1700, 1112.374
498.5600, 611.3000
499.9500, 27.80943
501.3400, 0.4533120
502.7200, 5.6529000E-02
504.1100, 8.029158
505.5000, 55.02993
506.8800, 43.16165
508.2700, 0.2685110
509.6600, 0.3553960
511.0400, 0.1322940
512.4300, 9.6336998E-02
513.8200, 83.25883
515.2000, 180.6890
516.5900, 169.2118
517.9800, 102.8231
519.3600, 51.49023
520.7500, 0.1893700
522.1400, 0.3382360
523.5300, 3.3229999E-03
524.9100, 41.58255
526.3000, 401.8256
527.6900, 961.0366
529.0700, 1498.220
530.4600, 1717.372
531.8500, 1536.199
533.2300, 1296.950
534.6200, 1050.012
536.0100, 927.3959
537.3900, 958.3309
538.7800, 1009.766
540.1700, 1208.375
541.5500, 1520.250
542.9400, 1926.711
544.3300, 2631.111
545.7200, 3852.905
547.1000, 5533.549
548.4900, 8035.490
549.8800, 9523.416
551.2600, 9645.328
552.6500, 8346.246
554.0400, 5848.177
555.4200, 3725.147
556.8100, 2356.166
558.2000, 1462.216
559.5800, 1002.296
560.9700, 910.0295
562.3600, 939.6883
563.7400, 1241.956
565.1300, 1599.183
566.5200, 1927.451
567.9100, 2310.077
569.2900, 2985.855
570.6800, 4495.105
572.0700, 7163.428
573.4500, 9909.114
574.8400, 11750.67
576.2300, 11812.76
577.6100, 9607.607
579.0000, 6972.700
580.3900, 4824.702
581.7700, 3957.757
583.1600, 4166.854
584.5500, 5011.015
585.9300, 6299.181
587.3200, 6974.348
588.7100, 6547.490
590.0900, 5100.634
591.4800, 3378.786
592.8700, 2191.220
594.2600, 1327.589
595.6400, 865.7705
597.0300, 669.0175
598.4200, 571.2725
599.8000, 590.5613
601.1900, 898.9302
602.5800, 1624.388
603.9600, 2398.876
605.3500, 2504.454
606.7400, 1985.003
608.1200, 1157.538
609.5100, 452.0735
610.9000, 246.6224
612.2800, 127.1440
613.6700, 49.85226
615.0600, 24.59238
616.4500, 49.23931
617.8300, 71.20963
619.2200, 53.48568
620.6100, 23.57161
621.9900, 1.706362
623.3800, 5.6290001E-02
624.7700, 2.954710
626.1500, 3.075363
627.5400, 2.949688
628.9300, 0.4641810
630.3100, 4.050144
631.7000, 4.167650
633.0900, 1.837278
634.4700, 0.6660770
635.8600, 0.2465930
637.2500, 3.599551
638.6400, 0.2786400
640.0200, 3.841098
641.4100, 4.091087
642.8000, 4.053552
644.1800, 7.9402998E-02
645.5700, 0.2017630
646.9600, 4.206220
648.3400, 4.244491
649.7300, 4.512044
651.1200, 0.1271620
652.5000, 4.436144
653.8900, 6.9563001E-02
655.2800, 4.383223
656.6600, 4.0061999E-02
658.0500, 4.407369
659.4400, 7.6747000E-02
660.8200, 0.1470450
662.2100, 6.7028999E-02
663.6000, 4.432106
664.9900, 1.125751
666.3700, 5.7287000E-02
667.7600, 0.8298710
669.1500, 5.294102
670.5300, 167.7608
671.9200, 193.3224
673.3100, 61.92971
674.6900, 119.6599
676.0800, 20.36132
677.4700, 202.6411
678.8500, 322.9308
680.2400, 367.8004
681.6300, 408.8221
683.0100, 515.8553
684.4000, 450.7159
685.7900, 648.9687
687.1800, 853.4154
688.5600, 1000.649
689.9500, 1032.320
691.3400, 908.2095
692.7200, 980.6190
694.1100, 785.5355
695.5000, 784.1168
696.8800, 770.2958
698.2700, 692.8366
699.6600, 726.9716
701.0400, 681.3433
702.4300, 753.3991
703.8200, 661.7191
705.2000, 621.7236
706.5900, 696.1700
707.9800, 760.1744
709.3600, 745.4354
710.7500, 614.1177
712.1400, 746.0560
713.5300, 648.0699
714.9100, 443.2527
716.3000, 552.1684
717.6900, 540.0135
719.0700, 829.7822
720.4600, 770.4085
721.8500, 765.5854
723.2300, 818.8232
724.6200, 712.2335
726.0100, 373.7381
727.3900, 419.0551
728.7800, 534.3103
730.1700, 610.0221
731.5500, 606.2170
732.9400, 530.9129
734.3300, 433.6491
735.7200, 545.2674
737.1000, 634.8726
738.4900, 562.5400
739.8800, 538.4048
741.2600, 672.9639
742.6500, 777.9960
744.0400, 784.4162
745.4200, 881.3455
746.8100, 947.3138
748.2000, 921.6702
749.5800, 940.9902
750.9700, 1164.847
752.3600, 1085.060
753.7400, 1158.999
755.1300, 1173.290
756.5200, 1064.206
757.9000, 938.1539
759.2900, 961.5804
760.6800, 1155.919
762.0700, 1164.216
763.4500, 1261.844
764.8400, 1247.712
766.2300, 1242.373
767.6100, 1306.226
769.0000, 1215.065
770.3900, 1183.735
771.7700, 1279.941
773.1600, 1304.897
774.5500, 1274.387
775.9300, 1263.529
777.3200, 1333.908
778.7100, 1238.138
780.0900, 1224.960
781.4800, 1231.714
782.8700, 1158.216
784.2600, 1085.760
785.6400, 1149.441
787.0300, 1268.694
788.4200, 1248.176
789.8000, 1147.346
791.1900, 1088.154
792.5800, 1087.354
793.9600, 1115.422
795.3500, 1125.038
796.7400, 993.8326
798.1200, 1188.165
799.5100, 1118.851
800.9000, 1136.798
802.2800, 1225.859
803.6700, 1155.992
805.0600, 1153.077
806.4500, 1066.411
807.8300, 1010.639
809.2200, 926.0234
810.6100, 878.6365
811.9900, 835.8835
813.3800, 611.6351
814.7700, 426.7499
816.1500, 592.6292
817.5400, 677.6141
818.9300, 627.2086
820.3100, 604.0677
821.7000, 703.7761
823.0900, 521.6852
824.4700, 517.7493
825.8600, 505.2568
827.2500, 488.1571
828.6300, 412.8759
830.0200, 338.7445
831.4100, 393.7776
832.8000, 292.3178
834.1800, 334.9194
835.5700, 120.7712
836.9600, 161.0732
838.3400, 325.3153
839.7300, 274.7278
841.1200, 126.0977
842.5000, 120.7438
843.8900, 233.8805
845.2800, 180.2319
846.6600, 199.3003
848.0500, 256.1147
849.4400, 134.6707
850.8200, 139.9434
852.2100, 231.9260
853.6000, 308.6055
854.9900, 330.0151
856.3700, 367.1720
857.7600, 408.1131
859.1500, 330.8703
860.5300, 234.4346
861.9200, 265.7747
863.3100, 325.9167
864.6900, 239.8294
866.0800, 129.5205
867.4700, 145.9950
868.8500, 197.2215
870.2400, 136.2334
871.6300, 94.01154
873.0100, 42.55126
874.4000, 4.030178
875.7900, 0.3005440
877.1700, 27.54322
878.5600, 2.854802
879.9500, 1.876655
881.3400, 76.09876
882.7200, 2.187693
884.1100, 0.2865280
885.5000, 4.201718
886.8800, 9.5789999E-02
888.2700, 4.605904
889.6600, 4.572344
891.0400, 4.458348
892.4300, 0.2963070
893.8200, 4.946363
895.2000, 4.086947
896.5900, 0.1049810
897.9800, 5.252925
899.3600, 0.1149990
900.7500, 5.376655
902.1400, 0.3245700
903.5300, 4.728812
904.9100, 5.649877
906.3000, 2.4439000E-02
907.6900, 0.2450180
909.0700, 0.2536360
910.4600, 4.083182
911.8500, 6.241704
913.2300, 0.5346410
914.6200, 6.394260
916.0100, 6.563900
917.3900, 5.133420
918.7800, 2.540004
920.1700, 6.847735
921.5500, 6.930354
922.9400, 0.1054640
924.3300, 2.739125
925.7100, 6.230283
927.1000, 0.1241780
928.4900, 5.736469
929.8800, 1.692692
931.2600, 0.7262570
932.6500, 7.932554
934.0400, 8.161412
935.4200, 0.7671460
936.8100, 0.9322050
938.2000, 0.6424860
939.5800, 8.758262
940.9700, 6.877932
942.3600, 0.2840950
943.7400, 1.313397
945.1300, 0.8434050
946.5200, 141.8089
947.9000, 9.498396
949.2900, 5.197793
950.6800, 0.3534760
952.0700, 78.50822
953.4500, 197.6115
954.8400, 104.4537
956.2300, 60.27043
957.6100, 355.1541
959.0000, 441.6129
960.3900, 389.8996
961.7700, 355.7953
963.1600, 447.2830
964.5500, 640.2213
965.9300, 754.6271
967.3200, 571.9175
968.7100, 696.3384
970.0900, 693.2678
971.4800, 625.9691
972.8700, 588.0869
974.2600, 604.7084
975.6400, 647.7389
977.0300, 843.0279
978.4200, 1029.584
979.8000, 1123.659
981.1900, 1269.331
982.5800, 1559.842
983.9600, 1780.873
985.3500, 1712.725
986.7400, 2055.765
988.1200, 2547.146
989.5100, 2679.148
990.9000, 2957.703
992.2800, 3438.791
993.6700, 3945.672
995.0600, 4384.592
996.4400, 4995.717
997.8300, 5514.830
999.2200, 6473.884
1000.600, 7395.989
1001.900, 8597.818
1003.300, 10094.74
1004.700, 11695.42
1006.100, 13434.38
1007.500, 15654.64
1008.900, 17877.48
1010.300, 21009.21
1011.700, 24560.16
1013.000, 28581.94
1014.400, 32822.92
1015.800, 37092.32
1017.200, 42116.46
1018.600, 46766.31
1020.000, 50358.50
1021.400, 52594.78
1022.800, 52920.05
1024.100, 51105.36
1025.500, 47016.88
1026.900, 40854.40
1028.300, 34619.39
1029.700, 28897.45
1031.100, 24186.09
1032.500, 20626.97
1033.800, 17766.61
1035.200, 15572.41
1036.600, 14177.80
1038.000, 13247.98
1039.400, 12380.03
1040.800, 11059.53
1042.200, 9796.803
1043.600, 8619.772
1044.900, 7564.491
1046.300, 6746.136
1047.700, 6173.296
1049.100, 5507.866
1050.500, 5462.433
1051.900, 5514.786
1053.300, 5253.908
1054.600, 4807.844
1056.000, 4281.877
1057.400, 3913.321
1058.800, 3905.896
1060.200, 3298.275
1061.600, 3332.573
1063.000, 2661.119
1064.400, 2388.855
1065.700, 2342.538
1067.100, 2245.481
1068.500, 2012.932
1069.900, 1792.130
1071.300, 2047.627
1072.700, 2274.342
1074.100, 2908.970
1075.500, 3146.732
1076.800, 3115.804
1078.200, 3075.065
1079.600, 3007.680
1081.000, 2672.671
1082.400, 2078.523
1083.800, 1823.896
1085.200, 1547.504
1086.500, 1287.582
1087.900, 1220.463
1089.300, 1316.129
1090.700, 1364.203
1092.100, 1284.094
1093.500, 1684.664
1094.900, 2188.062
1096.300, 2662.047
1097.600, 2936.319
1099.000, 2797.374
1100.400, 2210.551
1101.800, 1459.009
1103.200, 1028.255
1104.600, 921.5539
1106.000, 544.0789
1107.300, 507.1308
1108.700, 548.3860
1110.100, 656.3180
1111.500, 763.3860
1112.900, 921.4860
1114.300, 1332.046
1115.700, 1176.590
1117.100, 989.5271
1118.400, 942.2142
1119.800, 604.6437
1121.200, 309.0362
1122.600, 161.3747
1124.000, 147.4598
1125.400, 331.0211
1126.800, 504.7910
1128.200, 475.3761
1129.500, 987.8262
1130.900, 1551.650
1132.300, 2168.288
1133.700, 2609.602
1135.100, 2738.103
1136.500, 2629.233
1137.900, 2159.478
1139.200, 1185.807
1140.600, 598.9655
1142.000, 211.1820
1143.400, 294.3127
1144.800, 311.0298
1146.200, 143.3920
1147.600, 348.5527
1149.000, 546.3459
1150.300, 548.6390
1151.700, 451.8225
1153.100, 532.9778
1154.500, 504.0001
1155.900, 477.6415
1157.300, 551.7800
1158.700, 555.1864
1160.100, 228.1294
1161.400, 29.23210
1162.800, 232.7076
1164.200, 106.3902
1165.600, 1.002254
1167.000, 156.1715
1168.400, 6.621536
1169.800, 271.4936
1171.100, 501.1943
1172.500, 1124.618
1173.900, 1219.875
1175.300, 2100.195
1176.700, 2279.563
1178.100, 2477.925
1179.500, 2420.187
1180.900, 2061.240
1182.200, 1595.559
1183.600, 1030.504
1185.000, 634.3980
1186.400, 84.80974
1187.800, 47.84551
1189.200, 43.05243
1190.600, 40.78199
1191.900, 77.70328
1193.300, 45.73998
1194.700, 53.42159
1196.100, 35.21948
1197.500, 315.4608
1198.900, 58.56078
1200.300, 84.58885
1201.700, 68.17937
1203.000, 48.48235
1204.400, 50.62272
1205.800, 71.84879
1207.200, 87.33408
1208.600, 98.21317
1210.000, 77.14288
1211.400, 97.69263
1212.800, 76.67995
1214.100, 71.94809
1215.500, 59.83389
1216.900, 108.8229
1218.300, 75.65672
1219.700, 58.10736
1221.100, 40.65783
1222.500, 85.44540
1223.800, 45.54458
1225.200, 97.09216
1226.600, 85.77275
1228.000, 27.11648
1229.400, 26.14975
1230.800, 44.77427
1232.200, 19.63663
1233.600, 36.55257
1234.900, 63.08354
1236.300, 29.35366
1237.700, 14.98917
1239.100, 12.88931
1240.500, 13.34614
1241.900, 10.82680
1243.300, 22.97600
1244.600, 5.779202
1246.000, 6.632465
1247.400, 3.919453
1248.800, 2.311672
1250.200, 1.205551
1251.600, 1.116438
1253.000, 1.201794
1254.400, 3.717500
1255.700, 47.91695
1257.100, 0.6541280
1258.500, 0.3245060
1259.900, 0.3158080
1261.300, 0.8195410
1262.700, 0.2558780
1264.100, 0.2189480
1265.500, 0.1990010
1266.800, 9.871205
1268.200, 0.2525820
1269.600, 0.3917460
1271.000, 16.47131
1272.400, 1.3390000E-03
1273.800, 1.291907
1275.200, 0.4737200
1276.500, 1.774114
1277.900, 1.119578
1279.300, 0.2311910
1280.700, 2.212138
1282.100, 7.851902
1283.500, 2.401257
1284.900, 0.4466660
1286.300, 3.078991
1287.600, 2.379272
1289.000, 3.425284
1290.400, 3.252157
1291.800, 0.1623920
1293.200, 3.400699
1294.600, 4.008979
1296.000, 4.1953001E-02
1297.300, 2.733863
1298.700, 4.442373
1300.100, 3.497588
1301.500, 0.1309870
1302.900, 4.158084
1304.300, 149.2902
1305.700, 79.73209
1307.100, 0.4112340
1308.400, 0.2506140
1309.800, 0.3164680
1311.200, 4.691539
1312.600, 6.559063
1314.000, 1.170345
1315.400, 7.133897
1316.800, 3.828617
1318.200, 7.034076
1319.500, 0.4219280
1320.900, 6.142530
1322.300, 4.679492
1323.700, 4.373791
1325.100, 4.241586
1326.500, 1.687337
1327.900, 0.2892910
1329.200, 0.6556000
1330.600, 9.283346
1332.000, 10.13881
1333.400, 6.4763002E-02
1334.800, 9.851624
1336.200, 2.657211
1337.600, 10.55322
1339.000, 5.4970000E-02
1340.300, 11.93076
1341.700, 0.6571540
1343.100, 1.128905
1344.500, 7.223108
1345.900, 12.18702
1347.300, 0.7256760
1348.700, 0.2476720
1350.100, 2.903255
1351.400, 0.6981290
1352.800, 1.002900
1354.200, 2.655787
1355.600, 12.12227
1357.000, 14.16329
1358.400, 66.99403
1359.800, 16.02269
1361.100, 1.639879
1362.500, 13.16906
1363.900, 1.545660
1365.300, 2.407868
1366.700, 16.71522
1368.100, 16.88206
1369.500, 12.99420
1370.900, 18.48180
1372.200, 5.986137
1373.600, 180.2440
##END=



