##NAMES=Strontianite
##RRUFFID=R040037
##IDEAL CHEMISTRY=SrCO_3_
##LOCALITY=Alston Moor, Cumbria, England
##OWNER=RRUFF
##SOURCE=University of Arizona Mineral Museum
##DESCRIPTION=Group of tan colored crystals
##STATUS=The identification of this mineral has been confirmed by X-ray diffraction and chemical analysis
##URL=rruff.info/R040037
##MEASURED CHEMISTRY=(Sr_0.91_Ca_0.09_)_Î£=1_CO_3_; CO_2_ estimated by difference
##PIN_ID=L00119
##ORIENTATION=Laser parallel to -c* (0 0 -1). Fiducial mark perpendicular to laser is parallel to a [1 0 0]
93.375, 0.000
94.768, 3.752
96.161, 73.862
97.554, 134.958
98.947, 277.774
100.340, 337.163
101.732, 343.209
103.124, 392.656
104.516, 316.635
105.908, 337.510
107.300, 253.805
108.691, 382.149
110.082, 412.258
111.473, 463.904
112.864, 544.901
114.254, 564.093
115.644, 430.348
117.034, 392.551
118.424, 234.603
119.813, 219.421
121.203, 231.933
122.592, 208.080
123.981, 197.815
125.369, 235.103
126.758, 228.902
128.146, 204.177
129.534, 321.890
130.922, 258.008
132.309, 324.504
133.696, 264.351
135.083, 316.527
136.470, 273.001
137.857, 306.745
139.243, 309.739
140.630, 364.964
142.016, 425.408
143.401, 443.068
144.787, 511.923
146.172, 587.968
147.557, 628.194
148.942, 620.590
150.327, 536.166
151.711, 450.932
153.096, 446.909
154.480, 382.085
155.863, 348.479
157.247, 388.015
158.630, 325.710
160.013, 302.524
161.396, 367.491
162.779, 369.512
164.161, 421.647
165.544, 482.899
166.926, 498.247
168.308, 581.684
169.689, 686.205
171.070, 837.809
172.452, 866.500
173.833, 989.278
175.213, 1061.133
176.594, 1211.029
177.974, 1547.896
179.354, 1875.745
180.734, 2250.591
182.114, 2571.467
183.493, 2793.363
184.872, 2706.304
186.251, 2452.292
187.630, 1936.326
189.008, 1363.410
190.387, 1061.533
191.765, 814.990
193.143, 637.192
194.520, 508.458
195.898, 480.784
197.275, 341.162
198.652, 337.816
200.029, 322.295
201.405, 220.818
202.782, 203.386
204.158, 171.065
205.534, 192.287
206.909, 150.034
208.285, 145.768
209.660, 182.376
211.035, 165.385
212.410, 114.178
213.784, 106.278
215.159, 106.087
216.533, 111.390
217.907, 97.421
219.281, 115.400
220.654, 41.417
222.027, 84.425
223.400, 61.835
224.773, 26.939
226.146, 56.839
227.518, 83.006
228.891, 1.792
230.263, 35.445
231.634, 131.720
233.006, 83.040
234.377, 129.152
235.748, 140.540
237.119, 114.485
238.490, 112.042
239.860, 218.558
241.231, 274.115
242.601, 322.701
243.970, 443.313
245.340, 506.959
246.709, 510.636
248.079, 587.337
249.448, 589.061
250.816, 581.600
252.185, 557.396
253.553, 605.230
254.921, 599.085
256.289, 650.960
257.657, 798.871
259.024, 892.359
260.391, 886.801
261.758, 863.903
263.125, 823.298
264.492, 644.934
265.858, 524.775
267.224, 400.795
268.590, 325.057
269.956, 268.375
271.321, 245.818
272.687, 197.609
274.052, 121.280
275.416, 193.228
276.781, 169.086
278.146, 36.029
279.510, 90.055
280.874, 126.745
282.237, 77.982
283.601, 50.218
284.964, 16.516
286.327, 111.871
287.690, 40.279
289.053, 16.255
290.416, 68.258
291.778, 8.876
293.140, 79.937
294.502, 68.590
295.863, 13.400
297.225, 19.171
298.586, 49.411
299.947, 38.217
301.308, 35.057
302.668, 13.060
304.029, 24.065
305.389, 28.015
306.749, 24.994
308.108, 61.076
309.468, 34.132
310.827, 35.216
312.186, 4.671
313.545, 25.465
314.903, 20.374
316.262, 6.191
317.620, 40.017
318.978, 3.755
320.336, 12.495
321.693, 51.764
323.051, 55.948
324.408, 29.648
325.765, 12.666
327.121, 11.003
328.478, 51.656
329.834, 7.543
331.190, 31.830
332.546, 11.103
333.902, 27.338
335.257, 71.245
336.612, 45.708
337.967, 39.857
339.322, 32.415
340.677, 31.961
342.031, 3.745
343.385, 58.220
344.739, 13.708
346.093, 48.208
347.446, 51.279
348.799, 39.239
350.153, 6.231
351.505, 6.689
352.858, 20.868
354.210, 62.437
355.563, 5.985
356.915, 18.396
358.267, 22.202
359.618, 9.813
360.969, 57.432
362.321, 7.060
363.672, 13.758
365.022, 67.410
366.373, 2.071
367.723, 24.740
369.073, 38.929
370.423, 32.611
371.773, 42.268
373.122, 1.586
374.471, 22.842
375.821, 6.524
377.169, 55.212
378.518, 13.040
379.866, 0.359
381.215, 8.587
382.563, 14.270
383.910, 21.845
385.258, 31.517
386.605, 34.720
387.952, 51.234
389.299, 42.929
390.646, 50.630
391.992, 52.377
393.339, 38.257
394.685, 42.854
396.031, 19.222
397.376, 23.989
398.722, 36.707
400.067, 56.426
401.412, 39.150
402.757, 18.878
404.101, 25.609
405.446, 13.822
406.790, 64.910
408.134, 67.763
409.478, 67.499
410.821, 21.244
412.165, 23.984
413.508, 34.935
414.851, 16.674
416.193, 48.415
417.536, 34.157
418.878, 50.564
420.220, 48.310
421.562, 12.928
422.904, 86.491
424.245, 59.274
425.586, 27.070
426.927, 72.877
428.268, 39.693
429.609, 13.482
430.949, 83.341
432.289, 48.171
433.629, 8.308
434.969, 27.164
436.309, 33.986
437.648, 57.849
438.987, 76.879
440.326, 21.731
441.665, 20.352
443.003, 17.488
444.342, 50.459
445.680, 71.305
447.018, 73.152
448.355, 58.002
449.693, 29.836
451.030, 27.512
452.367, 20.521
453.704, 14.176
455.041, 36.489
456.377, 6.653
457.713, 23.467
459.049, 8.311
460.385, 32.148
461.721, 51.986
463.056, 47.285
464.391, 6.030
465.726, 43.937
467.061, 40.757
468.395, 28.565
469.730, 173.379
471.064, 40.729
472.398, 135.918
473.731, 112.680
475.065, 50.759
476.398, 80.250
477.731, 110.537
479.064, 83.339
480.397, 76.465
481.729, 66.261
483.062, 49.052
484.394, 48.430
485.725, 112.619
487.057, 57.396
488.389, 38.121
489.720, 8.723
491.051, 77.484
492.382, 11.234
493.712, 14.910
495.043, 65.806
496.373, 14.382
497.703, 59.081
499.032, 53.804
500.362, 52.879
501.691, 22.777
503.020, 60.450
504.349, 69.117
505.678, 102.778
507.007, 117.433
508.335, 56.634
509.663, 87.277
510.991, 126.855
512.319, 78.452
513.646, 93.074
514.973, 98.849
516.300, 214.322
517.627, 40.891
518.954, 40.486
520.280, 135.074
521.607, 83.932
522.933, 36.505
524.259, 88.202
525.584, 86.760
526.910, 101.307
528.235, 2.152
529.560, 104.368
530.885, 0.121
532.209, 31.896
533.534, 18.354
534.858, 90.821
536.182, 73.279
537.506, 39.729
538.829, 47.711
540.152, 29.943
541.476, 148.453
542.799, 23.159
544.121, 136.195
545.444, 92.542
546.766, 29.878
548.088, 77.203
549.410, 92.519
550.732, 43.827
552.053, 13.126
553.375, 40.425
554.696, 20.713
556.017, 45.988
557.337, 67.252
558.658, 80.600
559.978, 54.352
561.298, 80.783
562.618, 67.008
563.938, 1.776
565.257, 72.662
566.576, 38.159
567.895, 118.976
569.214, 54.378
570.533, 72.492
571.851, 39.738
573.170, 135.829
574.488, 70.911
575.805, 99.099
577.123, 29.148
578.440, 66.952
579.758, 114.962
581.075, 25.301
582.391, 90.286
583.708, 64.259
585.024, 72.222
586.341, 73.174
587.657, 59.375
588.972, 75.959
590.288, 64.895
591.603, 10.656
592.918, 57.315
594.233, 104.378
595.548, 71.060
596.863, 42.871
598.177, 16.707
599.491, 15.425
600.805, 65.869
602.119, 45.586
603.432, 64.643
604.746, 132.413
606.059, 83.438
607.372, 17.171
608.685, 173.008
609.997, 75.513
611.309, 29.159
612.621, 22.787
613.933, 59.541
615.245, 41.204
616.557, 124.983
617.868, 67.142
619.179, 72.052
620.490, 10.346
621.801, 108.223
623.111, 12.568
624.421, 171.361
625.731, 51.112
627.041, 115.362
628.351, 31.102
629.660, 37.544
630.970, 130.081
632.279, 45.056
633.588, 93.490
634.896, 32.917
636.205, 179.288
637.513, 40.823
638.821, 94.437
640.129, 115.818
641.437, 101.263
642.744, 84.573
644.051, 124.067
645.358, 56.369
646.665, 53.641
647.972, 56.278
649.278, 109.528
650.584, 44.088
651.890, 171.330
653.196, 72.660
654.502, 112.335
655.807, 61.581
657.113, 49.767
658.418, 120.000
659.722, 108.984
661.027, 103.180
662.331, 114.522
663.636, 149.732
664.940, 59.008
666.244, 168.115
667.547, 62.235
668.851, 11.353
670.154, 92.675
671.457, 52.772
672.760, 81.016
674.062, 35.090
675.365, 96.184
676.667, 96.407
677.969, 44.473
679.271, 127.744
680.572, 9.879
681.874, 86.816
683.175, 137.744
684.476, 116.658
685.777, 161.199
687.077, 88.088
688.378, 239.534
689.678, 194.403
690.978, 376.699
692.278, 500.551
693.577, 1061.664
694.877, 1568.545
696.176, 2445.378
697.475, 3176.911
698.774, 3874.994
700.072, 3829.076
701.371, 2955.871
702.669, 1573.628
703.967, 906.053
705.265, 613.043
706.562, 414.041
707.860, 186.690
709.157, 287.908
710.454, 105.463
711.751, 127.724
713.047, 105.333
714.344, 62.985
715.640, 22.622
716.936, 44.434
718.232, 101.056
719.527, 123.696
720.823, 106.538
722.118, 132.222
723.413, 93.667
724.708, 31.219
726.002, 169.752
727.297, 48.280
728.591, 83.635
729.885, 116.190
731.179, 54.873
732.472, 7.463
733.766, 60.458
735.059, 125.909
736.352, 25.488
737.645, 105.627
738.937, 189.047
740.230, 102.625
741.522, 112.024
742.814, 129.468
744.106, 93.845
745.397, 76.215
746.689, 1.425
747.980, 134.739
749.271, 34.058
750.562, 110.549
751.853, 4.105
753.143, 106.007
754.433, 85.292
755.723, 44.504
757.013, 158.778
758.303, 19.913
759.592, 75.164
760.881, 20.569
762.170, 128.797
763.459, 48.153
764.748, 2.061
766.036, 158.128
767.325, 28.088
768.613, 59.256
769.901, 50.396
771.188, 37.258
772.476, 126.384
773.763, 18.503
775.050, 136.609
776.337, 103.325
777.624, 90.412
778.910, 19.349
780.196, 104.569
781.482, 59.687
782.768, 12.739
784.054, 82.240
785.339, 45.891
786.625, 36.089
787.910, 63.856
789.195, 62.976
790.479, 78.397
791.764, 29.633
793.048, 11.217
794.332, 59.157
795.616, 41.088
796.900, 129.083
798.183, 24.998
799.467, 67.900
800.750, 99.685
802.033, 41.568
803.316, 108.339
804.598, 89.032
805.880, 57.784
807.163, 42.698
808.445, 86.553
809.726, 59.133
811.008, 101.495
812.289, 57.161
813.570, 55.995
814.851, 60.820
816.132, 22.710
817.413, 51.280
818.693, 32.477
819.973, 80.215
821.253, 65.310
822.533, 63.086
823.813, 7.776
825.092, 58.564
826.371, 20.279
827.650, 58.049
828.929, 49.484
830.208, 15.436
831.486, 50.184
832.764, 1.965
834.042, 14.696
835.320, 135.293
836.598, 83.392
837.875, 155.125
839.152, 33.025
840.429, 168.759
841.706, 91.487
842.983, 28.450
844.259, 68.174
845.536, 68.894
846.812, 3.607
848.088, 40.623
849.363, 65.356
850.639, 79.490
851.914, 1.309
853.189, 24.996
854.464, 63.688
855.739, 148.383
857.013, 119.072
858.288, 8.756
859.562, 4.432
860.836, 128.100
862.110, 75.103
863.383, 168.522
864.656, 14.191
865.930, 127.806
867.203, 70.415
868.475, 109.085
869.748, 25.185
871.020, 67.588
872.292, 60.195
873.564, 48.782
874.836, 45.371
876.108, 102.955
877.379, 132.551
878.650, 105.865
879.922, 136.451
881.192, 58.890
882.463, 59.467
883.733, 26.038
885.004, 45.486
886.274, 25.354
887.544, 157.842
888.813, 38.405
890.083, 3.333
891.352, 134.215
892.621, 31.759
893.890, 81.294
895.159, 58.823
896.427, 91.344
897.695, 113.860
898.964, 138.352
900.232, 43.999
901.499, 91.500
902.767, 31.804
904.034, 66.289
905.301, 97.805
906.568, 120.278
907.835, 120.589
909.102, 146.077
910.368, 87.539
911.634, 85.710
912.900, 34.148
914.166, 190.313
915.432, 44.752
916.697, 64.937
917.962, 99.674
919.227, 25.067
920.492, 126.060
921.757, 123.357
923.021, 85.612
924.285, 91.806
925.550, 137.173
926.813, 84.239
928.077, 53.593
929.341, 128.949
930.604, 179.297
931.867, 26.615
933.130, 62.713
934.393, 138.999
935.655, 88.055
936.918, 153.389
938.180, 130.604
939.442, 20.362
940.703, 39.637
941.965, 74.900
943.226, 8.232
944.488, 79.611
945.749, 144.621
947.009, 86.057
948.270, 57.197
949.530, 128.922
950.791, 141.981
952.051, 86.653
953.311, 40.896
954.570, 81.153
955.830, 143.380
957.089, 105.882
958.348, 66.039
959.607, 93.550
960.866, 10.833
962.124, 74.122
963.383, 125.792
964.641, 94.902
965.899, 85.006
967.156, 62.485
968.414, 96.972
969.671, 43.115
970.928, 106.938
972.185, 19.498
973.442, 76.684
974.699, 185.153
975.955, 133.999
977.211, 65.518
978.468, 176.644
979.723, 61.321
980.979, 42.523
982.234, 271.494
983.490, 27.209
984.745, 96.862
986.000, 112.459
987.254, 1.967
988.509, 145.667
989.763, 54.774
991.017, 117.077
992.271, 101.529
993.525, 42.892
994.779, 221.749
996.032, 237.010
997.285, 164.356
998.538, 26.486
999.791, 92.548
1001.044, 0.501
1002.296, 72.761
1003.548, 126.804
1004.800, 171.700
1006.052, 136.301
1007.304, 128.686
1008.555, 140.838
1009.807, 182.047
1011.058, 206.218
1012.309, 75.288
1013.559, 140.753
1014.810, 92.859
1016.060, 123.062
1017.310, 185.293
1018.560, 71.800
1019.810, 121.039
1021.060, 156.017
1022.309, 106.164
1023.558, 236.372
1024.807, 151.690
1026.056, 237.951
1027.305, 210.370
1028.553, 271.732
1029.801, 178.099
1031.049, 178.444
1032.297, 199.797
1033.545, 175.586
1034.793, 202.141
1036.040, 195.302
1037.287, 219.297
1038.534, 222.502
1039.781, 216.414
1041.027, 185.095
1042.274, 209.175
1043.520, 282.692
1044.766, 301.473
1046.012, 257.323
1047.257, 353.140
1048.503, 454.084
1049.748, 285.966
1050.993, 479.648
1052.238, 380.203
1053.483, 329.572
1054.727, 336.069
1055.971, 332.068
1057.216, 320.674
1058.459, 462.533
1059.703, 366.997
1060.947, 459.311
1062.190, 596.023
1063.433, 620.566
1064.676, 829.478
1065.919, 1320.868
1067.162, 2171.104
1068.404, 3517.878
1069.646, 6920.117
1070.888, 16704.791
1072.130, 36030.215
1073.372, 48284.781
1074.613, 35696.582
1075.855, 12348.270
1077.096, 3863.603
1078.337, 1823.759
1079.578, 970.054
1080.818, 731.264
1082.059, 487.389
1083.299, 480.708
1084.539, 312.292
1085.779, 329.119
1087.018, 288.211
1088.258, 272.289
1089.497, 269.284
1090.736, 166.193
1091.975, 129.476
1093.213, 74.209
1094.452, 163.284
1095.690, 88.724
1096.928, 193.112
1098.166, 30.523
1099.404, 309.543
1100.642, 36.905
1101.879, 173.178
1103.116, 108.022
1104.353, 196.132
1105.590, 77.312
1106.827, 186.080
1108.063, 43.940
1109.299, 125.778
1110.536, 111.130
1111.771, 30.926
1113.007, 7.210
1114.243, 167.064
1115.478, 63.103
1116.713, 21.767
1117.948, 130.698
1119.183, 100.656
1120.418, 48.221
1121.652, 129.882
1122.886, 58.668
1124.120, 156.748
1125.354, 41.371
1126.588, 96.440
1127.821, 13.224
1129.055, 104.932
1130.288, 124.319
1131.521, 80.230
1132.753, 77.533
1133.986, 18.822
1135.218, 42.704
1136.450, 64.498
1137.682, 134.069
1138.914, 28.803
1140.146, 47.798
1141.377, 67.382
1142.609, 5.624
1143.840, 85.960
1145.071, 63.948
1146.301, 48.207
1147.532, 99.190
1148.762, 148.584
1149.992, 76.689
1151.222, 72.768
1152.452, 132.598
1153.682, 25.023
1154.911, 66.940
1156.140, 128.191
1157.369, 56.151
1158.598, 59.860
1159.827, 147.988
1161.055, 6.061
1162.284, 134.798
1163.512, 52.547
1164.740, 100.360
1165.967, 19.561
1167.195, 98.603
1168.422, 113.622
1169.650, 113.070
1170.877, 89.226
1172.103, 51.821
1173.330, 58.337
1174.557, 49.441
1175.783, 55.099
1177.009, 57.652
1178.235, 58.857
1179.461, 50.349
1180.686, 65.202
1181.912, 65.452
1183.137, 67.778
1184.362, 85.002
1185.587, 78.241
1186.811, 123.226
1188.036, 101.765
1189.260, 99.919
1190.484, 191.721
1191.708, 167.283
1192.932, 135.383
1194.155, 154.365
1195.378, 120.579
1196.602, 132.412
1197.825, 149.724
1199.047, 217.167
1200.270, 209.323
1201.492, 267.790
1202.715, 91.179
1203.937, 181.633
1205.159, 117.282
1206.380, 215.487
1207.602, 33.828
1208.823, 141.255
1210.044, 138.355
1211.265, 89.379
1212.486, 180.412
1213.707, 104.414
1214.927, 110.713
1216.147, 185.675
1217.367, 129.134
1218.587, 184.031
1219.807, 150.895
1221.027, 84.182
1222.246, 112.167
1223.465, 190.925
1224.684, 209.831
1225.903, 191.793
1227.121, 207.899
1228.340, 188.216
1229.558, 162.010
1230.776, 105.573
1231.994, 58.100
1233.212, 245.758
1234.429, 213.617
1235.646, 179.385
1236.864, 213.923
1238.081, 154.429
1239.297, 216.809
1240.514, 193.841
1241.730, 102.113
1242.947, 109.396
1244.163, 81.607
1245.378, 187.740
1246.594, 100.894
1247.810, 116.923
1249.025, 179.090
1250.240, 146.001
1251.455, 124.337
1252.670, 229.051
1253.885, 179.013
1255.099, 189.518
1256.313, 37.451
1257.527, 185.164
1258.741, 166.507
1259.955, 69.343
1261.168, 112.109
1262.382, 178.480
1263.595, 125.726
1264.808, 151.311
1266.021, 108.095
1267.233, 86.305
1268.446, 107.694
1269.658, 57.729
1270.870, 145.098
1272.082, 41.959
1273.294, 94.013
1274.505, 77.616
1275.716, 128.611
1276.928, 59.815
1278.139, 106.623
1279.349, 95.393
1280.560, 112.636
1281.770, 190.161
1282.981, 76.438
1284.191, 133.265
1285.401, 59.691
1286.610, 58.075
1287.820, 123.488
1289.029, 50.186
1290.239, 165.616
1291.448, 94.136
1292.656, 78.309
1293.865, 54.657
1295.073, 37.178
1296.282, 108.640
1297.490, 7.584
1298.698, 64.578
1299.906, 108.339
1301.113, 48.793
1302.320, 28.740
1303.528, 8.950
1304.735, 53.615
1305.942, 40.611
1307.148, 119.727
1308.355, 97.593
1309.561, 86.078
1310.767, 18.273
1311.973, 15.052
1313.179, 36.600
1314.384, 135.170
1315.590, 17.699
1316.795, 84.088
1318.000, 2.271
1319.205, 184.451
1320.410, 57.530
1321.614, 32.380
1322.819, 104.658
1324.023, 86.670
1325.227, 19.572
1326.431, 29.536
1327.634, 7.466
1328.838, 115.366
1330.041, 74.304
1331.244, 126.180
1332.447, 27.212
1333.650, 69.120
1334.852, 6.987
1336.055, 17.202
1337.257, 0.723
1338.459, 77.180
1339.661, 39.443
1340.862, 96.031
1342.064, 22.826
1343.265, 11.663
1344.466, 29.703
1345.667, 150.713
1346.868, 161.696
1348.068, 137.167
1349.269, 81.988
1350.469, 191.512
1351.669, 139.391
1352.869, 108.377
1354.069, 177.925
1355.268, 8.286
1356.468, 205.984
1357.667, 190.069
1358.866, 100.357
1360.065, 198.208
1361.263, 58.957
1362.462, 177.280
1363.660, 231.812
1364.858, 67.188
1366.056, 130.266
1367.254, 230.442
1368.451, 131.921
1369.649, 110.438
1370.846, 141.651
1372.043, 200.875
1373.240, 126.192
1374.436, 240.102
1375.633, 208.689
1376.829, 129.958
1378.025, 72.834
1379.221, 85.897
1380.417, 131.223
1381.613, 132.868
1382.808, 147.638
1384.003, 196.514
1385.199, 219.581
1386.393, 106.366
1387.588, 187.563
1388.783, 67.775
1389.977, 233.063
1391.171, 82.452
1392.365, 147.001
1393.559, 185.789
1394.753, 91.463
1395.946, 206.814
1397.140, 188.894
1398.333, 285.941
1399.526, 135.018
1400.719, 192.046
1401.911, 174.161
1403.104, 155.754
1404.296, 178.922
1405.488, 221.504
1406.680, 142.335
1407.872, 175.670
1409.063, 320.220
1410.255, 131.422
1411.446, 213.171
1412.637, 146.359
1413.828, 293.936
1415.018, 197.591
1416.209, 254.120
1417.399, 135.248
1418.589, 260.180
1419.779, 88.842
1420.969, 204.568
1422.159, 204.961
1423.348, 163.587
1424.537, 245.740
1425.726, 223.922
1426.915, 167.825
1428.104, 201.195
1429.293, 197.643
1430.481, 146.709
1431.669, 204.733
1432.857, 108.550
1434.045, 53.344
1435.233, 116.564
1436.420, 235.297
1437.608, 221.593
1438.795, 222.643
1439.982, 291.787
1441.169, 172.656
1442.355, 273.050
1443.542, 311.325
1444.728, 185.383
1445.914, 208.241
1447.100, 326.625
1448.286, 218.349
1449.472, 165.411
1450.657, 323.317
1451.842, 310.304
1453.027, 195.734
1454.212, 342.551
1455.397, 187.751
1456.581, 242.498
1457.766, 297.105
1458.950, 229.863
1460.134, 345.221
1461.318, 206.230
1462.501, 140.441
1463.685, 426.489
1464.868, 111.333
1466.051, 291.293
1467.234, 267.280
1468.417, 285.701
1469.600, 275.146
1470.782, 336.640
1471.965, 285.461
1473.147, 289.196
1474.329, 228.795
1475.510, 133.403
1476.692, 145.080
1477.873, 317.751
1479.055, 80.736
1480.236, 315.491
1481.416, 48.266
1482.597, 190.080
1483.778, 161.895
1484.958, 177.722
1486.138, 95.551
1487.318, 97.339
1488.498, 155.312
1489.678, 108.249
1490.857, 132.275
1492.037, 257.366
1493.216, 226.531
1494.395, 206.797
1495.574, 229.159
1496.752, 23.597
1497.931, 165.140
1499.109, 11.769
1500.287, 163.492
1501.465, 41.643
1502.643, 41.445
1503.820, 150.499
1504.998, 127.701
1506.175, 154.330
1507.352, 132.626
1508.529, 106.390
1509.706, 153.224
1510.882, 130.386
1512.059, 52.810
1513.235, 62.071
1514.411, 4.562
1515.587, 197.608
1516.762, 91.089
1517.938, 123.146
1519.113, 45.479
1520.288, 119.611
1521.463, 0.000
##END=



