##NAMES=Strontianite
##RRUFFID=R040037
##IDEAL CHEMISTRY=SrCO_3_
##LOCALITY=Alston Moor, Cumbria, England
##OWNER=RRUFF
##SOURCE=University of Arizona Mineral Museum
##DESCRIPTION=Group of tan colored crystals
##STATUS=The identification of this mineral has been confirmed by X-ray diffraction and chemical analysis
##URL=rruff.info/R040037
##MEASURED CHEMISTRY=(Sr_0.91_Ca_0.09_)_Î£=1_CO_3_; CO_2_ estimated by difference
##PIN_ID=L00091
##ORIENTATION=Laser parallel to -b* (0 -1 0). Fiducial mark perpendicular to laser is parallel to -c [0 0 -1]
100.340, 0.000
101.732, 38.494
103.124, 1.022
104.516, 31.479
105.908, 46.693
107.300, 8.721
108.691, 73.954
110.082, 73.852
111.473, 33.362
112.864, 123.032
114.254, 146.518
115.644, 208.556
117.034, 229.936
118.424, 186.485
119.813, 310.065
121.203, 254.558
122.592, 223.864
123.981, 312.904
125.369, 380.604
126.758, 355.901
128.146, 432.742
129.534, 491.821
130.922, 603.903
132.309, 673.138
133.696, 775.765
135.083, 929.754
136.470, 957.081
137.857, 1285.720
139.243, 1485.649
140.630, 1869.851
142.016, 2267.307
143.401, 2857.995
144.787, 3570.895
146.172, 4250.043
147.557, 4645.407
148.942, 4563.934
150.327, 4144.610
151.711, 3317.447
153.096, 2844.430
154.480, 2328.610
155.863, 1998.935
157.247, 2094.493
158.630, 1967.169
160.013, 1922.940
161.396, 1758.806
162.779, 1480.763
164.161, 1216.825
165.544, 1047.045
166.926, 885.343
168.308, 858.717
169.689, 820.188
171.070, 939.771
172.452, 1116.419
173.833, 1220.133
175.213, 1515.912
176.594, 1752.771
177.974, 2081.711
179.354, 2463.713
180.734, 2507.770
182.114, 2639.910
183.493, 2408.109
184.872, 1881.273
186.251, 1594.418
187.630, 1082.602
189.008, 813.788
190.387, 690.415
191.765, 545.104
193.143, 482.321
194.520, 271.562
195.898, 289.829
197.275, 220.125
198.652, 174.452
200.029, 238.809
201.405, 121.656
202.782, 192.114
204.158, 196.564
205.534, 161.698
206.909, 71.281
208.285, 73.826
209.660, 118.406
211.035, 70.908
212.410, 162.482
213.784, 87.652
215.159, 182.298
216.533, 190.978
217.907, 141.693
219.281, 142.444
220.654, 63.269
222.027, 116.193
223.400, 121.082
224.773, 117.014
226.146, 30.638
227.518, 142.625
228.891, 107.989
230.263, 119.998
231.634, 173.064
233.006, 140.159
234.377, 162.281
235.748, 198.430
237.119, 201.701
238.490, 299.893
239.860, 261.043
241.231, 388.265
242.601, 275.514
243.970, 307.809
245.340, 336.133
246.709, 208.482
248.079, 336.853
249.448, 152.246
250.816, 185.661
252.185, 143.148
253.553, 79.587
254.921, 90.286
256.289, 98.764
257.657, 160.262
259.024, 55.779
260.391, 102.316
261.758, 94.878
263.125, 111.997
264.492, 87.613
265.858, 64.707
267.224, 95.017
268.590, 15.472
269.956, 70.213
271.321, 106.135
272.687, 32.892
274.052, 8.108
275.416, 121.446
276.781, 95.894
278.146, 14.553
279.510, 62.354
280.874, 49.534
282.237, 148.264
283.601, 83.027
284.964, 54.068
286.327, 86.064
287.690, 23.125
289.053, 57.240
290.416, 112.406
291.778, 76.622
293.140, 190.893
294.502, 21.197
295.863, 111.542
297.225, 55.927
298.586, 104.349
299.947, 45.806
301.308, 14.703
302.668, 77.825
304.029, 1.616
305.389, 12.975
306.749, 28.595
308.108, 13.662
309.468, 8.315
310.827, 1.421
312.186, 42.688
313.545, 62.004
314.903, 51.779
316.262, 51.575
317.620, 99.424
318.978, 6.707
320.336, 36.819
321.693, 56.917
323.051, 8.994
324.408, 34.078
325.765, 110.057
327.121, 4.015
328.478, 67.989
329.834, 63.979
331.190, 134.990
332.546, 5.017
333.902, 138.059
335.257, 22.115
336.612, 149.387
337.967, 80.749
339.322, 88.847
340.677, 143.958
342.031, 0.919
343.385, 42.214
344.739, 77.361
346.093, 7.565
347.446, 39.733
348.799, 14.087
350.153, 136.100
351.505, 48.305
352.858, 27.520
354.210, 93.744
355.563, 60.032
356.915, 104.191
358.267, 66.425
359.618, 41.207
360.969, 183.462
362.321, 35.729
363.672, 109.007
365.022, 86.294
366.373, 124.591
367.723, 128.897
369.073, 61.209
370.423, 175.521
371.773, 19.159
373.122, 105.167
374.471, 67.491
375.821, 34.188
377.169, 178.126
378.518, 57.449
379.866, 87.780
381.215, 90.297
382.563, 132.644
383.910, 8.645
385.258, 132.840
386.605, 124.389
387.952, 19.764
389.299, 90.296
390.646, 55.683
391.992, 30.060
393.339, 131.443
394.685, 114.858
396.031, 163.255
397.376, 64.657
398.722, 157.065
400.067, 61.474
401.412, 33.111
402.757, 166.290
404.101, 53.850
405.446, 7.263
406.790, 5.689
408.134, 74.244
409.478, 35.681
410.821, 63.121
412.165, 57.566
413.508, 103.020
414.851, 125.574
416.193, 132.448
417.536, 77.710
418.878, 123.709
420.220, 21.172
421.562, 58.362
422.904, 41.740
424.245, 113.198
425.586, 144.678
426.927, 36.261
428.268, 60.727
429.609, 28.204
430.949, 72.696
432.289, 60.897
433.629, 41.284
434.969, 112.221
436.309, 80.801
437.648, 212.323
438.987, 87.630
440.326, 10.765
441.665, 7.770
443.003, 134.205
444.342, 56.748
445.680, 95.338
447.018, 219.903
448.355, 104.982
449.693, 90.558
451.030, 108.139
452.367, 163.938
453.704, 25.534
455.041, 147.136
456.377, 108.740
457.713, 179.349
459.049, 106.962
460.385, 106.577
461.721, 182.200
463.056, 129.839
464.391, 92.467
465.726, 159.644
467.061, 119.277
468.395, 55.914
469.730, 193.280
471.064, 0.378
472.398, 227.255
473.731, 0.580
475.065, 141.207
476.398, 68.837
477.731, 134.641
479.064, 82.271
480.397, 50.775
481.729, 149.266
483.062, 77.889
484.394, 62.522
485.725, 23.090
487.057, 102.723
488.389, 131.471
489.720, 109.103
491.051, 158.843
492.382, 131.390
493.712, 166.665
495.043, 78.330
496.373, 25.993
497.703, 36.345
499.032, 126.846
500.362, 49.477
501.691, 176.105
503.020, 126.686
504.349, 73.314
505.678, 3.941
507.007, 105.559
508.335, 96.174
509.663, 109.282
510.991, 193.255
512.319, 45.866
513.646, 146.476
514.973, 84.084
516.300, 89.070
517.627, 166.676
518.954, 21.644
520.280, 201.937
521.607, 78.148
522.933, 143.725
524.259, 187.688
525.584, 96.260
526.910, 280.830
528.235, 171.424
529.560, 309.989
530.885, 149.606
532.209, 147.256
533.534, 284.816
534.858, 162.373
536.182, 133.286
537.506, 66.839
538.829, 80.389
540.152, 33.186
541.476, 122.482
542.799, 4.976
544.121, 10.549
545.444, 34.063
546.766, 158.574
548.088, 36.082
549.410, 138.585
550.732, 151.086
552.053, 132.585
553.375, 46.083
554.696, 161.579
556.017, 269.072
557.337, 132.562
558.658, 203.050
559.978, 118.536
561.298, 226.120
562.618, 36.601
563.938, 71.077
565.257, 167.682
566.576, 40.014
567.895, 196.480
569.214, 168.944
570.533, 59.403
571.851, 92.417
573.170, 42.371
574.488, 61.322
575.805, 34.769
577.123, 22.210
578.440, 76.644
579.758, 187.073
581.075, 70.983
582.391, 175.393
583.708, 46.766
585.024, 38.135
586.341, 111.499
587.657, 105.860
588.972, 140.219
590.288, 152.573
591.603, 68.628
592.918, 98.159
594.233, 41.833
595.548, 67.845
596.863, 7.818
598.177, 27.500
599.491, 80.552
600.805, 27.476
602.119, 71.785
603.432, 46.158
604.746, 59.460
606.059, 3.241
607.372, 104.040
608.685, 152.318
609.997, 33.124
611.309, 154.392
612.621, 94.646
613.933, 174.906
615.245, 173.212
616.557, 143.415
617.868, 148.664
619.179, 60.817
620.490, 1.059
621.801, 210.285
623.111, 18.508
624.421, 179.722
625.731, 62.932
627.041, 131.138
628.351, 4.659
629.660, 0.568
630.970, 234.738
632.279, 80.995
633.588, 153.163
634.896, 95.673
636.205, 92.427
637.513, 60.719
638.821, 112.812
640.129, 130.905
641.437, 96.004
642.744, 82.099
644.051, 51.000
645.358, 34.782
646.665, 140.179
647.972, 3.972
649.278, 60.094
650.584, 36.887
651.890, 253.943
653.196, 116.995
654.502, 171.856
655.807, 16.622
657.113, 130.656
658.418, 211.688
659.722, 78.717
661.027, 110.741
662.331, 69.763
663.636, 184.732
664.940, 79.747
666.244, 167.756
667.547, 3.235
668.851, 130.758
670.154, 90.746
671.457, 83.732
672.760, 145.715
674.062, 93.706
675.365, 33.691
676.667, 127.139
677.969, 8.116
679.271, 83.093
680.572, 15.067
681.874, 185.033
683.175, 129.995
684.476, 34.955
685.777, 122.912
687.077, 30.866
688.378, 125.815
689.678, 74.766
690.978, 123.715
692.278, 135.312
693.577, 259.611
694.877, 118.560
696.176, 160.504
697.475, 85.270
698.774, 234.210
700.072, 248.501
701.371, 333.603
702.669, 366.927
703.967, 211.287
705.265, 348.062
706.562, 191.990
707.860, 53.914
709.157, 290.471
710.454, 147.367
711.751, 385.286
713.047, 108.203
714.344, 229.117
715.640, 40.031
716.936, 49.225
718.232, 160.143
719.527, 71.907
720.823, 26.177
722.118, 99.717
723.413, 25.488
724.708, 53.382
726.002, 221.273
727.297, 0.164
728.591, 150.047
729.885, 156.821
731.179, 223.702
732.472, 119.351
733.766, 74.689
735.059, 65.566
736.352, 141.442
737.645, 96.686
738.937, 125.575
740.230, 85.431
741.522, 129.185
742.814, 132.072
744.106, 122.960
745.397, 130.848
746.689, 8.266
747.980, 135.613
749.271, 95.506
750.562, 236.330
751.853, 23.223
753.143, 93.339
754.433, 107.934
755.723, 63.832
757.013, 125.467
758.303, 33.633
759.592, 42.218
760.881, 45.100
762.170, 92.472
763.459, 58.354
764.748, 26.762
766.036, 82.901
767.325, 64.772
768.613, 139.644
769.901, 146.515
771.188, 39.388
772.476, 118.261
773.763, 17.867
775.050, 141.999
776.337, 93.572
777.624, 109.440
778.910, 110.738
780.196, 177.607
781.482, 171.617
782.768, 53.350
784.054, 166.621
785.339, 70.230
786.625, 0.891
787.910, 80.995
789.195, 32.882
790.479, 99.597
791.764, 9.513
793.048, 36.377
794.332, 133.270
795.616, 92.162
796.900, 152.060
798.183, 86.957
799.467, 240.857
800.750, 47.645
802.033, 24.450
803.316, 255.002
804.598, 122.087
805.880, 189.598
807.163, 161.455
808.445, 0.686
809.726, 30.179
811.008, 60.500
812.289, 54.384
813.570, 146.500
814.851, 160.391
816.132, 170.523
817.413, 45.180
818.693, 165.084
819.973, 45.994
821.253, 5.906
822.533, 110.464
823.813, 2.385
825.092, 64.309
826.371, 44.255
827.650, 22.206
828.929, 39.132
830.208, 64.046
831.486, 24.020
832.764, 53.732
834.042, 44.715
835.320, 128.313
836.598, 166.305
837.875, 152.033
839.152, 69.279
840.429, 130.288
841.706, 116.253
842.983, 113.290
844.259, 151.358
845.536, 22.431
846.812, 104.509
848.088, 18.592
849.363, 177.678
850.639, 204.770
851.914, 155.867
853.189, 109.969
854.464, 301.084
855.739, 360.216
857.013, 58.353
858.288, 11.496
859.562, 161.645
860.836, 268.797
862.110, 27.045
863.383, 102.108
864.656, 90.268
865.930, 110.433
867.203, 158.602
868.475, 80.820
869.748, 15.956
871.020, 175.279
872.292, 215.518
873.564, 87.761
874.836, 28.796
876.108, 60.052
877.379, 241.312
878.650, 179.580
879.922, 174.852
881.192, 101.571
882.463, 101.852
883.733, 214.138
885.004, 23.430
886.274, 86.727
887.544, 314.032
888.813, 129.342
890.083, 98.656
891.352, 115.001
892.621, 161.351
893.890, 163.706
895.159, 54.065
896.427, 122.438
897.695, 68.396
898.964, 127.202
900.232, 86.891
901.499, 123.284
902.767, 257.684
904.034, 167.086
905.301, 246.492
906.568, 247.914
907.835, 199.340
909.102, 127.771
910.368, 170.208
911.634, 209.595
912.900, 178.053
914.166, 262.515
915.432, 179.987
916.697, 191.075
917.962, 216.414
919.227, 157.901
920.492, 156.393
921.757, 165.888
923.021, 213.387
924.285, 181.789
925.550, 250.395
926.813, 151.997
928.077, 146.511
929.341, 153.032
930.604, 210.559
931.867, 110.090
933.130, 169.626
934.393, 336.164
935.655, 143.707
936.918, 217.260
938.180, 114.821
939.442, 123.361
940.703, 283.931
941.965, 151.503
943.226, 59.110
944.488, 123.522
945.749, 312.135
947.009, 130.750
948.270, 189.368
949.530, 233.989
950.791, 225.612
952.051, 195.244
953.311, 98.874
954.570, 216.579
955.830, 207.231
957.089, 267.156
958.348, 76.816
959.607, 185.504
960.866, 132.155
962.124, 162.847
963.383, 71.771
964.641, 16.531
965.899, 225.503
967.156, 165.203
968.414, 106.931
969.671, 182.634
970.928, 32.018
972.185, 201.840
973.442, 44.817
974.699, 209.766
975.955, 300.509
977.211, 54.620
978.468, 157.919
979.723, 98.156
980.979, 41.917
982.234, 265.681
983.490, 47.543
984.745, 89.546
986.000, 122.649
987.254, 84.789
988.509, 294.148
989.763, 212.243
991.017, 187.641
992.271, 158.067
993.525, 107.979
994.779, 291.427
996.032, 241.328
997.285, 311.392
998.538, 122.657
999.791, 281.429
1001.044, 129.375
1002.296, 212.681
1003.548, 216.623
1004.800, 126.048
1006.052, 208.950
1007.304, 193.836
1008.555, 143.146
1009.807, 222.287
1011.058, 185.151
1012.309, 380.971
1013.559, 282.118
1014.810, 148.999
1016.060, 195.305
1017.310, 370.205
1018.560, 106.955
1019.810, 372.134
1021.060, 382.673
1022.309, 178.494
1023.558, 248.569
1024.807, 110.137
1026.056, 247.367
1027.305, 235.154
1028.553, 320.323
1029.801, 200.277
1031.049, 227.135
1032.297, 188.066
1033.545, 263.201
1034.793, 132.256
1036.040, 309.192
1037.287, 274.243
1038.534, 288.245
1039.781, 381.136
1041.027, 182.551
1042.274, 289.568
1043.520, 363.498
1044.766, 287.330
1046.012, 354.139
1047.257, 335.492
1048.503, 492.971
1049.748, 297.730
1050.993, 559.844
1052.238, 468.591
1053.483, 346.405
1054.727, 380.146
1055.971, 394.581
1057.216, 319.304
1058.459, 345.279
1059.703, 403.984
1060.947, 573.527
1062.190, 539.760
1063.433, 539.444
1064.676, 737.118
1065.919, 1062.202
1067.162, 1968.913
1068.404, 2727.938
1069.646, 5626.631
1070.888, 13454.482
1072.130, 30455.217
1073.372, 40414.902
1074.613, 26229.492
1075.855, 9115.141
1077.096, 3387.713
1078.337, 1859.275
1079.578, 956.133
1080.818, 750.736
1082.059, 512.313
1083.299, 466.849
1084.539, 333.350
1085.779, 390.207
1087.018, 290.683
1088.258, 262.145
1089.497, 213.173
1090.736, 171.608
1091.975, 221.539
1093.213, 91.948
1094.452, 227.345
1095.690, 177.855
1096.928, 178.224
1098.166, 123.951
1099.404, 209.291
1100.642, 95.615
1101.879, 124.479
1103.116, 27.226
1104.353, 240.611
1105.590, 181.056
1106.827, 272.054
1108.063, 99.854
1109.299, 165.104
1110.536, 179.576
1111.771, 57.774
1113.007, 139.955
1114.243, 34.413
1115.478, 186.557
1116.713, 110.685
1117.948, 135.870
1119.183, 0.762
1120.418, 92.734
1121.652, 65.512
1122.886, 75.893
1124.120, 181.425
1125.354, 58.371
1126.588, 7.604
1127.821, 16.214
1129.055, 137.685
1130.288, 155.012
1131.521, 133.457
1132.753, 56.326
1133.986, 55.225
1135.218, 48.315
1136.450, 9.438
1137.682, 61.855
1138.914, 7.103
1140.146, 12.244
1141.377, 35.609
1142.609, 91.714
1143.840, 115.581
1145.071, 77.382
1146.301, 29.999
1147.532, 151.652
1148.762, 107.847
1149.992, 25.374
1151.222, 110.413
1152.452, 12.841
1153.682, 17.383
1154.911, 126.358
1156.140, 28.521
1157.369, 67.726
1158.598, 134.222
1159.827, 152.855
1161.055, 162.812
1162.284, 138.912
1163.512, 38.038
1164.740, 135.352
1165.967, 154.768
1167.195, 69.689
1168.422, 12.158
1169.650, 156.422
1170.877, 98.006
1172.103, 11.086
1173.330, 70.615
1174.557, 196.693
1175.783, 85.398
1177.009, 141.352
1178.235, 164.186
1179.461, 160.854
1180.686, 111.484
1181.912, 130.213
1183.137, 167.645
1184.362, 139.916
1185.587, 150.803
1186.811, 176.488
1188.036, 55.805
1189.260, 146.096
1190.484, 166.262
1191.708, 189.387
1192.932, 0.760
1194.155, 63.006
1195.378, 47.465
1196.602, 234.943
1197.825, 117.414
1199.047, 237.689
1200.270, 186.291
1201.492, 349.590
1202.715, 52.305
1203.937, 323.371
1205.159, 145.850
1206.380, 295.859
1207.602, 12.139
1208.823, 80.793
1210.044, 220.689
1211.265, 250.820
1212.486, 110.662
1213.707, 197.475
1214.927, 122.645
1216.147, 199.400
1217.367, 160.420
1218.587, 186.129
1219.807, 193.807
1221.027, 253.459
1222.246, 200.084
1223.465, 255.684
1224.684, 278.256
1225.903, 143.139
1227.121, 201.893
1228.340, 205.383
1229.558, 212.926
1230.776, 281.369
1231.994, 130.783
1233.212, 268.158
1234.429, 293.510
1235.646, 81.945
1236.864, 447.246
1238.081, 99.523
1239.297, 247.775
1240.514, 350.002
1241.730, 191.258
1242.947, 226.580
1244.163, 133.715
1245.378, 258.977
1246.594, 273.041
1247.810, 92.074
1249.025, 262.084
1250.240, 6.770
1251.455, 178.152
1252.670, 62.043
1253.885, 92.902
1255.099, 220.695
1256.313, 49.518
1257.527, 320.215
1258.741, 256.686
1259.955, 101.357
1261.168, 247.656
1262.382, 276.264
1263.595, 208.818
1264.808, 161.367
1266.021, 125.205
1267.233, 41.428
1268.446, 143.752
1269.658, 10.918
1270.870, 177.256
1272.082, 215.193
1273.294, 65.916
1274.505, 9.340
1275.716, 115.844
1276.928, 82.969
1278.139, 128.029
1279.349, 23.697
1280.560, 188.320
1281.770, 102.844
1282.981, 68.115
1284.191, 97.613
1285.401, 33.771
1286.610, 30.867
1287.820, 151.445
1289.029, 48.459
1290.239, 143.969
1291.448, 182.281
1292.656, 167.365
1293.865, 48.912
1295.073, 186.252
1296.282, 61.201
1297.490, 15.484
1298.698, 108.252
1299.906, 104.512
1301.113, 30.758
1302.320, 22.545
1303.528, 144.471
1304.735, 47.359
1305.942, 82.822
1307.148, 163.010
1308.355, 18.068
1309.561, 158.668
1310.767, 39.637
1311.973, 80.723
1313.179, 1.652
1314.384, 42.297
1315.590, 10.787
1316.795, 139.844
1318.000, 59.053
1319.205, 125.361
1320.410, 10.189
1321.614, 36.396
1322.819, 173.193
1324.023, 112.150
1325.227, 215.400
1326.431, 70.713
1327.634, 71.926
1328.838, 37.521
1330.041, 109.826
1331.244, 151.148
1332.447, 21.551
1333.650, 20.400
1334.852, 31.619
1336.055, 32.896
1337.257, 75.764
1338.459, 84.047
1339.661, 149.357
1340.862, 136.975
1342.064, 131.281
1343.265, 171.213
1344.466, 86.482
1345.667, 23.338
1346.868, 45.650
1348.068, 258.396
1349.269, 86.590
1350.469, 228.510
1351.669, 186.676
1352.869, 211.984
1354.069, 281.590
1355.268, 126.729
1356.468, 275.857
1357.667, 289.762
1358.866, 96.820
1360.065, 280.002
1361.263, 118.959
1362.462, 221.416
1363.660, 455.418
1364.858, 313.699
1366.056, 259.932
1367.254, 321.014
1368.451, 324.373
1369.649, 106.436
1370.846, 130.143
1372.043, 307.230
1373.240, 172.789
1374.436, 344.633
1375.633, 307.701
1376.829, 202.016
1378.025, 258.180
1379.221, 162.719
1380.417, 235.281
1381.613, 295.191
1382.808, 353.803
1384.003, 409.762
1385.199, 176.094
1386.393, 149.029
1387.588, 254.473
1388.783, 140.506
1389.977, 422.205
1391.171, 193.289
1392.365, 319.828
1393.559, 373.621
1394.753, 242.363
1395.946, 404.824
1397.140, 229.418
1398.333, 341.258
1399.526, 292.416
1400.719, 216.229
1401.911, 319.049
1403.104, 225.441
1404.296, 353.076
1405.488, 409.998
1406.680, 182.787
1407.872, 207.850
1409.063, 311.771
1410.255, 246.721
1411.446, 371.359
1412.637, 200.094
1413.828, 338.037
1415.018, 452.279
1416.209, 427.395
1417.399, 209.674
1418.589, 434.816
1419.779, 306.496
1420.969, 436.148
1422.159, 247.951
1423.348, 217.695
1424.537, 325.932
1425.726, 385.443
1426.915, 259.145
1428.104, 380.064
1429.293, 236.770
1430.481, 190.297
1431.669, 288.902
1432.857, 315.730
1434.045, 247.762
1435.233, 484.033
1436.420, 355.996
1437.608, 340.535
1438.795, 379.484
1439.982, 435.717
1441.169, 427.043
1442.355, 422.844
1443.542, 583.598
1444.728, 349.654
1445.914, 699.840
1447.100, 829.256
1448.286, 845.795
1449.472, 645.059
1450.657, 770.463
1451.842, 560.781
1453.027, 438.596
1454.212, 620.486
1455.397, 390.715
1456.581, 382.867
1457.766, 357.068
1458.950, 247.254
1460.134, 468.428
1461.318, 274.580
1462.501, 401.709
1463.685, 516.781
1464.868, 181.836
1466.051, 564.939
1467.234, 244.072
1468.417, 366.215
1469.600, 460.463
1470.782, 318.031
1471.965, 367.840
1473.147, 415.793
1474.329, 409.846
1475.510, 224.934
1476.692, 151.170
1477.873, 313.449
1479.055, 237.758
1480.236, 450.115
1481.416, 269.514
1482.597, 322.979
1483.778, 193.514
1484.958, 273.127
1486.138, 145.836
1487.318, 163.453
1488.498, 227.637
1489.678, 211.730
1490.857, 265.986
1492.037, 385.424
1493.216, 241.070
1494.395, 278.943
1495.574, 441.041
1496.752, 228.352
1497.931, 377.889
1499.109, 98.674
1500.287, 224.742
1501.465, 48.131
1502.643, 0.111
1503.820, 41.670
1504.998, 181.707
1506.175, 114.881
1507.352, 154.652
1508.529, 281.111
1509.706, 142.150
1510.882, 273.201
1512.059, 209.129
1513.235, 170.545
1514.411, 5.348
1515.587, 319.299
1516.762, 70.055
1517.938, 0.000
##END=



