##NAMES=Strontianite
##RRUFFID=R040037
##IDEAL CHEMISTRY=SrCO_3_
##LOCALITY=Alston Moor, Cumbria, England
##OWNER=RRUFF
##SOURCE=University of Arizona Mineral Museum
##DESCRIPTION=Group of tan colored crystals
##STATUS=The identification of this mineral has been confirmed by X-ray diffraction and chemical analysis
##URL=rruff.info/R040037
##MEASURED CHEMISTRY=(Sr_0.91_Ca_0.09_)_Î£=1_CO_3_; CO_2_ estimated by difference
##PIN_ID=L00119
##ORIENTATION=Laser parallel to -c* (0 0 -1). Fiducial mark perpendicular to laser is parallel to a [1 0 0]
83.614, 0.000
85.009, 12.843
86.404, 3.929
87.798, 12.137
89.193, 43.117
90.587, 49.435
91.981, 146.387
93.375, 194.233
94.768, 322.779
96.161, 523.165
97.554, 723.749
98.947, 1008.036
100.340, 1191.642
101.732, 1206.263
103.124, 1138.650
104.516, 879.599
105.908, 875.937
107.300, 794.513
108.691, 767.200
110.082, 762.886
111.473, 897.482
112.864, 906.910
114.254, 826.098
115.644, 745.991
117.034, 612.539
118.424, 392.695
119.813, 444.416
121.203, 337.663
122.592, 344.401
123.981, 302.598
125.369, 274.227
126.758, 343.249
128.146, 286.626
129.534, 404.332
130.922, 360.340
132.309, 346.635
133.696, 305.199
135.083, 356.019
136.470, 315.104
137.857, 426.453
139.243, 470.053
140.630, 511.864
142.016, 572.880
143.401, 662.092
144.787, 723.689
146.172, 885.156
147.557, 848.008
148.942, 859.057
150.327, 845.292
151.711, 702.715
153.096, 771.277
154.480, 713.983
155.863, 785.826
157.247, 867.816
158.630, 791.932
160.013, 808.165
161.396, 805.527
162.779, 826.024
164.161, 751.649
165.544, 843.375
166.926, 877.194
168.308, 951.964
169.689, 1033.709
171.070, 1147.457
172.452, 1301.232
173.833, 1453.044
175.213, 1684.888
176.594, 1749.775
177.974, 2069.710
179.354, 2216.693
180.734, 2284.774
182.114, 2365.915
183.493, 2294.126
184.872, 1914.394
186.251, 1639.731
187.630, 1181.787
189.008, 928.343
190.387, 757.969
191.765, 517.586
193.143, 459.306
194.520, 305.106
195.898, 376.951
197.275, 267.868
198.652, 262.852
200.029, 271.894
201.405, 201.995
202.782, 150.151
204.158, 137.362
205.534, 178.258
206.909, 137.082
208.285, 128.440
209.660, 147.917
211.035, 108.352
212.410, 118.377
213.784, 102.544
215.159, 100.097
216.533, 133.190
217.907, 103.971
219.281, 102.632
220.654, 73.332
222.027, 79.070
223.400, 105.997
224.773, 89.296
226.146, 154.147
227.518, 134.136
228.891, 107.791
230.263, 171.307
231.634, 153.291
233.006, 217.308
234.377, 290.358
235.748, 360.598
237.119, 274.275
238.490, 387.761
239.860, 369.216
241.231, 464.407
242.601, 469.928
243.970, 596.164
245.340, 677.430
246.709, 768.902
248.079, 800.574
249.448, 724.098
250.816, 761.913
252.185, 536.567
253.553, 550.648
254.921, 539.046
256.289, 524.074
257.657, 523.978
259.024, 531.392
260.391, 525.761
261.758, 558.564
263.125, 481.182
264.492, 477.936
265.858, 361.821
267.224, 325.822
268.590, 230.407
269.956, 214.617
271.321, 205.921
272.687, 99.403
274.052, 57.888
275.416, 95.496
276.781, 121.193
278.146, 88.901
279.510, 98.766
280.874, 122.150
282.237, 119.049
283.601, 68.005
284.964, 73.186
286.327, 115.249
287.690, 111.271
289.053, 27.568
290.416, 34.635
291.778, 7.118
293.140, 79.503
294.502, 39.167
295.863, 21.418
297.225, 54.825
298.586, 54.375
299.947, 2.211
301.308, 34.700
302.668, 0.509
304.029, 48.852
305.389, 44.472
306.749, 27.244
308.108, 48.127
309.468, 14.352
310.827, 17.962
312.186, 3.800
313.545, 10.128
314.903, 16.049
316.262, 26.132
317.620, 24.356
318.978, 22.695
320.336, 20.606
321.693, 20.771
323.051, 64.347
324.408, 22.681
325.765, 3.307
327.121, 60.688
328.478, 8.673
329.834, 3.356
331.190, 1.599
332.546, 33.537
333.902, 13.637
335.257, 0.928
336.612, 52.239
337.967, 35.171
339.322, 24.173
340.677, 64.242
342.031, 38.590
343.385, 19.586
344.739, 9.983
346.093, 39.638
347.446, 67.364
348.799, 31.407
350.153, 18.830
351.505, 9.079
352.858, 25.339
354.210, 4.606
355.563, 2.884
356.915, 36.168
358.267, 44.462
359.618, 3.097
360.969, 79.216
362.321, 12.459
363.672, 7.873
365.022, 45.450
366.373, 13.402
367.723, 0.239
369.073, 41.490
370.423, 16.849
371.773, 16.774
373.122, 12.410
374.471, 53.959
375.821, 66.330
377.169, 76.960
378.518, 79.572
379.866, 74.645
381.215, 42.323
382.563, 48.705
383.910, 26.260
385.258, 0.863
386.605, 2.472
387.952, 2.077
389.299, 3.679
390.646, 71.747
391.992, 9.478
393.339, 25.123
394.685, 52.784
396.031, 97.186
397.376, 11.283
398.722, 7.820
400.067, 55.581
401.412, 29.470
402.757, 18.870
404.101, 60.475
405.446, 35.613
406.790, 5.013
408.134, 33.021
409.478, 1.628
410.821, 110.753
412.165, 4.512
413.508, 85.930
414.851, 68.368
416.193, 49.821
417.536, 3.288
418.878, 48.147
420.220, 73.637
421.562, 25.860
422.904, 51.670
424.245, 37.179
425.586, 47.698
426.927, 70.486
428.268, 65.471
429.609, 4.565
430.949, 62.208
432.289, 51.757
433.629, 20.281
434.969, 76.136
436.309, 45.302
437.648, 23.236
438.987, 72.121
440.326, 5.336
441.665, 7.200
443.003, 74.849
444.342, 69.389
445.680, 20.931
447.018, 97.471
448.355, 18.988
449.693, 48.537
451.030, 44.650
452.367, 87.188
453.704, 17.651
455.041, 36.196
456.377, 41.038
457.713, 42.476
459.049, 38.013
460.385, 3.470
461.721, 40.933
463.056, 27.278
464.391, 9.161
465.726, 73.776
467.061, 32.211
468.395, 0.759
469.730, 18.176
471.064, 7.129
472.398, 63.712
473.731, 19.104
475.065, 36.487
476.398, 17.876
477.731, 72.305
479.064, 24.653
480.397, 75.049
481.729, 34.113
483.062, 20.475
484.394, 80.802
485.725, 71.932
487.057, 95.472
488.389, 61.819
489.720, 104.974
491.051, 103.272
492.382, 54.908
493.712, 43.484
495.043, 31.770
496.373, 47.022
497.703, 3.710
499.032, 27.536
500.362, 7.155
501.691, 86.370
503.020, 55.474
504.349, 39.674
505.678, 42.209
507.007, 19.195
508.335, 67.959
509.663, 87.189
510.991, 96.971
512.319, 127.123
513.646, 100.373
514.973, 85.508
516.300, 84.636
517.627, 66.760
518.954, 47.874
520.280, 92.972
521.607, 132.462
522.933, 139.379
524.259, 44.711
525.584, 29.881
526.910, 144.955
528.235, 39.912
529.560, 144.941
530.885, 62.960
532.209, 116.328
533.534, 109.827
534.858, 131.816
536.182, 46.797
537.506, 106.765
538.829, 135.724
540.152, 49.672
541.476, 111.609
542.799, 54.535
544.121, 52.450
545.444, 49.208
546.766, 75.834
548.088, 96.453
549.410, 67.002
550.732, 46.864
552.053, 73.709
553.375, 39.351
554.696, 117.196
556.017, 60.031
557.337, 65.163
558.658, 73.408
559.978, 41.301
561.298, 111.643
562.618, 55.417
563.938, 33.178
565.257, 80.923
566.576, 39.433
567.895, 86.517
569.214, 207.731
570.533, 49.405
571.851, 71.444
573.170, 118.092
574.488, 98.729
575.805, 92.398
577.123, 13.765
578.440, 91.356
579.758, 190.540
581.075, 15.422
582.391, 86.518
583.708, 110.178
585.024, 17.184
586.341, 90.015
587.657, 118.553
588.972, 65.533
590.288, 93.190
591.603, 2.748
592.918, 54.197
594.233, 93.581
595.548, 117.908
596.863, 49.304
598.177, 115.648
599.491, 99.955
600.805, 64.328
602.119, 90.632
603.432, 132.984
604.746, 105.172
606.059, 137.729
607.372, 113.690
608.685, 158.080
609.997, 76.498
611.309, 81.712
612.621, 83.295
613.933, 29.484
615.245, 127.513
616.557, 154.670
617.868, 109.723
619.179, 73.913
620.490, 31.969
621.801, 86.549
623.111, 54.925
624.421, 141.970
625.731, 59.881
627.041, 131.694
628.351, 11.354
629.660, 38.388
630.970, 200.351
632.279, 72.921
633.588, 68.749
634.896, 16.060
636.205, 3.562
637.513, 64.381
638.821, 27.237
640.129, 66.876
641.437, 145.076
642.744, 46.885
644.051, 81.035
645.358, 74.816
646.665, 133.593
647.972, 107.679
649.278, 42.430
650.584, 13.961
651.890, 90.583
653.196, 121.944
654.502, 176.635
655.807, 84.641
657.113, 120.791
658.418, 119.222
659.722, 66.864
661.027, 115.844
662.331, 44.071
663.636, 130.532
664.940, 30.341
666.244, 157.150
667.547, 28.774
668.851, 90.331
670.154, 60.009
671.457, 84.755
672.760, 148.387
674.062, 73.278
675.365, 128.096
676.667, 59.437
677.969, 40.251
679.271, 49.699
680.572, 49.134
681.874, 61.404
683.175, 71.789
684.476, 88.598
685.777, 127.802
687.077, 122.172
688.378, 209.518
689.678, 262.867
690.978, 414.206
692.278, 487.563
693.577, 1322.617
694.877, 1857.157
696.176, 2581.446
697.475, 2922.490
698.774, 3204.754
700.072, 3011.837
701.371, 2271.863
702.669, 1332.819
703.967, 765.110
705.265, 613.281
706.562, 375.448
707.860, 266.299
709.157, 302.897
710.454, 237.550
711.751, 217.831
713.047, 145.842
714.344, 122.951
715.640, 69.071
716.936, 29.690
718.232, 179.780
719.527, 153.655
720.823, 129.132
722.118, 71.254
723.413, 66.827
724.708, 107.863
726.002, 153.890
727.297, 130.884
728.591, 203.589
729.885, 101.760
731.179, 80.969
732.472, 63.939
733.766, 111.753
735.059, 20.702
736.352, 52.894
737.645, 29.836
738.937, 55.604
740.230, 23.501
741.522, 33.123
742.814, 70.991
744.106, 105.846
745.397, 45.594
746.689, 57.428
747.980, 55.455
749.271, 86.969
750.562, 170.768
751.853, 63.796
753.143, 102.482
754.433, 71.261
755.723, 10.965
757.013, 124.675
758.303, 72.434
759.592, 68.162
760.881, 71.881
762.170, 114.588
763.459, 97.293
764.748, 5.713
766.036, 141.952
767.325, 62.238
768.613, 147.376
769.901, 69.048
771.188, 90.655
772.476, 83.252
773.763, 4.148
775.050, 113.805
776.337, 65.525
777.624, 63.135
778.910, 108.527
780.196, 149.144
781.482, 138.743
782.768, 42.121
784.054, 98.394
785.339, 130.469
786.625, 43.990
787.910, 86.571
789.195, 112.062
790.479, 82.553
791.764, 89.072
793.048, 114.509
794.332, 71.265
795.616, 120.707
796.900, 115.167
798.183, 12.342
799.467, 104.782
800.750, 87.304
802.033, 15.781
803.316, 160.193
804.598, 23.747
805.880, 144.512
807.163, 139.189
808.445, 64.567
809.726, 45.986
811.008, 127.697
812.289, 69.062
813.570, 151.434
814.851, 9.872
816.132, 25.734
817.413, 71.404
818.693, 98.831
819.973, 24.595
821.253, 66.917
822.533, 95.594
823.813, 45.885
825.092, 26.062
826.371, 50.375
827.650, 2.640
828.929, 9.617
830.208, 78.341
831.486, 6.456
832.764, 82.597
834.042, 112.671
835.320, 72.629
836.598, 64.445
837.875, 86.647
839.152, 32.864
840.429, 178.081
841.706, 118.294
842.983, 117.799
844.259, 174.001
845.536, 70.195
846.812, 114.382
848.088, 20.929
849.363, 78.103
850.639, 94.288
851.914, 128.461
853.189, 107.628
854.464, 120.790
855.739, 134.948
857.013, 60.102
858.288, 16.752
859.562, 89.380
860.836, 174.506
862.110, 88.373
863.383, 100.722
864.656, 47.133
865.930, 82.192
867.203, 68.247
868.475, 86.585
869.748, 90.387
871.020, 123.052
872.292, 102.102
873.564, 41.147
874.836, 61.189
876.108, 52.841
877.379, 142.103
878.650, 85.135
879.922, 167.165
881.192, 70.190
882.463, 35.212
883.733, 23.336
885.004, 136.323
886.274, 21.211
887.544, 141.213
888.813, 79.604
890.083, 37.406
891.352, 84.992
892.621, 136.840
893.890, 86.323
895.159, 136.393
896.427, 102.866
897.695, 142.837
898.964, 83.587
900.232, 35.418
901.499, 87.250
902.767, 78.208
904.034, 23.161
905.301, 20.009
906.568, 120.947
907.835, 126.814
909.102, 108.139
910.368, 72.059
911.634, 89.913
912.900, 94.743
914.166, 160.582
915.432, 102.478
916.697, 5.370
917.962, 98.062
919.227, 40.938
920.492, 95.094
921.757, 139.957
923.021, 89.742
924.285, 89.596
925.550, 191.428
926.813, 4.725
928.077, 45.108
929.341, 63.875
930.604, 151.625
931.867, 58.459
933.130, 96.287
934.393, 200.110
935.655, 69.753
936.918, 153.574
938.180, 87.391
939.442, 57.040
940.703, 166.843
941.965, 60.641
943.226, 69.437
944.488, 85.355
945.749, 161.272
947.009, 120.347
948.270, 111.265
949.530, 208.116
950.791, 129.536
952.051, 53.541
953.311, 62.300
954.570, 196.018
955.830, 68.761
957.089, 158.530
958.348, 6.267
959.607, 129.272
960.866, 65.086
962.124, 0.844
963.383, 120.434
964.641, 90.832
965.899, 57.754
967.156, 69.330
968.414, 43.399
969.671, 53.060
970.928, 24.184
972.185, 75.257
973.442, 97.048
974.699, 187.885
975.955, 142.670
977.211, 70.187
978.468, 89.706
979.723, 49.999
980.979, 60.614
982.234, 208.340
983.490, 6.897
984.745, 56.782
986.000, 97.800
987.254, 15.638
988.509, 108.550
989.763, 90.162
991.017, 116.032
992.271, 123.510
993.525, 17.479
994.779, 141.647
996.032, 131.194
997.285, 146.865
998.538, 2.771
999.791, 199.308
1001.044, 90.290
1002.296, 127.486
1003.548, 104.421
1004.800, 168.256
1006.052, 173.403
1007.304, 163.212
1008.555, 183.948
1009.807, 103.974
1011.058, 219.606
1012.309, 106.489
1013.559, 85.009
1014.810, 8.811
1016.060, 105.279
1017.310, 93.436
1018.560, 29.441
1019.810, 158.421
1021.060, 907.407
1022.309, 1041.080
1023.558, 951.892
1024.807, 422.437
1026.056, 184.140
1027.305, 217.588
1028.553, 223.002
1029.801, 142.154
1031.049, 124.119
1032.297, 108.120
1033.545, 75.180
1034.793, 96.453
1036.040, 104.048
1037.287, 142.534
1038.534, 279.145
1039.781, 322.597
1041.027, 157.145
1042.274, 291.841
1043.520, 263.113
1044.766, 183.503
1046.012, 186.899
1047.257, 226.170
1048.503, 492.670
1049.748, 383.033
1050.993, 448.334
1052.238, 378.020
1053.483, 252.526
1054.727, 195.463
1055.971, 336.840
1057.216, 357.960
1058.459, 469.248
1059.703, 392.392
1060.947, 423.218
1062.190, 466.529
1063.433, 579.874
1064.676, 841.942
1065.919, 1310.418
1067.162, 2286.133
1068.404, 3575.358
1069.646, 7059.475
1070.888, 16806.486
1072.130, 36861.672
1073.372, 50108.801
1074.613, 37674.867
1075.855, 13162.303
1077.096, 4207.020
1078.337, 2074.941
1079.578, 1110.073
1080.818, 759.486
1082.059, 481.633
1083.299, 489.143
1084.539, 225.356
1085.779, 181.044
1087.018, 247.288
1088.258, 283.164
1089.497, 197.092
1090.736, 149.031
1091.975, 160.127
1093.213, 96.996
1094.452, 96.682
1095.690, 50.819
1096.928, 96.079
1098.166, 110.906
1099.404, 152.524
1100.642, 72.125
1101.879, 157.614
1103.116, 61.121
1104.353, 171.665
1105.590, 42.531
1106.827, 148.312
1108.063, 65.659
1109.299, 96.868
1110.536, 19.705
1111.771, 7.004
1113.007, 23.457
1114.243, 87.453
1115.478, 86.545
1116.713, 94.986
1117.948, 147.588
1119.183, 122.446
1120.418, 158.036
1121.652, 97.623
1122.886, 98.360
1124.120, 77.297
1125.354, 120.806
1126.588, 149.099
1127.821, 130.840
1129.055, 66.845
1130.288, 117.244
1131.521, 72.735
1132.753, 76.719
1133.986, 44.011
1135.218, 202.467
1136.450, 82.989
1137.682, 135.525
1138.914, 16.225
1140.146, 5.221
1141.377, 46.283
1142.609, 9.720
1143.840, 154.153
1145.071, 121.631
1146.301, 72.044
1147.532, 101.053
1148.762, 26.920
1149.992, 13.923
1151.222, 57.880
1152.452, 79.783
1153.682, 18.075
1154.911, 83.012
1156.140, 80.968
1157.369, 35.885
1158.598, 119.638
1159.827, 58.877
1161.055, 41.596
1162.284, 74.231
1163.512, 120.362
1164.740, 10.105
1165.967, 43.869
1167.195, 30.090
1168.422, 37.255
1169.650, 107.005
1170.877, 71.594
1172.103, 97.091
1173.330, 52.269
1174.557, 129.197
1175.783, 158.894
1177.009, 21.080
1178.235, 42.679
1179.461, 34.932
1180.686, 62.848
1181.912, 62.600
1183.137, 100.462
1184.362, 85.159
1185.587, 109.246
1186.811, 145.281
1188.036, 80.690
1189.260, 82.537
1190.484, 181.677
1191.708, 151.718
1192.932, 147.730
1194.155, 180.587
1195.378, 123.146
1196.602, 153.028
1197.825, 123.548
1199.047, 70.316
1200.270, 110.151
1201.492, 189.769
1202.715, 78.073
1203.937, 289.665
1205.159, 150.243
1206.380, 183.460
1207.602, 35.952
1208.823, 137.105
1210.044, 125.228
1211.265, 191.046
1212.486, 90.108
1213.707, 200.139
1214.927, 144.264
1216.147, 131.248
1217.367, 193.552
1218.587, 149.557
1219.807, 157.454
1221.027, 168.144
1222.246, 77.570
1223.465, 157.377
1224.684, 167.722
1225.903, 132.471
1227.121, 70.189
1228.340, 116.395
1229.558, 52.442
1230.776, 106.731
1231.994, 27.465
1233.212, 92.014
1234.429, 178.004
1235.646, 145.483
1236.864, 155.188
1238.081, 100.889
1239.297, 78.279
1240.514, 60.632
1241.730, 83.928
1242.947, 64.638
1244.163, 158.791
1245.378, 271.171
1246.594, 212.456
1247.810, 251.563
1249.025, 207.598
1250.240, 204.437
1251.455, 131.536
1252.670, 117.780
1253.885, 161.819
1255.099, 45.557
1256.313, 9.610
1257.527, 146.851
1258.741, 165.205
1259.955, 11.639
1261.168, 33.995
1262.382, 159.591
1263.595, 93.159
1264.808, 210.863
1266.021, 183.461
1267.233, 113.204
1268.446, 75.640
1269.658, 47.043
1270.870, 119.322
1272.082, 156.748
1273.294, 120.235
1274.505, 128.637
1275.716, 105.694
1276.928, 97.926
1278.139, 139.936
1279.349, 109.929
1280.560, 88.706
1281.770, 130.875
1282.981, 58.337
1284.191, 105.385
1285.401, 154.944
1286.610, 48.043
1287.820, 22.609
1289.029, 63.087
1290.239, 32.281
1291.448, 46.486
1292.656, 47.932
1293.865, 103.464
1295.073, 132.749
1296.282, 100.113
1297.490, 106.027
1298.698, 37.332
1299.906, 84.285
1301.113, 72.535
1302.320, 75.742
1303.528, 108.726
1304.735, 29.027
1305.942, 103.038
1307.148, 115.942
1308.355, 152.940
1309.561, 82.100
1310.767, 37.658
1311.973, 14.284
1313.179, 86.079
1314.384, 53.507
1315.590, 72.369
1316.795, 87.049
1318.000, 55.804
1319.205, 68.441
1320.410, 36.264
1321.614, 91.823
1322.819, 40.309
1324.023, 1.585
1325.227, 164.755
1326.431, 228.075
1327.634, 6.361
1328.838, 15.771
1330.041, 93.082
1331.244, 98.464
1332.447, 31.967
1333.650, 128.168
1334.852, 56.349
1336.055, 66.914
1337.257, 66.326
1338.459, 30.308
1339.661, 160.146
1340.862, 75.331
1342.064, 154.612
1343.265, 87.746
1344.466, 63.629
1345.667, 107.650
1346.868, 193.980
1348.068, 98.818
1349.269, 95.115
1350.469, 194.207
1351.669, 100.415
1352.869, 220.886
1354.069, 212.854
1355.268, 5.246
1356.468, 206.896
1357.667, 279.595
1358.866, 141.723
1360.065, 231.731
1361.263, 89.548
1362.462, 153.607
1363.660, 174.691
1364.858, 251.022
1366.056, 73.932
1367.254, 194.472
1368.451, 49.311
1369.649, 172.277
1370.846, 207.926
1372.043, 54.161
1373.240, 153.970
1374.436, 273.931
1375.633, 132.083
1376.829, 225.650
1378.025, 0.511
1379.221, 188.547
1380.417, 103.357
1381.613, 97.928
1382.808, 235.915
1384.003, 221.885
1385.199, 117.733
1386.393, 4.261
1387.588, 281.705
1388.783, 116.940
1389.977, 149.849
1391.171, 153.798
1392.365, 175.639
1393.559, 182.207
1394.753, 216.468
1395.946, 183.630
1397.140, 197.805
1398.333, 181.159
1399.526, 267.554
1400.719, 184.068
1401.911, 229.761
1403.104, 256.258
1404.296, 188.473
1405.488, 259.813
1406.680, 159.033
1407.872, 259.753
1409.063, 298.566
1410.255, 123.915
1411.446, 290.583
1412.637, 247.442
1413.828, 224.404
1415.018, 211.794
1416.209, 196.135
1417.399, 229.430
1418.589, 270.414
1419.779, 298.712
1420.969, 276.070
1422.159, 148.147
1423.348, 298.535
1424.537, 144.033
1425.726, 199.899
1426.915, 234.465
1428.104, 282.293
1429.293, 270.568
1430.481, 163.504
1431.669, 331.505
1432.857, 186.922
1434.045, 279.775
1435.233, 380.473
1436.420, 428.529
1437.608, 376.099
1438.795, 450.150
1439.982, 425.203
1441.169, 419.943
1442.355, 388.200
1443.542, 372.886
1444.728, 285.924
1445.914, 292.611
1447.100, 408.296
1448.286, 365.837
1449.472, 184.163
1450.657, 526.850
1451.842, 227.872
1453.027, 221.780
1454.212, 433.783
1455.397, 182.457
1456.581, 295.079
1457.766, 353.156
1458.950, 200.257
1460.134, 395.288
1461.318, 247.251
1462.501, 206.146
1463.685, 262.974
1464.868, 268.813
1466.051, 341.769
1467.234, 286.433
1468.417, 199.288
1469.600, 270.100
1470.782, 312.983
1471.965, 133.953
1473.147, 377.029
1474.329, 330.245
1475.510, 202.483
1476.692, 116.727
1477.873, 259.083
1479.055, 219.445
1480.236, 432.801
1481.416, 190.166
1482.597, 326.553
1483.778, 170.932
1484.958, 206.328
1486.138, 215.743
1487.318, 395.259
1488.498, 190.809
1489.678, 203.525
1490.857, 110.291
1492.037, 193.107
1493.216, 328.993
1494.395, 245.955
1495.574, 328.013
1496.752, 114.174
1497.931, 162.439
1499.109, 85.802
1500.287, 110.268
1501.465, 36.157
1502.643, 107.544
1503.820, 161.395
1504.998, 40.414
1506.175, 20.616
1507.352, 159.011
1508.529, 86.627
1509.706, 181.487
1510.882, 73.619
1512.059, 34.205
1513.235, 112.164
1514.411, 0.259
1515.587, 74.738
1516.762, 49.955
1517.938, 84.601
1519.113, 119.011
1520.288, 24.937
1521.463, 0.000
##END=



