##NAMES=Strontianite
##RRUFFID=R040037
##IDEAL CHEMISTRY=SrCO_3_
##LOCALITY=Alston Moor, Cumbria, England
##OWNER=RRUFF
##SOURCE=University of Arizona Mineral Museum
##DESCRIPTION=Group of tan colored crystals
##STATUS=The identification of this mineral has been confirmed by X-ray diffraction and chemical analysis
##URL=rruff.info/R040037
##MEASURED CHEMISTRY=(Sr_0.91_Ca_0.09_)_Î£=1_CO_3_; CO_2_ estimated by difference
##PIN_ID=L00091
##ORIENTATION=Laser parallel to -b* (0 -1 0). Fiducial mark perpendicular to laser is parallel to -c [0 0 -1]
85.009, 0.000
86.404, 12.995
87.798, 3.774
89.193, 52.230
90.587, 38.200
91.981, 56.103
93.375, 92.133
94.768, 171.121
96.161, 288.264
97.554, 308.983
98.947, 511.841
100.340, 640.505
101.732, 833.719
103.124, 769.280
104.516, 693.019
105.908, 612.796
107.300, 523.495
108.691, 551.010
110.082, 650.254
111.473, 690.154
112.864, 896.652
114.254, 994.694
115.644, 839.238
117.034, 643.248
118.424, 517.703
119.813, 439.572
121.203, 287.806
122.592, 228.377
123.981, 268.261
125.369, 207.439
126.758, 236.889
128.146, 186.585
129.534, 212.950
130.922, 240.007
132.309, 263.932
133.696, 320.415
135.083, 344.062
136.470, 389.878
137.857, 429.892
139.243, 505.263
140.630, 618.353
142.016, 700.806
143.401, 813.410
144.787, 971.168
146.172, 1178.081
147.557, 1189.135
148.942, 1193.284
150.327, 1056.553
151.711, 860.644
153.096, 787.170
154.480, 655.764
155.863, 702.429
157.247, 715.186
158.630, 721.010
160.013, 743.892
161.396, 722.848
162.779, 746.892
164.161, 662.021
165.544, 712.216
166.926, 728.459
168.308, 823.729
169.689, 940.955
171.070, 1078.153
172.452, 1263.359
173.833, 1348.575
175.213, 1379.796
176.594, 1400.031
177.974, 1488.284
179.354, 1695.556
180.734, 1783.859
182.114, 1873.195
183.493, 1831.563
184.872, 1695.978
186.251, 1376.437
187.630, 1080.744
189.008, 809.636
190.387, 653.185
191.765, 501.767
193.143, 388.723
194.520, 281.674
195.898, 254.490
197.275, 145.031
198.652, 184.843
200.029, 138.055
201.405, 124.441
202.782, 64.004
204.158, 78.351
205.534, 167.207
206.909, 67.934
208.285, 78.873
209.660, 108.704
211.035, 68.576
212.410, 39.159
213.784, 64.457
215.159, 71.391
216.533, 55.281
217.907, 21.337
219.281, 38.955
220.654, 24.923
222.027, 71.927
223.400, 66.173
224.773, 43.217
226.146, 25.672
227.518, 38.081
228.891, 36.964
230.263, 61.745
231.634, 84.868
233.006, 103.045
234.377, 171.210
235.748, 220.471
237.119, 246.835
238.490, 275.873
239.860, 303.997
241.231, 347.757
242.601, 362.890
243.970, 514.331
245.340, 645.476
246.709, 670.685
248.079, 827.908
249.448, 837.628
250.816, 770.638
252.185, 691.491
253.553, 613.606
254.921, 567.042
256.289, 523.698
257.657, 537.629
259.024, 529.599
260.391, 523.400
261.758, 458.616
263.125, 452.935
264.492, 352.348
265.858, 272.846
267.224, 270.584
268.590, 111.234
269.956, 176.948
271.321, 98.722
272.687, 114.555
274.052, 70.438
275.416, 129.539
276.781, 64.517
278.146, 53.605
279.510, 54.671
280.874, 56.476
282.237, 41.543
283.601, 51.927
284.964, 10.136
286.327, 26.577
287.690, 2.495
289.053, 20.802
290.416, 33.938
291.778, 31.716
293.140, 25.654
294.502, 16.047
295.863, 62.947
297.225, 26.381
298.586, 11.166
299.947, 64.304
301.308, 6.202
302.668, 5.671
304.029, 49.861
305.389, 5.590
306.749, 21.027
308.108, 33.548
309.468, 3.863
310.827, 12.738
312.186, 12.615
313.545, 33.340
314.903, 4.018
316.262, 33.341
317.620, 26.305
318.978, 18.040
320.336, 13.379
321.693, 8.288
323.051, 13.174
324.408, 22.144
325.765, 53.682
327.121, 36.626
328.478, 5.934
329.834, 17.237
331.190, 25.463
332.546, 5.185
333.902, 56.199
335.257, 25.151
336.612, 13.127
337.967, 35.598
339.322, 25.665
340.677, 27.073
342.031, 2.816
343.385, 25.564
344.739, 16.674
346.093, 14.081
347.446, 53.876
348.799, 21.657
350.153, 7.456
351.505, 3.790
352.858, 14.510
354.210, 47.447
355.563, 30.563
356.915, 53.322
358.267, 0.083
359.618, 15.844
360.969, 36.673
362.321, 41.830
363.672, 2.407
365.022, 66.348
366.373, 19.897
367.723, 84.851
369.073, 75.597
370.423, 40.336
371.773, 2.928
373.122, 52.807
374.471, 59.544
375.821, 11.280
377.169, 41.010
378.518, 9.742
379.866, 11.470
381.215, 21.910
382.563, 13.381
383.910, 16.324
385.258, 53.441
386.605, 32.146
387.952, 11.147
389.299, 57.685
390.646, 40.380
391.992, 26.926
393.339, 8.759
394.685, 2.442
396.031, 7.877
397.376, 22.800
398.722, 7.471
400.067, 41.229
401.412, 7.019
402.757, 26.633
404.101, 73.281
405.446, 33.303
406.790, 29.947
408.134, 43.608
409.478, 3.247
410.821, 77.882
412.165, 2.515
413.508, 122.154
414.851, 47.803
416.193, 89.462
417.536, 23.145
418.878, 7.332
420.220, 47.339
421.562, 1.015
422.904, 39.688
424.245, 75.369
425.586, 57.053
426.927, 102.926
428.268, 18.101
429.609, 49.791
430.949, 29.482
432.289, 45.175
433.629, 29.868
434.969, 37.562
436.309, 4.745
437.648, 92.938
438.987, 25.620
440.326, 48.510
441.665, 5.708
443.003, 48.440
444.342, 20.500
445.680, 55.156
447.018, 21.809
448.355, 11.300
449.693, 15.574
451.030, 14.736
452.367, 67.311
453.704, 43.974
455.041, 76.110
456.377, 13.723
457.713, 71.329
459.049, 42.932
460.385, 51.305
461.721, 122.552
463.056, 37.447
464.391, 40.944
465.726, 61.132
467.061, 71.617
468.395, 63.844
469.730, 52.730
471.064, 43.241
472.398, 37.754
473.731, 22.668
475.065, 37.239
476.398, 70.015
477.731, 71.421
479.064, 77.227
480.397, 57.205
481.729, 79.340
483.062, 27.883
484.394, 55.418
485.725, 31.175
487.057, 59.746
488.389, 83.853
489.720, 54.162
491.051, 54.046
492.382, 39.554
493.712, 1.943
495.043, 26.543
496.373, 59.057
497.703, 45.999
499.032, 96.058
500.362, 64.436
501.691, 76.901
503.020, 69.355
504.349, 42.819
505.678, 46.553
507.007, 25.006
508.335, 16.369
509.663, 19.314
510.991, 61.208
512.319, 13.341
513.646, 27.749
514.973, 3.850
516.300, 102.532
517.627, 75.908
518.954, 72.091
520.280, 36.455
521.607, 19.816
522.933, 75.169
524.259, 98.178
525.584, 52.518
526.910, 76.698
528.235, 63.025
529.560, 71.346
530.885, 68.313
532.209, 72.139
533.534, 57.844
534.858, 72.139
536.182, 75.417
537.506, 45.701
538.829, 110.936
540.152, 45.187
541.476, 56.456
542.799, 60.702
544.121, 4.041
545.444, 75.197
546.766, 47.428
548.088, 32.673
549.410, 97.890
550.732, 53.101
552.053, 65.483
553.375, 51.521
554.696, 62.326
556.017, 47.544
557.337, 45.672
558.658, 33.721
559.978, 33.917
561.298, 58.159
562.618, 49.310
563.938, 18.455
565.257, 49.153
566.576, 40.282
567.895, 53.404
569.214, 94.031
570.533, 56.185
571.851, 54.741
573.170, 113.837
574.488, 84.926
575.805, 41.551
577.123, 4.619
578.440, 49.740
579.758, 60.938
581.075, 44.291
582.391, 46.126
583.708, 78.254
585.024, 27.383
586.341, 14.550
587.657, 89.468
588.972, 130.530
590.288, 96.527
591.603, 114.517
592.918, 74.499
594.233, 109.475
595.548, 92.273
596.863, 65.282
598.177, 2.833
599.491, 13.230
600.805, 36.362
602.119, 18.283
603.432, 53.086
604.746, 57.004
606.059, 22.889
607.372, 20.169
608.685, 72.680
609.997, 0.847
611.309, 0.009
612.621, 9.854
613.933, 110.686
615.245, 49.026
616.557, 80.885
617.868, 67.696
619.179, 11.220
620.490, 7.438
621.801, 89.396
623.111, 8.425
624.421, 62.168
625.731, 10.906
627.041, 110.506
628.351, 75.317
629.660, 9.046
630.970, 133.712
632.279, 77.077
633.588, 25.719
634.896, 46.459
636.205, 23.470
637.513, 46.027
638.821, 48.760
640.129, 77.546
641.437, 107.982
642.744, 44.623
644.051, 37.307
645.358, 55.818
646.665, 98.532
647.972, 46.269
649.278, 97.924
650.584, 67.528
651.890, 104.828
653.196, 38.220
654.502, 58.808
655.807, 11.610
657.113, 52.100
658.418, 93.675
659.722, 87.529
661.027, 71.215
662.331, 42.964
663.636, 120.585
664.940, 13.835
666.244, 132.895
667.547, 57.057
668.851, 94.570
670.154, 74.545
671.457, 62.935
672.760, 58.068
674.062, 68.271
675.365, 60.117
676.667, 89.587
677.969, 124.036
679.271, 102.245
680.572, 128.184
681.874, 166.153
683.175, 135.590
684.476, 123.024
685.777, 115.511
687.077, 111.931
688.378, 162.345
689.678, 240.753
690.978, 349.155
692.278, 495.819
693.577, 1043.258
694.877, 1696.460
696.176, 2547.838
697.475, 2790.204
698.774, 2799.567
700.072, 2553.073
701.371, 2066.017
702.669, 1140.364
703.967, 685.713
705.265, 454.055
706.562, 329.387
707.860, 189.757
709.157, 252.159
710.454, 164.478
711.751, 185.854
713.047, 122.166
714.344, 186.578
715.640, 47.791
716.936, 79.997
718.232, 133.288
719.527, 56.571
720.823, 2.470
722.118, 99.735
723.413, 89.988
724.708, 73.240
726.002, 44.487
727.297, 96.729
728.591, 95.033
729.885, 143.437
731.179, 2.833
732.472, 58.229
733.766, 24.620
735.059, 27.823
736.352, 65.019
737.645, 2.789
738.937, 35.482
740.230, 33.664
741.522, 26.759
742.814, 40.432
744.106, 42.550
745.397, 65.727
746.689, 67.866
747.980, 68.998
749.271, 95.293
750.562, 156.413
751.853, 45.532
753.143, 134.646
754.433, 88.544
755.723, 8.206
757.013, 110.328
758.303, 50.027
759.592, 52.113
760.881, 18.234
762.170, 43.067
763.459, 47.873
764.748, 50.166
766.036, 71.280
767.325, 59.442
768.613, 54.053
769.901, 72.103
771.188, 44.149
772.476, 66.189
773.763, 29.775
775.050, 100.593
776.337, 31.196
777.624, 5.195
778.910, 91.593
780.196, 95.579
781.482, 24.958
782.768, 29.000
784.054, 47.017
785.339, 82.363
786.625, 68.224
787.910, 92.386
789.195, 35.111
790.479, 16.040
791.764, 29.805
793.048, 32.722
794.332, 18.635
795.616, 55.541
796.900, 52.448
798.183, 9.346
799.467, 10.806
800.750, 29.104
802.033, 22.074
803.316, 40.170
804.598, 46.620
805.880, 82.119
807.163, 41.979
808.445, 69.800
809.726, 50.653
811.008, 12.909
812.289, 30.248
813.570, 18.996
814.851, 16.539
816.132, 2.166
817.413, 26.995
818.693, 45.773
819.973, 48.210
821.253, 53.018
822.533, 95.827
823.813, 43.650
825.092, 30.414
826.371, 149.174
827.650, 26.938
828.929, 68.696
830.208, 101.509
831.486, 16.680
832.764, 12.127
834.042, 86.865
835.320, 43.608
836.598, 68.366
837.875, 64.108
839.152, 32.998
840.429, 87.736
841.706, 64.480
842.983, 68.222
844.259, 52.966
845.536, 2.294
846.812, 34.440
848.088, 13.807
849.363, 75.912
850.639, 49.721
851.914, 94.433
853.189, 13.141
854.464, 67.869
855.739, 138.576
857.013, 45.280
858.288, 14.980
859.562, 81.676
860.836, 36.370
862.110, 29.060
863.383, 155.746
864.656, 32.428
865.930, 75.108
867.203, 21.784
868.475, 69.668
869.748, 97.330
871.020, 63.999
872.292, 117.664
873.564, 95.327
874.836, 59.427
876.108, 43.086
877.379, 94.741
878.650, 48.397
879.922, 55.021
881.192, 30.687
882.463, 5.350
883.733, 21.991
885.004, 0.347
886.274, 38.761
887.544, 61.238
888.813, 51.741
890.083, 90.377
891.352, 24.221
892.621, 43.762
893.890, 18.293
895.159, 76.774
896.427, 89.331
897.695, 106.894
898.964, 81.511
900.232, 46.130
901.499, 5.746
902.767, 122.359
904.034, 53.972
905.301, 71.534
906.568, 120.140
907.835, 14.251
909.102, 10.681
910.368, 78.913
911.634, 114.481
912.900, 36.055
914.166, 105.449
915.432, 132.980
916.697, 1.469
917.962, 134.085
919.227, 86.664
920.492, 28.246
921.757, 75.828
923.021, 132.407
924.285, 71.943
925.550, 65.517
926.813, 83.809
928.077, 76.383
929.341, 71.818
930.604, 109.179
931.867, 76.758
933.130, 58.334
934.393, 108.036
935.655, 28.517
936.918, 83.070
938.180, 51.638
939.442, 10.203
940.703, 96.765
941.965, 130.261
943.226, 22.675
944.488, 75.145
945.749, 110.624
947.009, 95.040
948.270, 43.583
949.530, 47.122
950.791, 44.470
952.051, 37.119
953.311, 21.563
954.570, 85.973
955.830, 67.455
957.089, 10.892
958.348, 69.740
959.607, 102.434
960.866, 137.117
962.124, 82.622
963.383, 84.018
964.641, 60.505
965.899, 60.703
967.156, 54.145
968.414, 24.492
969.671, 71.942
970.928, 12.457
972.185, 34.943
973.442, 34.426
974.699, 29.905
975.955, 72.363
977.211, 88.855
978.468, 115.717
979.723, 54.410
980.979, 31.152
982.234, 30.649
983.490, 28.360
984.745, 132.130
986.000, 88.825
987.254, 42.261
988.509, 134.415
989.763, 11.859
991.017, 110.133
992.271, 74.356
993.525, 88.082
994.779, 137.781
996.032, 81.435
997.285, 84.699
998.538, 22.940
999.791, 185.956
1001.044, 30.351
1002.296, 72.948
1003.548, 109.515
1004.800, 47.841
1006.052, 128.846
1007.304, 100.316
1008.555, 89.683
1009.807, 151.157
1011.058, 148.828
1012.309, 112.337
1013.559, 94.878
1014.810, 130.394
1016.060, 118.026
1017.310, 98.520
1018.560, 6.214
1019.810, 51.864
1021.060, 172.535
1022.309, 103.175
1023.558, 182.868
1024.807, 125.656
1026.056, 191.975
1027.305, 121.270
1028.553, 195.979
1029.801, 141.056
1031.049, 107.566
1032.297, 139.256
1033.545, 220.709
1034.793, 126.121
1036.040, 203.480
1037.287, 192.106
1038.534, 188.586
1039.781, 231.893
1041.027, 153.531
1042.274, 208.796
1043.520, 212.487
1044.766, 161.672
1046.012, 256.183
1047.257, 265.473
1048.503, 437.269
1049.748, 422.435
1050.993, 474.954
1052.238, 393.510
1053.483, 397.303
1054.727, 287.612
1055.971, 345.285
1057.216, 334.554
1058.459, 325.159
1059.703, 397.892
1060.947, 419.313
1062.190, 560.529
1063.433, 669.003
1064.676, 992.409
1065.919, 1438.789
1067.162, 2519.754
1068.404, 4158.057
1069.646, 8463.876
1070.888, 20445.434
1072.130, 45296.738
1073.372, 57027.480
1074.613, 38914.609
1075.855, 14340.922
1077.096, 4991.035
1078.337, 2418.234
1079.578, 1442.864
1080.818, 839.838
1082.059, 574.191
1083.299, 468.330
1084.539, 386.516
1085.779, 337.665
1087.018, 302.869
1088.258, 210.082
1089.497, 252.316
1090.736, 197.442
1091.975, 159.692
1093.213, 171.684
1094.452, 198.946
1095.690, 163.942
1096.928, 157.814
1098.166, 134.835
1099.404, 123.084
1100.642, 135.033
1101.879, 167.156
1103.116, 121.892
1104.353, 127.090
1105.590, 52.305
1106.827, 58.844
1108.063, 36.076
1109.299, 45.950
1110.536, 114.434
1111.771, 80.246
1113.007, 130.162
1114.243, 97.502
1115.478, 70.334
1116.713, 73.531
1117.948, 80.747
1119.183, 83.902
1120.418, 101.325
1121.652, 127.096
1122.886, 107.004
1124.120, 156.119
1125.354, 73.117
1126.588, 4.282
1127.821, 21.499
1129.055, 30.792
1130.288, 88.790
1131.521, 24.940
1132.753, 0.019
1133.986, 31.998
1135.218, 117.080
1136.450, 23.174
1137.682, 120.632
1138.914, 9.797
1140.146, 39.997
1141.377, 30.622
1142.609, 15.583
1143.840, 47.150
1145.071, 74.735
1146.301, 103.452
1147.532, 28.010
1148.762, 147.508
1149.992, 54.073
1151.222, 60.912
1152.452, 83.864
1153.682, 3.270
1154.911, 83.687
1156.140, 105.302
1157.369, 48.853
1158.598, 33.446
1159.827, 61.761
1161.055, 46.012
1162.284, 69.292
1163.512, 25.739
1164.740, 73.493
1165.967, 8.215
1167.195, 34.605
1168.422, 33.087
1169.650, 39.625
1170.877, 25.918
1172.103, 11.149
1173.330, 117.431
1174.557, 122.451
1175.783, 13.587
1177.009, 48.325
1178.235, 76.726
1179.461, 26.637
1180.686, 53.768
1181.912, 62.599
1183.137, 73.103
1184.362, 47.167
1185.587, 89.065
1186.811, 141.407
1188.036, 49.106
1189.260, 118.655
1190.484, 36.072
1191.708, 136.028
1192.932, 83.229
1194.155, 183.271
1195.378, 25.153
1196.602, 2.760
1197.825, 79.775
1199.047, 34.524
1200.270, 19.962
1201.492, 203.460
1202.715, 40.980
1203.937, 134.789
1205.159, 132.418
1206.380, 149.939
1207.602, 94.570
1208.823, 159.038
1210.044, 68.312
1211.265, 92.562
1212.486, 96.791
1213.707, 141.000
1214.927, 111.188
1216.147, 17.408
1217.367, 36.710
1218.587, 105.182
1219.807, 21.278
1221.027, 202.058
1222.246, 98.105
1223.465, 150.134
1224.684, 122.141
1225.903, 32.286
1227.121, 8.245
1228.340, 79.735
1229.558, 128.769
1230.776, 116.652
1231.994, 108.651
1233.212, 107.714
1234.429, 103.717
1235.646, 62.546
1236.864, 119.370
1238.081, 87.116
1239.297, 125.017
1240.514, 79.728
1241.730, 140.656
1242.947, 150.685
1244.163, 157.341
1245.378, 72.978
1246.594, 141.595
1247.810, 91.608
1249.025, 209.184
1250.240, 92.741
1251.455, 69.363
1252.670, 118.732
1253.885, 59.238
1255.099, 141.495
1256.313, 24.768
1257.527, 189.485
1258.741, 122.849
1259.955, 37.229
1261.168, 140.586
1262.382, 52.837
1263.595, 40.075
1264.808, 128.319
1266.021, 123.553
1267.233, 132.800
1268.446, 96.021
1269.658, 47.217
1270.870, 77.389
1272.082, 45.100
1273.294, 37.179
1274.505, 28.054
1275.716, 52.833
1276.928, 32.828
1278.139, 43.652
1279.349, 52.045
1280.560, 39.720
1281.770, 94.587
1282.981, 76.710
1284.191, 92.514
1285.401, 68.401
1286.610, 100.354
1287.820, 53.892
1289.029, 61.170
1290.239, 92.697
1291.448, 57.202
1292.656, 85.774
1293.865, 102.014
1295.073, 59.540
1296.282, 32.835
1297.490, 21.135
1298.698, 24.788
1299.906, 18.310
1301.113, 50.621
1302.320, 58.993
1303.528, 49.104
1304.735, 4.125
1305.942, 117.228
1307.148, 105.241
1308.355, 61.323
1309.561, 22.199
1310.767, 23.246
1311.973, 31.954
1313.179, 17.219
1314.384, 34.559
1315.590, 68.334
1316.795, 78.024
1318.000, 60.591
1319.205, 118.599
1320.410, 6.580
1321.614, 79.867
1322.819, 83.287
1324.023, 45.023
1325.227, 53.389
1326.431, 119.899
1327.634, 23.578
1328.838, 54.942
1330.041, 89.327
1331.244, 18.861
1332.447, 126.537
1333.650, 10.146
1334.852, 11.423
1336.055, 17.381
1337.257, 21.186
1338.459, 34.515
1339.661, 51.037
1340.862, 111.022
1342.064, 20.390
1343.265, 63.815
1344.466, 145.784
1345.667, 13.390
1346.868, 100.987
1348.068, 37.925
1349.269, 65.298
1350.469, 86.578
1351.669, 55.874
1352.869, 88.954
1354.069, 148.211
1355.268, 134.622
1356.468, 157.913
1357.667, 140.768
1358.866, 150.986
1360.065, 116.132
1361.263, 89.629
1362.462, 46.475
1363.660, 144.437
1364.858, 13.926
1366.056, 166.975
1367.254, 174.419
1368.451, 199.435
1369.649, 87.303
1370.846, 129.700
1372.043, 22.707
1373.240, 93.322
1374.436, 177.028
1375.633, 89.644
1376.829, 68.179
1378.025, 66.658
1379.221, 156.078
1380.417, 106.304
1381.613, 175.030
1382.808, 78.711
1384.003, 166.713
1385.199, 63.388
1386.393, 42.074
1387.588, 126.760
1388.783, 165.169
1389.977, 210.597
1391.171, 34.725
1392.365, 135.809
1393.559, 144.071
1394.753, 98.116
1395.946, 165.599
1397.140, 87.469
1398.333, 152.181
1399.526, 159.379
1400.719, 48.734
1401.911, 212.138
1403.104, 141.735
1404.296, 117.575
1405.488, 183.412
1406.680, 124.975
1407.872, 187.688
1409.063, 178.565
1410.255, 172.797
1411.446, 151.457
1412.637, 166.312
1413.828, 183.583
1415.018, 112.158
1416.209, 172.697
1417.399, 90.089
1418.589, 189.093
1419.779, 226.015
1420.969, 152.223
1422.159, 178.618
1423.348, 155.179
1424.537, 111.644
1425.726, 186.322
1426.915, 120.288
1428.104, 173.971
1429.293, 163.552
1430.481, 52.582
1431.669, 120.833
1432.857, 144.194
1434.045, 77.185
1435.233, 263.017
1436.420, 273.188
1437.608, 273.650
1438.795, 358.620
1439.982, 334.855
1441.169, 247.057
1442.355, 231.856
1443.542, 256.369
1444.728, 213.193
1445.914, 321.259
1447.100, 347.998
1448.286, 384.711
1449.472, 221.424
1450.657, 351.482
1451.842, 248.289
1453.027, 212.808
1454.212, 255.113
1455.397, 98.084
1456.581, 185.728
1457.766, 273.401
1458.950, 94.717
1460.134, 161.860
1461.318, 176.244
1462.501, 255.896
1463.685, 235.176
1464.868, 136.389
1466.051, 192.537
1467.234, 78.638
1468.417, 69.698
1469.600, 201.704
1470.782, 134.461
1471.965, 88.456
1473.147, 166.516
1474.329, 94.813
1475.510, 88.119
1476.692, 94.123
1477.873, 85.619
1479.055, 85.145
1480.236, 81.243
1481.416, 63.343
1482.597, 66.898
1483.778, 88.458
1484.958, 76.008
1486.138, 145.576
1487.318, 227.150
1488.498, 95.725
1489.678, 83.319
1490.857, 13.051
1492.037, 72.605
1493.216, 167.311
1494.395, 105.051
1495.574, 136.844
1496.752, 64.708
1497.931, 150.654
1499.109, 4.333
1500.287, 30.756
1501.465, 15.898
1502.643, 43.096
1503.820, 8.362
1504.998, 62.711
1506.175, 111.155
1507.352, 113.551
1508.529, 4.654
1509.706, 51.111
1510.882, 75.249
1512.059, 30.886
1513.235, 98.803
1514.411, 16.455
1515.587, 65.354
1516.762, 45.121
1517.938, 10.038
1519.113, 83.462
1520.288, 59.189
1521.463, 0.000
##END=



