##NAMES=Strontianite
##RRUFFID=R040037
##IDEAL CHEMISTRY=SrCO_3_
##LOCALITY=Alston Moor, Cumbria, England
##OWNER=RRUFF
##SOURCE=University of Arizona Mineral Museum
##DESCRIPTION=Group of tan colored crystals
##STATUS=The identification of this mineral has been confirmed by X-ray diffraction and chemical analysis
##URL=rruff.info/R040037
##MEASURED CHEMISTRY=(Sr_0.91_Ca_0.09_)_Î£=1_CO_3_; CO_2_ estimated by difference
##PIN_ID=L00091
##ORIENTATION=Laser parallel to -b* (0 -1 0). Fiducial mark perpendicular to laser is parallel to -c [0 0 -1]
90.587, 0.000
91.981, 91.571
93.375, 9.763
94.768, 41.087
96.161, 171.427
97.554, 213.856
98.947, 379.060
100.340, 544.859
101.732, 666.733
103.124, 684.569
104.516, 595.530
105.908, 543.984
107.300, 408.439
108.691, 465.501
110.082, 456.837
111.473, 528.170
112.864, 613.262
114.254, 751.908
115.644, 778.940
117.034, 668.233
118.424, 576.672
119.813, 556.177
121.203, 511.670
122.592, 463.076
123.981, 610.321
125.369, 602.330
126.758, 664.029
128.146, 697.352
129.534, 989.246
130.922, 975.664
132.309, 1160.562
133.696, 1199.889
135.083, 1594.600
136.470, 1729.658
137.857, 2279.045
139.243, 2765.758
140.630, 3589.863
142.016, 4382.356
143.401, 5582.200
144.787, 6975.289
146.172, 8345.704
147.557, 9282.617
148.942, 9203.817
150.327, 7972.338
151.711, 6332.185
153.096, 4988.256
154.480, 3698.486
155.863, 2967.968
157.247, 2408.618
158.630, 2204.363
160.013, 1900.178
161.396, 1808.050
162.779, 1731.981
164.161, 1610.972
165.544, 1729.015
166.926, 1825.154
168.308, 1980.381
169.689, 2300.677
171.070, 2911.025
172.452, 3606.413
173.833, 4351.813
175.213, 5254.119
176.594, 6224.382
177.974, 7630.608
179.354, 8982.819
180.734, 9628.036
182.114, 10058.277
183.493, 9760.542
184.872, 8214.243
186.251, 6646.621
187.630, 4926.883
189.008, 3561.999
190.387, 2697.604
191.765, 1860.315
193.143, 1474.138
194.520, 1196.170
195.898, 988.773
197.275, 795.029
198.652, 701.342
200.029, 634.214
201.405, 534.340
202.782, 437.652
204.158, 398.128
205.534, 334.361
206.909, 294.700
208.285, 276.089
209.660, 252.604
211.035, 251.561
212.410, 243.106
213.784, 228.894
215.159, 255.161
216.533, 238.514
217.907, 240.166
219.281, 204.112
220.654, 136.275
222.027, 171.637
223.400, 166.438
224.773, 209.205
226.146, 185.890
227.518, 169.709
228.891, 390.559
230.263, 262.431
231.634, 413.325
233.006, 452.260
234.377, 683.389
235.748, 804.461
237.119, 1010.426
238.490, 1213.420
239.860, 1146.415
241.231, 1179.259
242.601, 1201.374
243.970, 1282.644
245.340, 1418.213
246.709, 1296.415
248.079, 1188.432
249.448, 1011.027
250.816, 854.141
252.185, 667.179
253.553, 597.336
254.921, 550.388
256.289, 431.009
257.657, 379.209
259.024, 369.681
260.391, 391.333
261.758, 321.011
263.125, 346.013
264.492, 232.298
265.858, 205.824
267.224, 213.618
268.590, 60.938
269.956, 159.032
271.321, 79.290
272.687, 43.856
274.052, 53.378
275.416, 22.012
276.781, 16.250
278.146, 0.612
279.510, 56.447
280.874, 3.913
282.237, 117.987
283.601, 26.363
284.964, 22.159
286.327, 101.469
287.690, 34.896
289.053, 73.428
290.416, 6.970
291.778, 32.589
293.140, 2.462
294.502, 32.013
295.863, 41.216
297.225, 65.195
298.586, 0.431
299.947, 37.072
301.308, 13.260
302.668, 6.560
304.029, 5.417
305.389, 16.833
306.749, 26.064
308.108, 60.449
309.468, 30.749
310.827, 79.514
312.186, 69.698
313.545, 9.333
314.903, 107.102
316.262, 32.293
317.620, 6.056
318.978, 16.877
320.336, 11.295
321.693, 27.467
323.051, 51.364
324.408, 50.808
325.765, 39.013
327.121, 92.164
328.478, 79.358
329.834, 42.432
331.190, 70.228
332.546, 10.748
333.902, 87.062
335.257, 59.329
336.612, 20.528
337.967, 36.680
339.322, 20.530
340.677, 27.464
342.031, 2.279
343.385, 0.305
344.739, 28.350
346.093, 36.553
347.446, 44.767
348.799, 18.005
350.153, 15.225
351.505, 36.534
352.858, 19.321
354.210, 19.952
355.563, 84.761
356.915, 26.464
358.267, 0.150
359.618, 64.022
360.969, 89.694
362.321, 73.089
363.672, 28.745
365.022, 59.370
366.373, 80.969
367.723, 133.524
369.073, 74.076
370.423, 82.612
371.773, 32.129
373.122, 101.665
374.471, 105.121
375.821, 25.569
377.169, 73.040
378.518, 30.451
379.866, 67.849
381.215, 127.235
382.563, 59.594
383.910, 41.009
385.258, 70.333
386.605, 89.642
387.952, 5.056
389.299, 98.459
390.646, 8.736
391.992, 51.150
393.339, 107.410
394.685, 33.898
396.031, 124.143
397.376, 14.622
398.722, 54.596
400.067, 39.805
401.412, 78.007
402.757, 173.201
404.101, 28.459
405.446, 53.621
406.790, 123.774
408.134, 50.909
409.478, 90.034
410.821, 78.152
412.165, 51.259
413.508, 140.383
414.851, 120.474
416.193, 99.560
417.536, 2.495
418.878, 119.948
420.220, 92.235
421.562, 14.340
422.904, 96.000
424.245, 133.085
425.586, 114.573
426.927, 208.847
428.268, 66.025
429.609, 48.106
430.949, 98.180
432.289, 187.906
433.629, 25.640
434.969, 150.842
436.309, 121.996
437.648, 180.025
438.987, 31.838
440.326, 11.841
441.665, 1.867
443.003, 132.826
444.342, 51.843
445.680, 98.346
447.018, 58.876
448.355, 61.810
449.693, 74.953
451.030, 89.525
452.367, 137.393
453.704, 15.294
455.041, 153.411
456.377, 18.735
457.713, 140.505
459.049, 84.060
460.385, 102.785
461.721, 96.513
463.056, 127.150
464.391, 67.808
465.726, 233.930
467.061, 152.163
468.395, 19.888
469.730, 178.626
471.064, 6.388
472.398, 156.891
473.731, 50.608
475.065, 57.021
476.398, 88.740
477.731, 47.581
479.064, 112.072
480.397, 126.840
481.729, 156.982
483.062, 83.279
484.394, 96.704
485.725, 86.935
487.057, 93.491
488.389, 80.479
489.720, 91.059
491.051, 103.673
492.382, 57.008
493.712, 88.967
495.043, 35.282
496.373, 78.630
497.703, 46.776
499.032, 101.156
500.362, 59.957
501.691, 76.925
503.020, 12.031
504.349, 63.012
505.678, 81.843
507.007, 99.908
508.335, 114.585
509.663, 101.706
510.991, 155.874
512.319, 69.959
513.646, 137.015
514.973, 86.714
516.300, 164.745
517.627, 128.934
518.954, 57.324
520.280, 188.314
521.607, 34.643
522.933, 116.576
524.259, 148.022
525.584, 100.919
526.910, 90.797
528.235, 127.658
529.560, 191.502
530.885, 113.389
532.209, 72.180
533.534, 136.969
534.858, 107.740
536.182, 74.323
537.506, 100.057
538.829, 156.667
540.152, 119.367
541.476, 153.937
542.799, 74.713
544.121, 156.347
545.444, 121.975
546.766, 93.585
548.088, 64.497
549.410, 88.070
550.732, 69.748
552.053, 127.136
553.375, 64.659
554.696, 115.919
556.017, 92.958
557.337, 151.475
558.658, 147.926
559.978, 103.271
561.298, 165.919
562.618, 76.318
563.938, 98.172
565.257, 168.821
566.576, 126.448
567.895, 125.667
569.214, 114.155
570.533, 142.570
571.851, 91.993
573.170, 135.520
574.488, 98.975
575.805, 32.728
577.123, 13.276
578.440, 67.643
579.758, 98.461
581.075, 43.220
582.391, 146.448
583.708, 11.637
585.024, 69.013
586.341, 81.313
587.657, 114.354
588.972, 161.023
590.288, 11.993
591.603, 38.279
592.918, 72.027
594.233, 78.147
595.548, 156.025
596.863, 140.188
598.177, 124.111
599.491, 99.453
600.805, 144.036
602.119, 89.822
603.432, 92.637
604.746, 175.549
606.059, 101.148
607.372, 97.647
608.685, 142.395
609.997, 108.396
611.309, 63.068
612.621, 4.521
613.933, 51.328
615.245, 154.268
616.557, 14.970
617.868, 142.569
619.179, 132.599
620.490, 10.870
621.801, 85.707
623.111, 0.932
624.421, 125.473
625.731, 17.905
627.041, 77.983
628.351, 65.698
629.660, 2.944
630.970, 212.309
632.279, 71.361
633.588, 128.293
634.896, 2.075
636.205, 169.816
637.513, 49.120
638.821, 75.595
640.129, 201.904
641.437, 113.154
642.744, 80.398
644.051, 73.635
645.358, 88.894
646.665, 93.105
647.972, 1.863
649.278, 135.047
650.584, 44.779
651.890, 132.335
653.196, 85.634
654.502, 99.970
655.807, 90.752
657.113, 20.994
658.418, 24.067
659.722, 80.432
661.027, 67.799
662.331, 15.359
663.636, 80.950
664.940, 61.881
666.244, 185.282
667.547, 46.346
668.851, 158.366
670.154, 147.209
671.457, 54.068
672.760, 167.914
674.062, 77.743
675.365, 89.555
676.667, 116.156
677.969, 43.285
679.271, 180.484
680.572, 28.231
681.874, 184.957
683.175, 183.668
684.476, 153.614
685.777, 228.337
687.077, 104.999
688.378, 210.808
689.678, 140.386
690.978, 262.998
692.278, 175.594
693.577, 803.130
694.877, 1081.920
696.176, 1623.472
697.475, 1795.012
698.774, 1922.809
700.072, 1870.234
701.371, 1617.722
702.669, 930.196
703.967, 696.746
705.265, 578.041
706.562, 329.477
707.860, 218.754
709.157, 413.298
710.454, 428.457
711.751, 593.152
713.047, 194.643
714.344, 259.005
715.640, 96.351
716.936, 64.027
718.232, 209.416
719.527, 162.637
720.823, 44.927
722.118, 119.198
723.413, 57.455
724.708, 75.698
726.002, 88.924
727.297, 56.227
728.591, 53.029
729.885, 66.076
731.179, 13.900
732.472, 64.186
733.766, 67.940
735.059, 1.855
736.352, 119.058
737.645, 88.338
738.937, 93.419
740.230, 40.084
741.522, 52.945
742.814, 97.036
744.106, 101.058
745.397, 179.236
746.689, 33.642
747.980, 119.042
749.271, 58.857
750.562, 160.700
751.853, 43.247
753.143, 84.658
754.433, 14.554
755.723, 52.407
757.013, 124.292
758.303, 1.095
759.592, 71.895
760.881, 54.738
762.170, 85.545
763.459, 73.324
764.748, 36.158
766.036, 118.951
767.325, 31.509
768.613, 53.392
769.901, 105.836
771.188, 79.602
772.476, 96.374
773.763, 2.113
775.050, 168.838
776.337, 85.343
777.624, 214.954
778.910, 81.275
780.196, 105.322
781.482, 8.132
782.768, 25.675
784.054, 33.371
785.339, 133.802
786.625, 65.565
787.910, 106.872
789.195, 32.453
790.479, 74.751
791.764, 212.639
793.048, 53.920
794.332, 89.320
795.616, 153.849
796.900, 97.560
798.183, 32.055
799.467, 87.506
800.750, 105.948
802.033, 4.432
803.316, 247.754
804.598, 68.808
805.880, 125.304
807.163, 116.688
808.445, 33.943
809.726, 53.479
811.008, 46.743
812.289, 46.739
813.570, 90.038
814.851, 118.345
816.132, 81.567
817.413, 0.539
818.693, 138.714
819.973, 5.004
821.253, 49.248
822.533, 56.183
823.813, 132.418
825.092, 126.124
826.371, 146.581
827.650, 125.798
828.929, 130.832
830.208, 122.907
831.486, 2.088
832.764, 45.844
834.042, 210.046
835.320, 101.711
836.598, 114.225
837.875, 24.418
839.152, 73.600
840.429, 193.813
841.706, 44.944
842.983, 100.129
844.259, 181.334
845.536, 89.531
846.812, 84.722
848.088, 29.907
849.363, 98.085
850.639, 82.294
851.914, 17.459
853.189, 173.617
854.464, 91.779
855.739, 299.926
857.013, 61.064
858.288, 65.203
859.562, 144.334
860.836, 143.461
862.110, 26.420
863.383, 111.684
864.656, 7.820
865.930, 52.915
867.203, 145.003
868.475, 94.096
869.748, 1.182
871.020, 65.029
872.292, 119.103
873.564, 197.172
874.836, 179.255
876.108, 170.821
877.379, 123.896
878.650, 114.800
879.922, 60.757
881.192, 113.569
882.463, 99.364
883.733, 43.212
885.004, 156.736
886.274, 148.570
887.544, 122.426
888.813, 55.804
890.083, 42.150
891.352, 164.757
892.621, 136.682
893.890, 97.386
895.159, 47.141
896.427, 93.074
897.695, 42.950
898.964, 67.023
900.232, 61.700
901.499, 85.706
902.767, 89.402
904.034, 58.477
905.301, 104.160
906.568, 161.027
907.835, 186.566
909.102, 95.286
910.368, 135.246
911.634, 94.647
912.900, 161.434
914.166, 251.145
915.432, 166.978
916.697, 76.754
917.962, 149.369
919.227, 104.287
920.492, 246.873
921.757, 122.558
923.021, 153.457
924.285, 133.243
925.550, 166.100
926.813, 159.519
928.077, 117.410
929.341, 127.221
930.604, 68.107
931.867, 0.099
933.130, 136.779
934.393, 230.256
935.655, 33.803
936.918, 190.374
938.180, 98.233
939.442, 198.069
940.703, 118.914
941.965, 14.462
943.226, 6.189
944.488, 79.532
945.749, 127.156
947.009, 183.145
948.270, 39.948
949.530, 213.889
950.791, 28.672
952.051, 69.869
953.311, 29.942
954.570, 225.590
955.830, 164.531
957.089, 161.326
958.348, 156.094
959.607, 142.426
960.866, 18.965
962.124, 113.229
963.383, 184.541
964.641, 31.837
965.899, 37.737
967.156, 46.786
968.414, 47.062
969.671, 67.828
970.928, 22.502
972.185, 150.023
973.442, 73.091
974.699, 192.206
975.955, 130.131
977.211, 105.677
978.468, 175.531
979.723, 94.771
980.979, 92.052
982.234, 198.886
983.490, 25.060
984.745, 121.129
986.000, 94.449
987.254, 17.489
988.509, 153.008
989.763, 116.370
991.017, 89.509
992.271, 137.223
993.525, 132.196
994.779, 163.151
996.032, 249.086
997.285, 191.023
998.538, 193.606
999.791, 187.277
1001.044, 104.369
1002.296, 166.208
1003.548, 116.623
1004.800, 113.402
1006.052, 204.671
1007.304, 266.316
1008.555, 193.574
1009.807, 366.113
1011.058, 210.168
1012.309, 248.828
1013.559, 189.854
1014.810, 113.556
1016.060, 233.442
1017.310, 274.199
1018.560, 142.678
1019.810, 103.453
1021.060, 262.282
1022.309, 239.115
1023.558, 260.568
1024.807, 190.540
1026.056, 225.617
1027.305, 159.340
1028.553, 167.205
1029.801, 314.053
1031.049, 209.782
1032.297, 241.814
1033.545, 332.164
1034.793, 170.549
1036.040, 256.551
1037.287, 255.552
1038.534, 261.116
1039.781, 268.506
1041.027, 280.284
1042.274, 291.758
1043.520, 311.780
1044.766, 331.045
1046.012, 341.847
1047.257, 382.726
1048.503, 556.085
1049.748, 419.583
1050.993, 563.163
1052.238, 493.330
1053.483, 300.110
1054.727, 246.134
1055.971, 486.577
1057.216, 434.948
1058.459, 488.036
1059.703, 430.103
1060.947, 485.856
1062.190, 448.447
1063.433, 610.923
1064.676, 849.979
1065.919, 1197.945
1067.162, 2094.149
1068.404, 3171.336
1069.646, 6400.617
1070.888, 15033.715
1072.130, 33907.746
1073.372, 44689.324
1074.613, 31188.627
1075.855, 12302.011
1077.096, 4816.958
1078.337, 2462.752
1079.578, 1384.922
1080.818, 843.318
1082.059, 704.901
1083.299, 520.782
1084.539, 282.177
1085.779, 264.855
1087.018, 393.439
1088.258, 129.061
1089.497, 244.923
1090.736, 271.549
1091.975, 190.024
1093.213, 64.174
1094.452, 227.699
1095.690, 137.695
1096.928, 241.384
1098.166, 156.178
1099.404, 301.055
1100.642, 83.533
1101.879, 124.229
1103.116, 94.243
1104.353, 154.583
1105.590, 132.535
1106.827, 218.197
1108.063, 64.066
1109.299, 193.354
1110.536, 49.952
1111.771, 20.034
1113.007, 164.785
1114.243, 171.776
1115.478, 135.377
1116.713, 72.593
1117.948, 114.640
1119.183, 5.196
1120.418, 145.952
1121.652, 91.482
1122.886, 86.450
1124.120, 162.167
1125.354, 16.613
1126.588, 178.211
1127.821, 86.005
1129.055, 75.305
1130.288, 181.227
1131.521, 12.985
1132.753, 44.394
1133.986, 61.704
1135.218, 127.854
1136.450, 30.521
1137.682, 248.658
1138.914, 89.414
1140.146, 80.916
1141.377, 97.919
1142.609, 84.494
1143.840, 143.079
1145.071, 140.358
1146.301, 41.984
1147.532, 89.483
1148.762, 99.740
1149.992, 156.980
1151.222, 7.500
1152.452, 188.491
1153.682, 69.844
1154.911, 217.252
1156.140, 5.488
1157.369, 221.136
1158.598, 115.184
1159.827, 213.961
1161.055, 92.300
1162.284, 12.157
1163.512, 80.164
1164.740, 153.803
1165.967, 21.294
1167.195, 183.566
1168.422, 99.008
1169.650, 163.309
1170.877, 56.711
1172.103, 117.801
1173.330, 122.222
1174.557, 203.528
1175.783, 331.741
1177.009, 79.324
1178.235, 188.951
1179.461, 136.974
1180.686, 72.554
1181.912, 245.794
1183.137, 137.364
1184.362, 138.361
1185.587, 239.510
1186.811, 268.187
1188.036, 110.173
1189.260, 268.390
1190.484, 213.062
1191.708, 341.538
1192.932, 136.483
1194.155, 150.745
1195.378, 46.264
1196.602, 217.647
1197.825, 188.833
1199.047, 310.603
1200.270, 156.303
1201.492, 379.598
1202.715, 231.655
1203.937, 244.810
1205.159, 320.824
1206.380, 333.571
1207.602, 141.033
1208.823, 175.661
1210.044, 199.116
1211.265, 295.508
1212.486, 342.869
1213.707, 244.195
1214.927, 249.966
1216.147, 222.346
1217.367, 262.041
1218.587, 274.770
1219.807, 135.859
1221.027, 198.229
1222.246, 173.875
1223.465, 274.132
1224.684, 305.120
1225.903, 210.690
1227.121, 133.494
1228.340, 251.245
1229.558, 263.232
1230.776, 135.255
1231.994, 247.995
1233.212, 372.920
1234.429, 303.559
1235.646, 243.940
1236.864, 294.341
1238.081, 254.705
1239.297, 318.032
1240.514, 293.799
1241.730, 181.044
1242.947, 248.180
1244.163, 170.344
1245.378, 190.128
1246.594, 224.394
1247.810, 206.342
1249.025, 329.020
1250.240, 293.522
1251.455, 140.230
1252.670, 207.113
1253.885, 151.045
1255.099, 282.223
1256.313, 135.885
1257.527, 319.895
1258.741, 151.877
1259.955, 1.264
1261.168, 131.871
1262.382, 225.008
1263.595, 256.949
1264.808, 148.074
1266.021, 284.430
1267.233, 153.494
1268.446, 268.129
1269.658, 108.746
1270.870, 203.559
1272.082, 85.670
1273.294, 85.410
1274.505, 154.930
1275.716, 236.061
1276.928, 73.650
1278.139, 98.506
1279.349, 155.342
1280.560, 133.102
1281.770, 172.080
1282.981, 111.506
1284.191, 193.898
1285.401, 195.521
1286.610, 139.617
1287.820, 189.127
1289.029, 165.354
1290.239, 226.340
1291.448, 133.854
1292.656, 153.900
1293.865, 46.090
1295.073, 186.260
1296.282, 78.379
1297.490, 22.930
1298.698, 135.369
1299.906, 114.113
1301.113, 139.420
1302.320, 75.951
1303.528, 36.158
1304.735, 24.141
1305.942, 94.891
1307.148, 181.357
1308.355, 27.219
1309.561, 209.520
1310.767, 136.076
1311.973, 47.021
1313.179, 74.484
1314.384, 9.596
1315.590, 26.123
1316.795, 171.547
1318.000, 55.629
1319.205, 165.545
1320.410, 32.742
1321.614, 101.793
1322.819, 79.680
1324.023, 35.580
1325.227, 293.205
1326.431, 111.445
1327.634, 6.424
1328.838, 2.119
1330.041, 100.277
1331.244, 199.047
1332.447, 113.889
1333.650, 75.021
1334.852, 166.764
1336.055, 30.770
1337.257, 11.992
1338.459, 48.008
1339.661, 155.033
1340.862, 173.352
1342.064, 208.566
1343.265, 78.619
1344.466, 81.115
1345.667, 145.941
1346.868, 191.352
1348.068, 156.404
1349.269, 177.471
1350.469, 229.762
1351.669, 73.016
1352.869, 233.523
1354.069, 265.137
1355.268, 62.096
1356.468, 270.137
1357.667, 311.740
1358.866, 143.496
1360.065, 224.385
1361.263, 137.113
1362.462, 116.842
1363.660, 289.590
1364.858, 177.889
1366.056, 100.172
1367.254, 180.412
1368.451, 233.947
1369.649, 90.531
1370.846, 368.672
1372.043, 323.438
1373.240, 183.775
1374.436, 162.873
1375.633, 216.326
1376.829, 159.062
1378.025, 214.922
1379.221, 208.176
1380.417, 245.814
1381.613, 251.207
1382.808, 275.799
1384.003, 367.537
1385.199, 409.898
1386.393, 205.480
1387.588, 302.797
1388.783, 239.857
1389.977, 379.213
1391.171, 149.596
1392.365, 264.520
1393.559, 453.262
1394.753, 340.143
1395.946, 161.105
1397.140, 203.625
1398.333, 361.547
1399.526, 256.148
1400.719, 240.934
1401.911, 196.535
1403.104, 296.473
1404.296, 168.318
1405.488, 322.348
1406.680, 202.520
1407.872, 188.713
1409.063, 398.568
1410.255, 190.488
1411.446, 339.334
1412.637, 202.551
1413.828, 302.141
1415.018, 342.170
1416.209, 328.084
1417.399, 154.482
1418.589, 501.354
1419.779, 161.781
1420.969, 293.904
1422.159, 283.605
1423.348, 179.945
1424.537, 302.105
1425.726, 315.133
1426.915, 133.242
1428.104, 254.645
1429.293, 148.361
1430.481, 230.711
1431.669, 271.723
1432.857, 264.229
1434.045, 221.914
1435.233, 447.986
1436.420, 322.973
1437.608, 315.492
1438.795, 538.492
1439.982, 419.957
1441.169, 351.141
1442.355, 235.943
1443.542, 452.777
1444.728, 314.809
1445.914, 676.793
1447.100, 687.100
1448.286, 831.143
1449.472, 668.688
1450.657, 763.150
1451.842, 618.240
1453.027, 555.525
1454.212, 593.686
1455.397, 525.248
1456.581, 375.270
1457.766, 551.236
1458.950, 378.934
1460.134, 452.482
1461.318, 422.941
1462.501, 251.949
1463.685, 462.566
1464.868, 231.400
1466.051, 567.965
1467.234, 223.764
1468.417, 341.707
1469.600, 415.848
1470.782, 264.480
1471.965, 186.721
1473.147, 193.645
1474.329, 320.160
1475.510, 185.623
1476.692, 201.387
1477.873, 274.457
1479.055, 94.555
1480.236, 318.654
1481.416, 108.744
1482.597, 378.836
1483.778, 305.947
1484.958, 209.088
1486.138, 270.250
1487.318, 224.215
1488.498, 224.613
1489.678, 300.805
1490.857, 233.051
1492.037, 382.377
1493.216, 137.803
1494.395, 239.361
1495.574, 256.068
1496.752, 23.924
1497.931, 305.928
1499.109, 33.953
1500.287, 118.293
1501.465, 51.631
1502.643, 55.107
1503.820, 136.734
1504.998, 114.527
1506.175, 51.518
1507.352, 1.258
1508.529, 105.221
1509.706, 1.746
1510.882, 183.619
1512.059, 168.770
1513.235, 132.836
1514.411, 33.490
1515.587, 266.432
1516.762, 15.531
1517.938, 131.279
1519.113, 123.701
1520.288, 114.180
1521.463, 0.000
##END=



