##NAMES=Strontianite
##RRUFFID=R040037
##IDEAL CHEMISTRY=SrCO_3_
##LOCALITY=Alston Moor, Cumbria, England
##OWNER=RRUFF
##SOURCE=University of Arizona Mineral Museum
##DESCRIPTION=Group of tan colored crystals
##STATUS=The identification of this mineral has been confirmed by X-ray diffraction and chemical analysis
##URL=rruff.info/R040037
##MEASURED CHEMISTRY=(Sr_0.91_Ca_0.09_)_Î£=1_CO_3_; CO_2_ estimated by difference
##PIN_ID=L00367
##ORIENTATION=Laser parallel to -a* (-1 0 0). Fiducial mark perpendicular to laser is parallel to -b [0 -1 0]
107.300, 0.000
108.691, 12.482
110.082, 115.749
111.473, 12.537
112.864, 13.008
114.254, 88.869
115.644, 183.694
117.034, 183.455
118.424, 243.421
119.813, 182.056
121.203, 358.944
122.592, 240.765
123.981, 319.260
125.369, 337.220
126.758, 422.471
128.146, 507.868
129.534, 454.289
130.922, 683.645
132.309, 712.846
133.696, 840.807
135.083, 808.455
136.470, 1186.741
137.857, 1142.623
139.243, 1531.047
140.630, 1664.967
142.016, 2186.347
143.401, 2545.156
144.787, 3170.363
146.172, 3707.941
147.557, 4285.867
148.942, 4484.116
150.327, 4278.659
151.711, 3902.487
153.096, 3366.774
154.480, 3011.271
155.863, 2566.011
157.247, 2408.934
158.630, 2391.037
160.013, 2172.307
161.396, 2096.736
162.779, 1929.400
164.161, 1601.332
165.544, 1337.512
166.926, 1039.842
168.308, 911.297
169.689, 879.871
171.070, 806.557
172.452, 986.351
173.833, 1003.251
175.213, 1099.273
176.594, 1377.478
177.974, 1478.774
179.354, 1849.163
180.734, 2049.641
182.114, 2027.240
183.493, 1955.927
184.872, 1954.695
186.251, 1477.544
187.630, 1260.472
189.008, 909.478
190.387, 782.530
191.765, 628.549
193.143, 382.545
194.520, 426.068
195.898, 270.067
197.275, 368.087
198.652, 216.036
200.029, 257.028
201.405, 296.066
202.782, 233.780
204.158, 143.892
205.534, 136.088
206.909, 258.294
208.285, 102.742
209.660, 81.063
211.035, 206.456
212.410, 4.919
213.784, 124.435
215.159, 143.004
216.533, 89.733
217.907, 188.203
219.281, 196.771
220.654, 184.516
222.027, 214.334
223.400, 186.855
224.773, 159.727
226.146, 175.648
227.518, 55.620
228.891, 77.066
230.263, 88.138
231.634, 180.261
233.006, 258.433
234.377, 140.652
235.748, 269.918
237.119, 281.229
238.490, 161.588
239.860, 330.989
241.231, 226.259
242.601, 299.741
243.970, 275.193
245.340, 326.722
246.709, 276.292
248.079, 187.904
249.448, 320.556
250.816, 150.247
252.185, 161.979
253.553, 209.757
254.921, 121.068
256.289, 139.189
257.657, 53.057
259.024, 145.960
260.391, 118.900
261.758, 158.874
263.125, 109.885
264.492, 180.935
265.858, 96.022
267.224, 91.149
268.590, 137.314
269.956, 9.547
271.321, 181.811
272.687, 57.896
274.052, 10.201
275.416, 62.650
276.781, 193.373
278.146, 178.815
279.510, 36.970
280.874, 20.700
282.237, 11.030
283.601, 167.661
284.964, 122.577
286.327, 22.286
287.690, 165.261
289.053, 23.282
290.416, 53.475
291.778, 181.757
293.140, 41.124
294.502, 158.346
295.863, 45.127
297.225, 114.466
298.586, 26.126
299.947, 117.848
301.308, 97.632
302.668, 1.525
304.029, 17.389
305.389, 43.356
306.749, 127.375
308.108, 9.557
309.468, 50.525
310.827, 89.704
312.186, 145.231
313.545, 144.248
314.903, 110.889
316.262, 108.290
317.620, 78.185
318.978, 9.156
320.336, 13.642
321.693, 83.163
323.051, 5.277
324.408, 46.722
325.765, 111.654
327.121, 80.510
328.478, 21.820
329.834, 34.124
331.190, 145.369
332.546, 60.115
333.902, 72.111
335.257, 221.841
336.612, 55.329
337.967, 38.519
339.322, 182.394
340.677, 112.319
342.031, 105.270
343.385, 46.240
344.739, 81.236
346.093, 168.253
347.446, 13.666
348.799, 8.394
350.153, 11.472
351.505, 146.007
352.858, 116.786
354.210, 53.307
355.563, 122.486
356.915, 107.687
358.267, 82.921
359.618, 56.159
360.969, 55.386
362.321, 51.628
363.672, 5.929
365.022, 91.233
366.373, 34.550
367.723, 98.888
369.073, 170.244
370.423, 94.620
371.773, 88.015
373.122, 20.573
374.471, 20.855
375.821, 244.301
377.169, 80.234
378.518, 239.233
379.866, 15.719
381.215, 117.195
382.563, 85.680
383.910, 69.181
385.258, 88.685
386.605, 64.194
387.952, 97.790
389.299, 34.268
390.646, 145.825
391.992, 57.397
393.339, 40.983
394.685, 58.591
396.031, 4.215
397.376, 189.851
398.722, 32.496
400.067, 83.164
401.412, 4.161
402.757, 107.525
404.101, 132.222
405.446, 33.933
406.790, 97.640
408.134, 73.479
409.478, 30.093
410.821, 80.840
412.165, 142.599
413.508, 148.992
414.851, 183.157
416.193, 102.955
417.536, 83.366
418.878, 26.179
420.220, 123.148
421.562, 184.301
422.904, 153.881
424.245, 151.946
425.586, 193.819
426.927, 107.701
428.268, 244.638
429.609, 62.541
430.949, 41.456
432.289, 93.381
433.629, 315.315
434.969, 46.294
436.309, 155.295
437.648, 119.320
438.987, 109.367
440.326, 47.437
441.665, 194.641
443.003, 3.466
444.342, 175.589
445.680, 60.731
447.018, 190.052
448.355, 159.227
449.693, 13.583
451.030, 126.504
452.367, 186.716
453.704, 275.422
455.041, 7.333
456.377, 338.226
457.713, 80.544
459.049, 103.820
460.385, 54.110
461.721, 88.411
463.056, 258.725
464.391, 94.093
465.726, 199.429
467.061, 197.775
468.395, 53.132
469.730, 6.187
471.064, 256.182
472.398, 12.421
473.731, 234.369
475.065, 4.110
476.398, 25.283
477.731, 40.685
479.064, 101.092
480.397, 33.510
481.729, 140.053
483.062, 57.570
484.394, 11.940
485.725, 61.383
487.057, 51.055
488.389, 51.732
489.720, 75.725
491.051, 1.342
492.382, 55.784
493.712, 99.232
495.043, 44.378
496.373, 70.126
497.703, 69.274
499.032, 70.737
500.362, 212.679
501.691, 157.154
503.020, 86.636
504.349, 94.123
505.678, 200.615
507.007, 30.111
508.335, 95.299
509.663, 65.976
510.991, 14.485
512.319, 72.370
513.646, 76.924
514.973, 106.441
516.300, 57.983
517.627, 38.369
518.954, 215.045
520.280, 67.583
521.607, 173.019
522.933, 222.564
524.259, 202.845
525.584, 267.469
526.910, 103.956
528.235, 306.518
529.560, 338.081
530.885, 343.646
532.209, 168.217
533.534, 133.116
534.858, 211.689
536.182, 278.266
537.506, 203.576
538.829, 206.158
540.152, 166.741
541.476, 141.327
542.799, 189.915
544.121, 62.506
545.444, 126.099
546.766, 87.692
548.088, 48.289
549.410, 131.886
550.732, 221.499
552.053, 267.113
553.375, 147.768
554.696, 165.386
556.017, 174.999
557.337, 375.621
558.658, 342.891
559.978, 218.515
561.298, 53.879
562.618, 223.506
563.938, 173.133
565.257, 103.761
566.576, 251.391
567.895, 79.031
569.214, 158.662
570.533, 212.293
571.851, 200.927
573.170, 132.560
574.488, 216.193
575.805, 23.828
577.123, 88.457
578.440, 44.262
579.758, 35.891
581.075, 289.516
582.391, 15.142
583.708, 169.759
585.024, 139.377
586.341, 41.005
587.657, 106.577
588.972, 175.160
590.288, 237.742
591.603, 184.324
592.918, 255.191
594.233, 252.563
595.548, 266.204
596.863, 230.785
598.177, 159.365
599.491, 53.944
600.805, 206.521
602.119, 100.856
603.432, 129.432
604.746, 205.006
606.059, 350.598
607.372, 141.187
608.685, 52.171
609.997, 140.373
611.309, 36.280
612.621, 81.815
613.933, 10.575
615.245, 75.096
616.557, 109.619
617.868, 259.141
619.179, 221.660
620.490, 196.179
621.801, 37.307
623.111, 306.172
624.421, 77.648
625.731, 266.123
627.041, 43.405
628.351, 156.078
629.660, 17.508
630.970, 78.374
632.279, 53.737
633.588, 75.885
634.896, 201.218
636.205, 118.571
637.513, 192.982
638.821, 56.331
640.129, 15.675
641.437, 198.009
642.744, 263.932
644.051, 168.260
645.358, 37.731
646.665, 66.068
647.972, 198.405
649.278, 73.969
650.584, 72.305
651.890, 11.804
653.196, 5.382
654.502, 36.287
655.807, 79.599
657.113, 81.092
658.418, 122.159
659.722, 302.086
661.027, 98.332
662.331, 154.576
663.636, 162.816
664.940, 194.013
666.244, 47.252
667.547, 193.486
668.851, 46.715
670.154, 251.477
671.457, 112.667
672.760, 59.854
674.062, 180.040
675.365, 101.703
676.667, 201.884
677.969, 20.937
679.271, 101.213
680.572, 20.427
681.874, 166.902
683.175, 233.302
684.476, 161.438
685.777, 118.572
687.077, 119.705
688.378, 107.756
689.678, 96.187
690.978, 154.097
692.278, 134.227
693.577, 177.006
694.877, 295.756
696.176, 81.895
697.475, 255.031
698.774, 91.168
700.072, 333.303
701.371, 449.436
702.669, 293.568
703.967, 105.697
705.265, 257.822
706.562, 417.891
707.860, 304.020
709.157, 9.145
710.454, 476.598
711.751, 112.711
713.047, 331.820
714.344, 129.932
715.640, 174.047
716.936, 87.162
718.232, 95.275
719.527, 334.391
720.823, 250.502
722.118, 200.615
723.413, 52.725
724.708, 89.836
726.002, 88.943
727.297, 360.051
728.591, 278.758
729.885, 207.262
731.179, 245.367
732.472, 114.861
733.766, 30.965
735.059, 55.922
736.352, 146.707
737.645, 159.805
738.937, 129.967
740.230, 238.066
741.522, 59.162
742.814, 157.219
744.106, 186.316
745.397, 251.412
746.689, 86.510
747.980, 54.395
749.271, 175.666
750.562, 69.727
751.853, 266.787
753.143, 118.848
754.433, 83.908
755.723, 86.854
757.013, 48.914
758.303, 157.979
759.592, 50.039
760.881, 284.104
762.170, 61.166
763.459, 113.229
764.748, 44.406
766.036, 13.525
767.325, 242.057
768.613, 120.113
769.901, 160.869
771.188, 129.932
772.476, 99.994
773.763, 282.059
775.050, 93.125
776.337, 205.189
777.624, 126.189
778.910, 216.258
780.196, 237.328
781.482, 291.400
782.768, 121.041
784.054, 187.119
785.339, 64.182
786.625, 253.852
787.910, 46.193
789.195, 120.883
790.479, 147.961
791.764, 1.959
793.048, 339.123
794.332, 38.090
795.616, 225.090
796.900, 59.182
798.183, 274.277
799.467, 16.625
800.750, 156.125
802.033, 111.236
803.316, 31.350
804.598, 324.471
805.880, 78.406
807.163, 165.457
808.445, 283.512
809.726, 105.252
811.008, 23.365
812.289, 147.008
813.570, 23.838
814.851, 139.312
816.132, 208.467
817.413, 126.627
818.693, 72.791
819.973, 241.957
821.253, 62.980
822.533, 80.178
823.813, 238.969
825.092, 243.178
826.371, 91.391
827.650, 226.611
828.929, 44.139
830.208, 220.104
831.486, 215.352
832.764, 105.711
834.042, 5.033
835.320, 18.502
836.598, 15.646
837.875, 260.088
839.152, 136.441
840.429, 130.797
841.706, 304.164
842.983, 147.537
844.259, 138.936
845.536, 272.342
846.812, 16.244
848.088, 142.174
849.363, 115.598
850.639, 236.027
851.914, 296.467
853.189, 128.912
854.464, 376.367
855.739, 389.824
857.013, 437.295
858.288, 206.768
859.562, 76.752
860.836, 197.729
862.110, 341.215
863.383, 20.326
864.656, 262.180
865.930, 92.695
867.203, 204.217
868.475, 264.744
869.748, 308.275
871.020, 359.814
872.292, 340.000
873.564, 331.914
874.836, 280.471
876.108, 84.039
877.379, 43.605
878.650, 200.184
879.922, 146.770
881.192, 280.367
882.463, 112.969
883.733, 238.576
885.004, 229.771
886.274, 487.816
887.544, 194.270
888.813, 282.908
890.083, 112.555
891.352, 182.209
892.621, 244.873
893.890, 335.541
895.159, 306.775
896.427, 211.912
897.695, 220.617
898.964, 182.809
900.232, 93.043
901.499, 239.629
902.767, 252.359
904.034, 368.094
905.301, 160.834
906.568, 240.580
907.835, 397.334
909.102, 190.092
910.368, 301.855
911.634, 145.625
912.900, 300.402
914.166, 133.186
915.432, 430.977
916.697, 192.771
917.962, 272.596
919.227, 471.061
920.492, 230.896
921.757, 364.740
923.021, 171.596
924.285, 413.457
925.550, 266.324
926.813, 260.199
928.077, 268.082
929.341, 239.969
930.604, 206.877
931.867, 494.793
933.130, 134.717
934.393, 174.645
935.655, 468.598
936.918, 185.553
938.180, 387.520
939.442, 223.516
940.703, 185.955
941.965, 338.965
943.226, 129.977
944.488, 43.934
945.749, 108.229
947.009, 443.254
948.270, 311.287
949.530, 365.320
950.791, 339.361
952.051, 309.752
953.311, 301.801
954.570, 138.857
955.830, 341.918
957.089, 157.982
958.348, 283.967
959.607, 281.039
960.866, 295.492
962.124, 315.162
963.383, 278.557
964.641, 305.791
965.899, 225.236
967.156, 240.365
968.414, 235.953
969.671, 120.197
970.928, 161.660
972.185, 112.781
973.442, 288.221
974.699, 130.367
975.955, 279.834
977.211, 295.068
978.468, 216.338
979.723, 237.652
980.979, 218.078
982.234, 184.279
983.490, 253.854
984.745, 37.715
986.000, 319.025
987.254, 309.697
988.509, 205.672
989.763, 345.992
991.017, 326.230
992.271, 338.191
993.525, 324.127
994.779, 173.436
996.032, 417.244
997.285, 339.023
998.538, 404.617
999.791, 39.438
1001.044, 511.963
1002.296, 81.254
1003.548, 446.221
1004.800, 305.188
1006.052, 197.531
1007.304, 421.879
1008.555, 238.168
1009.807, 398.818
1011.058, 268.422
1012.309, 259.420
1013.559, 233.969
1014.810, 309.967
1016.060, 209.662
1017.310, 451.512
1018.560, 447.908
1019.810, 241.500
1021.060, 240.795
1022.309, 520.898
1023.558, 160.260
1024.807, 594.705
1026.056, 334.131
1027.305, 358.830
1028.553, 348.348
1029.801, 618.680
1031.049, 351.221
1032.297, 371.559
1033.545, 260.201
1034.793, 474.180
1036.040, 305.482
1037.287, 310.773
1038.534, 395.109
1039.781, 410.545
1041.027, 460.205
1042.274, 323.652
1043.520, 504.928
1044.766, 464.191
1046.012, 375.486
1047.257, 575.359
1048.503, 401.715
1049.748, 674.082
1050.993, 413.344
1052.238, 737.418
1053.483, 588.680
1054.727, 423.049
1055.971, 472.287
1057.216, 599.139
1058.459, 497.350
1059.703, 560.553
1060.947, 563.742
1062.190, 686.836
1063.433, 608.354
1064.676, 782.938
1065.919, 966.379
1067.162, 1315.504
1068.404, 2402.227
1069.646, 3795.537
1070.888, 8050.031
1072.130, 19184.105
1073.372, 36749.383
1074.613, 41927.531
1075.855, 26156.840
1077.096, 10642.898
1078.337, 4732.914
1079.578, 2694.895
1080.818, 1310.246
1082.059, 898.008
1083.299, 488.480
1084.539, 677.643
1085.779, 275.566
1087.018, 493.600
1088.258, 388.459
1089.497, 286.924
1090.736, 272.152
1091.975, 196.971
1093.213, 230.021
1094.452, 56.805
1095.690, 425.562
1096.928, 180.303
1098.166, 277.025
1099.404, 195.617
1100.642, 235.299
1101.879, 155.012
1103.116, 363.979
1104.353, 185.604
1105.590, 325.453
1106.827, 119.080
1108.063, 305.662
1109.299, 54.225
1110.536, 286.764
1111.771, 203.277
1113.007, 121.227
1114.243, 244.176
1115.478, 149.330
1116.713, 41.695
1117.948, 125.678
1119.183, 75.721
1120.418, 70.826
1121.652, 86.121
1122.886, 159.119
1124.120, 88.393
1125.354, 151.113
1126.588, 69.701
1127.821, 5.285
1129.055, 16.885
1130.288, 234.271
1131.521, 270.238
1132.753, 170.812
1133.986, 3.619
1135.218, 93.705
1136.450, 386.973
1137.682, 177.033
1138.914, 223.391
1140.146, 27.188
1141.377, 31.455
1142.609, 64.104
1143.840, 49.779
1145.071, 66.443
1146.301, 50.295
1147.532, 63.848
1148.762, 136.041
1149.992, 8.086
1151.222, 44.170
1152.452, 46.650
1153.682, 185.693
1154.911, 7.561
1156.140, 230.105
1157.369, 126.877
1158.598, 42.109
1159.827, 55.553
1161.055, 6.404
1162.284, 6.311
1163.512, 118.865
1164.740, 82.863
1165.967, 191.051
1167.195, 144.518
1168.422, 233.043
1169.650, 69.035
1170.877, 231.639
1172.103, 214.943
1173.330, 36.240
1174.557, 159.549
1175.783, 202.943
1177.009, 247.105
1178.235, 34.334
1179.461, 250.133
1180.686, 177.275
1181.912, 95.881
1183.137, 330.543
1184.362, 278.982
1185.587, 52.670
1186.811, 223.113
1188.036, 269.377
1189.260, 132.330
1190.484, 315.994
1191.708, 287.570
1192.932, 364.107
1194.155, 136.648
1195.378, 259.832
1196.602, 255.389
1197.825, 411.221
1199.047, 100.037
1200.270, 310.461
1201.492, 253.178
1202.715, 521.184
1203.937, 133.861
1205.159, 359.459
1206.380, 329.580
1207.602, 446.102
1208.823, 91.469
1210.044, 202.910
1211.265, 184.387
1212.486, 216.201
1213.707, 305.520
1214.927, 142.945
1216.147, 241.184
1217.367, 193.381
1218.587, 364.977
1219.807, 240.098
1221.027, 75.178
1222.246, 225.213
1223.465, 82.209
1224.684, 290.156
1225.903, 296.074
1227.121, 203.227
1228.340, 112.066
1229.558, 167.766
1230.776, 237.779
1231.994, 291.510
1233.212, 262.318
1234.429, 402.982
1235.646, 151.596
1236.864, 206.166
1238.081, 431.689
1239.297, 241.184
1240.514, 351.643
1241.730, 403.797
1242.947, 392.191
1244.163, 379.668
1245.378, 108.990
1246.594, 425.279
1247.810, 293.537
1249.025, 63.775
1250.240, 381.957
1251.455, 248.107
1252.670, 296.223
1253.885, 595.211
1255.099, 677.234
1256.313, 548.850
1257.527, 457.781
1258.741, 462.682
1259.955, 456.545
1261.168, 121.352
1262.382, 313.119
1263.595, 148.389
1264.808, 156.938
1266.021, 235.219
1267.233, 125.799
1268.446, 115.012
1269.658, 275.477
1270.870, 7.438
1272.082, 83.842
1273.294, 209.049
1274.505, 2.836
1275.716, 201.631
1276.928, 323.680
1278.139, 144.676
1279.349, 139.592
1280.560, 83.322
1281.770, 1.643
1282.981, 236.121
1284.191, 97.762
1285.401, 234.439
1286.610, 114.320
1287.820, 84.186
1289.029, 175.570
1290.239, 46.594
1291.448, 167.223
1292.656, 19.080
1293.865, 18.611
1295.073, 98.551
1296.282, 88.676
1297.490, 0.088
1298.698, 84.455
1299.906, 104.400
1301.113, 82.699
1302.320, 109.215
1303.528, 70.729
1304.735, 110.309
1305.942, 98.387
1307.148, 136.869
1308.355, 192.525
1309.561, 40.781
1310.767, 171.840
1311.973, 84.307
1313.179, 106.467
1314.384, 115.990
1315.590, 64.635
1316.795, 11.045
1318.000, 93.145
1319.205, 28.691
1320.410, 70.150
1321.614, 96.129
1322.819, 29.756
1324.023, 162.104
1325.227, 80.119
1326.431, 189.785
1327.634, 166.068
1328.838, 210.090
1330.041, 10.857
1331.244, 188.646
1332.447, 222.291
1333.650, 48.939
1334.852, 107.217
1336.055, 118.895
1337.257, 124.455
1338.459, 108.121
1339.661, 21.084
1340.862, 84.521
1342.064, 285.904
1343.265, 43.357
1344.466, 84.977
1345.667, 255.365
1346.868, 165.611
1348.068, 234.949
1349.269, 307.637
1350.469, 107.926
1351.669, 361.188
1352.869, 55.426
1354.069, 325.725
1355.268, 220.566
1356.468, 129.311
1357.667, 424.166
1358.866, 202.307
1360.065, 271.879
1361.263, 448.783
1362.462, 130.477
1363.660, 377.564
1364.858, 282.424
1366.056, 350.398
1367.254, 302.180
1368.451, 441.203
1369.649, 304.500
1370.846, 166.574
1372.043, 424.264
1373.240, 193.541
1374.436, 237.447
1375.633, 291.938
1376.829, 202.922
1378.025, 227.777
1379.221, 297.150
1380.417, 286.498
1381.613, 296.697
1382.808, 247.924
1384.003, 450.352
1385.199, 448.729
1386.393, 293.133
1387.588, 196.973
1388.783, 424.918
1389.977, 284.020
1391.171, 416.111
1392.365, 221.156
1393.559, 275.383
1394.753, 542.682
1395.946, 327.645
1397.140, 455.879
1398.333, 254.602
1399.526, 383.793
1400.719, 372.502
1401.911, 452.490
1403.104, 239.176
1404.296, 382.172
1405.488, 383.738
1406.680, 534.512
1407.872, 366.301
1409.063, 443.039
1410.255, 457.703
1411.446, 234.305
1412.637, 534.738
1413.828, 219.648
1415.018, 305.797
1416.209, 546.391
1417.399, 501.658
1418.589, 374.250
1419.779, 464.809
1420.969, 416.631
1422.159, 396.135
1423.348, 237.562
1424.537, 527.160
1425.726, 293.109
1426.915, 400.725
1428.104, 334.537
1429.293, 417.383
1430.481, 428.908
1431.669, 291.354
1432.857, 467.213
1434.045, 415.438
1435.233, 462.146
1436.420, 610.281
1437.608, 660.043
1438.795, 607.197
1439.982, 437.641
1441.169, 559.393
1442.355, 435.621
1443.542, 526.285
1444.728, 586.664
1445.914, 727.012
1447.100, 1007.309
1448.286, 1275.029
1449.472, 1409.898
1450.657, 1223.738
1451.842, 1222.717
1453.027, 950.691
1454.212, 738.576
1455.397, 875.346
1456.581, 393.773
1457.766, 631.324
1458.950, 654.725
1460.134, 444.045
1461.318, 724.307
1462.501, 439.545
1463.685, 296.719
1464.868, 675.859
1466.051, 225.977
1467.234, 846.154
1468.417, 457.324
1469.600, 428.631
1470.782, 461.887
1471.965, 589.350
1473.147, 345.193
1474.329, 707.148
1475.510, 685.146
1476.692, 446.246
1477.873, 506.639
1479.055, 456.311
1480.236, 471.029
1481.416, 604.799
1482.597, 462.607
1483.778, 497.463
1484.958, 367.352
1486.138, 357.277
1487.318, 353.270
1488.498, 280.545
1489.678, 310.451
1490.857, 297.686
1492.037, 173.053
1493.216, 375.574
1494.395, 557.270
1495.574, 208.174
1496.752, 416.301
1497.931, 280.676
1499.109, 415.279
1500.287, 142.125
1501.465, 87.207
1502.643, 118.523
1503.820, 115.109
1504.998, 177.998
1506.175, 191.232
1507.352, 176.867
1508.529, 304.951
1509.706, 230.535
1510.882, 8.328
1512.059, 468.412
1513.235, 362.951
1514.411, 158.072
1515.587, 9.902
1516.762, 57.643
1517.938, 273.311
1519.113, 168.672
1520.288, 125.867
1521.463, 72.680
1522.638, 0.000
##END=



