##NAMES=Sulphur
##RRUFFID=R050006
##IDEAL CHEMISTRY=S
##LOCALITY=San Felipe, Mexicali, Baja California Norte, Mexico
##OWNER=RRUFF
##SOURCE=Eugene Schlepp
##DESCRIPTION=Yellow single crystal
##STATUS=The identification of this mineral has been confirmed by X-ray diffraction and chemical analysis
##URL=rruff.info/R050006
##MEASURED CHEMISTRY=S_1.00_
##PIN_ID=L00477
##ORIENTATION=Laser parallel to -b* (0 -1 0). Fiducial mark perpendicular to laser is parallel to -c [0 0 -1]
52.261, 0.000
53.667, 15.814
55.072, 6.845
56.477, 18.735
57.882, 20.706
59.287, 18.113
60.691, 23.811
62.095, 12.878
63.499, 24.882
64.903, 25.558
66.306, 10.676
67.709, 10.779
69.112, 2.299
70.515, 13.188
71.917, 2.410
73.319, 5.064
74.721, 8.260
76.123, 1.797
77.525, 4.915
78.926, 2.419
80.327, 14.267
81.728, 24.128
83.128, 58.148
84.529, 92.316
85.929, 181.620
87.329, 281.051
88.728, 376.601
90.128, 508.273
91.527, 651.074
92.926, 618.995
94.324, 511.027
95.723, 445.159
97.121, 370.379
98.519, 328.679
99.917, 328.053
101.314, 304.494
102.712, 347.996
104.109, 348.557
105.505, 351.173
106.902, 369.840
108.298, 383.555
109.694, 377.317
111.090, 384.123
112.486, 388.972
113.881, 424.861
115.277, 469.789
116.672, 563.754
118.066, 433.756
119.461, 375.792
120.855, 394.862
122.249, 372.964
123.643, 362.098
125.036, 378.312
126.430, 376.659
127.823, 379.155
129.216, 373.745
130.608, 385.380
132.001, 390.045
133.393, 413.715
134.785, 444.392
136.176, 442.068
137.568, 491.727
138.959, 532.375
140.350, 611.015
141.741, 695.650
143.131, 904.281
144.521, 1197.911
145.911, 1785.541
147.301, 2617.168
148.691, 3922.798
150.080, 5799.429
151.469, 8142.066
152.858, 11025.710
154.247, 14225.360
155.635, 17825.021
157.024, 19844.684
158.411, 19074.365
159.799, 15334.047
161.187, 10323.742
162.574, 6564.446
163.961, 4045.159
165.348, 2655.882
166.734, 1822.614
168.121, 1324.356
169.507, 1027.109
170.893, 801.871
172.278, 672.644
173.664, 567.427
175.049, 511.220
176.434, 412.023
177.819, 430.836
179.203, 405.659
180.587, 435.492
181.971, 468.334
183.355, 553.185
184.739, 683.046
186.122, 841.916
187.505, 1109.795
188.888, 1292.682
190.271, 1230.579
191.653, 1049.485
193.035, 812.400
194.417, 673.335
195.799, 649.604
197.180, 567.553
198.562, 574.737
199.943, 496.597
201.324, 483.658
202.704, 458.441
204.084, 462.420
205.465, 443.447
206.844, 535.080
208.224, 616.562
209.603, 710.127
210.983, 1032.957
212.362, 1628.794
213.740, 2886.639
215.119, 4513.490
216.497, 7494.349
217.875, 12518.214
219.253, 18107.396
220.631, 25306.668
222.008, 33115.996
223.385, 29035.396
224.762, 17504.830
226.139, 9474.302
227.515, 5015.810
228.891, 2908.353
230.267, 1874.903
231.643, 1254.480
233.018, 999.086
234.394, 887.722
235.769, 842.386
237.144, 827.076
238.518, 792.791
239.893, 771.377
241.267, 729.895
242.641, 699.674
244.014, 707.365
245.388, 703.144
246.761, 868.979
248.134, 1084.831
249.507, 1246.699
250.879, 1243.583
252.252, 1096.480
253.624, 911.393
254.996, 658.319
256.367, 453.258
257.739, 314.210
259.110, 220.175
260.481, 176.151
261.852, 157.137
263.222, 146.134
264.592, 135.141
265.962, 122.159
267.332, 119.186
268.702, 124.222
270.071, 109.266
271.440, 112.322
272.809, 123.386
274.178, 99.459
275.546, 100.542
276.915, 122.634
278.283, 98.734
279.650, 93.842
281.018, 85.956
282.385, 100.078
283.752, 97.207
285.119, 80.344
286.486, 80.489
287.852, 79.643
289.218, 78.806
290.584, 70.976
291.950, 78.151
293.316, 84.332
294.681, 87.517
296.046, 97.707
297.411, 86.901
298.775, 99.100
300.140, 96.301
301.504, 83.506
302.868, 87.715
304.231, 83.927
305.595, 89.143
306.958, 61.362
308.321, 80.585
309.684, 65.811
311.047, 59.041
312.409, 52.275
313.771, 47.513
315.133, 58.754
316.495, 51.999
317.856, 53.248
319.217, 52.500
320.578, 42.758
321.939, 52.020
323.299, 60.285
324.660, 55.553
326.020, 65.826
327.380, 39.107
328.739, 18.392
330.099, 17.680
331.458, 24.972
332.817, 10.266
334.176, 3.564
335.534, 10.136
336.892, 7.836
338.251, 9.536
339.608, 19.236
340.966, 8.938
342.323, 23.641
343.681, 31.347
345.037, 28.060
346.394, 27.777
347.751, 19.499
349.107, 25.224
350.463, 17.953
351.819, 17.685
353.174, 12.421
354.530, 5.157
355.885, 8.894
357.240, 3.631
358.594, 3.369
359.949, 1.113
361.303, 2.866
362.657, 6.629
364.011, 1.590
365.365, 9.797
366.718, 22.993
368.071, 29.181
369.424, 31.366
370.777, 36.549
372.129, 41.732
373.481, 44.913
374.833, 40.096
376.185, 46.282
377.537, 56.470
378.888, 67.660
380.239, 74.853
381.590, 60.049
382.941, 84.250
384.291, 80.457
385.642, 93.670
386.992, 86.887
388.341, 99.109
389.691, 92.335
391.040, 86.566
392.389, 113.802
393.738, 107.041
395.087, 104.284
396.435, 99.530
397.784, 91.780
399.132, 99.033
400.479, 101.290
401.827, 104.549
403.174, 108.812
404.521, 115.078
405.868, 138.348
407.215, 150.620
408.561, 187.896
409.908, 209.174
411.254, 239.455
412.599, 251.738
413.945, 262.023
415.290, 293.425
416.636, 289.716
417.980, 330.009
419.325, 354.412
420.670, 392.849
422.014, 474.179
423.358, 533.482
424.702, 620.842
426.045, 721.181
427.389, 801.635
428.732, 919.947
430.075, 1031.258
431.417, 1200.571
432.760, 1269.497
434.102, 1378.921
435.444, 1519.306
436.786, 1633.107
438.127, 1795.830
439.469, 1885.288
440.810, 2041.611
442.151, 2062.973
443.492, 1846.330
444.832, 1503.000
446.172, 1065.516
447.512, 729.018
448.852, 542.259
450.192, 406.109
451.531, 335.883
452.870, 307.236
454.209, 327.786
455.548, 341.146
456.887, 398.794
458.225, 464.429
459.563, 619.781
460.901, 860.117
462.238, 1144.453
463.576, 1638.788
464.913, 2179.126
466.250, 2866.462
467.587, 4135.798
468.923, 5455.132
470.259, 7937.468
471.596, 10191.806
472.931, 13472.142
474.267, 18592.500
475.603, 21402.834
476.938, 22183.291
478.273, 17663.623
479.608, 12204.021
480.942, 8098.817
482.276, 5273.157
483.611, 3710.496
484.944, 2653.876
486.278, 1958.440
487.612, 1489.746
488.945, 1198.476
490.278, 987.806
491.611, 820.157
492.943, 707.485
494.276, 610.812
495.608, 540.128
496.940, 518.819
498.271, 440.620
499.603, 405.327
500.934, 414.499
502.265, 346.224
503.596, 336.141
504.927, 273.606
506.257, 258.255
507.587, 232.930
508.917, 225.045
510.247, 225.836
511.577, 207.022
512.906, 190.217
514.235, 181.779
515.564, 172.644
516.892, 204.300
518.221, 148.233
519.549, 172.175
520.877, 168.226
522.205, 154.185
523.533, 162.026
524.860, 157.201
526.187, 138.514
527.514, 118.827
528.841, 148.139
530.167, 131.452
531.493, 108.764
532.820, 115.076
534.145, 102.388
535.471, 109.699
536.796, 106.011
538.122, 92.322
539.447, 92.753
540.771, 95.144
542.096, 98.517
543.420, 107.940
544.744, 95.390
546.068, 97.746
547.392, 101.055
548.715, 100.363
550.039, 109.030
551.362, 110.337
552.684, 106.644
554.007, 100.950
555.329, 107.269
556.652, 100.594
557.973, 86.911
559.295, 75.214
560.617, 81.516
561.938, 58.818
563.259, 47.119
564.580, 37.505
565.901, 33.804
567.221, 30.103
568.541, 16.483
569.861, 7.878
571.181, 17.173
572.501, 8.510
573.820, 0.102
575.139, 19.437
576.458, 5.727
577.777, 0.081
579.095, 0.393
580.414, 3.445
581.732, 6.736
583.049, 2.124
584.367, 3.404
585.685, 0.304
587.002, 6.033
588.319, 13.321
589.636, 6.759
590.952, 7.939
592.268, 0.386
593.585, 1.709
594.900, 5.722
596.216, 4.454
597.532, 0.069
598.847, 7.376
600.162, 3.772
601.477, 4.668
602.792, 3.043
604.106, 0.393
605.420, 0.151
606.734, 11.907
608.048, 5.686
609.361, 4.457
610.675, 5.816
611.988, 0.854
613.301, 5.381
614.614, 2.408
615.926, 2.213
617.238, 5.981
618.550, 15.177
619.862, 15.390
621.174, 18.584
622.485, 7.771
623.797, 16.980
625.108, 13.159
626.418, 25.337
627.729, 20.532
629.039, 7.706
630.349, 15.915
631.659, 5.140
632.969, 20.309
634.279, 0.476
635.588, 12.642
636.897, 2.804
638.206, 5.037
639.515, 7.117
640.823, 7.290
642.131, 3.440
643.439, 1.412
644.747, 13.269
646.055, 4.136
647.362, 10.992
648.669, 5.118
649.976, 14.242
651.283, 14.364
652.589, 15.484
653.896, 12.603
655.202, 15.723
656.508, 21.843
657.814, 17.965
659.119, 20.090
660.424, 9.216
661.729, 25.346
663.034, 32.483
664.339, 5.626
665.643, 26.773
666.947, 15.925
668.251, 9.081
669.555, 21.241
670.859, 1.403
672.162, 23.567
673.465, 19.731
674.768, 27.897
676.071, 15.063
677.373, 13.228
678.676, 21.394
679.978, 1.559
681.280, 16.724
682.581, 14.889
683.883, 9.051
685.184, 18.212
686.485, 19.371
687.786, 16.528
689.087, 28.683
690.387, 15.837
691.687, 9.988
692.987, 22.138
694.287, 11.286
695.586, 0.432
696.886, 2.574
698.185, 3.715
699.484, 0.852
700.783, 0.013
702.081, 5.119
703.379, 10.249
704.677, 15.377
705.975, 3.497
707.273, 19.623
708.570, 17.742
709.868, 10.859
711.165, 8.974
712.462, 8.086
713.758, 9.197
715.055, 13.306
716.351, 15.413
717.647, 15.518
718.943, 13.621
720.238, 2.723
721.533, 16.821
722.829, 12.918
724.124, 3.012
725.418, 2.105
726.713, 15.194
728.007, 6.282
729.301, 2.367
730.595, 1.665
731.889, 20.413
733.182, 4.490
734.476, 1.545
735.769, 6.615
737.061, 10.420
738.354, 1.481
739.647, 12.486
740.939, 9.513
742.231, 4.422
743.523, 9.475
744.814, 0.472
746.106, 7.578
747.397, 4.014
748.688, 3.952
749.978, 3.072
751.269, 8.485
752.559, 2.881
753.849, 3.017
755.139, 0.953
756.429, 8.962
757.719, 4.029
759.008, 5.294
760.297, 8.534
761.586, 7.376
762.875, 9.477
764.163, 5.968
765.451, 0.534
766.739, 1.481
768.027, 3.305
769.315, 6.280
770.602, 18.966
771.890, 7.662
773.177, 6.640
774.463, 3.635
775.750, 6.628
777.036, 7.620
778.323, 3.607
779.609, 13.595
780.894, 13.582
782.180, 4.568
783.465, 19.552
784.750, 2.531
786.035, 0.513
787.320, 18.467
788.605, 10.445
789.889, 8.301
791.173, 13.277
792.457, 21.190
793.741, 11.699
795.024, 3.665
796.307, 17.630
797.591, 29.552
798.873, 27.288
800.156, 33.280
801.439, 30.846
802.721, 24.811
804.003, 37.752
805.285, 38.715
806.566, 47.677
807.848, 59.637
809.129, 68.596
810.410, 78.555
811.691, 81.512
812.971, 102.467
814.252, 107.422
815.532, 131.375
816.812, 144.328
818.092, 159.279
819.371, 165.211
820.651, 171.159
821.930, 198.107
823.209, 183.053
824.488, 185.998
825.766, 176.859
827.045, 178.802
828.323, 165.742
829.601, 154.682
830.878, 137.620
832.156, 141.572
833.433, 121.507
834.710, 111.357
835.987, 126.374
837.264, 123.306
838.540, 129.235
839.817, 114.164
841.093, 133.092
842.369, 127.018
843.644, 141.943
844.920, 144.943
846.195, 160.866
847.470, 157.804
848.745, 148.725
850.020, 150.522
851.294, 164.361
852.568, 155.215
853.842, 166.016
855.116, 201.980
856.390, 190.846
857.663, 217.756
858.936, 219.666
860.209, 230.215
861.482, 242.123
862.755, 250.035
864.027, 280.940
865.299, 257.830
866.571, 284.800
867.843, 299.689
869.115, 296.589
870.386, 299.599
871.657, 292.497
872.928, 290.401
874.199, 301.210
875.470, 305.104
876.740, 298.998
878.010, 275.908
879.280, 300.701
880.550, 285.656
881.820, 258.503
883.089, 238.297
884.358, 223.937
885.627, 198.828
886.896, 156.700
888.164, 143.346
889.433, 119.691
890.701, 117.567
891.969, 100.781
893.236, 85.665
894.504, 90.533
895.771, 66.629
897.038, 64.496
898.305, 70.380
899.572, 74.346
900.838, 96.173
902.105, 71.994
903.371, 85.565
904.637, 78.433
905.902, 72.043
907.168, 73.865
908.433, 69.596
909.698, 67.832
910.963, 66.665
912.228, 54.270
913.492, 51.151
914.757, 38.019
916.021, 36.909
917.285, 46.840
918.548, 47.665
919.812, 31.430
921.075, 48.286
922.338, 41.164
923.601, 49.056
924.864, 51.948
926.126, 66.122
927.388, 55.986
928.650, 70.870
929.912, 85.755
931.174, 75.617
932.435, 98.505
933.697, 88.411
934.958, 98.279
936.218, 91.166
937.479, 80.202
938.739, 88.032
940.000, 87.917
941.260, 83.802
942.520, 63.684
943.779, 68.587
945.039, 67.471
946.298, 60.606
947.557, 45.470
948.816, 39.354
950.074, 31.256
951.333, 33.141
952.591, 32.030
953.849, 14.920
955.107, 25.809
956.365, 18.707
957.622, 22.595
958.879, 11.484
960.136, 17.372
961.393, 12.260
962.650, 16.147
963.906, 12.033
965.162, 20.920
966.418, 13.805
967.674, 6.701
968.930, 13.586
970.185, 9.481
971.441, 8.366
972.696, 7.324
973.950, 14.207
975.205, 9.090
976.459, 2.972
977.714, 7.854
978.968, 10.736
980.222, 8.617
981.475, 15.498
982.729, 0.378
983.982, 10.258
985.235, 3.158
986.488, 1.963
987.740, 8.944
988.993, 7.832
990.245, 11.800
991.497, 8.677
992.749, 16.553
994.000, 11.430
995.252, 1.689
996.503, 14.196
997.754, 0.070
999.005, 3.964
1000.256, 8.837
1001.506, 3.724
1002.756, 10.598
1004.006, 7.473
1005.256, 3.653
1006.506, 5.220
1007.755, 11.101
1009.005, 16.973
1010.254, 5.858
1011.502, 4.738
1012.751, 2.611
1014.000, 10.483
1015.248, 12.355
1016.496, 1.768
1017.744, 6.103
1018.991, 5.973
1020.239, 2.149
1021.486, 7.720
1022.733, 2.606
1023.980, 6.481
1025.227, 7.350
1026.473, 12.219
1027.719, 1.908
1028.965, 8.973
1030.211, 1.149
1031.457, 10.729
1032.702, 5.612
1033.948, 8.479
1035.193, 3.347
1036.438, 0.785
1037.682, 6.103
1038.927, 0.973
1040.171, 10.930
1041.415, 7.199
1042.659, 14.669
1043.903, 9.537
1045.146, 4.596
1046.390, 7.270
1047.633, 2.866
1048.876, 2.002
1050.118, 2.861
1051.361, 8.724
1052.603, 11.639
1053.845, 15.512
1055.087, 13.403
1056.329, 16.267
1057.571, 14.171
1058.812, 3.057
1060.053, 17.925
1061.294, 2.206
1062.535, 2.661
1063.775, 11.528
1065.016, 3.417
1066.256, 0.717
1067.496, 5.164
1068.736, 17.171
1069.975, 11.037
1071.214, 20.906
1072.454, 10.774
1073.693, 3.656
1074.931, 4.477
1076.170, 17.391
1077.408, 4.255
1078.647, 9.118
1079.885, 12.981
1081.122, 16.846
1082.360, 0.711
1083.597, 5.575
1084.835, 14.440
1086.072, 2.697
1087.308, 9.165
1088.545, 6.026
1089.781, 5.888
1091.018, 6.752
1092.254, 0.630
1093.490, 10.494
1094.725, 3.627
1095.961, 20.234
1097.196, 8.104
1098.431, 0.964
1099.666, 6.823
1100.900, 20.681
1102.135, 7.540
1103.369, 5.398
1104.603, 3.255
1105.837, 22.112
1107.071, 13.088
1108.304, 13.950
1109.538, 16.806
1110.771, 22.661
1112.004, 20.516
1113.236, 8.370
1114.469, 16.256
1115.701, 3.109
1116.933, 9.962
1118.165, 2.815
1119.397, 17.667
1120.629, 0.482
1121.860, 7.369
1123.091, 6.219
1124.322, 6.068
1125.553, 13.913
1126.783, 14.762
1128.014, 12.615
1129.244, 10.463
1130.474, 8.326
1131.704, 11.179
1132.933, 1.026
1134.163, 13.868
1135.392, 0.629
1136.621, 3.474
1137.850, 0.660
1139.079, 13.183
1140.307, 15.028
1141.535, 13.878
1142.763, 4.720
1143.991, 3.485
1145.219, 6.328
1146.446, 1.151
1147.674, 5.990
1148.901, 2.830
1150.128, 9.667
1151.354, 5.506
1152.581, 11.344
1153.807, 13.000
1155.033, 3.840
1156.259, 7.676
1157.485, 2.512
1158.710, 4.348
1159.936, 13.183
1161.161, 22.012
1162.386, 13.846
1163.611, 4.702
1164.835, 15.447
1166.060, 14.280
1167.284, 4.113
1168.508, 16.844
1169.732, 1.676
1170.955, 4.669
1172.179, 6.500
1173.402, 9.339
1174.625, 5.258
1175.848, 2.986
1177.070, 3.814
1178.293, 3.578
1179.515, 2.405
1180.737, 17.231
1181.959, 14.057
1183.181, 14.879
1184.402, 2.056
1185.624, 7.880
1186.845, 0.310
1188.066, 8.513
1189.286, 14.898
1190.507, 17.719
1191.727, 13.540
1192.947, 14.084
1194.167, 9.904
1195.387, 9.555
1196.607, 15.262
1197.826, 7.084
1199.045, 0.099
1200.264, 3.718
1201.483, 0.534
1202.702, 15.349
1203.920, 0.192
1205.138, 1.007
1206.356, 11.814
1207.574, 5.626
1208.792, 14.302
1210.009, 15.132
1211.227, 0.943
1212.444, 9.748
1213.661, 2.520
1214.877, 1.665
1216.094, 29.149
1217.310, 6.495
1218.526, 27.323
1219.742, 3.128
1220.958, 7.928
1222.173, 5.441
1223.389, 14.245
1224.604, 12.048
1225.819, 10.850
1227.034, 10.138
1228.248, 7.939
1229.463, 12.722
1230.677, 6.548
1231.891, 11.348
1233.105, 12.976
1234.318, 19.783
1235.532, 11.587
1236.745, 11.189
1237.958, 3.993
1239.171, 9.771
1240.384, 3.573
1241.596, 12.119
1242.809, 4.914
1244.021, 7.708
1245.233, 23.485
1246.444, 11.314
1247.656, 30.107
1248.867, 14.899
1250.079, 7.691
1251.290, 24.474
1252.500, 0.730
1253.711, 6.066
1254.921, 21.856
1256.132, 14.645
1257.342, 15.439
1258.552, 12.228
1259.761, 1.016
1260.971, 9.804
1262.180, 11.581
1263.389, 17.368
1264.598, 12.143
1265.807, 11.929
1267.015, 9.639
1268.223, 13.425
1269.432, 15.210
1270.640, 10.994
1271.847, 9.778
1273.055, 6.582
1274.262, 12.366
1275.470, 4.149
1276.677, 2.931
1277.883, 18.713
1279.090, 21.472
1280.296, 16.252
1281.503, 17.004
1282.709, 2.774
1283.915, 10.462
1285.120, 7.238
1286.326, 6.014
1287.531, 8.800
1288.736, 9.570
1289.941, 7.335
1291.146, 18.110
1292.350, 12.865
1293.555, 17.638
1294.759, 14.429
1295.963, 10.204
1297.167, 9.975
1298.370, 5.747
1299.574, 7.542
1300.777, 19.302
1301.980, 12.070
1303.183, 14.838
1304.386, 20.598
1305.588, 12.361
1306.790, 19.134
1307.993, 2.896
1309.195, 17.677
1310.396, 16.454
1311.598, 8.208
1312.799, 5.953
1314.000, 22.707
1315.201, 1.559
1316.402, 15.203
1317.603, 5.954
1318.803, 0.296
1320.003, 8.470
1321.203, 16.205
1322.403, 14.950
1323.603, 13.687
1324.802, 10.419
1326.002, 11.165
1327.201, 18.911
1328.400, 5.344
1329.599, 20.387
1330.797, 9.129
1331.995, 12.786
1333.194, 19.527
1334.392, 14.270
1335.589, 21.011
1336.787, 25.758
1337.985, 13.500
1339.182, 20.254
1340.379, 6.994
1341.576, 5.733
1342.772, 21.472
1343.969, 15.158
1345.165, 28.885
1346.361, 12.625
1347.557, 1.361
1348.753, 8.057
1349.949, 21.790
1351.144, 8.523
1352.339, 12.265
1353.534, 1.999
1354.729, 9.731
1355.924, 15.443
1357.118, 3.175
1358.312, 6.892
1359.506, 6.482
1360.700, 7.788
1361.894, 2.941
1363.088, 12.669
1364.281, 13.382
1365.474, 22.109
1366.667, 10.833
1367.860, 7.560
1369.052, 23.316
1370.245, 6.956
1371.437, 23.770
1372.629, 14.497
1373.821, 2.225
1375.013, 18.009
1376.204, 4.736
1377.395, 6.465
1378.586, 7.183
1379.777, 11.996
1380.968, 6.603
1382.159, 13.359
1383.349, 7.114
1384.539, 14.876
1385.729, 15.648
1386.919, 19.420
1388.109, 24.191
1389.298, 0.829
1390.487, 16.598
1391.676, 12.367
1392.865, 18.101
1394.054, 24.869
1395.242, 7.637
1396.431, 7.405
1397.619, 27.172
1398.807, 8.934
1399.995, 7.683
1401.182, 21.425
1402.370, 9.191
1403.557, 21.931
1404.744, 23.694
1405.931, 16.450
1407.118, 17.213
1408.304, 18.978
1409.490, 12.744
1410.676, 13.509
1411.862, 23.258
1413.048, 10.023
1414.234, 29.787
1415.419, 4.552
1416.604, 18.286
1417.789, 27.050
1418.974, 31.801
1420.159, 20.331
1421.343, 25.954
1422.528, 10.714
1423.712, 20.475
1424.896, 28.236
1426.079, 8.406
1427.263, 11.160
1428.446, 13.916
1429.629, 6.672
1430.812, 32.429
1431.995, 10.177
1433.178, 15.917
1434.360, 23.675
1435.543, 21.386
1436.725, 2.144
1437.907, 8.904
1439.088, 15.619
1440.270, 29.343
1441.451, 4.082
1442.632, 26.850
1443.813, 16.600
1444.994, 5.350
1446.175, 11.095
1447.355, 12.931
1448.535, 5.619
1449.715, 11.324
1450.895, 2.032
1452.075, 1.135
1453.255, 20.828
1454.434, 8.532
1455.613, 13.233
1456.792, 10.858
1457.971, 2.555
1459.149, 9.240
1460.328, 13.918
1461.506, 1.595
1462.684, 12.281
1463.862, 4.965
1465.040, 14.644
1466.217, 16.320
1467.395, 13.993
1468.572, 11.661
1469.749, 19.271
1470.925, 4.929
1472.102, 16.590
1473.278, 7.247
1474.455, 10.900
1475.631, 14.562
1476.807, 14.188
1477.982, 4.838
1479.158, 17.484
1480.333, 3.017
1481.508, 9.647
1482.683, 25.206
1483.858, 13.798
1485.033, 14.448
1486.207, 29.069
1487.381, 0.443
1488.555, 11.260
1489.729, 6.965
1490.903, 1.594
1492.076, 23.200
1493.250, 3.868
1494.423, 7.569
1495.596, 21.273
1496.769, 6.945
1497.941, 23.655
1499.114, 8.370
1500.286, 15.051
1501.458, 17.688
1502.630, 15.428
1503.802, 10.184
1504.973, 20.702
1506.145, 10.476
1507.316, 18.079
1508.487, 24.762
1509.657, 1.561
1510.828, 19.374
1511.999, 15.214
1513.169, 12.077
1514.339, 14.999
1515.509, 0.000
1516.678, 14.325
1517.848, 24.296
1519.017, 13.533
1520.187, 0.057
1521.356, 0.000
##END=



