##NAMES=Sulphur
##RRUFFID=R050006
##IDEAL CHEMISTRY=S
##LOCALITY=San Felipe, Mexicali, Baja California Norte, Mexico
##OWNER=RRUFF
##SOURCE=Eugene Schlepp
##DESCRIPTION=Yellow single crystal
##STATUS=The identification of this mineral has been confirmed by X-ray diffraction and chemical analysis
##URL=rruff.info/R050006
##MEASURED CHEMISTRY=S_1.00_
##PIN_ID=L00280
##ORIENTATION=Laser parallel to -a* (-1 0 0). Fiducial mark perpendicular to laser is parallel to -b [0 -1 0]
52.261, 0.000
53.667, 6.385
55.072, 4.672
56.477, 16.179
57.882, 14.380
59.287, 13.920
60.691, 17.953
62.095, 26.414
63.499, 7.670
64.903, 22.049
66.306, 14.603
67.709, 14.419
69.112, 6.616
70.515, 3.848
71.917, 13.997
73.319, 2.871
74.721, 4.525
76.123, 7.836
77.525, 8.976
78.926, 0.915
80.327, 3.330
81.728, 32.743
83.128, 84.312
84.529, 182.023
85.929, 321.867
87.329, 442.834
88.728, 544.916
90.128, 615.120
91.527, 677.452
92.926, 643.908
94.324, 565.476
95.723, 468.145
97.121, 415.903
98.519, 350.743
99.917, 335.655
101.314, 336.634
102.712, 335.674
104.109, 328.771
105.505, 365.921
106.902, 395.122
108.298, 387.369
109.694, 401.662
111.090, 423.997
112.486, 420.374
113.881, 470.789
115.277, 487.242
116.672, 482.730
118.066, 504.253
119.461, 479.809
120.855, 486.397
122.249, 465.015
123.643, 499.667
125.036, 458.394
126.430, 492.289
127.823, 497.314
129.216, 491.451
130.608, 512.663
132.001, 532.911
133.393, 535.159
134.785, 582.407
136.176, 596.650
137.568, 650.877
138.959, 743.091
140.350, 816.296
141.741, 974.492
143.131, 1263.681
144.521, 1719.865
145.911, 2646.044
147.301, 4174.219
148.691, 6759.390
150.080, 10433.559
151.469, 15043.731
152.858, 20743.912
154.247, 24954.090
155.635, 27074.277
157.024, 24844.473
158.411, 19474.670
159.799, 13004.875
161.187, 8250.089
162.574, 5366.309
163.961, 3419.538
165.348, 2376.774
166.734, 1751.018
168.121, 1318.271
169.507, 1047.532
170.893, 874.801
172.278, 749.080
173.664, 639.366
175.049, 556.661
176.434, 504.307
177.819, 483.276
179.203, 469.596
180.587, 481.924
181.971, 521.259
183.355, 521.603
184.739, 592.954
186.122, 604.313
187.505, 573.679
188.888, 535.052
190.271, 512.433
191.653, 520.821
193.035, 534.289
194.417, 584.691
195.799, 613.808
197.180, 691.076
198.562, 728.227
199.943, 665.577
201.324, 611.337
202.704, 579.247
204.084, 555.247
205.465, 565.006
206.844, 606.347
208.224, 700.145
209.603, 846.867
210.983, 1110.116
212.362, 1696.370
213.740, 2674.630
215.119, 4546.895
216.497, 8493.167
217.875, 14903.439
219.253, 22223.223
220.631, 30153.064
222.008, 36892.953
223.385, 35132.879
224.762, 22662.842
226.139, 12562.826
227.515, 7041.839
228.891, 4184.863
230.267, 2542.907
231.643, 1687.950
233.018, 1320.021
234.394, 1181.121
235.769, 1119.248
237.144, 1103.179
238.518, 1093.354
239.893, 1076.434
241.267, 1098.652
242.641, 1171.635
244.014, 1438.616
245.388, 1782.878
246.761, 2251.169
248.134, 2723.475
249.507, 3090.797
250.879, 2961.132
252.252, 2636.483
253.624, 2128.846
254.996, 1453.223
256.367, 937.613
257.739, 609.014
259.110, 427.427
260.481, 307.853
261.852, 249.288
263.222, 205.734
264.592, 183.188
265.962, 155.653
267.332, 141.125
268.702, 154.608
270.071, 124.100
271.440, 139.602
272.809, 125.112
274.178, 128.629
275.546, 133.154
276.915, 131.688
278.283, 112.230
279.650, 131.779
281.018, 114.336
282.385, 129.900
283.752, 101.471
285.119, 103.047
286.486, 102.632
287.852, 97.223
289.218, 102.483
290.584, 99.423
291.950, 113.029
293.316, 111.640
294.681, 124.255
296.046, 113.872
297.411, 121.495
298.775, 129.120
300.140, 120.747
301.504, 136.377
302.868, 132.009
304.231, 115.643
305.595, 99.279
306.958, 110.918
308.321, 112.559
309.684, 77.202
311.047, 75.848
312.409, 84.496
313.771, 82.147
315.133, 80.390
316.495, 64.455
317.856, 72.113
319.217, 70.773
320.578, 65.436
321.939, 68.901
323.299, 58.769
324.660, 65.440
326.020, 54.112
327.380, 45.786
328.739, 42.463
330.099, 39.141
331.458, 0.822
332.817, 32.503
334.176, 5.187
335.534, 9.128
336.892, 3.556
338.251, 16.758
339.608, 23.076
340.966, 21.398
342.323, 31.726
343.681, 24.060
345.037, 32.400
346.394, 14.748
347.751, 18.099
349.107, 16.454
350.463, 18.813
351.819, 19.177
353.174, 17.650
354.530, 18.932
355.885, 14.296
357.240, 14.678
358.594, 12.063
359.949, 0.456
361.303, 0.862
362.657, 20.286
364.011, 8.267
365.365, 12.811
366.718, 16.344
368.071, 42.865
369.424, 55.377
370.777, 51.881
372.129, 61.383
373.481, 66.880
374.833, 63.379
376.185, 82.879
377.537, 68.380
378.888, 70.883
380.239, 75.387
381.590, 78.893
382.941, 95.403
384.291, 97.916
385.642, 94.433
386.992, 118.954
388.341, 115.479
389.691, 114.006
391.040, 104.537
392.389, 122.070
393.738, 113.607
395.087, 110.145
396.435, 122.686
397.784, 117.230
399.132, 118.775
400.479, 137.324
401.827, 125.874
403.174, 120.427
404.521, 122.982
405.868, 126.539
407.215, 127.099
408.561, 147.661
409.908, 143.224
411.254, 169.788
412.599, 190.353
413.945, 191.920
415.290, 212.488
416.636, 247.230
417.980, 280.999
419.325, 362.572
420.670, 410.270
422.014, 505.314
423.358, 582.908
424.702, 670.580
426.045, 751.197
427.389, 846.981
428.732, 950.581
430.075, 1046.479
431.417, 1203.525
432.760, 1300.601
434.102, 1434.272
435.444, 1547.034
436.786, 1697.703
438.127, 1904.833
439.469, 2100.620
440.810, 2305.507
442.151, 2382.417
443.492, 2215.423
444.832, 1824.097
446.172, 1293.707
447.512, 913.059
448.852, 682.945
450.192, 492.740
451.531, 426.340
452.870, 377.932
454.209, 383.015
455.548, 418.613
456.887, 452.426
458.225, 542.590
459.563, 691.241
460.901, 923.903
462.238, 1250.488
463.576, 1680.071
464.913, 2263.653
466.250, 2955.235
467.587, 4128.815
468.923, 5440.396
470.259, 7939.974
471.596, 11576.550
472.931, 16707.127
474.267, 22807.699
475.603, 26088.271
476.938, 27028.846
478.273, 22619.416
479.608, 16009.983
480.942, 10830.670
482.276, 7255.269
483.611, 5032.907
484.944, 3536.488
486.278, 2602.050
487.612, 2010.612
488.945, 1579.181
490.278, 1320.737
491.611, 1105.297
492.943, 926.799
494.276, 807.368
495.608, 675.918
496.940, 638.856
498.271, 559.425
499.603, 520.907
500.934, 463.010
502.265, 454.201
503.596, 410.767
504.927, 356.782
506.257, 341.283
507.587, 309.825
508.917, 271.163
510.247, 283.588
511.577, 257.866
512.906, 254.115
514.235, 238.445
515.564, 239.692
516.892, 216.231
518.221, 225.712
519.549, 217.339
520.877, 217.625
522.205, 211.308
523.533, 203.018
524.860, 191.536
526.187, 194.054
527.514, 184.570
528.841, 172.086
530.167, 168.601
531.493, 154.115
532.820, 158.628
534.145, 147.141
535.471, 127.653
536.796, 117.164
538.122, 124.676
539.447, 117.186
540.771, 117.712
542.096, 111.241
543.420, 119.774
544.744, 105.320
546.068, 135.912
547.392, 108.610
548.715, 133.156
550.039, 115.702
551.362, 130.217
552.684, 113.718
554.007, 112.217
555.329, 105.715
556.652, 105.212
557.973, 105.707
559.295, 96.202
560.617, 90.626
561.938, 78.187
563.259, 67.678
564.580, 52.167
565.901, 32.655
567.221, 29.142
568.541, 21.627
569.861, 23.147
571.181, 17.639
572.501, 10.121
573.820, 12.833
575.139, 1.611
576.458, 1.991
577.777, 5.585
579.095, 0.697
580.414, 6.183
581.732, 2.302
583.049, 0.195
584.367, 1.639
585.685, 1.745
587.002, 2.788
588.319, 3.325
589.636, 5.506
590.952, 5.977
592.268, 0.505
593.585, 0.879
594.900, 0.603
596.216, 6.549
597.532, 1.105
598.847, 2.675
600.162, 2.901
601.477, 4.437
602.792, 1.020
604.106, 4.484
605.420, 9.895
606.734, 2.466
608.048, 1.044
609.361, 5.357
610.675, 6.416
611.988, 5.568
613.301, 6.342
614.614, 0.823
615.926, 6.437
617.238, 2.959
618.550, 2.328
619.862, 13.833
621.174, 13.200
622.485, 18.628
623.797, 21.047
625.108, 26.381
626.418, 25.725
627.729, 23.079
629.039, 22.406
630.349, 20.817
631.659, 18.394
632.969, 18.381
634.279, 14.701
635.588, 14.017
636.897, 14.332
638.206, 0.644
639.515, 4.953
640.823, 2.259
642.131, 6.563
643.439, 9.864
644.747, 9.564
646.055, 7.460
647.362, 10.755
648.669, 9.047
649.976, 7.338
651.283, 6.626
652.589, 13.913
653.896, 14.197
655.202, 5.482
656.508, 18.766
657.814, 12.051
659.119, 10.342
660.424, 18.636
661.729, 15.937
663.034, 22.242
664.339, 24.555
665.643, 22.870
666.947, 11.188
668.251, 16.510
669.555, 12.835
670.859, 18.163
672.162, 15.495
673.465, 5.831
674.768, 12.169
676.071, 15.510
677.373, 9.853
678.676, 12.195
679.978, 7.537
681.280, 14.883
682.581, 23.226
683.883, 31.569
685.184, 32.454
686.485, 30.247
687.786, 32.583
689.087, 22.917
690.387, 21.249
691.687, 18.579
692.987, 13.906
694.287, 12.657
695.586, 13.555
696.886, 8.876
698.185, 8.195
699.484, 7.512
700.783, 5.826
702.081, 2.138
703.379, 0.553
704.677, 5.752
705.975, 5.742
707.273, 10.354
708.570, 14.651
709.868, 16.946
711.165, 23.240
712.462, 24.531
713.758, 24.819
715.055, 21.106
716.351, 28.390
717.647, 22.672
718.943, 21.953
720.238, 25.230
721.533, 21.506
722.829, 19.780
724.124, 18.051
725.418, 7.320
726.713, 12.587
728.007, 14.851
729.301, 0.886
730.595, 3.372
731.889, 0.455
733.182, 1.508
734.476, 1.244
735.769, 5.877
737.061, 8.650
738.354, 5.872
739.647, 4.986
740.939, 3.208
742.231, 2.232
743.523, 4.559
744.814, 3.652
746.106, 1.104
747.397, 3.827
748.688, 1.046
749.978, 2.987
751.269, 4.892
752.559, 5.767
753.849, 7.765
755.139, 4.338
756.429, 1.532
757.719, 1.303
759.008, 0.403
760.297, 2.434
761.586, 1.982
762.875, 1.862
764.163, 3.830
765.451, 2.009
766.739, 1.842
768.027, 8.171
769.315, 7.020
770.602, 2.911
771.890, 0.490
773.177, 3.579
774.463, 2.347
775.750, 2.802
777.036, 1.050
778.323, 0.905
779.609, 10.238
780.894, 6.379
782.180, 3.519
783.465, 13.657
784.750, 7.794
786.035, 11.930
787.320, 14.080
788.605, 9.197
789.889, 15.328
791.173, 21.458
792.457, 18.587
793.741, 13.596
795.024, 16.688
796.307, 17.738
797.591, 20.843
798.873, 26.964
800.156, 19.082
801.439, 31.191
802.721, 32.134
804.003, 38.421
805.285, 44.524
806.566, 59.620
807.848, 72.735
809.129, 64.848
810.410, 92.933
811.691, 111.044
812.971, 130.153
814.252, 124.261
815.532, 159.368
816.812, 165.474
818.092, 171.578
819.371, 201.682
820.651, 200.784
821.930, 229.885
823.209, 221.985
824.488, 222.084
825.766, 219.194
827.045, 205.290
828.323, 193.356
829.601, 179.449
830.878, 171.544
832.156, 155.635
833.433, 140.723
834.710, 155.792
835.987, 135.877
837.264, 152.123
838.540, 154.208
839.817, 160.345
841.093, 167.431
842.369, 170.980
843.644, 178.586
844.920, 182.663
846.195, 179.736
847.470, 188.808
848.745, 195.878
850.020, 187.947
851.294, 204.045
852.568, 208.092
853.842, 201.131
855.116, 221.163
856.390, 229.140
857.663, 241.007
858.936, 260.025
860.209, 262.045
861.482, 292.087
862.755, 306.143
864.027, 342.198
865.299, 334.251
866.571, 354.302
867.843, 390.353
869.115, 359.402
870.386, 370.450
871.657, 376.497
872.928, 377.545
874.199, 400.590
875.470, 397.632
876.740, 388.685
878.010, 375.726
879.280, 366.736
880.550, 367.764
881.820, 327.801
883.089, 334.604
884.358, 286.561
885.627, 237.449
886.896, 211.385
888.164, 182.176
889.433, 167.338
890.701, 141.355
891.969, 109.457
893.236, 103.027
894.504, 93.097
895.771, 86.531
897.038, 90.124
898.305, 84.797
899.572, 85.739
900.838, 93.725
902.105, 93.572
903.371, 88.549
904.637, 82.158
905.902, 83.457
907.168, 96.232
908.433, 82.907
909.698, 82.882
910.963, 81.859
912.228, 61.825
913.492, 65.632
914.757, 51.626
916.021, 47.621
917.285, 46.634
918.548, 39.547
919.812, 49.424
921.075, 41.921
922.338, 36.487
923.601, 47.497
924.864, 58.493
926.126, 52.552
927.388, 67.433
928.650, 76.448
929.912, 72.400
931.174, 89.359
932.435, 118.400
933.697, 105.463
934.958, 115.486
936.218, 121.525
937.479, 114.558
938.739, 107.596
940.000, 102.641
941.260, 101.689
942.520, 99.726
943.779, 82.763
945.039, 80.445
946.298, 70.835
947.557, 64.870
948.816, 54.906
950.074, 48.941
951.333, 37.987
952.591, 37.021
953.849, 29.879
955.107, 24.092
956.365, 23.125
957.622, 19.158
958.879, 21.507
960.136, 19.549
961.393, 11.592
962.650, 14.623
963.906, 16.654
965.162, 6.685
966.418, 12.725
967.674, 11.755
968.930, 12.784
970.185, 7.938
971.441, 13.966
972.696, 10.994
973.950, 14.209
975.205, 15.237
976.459, 0.265
977.714, 12.291
978.968, 3.317
980.222, 9.352
981.475, 2.387
982.729, 1.412
983.982, 7.436
985.235, 16.460
986.488, 6.483
987.740, 3.494
988.993, 2.529
990.245, 1.379
991.497, 1.641
992.749, 4.682
994.000, 8.701
995.252, 2.720
996.503, 7.760
997.754, 8.780
999.005, 3.809
1000.256, 7.837
1001.506, 1.143
1002.756, 2.884
1004.006, 7.901
1005.256, 0.919
1006.506, 4.074
1007.755, 3.091
1009.005, 9.108
1010.254, 2.124
1011.502, 6.141
1012.751, 3.159
1014.000, 4.183
1015.248, 5.200
1016.496, 6.217
1017.744, 6.693
1018.991, 7.262
1020.239, 6.278
1021.486, 5.296
1022.733, 2.312
1023.980, 9.328
1025.227, 4.343
1026.473, 0.358
1027.719, 6.373
1028.965, 1.388
1030.211, 5.402
1031.457, 3.417
1032.702, 6.431
1033.948, 4.446
1035.193, 6.461
1036.438, 1.477
1037.682, 1.493
1038.927, 3.157
1040.171, 1.858
1041.415, 2.126
1042.659, 1.888
1043.903, 2.001
1045.146, 7.982
1046.390, 7.029
1047.633, 0.042
1048.876, 5.065
1050.118, 3.079
1051.361, 9.102
1052.603, 5.122
1053.845, 8.138
1055.087, 7.157
1056.329, 0.825
1057.571, 2.193
1058.812, 12.212
1060.053, 7.231
1061.294, 9.251
1062.535, 7.270
1063.775, 12.290
1065.016, 10.310
1066.256, 10.330
1067.496, 0.651
1068.736, 6.369
1069.975, 2.389
1071.214, 8.412
1072.454, 5.436
1073.693, 6.098
1074.931, 0.437
1076.170, 5.587
1077.408, 5.611
1078.647, 4.635
1079.885, 8.659
1081.122, 4.683
1082.360, 0.293
1083.597, 1.731
1084.835, 13.781
1086.072, 12.804
1087.308, 13.827
1088.545, 1.856
1089.781, 0.878
1091.018, 4.900
1092.254, 4.921
1093.490, 5.946
1094.725, 9.974
1095.961, 7.999
1097.196, 9.020
1098.431, 5.040
1099.666, 1.059
1100.900, 6.079
1102.135, 3.266
1103.369, 7.286
1104.603, 11.305
1105.837, 8.324
1107.071, 4.657
1108.304, 1.359
1109.538, 1.375
1110.771, 6.390
1112.004, 5.405
1113.236, 6.421
1114.469, 1.435
1115.701, 10.450
1116.933, 4.464
1118.165, 1.523
1119.397, 8.489
1120.629, 7.501
1121.860, 2.487
1123.091, 7.523
1124.322, 3.532
1125.553, 6.529
1126.783, 5.538
1128.014, 1.546
1129.244, 1.555
1130.474, 9.559
1131.704, 4.559
1132.933, 7.566
1134.163, 6.573
1135.392, 5.580
1136.621, 3.424
1137.850, 0.572
1139.079, 9.377
1140.307, 0.376
1141.535, 5.380
1142.763, 6.385
1143.991, 0.387
1145.219, 3.391
1146.446, 1.395
1147.674, 1.489
1148.901, 3.484
1150.128, 1.440
1151.354, 6.441
1152.581, 3.443
1153.807, 1.565
1155.033, 4.435
1156.259, 6.441
1157.485, 12.441
1158.710, 4.436
1159.936, 5.737
1161.161, 2.736
1162.386, 9.735
1163.611, 8.733
1164.835, 9.735
1166.060, 1.733
1167.284, 5.731
1168.508, 3.728
1169.732, 5.726
1170.955, 7.719
1172.179, 6.716
1173.402, 7.713
1174.625, 9.706
1175.848, 11.702
1177.070, 9.691
1178.293, 9.070
1179.515, 12.681
1180.737, 5.676
1181.959, 9.670
1183.181, 11.665
1184.402, 6.693
1185.624, 4.318
1186.845, 5.498
1188.066, 5.488
1189.286, 17.366
1190.507, 0.650
1191.727, 3.231
1192.947, 5.737
1194.167, 5.725
1195.387, 1.697
1196.607, 5.684
1197.826, 1.670
1199.045, 2.657
1200.264, 12.053
1201.483, 15.039
1202.702, 5.025
1203.920, 11.960
1205.138, 9.940
1206.356, 9.925
1207.574, 3.910
1208.792, 11.894
1210.009, 12.878
1211.227, 5.862
1212.444, 12.845
1213.661, 4.828
1214.877, 4.771
1216.094, 10.754
1217.310, 12.734
1218.526, 9.716
1219.742, 0.222
1220.958, 1.758
1222.173, 6.700
1223.389, 12.679
1224.604, 5.659
1225.819, 6.638
1227.034, 5.617
1228.248, 5.596
1229.463, 7.539
1230.677, 0.518
1231.891, 11.495
1233.105, 10.473
1234.318, 2.449
1235.532, 13.419
1236.745, 9.384
1237.958, 10.360
1239.171, 3.336
1240.384, 2.311
1241.596, 2.959
1242.809, 10.261
1244.021, 5.235
1245.233, 6.209
1246.444, 7.325
1247.656, 1.701
1248.867, 4.268
1250.079, 4.240
1251.290, 8.212
1252.500, 10.288
1253.711, 5.943
1254.921, 9.904
1256.132, 9.864
1257.342, 7.834
1258.552, 3.804
1259.761, 6.774
1260.971, 13.733
1262.180, 5.703
1263.389, 12.672
1264.598, 18.516
1265.807, 11.484
1267.015, 6.452
1268.223, 7.233
1269.432, 10.202
1270.640, 10.168
1271.847, 8.135
1273.055, 6.104
1274.262, 9.059
1275.470, 7.872
1276.677, 7.982
1277.883, 9.946
1279.090, 8.911
1280.296, 10.875
1281.503, 13.839
1282.709, 10.801
1283.915, 11.695
1285.120, 10.659
1286.326, 15.601
1287.531, 8.565
1288.736, 6.528
1289.941, 3.469
1291.146, 7.430
1292.350, 0.620
1293.555, 9.329
1294.759, 3.286
1295.963, 9.235
1297.167, 12.194
1298.370, 4.151
1299.574, 8.971
1300.777, 1.930
1301.980, 6.888
1303.183, 16.845
1304.386, 4.197
1305.588, 13.759
1306.790, 6.709
1307.993, 3.664
1309.195, 2.716
1310.396, 5.672
1311.598, 8.616
1312.799, 7.570
1314.000, 6.523
1315.201, 7.476
1316.402, 11.428
1317.603, 4.381
1318.803, 1.333
1320.003, 11.284
1321.203, 6.235
1322.403, 8.186
1323.603, 8.136
1324.802, 13.087
1326.002, 8.037
1327.201, 10.987
1328.400, 0.063
1329.599, 2.886
1330.797, 7.502
1331.995, 1.452
1333.194, 8.402
1334.392, 9.352
1335.589, 9.206
1336.787, 11.152
1337.985, 7.104
1339.182, 4.056
1340.379, 7.000
1341.576, 5.951
1342.772, 6.894
1343.969, 6.159
1345.165, 8.791
1346.361, 10.739
1347.557, 2.687
1348.753, 10.635
1349.949, 11.596
1351.144, 3.543
1352.339, 10.491
1353.534, 12.438
1354.729, 14.386
1355.924, 7.334
1357.118, 7.282
1358.312, 1.230
1359.506, 9.178
1360.700, 2.126
1361.894, 6.075
1363.088, 0.977
1364.281, 7.903
1365.474, 13.842
1366.667, 7.791
1367.860, 2.740
1369.052, 3.689
1370.245, 8.640
1371.437, 4.591
1372.629, 4.542
1373.821, 0.494
1375.013, 11.420
1376.204, 3.374
1377.395, 10.329
1378.586, 17.279
1379.777, 12.275
1380.968, 11.236
1382.159, 9.162
1383.349, 8.114
1384.539, 12.071
1385.729, 15.033
1386.919, 4.820
1388.109, 7.778
1389.298, 2.264
1390.487, 4.695
1391.676, 4.655
1392.865, 7.613
1394.054, 8.572
1395.242, 1.468
1396.431, 14.492
1397.619, 3.453
1398.807, 5.414
1399.995, 8.376
1401.182, 9.337
1402.370, 10.298
1403.557, 10.258
1404.744, 11.220
1405.931, 13.181
1407.118, 4.143
1408.304, 6.104
1409.490, 16.963
1410.676, 13.922
1411.862, 1.883
1413.048, 10.838
1414.234, 13.800
1415.419, 1.367
1416.604, 15.325
1417.789, 2.278
1418.974, 1.235
1420.159, 3.192
1421.343, 10.149
1422.528, 9.094
1423.712, 11.051
1424.896, 14.008
1426.079, 10.965
1427.263, 9.860
1428.446, 5.811
1429.629, 5.908
1430.812, 9.734
1431.995, 6.697
1433.178, 6.660
1434.360, 8.975
1435.543, 6.930
1436.725, 6.884
1437.907, 9.838
1439.088, 9.793
1440.270, 7.748
1441.451, 8.692
1442.632, 1.643
1443.813, 13.456
1444.994, 8.409
1446.175, 14.363
1447.355, 7.317
1448.535, 1.271
1449.715, 6.208
1450.895, 1.838
1452.075, 8.115
1453.255, 5.068
1454.434, 6.021
1455.613, 8.975
1456.792, 12.604
1457.971, 10.553
1459.149, 11.501
1460.328, 9.215
1461.506, 10.158
1462.684, 18.100
1463.862, 12.041
1465.040, 12.981
1466.217, 10.919
1467.395, 0.859
1468.572, 11.793
1469.749, 10.727
1470.925, 16.672
1472.102, 8.607
1473.278, 8.551
1474.455, 4.494
1475.631, 8.437
1476.807, 5.380
1477.982, 5.322
1479.158, 5.271
1480.333, 9.228
1481.508, 5.185
1482.683, 12.142
1483.858, 1.102
1485.033, 14.063
1486.207, 10.022
1487.381, 0.606
1488.555, 3.556
1489.729, 10.505
1490.903, 0.535
1492.076, 2.431
1493.250, 14.402
1494.423, 9.376
1495.596, 6.350
1496.769, 7.328
1497.941, 9.310
1499.114, 11.295
1500.286, 5.283
1501.458, 6.275
1502.630, 3.270
1503.802, 1.269
1504.973, 8.271
1506.145, 6.302
1507.316, 10.237
1508.487, 6.283
1509.657, 7.340
1510.828, 1.409
1511.999, 6.493
1513.169, 10.595
1514.339, 7.719
1515.509, 4.876
1516.678, 7.074
1517.848, 7.280
1519.017, 12.573
1520.187, 0.059
1521.356, 15.425
1522.524, 0.000
##END=



