##NAMES=Sulphur
##RRUFFID=R050006
##IDEAL CHEMISTRY=S
##LOCALITY=San Felipe, Mexicali, Baja California Norte, Mexico
##OWNER=RRUFF
##SOURCE=Eugene Schlepp
##DESCRIPTION=Yellow single crystal
##STATUS=The identification of this mineral has been confirmed by X-ray diffraction and chemical analysis
##URL=rruff.info/R050006
##MEASURED CHEMISTRY=S_1.00_
##PIN_ID=L00477
##ORIENTATION=Laser parallel to -b* (0 -1 0). Fiducial mark perpendicular to laser is parallel to -c [0 0 -1]
52.261, 0.000
53.667, 9.796
55.072, 7.603
56.477, 16.095
57.882, 21.282
59.287, 15.819
60.691, 19.065
62.095, 17.786
63.499, 19.093
64.903, 16.079
66.306, 16.449
67.709, 19.382
69.112, 12.633
70.515, 4.162
71.917, 4.940
73.319, 4.057
74.721, 6.150
76.123, 2.542
77.525, 2.900
78.926, 7.191
80.327, 2.654
81.728, 5.623
83.128, 16.707
84.529, 28.895
85.929, 43.179
87.329, 82.552
88.728, 142.012
90.128, 214.559
91.527, 259.197
92.926, 249.917
94.324, 181.714
95.723, 135.579
97.121, 113.504
98.519, 84.484
99.917, 84.513
101.314, 82.589
102.712, 79.707
104.109, 93.865
105.505, 101.060
106.902, 100.289
108.298, 103.552
109.694, 129.847
111.090, 118.171
112.486, 140.524
113.881, 141.905
115.277, 160.311
116.672, 157.746
118.066, 158.310
119.461, 150.678
120.855, 148.179
122.249, 145.705
123.643, 135.269
125.036, 144.916
126.430, 131.654
127.823, 150.465
129.216, 161.332
130.608, 156.226
132.001, 175.128
133.393, 190.034
134.785, 191.942
136.176, 204.849
137.568, 226.743
138.959, 238.627
140.350, 271.506
141.741, 344.381
143.131, 415.253
144.521, 497.124
145.911, 688.996
147.301, 962.868
148.691, 1500.742
150.080, 2473.617
151.469, 4258.495
152.858, 7574.377
154.247, 11844.266
155.635, 14234.156
157.024, 12414.053
158.411, 8287.956
159.799, 4651.865
161.187, 2752.779
162.574, 1678.700
163.961, 1089.626
165.348, 783.559
166.734, 547.499
168.121, 466.444
169.507, 382.396
170.893, 334.355
172.278, 281.320
173.664, 239.291
175.049, 235.269
176.434, 215.253
177.819, 201.243
179.203, 198.239
180.587, 197.241
181.971, 207.250
183.355, 212.263
184.739, 217.283
186.122, 224.309
187.505, 237.340
188.888, 234.090
190.271, 256.419
191.653, 241.661
193.035, 234.120
194.417, 260.711
195.799, 267.972
197.180, 261.418
198.562, 256.778
199.943, 258.384
201.324, 271.184
202.704, 293.374
204.084, 350.968
205.465, 371.573
206.844, 430.374
208.224, 537.348
209.603, 650.576
210.983, 864.558
212.362, 1250.543
213.740, 2034.533
215.119, 3461.527
216.497, 6463.525
217.875, 13438.527
219.253, 26708.008
220.631, 38447.570
222.008, 36387.188
223.385, 22766.854
224.762, 10846.559
226.139, 5431.295
227.515, 2970.058
228.891, 1804.848
230.267, 1227.657
231.643, 910.485
233.018, 747.328
234.394, 647.191
235.769, 571.074
237.144, 512.974
238.518, 454.890
239.893, 409.605
241.267, 369.687
242.641, 345.647
244.014, 320.576
245.388, 313.418
246.761, 288.415
248.134, 316.423
249.507, 321.441
250.879, 286.470
252.252, 267.508
253.624, 219.554
254.996, 179.610
256.367, 155.673
257.739, 146.745
259.110, 126.824
260.481, 128.911
261.852, 153.006
263.222, 151.107
264.592, 123.215
265.962, 130.330
267.332, 113.450
268.702, 118.575
270.071, 105.708
271.440, 105.846
272.809, 118.992
274.178, 105.144
275.546, 128.301
276.915, 113.465
278.283, 108.633
279.650, 112.806
281.018, 102.984
282.385, 115.165
283.752, 97.351
285.119, 115.544
286.486, 112.741
287.852, 96.941
289.218, 102.145
290.584, 105.352
291.950, 100.564
293.316, 101.778
294.681, 99.995
296.046, 117.213
297.411, 110.434
298.775, 126.657
300.140, 101.882
301.504, 100.110
302.868, 89.341
304.231, 90.574
305.595, 85.810
306.958, 63.048
308.321, 61.288
309.684, 44.530
311.047, 48.774
312.409, 39.020
313.771, 37.268
315.133, 40.518
316.495, 26.770
317.856, 34.025
319.217, 37.281
320.578, 35.539
321.939, 29.798
323.299, 30.060
324.660, 25.324
326.020, 11.590
327.380, 13.857
328.739, 0.874
330.099, 10.397
331.458, 4.331
332.817, 6.058
334.176, 3.214
335.534, 15.512
336.892, 15.241
338.251, 14.973
339.608, 2.708
340.966, 17.442
342.323, 15.180
343.681, 9.921
345.037, 10.664
346.394, 4.410
347.751, 19.156
349.107, 0.094
350.463, 13.656
351.819, 10.409
353.174, 10.164
354.530, 1.079
355.885, 4.680
357.240, 8.441
358.594, 1.793
359.949, 11.017
361.303, 11.236
362.657, 0.554
364.011, 18.648
365.365, 19.844
366.718, 23.035
368.071, 38.220
369.424, 45.403
370.777, 41.584
372.129, 38.766
373.481, 42.948
374.833, 41.132
376.185, 50.316
377.537, 54.502
378.888, 52.689
380.239, 57.937
381.590, 56.066
382.941, 63.259
384.291, 59.455
385.642, 66.655
386.992, 55.857
388.341, 59.063
389.691, 66.272
391.040, 49.482
392.389, 55.695
393.738, 55.911
395.087, 58.128
396.435, 47.347
397.784, 38.568
399.132, 46.790
400.479, 48.014
401.827, 47.240
403.174, 56.468
404.521, 56.698
405.868, 54.928
407.215, 56.160
408.561, 57.394
409.908, 57.630
411.254, 70.866
412.599, 69.103
413.945, 73.346
415.290, 70.585
416.636, 73.826
417.980, 69.068
419.325, 73.310
420.670, 88.582
422.014, 95.054
423.358, 109.397
424.702, 108.810
426.045, 130.071
427.389, 153.365
428.732, 180.655
430.075, 210.910
431.417, 273.400
432.760, 296.821
434.102, 332.601
435.444, 320.300
436.786, 317.570
438.127, 312.183
439.469, 291.593
440.810, 284.848
442.151, 279.122
443.492, 260.376
444.832, 236.865
446.172, 183.657
447.512, 154.973
448.852, 160.228
450.192, 148.534
451.531, 159.859
452.870, 163.582
454.209, 181.897
455.548, 204.154
456.887, 270.417
458.225, 331.720
459.563, 426.042
460.901, 571.446
462.238, 772.844
463.576, 1043.420
464.913, 1374.751
466.250, 1762.076
467.587, 2431.396
468.923, 3353.648
470.259, 5158.923
471.596, 7659.174
472.931, 11785.426
474.267, 16495.670
475.603, 17915.924
476.938, 16076.277
478.273, 11006.538
479.608, 7150.786
480.942, 4565.053
482.276, 3071.300
483.611, 2245.545
484.944, 1685.910
486.278, 1287.154
487.612, 1034.397
488.945, 827.639
490.278, 719.994
491.611, 576.238
492.943, 492.211
494.276, 450.045
495.608, 394.307
496.940, 378.583
498.271, 334.867
499.603, 313.160
500.934, 287.145
502.265, 274.289
503.596, 260.554
504.927, 213.098
506.257, 200.597
507.587, 188.431
508.917, 180.442
510.247, 176.497
511.577, 153.813
512.906, 146.301
514.235, 149.797
515.564, 137.885
516.892, 146.678
518.221, 128.254
519.549, 145.361
520.877, 137.587
522.205, 123.812
523.533, 131.801
524.860, 128.025
526.187, 116.249
527.514, 111.473
528.841, 126.697
530.167, 108.920
531.493, 109.143
532.820, 97.397
534.145, 94.619
535.471, 93.841
536.796, 94.062
538.122, 100.283
539.447, 99.510
540.771, 96.755
542.096, 109.046
543.420, 95.289
544.744, 102.508
546.068, 99.821
547.392, 88.191
548.715, 120.408
550.039, 98.685
551.362, 103.902
552.684, 105.146
554.007, 88.361
555.329, 91.576
556.652, 103.805
557.973, 80.024
559.295, 84.255
560.617, 63.516
561.938, 56.761
563.259, 52.976
564.580, 39.198
565.901, 27.407
567.221, 19.635
568.541, 19.872
569.861, 17.089
571.181, 11.323
572.501, 4.530
573.820, 9.787
575.139, 7.058
576.458, 5.261
577.777, 5.499
579.095, 2.908
580.414, 1.892
581.732, 0.328
583.049, 0.863
584.367, 3.811
585.685, 2.024
587.002, 2.236
588.319, 4.468
589.636, 2.016
590.952, 0.832
592.268, 6.630
593.585, 5.226
594.900, 3.949
596.216, 3.861
597.532, 0.573
598.847, 5.610
600.162, 3.791
601.477, 7.970
602.792, 1.867
604.106, 6.710
605.420, 1.770
606.734, 10.923
608.048, 2.152
609.361, 1.437
610.675, 5.415
611.988, 1.724
613.301, 5.862
614.614, 4.999
615.926, 2.137
617.238, 1.423
618.550, 0.401
619.862, 0.306
621.174, 3.179
622.485, 0.960
623.797, 1.111
625.108, 1.262
626.418, 7.422
627.729, 3.538
629.039, 7.659
630.349, 9.773
631.659, 10.885
632.969, 9.715
634.279, 0.106
635.588, 4.214
636.897, 6.320
638.206, 3.426
639.515, 9.530
640.823, 9.632
642.131, 0.266
643.439, 9.833
644.747, 9.931
646.055, 10.028
647.362, 2.876
648.669, 5.217
649.976, 0.309
651.283, 2.401
652.589, 1.493
653.896, 11.584
655.202, 7.678
656.508, 18.775
657.814, 1.875
659.119, 6.975
660.424, 10.078
661.729, 11.185
663.034, 19.294
664.339, 10.405
665.643, 9.517
666.947, 8.633
668.251, 10.749
669.555, 8.738
670.859, 13.989
672.162, 9.112
673.465, 4.235
674.768, 9.359
676.071, 12.484
677.373, 14.609
678.676, 9.733
679.978, 8.856
681.280, 12.979
682.581, 9.811
683.883, 16.222
685.184, 10.342
686.485, 16.460
687.786, 19.577
689.087, 2.694
690.387, 12.808
691.687, 6.922
692.987, 11.035
694.287, 13.146
695.586, 5.257
696.886, 3.366
698.185, 0.473
699.484, 3.579
700.783, 10.684
702.081, 0.213
703.379, 1.111
704.677, 6.988
705.975, 1.086
707.273, 13.182
708.570, 3.277
709.868, 7.371
711.165, 6.464
712.462, 4.556
713.758, 5.646
715.055, 4.259
716.351, 1.824
717.647, 2.910
718.943, 5.996
720.238, 5.081
721.533, 7.165
722.829, 4.247
724.124, 3.328
725.418, 5.408
726.713, 3.487
728.007, 6.564
729.301, 1.637
730.595, 0.712
731.889, 10.785
733.182, 2.857
734.476, 2.072
735.769, 7.968
737.061, 3.807
738.354, 5.775
739.647, 0.328
740.939, 3.720
742.231, 3.734
743.523, 1.752
744.814, 4.196
746.106, 6.619
747.397, 3.502
748.688, 2.975
749.978, 4.628
751.269, 2.658
752.559, 1.655
753.849, 2.233
755.139, 2.276
756.429, 2.299
757.719, 4.341
759.008, 6.148
760.297, 5.351
761.586, 3.626
762.875, 1.338
764.163, 2.356
765.451, 3.607
766.739, 10.171
768.027, 6.141
769.315, 7.170
770.602, 3.190
771.890, 2.831
773.177, 2.128
774.463, 3.003
775.750, 4.885
777.036, 0.586
778.323, 0.468
779.609, 0.518
780.894, 0.927
782.180, 4.457
783.465, 1.453
784.750, 7.473
786.035, 9.492
787.320, 9.510
788.605, 10.527
789.889, 9.439
791.173, 10.820
792.457, 7.457
793.741, 12.451
795.024, 14.465
796.307, 14.479
797.591, 25.372
798.873, 26.384
800.156, 28.397
801.439, 29.409
802.721, 36.142
804.003, 34.149
805.285, 44.080
806.566, 57.058
807.848, 62.019
809.129, 67.028
810.410, 71.036
811.691, 83.307
812.971, 98.016
814.252, 111.023
815.532, 131.030
816.812, 150.036
818.092, 164.041
819.371, 176.046
820.651, 179.081
821.930, 185.115
823.209, 198.118
824.488, 176.125
825.766, 189.127
827.045, 166.128
828.323, 153.121
829.601, 141.120
830.878, 140.119
832.156, 123.117
833.433, 116.121
834.710, 106.118
835.987, 101.793
837.264, 111.148
838.540, 105.143
839.817, 108.137
841.093, 125.130
842.369, 124.123
843.644, 136.084
844.920, 144.076
846.195, 142.374
847.470, 144.101
848.745, 143.090
850.020, 147.074
851.294, 152.038
852.568, 154.954
853.842, 165.919
855.116, 160.906
856.390, 159.845
857.663, 182.680
858.936, 169.665
860.209, 191.590
861.482, 207.574
862.755, 206.694
864.027, 236.677
865.299, 229.662
866.571, 242.629
867.843, 244.606
869.115, 230.569
870.386, 241.502
871.657, 233.672
872.928, 236.656
874.199, 232.625
875.470, 206.607
876.740, 245.568
878.010, 220.519
879.280, 234.532
880.550, 208.491
881.820, 212.567
883.089, 215.502
884.358, 174.412
885.627, 143.390
886.896, 117.331
888.164, 104.099
889.433, 91.076
890.701, 78.030
891.969, 66.001
893.236, 58.695
894.504, 56.845
895.771, 46.801
897.038, 53.738
898.305, 49.387
899.572, 46.364
900.838, 48.322
902.105, 43.079
903.371, 42.057
904.637, 45.024
905.902, 39.885
907.168, 36.848
908.433, 52.944
909.698, 34.907
910.963, 42.886
912.228, 41.869
913.492, 31.527
914.757, 31.508
916.021, 39.412
917.285, 30.259
918.548, 33.241
919.812, 27.236
921.075, 25.223
922.338, 25.211
923.601, 31.195
924.864, 29.030
926.126, 45.154
927.388, 48.169
928.650, 54.158
929.912, 51.133
931.174, 61.093
932.435, 62.873
933.697, 78.000
934.958, 70.991
936.218, 69.974
937.479, 72.965
938.739, 67.955
940.000, 58.945
941.260, 55.935
942.520, 50.925
943.779, 44.916
945.039, 41.586
946.298, 36.573
947.557, 32.885
948.816, 30.874
950.074, 25.864
951.333, 22.954
952.591, 19.251
953.849, 15.944
955.107, 11.934
956.365, 8.402
957.622, 5.744
958.879, 6.918
960.136, 4.909
961.393, 10.961
962.650, 14.952
963.906, 0.044
965.162, 10.947
966.418, 5.937
967.674, 8.994
968.930, 7.993
970.185, 1.991
971.441, 1.019
972.696, 1.030
973.950, 6.959
975.205, 0.052
976.459, 5.937
977.714, 6.925
978.968, 2.914
980.222, 6.902
981.475, 4.890
982.729, 5.878
983.982, 0.134
985.235, 2.853
986.488, 1.159
987.740, 0.828
988.993, 0.815
990.245, 2.801
991.497, 3.788
992.749, 7.787
994.000, 2.773
995.252, 3.759
996.503, 1.254
997.754, 6.736
999.005, 2.726
1000.256, 10.712
1001.506, 4.698
1002.756, 6.689
1004.006, 3.744
1005.256, 1.730
1006.506, 1.283
1007.755, 5.703
1009.005, 2.690
1010.254, 4.676
1011.502, 8.663
1012.751, 3.351
1014.000, 2.635
1015.248, 0.620
1016.496, 3.642
1017.744, 0.639
1018.991, 5.636
1020.239, 7.629
1021.486, 4.026
1022.733, 0.138
1023.980, 3.122
1025.227, 15.227
1026.473, 10.210
1027.719, 8.193
1028.965, 0.824
1030.211, 0.159
1031.457, 1.858
1032.702, 0.123
1033.948, 7.105
1035.193, 15.087
1036.438, 10.069
1037.682, 6.051
1038.927, 8.034
1040.171, 3.017
1041.415, 8.008
1042.659, 3.990
1043.903, 1.974
1045.146, 6.957
1046.390, 0.940
1047.633, 1.923
1048.876, 2.908
1050.118, 4.892
1051.361, 0.886
1052.603, 4.871
1053.845, 0.856
1055.087, 1.841
1056.329, 3.827
1057.571, 2.188
1058.812, 8.796
1060.053, 10.780
1061.294, 2.764
1062.535, 1.748
1063.775, 8.734
1065.016, 7.880
1066.256, 6.866
1067.496, 7.894
1068.736, 0.880
1069.975, 12.865
1071.214, 11.865
1072.454, 3.850
1073.693, 12.850
1074.931, 2.165
1076.170, 0.181
1077.408, 2.942
1078.647, 6.933
1079.885, 4.941
1081.122, 2.927
1082.360, 2.911
1083.597, 10.894
1084.835, 9.877
1086.072, 9.859
1087.308, 11.842
1088.545, 11.303
1089.781, 9.806
1091.018, 11.788
1092.254, 8.770
1093.490, 7.752
1094.725, 5.733
1095.961, 7.714
1097.196, 3.695
1098.431, 7.675
1099.666, 11.656
1100.900, 1.364
1102.135, 6.615
1103.369, 4.594
1104.603, 4.577
1105.837, 8.555
1107.071, 0.533
1108.304, 6.517
1109.538, 0.506
1110.771, 3.593
1112.004, 0.569
1113.236, 3.543
1114.469, 4.519
1115.701, 0.503
1116.933, 1.473
1118.165, 1.449
1119.397, 8.425
1120.629, 6.370
1121.860, 8.315
1123.091, 11.290
1124.322, 11.260
1125.553, 12.362
1126.783, 11.209
1128.014, 12.184
1129.244, 10.157
1130.474, 9.131
1131.704, 11.105
1132.933, 4.071
1134.163, 4.044
1135.392, 4.979
1136.621, 3.952
1137.850, 5.924
1139.079, 10.896
1140.307, 0.868
1141.535, 9.840
1142.763, 3.812
1143.991, 7.783
1145.219, 2.711
1146.446, 2.698
1147.674, 12.669
1148.901, 7.684
1150.128, 2.655
1151.354, 0.375
1152.581, 7.594
1153.807, 3.564
1155.033, 7.717
1156.259, 9.462
1157.485, 11.430
1158.710, 11.399
1159.936, 8.367
1161.161, 12.169
1162.386, 5.137
1163.611, 0.102
1164.835, 1.068
1166.060, 1.032
1167.284, 1.998
1168.508, 5.027
1169.732, 2.282
1170.955, 6.697
1172.179, 1.330
1173.402, 8.635
1174.625, 10.594
1175.848, 10.559
1177.070, 7.475
1178.293, 7.426
1179.515, 12.285
1180.737, 11.234
1181.959, 12.222
1183.181, 13.980
1184.402, 10.182
1185.624, 13.139
1186.845, 8.095
1188.066, 2.051
1189.286, 11.007
1190.507, 8.962
1191.727, 5.919
1192.947, 12.874
1194.167, 4.824
1195.387, 4.778
1196.607, 8.732
1197.826, 1.685
1199.045, 7.634
1200.264, 5.587
1201.483, 7.534
1202.702, 11.486
1203.920, 10.438
1205.138, 8.258
1206.356, 14.209
1207.574, 6.161
1208.792, 8.168
1210.009, 6.117
1211.227, 1.932
1212.444, 14.017
1213.661, 0.034
1214.877, 13.915
1216.094, 12.856
1217.310, 0.803
1218.526, 16.751
1219.742, 0.698
1220.958, 9.644
1222.173, 12.446
1223.389, 1.637
1224.604, 2.307
1225.819, 0.251
1227.034, 3.194
1228.248, 4.229
1229.463, 5.355
1230.677, 5.039
1231.891, 9.981
1233.105, 6.923
1234.318, 10.873
1235.532, 13.814
1236.745, 7.755
1237.958, 7.702
1239.171, 8.642
1240.384, 13.582
1241.596, 11.521
1242.809, 5.461
1244.021, 13.400
1245.233, 7.339
1246.444, 5.277
1247.656, 8.105
1248.867, 10.044
1250.079, 2.981
1251.290, 9.918
1252.500, 21.855
1253.711, 2.780
1254.921, 15.716
1256.132, 1.409
1257.342, 11.535
1258.552, 6.696
1259.761, 11.631
1260.971, 7.752
1262.180, 8.311
1263.389, 9.546
1264.598, 8.472
1265.807, 7.406
1267.015, 7.425
1268.223, 7.402
1269.432, 10.207
1270.640, 9.140
1271.847, 10.587
1273.055, 6.014
1274.262, 9.946
1275.470, 10.888
1276.677, 5.820
1277.883, 4.751
1279.090, 7.683
1280.296, 8.621
1281.503, 12.571
1282.709, 11.694
1283.915, 12.156
1285.120, 9.440
1286.326, 11.358
1287.531, 8.287
1288.736, 9.216
1289.941, 10.284
1291.146, 1.208
1292.350, 7.133
1293.555, 0.061
1294.759, 10.990
1295.963, 6.913
1297.167, 8.771
1298.370, 17.698
1299.574, 2.624
1300.777, 15.551
1301.980, 15.478
1303.183, 11.405
1304.386, 6.331
1305.588, 12.258
1306.790, 13.185
1307.993, 7.112
1309.195, 8.001
1310.396, 6.004
1311.598, 8.844
1312.799, 2.772
1314.000, 3.363
1315.201, 0.120
1316.402, 1.308
1317.603, 2.851
1318.803, 7.778
1320.003, 2.704
1321.203, 10.628
1322.403, 9.550
1323.603, 16.472
1324.802, 6.394
1326.002, 7.316
1327.201, 0.762
1328.400, 8.159
1329.599, 6.002
1330.797, 17.001
1331.995, 7.921
1333.194, 8.834
1334.392, 5.753
1335.589, 4.014
1336.787, 5.491
1337.985, 5.506
1339.182, 5.422
1340.379, 10.338
1341.576, 5.255
1342.772, 10.161
1343.969, 15.076
1345.165, 5.992
1346.361, 9.907
1347.557, 5.822
1348.753, 10.735
1349.949, 5.656
1351.144, 4.668
1352.339, 0.375
1353.534, 9.537
1354.729, 5.450
1355.924, 19.201
1357.118, 14.112
1358.312, 13.982
1359.506, 7.893
1360.700, 4.805
1361.894, 5.741
1363.088, 10.613
1364.281, 6.510
1365.474, 6.421
1366.667, 4.333
1367.860, 9.099
1369.052, 10.997
1370.245, 7.878
1371.437, 4.783
1372.629, 0.689
1373.821, 11.592
1375.013, 11.494
1376.204, 6.396
1377.395, 2.298
1378.586, 10.206
1379.777, 6.153
1380.968, 3.052
1382.159, 10.904
1383.349, 10.834
1384.539, 8.763
1385.729, 17.692
1386.919, 12.621
1388.109, 13.546
1389.298, 11.475
1390.487, 9.398
1391.676, 4.197
1392.865, 5.123
1394.054, 12.048
1395.242, 6.973
1396.431, 7.898
1397.619, 7.822
1398.807, 5.747
1399.995, 2.671
1401.182, 3.405
1402.370, 6.518
1403.557, 2.559
1404.744, 14.364
1405.931, 7.286
1407.118, 8.208
1408.304, 9.110
1409.490, 7.975
1410.676, 8.894
1411.862, 11.814
1413.048, 13.722
1414.234, 5.641
1415.419, 2.560
1416.604, 7.479
1417.789, 2.398
1418.974, 17.305
1420.159, 6.188
1421.343, 9.086
1422.528, 3.001
1423.712, 0.870
1424.896, 3.851
1426.079, 0.665
1427.263, 0.412
1428.446, 5.511
1429.629, 10.435
1430.812, 6.356
1431.995, 1.720
1433.178, 5.203
1434.360, 17.128
1435.543, 7.052
1436.725, 11.976
1437.907, 17.900
1439.088, 11.730
1440.270, 13.653
1441.451, 9.578
1442.632, 9.503
1443.813, 14.428
1444.994, 8.354
1446.175, 10.281
1447.355, 13.211
1448.535, 16.110
1449.715, 13.040
1450.895, 17.955
1452.075, 1.886
1453.255, 13.806
1454.434, 2.739
1455.613, 0.672
1456.792, 2.605
1457.971, 8.537
1459.149, 7.473
1460.328, 12.409
1461.506, 9.345
1462.684, 15.708
1463.862, 5.192
1465.040, 21.109
1466.217, 18.025
1467.395, 22.943
1468.572, 12.860
1469.749, 14.595
1470.925, 9.644
1472.102, 13.561
1473.278, 12.457
1474.455, 16.308
1475.631, 10.005
1476.807, 14.916
1477.982, 17.396
1479.158, 11.294
1480.333, 5.189
1481.508, 6.085
1482.683, 9.980
1483.858, 14.872
1485.033, 12.763
1486.207, 10.650
1487.381, 6.536
1488.555, 9.362
1489.729, 12.089
1490.903, 2.906
1492.076, 1.235
1493.250, 0.371
1494.423, 13.518
1495.596, 15.405
1496.769, 9.288
1497.941, 8.169
1499.114, 9.049
1500.286, 8.938
1501.458, 5.847
1502.630, 16.758
1503.802, 10.669
1504.973, 21.582
1506.145, 10.500
1507.316, 9.372
1508.487, 13.962
1509.657, 10.797
1510.828, 5.621
1511.999, 3.429
1513.169, 4.211
1514.339, 5.952
1515.509, 14.637
1516.678, 6.492
1517.848, 12.232
1519.017, 3.044
1520.187, 0.049
1521.356, 5.373
1522.524, 0.000
##END=



