##NAMES=Sulphur
##RRUFFID=R040135
##IDEAL CHEMISTRY=S
##LOCALITY=Sicily, Italy
##OWNER=RRUFF
##SOURCE=University of Arizona Mineral Museum
##DESCRIPTION=Yellow fragments
##STATUS=The identification of this mineral has been confirmed by X-ray diffraction and chemical analysis
##URL=rruff.info/R040135
##MEASURED CHEMISTRY=S_1.00_
##PIN_ID=L00492
##ORIENTATION=Laser parallel to b* (0 1 0). Fiducial mark perpendicular to laser is parallel to -c [0 0 -1]
55.323, 0.000
56.716, 6.145
58.108, 12.444
59.501, 9.217
60.893, 8.035
62.285, 17.566
63.677, 41.147
65.069, 18.582
66.460, 16.227
67.851, 6.060
69.242, 7.400
70.633, 3.097
72.024, 12.661
73.414, 2.249
74.805, 35.763
76.195, 82.835
77.585, 123.418
78.974, 172.467
80.364, 207.940
81.753, 280.801
83.142, 410.015
84.531, 549.554
85.920, 729.392
87.308, 1012.508
88.697, 1314.881
90.085, 1503.495
91.473, 1385.339
92.860, 1181.420
94.248, 932.738
95.635, 768.279
97.022, 660.025
98.409, 574.956
99.796, 583.054
101.183, 527.302
102.569, 553.687
103.955, 567.199
105.341, 564.830
106.727, 572.572
108.113, 593.420
109.498, 597.367
110.883, 616.410
112.268, 635.544
113.653, 652.766
115.038, 657.071
116.422, 672.458
117.806, 680.922
119.190, 678.463
120.574, 648.076
121.958, 680.760
123.341, 671.512
124.725, 685.335
126.108, 718.269
127.491, 696.398
128.873, 722.721
130.256, 773.220
131.638, 756.883
133.020, 811.626
134.402, 885.398
135.784, 909.194
137.165, 1049.014
138.547, 1175.848
139.928, 1382.662
141.309, 1767.461
142.690, 2356.248
144.070, 3395.028
145.450, 5045.794
146.831, 7619.558
148.211, 11590.325
149.590, 16048.103
150.970, 21185.896
152.349, 26493.691
153.729, 31041.512
155.108, 32979.352
156.487, 29657.205
157.865, 22825.078
159.244, 15202.979
160.622, 8901.898
162.000, 5283.843
163.378, 3427.806
164.755, 2478.794
166.133, 1815.806
167.510, 1503.842
168.887, 1233.902
170.264, 1038.986
171.641, 945.095
173.017, 848.229
174.394, 796.388
175.770, 747.571
177.146, 795.779
178.522, 899.010
179.897, 1128.266
181.272, 1443.544
182.648, 1759.846
184.023, 2148.171
185.397, 2519.518
186.772, 2732.888
188.146, 2435.281
189.521, 1912.695
190.895, 1416.131
192.269, 1176.589
193.642, 1052.259
195.016, 979.545
196.389, 864.232
197.762, 798.687
199.135, 786.896
200.507, 791.043
201.880, 769.690
203.252, 888.741
204.624, 954.074
205.996, 1207.502
207.368, 1579.343
208.740, 2376.353
210.111, 3887.243
211.482, 6237.696
212.853, 11788.168
214.224, 20586.660
215.594, 27845.160
216.965, 34143.680
218.335, 47612.227
219.705, 51990.777
221.075, 38268.152
222.444, 19975.604
223.814, 8706.116
225.183, 4440.660
226.552, 2636.263
227.921, 1870.824
229.290, 1518.456
230.658, 1340.167
232.026, 1274.951
233.394, 1251.367
234.762, 1231.920
236.130, 1232.893
237.498, 1225.529
238.865, 1217.610
240.232, 1288.739
241.599, 1428.916
242.966, 1658.136
244.332, 1948.399
245.699, 2194.701
247.065, 2110.042
248.431, 1837.420
249.797, 1381.834
251.162, 966.286
252.528, 624.773
253.893, 414.291
255.258, 316.846
256.623, 259.429
257.988, 240.039
259.352, 199.681
260.717, 177.349
262.081, 168.044
263.445, 160.765
264.808, 146.510
266.172, 130.276
267.535, 153.064
268.898, 133.872
270.261, 130.701
271.624, 141.552
272.987, 125.424
274.349, 134.317
275.711, 134.234
277.073, 133.169
278.435, 89.128
279.797, 110.105
281.158, 94.102
282.519, 84.118
283.881, 104.157
285.241, 78.215
286.602, 82.288
287.963, 90.376
289.323, 76.480
290.683, 92.599
292.043, 84.734
293.403, 89.881
294.762, 128.040
296.122, 109.210
297.481, 106.389
298.840, 82.578
300.199, 115.777
301.557, 99.986
302.916, 129.204
304.274, 114.432
305.632, 112.669
306.990, 89.916
308.348, 88.173
309.705, 70.440
311.062, 87.716
312.420, 82.003
313.777, 93.299
315.133, 107.605
316.490, 72.921
317.846, 62.247
319.202, 81.586
320.558, 53.935
321.914, 78.293
323.270, 63.661
324.625, 15.039
325.980, 31.430
327.335, 29.832
328.690, 7.242
330.045, 4.339
331.400, 1.913
332.754, 14.479
334.108, 32.040
335.462, 10.599
336.816, 37.153
338.169, 36.707
339.522, 21.260
340.876, 30.811
342.229, 33.361
343.581, 34.910
344.934, 29.460
346.286, 47.009
347.639, 24.561
348.991, 24.112
350.343, 54.662
351.694, 15.217
353.046, 31.770
354.397, 23.323
355.748, 13.875
357.099, 47.426
358.450, 9.986
359.800, 3.447
361.151, 7.133
362.501, 26.279
363.851, 43.680
365.201, 64.068
366.550, 67.450
367.900, 73.821
369.249, 90.185
370.598, 77.540
371.947, 89.897
373.296, 95.258
374.644, 99.626
375.993, 99.000
377.341, 164.380
378.689, 156.766
380.036, 157.159
381.384, 180.558
382.731, 133.963
384.079, 168.382
385.426, 160.813
386.772, 163.260
388.119, 207.717
389.465, 143.186
390.812, 159.667
392.158, 189.159
393.504, 173.660
394.849, 200.172
396.195, 182.694
397.540, 237.228
398.885, 214.770
400.230, 251.322
401.575, 274.882
402.920, 283.450
404.264, 327.026
405.608, 382.609
406.952, 445.259
408.296, 500.856
409.640, 544.768
410.983, 585.501
412.327, 621.200
413.670, 649.502
415.013, 671.133
416.356, 772.406
417.698, 897.056
419.040, 980.713
420.383, 1203.562
421.725, 1306.378
423.066, 1536.704
424.408, 1735.100
425.750, 1968.813
427.091, 2259.620
428.432, 2480.320
429.773, 2852.047
431.113, 3026.783
432.454, 3279.234
433.794, 3563.199
435.135, 3736.579
436.474, 3963.403
437.814, 3992.553
439.154, 3778.610
440.493, 3266.645
441.833, 2378.003
443.172, 1611.520
444.510, 1123.885
445.849, 828.467
447.188, 637.308
448.526, 557.065
449.864, 584.164
451.202, 571.982
452.540, 709.632
453.877, 794.523
455.215, 1054.306
456.552, 1464.165
457.889, 1970.936
459.226, 2693.710
460.562, 3741.485
461.899, 5283.262
463.235, 7077.040
464.571, 9560.819
465.907, 13590.599
467.243, 17770.383
468.578, 23120.168
469.914, 27909.957
471.249, 34029.750
472.584, 37919.531
473.919, 33989.367
475.253, 25809.162
476.588, 16168.954
477.922, 10018.762
479.256, 6634.339
480.590, 4639.352
481.924, 3428.144
483.257, 2641.971
484.591, 2096.854
485.924, 1701.812
487.257, 1382.803
488.590, 1170.595
489.922, 1045.386
491.255, 879.017
492.587, 800.729
493.919, 680.937
495.251, 673.295
496.583, 597.650
497.914, 567.725
499.245, 478.810
500.577, 464.654
501.908, 434.010
503.238, 401.225
504.569, 362.351
505.899, 316.739
507.230, 301.202
508.560, 269.813
509.889, 251.434
511.219, 239.441
512.549, 244.477
513.878, 263.682
515.207, 241.300
516.536, 186.372
517.865, 214.708
519.193, 205.943
520.522, 233.718
521.850, 222.546
523.178, 168.848
524.506, 192.626
525.834, 179.403
527.161, 146.180
528.489, 168.957
529.816, 143.733
531.143, 152.509
532.469, 128.286
533.796, 117.061
535.122, 106.837
536.449, 122.652
537.775, 139.474
539.101, 123.334
540.426, 116.108
541.752, 129.076
543.077, 116.294
544.402, 117.237
545.727, 134.109
547.052, 143.879
548.376, 129.647
549.701, 134.966
551.025, 119.732
552.349, 100.497
553.673, 82.307
554.997, 96.069
556.320, 80.830
557.644, 76.589
558.967, 68.197
560.290, 59.112
561.612, 40.866
562.935, 36.618
564.257, 21.368
565.580, 7.116
566.902, 22.890
568.224, 1.681
569.545, 2.458
570.867, 12.744
572.188, 5.770
573.509, 32.195
574.830, 21.199
576.151, 25.998
577.472, 28.432
578.792, 13.456
580.112, 5.864
581.432, 4.269
582.752, 5.328
584.072, 12.542
585.392, 7.555
586.711, 21.353
588.030, 13.068
589.349, 12.570
590.668, 5.440
591.986, 3.280
593.305, 4.069
594.623, 10.805
595.941, 0.231
597.259, 14.182
598.577, 2.547
599.894, 2.873
601.212, 5.315
602.529, 18.769
603.846, 6.230
605.163, 10.286
606.479, 19.392
607.796, 1.969
609.112, 12.766
610.428, 6.729
611.744, 8.884
613.060, 16.436
614.376, 10.910
615.691, 22.421
617.006, 29.359
618.321, 34.821
619.636, 44.370
620.951, 29.823
622.265, 61.481
623.579, 42.926
624.894, 45.367
626.208, 52.042
627.521, 23.474
628.835, 70.903
630.148, 27.327
631.462, 15.747
632.775, 43.250
634.088, 43.661
635.400, 19.067
636.713, 4.473
638.025, 6.917
639.337, 33.301
640.649, 16.680
641.961, 13.055
643.273, 10.576
644.584, 7.778
645.895, 38.126
647.206, 23.470
648.517, 66.809
649.828, 20.145
651.139, 38.476
652.449, 65.807
653.759, 49.139
655.069, 44.469
656.379, 26.803
657.689, 54.139
658.998, 60.476
660.307, 53.815
661.617, 43.156
662.926, 44.500
664.234, 40.846
665.543, 37.198
666.851, 35.382
668.160, 25.905
669.468, 30.266
670.775, 26.626
672.083, 26.989
673.391, 32.826
674.698, 42.716
676.005, 38.086
677.312, 38.453
678.619, 26.818
679.926, 31.180
681.232, 28.537
682.538, 51.890
683.844, 57.239
685.150, 58.584
686.456, 62.346
687.762, 54.268
689.067, 52.604
690.372, 39.935
691.677, 30.261
692.982, 22.583
694.287, 21.899
695.591, 18.210
696.896, 31.516
698.200, 10.818
699.504, 1.112
700.808, 12.397
702.111, 9.319
703.415, 40.950
704.718, 37.214
706.021, 0.525
707.324, 51.726
708.627, 42.972
709.929, 24.214
711.232, 33.450
712.534, 37.682
713.836, 64.908
715.138, 33.130
716.439, 32.347
717.741, 51.558
719.042, 39.765
720.343, 47.967
721.644, 39.164
722.945, 28.296
724.246, 25.483
725.546, 26.434
726.846, 23.411
728.146, 7.501
729.446, 6.957
730.746, 6.855
732.045, 1.343
733.345, 5.175
734.644, 0.084
735.943, 4.153
737.242, 7.809
738.541, 2.771
739.839, 5.376
741.137, 0.299
742.436, 9.666
743.733, 11.738
745.031, 18.782
746.329, 13.815
747.626, 14.134
748.924, 22.935
750.221, 5.678
751.518, 2.739
752.814, 39.870
754.111, 5.572
755.407, 24.292
756.703, 26.688
757.999, 28.925
759.295, 22.312
760.591, 25.480
761.886, 7.613
763.182, 10.375
764.477, 2.983
765.772, 21.937
767.067, 3.023
768.361, 8.865
769.656, 23.814
770.950, 13.684
772.244, 6.361
773.538, 28.596
774.832, 6.548
776.125, 28.497
777.419, 1.558
778.712, 26.381
780.005, 37.317
781.298, 18.750
782.591, 33.168
783.883, 39.083
785.176, 52.994
786.468, 61.584
787.760, 6.763
789.052, 49.663
790.343, 28.560
791.635, 10.439
792.926, 45.542
794.217, 37.210
795.508, 50.093
796.799, 58.937
798.089, 39.723
799.380, 62.432
800.670, 52.103
801.960, 70.970
803.250, 56.834
804.540, 85.698
805.829, 97.549
807.119, 97.407
808.408, 145.271
809.697, 146.133
810.986, 126.981
812.274, 218.828
813.563, 209.670
814.851, 252.509
816.139, 290.344
817.427, 291.177
818.715, 290.007
820.003, 282.833
821.290, 294.656
822.578, 292.477
823.865, 280.293
825.152, 281.107
826.439, 262.917
827.725, 236.940
829.012, 228.744
830.298, 229.566
831.584, 214.363
832.870, 220.385
834.155, 200.210
835.441, 190.055
836.726, 188.890
838.012, 218.775
839.297, 239.909
840.582, 225.350
841.866, 248.512
843.151, 240.370
844.435, 258.135
845.719, 252.896
847.003, 255.654
848.287, 277.370
849.571, 275.332
850.854, 314.994
852.137, 282.740
853.421, 299.288
854.704, 331.616
855.986, 325.243
857.269, 361.875
858.551, 382.606
859.834, 397.786
861.116, 429.960
862.398, 425.758
863.679, 460.606
864.961, 474.279
866.242, 488.032
867.524, 500.746
868.805, 519.509
870.086, 447.219
871.366, 473.918
872.647, 477.765
873.927, 479.465
875.207, 501.163
876.487, 508.862
877.767, 489.531
879.047, 423.267
880.326, 444.922
881.606, 405.611
882.885, 323.096
884.164, 322.539
885.443, 250.339
886.721, 190.598
888.000, 188.580
889.278, 146.852
890.556, 160.944
891.834, 150.444
893.112, 75.862
894.390, 136.343
895.667, 78.675
896.944, 121.304
898.221, 116.870
899.498, 88.499
900.775, 130.085
902.052, 91.680
903.328, 119.346
904.604, 128.383
905.880, 66.636
907.156, 107.331
908.432, 73.873
909.707, 113.558
910.983, 111.256
912.258, 52.979
913.533, 99.675
914.808, 91.384
916.083, 72.497
917.357, 58.134
918.632, 27.544
919.906, 70.240
921.180, 79.819
922.454, 70.454
923.727, 117.160
925.001, 111.823
926.274, 130.068
927.547, 140.769
928.820, 139.644
930.093, 158.447
931.366, 145.661
932.638, 175.355
933.910, 186.072
935.183, 172.526
936.454, 167.216
937.726, 145.905
938.998, 125.603
940.269, 170.289
941.541, 115.885
942.812, 111.603
944.083, 139.313
945.353, 85.935
946.624, 108.616
947.894, 77.298
949.165, 76.977
950.435, 97.755
951.705, 49.433
952.974, 53.206
954.244, 33.886
955.513, 52.566
956.783, 33.830
958.052, 27.506
959.321, 42.181
960.589, 13.952
961.858, 13.625
963.126, 32.310
964.394, 16.004
965.662, 42.679
966.930, 47.346
968.198, 22.011
969.466, 38.777
970.733, 43.440
972.000, 45.101
973.267, 44.966
974.534, 40.346
975.801, 35.145
977.067, 19.901
978.333, 18.556
979.600, 4.791
980.866, 18.887
982.131, 11.567
983.397, 28.319
984.663, 5.035
985.928, 8.608
987.193, 2.868
988.458, 4.952
989.723, 1.352
990.988, 7.709
992.252, 13.071
993.516, 8.346
994.780, 0.719
996.044, 57.930
997.308, 26.553
998.572, 19.176
999.835, 24.797
1001.099, 5.544
1002.362, 42.146
1003.625, 21.858
1004.887, 19.478
1006.150, 9.100
1007.413, 19.193
1008.675, 32.420
1009.937, 22.077
1011.199, 9.294
1012.461, 43.325
1013.722, 0.659
1014.984, 1.723
1016.245, 35.896
1017.506, 9.515
1018.767, 55.132
1020.028, 5.898
1021.288, 17.612
1022.549, 54.230
1023.809, 2.153
1025.069, 50.460
1026.329, 19.109
1027.589, 30.764
1028.848, 69.378
1030.108, 0.015
1031.367, 22.641
1032.626, 5.264
1033.885, 9.978
1035.144, 27.585
1036.402, 19.224
1037.661, 4.936
1038.919, 13.083
1040.177, 38.502
1041.435, 11.147
1042.693, 33.760
1043.950, 32.547
1045.208, 45.161
1046.465, 26.775
1047.722, 0.504
1048.979, 43.151
1050.235, 25.762
1051.492, 63.372
1052.748, 24.980
1054.005, 19.650
1055.261, 42.261
1056.517, 22.875
1057.772, 34.410
1059.028, 53.107
1060.283, 34.771
1061.538, 33.380
1062.793, 16.987
1064.048, 28.701
1065.303, 51.305
1066.558, 50.906
1067.812, 46.632
1069.066, 38.233
1070.320, 53.019
1071.574, 67.618
1072.828, 26.222
1074.081, 25.858
1075.335, 57.451
1076.588, 31.958
1077.841, 70.710
1079.094, 49.282
1080.347, 0.862
1081.599, 67.429
1082.852, 47.994
1084.104, 18.663
1085.356, 48.224
1086.608, 28.788
1087.859, 45.351
1089.111, 21.911
1090.362, 49.526
1091.614, 72.086
1092.865, 16.644
1094.115, 18.201
1095.366, 45.755
1096.617, 37.307
1097.867, 51.882
1099.117, 46.430
1100.367, 2.000
1101.617, 54.600
1102.867, 4.140
1104.116, 43.680
1105.366, 52.219
1106.615, 8.249
1107.864, 72.342
1109.113, 35.865
1110.362, 3.385
1111.610, 53.004
1112.859, 23.527
1114.107, 21.110
1115.355, 25.618
1116.603, 36.196
1117.850, 77.700
1119.098, 3.203
1120.345, 42.702
1121.593, 49.306
1122.840, 11.800
1124.087, 30.391
1125.333, 35.938
1126.580, 4.425
1127.826, 69.970
1129.072, 42.450
1130.319, 21.713
1131.564, 21.268
1132.810, 3.752
1134.056, 44.220
1135.301, 63.561
1136.546, 35.990
1137.791, 17.229
1139.036, 18.644
1140.281, 38.002
1141.526, 49.312
1142.770, 8.102
1144.014, 53.163
1145.258, 24.597
1146.502, 40.044
1147.746, 78.596
1148.990, 38.057
1150.233, 21.495
1151.476, 16.123
1152.719, 10.554
1153.962, 57.047
1155.205, 51.724
1156.448, 12.111
1157.690, 68.572
1158.932, 22.033
1160.174, 28.444
1161.416, 77.552
1162.658, 8.043
1163.900, 66.362
1165.141, 35.579
1166.382, 57.969
1167.624, 45.505
1168.864, 2.888
1170.105, 11.214
1171.346, 71.722
1172.586, 36.093
1173.827, 66.389
1175.067, 29.859
1176.307, 11.765
1177.546, 79.591
1178.786, 32.037
1180.026, 34.289
1181.265, 34.626
1182.504, 12.965
1183.743, 50.254
1184.982, 30.585
1186.220, 13.905
1187.459, 58.160
1188.697, 0.359
1189.935, 30.950
1191.173, 49.321
1192.411, 4.175
1193.649, 63.471
1194.886, 53.805
1196.124, 12.094
1197.361, 31.291
1198.598, 40.571
1199.835, 42.847
1201.071, 55.120
1202.308, 27.973
1203.544, 47.229
1204.780, 44.570
1206.016, 39.826
1207.252, 55.079
1208.488, 29.510
1209.723, 69.754
1210.959, 95.994
1212.194, 16.373
1213.429, 59.604
1214.664, 45.832
1215.899, 13.055
1217.133, 59.274
1218.368, 5.574
1219.602, 49.783
1220.836, 40.987
1222.070, 33.224
1223.304, 98.421
1224.537, 55.613
1225.770, 18.793
1227.004, 60.977
1228.237, 39.170
1229.470, 61.249
1230.703, 56.421
1231.935, 16.590
1233.168, 50.732
1234.400, 55.892
1235.632, 44.179
1236.864, 61.332
1238.096, 28.470
1239.327, 50.694
1240.559, 43.835
1241.790, 57.099
1243.021, 81.309
1244.252, 67.438
1245.483, 37.564
1246.714, 68.686
1247.944, 37.803
1249.174, 29.817
1250.404, 46.928
1251.634, 42.944
1252.864, 43.231
1254.094, 81.333
1255.323, 27.845
1256.553, 52.940
1257.782, 46.032
1259.011, 17.134
1260.240, 39.299
1261.469, 27.287
1262.697, 58.459
1263.925, 27.528
1265.154, 44.600
1266.382, 73.669
1267.610, 57.624
1268.837, 18.725
1270.065, 122.774
1271.292, 20.753
1272.519, 30.941
1273.747, 61.973
1274.973, 29.901
1276.200, 84.961
1277.427, 48.980
1278.653, 25.957
1279.879, 36.980
1281.106, 54.868
1282.332, 20.857
1283.557, 96.836
1284.783, 22.188
1286.008, 91.556
1287.234, 47.460
1288.459, 7.411
1289.684, 100.360
1290.909, 62.215
1292.133, 29.160
1293.358, 73.085
1294.582, 21.019
1295.806, 42.000
1297.030, 56.926
1298.254, 15.190
1299.478, 75.648
1300.701, 31.457
1301.925, 5.352
1303.148, 48.242
1304.371, 22.042
1305.594, 35.928
1306.816, 56.769
1308.039, 26.368
1309.261, 51.499
1310.484, 26.647
1311.706, 7.493
1312.928, 64.372
1314.149, 9.221
1315.371, 55.065
1316.592, 77.777
1317.814, 10.496
1319.035, 47.321
1320.256, 29.169
1321.477, 10.021
1322.697, 42.749
1323.918, 43.505
1325.138, 21.297
1326.358, 114.061
1327.578, 72.829
1328.798, 29.593
1330.018, 78.374
1331.237, 44.144
1332.456, 56.877
1333.676, 86.534
1334.895, 7.290
1336.113, 70.695
1337.332, 19.409
1338.551, 1.849
1339.769, 79.716
1340.987, 34.427
1342.205, 80.135
1343.423, 72.770
1344.641, 58.434
1345.859, 92.129
1347.076, 49.820
1348.293, 18.493
1349.510, 133.127
1350.727, 24.800
1351.944, 52.469
1353.161, 112.126
1354.377, 7.787
1355.593, 50.391
1356.810, 77.043
1358.026, 9.691
1359.241, 70.227
1360.457, 62.906
1361.673, 43.542
1362.888, 68.050
1364.103, 22.706
1365.318, 62.144
1366.533, 107.764
1367.748, 34.444
1368.962, 79.017
1370.177, 77.629
1371.391, 41.239
1372.605, 103.760
1373.819, 39.375
1375.033, 55.978
1376.246, 90.590
1377.460, 54.520
1378.673, 46.024
1379.886, 85.633
1381.099, 13.290
1382.312, 84.895
1383.524, 57.501
1384.737, 10.948
1385.949, 85.631
1387.161, 9.209
1388.373, 16.779
1389.585, 90.343
1390.797, 51.166
1392.008, 50.702
1393.220, 87.003
1394.431, 53.789
1395.642, 116.651
1396.853, 90.508
1398.064, 7.302
1399.274, 159.042
1400.485, 52.799
1401.695, 55.571
1402.905, 116.412
1404.115, 16.134
1405.325, 82.858
1406.534, 89.622
1407.744, 15.376
1408.953, 107.106
1410.162, 76.884
1411.371, 53.580
1412.580, 128.257
1413.789, 29.780
1414.997, 72.541
1416.206, 114.211
1417.414, 10.809
1418.622, 64.796
1419.830, 96.444
1421.038, 30.855
1422.245, 114.384
1423.453, 68.375
1424.660, 24.954
1425.867, 109.409
1427.074, 53.830
1428.281, 104.990
1429.487, 73.535
1430.694, 26.342
1431.900, 72.137
1433.106, 87.760
1434.312, 49.286
1435.518, 92.894
1436.724, 91.225
1437.929, 31.680
1439.134, 118.476
1440.340, 21.005
1441.545, 67.596
1442.750, 113.184
1443.954, 47.325
1445.159, 98.751
1446.363, 85.008
1447.568, 34.548
1448.772, 119.816
1449.976, 71.346
1451.179, 72.732
1452.383, 139.259
1453.587, 67.721
1454.790, 50.229
1455.993, 75.723
1457.196, 27.236
1458.399, 77.741
1459.601, 122.003
1460.804, 24.497
1462.006, 119.923
1463.209, 99.854
1464.411, 19.291
1465.613, 126.723
1466.814, 63.145
1468.016, 35.174
1469.217, 173.562
1470.419, 56.935
1471.620, 67.051
1472.821, 112.124
1474.021, 2.441
1475.222, 141.762
1476.423, 144.978
1477.623, 27.937
1478.823, 115.262
1480.023, 61.486
1481.223, 39.713
1482.423, 134.088
1483.622, 71.487
1484.822, 119.853
1486.021, 140.153
1487.220, 9.441
1488.419, 75.707
1489.618, 96.839
1490.816, 38.135
1492.015, 123.456
1493.213, 63.771
1494.411, 27.078
1495.609, 117.374
1496.807, 49.656
1498.005, 82.881
1499.202, 138.053
1500.400, 81.369
1501.597, 81.539
1502.794, 108.845
1503.991, 10.150
1505.187, 127.463
1506.384, 57.248
1507.580, 12.550
1508.777, 124.857
1509.973, 85.165
1511.169, 2.580
1512.365, 157.848
1513.560, 40.405
1514.756, 88.988
1515.951, 150.597
1517.146, 73.236
1518.341, 75.921
1519.536, 104.658
1520.731, 4.891
1521.926, 74.963
1523.120, 79.628
1524.314, 11.861
1525.508, 119.921
1526.702, 56.064
1527.896, 57.303
1529.090, 117.791
1530.283, 41.268
1531.476, 81.245
1532.670, 116.600
1533.863, 0.216
1535.055, 129.538
1536.248, 0.000
##END=



