##NAMES=Sulphur
##RRUFFID=R040135
##IDEAL CHEMISTRY=S
##LOCALITY=Sicily, Italy
##OWNER=RRUFF
##SOURCE=University of Arizona Mineral Museum
##DESCRIPTION=Yellow fragments
##STATUS=The identification of this mineral has been confirmed by X-ray diffraction and chemical analysis
##URL=rruff.info/R040135
##MEASURED CHEMISTRY=S_1.00_
##PIN_ID=L00267
##ORIENTATION=Laser parallel to -a* (-1 0 0). Fiducial mark perpendicular to laser is parallel to b [0 1 0]
55.323, 0.000
56.716, 10.204
58.108, 5.424
59.501, 16.716
60.893, 20.724
62.285, 9.610
63.677, 24.396
65.069, 18.265
66.460, 4.130
67.851, 5.849
69.242, 3.697
70.633, 2.398
72.024, 14.946
73.414, 5.203
74.805, 6.796
76.195, 20.795
77.585, 53.161
78.974, 94.861
80.364, 225.861
81.753, 453.133
83.142, 837.651
84.531, 1248.396
85.920, 1500.345
87.308, 1568.484
88.697, 1708.798
90.085, 1681.273
91.473, 1448.905
92.860, 1152.704
94.248, 906.667
95.635, 716.782
97.022, 593.035
98.409, 538.412
99.796, 462.898
101.183, 438.483
102.569, 409.157
103.955, 416.913
105.341, 419.745
106.727, 414.647
108.113, 403.616
109.498, 418.648
110.883, 382.738
112.268, 432.884
113.653, 426.083
115.038, 410.333
116.422, 441.631
117.806, 407.975
119.190, 400.363
120.574, 380.794
121.958, 388.265
123.341, 370.776
124.725, 393.334
126.108, 374.005
127.491, 391.844
128.873, 418.840
130.256, 412.964
131.638, 432.178
133.020, 461.428
134.402, 498.681
135.784, 510.935
137.165, 584.192
138.547, 704.443
139.928, 823.672
141.309, 1113.882
142.690, 1503.079
144.070, 2369.266
145.450, 3813.445
146.831, 6211.615
148.211, 9451.781
149.590, 14014.947
150.970, 20005.119
152.349, 23925.293
153.729, 23975.465
155.108, 20185.650
156.487, 13695.845
157.865, 7829.044
159.244, 4477.251
160.622, 2775.467
162.000, 1899.692
163.378, 1367.926
164.755, 1091.170
166.133, 885.424
167.510, 732.687
168.887, 599.961
170.264, 508.245
171.641, 435.539
173.017, 383.844
174.394, 384.159
175.770, 341.484
177.146, 335.819
178.522, 397.164
179.897, 418.518
181.272, 506.882
182.648, 553.255
184.023, 571.638
185.397, 562.029
186.772, 542.428
188.146, 457.837
189.521, 452.253
190.895, 456.678
192.269, 518.111
193.642, 571.336
195.016, 671.462
196.389, 623.874
197.762, 570.570
199.135, 494.811
200.507, 448.546
201.880, 443.002
203.252, 456.344
204.624, 514.995
205.996, 619.614
207.368, 734.278
208.740, 1056.434
210.111, 1611.716
211.482, 2591.985
212.853, 4880.261
214.224, 8768.539
215.594, 13338.825
216.965, 20169.113
218.335, 32779.414
219.705, 37759.711
221.075, 26979.266
222.444, 12508.907
223.814, 5173.620
225.183, 2579.391
226.552, 1578.213
227.921, 1169.072
229.290, 979.943
230.658, 901.867
232.026, 912.837
233.394, 886.850
234.762, 938.775
236.130, 932.864
237.498, 859.523
238.865, 880.677
240.232, 1019.861
241.599, 1292.072
242.966, 1639.309
244.332, 2318.570
245.699, 2890.853
247.065, 2913.158
248.431, 2615.482
249.797, 2123.825
251.162, 1497.187
252.528, 889.567
253.893, 515.963
255.258, 325.375
256.623, 234.802
257.988, 192.244
259.352, 144.700
260.717, 139.170
262.081, 132.652
263.445, 113.146
264.808, 102.653
266.172, 99.170
267.535, 93.698
268.898, 79.236
270.261, 89.784
271.624, 75.341
272.987, 74.909
274.349, 83.485
275.711, 82.070
277.073, 78.665
278.435, 72.269
279.797, 79.883
281.158, 75.507
282.519, 71.139
283.881, 59.779
285.241, 59.427
286.602, 71.082
287.963, 67.744
289.323, 79.412
290.683, 74.086
292.043, 86.765
293.403, 87.447
294.762, 90.131
296.122, 99.818
297.481, 97.506
298.840, 103.196
300.199, 79.888
301.557, 88.582
302.916, 78.278
304.274, 81.975
305.632, 58.675
306.990, 62.376
308.348, 55.080
309.705, 49.785
311.062, 49.316
312.420, 30.203
313.777, 45.914
315.133, 53.628
316.490, 56.344
317.846, 46.062
319.202, 55.781
320.558, 37.503
321.914, 26.227
323.270, 36.953
324.625, 24.681
325.980, 19.410
327.335, 8.142
328.690, 1.874
330.045, 9.392
331.400, 15.660
332.754, 5.931
334.108, 24.203
335.462, 16.480
336.816, 21.762
338.169, 23.048
339.522, 29.340
340.876, 23.639
342.229, 22.944
343.581, 22.643
344.934, 19.572
346.286, 21.894
347.639, 17.223
348.991, 22.555
350.343, 17.895
351.694, 11.239
353.046, 14.587
354.397, 13.940
355.748, 1.297
357.099, 11.660
358.450, 2.035
359.800, 2.425
361.151, 11.168
362.501, 8.744
363.851, 20.306
365.201, 28.854
366.550, 33.390
367.900, 46.915
369.249, 42.431
370.598, 41.940
371.947, 62.447
373.296, 55.954
374.644, 57.462
375.993, 53.970
377.341, 70.480
378.689, 64.991
380.036, 74.502
381.384, 92.015
382.731, 83.528
384.079, 96.046
385.426, 96.568
386.772, 94.093
388.119, 101.622
389.465, 99.155
390.812, 100.690
392.158, 96.228
393.504, 108.769
394.849, 107.312
396.195, 95.857
397.540, 106.405
398.885, 102.654
400.230, 111.509
401.575, 111.064
402.920, 125.620
404.264, 140.178
405.608, 130.736
406.952, 153.296
408.296, 158.856
409.640, 187.423
410.983, 193.985
412.327, 207.564
413.670, 248.529
415.013, 273.093
416.356, 339.657
417.698, 416.221
419.040, 442.271
420.383, 536.857
421.725, 619.913
423.066, 693.484
424.408, 793.292
425.750, 853.378
427.091, 995.083
428.432, 1093.808
429.773, 1230.465
431.113, 1316.389
432.454, 1453.156
433.794, 1638.023
435.135, 1760.991
436.474, 2037.701
437.814, 2139.745
439.154, 2196.955
440.493, 1978.203
441.833, 1456.428
443.172, 996.501
444.510, 632.531
445.849, 459.485
447.188, 366.285
448.526, 330.190
449.864, 330.010
451.202, 330.874
452.540, 398.495
453.877, 414.108
455.215, 535.658
456.552, 658.230
457.889, 867.775
459.226, 1207.326
460.562, 1610.867
461.899, 2231.407
463.235, 2931.944
464.571, 3940.480
465.907, 5508.014
467.243, 7691.544
468.578, 11255.076
469.914, 15675.600
471.249, 21986.125
472.584, 26836.650
473.919, 25677.168
475.253, 19377.689
476.588, 11618.204
477.922, 7287.718
479.256, 4661.229
480.590, 3255.792
481.924, 2430.349
483.257, 1868.867
484.591, 1500.413
485.924, 1204.912
487.257, 1017.460
488.590, 873.954
489.922, 751.411
491.255, 644.276
492.587, 589.787
493.919, 513.815
495.251, 446.798
496.583, 424.219
497.914, 391.317
499.245, 369.325
500.577, 346.957
501.908, 298.903
503.238, 297.876
504.569, 269.854
505.899, 261.999
507.230, 255.996
508.560, 230.253
509.889, 226.187
511.219, 218.381
512.549, 204.954
513.878, 218.319
515.207, 198.711
516.536, 204.809
517.865, 187.312
519.193, 183.353
520.522, 191.364
521.850, 185.804
523.178, 174.225
524.506, 174.662
525.834, 152.098
527.161, 139.533
528.489, 134.966
529.816, 122.398
531.143, 109.828
532.469, 116.263
533.796, 108.691
535.122, 109.125
536.449, 107.551
537.775, 111.975
539.101, 95.431
540.426, 102.853
541.752, 96.273
543.077, 97.720
544.402, 109.149
545.727, 103.567
547.052, 103.987
548.376, 108.405
549.701, 105.816
551.025, 104.925
552.349, 100.980
553.673, 98.040
554.997, 89.444
556.320, 82.847
557.644, 77.248
558.967, 55.647
560.290, 40.045
561.612, 33.441
562.935, 30.835
564.257, 23.234
565.580, 20.639
566.902, 19.064
568.224, 8.493
569.545, 11.911
570.867, 7.342
572.188, 3.261
573.509, 10.197
574.830, 17.637
576.151, 13.014
577.472, 4.540
578.792, 6.937
580.112, 4.614
581.432, 8.978
582.752, 0.585
584.072, 4.881
585.392, 1.543
586.711, 0.925
588.030, 3.302
589.349, 2.325
590.668, 0.243
591.986, 1.385
593.305, 2.991
594.623, 1.359
595.941, 4.273
597.259, 6.943
598.577, 7.547
599.894, 7.226
601.212, 4.752
602.529, 4.061
603.846, 2.723
605.163, 0.171
606.479, 1.909
607.796, 0.618
609.112, 1.370
610.428, 4.918
611.744, 5.152
613.060, 10.387
614.376, 7.695
615.691, 12.225
617.006, 9.565
618.321, 13.808
619.636, 15.939
620.951, 17.329
622.265, 20.559
623.579, 18.777
624.894, 17.930
626.208, 23.204
627.521, 16.410
628.835, 18.659
630.148, 12.937
631.462, 22.137
632.775, 12.334
634.088, 14.530
635.400, 12.723
636.713, 10.915
638.025, 5.104
639.337, 5.291
640.649, 8.475
641.961, 5.656
643.273, 12.835
644.584, 5.013
645.895, 18.187
647.206, 13.360
648.517, 18.530
649.828, 10.702
651.139, 14.877
652.449, 21.051
653.759, 16.231
655.069, 10.413
656.379, 18.599
657.689, 8.790
658.998, 20.987
660.307, 18.189
661.617, 14.396
662.926, 11.607
664.234, 12.823
665.543, 13.042
666.851, 13.266
668.160, 13.494
669.468, 16.726
670.775, 17.960
672.083, 17.198
673.391, 19.438
674.698, 17.678
676.005, 18.920
677.312, 18.163
678.619, 25.406
679.926, 17.647
681.232, 29.887
682.538, 19.125
683.844, 28.360
685.150, 28.594
686.456, 15.826
687.762, 34.056
689.067, 10.284
690.372, 12.510
691.677, 9.734
692.982, 12.956
694.287, 12.177
695.591, 6.395
696.896, 11.611
698.200, 13.826
699.504, 7.040
700.808, 9.251
702.111, 11.460
703.415, 10.667
704.718, 10.873
706.021, 16.076
707.324, 18.277
708.627, 22.477
709.929, 25.151
711.232, 25.431
712.534, 27.064
713.836, 26.257
715.138, 20.447
716.439, 22.635
717.741, 21.822
719.042, 14.007
720.343, 11.190
721.644, 9.245
722.945, 6.500
724.246, 5.727
725.546, 6.897
726.846, 5.069
728.146, 9.224
729.446, 1.990
730.746, 3.156
732.045, 11.320
733.345, 2.482
734.644, 0.156
735.943, 1.292
737.242, 2.044
738.541, 1.101
739.839, 3.992
741.137, 0.632
742.436, 3.636
743.733, 3.616
745.031, 3.663
746.329, 2.559
747.626, 2.372
748.924, 0.199
750.221, 2.924
751.518, 0.905
752.814, 3.547
754.111, 0.978
755.407, 1.456
756.703, 3.091
757.999, 2.488
759.295, 5.846
760.591, 5.132
761.886, 3.732
763.182, 0.512
764.477, 4.100
765.772, 0.884
767.067, 5.147
768.361, 4.182
769.656, 1.722
770.950, 5.651
772.244, 2.558
773.538, 0.525
774.832, 1.385
776.125, 0.704
777.419, 1.536
778.712, 3.878
780.005, 3.963
781.298, 4.048
782.591, 6.132
783.883, 0.784
785.176, 1.702
786.468, 6.379
787.760, 13.460
789.052, 10.539
790.343, 10.618
791.635, 14.696
792.926, 14.775
794.217, 17.325
795.508, 20.820
796.799, 20.881
798.089, 25.911
799.380, 25.984
800.670, 28.006
801.960, 32.078
803.250, 36.354
804.540, 43.220
805.829, 49.290
807.119, 60.359
808.408, 69.428
809.697, 80.498
810.986, 95.565
812.274, 108.632
813.563, 113.690
814.851, 147.754
816.139, 149.818
817.427, 167.881
818.715, 169.943
820.003, 172.003
821.290, 198.063
822.578, 206.122
823.865, 173.180
825.152, 176.237
826.439, 156.303
827.725, 146.358
829.012, 134.412
830.298, 121.465
831.584, 127.517
832.870, 124.573
834.155, 108.696
835.441, 123.745
836.726, 116.798
838.012, 127.845
839.297, 130.892
840.582, 133.937
841.866, 150.981
843.151, 149.025
844.435, 137.062
845.719, 159.103
847.003, 153.137
848.287, 159.178
849.571, 171.227
850.854, 177.320
852.137, 164.390
853.421, 183.541
854.704, 186.551
855.986, 196.581
857.269, 205.615
858.551, 228.642
859.834, 249.669
861.116, 244.701
862.398, 280.731
863.679, 283.763
864.961, 288.792
866.242, 309.820
867.524, 300.847
868.805, 298.879
870.086, 311.907
871.366, 315.002
872.647, 330.027
873.927, 326.057
875.207, 327.078
876.487, 303.090
877.767, 313.076
879.047, 314.054
880.326, 284.040
881.606, 250.012
882.885, 223.034
884.164, 192.974
885.443, 172.925
886.721, 148.937
888.000, 123.879
889.278, 103.783
890.556, 95.713
891.834, 84.509
893.112, 78.612
894.390, 73.276
895.667, 67.214
896.944, 82.192
898.221, 76.170
899.498, 68.149
900.775, 84.030
902.052, 73.003
903.328, 71.948
904.604, 82.033
905.880, 69.997
907.156, 69.995
908.432, 64.921
909.707, 49.915
910.983, 55.751
912.258, 42.732
913.533, 42.425
914.808, 41.170
916.083, 39.201
917.357, 30.197
918.632, 43.234
919.906, 33.227
921.180, 42.270
922.454, 40.310
923.727, 39.274
925.001, 41.014
926.274, 53.941
927.547, 60.964
928.820, 70.941
930.093, 79.965
931.366, 75.992
932.638, 86.032
933.910, 94.070
935.183, 87.358
936.454, 91.399
937.726, 93.395
938.998, 90.940
940.269, 88.466
941.541, 88.515
942.812, 88.554
944.083, 83.608
945.353, 62.647
946.624, 48.688
947.894, 40.995
949.165, 32.766
950.435, 25.916
951.705, 24.954
952.974, 22.993
954.244, 16.031
955.513, 12.069
956.783, 22.106
958.052, 15.144
959.321, 14.181
960.589, 9.264
961.858, 0.300
963.126, 10.338
964.394, 7.374
965.662, 4.410
966.930, 1.446
968.198, 5.481
969.466, 4.518
970.733, 4.553
972.000, 8.593
973.267, 7.634
974.534, 5.678
975.801, 6.712
977.067, 4.745
978.333, 0.219
979.600, 11.852
980.866, 14.884
982.131, 4.917
983.397, 1.949
984.663, 0.008
985.928, 1.914
987.193, 4.153
988.458, 0.282
989.723, 1.319
990.988, 3.353
992.252, 2.384
993.516, 2.414
994.780, 3.486
996.044, 3.424
997.308, 5.537
998.572, 2.905
999.835, 4.964
1001.099, 0.006
1002.362, 1.977
1003.625, 0.702
1004.887, 2.478
1006.150, 1.108
1007.413, 0.135
1008.675, 1.162
1009.937, 6.189
1011.199, 5.215
1012.461, 9.242
1013.722, 4.268
1014.984, 1.294
1016.245, 2.320
1017.506, 2.357
1018.767, 4.383
1020.028, 0.409
1021.288, 1.529
1022.549, 1.445
1023.809, 1.582
1025.069, 0.272
1026.329, 0.911
1027.589, 0.658
1028.848, 1.682
1030.108, 3.706
1031.367, 2.733
1032.626, 1.758
1033.885, 0.207
1035.144, 1.212
1036.402, 3.845
1037.661, 3.870
1038.919, 2.894
1040.177, 3.918
1041.435, 1.943
1042.693, 0.031
1043.950, 3.001
1045.208, 12.032
1046.465, 2.062
1047.722, 6.088
1048.979, 7.115
1050.235, 4.142
1051.492, 1.832
1052.748, 4.196
1054.005, 5.224
1055.261, 1.748
1056.517, 2.279
1057.772, 5.306
1059.028, 8.333
1060.283, 2.360
1061.538, 2.388
1062.793, 1.584
1064.048, 1.444
1065.303, 12.473
1066.558, 9.561
1067.812, 5.591
1069.066, 7.621
1070.320, 2.651
1071.574, 8.680
1072.828, 6.710
1074.081, 5.739
1075.335, 5.769
1076.588, 2.989
1077.841, 3.887
1079.094, 8.050
1080.347, 3.081
1081.599, 5.117
1082.852, 2.147
1084.104, 7.177
1085.356, 3.793
1086.608, 7.235
1087.859, 8.262
1089.111, 0.711
1090.362, 2.316
1091.614, 0.655
1092.865, 7.371
1094.115, 0.400
1095.366, 4.511
1096.617, 2.537
1097.867, 9.562
1099.117, 3.587
1100.367, 1.388
1101.617, 5.635
1102.867, 4.659
1104.116, 8.682
1105.366, 8.704
1106.615, 7.727
1107.864, 14.753
1109.113, 5.776
1110.362, 0.202
1111.610, 7.819
1112.859, 2.837
1114.107, 4.857
1115.355, 4.877
1116.603, 3.897
1117.850, 8.917
1119.098, 2.936
1120.345, 5.955
1121.593, 1.974
1122.840, 1.992
1124.087, 1.011
1125.333, 4.029
1126.580, 6.047
1127.826, 3.065
1129.072, 0.073
1130.319, 9.091
1131.564, 4.108
1132.810, 10.124
1134.056, 1.141
1135.301, 0.849
1136.546, 3.094
1137.791, 0.892
1139.036, 2.318
1140.281, 3.332
1141.526, 4.346
1142.770, 5.096
1144.014, 8.398
1145.258, 3.418
1146.502, 0.438
1147.746, 4.550
1148.990, 0.459
1150.233, 6.468
1151.476, 10.467
1152.719, 4.388
1153.962, 7.363
1155.205, 4.256
1156.448, 4.261
1157.690, 7.261
1158.932, 5.265
1160.174, 9.272
1161.416, 6.278
1162.658, 4.283
1163.900, 11.295
1165.141, 8.298
1166.382, 1.303
1167.624, 11.308
1168.864, 5.312
1170.105, 0.689
1171.346, 8.312
1172.586, 3.245
1173.827, 4.257
1175.067, 3.253
1176.307, 4.251
1177.546, 11.247
1178.786, 6.248
1180.026, 3.249
1181.265, 10.250
1182.504, 1.250
1183.743, 9.231
1184.982, 3.228
1186.220, 6.227
1187.459, 5.227
1188.697, 6.226
1189.935, 10.226
1191.173, 11.224
1192.411, 3.208
1193.649, 2.037
1194.886, 3.041
1196.124, 6.038
1197.361, 7.035
1198.598, 6.693
1199.835, 4.031
1201.071, 6.123
1202.308, 7.119
1203.544, 9.115
1204.780, 8.551
1206.016, 5.012
1207.252, 8.018
1208.488, 5.013
1209.723, 6.007
1210.959, 9.001
1212.194, 9.906
1213.429, 8.896
1214.664, 0.111
1215.899, 8.882
1217.133, 7.874
1218.368, 6.866
1219.602, 11.857
1220.836, 7.848
1222.070, 5.840
1223.304, 5.830
1224.537, 2.179
1225.770, 7.809
1227.004, 7.797
1228.237, 6.784
1229.470, 2.772
1230.703, 4.957
1231.935, 6.756
1233.168, 6.742
1234.400, 9.478
1235.632, 9.492
1236.864, 8.477
1238.096, 5.404
1239.327, 5.386
1240.559, 3.361
1241.790, 3.452
1243.021, 0.578
1244.252, 10.405
1245.483, 10.385
1246.714, 13.367
1247.944, 4.348
1249.174, 5.218
1250.404, 7.199
1251.634, 14.180
1252.864, 11.160
1254.094, 7.141
1255.323, 3.121
1256.553, 3.726
1257.782, 5.080
1259.011, 7.014
1260.240, 5.993
1261.469, 10.970
1262.697, 8.948
1263.925, 9.743
1265.154, 7.909
1266.382, 8.887
1267.610, 6.862
1268.837, 5.838
1270.065, 4.823
1271.292, 6.853
1272.519, 6.824
1273.747, 6.899
1274.973, 9.875
1276.200, 7.866
1277.427, 9.813
1278.653, 7.787
1279.879, 5.762
1281.106, 12.738
1282.332, 4.701
1283.557, 15.585
1284.783, 8.564
1286.008, 2.407
1287.234, 5.560
1288.459, 7.530
1289.684, 9.516
1290.909, 0.488
1292.133, 2.474
1293.358, 2.443
1294.582, 5.385
1295.806, 6.019
1297.030, 4.960
1298.254, 5.930
1299.478, 5.899
1300.701, 5.874
1301.925, 8.843
1303.148, 3.812
1304.371, 6.782
1305.594, 9.751
1306.816, 10.720
1308.039, 6.688
1309.261, 7.657
1310.484, 2.625
1311.706, 5.594
1312.928, 9.562
1314.149, 6.518
1315.371, 5.486
1316.592, 10.453
1317.814, 10.341
1319.035, 7.307
1320.256, 1.271
1321.477, 4.242
1322.697, 7.211
1323.918, 9.176
1325.138, 8.921
1326.358, 10.403
1327.578, 10.994
1328.798, 11.034
1330.018, 10.987
1331.237, 11.499
1332.456, 8.913
1333.676, 12.877
1334.895, 12.839
1336.113, 16.801
1337.332, 10.763
1338.551, 9.725
1339.769, 6.682
1340.987, 2.641
1342.205, 11.596
1343.423, 6.556
1344.641, 3.515
1345.859, 13.473
1347.076, 2.568
1348.293, 6.394
1349.510, 11.351
1350.727, 3.309
1351.944, 3.267
1353.161, 1.235
1354.377, 6.192
1355.593, 9.149
1356.810, 8.144
1358.026, 3.100
1359.241, 7.056
1360.457, 10.011
1361.673, 7.909
1362.888, 9.925
1364.103, 5.818
1365.318, 8.773
1366.533, 5.727
1367.748, 3.681
1368.962, 4.635
1370.177, 10.588
1371.391, 10.352
1372.605, 10.305
1373.819, 11.316
1375.033, 7.269
1376.246, 2.214
1377.460, 2.165
1378.673, 9.115
1379.886, 5.080
1381.099, 0.038
1382.312, 9.989
1383.524, 2.940
1384.737, 4.887
1385.949, 8.833
1387.161, 1.222
1388.373, 10.717
1389.585, 13.599
1390.797, 9.538
1392.008, 8.465
1393.220, 8.380
1394.431, 10.349
1395.642, 14.318
1396.853, 5.287
1398.064, 10.250
1399.274, 9.219
1400.485, 6.188
1401.695, 8.156
1402.905, 9.124
1404.115, 8.092
1405.325, 5.060
1406.534, 5.026
1407.744, 5.992
1408.953, 7.957
1410.162, 2.923
1411.371, 5.889
1412.580, 10.624
1413.789, 7.587
1414.997, 0.520
1416.206, 0.536
1417.414, 2.428
1418.622, 1.171
1419.830, 5.359
1421.038, 0.324
1422.245, 1.289
1423.453, 7.254
1424.660, 11.211
1425.867, 3.176
1427.074, 7.140
1428.281, 2.105
1429.487, 2.056
1430.694, 1.979
1431.900, 6.986
1433.106, 10.950
1434.312, 0.915
1435.518, 8.880
1436.724, 0.845
1437.929, 9.809
1439.134, 6.774
1440.340, 5.731
1441.545, 9.693
1442.750, 4.359
1443.954, 7.320
1445.159, 2.272
1446.363, 14.215
1447.568, 4.176
1448.772, 10.130
1449.976, 6.090
1451.179, 4.051
1452.383, 5.012
1453.587, 7.971
1454.790, 7.230
1455.993, 8.897
1457.196, 8.849
1458.399, 9.800
1459.601, 10.710
1460.804, 4.666
1462.006, 0.629
1463.209, 6.383
1464.411, 9.345
1465.613, 2.307
1466.814, 2.270
1468.016, 6.232
1469.217, 10.194
1470.419, 7.156
1471.620, 11.117
1472.821, 5.078
1474.021, 6.030
1475.222, 14.992
1476.423, 10.920
1477.623, 3.727
1478.823, 8.441
1480.023, 10.326
1481.223, 5.279
1482.423, 7.226
1483.622, 11.141
1484.822, 1.669
1486.021, 6.571
1487.220, 7.466
1488.419, 12.401
1489.618, 4.334
1490.816, 12.274
1492.015, 2.194
1493.213, 10.131
1494.411, 4.066
1495.609, 2.999
1496.807, 0.931
1498.005, 5.860
1499.202, 11.789
1500.400, 0.345
1501.597, 13.561
1502.794, 7.463
1503.991, 8.385
1505.187, 6.303
1506.384, 5.218
1507.580, 9.133
1508.777, 5.060
1509.973, 3.985
1511.169, 10.885
1512.365, 10.829
1513.560, 8.775
1514.756, 12.696
1515.951, 4.642
1517.146, 0.492
1518.341, 11.451
1519.536, 7.078
1520.731, 6.008
1521.926, 5.938
1523.120, 0.869
1524.314, 1.800
1525.508, 6.728
1526.702, 4.652
1527.896, 4.809
1529.090, 9.473
1530.283, 1.950
1531.476, 3.410
1532.670, 0.040
1533.863, 2.350
1535.055, 5.718
1536.248, 0.000
##END=



