##NAMES=Sulphur
##RRUFFID=R040135
##IDEAL CHEMISTRY=S
##LOCALITY=Sicily, Italy
##OWNER=RRUFF
##SOURCE=University of Arizona Mineral Museum
##DESCRIPTION=Yellow fragments
##STATUS=The identification of this mineral has been confirmed by X-ray diffraction and chemical analysis
##URL=rruff.info/R040135
##MEASURED CHEMISTRY=S_1.00_
##PIN_ID=L00492
##ORIENTATION=Laser parallel to b* (0 1 0). Fiducial mark perpendicular to laser is parallel to -c [0 0 -1]
55.323, 0.000
56.716, 15.748
58.108, 12.388
59.501, 17.249
60.893, 11.506
62.285, 15.766
63.677, 22.915
65.069, 11.181
66.460, 10.889
67.851, 1.284
69.242, 3.723
70.633, 3.795
72.024, 7.224
73.414, 3.167
74.805, 4.071
76.195, 16.030
77.585, 43.440
78.974, 48.132
80.364, 86.081
81.753, 111.262
83.142, 177.656
84.531, 250.245
85.920, 470.014
87.308, 764.949
88.697, 1246.039
90.085, 1521.272
91.473, 1474.641
92.860, 1205.148
94.248, 924.794
95.635, 729.576
97.022, 590.479
98.409, 524.495
99.796, 498.609
101.183, 467.814
102.569, 468.102
103.955, 461.466
105.341, 455.901
106.727, 472.403
108.113, 481.968
109.498, 492.593
110.883, 484.275
112.268, 489.012
113.653, 489.801
115.038, 527.641
116.422, 506.529
117.806, 513.463
119.190, 497.443
120.574, 502.467
121.958, 496.744
123.341, 505.639
124.725, 490.786
126.108, 469.996
127.491, 471.264
128.873, 447.783
130.256, 448.161
131.638, 424.811
133.020, 421.526
134.402, 437.256
135.784, 419.000
137.165, 427.758
138.547, 450.522
139.928, 473.272
141.309, 559.012
142.690, 758.744
144.070, 1000.473
145.450, 1304.200
146.831, 1818.924
148.211, 2322.577
149.590, 3146.382
150.970, 3689.121
152.349, 4488.868
153.729, 5424.625
155.108, 5726.393
156.487, 4919.170
157.865, 3554.961
159.244, 2276.763
160.622, 1397.579
162.000, 939.408
163.378, 650.251
164.755, 493.108
166.133, 393.980
167.510, 344.865
168.887, 309.765
170.264, 261.680
171.641, 244.609
173.017, 241.554
174.394, 239.513
175.770, 211.486
177.146, 230.474
178.522, 224.477
179.897, 285.493
181.272, 315.524
182.648, 368.569
184.023, 444.627
185.397, 532.699
186.772, 578.785
188.146, 558.884
189.521, 490.996
190.895, 514.122
192.269, 569.261
193.642, 686.413
195.016, 694.435
196.389, 643.053
197.762, 540.570
199.135, 445.497
200.507, 425.151
201.880, 393.108
203.252, 407.134
204.624, 446.178
205.996, 577.929
207.368, 704.319
208.740, 1097.863
210.111, 1720.985
211.482, 2731.120
212.853, 4912.266
214.224, 8458.423
215.594, 12501.592
216.965, 17710.768
218.335, 26479.961
219.705, 28449.160
221.075, 19987.527
222.444, 9595.982
223.814, 3992.493
225.183, 2005.053
226.552, 1186.658
227.921, 844.290
229.290, 662.950
230.658, 555.651
232.026, 517.395
233.394, 503.159
234.762, 513.818
236.130, 523.676
237.498, 603.341
238.865, 723.263
240.232, 975.142
241.599, 1374.122
242.966, 1899.128
244.332, 2723.159
245.699, 3081.215
247.065, 2542.293
248.431, 1597.394
249.797, 839.514
251.162, 503.655
252.528, 292.816
253.893, 194.994
255.258, 149.193
256.623, 125.408
257.988, 80.644
259.352, 61.895
260.717, 88.164
262.081, 75.453
263.445, 61.759
264.808, 53.083
266.172, 60.421
267.535, 57.236
268.898, 70.136
270.261, 70.513
271.624, 89.902
272.987, 104.305
274.349, 92.720
275.711, 88.146
277.073, 74.586
278.435, 81.041
279.797, 70.506
281.158, 60.981
282.519, 31.467
283.881, 38.966
285.241, 36.477
286.602, 45.998
287.963, 33.529
289.323, 27.068
290.683, 50.617
292.043, 47.174
293.403, 73.739
294.762, 55.311
296.122, 74.891
297.481, 75.476
298.840, 66.069
300.199, 74.667
301.557, 73.272
302.916, 78.883
304.274, 76.662
305.632, 69.124
306.990, 64.754
308.348, 61.391
309.705, 59.265
311.062, 50.684
312.420, 61.341
313.777, 54.004
315.133, 60.674
316.490, 56.352
317.846, 56.036
319.202, 61.728
320.558, 45.426
321.914, 46.130
323.270, 39.840
324.625, 41.557
325.980, 44.279
327.335, 21.008
328.690, 20.742
330.045, 12.482
331.400, 15.771
332.754, 0.977
334.108, 8.269
335.462, 10.488
336.816, 5.788
338.169, 5.980
339.522, 2.208
340.876, 10.431
342.229, 21.652
343.581, 38.872
344.934, 24.096
346.286, 7.320
347.639, 31.541
348.991, 0.236
350.343, 11.983
351.694, 21.201
353.046, 31.418
354.397, 48.638
355.748, 24.864
357.099, 15.091
358.450, 21.322
359.800, 2.556
361.151, 7.212
362.501, 16.980
363.851, 13.738
365.201, 40.492
366.550, 29.242
367.900, 48.988
369.249, 36.719
370.598, 36.444
371.947, 28.167
373.296, 35.330
374.644, 55.628
375.993, 60.365
377.341, 67.107
378.689, 93.853
380.036, 90.604
381.384, 103.717
382.731, 111.121
384.079, 117.890
385.426, 129.522
386.772, 121.453
388.119, 148.245
389.465, 150.046
390.812, 155.853
392.158, 177.668
393.504, 190.490
394.849, 228.318
396.195, 231.153
397.540, 283.996
398.885, 308.844
400.230, 351.699
401.575, 390.561
402.920, 498.428
404.264, 611.306
405.608, 730.271
406.952, 925.160
408.296, 1052.054
409.640, 1202.955
410.983, 1234.862
412.327, 1258.776
413.670, 1229.713
415.013, 1184.644
416.356, 1231.925
417.698, 1403.865
419.040, 1526.496
420.383, 1833.444
421.725, 2034.015
423.066, 2394.205
424.408, 2819.634
425.750, 3308.524
427.091, 3887.646
428.432, 4467.622
429.773, 5120.821
431.113, 5643.868
432.454, 6122.857
433.794, 6605.346
435.135, 6887.342
436.474, 7023.519
437.814, 6728.970
439.154, 6129.942
440.493, 4961.958
441.833, 3644.070
443.172, 2556.127
444.510, 1732.714
445.849, 1293.535
447.188, 942.588
448.526, 818.628
449.864, 811.726
451.202, 799.771
452.540, 933.819
453.877, 1154.869
455.215, 1533.922
456.552, 2138.978
457.889, 2963.036
459.226, 4244.096
460.562, 5927.158
461.899, 8560.222
463.235, 11869.290
464.571, 16429.357
465.907, 23619.428
467.243, 29389.502
468.578, 33929.574
469.914, 37309.684
471.249, 43469.762
472.584, 47419.852
473.919, 41749.949
475.253, 30260.215
476.588, 18460.484
477.922, 11250.591
479.256, 7211.828
480.590, 4845.982
481.924, 3566.072
483.257, 2688.187
484.591, 2081.279
485.924, 1694.372
487.257, 1370.466
488.590, 1176.561
489.922, 1045.657
491.255, 926.754
492.587, 883.130
493.919, 797.223
495.251, 769.939
496.583, 692.040
497.914, 675.142
499.245, 591.950
500.577, 537.916
501.908, 469.510
503.238, 439.545
504.569, 387.664
505.899, 365.566
507.230, 361.287
508.560, 361.785
509.889, 338.088
511.219, 311.323
512.549, 300.345
513.878, 305.894
515.207, 288.431
516.536, 287.074
517.865, 276.715
519.193, 273.563
520.522, 257.471
521.850, 240.666
523.178, 238.834
524.506, 220.212
525.834, 210.680
527.161, 197.194
528.489, 190.316
529.816, 188.573
531.143, 185.698
532.469, 159.823
533.796, 142.949
535.122, 148.077
536.449, 137.205
537.775, 134.343
539.101, 117.532
540.426, 110.663
541.752, 123.952
543.077, 133.085
544.402, 138.360
545.727, 118.495
547.052, 148.630
548.376, 126.766
549.701, 134.927
551.025, 137.128
552.349, 118.265
553.673, 99.490
554.997, 93.628
556.320, 56.776
557.644, 49.914
558.967, 42.052
560.290, 15.191
561.612, 36.418
562.935, 18.617
564.257, 0.755
565.580, 18.043
566.902, 13.377
568.224, 13.618
569.545, 6.050
570.867, 9.922
572.188, 4.426
573.509, 9.692
574.830, 3.169
576.151, 25.962
577.472, 8.907
578.792, 15.217
580.112, 7.649
581.432, 17.912
582.752, 4.807
584.072, 12.573
585.392, 0.623
586.711, 18.094
588.030, 0.173
589.349, 3.912
590.668, 10.999
591.986, 4.887
593.305, 11.207
594.623, 0.706
595.941, 3.715
597.259, 12.522
598.577, 12.557
599.894, 4.649
601.212, 7.703
602.529, 4.550
603.846, 8.505
605.163, 9.564
606.479, 16.667
607.796, 6.785
609.112, 20.891
610.428, 22.031
611.744, 24.154
613.060, 54.296
614.376, 45.409
615.691, 57.468
617.006, 57.224
618.321, 60.596
619.636, 53.718
620.951, 46.828
622.265, 55.939
623.579, 31.952
624.894, 21.964
626.208, 24.003
627.521, 9.044
628.835, 10.779
630.148, 19.056
631.462, 10.057
632.775, 2.057
634.088, 2.052
635.400, 10.044
636.713, 3.033
638.025, 7.019
639.337, 17.003
640.649, 9.984
641.961, 28.963
643.273, 15.940
644.584, 17.915
645.895, 28.887
647.206, 35.858
648.517, 36.827
649.828, 46.793
651.139, 33.761
652.449, 55.727
653.759, 70.693
655.069, 63.656
656.379, 57.617
657.689, 66.578
658.998, 49.537
660.307, 50.497
661.617, 54.459
662.926, 39.428
664.234, 50.399
665.543, 31.371
666.851, 29.348
668.160, 26.323
669.468, 19.301
670.775, 7.282
672.083, 30.267
673.391, 22.262
674.698, 31.260
676.005, 21.259
677.312, 39.261
678.619, 7.261
679.926, 9.259
681.232, 22.253
682.538, 34.247
683.844, 29.237
685.150, 22.226
686.456, 5.212
687.762, 31.194
689.067, 44.174
690.372, 20.152
691.677, 30.127
692.982, 20.100
694.287, 15.070
695.591, 10.037
696.896, 25.001
698.200, 4.963
699.504, 18.921
700.808, 5.876
702.111, 21.827
703.415, 17.775
704.718, 28.721
706.021, 13.664
707.324, 10.604
708.627, 25.540
709.929, 9.474
711.232, 22.405
712.534, 16.332
713.836, 33.257
715.138, 26.179
716.439, 39.099
717.741, 10.016
719.042, 11.071
720.343, 21.830
721.644, 6.646
722.945, 4.540
724.246, 9.430
725.546, 1.316
726.846, 5.803
728.146, 0.068
729.446, 12.082
730.746, 18.772
732.045, 23.276
733.345, 21.124
734.644, 34.281
735.943, 17.123
737.242, 4.656
738.541, 31.943
739.839, 5.305
741.137, 6.207
742.436, 2.123
743.733, 6.308
745.031, 16.282
746.329, 15.026
747.626, 11.828
748.924, 13.130
750.221, 3.073
751.518, 4.460
752.814, 3.878
754.111, 13.305
755.407, 13.536
756.703, 34.133
757.999, 8.143
759.295, 15.049
760.591, 9.007
761.886, 5.733
763.182, 4.471
764.477, 5.152
765.772, 2.661
767.067, 3.600
768.361, 2.340
769.656, 4.063
770.950, 8.784
772.244, 8.501
773.538, 7.216
774.832, 2.931
776.125, 3.642
777.419, 3.352
778.712, 14.058
780.005, 18.762
781.298, 9.464
782.591, 9.164
783.883, 35.830
785.176, 13.516
786.468, 23.208
787.760, 28.879
789.052, 19.386
790.343, 20.890
791.635, 26.552
792.926, 27.083
794.217, 30.606
795.508, 26.378
796.799, 37.031
798.089, 35.706
799.380, 40.380
800.670, 36.051
801.960, 42.720
803.250, 20.388
804.540, 43.053
805.829, 39.716
807.119, 26.377
808.408, 63.037
809.697, 49.694
810.986, 64.350
812.274, 62.003
813.563, 63.655
814.851, 83.304
816.139, 83.952
817.427, 68.597
818.715, 91.242
820.003, 79.885
821.290, 93.581
822.578, 88.307
823.865, 113.466
825.152, 96.112
826.439, 92.754
827.725, 81.385
829.012, 90.014
830.298, 83.642
831.584, 87.291
832.870, 72.913
834.155, 99.457
835.441, 90.024
836.726, 57.883
838.012, 82.497
839.297, 60.109
840.582, 93.719
841.866, 80.193
843.151, 85.954
844.435, 105.558
845.719, 112.159
847.003, 84.758
848.287, 119.355
849.571, 90.941
850.854, 93.479
852.137, 111.070
853.421, 105.505
854.704, 129.092
855.986, 129.536
857.269, 154.119
858.551, 112.700
859.834, 137.280
861.116, 148.832
862.398, 155.345
863.679, 173.921
864.961, 182.408
866.242, 172.980
867.524, 155.541
868.805, 177.110
870.086, 166.677
871.366, 165.242
872.647, 171.718
873.927, 160.240
875.207, 175.800
876.487, 165.218
877.767, 173.583
879.047, 162.047
880.326, 139.318
881.606, 137.149
882.885, 106.497
884.164, 115.916
885.443, 124.460
886.721, 91.008
888.000, 90.554
889.278, 98.103
890.556, 73.639
891.834, 85.567
893.112, 55.119
894.390, 79.539
895.667, 49.990
896.944, 50.163
898.221, 84.072
899.498, 92.626
900.775, 74.179
902.052, 74.703
903.328, 74.248
904.604, 82.387
905.880, 76.299
907.156, 77.878
908.432, 70.421
909.707, 44.978
910.983, 44.541
912.258, 24.410
913.533, 48.974
914.808, 24.509
916.083, 35.008
917.357, 52.490
918.632, 54.980
919.906, 43.434
921.180, 65.903
922.454, 56.350
923.727, 71.824
925.001, 83.350
926.274, 85.873
927.547, 127.844
928.820, 127.299
930.093, 157.023
931.366, 156.485
932.638, 158.043
933.910, 158.600
935.183, 160.126
936.454, 136.648
937.726, 118.203
938.998, 106.766
940.269, 109.319
941.541, 84.901
942.812, 58.454
944.083, 116.020
945.353, 62.573
946.624, 72.327
947.894, 69.951
949.165, 47.504
950.435, 38.056
951.705, 45.607
952.974, 22.158
954.244, 19.708
955.513, 24.257
956.783, 32.806
958.052, 19.354
959.321, 22.902
960.589, 34.462
961.858, 23.009
963.126, 26.560
964.394, 21.129
965.662, 25.673
966.930, 28.246
968.198, 10.789
969.466, 16.335
970.733, 8.146
972.000, 5.688
973.267, 1.757
974.534, 2.786
975.801, 10.673
977.067, 2.186
978.333, 2.497
979.600, 13.179
980.866, 12.712
982.131, 18.246
983.397, 0.220
984.663, 11.312
985.928, 24.845
987.193, 18.377
988.458, 6.090
989.723, 12.480
990.988, 14.030
992.252, 4.559
993.516, 15.121
994.780, 4.350
996.044, 26.177
997.308, 16.704
998.572, 10.231
999.835, 28.758
1001.099, 16.288
1002.362, 3.814
1003.625, 11.534
1004.887, 4.059
1006.150, 34.585
1007.413, 22.111
1008.675, 26.636
1009.937, 18.162
1011.199, 17.687
1012.461, 21.216
1013.722, 19.182
1014.984, 15.812
1016.245, 24.409
1017.506, 7.938
1018.767, 14.465
1020.028, 15.034
1021.288, 10.561
1022.549, 14.088
1023.809, 7.614
1025.069, 0.141
1026.329, 8.671
1027.589, 2.659
1028.848, 3.733
1030.108, 2.274
1031.367, 1.817
1032.626, 1.788
1033.885, 4.079
1035.144, 14.471
1036.402, 17.010
1037.661, 23.565
1038.919, 7.103
1040.177, 11.641
1041.435, 20.179
1042.693, 37.716
1043.950, 6.271
1045.208, 22.811
1046.465, 7.351
1047.722, 20.921
1048.979, 43.462
1050.235, 18.006
1051.492, 20.580
1052.748, 12.123
1054.005, 12.952
1055.261, 21.495
1056.517, 12.038
1057.772, 15.583
1059.028, 17.129
1060.283, 0.678
1061.538, 12.231
1062.793, 23.783
1064.048, 14.338
1065.303, 39.892
1066.558, 13.445
1067.812, 24.032
1069.066, 18.587
1070.320, 18.170
1071.574, 35.785
1072.828, 16.339
1074.081, 29.921
1075.335, 29.475
1076.588, 16.029
1077.841, 7.379
1079.094, 19.170
1080.347, 4.010
1081.599, 13.571
1082.852, 34.117
1084.104, 33.663
1085.356, 40.208
1086.608, 40.753
1087.859, 19.327
1089.111, 5.871
1090.362, 11.414
1091.614, 1.958
1092.865, 18.501
1094.115, 6.162
1095.366, 26.703
1096.617, 2.756
1097.867, 0.168
1099.117, 15.369
1100.367, 19.905
1101.617, 30.440
1102.867, 18.975
1104.116, 23.187
1105.366, 34.071
1106.615, 18.604
1107.864, 16.166
1109.113, 15.717
1110.362, 6.248
1111.610, 34.778
1112.859, 8.308
1114.107, 3.836
1115.355, 20.365
1116.603, 2.892
1117.850, 22.419
1119.098, 8.946
1120.345, 3.529
1121.593, 11.024
1122.840, 6.546
1124.087, 12.011
1125.333, 8.445
1126.580, 0.558
1127.826, 5.993
1129.072, 1.567
1130.319, 8.948
1131.564, 42.221
1132.810, 16.735
1134.056, 21.273
1135.301, 33.785
1136.546, 12.297
1137.791, 31.135
1139.036, 1.402
1140.281, 5.911
1141.526, 38.420
1142.770, 2.927
1144.014, 12.434
1145.258, 27.844
1146.502, 21.349
1147.746, 43.853
1148.990, 13.550
1150.233, 10.053
1151.476, 43.605
1152.719, 1.881
1153.962, 34.618
1155.205, 42.126
1156.448, 23.624
1157.690, 43.120
1158.932, 13.616
1160.174, 14.111
1161.416, 43.635
1162.658, 6.871
1163.900, 17.617
1165.141, 1.140
1166.382, 17.626
1167.624, 20.111
1168.864, 2.598
1170.105, 19.081
1171.346, 38.584
1172.586, 22.098
1173.827, 30.579
1175.067, 20.080
1176.307, 12.579
1177.546, 54.047
1178.786, 10.570
1180.026, 10.034
1181.265, 45.495
1182.504, 3.956
1183.743, 9.276
1184.982, 16.748
1186.220, 9.218
1187.459, 18.687
1188.697, 36.194
1189.935, 16.681
1191.173, 24.148
1192.411, 9.665
1193.649, 28.129
1194.886, 41.633
1196.124, 6.096
1197.361, 21.557
1198.598, 18.050
1199.835, 14.490
1201.071, 28.959
1202.308, 18.562
1203.544, 19.874
1204.780, 40.310
1206.016, 23.784
1207.252, 49.218
1208.488, 19.667
1209.723, 24.076
1210.959, 17.507
1212.194, 13.936
1213.429, 43.365
1214.664, 18.792
1215.899, 6.703
1217.133, 37.128
1218.368, 7.560
1219.602, 1.982
1220.836, 49.404
1222.070, 7.850
1223.304, 29.269
1224.537, 27.687
1225.770, 5.126
1227.004, 43.082
1228.237, 2.428
1229.470, 5.771
1230.703, 50.181
1231.935, 17.592
1233.168, 35.002
1234.400, 21.411
1235.632, 6.833
1236.864, 21.420
1238.096, 26.831
1239.327, 14.386
1240.559, 22.763
1241.790, 0.167
1243.021, 28.557
1244.252, 23.958
1245.483, 2.158
1246.714, 20.487
1247.944, 17.884
1249.174, 15.323
1250.404, 45.719
1251.634, 30.114
1252.864, 7.551
1254.094, 43.944
1255.323, 7.336
1256.553, 9.747
1257.782, 15.137
1259.011, 36.513
1260.240, 51.901
1261.469, 33.284
1262.697, 20.810
1263.925, 31.193
1265.154, 30.546
1266.382, 23.007
1267.610, 18.381
1268.837, 7.489
1270.065, 55.907
1271.292, 23.268
1272.519, 23.686
1273.747, 43.091
1274.973, 4.371
1276.200, 19.729
1277.427, 37.958
1278.653, 10.678
1279.879, 27.684
1281.106, 3.045
1282.332, 20.406
1283.557, 50.765
1284.783, 3.877
1286.008, 27.509
1287.234, 16.826
1288.459, 25.161
1289.684, 36.515
1290.909, 25.836
1292.133, 1.188
1293.358, 39.540
1294.582, 23.890
1295.806, 1.760
1297.030, 47.606
1298.254, 2.949
1299.478, 11.295
1300.701, 15.446
1301.925, 11.790
1303.148, 16.153
1304.371, 33.495
1305.594, 25.834
1306.816, 28.304
1308.039, 15.359
1309.261, 17.973
1310.484, 35.765
1311.706, 6.095
1312.928, 38.354
1314.149, 23.682
1315.371, 14.010
1316.592, 51.293
1317.814, 9.617
1319.035, 6.939
1320.256, 28.260
1321.477, 4.581
1322.697, 9.901
1323.918, 28.219
1325.138, 2.537
1326.358, 32.844
1327.578, 38.149
1328.798, 17.463
1330.018, 11.739
1331.237, 18.036
1332.456, 20.348
1333.676, 16.643
1334.895, 5.953
1336.113, 10.262
1337.332, 46.623
1338.551, 2.931
1339.769, 59.224
1340.987, 5.531
1342.205, 28.837
1343.423, 23.116
1344.641, 7.422
1345.859, 39.727
1347.076, 18.023
1348.293, 7.328
1349.510, 20.345
1350.727, 42.647
1351.944, 3.948
1353.161, 43.250
1354.377, 9.551
1355.593, 11.853
1356.810, 41.155
1358.026, 26.457
1359.241, 38.759
1360.457, 26.067
1361.673, 8.629
1362.888, 62.641
1364.103, 12.010
1365.318, 34.285
1366.533, 41.528
1367.748, 7.881
1368.962, 37.159
1370.177, 47.465
1371.391, 8.771
1372.605, 51.040
1373.819, 0.648
1375.033, 3.393
1376.246, 47.676
1377.460, 26.373
1378.673, 27.694
1379.886, 52.015
1381.099, 11.394
1382.312, 3.311
1383.524, 11.017
1384.737, 2.626
1385.949, 30.679
1387.161, 32.984
1388.373, 24.188
1389.585, 30.475
1390.797, 16.080
1392.008, 19.318
1393.220, 25.236
1394.431, 5.583
1395.642, 37.929
1396.853, 23.245
1398.064, 5.537
1399.274, 30.879
1400.485, 25.221
1401.695, 11.560
1402.905, 67.899
1404.115, 19.206
1405.325, 19.544
1406.534, 70.882
1407.744, 2.828
1408.953, 51.661
1410.162, 25.936
1411.371, 0.735
1412.580, 62.216
1413.789, 20.540
1414.997, 5.864
1416.206, 68.117
1417.414, 5.207
1418.622, 6.466
1419.830, 75.766
1421.038, 25.070
1422.245, 49.389
1423.453, 34.404
1424.660, 29.710
1425.867, 62.973
1427.074, 26.277
1428.281, 34.557
1429.487, 78.821
1430.694, 8.043
1431.900, 61.278
1433.106, 49.583
1434.312, 23.870
1435.518, 53.175
1436.724, 31.425
1437.929, 35.700
1439.134, 65.929
1440.340, 32.171
1441.545, 11.424
1442.750, 65.731
1443.954, 22.008
1445.159, 60.277
1446.363, 75.583
1447.568, 11.903
1448.772, 59.235
1449.976, 38.769
1451.179, 2.922
1452.383, 82.401
1453.587, 42.681
1454.790, 23.965
1455.993, 67.155
1457.196, 28.401
1458.399, 39.720
1459.601, 58.012
1460.804, 47.960
1462.006, 55.984
1463.209, 47.291
1464.411, 31.595
1465.613, 45.900
1466.814, 71.120
1468.016, 28.334
1469.217, 69.637
1470.419, 43.897
1471.620, 68.197
1472.821, 65.128
1474.021, 17.436
1475.222, 65.559
1476.423, 47.771
1477.623, 17.976
1478.823, 63.192
1480.023, 44.503
1481.223, 5.842
1482.423, 98.183
1483.622, 43.526
1484.822, 31.790
1486.021, 89.139
1487.220, 18.489
1488.419, 64.844
1489.618, 93.148
1490.816, 14.510
1492.015, 71.875
1493.213, 67.181
1494.411, 34.127
1495.609, 109.508
1496.807, 34.897
1498.005, 27.293
1499.202, 70.700
1500.400, 51.129
1501.597, 33.566
1502.794, 84.016
1503.991, 21.477
1505.187, 49.958
1506.384, 50.461
1507.580, 7.990
1508.777, 87.542
1509.973, 64.834
1511.169, 13.412
1512.365, 105.992
1513.560, 45.613
1514.756, 71.116
1515.951, 90.800
1517.146, 28.531
1518.341, 80.301
1519.536, 89.112
1520.731, 4.080
1521.926, 87.826
1523.120, 46.091
1524.314, 19.505
1525.508, 76.495
1526.702, 80.564
1527.896, 30.697
1529.090, 110.939
1530.283, 51.000
1531.476, 29.262
1532.670, 70.900
1533.863, 0.157
1535.055, 33.916
1536.248, 0.000
##END=



