##NAMES=Sulphur
##RRUFFID=R050006
##IDEAL CHEMISTRY=S
##LOCALITY=San Felipe, Mexicali, Baja California Norte, Mexico
##OWNER=RRUFF
##SOURCE=Eugene Schlepp
##DESCRIPTION=Yellow single crystal
##STATUS=The identification of this mineral has been confirmed by X-ray diffraction and chemical analysis
##URL=rruff.info/R050006
##MEASURED CHEMISTRY=S_1.00_
##PIN_ID=L00244
##ORIENTATION=Laser parallel to -c* (0 0 -1). Fiducial mark perpendicular to laser is parallel to a [1 0 0]
48.666, 0.000
50.068, 13.227
51.471, 18.147
52.873, 14.862
54.275, 18.611
55.677, 30.696
57.079, 23.411
58.480, 33.711
59.882, 41.394
61.283, 20.819
62.683, 17.930
64.084, 5.668
65.484, 1.027
66.884, 3.208
68.284, 13.918
69.684, 5.188
71.083, 1.048
72.482, 5.469
73.881, 4.666
75.280, 3.516
76.678, 35.989
78.076, 103.731
79.474, 189.720
80.872, 273.940
82.270, 381.374
83.667, 474.008
85.064, 654.831
86.461, 970.845
87.858, 1398.065
89.254, 1647.485
90.650, 1589.088
92.046, 1338.857
93.442, 1120.773
94.838, 949.823
96.233, 839.994
97.628, 810.275
99.023, 794.660
100.418, 808.141
101.812, 825.713
103.206, 893.370
104.600, 931.108
105.994, 958.924
107.387, 998.603
108.781, 976.775
110.174, 1036.805
111.566, 1024.901
112.959, 1010.060
114.351, 1029.281
115.744, 1052.562
117.136, 1057.900
118.527, 1062.298
119.919, 1070.922
121.310, 1051.277
122.701, 1057.011
124.092, 1042.978
125.482, 993.177
126.873, 1027.507
128.263, 980.885
129.653, 1011.274
131.042, 1021.675
132.432, 1039.078
133.821, 1120.462
135.210, 1235.830
136.599, 1417.185
137.987, 1684.530
139.376, 2339.868
140.764, 3590.200
142.152, 5885.524
143.539, 9545.842
144.927, 14605.165
146.314, 19484.492
147.701, 22843.834
149.088, 23593.184
150.474, 21902.551
151.861, 20211.930
153.247, 19071.314
154.633, 16540.723
156.018, 12650.145
157.404, 8677.582
158.789, 5744.038
160.174, 3912.510
161.559, 2813.999
162.943, 2036.508
164.327, 1605.034
165.711, 1305.579
167.095, 1078.143
168.479, 924.726
169.862, 832.329
171.246, 723.950
172.628, 665.591
174.011, 632.250
175.394, 615.928
176.776, 581.624
178.158, 603.339
179.540, 668.072
180.922, 722.822
182.303, 842.591
183.684, 938.376
185.065, 1058.180
186.446, 1102.001
187.826, 1125.839
189.207, 1143.694
190.587, 1272.566
191.967, 1443.638
193.346, 1575.889
194.726, 1635.246
196.105, 1545.450
197.484, 1368.435
198.862, 1241.158
200.241, 1119.403
201.619, 1129.419
202.997, 1198.988
204.375, 1378.234
205.753, 1874.842
207.130, 3045.582
208.507, 5658.336
209.884, 10845.105
211.261, 19494.885
212.638, 30324.686
214.014, 41084.488
215.390, 49163.410
216.766, 51852.414
218.141, 52041.457
219.517, 47860.551
220.892, 34089.684
222.267, 19318.846
223.642, 10698.047
225.016, 6290.235
226.391, 3840.467
227.765, 2632.747
229.139, 1930.079
230.512, 1660.440
231.886, 1587.694
233.259, 1603.970
234.632, 1669.871
236.005, 1744.260
237.377, 1952.832
238.749, 2175.458
240.122, 2775.046
241.493, 3845.738
242.865, 5101.462
244.237, 6334.215
245.608, 6368.997
246.979, 5464.806
248.350, 3674.641
249.720, 2366.502
251.090, 1484.387
252.461, 978.296
253.830, 675.228
255.200, 459.182
256.570, 355.158
257.939, 291.154
259.308, 262.172
260.677, 253.209
262.045, 207.266
263.414, 212.342
264.782, 233.436
266.150, 215.546
267.517, 223.675
268.885, 220.823
270.252, 226.990
271.619, 229.175
272.986, 241.380
274.353, 234.601
275.719, 240.840
277.085, 218.095
278.451, 215.367
279.817, 194.655
281.182, 167.960
282.548, 175.281
283.913, 167.616
285.278, 152.964
286.642, 153.329
288.007, 149.708
289.371, 153.101
290.735, 157.503
292.099, 146.913
293.462, 176.331
294.826, 181.757
296.189, 186.190
297.552, 169.631
298.914, 179.080
300.277, 171.537
301.639, 182.001
303.001, 177.474
304.363, 153.954
305.724, 146.443
307.086, 111.939
308.447, 120.444
309.808, 120.957
311.168, 100.477
312.529, 114.006
313.889, 95.543
315.249, 115.088
316.609, 105.640
317.969, 105.202
319.328, 92.772
320.687, 90.353
322.046, 66.942
323.405, 59.538
324.764, 48.143
326.122, 45.754
327.480, 31.373
328.838, 15.998
330.196, 5.631
331.553, 5.270
332.910, 2.084
334.267, 14.432
335.624, 24.777
336.981, 32.123
338.337, 41.469
339.693, 28.820
341.049, 26.172
342.405, 41.524
343.760, 42.880
345.116, 49.241
346.471, 47.608
347.826, 45.265
349.180, 44.696
350.535, 35.746
351.889, 34.134
353.243, 29.526
354.597, 15.920
355.950, 24.315
357.304, 4.277
358.657, 13.147
360.010, 5.415
361.362, 20.958
362.715, 32.481
364.067, 45.985
365.419, 61.475
366.771, 73.958
368.123, 63.439
369.474, 77.921
370.825, 90.409
372.176, 115.903
373.527, 107.403
374.877, 124.908
376.228, 140.419
377.578, 139.936
378.928, 170.463
380.277, 201.999
381.627, 243.547
382.976, 248.104
384.325, 263.672
385.674, 277.249
387.023, 280.837
388.371, 287.434
389.719, 301.040
391.067, 296.655
392.415, 306.278
393.762, 300.908
395.110, 310.547
396.457, 318.194
397.804, 345.852
399.150, 358.517
400.497, 378.189
401.843, 453.868
403.189, 510.553
404.535, 620.245
405.881, 765.943
407.226, 924.647
408.571, 1058.358
409.916, 1119.075
411.261, 1184.798
412.605, 1164.527
413.950, 1180.263
415.294, 1206.005
416.638, 1281.752
417.981, 1374.786
419.325, 1595.545
420.668, 1795.817
422.011, 2099.844
423.354, 2403.690
424.697, 2762.814
426.039, 3271.608
427.381, 3709.407
428.723, 4257.791
430.065, 4733.335
431.406, 5132.822
432.748, 5515.255
434.089, 5798.044
435.430, 6098.302
436.770, 5971.977
438.111, 5777.472
439.451, 5100.610
440.791, 4071.356
442.131, 3093.982
443.471, 2210.555
444.810, 1656.720
446.149, 1235.725
447.488, 1036.774
448.827, 866.264
450.166, 871.079
451.504, 938.975
452.842, 1080.906
454.180, 1331.784
455.518, 1700.664
456.855, 2380.547
458.193, 3278.431
459.530, 4511.318
460.867, 6277.206
462.203, 8697.100
463.540, 12129.991
464.876, 16840.885
466.212, 23011.779
467.548, 30692.676
468.883, 39563.574
470.219, 51104.469
471.554, 61085.375
472.889, 62726.289
474.224, 55447.180
475.558, 40688.109
476.892, 27279.037
478.227, 17880.094
479.561, 12081.294
480.894, 8526.701
482.228, 5947.760
483.561, 4412.705
484.894, 3563.654
486.227, 2842.562
487.559, 2360.472
488.892, 2001.381
490.224, 1709.291
491.556, 1498.201
492.888, 1346.111
494.220, 1166.862
495.551, 1077.017
496.882, 991.630
498.213, 920.832
499.544, 836.062
500.874, 758.872
502.205, 694.365
503.535, 624.011
504.865, 577.573
506.194, 544.765
507.524, 528.040
508.853, 482.442
510.182, 466.865
511.511, 441.769
512.840, 450.752
514.168, 419.977
515.496, 417.935
516.824, 402.428
518.152, 394.335
519.480, 374.418
520.807, 366.334
522.134, 356.252
523.461, 345.170
524.788, 349.090
526.114, 315.010
527.441, 296.931
528.767, 297.854
530.093, 282.777
531.418, 239.702
532.744, 250.627
534.069, 210.553
535.394, 228.481
536.719, 219.409
538.044, 219.371
539.368, 231.334
540.693, 239.456
542.017, 233.620
543.340, 252.921
544.664, 234.906
545.987, 247.191
547.311, 252.213
548.634, 251.273
549.956, 249.206
551.279, 239.517
552.601, 226.070
553.923, 214.002
555.245, 200.933
556.567, 189.865
557.889, 141.796
559.210, 118.726
560.531, 106.667
561.852, 91.597
563.173, 71.529
564.493, 63.065
565.813, 46.511
567.133, 41.515
568.453, 36.576
569.773, 24.700
571.092, 19.709
572.412, 18.961
573.731, 16.116
575.049, 18.130
576.368, 2.778
577.686, 7.286
579.005, 6.535
580.323, 2.028
581.640, 1.265
582.958, 3.095
584.275, 6.208
585.593, 14.107
586.909, 6.590
588.226, 8.989
589.543, 7.878
590.859, 6.843
592.175, 12.595
593.491, 3.553
594.807, 10.523
596.122, 7.368
597.438, 1.036
598.753, 11.081
600.068, 9.025
601.382, 8.096
602.697, 1.218
604.011, 1.688
605.325, 15.467
606.639, 6.400
607.952, 11.517
609.266, 7.289
610.579, 5.320
611.892, 26.515
613.205, 26.362
614.518, 29.274
615.830, 49.086
617.142, 41.966
618.454, 54.775
619.766, 63.580
621.078, 56.537
622.389, 57.330
623.700, 45.127
625.011, 43.926
626.322, 41.646
627.632, 26.418
628.943, 23.146
630.253, 17.890
631.563, 19.615
632.872, 9.327
634.182, 8.024
635.491, 1.718
636.800, 0.593
638.109, 3.910
639.418, 1.765
640.726, 7.435
642.035, 7.102
643.343, 19.765
644.651, 16.425
645.958, 30.082
647.266, 44.736
648.573, 49.386
649.880, 64.034
651.187, 73.678
652.494, 80.320
653.800, 81.963
655.106, 75.609
656.412, 83.260
657.718, 64.917
659.024, 72.578
660.329, 62.243
661.634, 62.915
662.939, 57.593
664.244, 52.281
665.549, 51.977
666.853, 37.682
668.157, 34.394
669.461, 29.436
670.765, 28.835
672.069, 25.562
673.372, 24.291
674.675, 33.023
675.978, 22.752
677.281, 31.482
678.583, 32.209
679.886, 45.932
681.188, 46.652
682.490, 42.368
683.792, 53.081
685.093, 52.790
686.394, 48.496
687.696, 48.198
688.997, 50.896
690.297, 36.591
691.598, 28.282
692.898, 20.969
694.198, 13.020
695.498, 13.332
696.798, 3.007
698.097, 1.677
699.397, 0.709
700.696, 11.998
701.995, 0.349
703.293, 9.296
704.592, 6.936
705.890, 19.573
707.188, 27.205
708.486, 21.834
709.784, 26.459
711.081, 30.080
712.378, 29.697
713.675, 29.310
714.972, 23.919
716.269, 19.525
717.565, 25.126
718.862, 21.724
720.158, 21.317
721.453, 8.907
722.749, 12.491
724.045, 8.070
725.340, 4.645
726.635, 12.213
727.930, 0.777
729.224, 3.334
730.519, 11.884
731.813, 6.430
733.107, 7.689
734.401, 2.224
735.694, 3.755
736.988, 0.491
738.281, 6.048
739.574, 0.885
740.867, 10.394
742.160, 0.912
743.452, 6.016
744.744, 1.715
746.036, 4.503
747.328, 1.655
748.620, 1.827
749.911, 1.841
751.202, 1.565
752.493, 4.792
753.784, 3.334
755.075, 1.149
756.365, 2.487
757.655, 5.174
758.945, 2.266
760.235, 7.519
761.525, 3.275
762.814, 0.488
764.103, 5.924
765.392, 3.722
766.681, 6.406
767.969, 0.959
769.258, 1.679
770.546, 3.677
771.834, 0.969
773.122, 3.380
774.409, 3.727
775.697, 2.931
776.984, 4.406
778.271, 3.740
779.558, 3.070
780.844, 15.397
782.131, 5.720
783.417, 12.040
784.703, 8.357
785.989, 11.670
787.274, 13.980
788.560, 21.270
789.845, 27.546
791.130, 20.692
792.415, 27.701
793.699, 26.498
794.983, 27.637
796.268, 36.890
797.552, 35.137
798.835, 43.420
800.119, 51.702
801.402, 66.980
802.686, 64.256
803.969, 87.529
805.251, 93.800
806.534, 117.068
807.816, 134.333
809.098, 167.595
810.380, 177.854
811.662, 213.111
812.944, 253.364
814.225, 264.615
815.506, 295.863
816.787, 321.108
818.068, 327.350
819.349, 344.589
820.629, 345.825
821.909, 340.050
823.189, 333.287
824.469, 312.513
825.749, 290.736
827.028, 263.956
828.307, 248.173
829.586, 216.387
830.865, 233.615
832.144, 219.907
833.422, 220.113
834.700, 239.315
835.978, 256.515
837.256, 240.722
838.534, 239.934
839.811, 258.129
841.088, 271.316
842.365, 283.509
843.642, 304.690
844.919, 296.867
846.195, 291.041
847.472, 299.229
848.748, 308.363
850.023, 300.545
851.299, 313.515
852.575, 303.488
853.850, 334.273
855.125, 353.388
856.400, 367.185
857.674, 395.242
858.949, 385.468
860.223, 412.626
861.497, 432.765
862.771, 427.901
864.045, 454.038
865.318, 441.202
866.591, 441.345
867.864, 444.476
869.137, 421.695
870.410, 407.814
871.682, 398.932
872.955, 415.043
874.227, 403.150
875.499, 405.140
876.770, 392.183
878.042, 390.153
879.313, 370.057
880.584, 361.085
881.855, 332.737
883.126, 287.724
884.396, 268.724
885.667, 221.643
886.937, 184.654
888.207, 162.483
889.476, 151.003
890.746, 141.731
892.015, 128.083
893.284, 123.789
894.553, 129.926
895.822, 120.612
897.090, 143.991
898.359, 132.844
899.627, 139.781
900.895, 126.484
902.163, 121.381
903.430, 114.366
904.698, 119.137
905.965, 109.724
907.232, 87.683
908.499, 86.532
909.765, 94.501
911.032, 74.514
912.298, 80.493
913.564, 61.528
914.830, 69.332
916.095, 60.313
917.361, 72.370
918.626, 60.198
919.891, 74.856
921.156, 89.852
922.420, 92.779
923.685, 110.980
924.949, 142.052
926.213, 159.141
927.477, 163.162
928.740, 184.026
930.004, 193.938
931.267, 201.665
932.530, 212.251
933.793, 211.335
935.056, 205.364
936.318, 197.431
937.581, 190.478
938.843, 183.541
940.104, 172.612
941.366, 160.288
942.628, 147.651
943.889, 128.859
945.150, 114.940
946.411, 94.028
947.672, 70.110
948.932, 72.197
950.193, 47.402
951.453, 40.510
952.713, 51.589
953.973, 33.784
955.232, 27.860
956.491, 33.939
957.751, 21.013
959.010, 22.085
960.268, 24.176
961.527, 13.250
962.785, 20.320
964.044, 20.389
965.302, 9.458
966.559, 11.525
967.817, 13.592
969.075, 17.657
970.332, 18.724
971.589, 11.788
972.846, 4.852
974.102, 8.917
975.359, 8.979
976.615, 7.041
977.871, 10.102
979.127, 5.184
980.383, 4.243
981.638, 0.306
982.893, 2.623
984.149, 6.852
985.404, 6.927
986.658, 7.033
987.913, 2.095
989.167, 0.148
990.421, 3.208
991.675, 8.271
992.929, 2.322
994.183, 8.372
995.436, 6.421
996.689, 5.470
997.942, 0.518
999.195, 7.565
1000.448, 1.389
1001.700, 8.669
1002.952, 1.247
1004.204, 11.814
1005.456, 0.862
1006.708, 6.908
1007.959, 6.956
1009.210, 4.985
1010.461, 0.061
1011.712, 9.112
1012.963, 4.157
1014.213, 3.201
1015.464, 0.755
1016.714, 0.324
1017.964, 2.381
1019.214, 2.567
1020.463, 1.476
1021.712, 7.522
1022.962, 8.562
1024.210, 10.616
1025.459, 12.227
1026.708, 0.706
1027.956, 10.879
1029.204, 6.948
1030.452, 0.989
1031.700, 5.029
1032.948, 2.070
1034.195, 11.112
1035.442, 11.154
1036.689, 1.674
1037.936, 2.369
1039.183, 0.587
1040.429, 0.542
1041.676, 2.504
1042.922, 0.445
1044.168, 1.386
1045.413, 0.144
1046.659, 0.723
1047.904, 2.781
1049.149, 0.027
1050.394, 3.032
1051.639, 7.097
1052.884, 1.832
1054.128, 9.228
1055.372, 4.289
1056.616, 11.353
1057.860, 9.416
1059.104, 9.480
1060.347, 6.550
1061.590, 4.614
1062.833, 6.679
1064.076, 5.743
1065.319, 3.809
1066.561, 1.874
1067.803, 1.939
1069.046, 2.005
1070.287, 5.072
1071.529, 4.145
1072.771, 3.276
1074.012, 2.210
1075.253, 1.144
1076.494, 5.921
1077.735, 3.985
1078.975, 2.950
1080.216, 1.114
1081.456, 14.177
1082.696, 5.240
1083.936, 8.304
1085.175, 5.367
1086.415, 4.429
1087.654, 12.493
1088.893, 7.554
1090.132, 15.625
1091.371, 3.686
1092.609, 13.747
1093.847, 5.807
1095.085, 2.867
1096.323, 10.926
1097.561, 2.985
1098.799, 1.956
1100.036, 0.101
1101.273, 4.159
1102.510, 1.785
1103.747, 4.270
1104.983, 3.324
1106.220, 7.395
1107.456, 8.448
1108.692, 0.551
1109.928, 3.610
1111.163, 4.662
1112.399, 5.890
1113.634, 8.944
1114.869, 8.994
1116.104, 8.045
1117.339, 8.095
1118.573, 4.144
1119.808, 5.194
1121.042, 6.552
1122.276, 4.612
1123.509, 14.660
1124.743, 16.707
1125.976, 5.755
1127.210, 0.801
1128.443, 7.847
1129.675, 3.962
1130.908, 1.990
1132.141, 6.050
1133.373, 1.004
1134.605, 0.044
1135.837, 3.084
1137.068, 5.150
1138.300, 3.170
1139.531, 2.203
1140.762, 10.246
1141.993, 12.377
1143.224, 11.414
1144.455, 10.451
1145.685, 7.488
1146.915, 5.962
1148.145, 5.544
1149.375, 2.529
1150.605, 0.565
1151.834, 1.552
1153.063, 8.586
1154.292, 9.606
1155.521, 5.639
1156.750, 2.672
1157.978, 7.496
1159.207, 3.511
1160.435, 8.542
1161.663, 7.574
1162.891, 7.608
1164.118, 0.611
1165.345, 1.626
1166.573, 2.650
1167.800, 4.590
1169.026, 4.074
1170.253, 9.849
1171.480, 1.880
1172.706, 5.907
1173.932, 2.934
1175.158, 1.052
1176.383, 0.973
1177.609, 8.998
1178.834, 13.011
1180.059, 6.042
1181.284, 9.059
1182.509, 9.082
1183.734, 0.895
1184.958, 5.058
1186.182, 5.074
1187.406, 7.064
1188.630, 6.054
1189.854, 5.069
1191.077, 3.067
1192.301, 11.027
1193.524, 6.037
1194.747, 7.043
1195.969, 0.943
1197.192, 6.065
1198.414, 4.078
1199.636, 3.093
1200.858, 13.027
1202.080, 13.041
1203.302, 9.054
1204.523, 6.067
1205.744, 12.080
1206.966, 4.092
1208.186, 12.103
1209.407, 8.115
1210.628, 6.137
1211.848, 9.147
1213.068, 6.157
1214.288, 9.159
1215.508, 6.160
1216.727, 14.162
1217.947, 4.169
1219.166, 6.823
1220.385, 7.004
1221.604, 4.887
1222.822, 16.819
1224.041, 6.820
1225.259, 7.825
1226.477, 9.667
1227.695, 9.654
1228.913, 11.412
1230.130, 4.652
1231.348, 9.650
1232.565, 14.648
1233.782, 4.646
1234.999, 13.643
1236.215, 2.640
1237.432, 5.636
1238.648, 9.630
1239.864, 11.625
1241.080, 11.620
1242.296, 12.609
1243.511, 12.153
1244.726, 6.661
1245.942, 11.530
1247.156, 4.514
1248.371, 6.505
1249.586, 8.377
1250.800, 7.367
1252.014, 1.353
1253.228, 6.346
1254.442, 0.333
1255.656, 3.302
1256.869, 8.285
1258.083, 1.729
1259.296, 4.256
1260.509, 8.240
1261.722, 8.223
1262.934, 6.207
1264.147, 13.189
1265.359, 13.168
1266.571, 3.850
1267.783, 2.130
1268.994, 5.107
1270.206, 13.086
1271.417, 8.064
1272.628, 7.043
1273.839, 7.997
1275.050, 0.025
1276.260, 6.946
1277.471, 6.966
1278.681, 1.521
1279.891, 10.476
1281.101, 5.398
1282.310, 0.363
1283.520, 11.337
1284.729, 6.306
1285.938, 3.266
1287.147, 0.762
1288.356, 8.210
1289.564, 13.181
1290.773, 17.151
1291.981, 14.121
1293.189, 15.091
1294.397, 15.060
1295.604, 5.018
1296.812, 8.949
1298.019, 4.902
1299.226, 12.871
1300.433, 8.839
1301.640, 17.810
1302.846, 7.766
1304.053, 12.734
1305.259, 11.695
1306.465, 5.663
1307.671, 2.630
1308.876, 2.597
1310.082, 10.527
1311.287, 9.479
1312.492, 2.439
1313.697, 2.598
1314.902, 14.361
1316.106, 3.327
1317.310, 10.276
1318.515, 7.239
1319.719, 8.191
1320.922, 15.020
1322.126, 13.953
1323.329, 6.915
1324.533, 1.876
1325.736, 6.838
1326.939, 5.799
1328.141, 11.764
1329.344, 6.596
1330.546, 4.555
1331.748, 5.513
1332.950, 5.473
1334.152, 5.433
1335.354, 2.392
1336.555, 9.342
1337.757, 2.302
1338.958, 10.262
1340.159, 5.221
1341.359, 1.047
1342.560, 11.036
1343.760, 10.989
1344.960, 4.945
1346.160, 6.904
1347.360, 5.863
1348.560, 10.822
1349.759, 11.781
1350.959, 5.740
1352.158, 11.693
1353.357, 14.652
1354.555, 0.611
1355.754, 5.569
1356.952, 3.528
1358.151, 7.487
1359.349, 7.446
1360.546, 8.405
1361.744, 3.364
1362.941, 6.317
1364.139, 2.765
1365.336, 7.724
1366.533, 6.683
1367.730, 6.651
1368.926, 1.613
1370.123, 1.574
1371.319, 6.537
1372.515, 12.500
1373.711, 6.463
1374.906, 6.426
1376.102, 7.391
1377.297, 10.414
1378.492, 3.379
1379.687, 11.347
1380.882, 7.287
1382.077, 13.221
1383.271, 16.189
1384.465, 6.158
1385.659, 11.125
1386.853, 0.909
1388.047, 8.059
1389.240, 5.008
1390.434, 0.077
1391.627, 3.882
1392.820, 2.655
1394.013, 5.619
1395.205, 5.702
1396.398, 1.201
1397.590, 6.147
1398.782, 6.106
1399.974, 8.065
1401.166, 9.943
1402.357, 10.170
1403.549, 9.990
1404.740, 11.764
1405.931, 7.719
1407.122, 8.554
1408.313, 7.512
1409.503, 9.470
1410.693, 8.427
1411.883, 11.385
1413.073, 6.342
1414.263, 3.299
1415.453, 5.256
1416.642, 4.204
1417.831, 4.152
1419.020, 6.099
1420.209, 1.234
1421.398, 8.714
1422.587, 5.666
1423.775, 7.620
1424.963, 1.562
1426.151, 9.515
1427.339, 0.469
1428.526, 4.423
1429.714, 9.377
1430.901, 10.324
1432.088, 8.269
1433.275, 4.207
1434.462, 9.161
1435.648, 6.115
1436.835, 9.069
1438.021, 6.022
1439.207, 8.976
1440.393, 3.908
1441.579, 12.861
1442.764, 7.812
1443.949, 0.764
1445.135, 14.723
1446.320, 3.682
1447.504, 5.621
1448.689, 14.579
1449.873, 2.537
1451.058, 2.493
1452.242, 7.449
1453.426, 8.405
1454.609, 0.360
1455.793, 4.168
1456.976, 7.120
1458.159, 1.029
1459.342, 10.983
1460.525, 1.930
1461.708, 11.891
1462.890, 3.852
1464.073, 2.814
1465.255, 13.777
1466.437, 4.743
1467.619, 3.709
1468.800, 2.675
1469.982, 0.641
1471.163, 6.608
1472.344, 8.419
1473.525, 8.390
1474.706, 7.361
1475.886, 4.319
1477.066, 2.292
1478.247, 9.265
1479.427, 1.240
1480.607, 5.216
1481.786, 6.193
1482.966, 15.171
1484.145, 0.861
1485.324, 12.120
1486.503, 0.102
1487.682, 9.085
1488.860, 12.069
1490.039, 5.037
1491.217, 7.025
1492.395, 8.022
1493.573, 4.023
1494.751, 7.025
1495.928, 10.031
1497.106, 3.020
1498.283, 6.035
1499.460, 6.057
1500.637, 5.083
1501.814, 10.109
1502.990, 6.146
1504.166, 7.004
1505.342, 3.964
1506.518, 5.003
1507.694, 3.050
1508.870, 1.104
1510.045, 3.164
1511.221, 9.233
1512.396, 6.309
1513.571, 9.392
1514.745, 12.515
1515.920, 12.662
1517.094, 7.678
1518.269, 0.148
1519.443, 10.056
1520.616, 8.308
1521.790, 10.108
1522.964, 0.000
##END=



