##NAMES=Sulphur
##RRUFFID=R040135
##IDEAL CHEMISTRY=S
##LOCALITY=Sicily, Italy
##OWNER=RRUFF
##SOURCE=University of Arizona Mineral Museum
##DESCRIPTION=Yellow fragments
##STATUS=The identification of this mineral has been confirmed by X-ray diffraction and chemical analysis
##URL=rruff.info/R040135
##MEASURED CHEMISTRY=S_1.00_
##PIN_ID=L00267
##ORIENTATION=Laser parallel to -a* (-1 0 0). Fiducial mark perpendicular to laser is parallel to b [0 1 0]
55.323, 0.000
56.716, 11.719
58.108, 11.745
59.501, 5.128
60.893, 10.075
62.285, 3.014
63.677, 8.646
65.069, 7.264
66.460, 6.470
67.851, 6.743
69.242, 2.620
70.633, 3.019
72.024, 2.127
73.414, 2.872
74.805, 4.258
76.195, 5.318
77.585, 14.918
78.974, 34.422
80.364, 62.167
81.753, 126.130
83.142, 240.290
84.531, 360.631
85.920, 495.136
87.308, 686.793
88.697, 950.589
90.085, 1166.514
91.473, 1061.565
92.860, 820.751
94.248, 571.069
95.635, 434.509
97.022, 310.059
98.409, 242.706
99.796, 225.440
101.183, 199.254
102.569, 172.138
103.955, 185.088
105.341, 169.098
106.727, 168.166
108.113, 192.286
109.498, 182.456
110.883, 200.672
112.268, 196.934
113.653, 197.238
115.038, 190.582
116.422, 198.965
117.806, 190.385
119.190, 201.840
120.574, 190.330
121.958, 195.851
123.341, 187.404
124.725, 186.995
126.108, 205.686
127.491, 211.521
128.873, 241.487
130.256, 252.838
131.638, 269.707
133.020, 292.855
134.402, 317.004
135.784, 352.155
137.165, 389.307
138.547, 460.455
139.928, 491.582
141.309, 640.695
142.690, 826.798
144.070, 1141.893
145.450, 1706.983
146.831, 2734.070
148.211, 4537.154
149.590, 7012.237
150.970, 10709.322
152.349, 15919.410
153.729, 21279.504
155.108, 21329.604
156.487, 15299.706
157.865, 8418.815
159.244, 4440.932
160.622, 2459.056
162.000, 1575.187
163.378, 1088.325
164.755, 812.471
166.133, 633.625
167.510, 536.787
168.887, 467.957
170.264, 396.135
171.641, 352.321
173.017, 310.594
174.394, 282.912
175.770, 265.931
177.146, 260.150
178.522, 266.378
179.897, 274.614
181.272, 282.858
182.648, 303.109
184.023, 329.368
185.397, 343.634
186.772, 367.908
188.146, 354.188
189.521, 336.476
190.895, 333.771
192.269, 365.073
193.642, 390.994
195.016, 374.756
196.389, 367.260
197.762, 369.283
199.135, 374.807
200.507, 423.389
201.880, 459.136
203.252, 514.335
204.624, 613.131
205.996, 766.574
207.368, 978.379
208.740, 1375.612
210.111, 2068.778
211.482, 3402.952
212.853, 6574.130
214.224, 11952.312
215.594, 19502.500
216.965, 31372.688
218.335, 51992.891
219.705, 58983.090
221.075, 42032.598
222.444, 20282.205
223.814, 8245.893
225.183, 3962.639
226.552, 2279.435
227.921, 1550.278
229.290, 1163.158
230.658, 1009.065
232.026, 910.003
233.394, 772.975
234.762, 727.979
236.130, 624.012
237.498, 569.023
238.865, 515.051
240.232, 449.075
241.599, 440.104
242.966, 412.255
244.332, 433.426
245.699, 429.615
247.065, 456.821
248.431, 466.043
249.797, 430.281
251.162, 345.533
252.528, 253.799
253.893, 205.078
255.258, 175.371
256.623, 148.676
257.988, 164.992
259.352, 132.319
260.717, 148.657
262.081, 131.005
263.445, 124.362
264.808, 134.728
266.172, 136.102
267.535, 118.485
268.898, 109.875
270.261, 121.274
271.624, 105.679
272.987, 106.092
274.349, 106.511
275.711, 120.938
277.073, 109.371
278.435, 107.811
279.797, 114.258
281.158, 93.713
282.519, 105.177
283.881, 100.648
285.241, 97.129
286.602, 96.616
287.963, 87.108
289.323, 92.606
290.683, 85.108
292.043, 97.616
293.403, 106.128
294.762, 104.642
296.122, 107.161
297.481, 116.683
298.840, 100.206
300.199, 88.732
301.557, 95.259
302.916, 86.788
304.274, 75.319
305.632, 63.852
306.990, 61.386
308.348, 53.923
309.705, 48.461
311.062, 42.002
312.420, 60.544
313.777, 59.090
315.133, 49.638
316.490, 59.188
317.846, 39.741
319.202, 43.295
320.558, 44.852
321.914, 37.410
323.270, 24.971
324.625, 17.533
325.980, 14.098
327.335, 18.664
328.690, 6.232
330.045, 6.199
331.400, 2.631
332.754, 13.063
334.108, 22.497
335.462, 19.937
336.816, 12.382
338.169, 22.829
339.522, 20.282
340.876, 22.740
342.229, 12.203
343.581, 16.670
344.934, 21.141
346.286, 25.617
347.639, 25.100
348.991, 13.590
350.343, 9.083
351.694, 7.579
353.046, 5.078
354.397, 5.579
355.748, 0.082
357.099, 0.411
358.450, 7.896
359.800, 8.367
361.151, 22.826
362.501, 24.272
363.851, 42.707
365.201, 49.128
366.550, 49.537
367.900, 73.939
369.249, 64.336
370.598, 72.731
371.947, 65.127
373.296, 74.523
374.644, 78.921
375.993, 69.320
377.341, 72.720
378.689, 86.120
380.036, 77.522
381.384, 91.926
382.731, 91.332
384.079, 93.742
385.426, 94.157
386.772, 92.233
388.119, 101.997
389.465, 89.422
390.812, 91.850
392.158, 94.280
393.504, 79.713
394.849, 78.148
396.195, 84.585
397.540, 80.023
398.885, 73.464
400.230, 84.906
401.575, 86.350
402.920, 80.797
404.264, 88.244
405.608, 99.693
406.952, 107.143
408.296, 109.595
409.640, 111.047
410.983, 123.510
412.327, 117.965
413.670, 125.422
415.013, 116.061
416.356, 142.562
417.698, 141.096
419.040, 163.623
420.383, 171.119
421.725, 183.773
423.066, 212.250
424.408, 242.750
425.750, 297.244
427.091, 379.791
428.432, 431.290
429.773, 512.821
431.113, 514.399
432.454, 528.898
433.794, 519.409
435.135, 519.913
436.474, 562.588
437.814, 505.069
439.154, 523.952
440.493, 473.563
441.833, 392.589
443.172, 322.908
444.510, 256.831
445.849, 250.238
447.188, 252.125
448.526, 227.805
449.864, 266.314
451.202, 293.897
452.540, 337.025
453.877, 381.632
455.215, 478.116
456.552, 609.124
457.889, 836.926
459.226, 1108.395
460.562, 1518.839
461.899, 2033.282
463.235, 2737.724
464.571, 3591.165
465.907, 5161.604
467.243, 7392.042
468.578, 11174.479
469.914, 15984.915
471.249, 22515.348
472.584, 28015.775
473.919, 26776.449
475.253, 20356.984
476.588, 12627.508
477.922, 7745.937
479.256, 5089.390
480.590, 3459.891
481.924, 2623.350
483.257, 2009.803
484.591, 1582.307
485.924, 1307.738
487.257, 1025.228
488.590, 896.639
489.922, 781.045
491.255, 664.942
492.587, 604.014
493.919, 521.517
495.251, 489.476
496.583, 448.573
497.914, 412.085
499.245, 384.990
500.577, 339.034
501.908, 321.923
503.238, 281.408
504.569, 257.631
505.899, 246.583
507.230, 219.263
508.560, 215.963
509.889, 198.349
511.219, 180.957
512.549, 187.639
513.878, 173.450
515.207, 175.227
516.536, 160.296
517.865, 158.535
519.193, 147.724
520.522, 152.068
521.850, 146.442
523.178, 141.814
524.506, 144.186
525.834, 146.556
527.161, 142.926
528.489, 138.697
529.816, 118.662
531.143, 120.029
532.469, 118.395
533.796, 100.760
535.122, 118.124
536.449, 110.487
537.775, 105.873
539.101, 115.256
540.426, 113.824
541.752, 115.316
543.077, 118.795
544.402, 121.324
545.727, 124.704
547.052, 116.114
548.376, 119.521
549.701, 120.879
551.025, 113.248
552.349, 95.598
553.673, 100.947
554.997, 92.295
556.320, 96.642
557.644, 84.987
558.967, 70.331
560.290, 57.674
561.612, 40.049
562.935, 33.389
564.257, 26.730
565.580, 15.097
566.902, 11.495
568.224, 9.921
569.545, 6.425
570.867, 10.899
572.188, 10.426
573.509, 0.162
574.830, 4.227
576.151, 2.587
577.472, 2.941
578.792, 4.552
580.112, 0.355
581.432, 5.991
582.752, 4.356
584.072, 4.717
585.392, 2.024
586.711, 4.366
588.030, 2.676
589.349, 1.003
590.668, 4.310
591.986, 3.623
593.305, 3.931
594.623, 0.769
595.941, 5.541
597.259, 4.123
598.577, 0.229
599.894, 6.380
601.212, 11.073
602.529, 4.785
603.846, 12.528
605.163, 4.281
606.479, 1.039
607.796, 3.202
609.112, 0.440
610.428, 8.276
611.744, 0.037
613.060, 4.198
614.376, 6.433
615.691, 3.215
617.006, 4.990
618.321, 15.212
619.636, 12.413
620.951, 11.720
622.265, 9.920
623.579, 13.116
624.894, 8.311
626.208, 12.503
627.521, 7.694
628.835, 12.883
630.148, 12.070
631.462, 1.744
632.775, 0.438
634.088, 0.617
635.400, 6.793
636.713, 3.967
638.025, 1.140
639.337, 3.310
640.649, 3.478
641.961, 0.644
643.273, 4.807
644.584, 0.969
645.895, 9.128
647.206, 9.286
648.517, 10.442
649.828, 15.598
651.139, 14.755
652.449, 11.915
653.759, 18.079
655.069, 12.247
656.379, 17.418
657.689, 10.594
658.998, 13.774
660.307, 16.960
661.617, 17.148
662.926, 8.339
664.234, 9.536
665.543, 12.738
666.851, 3.946
668.160, 12.157
669.468, 13.370
670.775, 16.585
672.083, 14.801
673.391, 14.019
674.698, 16.237
676.005, 10.456
677.312, 21.673
678.619, 13.889
679.926, 25.103
681.232, 20.315
682.538, 18.526
683.844, 22.736
685.150, 19.944
686.456, 20.150
687.762, 20.355
689.067, 18.559
690.372, 16.316
691.677, 13.392
692.982, 11.164
694.287, 4.363
695.591, 4.560
696.896, 2.244
698.200, 1.052
699.504, 0.862
700.808, 1.676
702.111, 4.508
703.415, 1.690
704.718, 1.870
706.021, 7.048
707.324, 5.288
708.627, 10.399
709.929, 8.572
711.232, 10.743
712.534, 15.913
713.836, 9.082
715.138, 11.249
716.439, 10.414
717.741, 3.578
719.042, 10.741
720.343, 7.902
721.644, 4.062
722.945, 1.220
724.246, 0.261
725.546, 1.746
726.846, 1.328
728.146, 2.181
729.446, 0.036
730.746, 0.925
732.045, 3.023
733.345, 3.403
734.644, 3.156
735.943, 3.255
737.242, 3.195
738.541, 1.310
739.839, 1.401
741.137, 8.496
742.436, 2.537
743.733, 6.623
745.031, 3.677
746.329, 5.681
747.626, 4.763
748.924, 4.833
750.221, 5.906
751.518, 3.806
752.814, 0.900
754.111, 0.412
755.407, 1.453
756.703, 1.088
757.999, 1.335
759.295, 4.975
760.591, 4.130
761.886, 3.714
763.182, 2.687
764.477, 2.728
765.772, 1.300
767.067, 0.125
768.361, 0.068
769.656, 3.867
770.950, 0.671
772.244, 2.412
773.538, 0.515
774.832, 4.580
776.125, 3.326
777.419, 1.767
778.712, 3.858
780.005, 8.949
781.298, 7.039
782.591, 8.128
783.883, 8.215
785.176, 7.303
786.468, 10.390
787.760, 8.238
789.052, 15.218
790.343, 17.205
791.635, 12.286
792.926, 23.340
794.217, 24.343
795.508, 30.388
796.799, 26.436
798.089, 33.430
799.380, 35.495
800.670, 36.498
801.960, 47.578
803.250, 52.657
804.540, 71.736
805.829, 74.814
807.119, 88.892
808.408, 106.969
809.697, 118.045
810.986, 142.121
812.274, 166.196
813.563, 182.270
814.851, 209.344
816.139, 213.417
817.427, 231.490
818.715, 275.561
820.003, 268.633
821.290, 287.711
822.578, 286.760
823.865, 260.829
825.152, 263.897
826.439, 238.036
827.725, 214.286
829.012, 207.352
830.298, 189.444
831.584, 175.508
832.870, 172.571
834.155, 165.502
835.441, 165.695
836.726, 169.755
838.012, 173.815
839.297, 188.874
840.582, 185.932
841.866, 200.040
843.151, 202.097
844.435, 215.306
845.719, 207.637
847.003, 206.691
848.287, 231.745
849.571, 213.775
850.854, 218.805
852.137, 224.683
853.421, 222.631
854.704, 239.560
855.986, 232.460
857.269, 252.486
858.551, 256.481
859.834, 274.476
861.116, 328.520
862.398, 336.553
863.679, 349.600
864.961, 346.654
866.242, 360.700
867.524, 356.746
868.805, 364.790
870.086, 349.834
871.366, 358.878
872.647, 355.035
873.927, 354.077
875.207, 353.116
876.487, 361.132
877.767, 340.111
879.047, 337.058
880.326, 301.932
881.606, 286.852
882.885, 272.694
884.164, 227.652
885.443, 202.627
886.721, 172.628
888.000, 145.906
889.278, 125.571
890.556, 104.706
891.834, 91.711
893.112, 78.699
894.390, 73.685
895.667, 67.723
896.944, 64.724
898.221, 67.755
899.498, 64.765
900.775, 64.793
902.052, 57.814
903.328, 67.838
904.604, 62.873
905.880, 66.889
907.156, 64.878
908.432, 58.871
909.707, 54.796
910.983, 54.802
912.258, 48.819
913.533, 43.870
914.808, 34.920
916.083, 39.099
917.357, 42.337
918.632, 37.385
919.906, 34.446
921.180, 48.546
922.454, 38.586
923.727, 49.491
925.001, 60.542
926.274, 59.602
927.547, 84.643
928.820, 78.703
930.093, 100.655
931.366, 95.712
932.638, 105.771
933.910, 115.830
935.183, 102.889
936.454, 97.947
937.726, 106.005
938.998, 103.063
940.269, 84.121
941.541, 74.179
942.812, 67.238
944.083, 74.297
945.353, 52.356
946.624, 53.416
947.894, 61.475
949.165, 35.609
950.435, 29.669
951.705, 17.728
952.974, 24.790
954.244, 19.849
955.513, 17.908
956.783, 20.968
958.052, 17.026
959.321, 11.091
960.589, 11.151
961.858, 7.209
963.126, 6.993
964.394, 9.325
965.662, 9.382
966.930, 8.440
968.198, 7.787
969.466, 6.554
970.733, 3.611
972.000, 2.772
973.267, 0.171
974.534, 2.894
975.801, 0.950
977.067, 4.006
978.333, 1.938
979.600, 3.883
980.866, 1.170
982.131, 0.777
983.397, 1.280
984.663, 3.332
985.928, 6.384
987.193, 7.436
988.458, 7.545
989.723, 3.540
990.988, 4.591
992.252, 3.646
993.516, 1.302
994.780, 4.748
996.044, 3.202
997.308, 5.153
998.572, 2.894
999.835, 1.943
1001.099, 4.148
1002.362, 1.194
1003.625, 0.757
1004.887, 0.618
1006.150, 1.429
1007.413, 0.307
1008.675, 2.741
1009.937, 1.938
1011.199, 3.927
1012.461, 1.975
1013.722, 1.048
1014.984, 2.096
1016.245, 0.145
1017.506, 3.193
1018.767, 4.241
1020.028, 10.289
1021.288, 6.337
1022.549, 8.384
1023.809, 2.568
1025.069, 2.478
1026.329, 13.531
1027.589, 0.580
1028.848, 4.626
1030.108, 9.672
1031.367, 0.718
1032.626, 0.235
1033.885, 2.812
1035.144, 0.861
1036.402, 2.909
1037.661, 1.958
1038.919, 0.994
1040.177, 3.055
1041.435, 1.295
1042.693, 3.343
1043.950, 1.392
1045.208, 2.456
1046.465, 6.504
1047.722, 3.553
1048.979, 6.601
1050.235, 5.656
1051.492, 3.704
1052.748, 5.752
1054.005, 1.800
1055.261, 0.848
1056.517, 2.896
1057.772, 1.946
1059.028, 0.006
1060.283, 3.043
1061.538, 6.094
1062.793, 4.144
1064.048, 1.198
1065.303, 2.246
1066.558, 1.706
1067.812, 2.659
1069.066, 4.386
1070.320, 0.570
1071.574, 0.526
1072.828, 7.519
1074.081, 6.564
1075.335, 4.607
1076.588, 5.652
1077.841, 8.696
1079.094, 3.740
1080.347, 5.783
1081.599, 3.826
1082.852, 4.874
1084.104, 3.916
1085.356, 7.959
1086.608, 7.004
1087.859, 10.042
1089.111, 7.083
1090.362, 5.124
1091.614, 4.167
1092.865, 3.248
1094.115, 12.249
1095.366, 4.415
1096.617, 3.457
1097.867, 6.497
1099.117, 0.461
1100.367, 4.578
1101.617, 9.622
1102.867, 2.660
1104.116, 3.700
1105.366, 8.740
1106.615, 4.778
1107.864, 7.816
1109.113, 1.855
1110.362, 2.906
1111.610, 6.943
1112.859, 5.980
1114.107, 9.016
1115.355, 10.148
1116.603, 10.068
1117.850, 11.123
1119.098, 8.223
1120.345, 5.258
1121.593, 0.708
1122.840, 10.325
1124.087, 1.351
1125.333, 4.383
1126.580, 5.416
1127.826, 5.448
1129.072, 4.408
1130.319, 6.257
1131.564, 3.289
1132.810, 2.295
1134.056, 6.326
1135.301, 6.357
1136.546, 10.387
1137.791, 4.418
1139.036, 5.448
1140.281, 7.477
1141.526, 2.507
1142.770, 4.536
1144.014, 4.515
1145.258, 4.543
1146.502, 9.418
1147.746, 5.170
1148.990, 2.198
1150.233, 1.775
1151.476, 3.251
1152.719, 2.277
1153.962, 0.731
1155.205, 4.264
1156.448, 2.711
1157.690, 7.387
1158.932, 0.591
1160.174, 2.429
1161.416, 3.452
1162.658, 0.472
1163.900, 8.489
1165.141, 3.676
1166.382, 6.688
1167.624, 9.707
1168.864, 6.728
1170.105, 8.622
1171.346, 10.764
1172.586, 6.782
1173.827, 4.651
1175.067, 1.669
1176.307, 2.685
1177.546, 5.697
1178.786, 8.713
1180.026, 7.729
1181.265, 8.935
1182.504, 5.731
1183.743, 7.749
1184.982, 6.763
1186.220, 5.778
1187.459, 6.848
1188.697, 5.798
1189.935, 2.188
1191.173, 4.821
1192.411, 5.842
1193.649, 0.850
1194.886, 6.861
1196.124, 5.872
1197.361, 7.882
1198.598, 1.896
1199.835, 8.905
1201.071, 10.915
1202.308, 11.924
1203.544, 4.931
1204.780, 5.933
1206.016, 2.956
1207.252, 4.962
1208.488, 2.948
1209.723, 2.678
1210.959, 2.962
1212.194, 1.969
1213.429, 4.969
1214.664, 4.997
1215.899, 6.877
1217.133, 7.692
1218.368, 4.698
1219.602, 7.641
1220.836, 2.586
1222.070, 2.591
1223.304, 5.595
1224.537, 2.599
1225.770, 5.602
1227.004, 2.606
1228.237, 4.610
1229.470, 7.612
1230.703, 1.615
1231.935, 4.617
1233.168, 4.619
1234.400, 6.621
1235.632, 8.622
1236.864, 8.623
1238.096, 5.624
1239.327, 2.625
1240.559, 5.796
1241.790, 5.797
1243.021, 1.204
1244.252, 2.795
1245.483, 7.793
1246.714, 2.791
1247.944, 3.714
1249.174, 1.714
1250.404, 4.711
1251.634, 2.828
1252.864, 2.827
1254.094, 6.824
1255.323, 4.820
1256.553, 2.816
1257.782, 0.806
1259.011, 6.802
1260.240, 6.797
1261.469, 7.792
1262.697, 3.787
1263.925, 10.781
1265.154, 4.775
1266.382, 0.231
1267.610, 3.763
1268.837, 9.756
1270.065, 7.645
1271.292, 8.638
1272.519, 5.622
1273.747, 8.614
1274.973, 7.607
1276.200, 9.616
1277.427, 7.694
1278.653, 7.554
1279.879, 2.678
1281.106, 5.665
1282.332, 6.656
1283.557, 5.647
1284.783, 10.637
1286.008, 4.628
1287.234, 10.618
1288.459, 14.608
1289.684, 5.594
1290.909, 6.583
1292.133, 9.573
1293.358, 5.562
1294.582, 10.551
1295.806, 7.542
1297.030, 10.529
1298.254, 6.365
1299.478, 10.355
1300.701, 6.342
1301.925, 4.239
1303.148, 6.228
1304.371, 0.999
1305.594, 4.990
1306.816, 6.892
1308.039, 1.878
1309.261, 8.866
1310.484, 6.830
1311.706, 2.182
1312.928, 6.806
1314.149, 4.793
1315.371, 1.780
1316.592, 5.767
1317.814, 6.753
1319.035, 7.738
1320.256, 7.724
1321.477, 5.711
1322.697, 5.690
1323.918, 12.672
1325.138, 7.656
1326.358, 6.640
1327.578, 11.662
1328.798, 5.646
1330.018, 1.630
1331.237, 1.613
1332.456, 9.597
1333.676, 0.417
1334.895, 7.566
1336.113, 5.548
1337.332, 3.337
1338.551, 0.319
1339.769, 7.300
1340.987, 4.266
1342.205, 7.247
1343.423, 9.228
1344.641, 1.209
1345.859, 10.184
1347.076, 3.165
1348.293, 5.145
1349.510, 7.126
1350.727, 3.106
1351.944, 0.086
1353.161, 9.064
1354.377, 1.044
1355.593, 2.022
1356.810, 6.999
1358.026, 7.977
1359.241, 2.951
1360.457, 0.045
1361.673, 0.933
1362.888, 5.912
1364.103, 3.892
1365.318, 5.872
1366.533, 4.852
1367.748, 5.830
1368.962, 8.809
1370.177, 5.789
1371.391, 5.768
1372.605, 6.748
1373.819, 1.727
1375.033, 2.708
1376.246, 7.689
1377.460, 13.663
1378.673, 10.643
1379.886, 8.623
1381.099, 5.603
1382.312, 8.584
1383.524, 5.565
1384.737, 3.546
1385.949, 2.474
1387.161, 4.507
1388.373, 3.490
1389.585, 14.347
1390.797, 4.349
1392.008, 6.335
1393.220, 3.302
1394.431, 1.286
1395.642, 6.273
1396.853, 1.740
1398.064, 1.246
1399.274, 6.219
1400.485, 6.206
1401.695, 10.193
1402.905, 9.111
1404.115, 1.097
1405.325, 4.084
1406.534, 3.071
1407.744, 8.057
1408.953, 7.043
1410.162, 3.026
1411.371, 4.012
1412.580, 11.997
1413.789, 3.982
1414.997, 2.966
1416.206, 7.951
1417.414, 1.936
1418.622, 5.921
1419.830, 1.907
1421.038, 0.107
1422.245, 1.238
1423.453, 3.747
1424.660, 5.736
1425.867, 4.508
1427.074, 1.491
1428.281, 3.477
1429.487, 11.463
1430.694, 3.450
1431.900, 1.436
1433.106, 7.422
1434.312, 3.404
1435.518, 5.719
1436.724, 10.292
1437.929, 7.278
1439.134, 10.251
1440.340, 11.238
1441.545, 2.220
1442.750, 0.207
1443.954, 4.195
1445.159, 9.158
1446.363, 4.139
1447.568, 9.127
1448.772, 3.115
1449.976, 5.058
1451.179, 6.045
1452.383, 10.032
1453.587, 6.020
1454.790, 1.007
1455.993, 12.993
1457.196, 2.981
1458.399, 6.969
1459.601, 4.957
1460.804, 3.945
1462.006, 7.606
1463.209, 4.589
1464.411, 4.574
1465.613, 0.559
1466.814, 4.539
1468.016, 4.266
1469.217, 8.246
1470.419, 8.023
1471.620, 0.799
1472.821, 7.181
1474.021, 4.161
1475.222, 2.141
1476.423, 8.120
1477.623, 0.098
1478.823, 4.077
1480.023, 3.796
1481.223, 3.771
1482.423, 3.749
1483.622, 1.727
1484.822, 0.705
1486.021, 1.174
1487.220, 1.767
1488.419, 2.637
1489.618, 5.615
1490.816, 7.578
1492.015, 10.555
1493.213, 9.975
1494.411, 5.508
1495.609, 9.483
1496.807, 3.454
1498.005, 5.428
1499.202, 6.400
1500.400, 3.382
1501.597, 2.356
1502.794, 7.342
1503.991, 0.667
1505.187, 4.153
1506.384, 2.138
1507.580, 5.110
1508.777, 5.100
1509.973, 7.098
1511.169, 3.096
1512.365, 8.097
1513.560, 4.099
1514.756, 3.104
1515.951, 4.112
1517.146, 7.122
1518.341, 8.137
1519.536, 2.156
1520.731, 3.964
1521.926, 2.989
1523.120, 2.243
1524.314, 6.057
1525.508, 4.099
1526.702, 6.147
1527.896, 9.201
1529.090, 3.280
1530.283, 6.394
1531.476, 5.535
1532.670, 6.717
1533.863, 0.041
1535.055, 9.281
1536.248, 0.000
##END=



