##NAMES=Sulphur
##RRUFFID=R040135
##IDEAL CHEMISTRY=S
##LOCALITY=Sicily, Italy
##OWNER=RRUFF
##SOURCE=University of Arizona Mineral Museum
##DESCRIPTION=Yellow fragments
##STATUS=The identification of this mineral has been confirmed by X-ray diffraction and chemical analysis
##URL=rruff.info/R040135
##MEASURED CHEMISTRY=S_1.00_
##PIN_ID=L00272
##ORIENTATION=Laser parallel to -c* (0 0 -1). Fiducial mark perpendicular to laser is parallel to a [1 0 0]
55.323, 0.000
56.716, 0.023
58.108, 4.237
59.501, 2.230
60.893, 14.277
62.285, 10.894
63.677, 9.337
65.069, 12.161
66.460, 7.863
67.851, 4.302
69.242, 2.306
70.633, 0.766
72.024, 3.272
73.414, 4.965
74.805, 1.313
76.195, 3.348
77.585, 24.904
78.974, 63.413
80.364, 103.155
81.753, 166.108
83.142, 256.252
84.531, 318.570
85.920, 506.048
87.308, 786.672
88.697, 1202.432
90.085, 1501.317
91.473, 1413.331
92.860, 1126.479
94.248, 820.755
95.635, 622.149
97.022, 474.649
98.409, 426.244
99.796, 376.923
101.183, 323.678
102.569, 319.502
103.955, 310.389
105.341, 292.334
106.727, 319.334
108.113, 311.384
109.498, 326.483
110.883, 325.628
112.268, 319.815
113.653, 351.043
115.038, 331.311
116.422, 338.615
117.806, 336.955
119.190, 352.329
120.574, 352.736
121.958, 351.175
123.341, 358.643
124.725, 331.197
126.108, 346.879
127.491, 320.691
128.873, 326.623
130.256, 334.622
131.638, 337.653
133.020, 323.698
134.402, 366.744
135.784, 363.791
137.165, 382.840
138.547, 489.884
139.928, 582.909
141.309, 805.920
142.690, 1213.921
144.070, 1752.914
145.450, 2607.902
146.831, 3960.885
148.211, 4806.382
149.590, 6551.843
150.970, 7400.825
152.349, 8787.809
153.729, 10805.797
155.108, 10815.790
156.487, 7683.790
157.865, 4403.795
159.244, 2343.806
160.622, 1405.824
162.000, 944.849
163.378, 675.881
164.755, 557.921
166.133, 443.969
167.510, 391.024
168.887, 329.086
170.264, 299.157
171.641, 267.236
173.017, 257.323
174.394, 232.417
175.770, 234.520
177.146, 203.631
178.522, 193.749
179.897, 204.875
181.272, 220.009
182.648, 252.149
184.023, 272.297
185.397, 327.452
186.772, 338.614
188.146, 401.783
189.521, 483.958
190.895, 573.141
192.269, 751.839
193.642, 1024.035
195.016, 1164.796
196.389, 1137.815
197.762, 953.575
199.135, 779.417
200.507, 660.519
201.880, 572.797
203.252, 576.341
204.624, 604.194
205.996, 720.091
207.368, 926.446
208.740, 1508.853
210.111, 2503.921
211.482, 3970.979
212.853, 7297.044
214.224, 11973.112
215.594, 15883.185
216.965, 20493.268
218.335, 30413.348
219.705, 35133.445
221.075, 25272.900
222.444, 12362.430
223.814, 5236.036
225.183, 2681.696
226.552, 1637.400
227.921, 1153.145
229.290, 940.919
230.658, 794.719
232.026, 727.552
233.394, 713.418
234.762, 742.315
236.130, 809.209
237.498, 945.071
238.865, 1144.923
240.232, 1542.903
241.599, 2172.867
242.966, 3080.908
244.332, 4523.969
245.699, 5546.046
247.065, 4630.142
248.431, 2975.253
249.797, 1578.378
251.162, 882.518
252.528, 543.672
253.893, 363.838
255.258, 266.016
256.623, 217.208
257.988, 195.412
259.352, 166.625
260.717, 155.848
262.081, 138.082
263.445, 130.325
264.808, 124.576
266.172, 121.835
267.535, 126.102
268.898, 122.377
270.261, 116.660
271.624, 136.951
272.987, 126.249
274.349, 150.553
275.711, 125.864
277.073, 113.181
278.435, 113.504
279.797, 120.833
281.158, 119.169
282.519, 115.763
283.881, 119.863
285.241, 106.221
286.602, 99.586
287.963, 98.957
289.323, 91.333
290.683, 86.716
292.043, 86.118
293.403, 88.633
294.762, 85.880
296.122, 97.273
297.481, 101.667
298.840, 99.064
300.199, 102.462
301.557, 92.862
302.916, 95.264
304.274, 72.668
305.632, 68.073
306.990, 57.481
308.348, 45.891
309.705, 39.303
311.062, 35.716
312.420, 31.132
313.777, 30.550
315.133, 24.971
316.490, 20.980
317.846, 21.238
319.202, 13.248
320.558, 16.678
321.914, 18.110
323.270, 6.544
324.625, 5.979
325.980, 10.583
327.335, 8.147
328.690, 6.712
330.045, 19.278
331.400, 8.847
332.754, 25.418
334.108, 13.995
335.462, 24.574
336.816, 22.159
338.169, 12.748
339.522, 15.340
340.876, 20.936
342.229, 20.536
343.581, 19.827
344.934, 14.751
346.286, 13.364
347.639, 10.981
348.991, 5.600
350.343, 4.221
351.694, 0.844
353.046, 0.466
354.397, 5.090
355.748, 4.278
357.099, 0.638
358.450, 5.985
359.800, 0.680
361.151, 7.642
362.501, 13.954
363.851, 16.253
365.201, 21.544
366.550, 31.829
367.900, 30.111
369.249, 37.406
370.598, 41.999
371.947, 44.949
373.296, 50.229
374.644, 52.510
375.993, 53.793
377.341, 64.077
378.689, 66.362
380.036, 83.649
381.384, 84.937
382.731, 94.229
384.079, 95.525
385.426, 91.825
386.772, 91.129
388.119, 102.436
389.465, 117.747
390.812, 107.061
392.158, 119.377
393.504, 120.696
394.849, 134.018
396.195, 134.342
397.540, 129.669
398.885, 117.997
400.230, 117.328
401.575, 125.662
402.920, 129.997
404.264, 134.334
405.608, 154.672
406.952, 188.012
408.296, 197.354
409.640, 210.696
410.983, 217.039
412.327, 239.384
413.670, 242.731
415.013, 243.080
416.356, 281.435
417.698, 305.211
419.040, 336.563
420.383, 418.917
421.725, 457.271
423.066, 511.773
424.408, 617.202
425.750, 711.561
427.091, 860.925
428.432, 961.298
429.773, 1112.787
431.113, 1213.312
432.454, 1339.876
433.794, 1351.260
435.135, 1402.627
436.474, 1419.117
437.814, 1318.485
439.154, 1255.911
440.493, 1035.353
441.833, 801.193
443.172, 630.759
444.510, 446.809
445.849, 402.651
447.188, 344.476
448.526, 349.283
449.864, 343.822
451.202, 380.721
452.540, 432.088
453.877, 507.503
455.215, 652.023
456.552, 836.402
457.889, 1165.768
459.226, 1555.134
460.562, 2059.499
461.899, 2913.862
463.235, 3807.226
464.571, 5102.589
465.907, 7356.950
467.243, 10401.313
468.578, 15881.673
469.914, 22872.033
471.249, 32432.395
472.584, 40002.754
473.919, 38453.109
475.253, 29693.623
476.588, 18044.109
477.922, 10954.470
479.256, 7070.892
480.590, 4760.260
481.924, 3511.626
483.257, 2717.997
484.591, 2141.356
485.924, 1739.705
487.257, 1414.363
488.590, 1204.144
489.922, 1039.994
491.255, 921.138
492.587, 773.856
493.919, 674.621
495.251, 599.043
496.583, 524.839
497.914, 494.766
499.245, 444.235
500.577, 428.545
501.908, 409.519
503.238, 338.508
504.569, 312.530
505.899, 315.842
507.230, 307.228
508.560, 288.746
509.889, 285.553
511.219, 276.430
512.549, 276.484
513.878, 261.554
515.207, 245.367
516.536, 249.626
517.865, 244.740
519.193, 222.031
520.522, 230.064
521.850, 218.378
523.178, 220.705
524.506, 211.032
525.834, 202.359
527.161, 200.685
528.489, 178.012
529.816, 165.337
531.143, 158.663
532.469, 151.989
533.796, 128.314
535.122, 145.639
536.449, 127.977
537.775, 143.361
539.101, 144.687
540.426, 130.051
541.752, 128.815
543.077, 128.186
544.402, 123.568
545.727, 130.940
547.052, 126.291
548.376, 130.880
549.701, 135.950
551.025, 138.270
552.349, 143.605
553.673, 138.293
554.997, 124.247
556.320, 121.566
557.644, 108.883
558.967, 90.200
560.290, 73.516
561.612, 73.833
562.935, 48.149
564.257, 38.463
565.580, 30.776
566.902, 15.089
568.224, 26.401
569.545, 19.736
570.867, 11.099
572.188, 22.692
573.509, 18.197
574.830, 3.565
576.151, 6.004
577.472, 10.386
578.792, 8.868
580.112, 12.221
581.432, 1.132
582.752, 0.177
584.072, 4.567
585.392, 4.000
586.711, 3.735
588.030, 0.476
589.349, 1.103
590.668, 1.752
591.986, 4.084
593.305, 7.403
594.623, 0.288
595.941, 6.087
597.259, 1.399
598.577, 0.816
599.894, 5.869
601.212, 1.455
602.529, 9.181
603.846, 5.871
605.163, 5.610
606.479, 5.356
607.796, 1.093
609.112, 6.854
610.428, 6.579
611.744, 1.830
613.060, 0.689
614.376, 4.726
615.691, 9.995
617.006, 15.229
618.321, 23.461
619.636, 22.705
620.951, 26.934
622.265, 30.165
623.579, 28.410
624.894, 31.011
626.208, 22.226
627.521, 20.439
628.835, 19.651
630.148, 10.872
631.462, 7.097
632.775, 0.695
634.088, 0.485
635.400, 5.735
636.713, 0.936
638.025, 4.134
639.337, 4.332
640.649, 3.528
641.961, 4.722
643.273, 6.915
644.584, 6.107
645.895, 15.301
647.206, 18.654
648.517, 17.692
649.828, 26.892
651.139, 29.093
652.449, 22.301
653.759, 22.511
655.069, 20.727
656.379, 18.947
657.689, 25.171
658.998, 16.397
660.307, 26.629
661.617, 26.865
662.926, 35.106
664.234, 28.350
665.543, 23.597
666.851, 18.846
668.160, 18.096
669.468, 18.348
670.775, 11.600
672.083, 12.718
673.391, 20.104
674.698, 11.356
676.005, 15.608
677.312, 16.858
678.619, 18.109
679.926, 23.359
681.232, 20.608
682.538, 27.855
683.844, 32.101
685.150, 25.346
686.456, 24.590
687.762, 25.832
689.067, 26.072
690.372, 25.312
691.677, 8.550
692.982, 5.786
694.287, 2.021
695.591, 7.255
696.896, 3.486
698.200, 5.284
699.504, 2.941
700.808, 2.164
702.111, 2.889
703.415, 4.603
704.718, 8.821
706.021, 6.037
707.324, 12.252
708.627, 6.466
709.929, 7.678
711.232, 16.888
712.534, 14.097
713.836, 17.305
715.138, 11.511
716.439, 11.161
717.741, 8.920
719.042, 9.122
720.343, 12.323
721.644, 16.522
722.945, 13.720
724.246, 9.917
725.546, 6.112
726.846, 3.307
728.146, 2.501
729.446, 1.109
730.746, 2.873
732.045, 0.052
733.345, 0.808
734.644, 1.013
735.943, 3.163
737.242, 3.663
738.541, 7.361
739.839, 0.458
741.137, 0.376
742.436, 5.217
743.733, 6.069
745.031, 0.959
746.329, 1.950
747.626, 7.099
748.924, 4.029
750.221, 5.171
751.518, 0.189
752.814, 4.328
754.111, 0.595
755.407, 3.467
756.703, 0.873
757.999, 7.060
759.295, 1.507
760.591, 6.161
761.886, 5.830
763.182, 3.514
764.477, 9.466
765.772, 2.944
767.067, 3.175
768.361, 3.755
769.656, 2.793
770.950, 0.306
772.244, 4.417
773.538, 4.401
774.832, 2.636
776.125, 4.744
777.419, 3.851
778.712, 1.957
780.005, 5.939
781.298, 7.161
782.591, 10.260
783.883, 10.358
785.176, 4.456
786.468, 3.552
787.760, 13.647
789.052, 2.591
790.343, 15.549
791.635, 8.637
792.926, 18.660
794.217, 8.735
795.508, 8.811
796.799, 15.879
798.089, 13.957
799.380, 24.044
800.670, 16.128
801.960, 26.212
803.250, 37.296
804.540, 28.379
805.829, 42.461
807.119, 56.542
808.408, 56.622
809.697, 67.701
810.986, 73.779
812.274, 83.856
813.563, 101.932
814.851, 114.007
816.139, 117.081
817.427, 138.154
818.715, 144.226
820.003, 150.297
821.290, 155.367
822.578, 153.435
823.865, 150.503
825.152, 153.569
826.439, 124.635
827.725, 126.700
829.012, 120.766
830.298, 117.833
831.584, 116.899
832.870, 83.959
834.155, 108.017
835.441, 93.139
836.726, 110.195
838.012, 117.314
839.297, 100.377
840.582, 114.430
841.866, 112.482
843.151, 114.532
844.435, 126.581
845.719, 116.630
847.003, 126.677
848.287, 123.735
849.571, 127.721
850.854, 133.762
852.137, 127.765
853.421, 127.365
854.704, 131.358
855.986, 147.338
857.269, 152.330
858.551, 154.347
859.834, 157.449
861.116, 163.584
862.398, 176.618
863.679, 175.637
864.961, 171.664
866.242, 191.695
867.524, 189.730
868.805, 167.761
870.086, 173.840
871.366, 188.878
872.647, 159.906
873.927, 169.933
875.207, 162.960
876.487, 155.986
877.767, 166.056
879.047, 163.080
880.326, 159.299
881.606, 152.268
882.885, 131.006
884.164, 133.877
885.443, 111.836
886.721, 95.731
888.000, 85.662
889.278, 71.811
890.556, 65.873
891.834, 55.147
893.112, 55.502
894.390, 52.425
895.667, 45.349
896.944, 51.922
898.221, 47.440
899.498, 57.533
900.775, 46.483
902.052, 50.946
903.328, 52.923
904.604, 55.908
905.880, 39.827
907.156, 40.805
908.432, 41.676
909.707, 35.646
910.983, 41.514
912.258, 31.532
913.533, 24.496
914.808, 39.506
916.083, 35.517
917.357, 33.517
918.632, 32.539
919.906, 30.361
921.180, 37.376
922.454, 35.171
923.727, 39.005
925.001, 51.036
926.274, 46.047
927.547, 54.059
928.820, 76.065
930.093, 78.076
931.366, 84.083
932.638, 87.073
933.910, 94.711
935.183, 84.729
936.454, 94.746
937.726, 94.763
938.998, 102.770
940.269, 104.775
941.541, 96.790
942.812, 93.784
944.083, 86.800
945.353, 73.816
946.624, 68.832
947.894, 59.633
949.165, 47.862
950.435, 43.876
951.705, 40.891
952.974, 32.905
954.244, 23.918
955.513, 15.932
956.783, 19.944
958.052, 10.957
959.321, 15.969
960.589, 10.996
961.858, 10.007
963.126, 15.019
964.394, 4.035
965.662, 10.045
966.930, 5.055
968.198, 5.065
969.466, 8.075
970.733, 16.204
972.000, 14.486
973.267, 10.221
974.534, 13.229
975.801, 9.237
977.067, 3.307
978.333, 5.314
979.600, 2.320
980.866, 1.824
982.131, 1.339
983.397, 1.344
984.663, 4.350
985.928, 3.422
987.193, 1.571
988.458, 4.433
989.723, 1.564
990.988, 0.441
992.252, 5.443
993.516, 2.448
994.780, 3.449
996.044, 4.451
997.308, 2.452
998.572, 7.453
999.835, 0.547
1001.099, 14.460
1002.362, 8.460
1003.625, 10.460
1004.887, 5.460
1006.150, 2.461
1007.413, 6.462
1008.675, 1.464
1009.937, 0.465
1011.199, 1.526
1012.461, 2.526
1013.722, 2.486
1014.984, 5.485
1016.245, 3.529
1017.506, 6.537
1018.767, 1.761
1020.028, 2.939
1021.288, 0.960
1022.549, 0.821
1023.809, 5.212
1025.069, 4.209
1026.329, 8.207
1027.589, 8.204
1028.848, 0.746
1030.108, 7.250
1031.367, 3.754
1032.626, 6.239
1033.885, 11.233
1035.144, 0.772
1036.402, 5.223
1037.661, 5.218
1038.919, 3.214
1040.177, 4.213
1041.435, 5.221
1042.693, 0.217
1043.950, 5.785
1045.208, 6.210
1046.465, 0.755
1047.722, 5.253
1048.979, 4.249
1050.235, 2.753
1051.492, 6.249
1052.748, 4.247
1054.005, 7.251
1055.261, 13.253
1056.517, 12.062
1057.772, 12.182
1059.028, 11.251
1060.283, 8.251
1061.538, 7.986
1062.793, 0.252
1064.048, 6.252
1065.303, 5.252
1066.558, 6.252
1067.812, 14.258
1069.066, 7.258
1070.320, 8.258
1071.574, 0.258
1072.828, 0.120
1074.081, 4.261
1075.335, 0.738
1076.588, 3.263
1077.841, 7.263
1079.094, 1.263
1080.347, 10.263
1081.599, 3.263
1082.852, 5.264
1084.104, 2.264
1085.356, 3.265
1086.608, 5.266
1087.859, 12.267
1089.111, 9.269
1090.362, 2.270
1091.614, 8.270
1092.865, 16.270
1094.115, 6.270
1095.366, 4.270
1096.617, 10.272
1097.867, 5.271
1099.117, 11.270
1100.367, 9.269
1101.617, 9.288
1102.867, 8.309
1104.116, 5.307
1105.366, 9.309
1106.615, 6.306
1107.864, 5.316
1109.113, 6.313
1110.362, 0.310
1111.610, 8.406
1112.859, 3.402
1114.107, 2.399
1115.355, 5.396
1116.603, 5.392
1117.850, 8.498
1119.098, 8.493
1120.345, 1.512
1121.593, 10.482
1122.840, 4.476
1124.087, 6.469
1125.333, 10.465
1126.580, 0.531
1127.826, 8.461
1129.072, 5.453
1130.319, 2.443
1131.564, 11.440
1132.810, 5.425
1134.056, 17.411
1135.301, 0.564
1136.546, 3.426
1137.791, 4.361
1139.036, 8.350
1140.281, 3.275
1141.526, 6.254
1142.770, 3.242
1144.014, 4.230
1145.258, 11.225
1146.502, 5.212
1147.746, 9.199
1148.990, 8.186
1150.233, 2.147
1151.476, 5.134
1152.719, 8.120
1153.962, 15.106
1155.205, 9.092
1156.448, 9.082
1157.690, 13.067
1158.932, 4.058
1160.174, 2.034
1161.416, 13.954
1162.658, 0.821
1163.900, 6.805
1165.141, 0.201
1166.382, 1.790
1167.624, 2.972
1168.864, 2.232
1170.105, 1.012
1171.346, 2.921
1172.586, 2.111
1173.827, 6.865
1175.067, 8.840
1176.307, 11.815
1177.546, 0.210
1178.786, 11.720
1180.026, 9.694
1181.265, 5.449
1182.504, 9.423
1183.743, 5.396
1184.982, 11.323
1186.220, 7.296
1187.459, 6.268
1188.697, 3.273
1189.935, 1.245
1191.173, 11.217
1192.411, 4.176
1193.649, 5.798
1194.886, 0.231
1196.124, 0.692
1197.361, 6.662
1198.598, 12.632
1199.835, 2.439
1201.071, 7.412
1202.308, 2.382
1203.544, 2.956
1204.780, 12.321
1206.016, 6.290
1207.252, 5.263
1208.488, 8.232
1209.723, 12.201
1210.959, 9.169
1212.194, 8.127
1213.429, 8.100
1214.664, 12.074
1215.899, 2.053
1217.133, 14.027
1218.368, 8.997
1219.602, 3.964
1220.836, 11.918
1222.070, 2.860
1223.304, 5.826
1224.537, 8.744
1225.770, 7.710
1227.004, 10.696
1228.237, 11.653
1229.470, 4.769
1230.703, 11.733
1231.935, 10.704
1233.168, 8.663
1234.400, 11.627
1235.632, 7.590
1236.864, 3.553
1238.096, 7.524
1239.327, 12.482
1240.559, 18.444
1241.790, 4.405
1243.021, 6.367
1244.252, 3.352
1245.483, 7.312
1246.714, 6.272
1247.944, 14.232
1249.174, 0.191
1250.404, 0.150
1251.634, 5.109
1252.864, 3.067
1254.094, 12.024
1255.323, 0.982
1256.553, 3.939
1257.782, 7.918
1259.011, 1.127
1260.240, 4.829
1261.469, 4.879
1262.697, 3.829
1263.925, 10.784
1265.154, 1.262
1266.382, 5.692
1267.610, 7.645
1268.837, 14.479
1270.065, 14.432
1271.292, 14.384
1272.519, 3.337
1273.747, 1.289
1274.973, 15.179
1276.200, 6.130
1277.427, 13.082
1278.653, 2.027
1279.879, 11.985
1281.106, 8.943
1282.332, 0.100
1283.557, 4.782
1284.783, 1.729
1286.008, 8.677
1287.234, 5.626
1288.459, 4.572
1289.684, 6.520
1290.909, 15.466
1292.133, 2.414
1293.358, 14.361
1294.582, 7.309
1295.806, 12.256
1297.030, 11.203
1298.254, 12.143
1299.478, 6.090
1300.701, 9.037
1301.925, 8.983
1303.148, 2.930
1304.371, 13.876
1305.594, 1.822
1306.816, 4.767
1308.039, 12.705
1309.261, 14.650
1310.484, 13.583
1311.706, 1.529
1312.928, 2.427
1314.149, 3.638
1315.371, 3.080
1316.592, 3.859
1317.814, 2.698
1319.035, 7.646
1320.256, 4.417
1321.477, 6.359
1322.697, 8.301
1323.918, 8.242
1325.138, 12.131
1326.358, 10.072
1327.578, 8.013
1328.798, 9.954
1330.018, 11.901
1331.237, 3.841
1332.456, 4.782
1333.676, 9.723
1334.895, 0.337
1336.113, 6.600
1337.332, 10.529
1338.551, 8.468
1339.769, 9.408
1340.987, 8.349
1342.205, 7.200
1343.423, 12.184
1344.641, 4.127
1345.859, 6.068
1347.076, 3.208
1348.293, 8.170
1349.510, 7.106
1350.727, 9.045
1351.944, 7.987
1353.161, 2.928
1354.377, 3.870
1355.593, 5.811
1356.810, 9.751
1358.026, 3.819
1359.241, 2.759
1360.457, 2.864
1361.673, 1.305
1362.888, 2.573
1364.103, 3.514
1365.318, 5.460
1366.533, 9.402
1367.748, 12.372
1368.962, 9.316
1370.177, 3.257
1371.391, 7.193
1372.605, 0.128
1373.819, 9.062
1375.033, 1.997
1376.246, 5.932
1377.460, 2.860
1378.673, 8.787
1379.886, 5.713
1381.099, 12.637
1382.312, 5.558
1383.524, 2.477
1384.737, 6.438
1385.949, 13.355
1387.161, 8.271
1388.373, 5.186
1389.585, 0.093
1390.797, 9.994
1392.008, 6.911
1393.220, 10.790
1394.431, 4.718
1395.642, 6.643
1396.853, 15.587
1398.064, 5.522
1399.274, 9.365
1400.485, 11.311
1401.695, 11.255
1402.905, 0.081
1404.115, 1.025
1405.325, 9.970
1406.534, 1.102
1407.744, 10.843
1408.953, 7.778
1410.162, 8.722
1411.371, 14.626
1412.580, 8.559
1413.789, 9.503
1414.997, 8.447
1416.206, 7.382
1417.414, 6.326
1418.622, 7.027
1419.830, 7.473
1421.038, 8.149
1422.245, 8.080
1423.453, 7.023
1424.660, 2.965
1425.867, 2.884
1427.074, 2.489
1428.281, 11.427
1429.487, 4.373
1430.694, 12.319
1431.900, 10.267
1433.106, 7.214
1434.312, 8.161
1435.518, 10.109
1436.724, 9.010
1437.929, 6.957
1439.134, 4.905
1440.340, 8.852
1441.545, 4.801
1442.750, 8.743
1443.954, 15.688
1445.159, 12.634
1446.363, 15.572
1447.568, 13.517
1448.772, 7.449
1449.976, 17.364
1451.179, 6.291
1452.383, 12.234
1453.587, 16.176
1454.790, 9.111
1455.993, 14.128
1457.196, 5.686
1458.399, 11.613
1459.601, 9.550
1460.804, 1.474
1462.006, 14.412
1463.209, 2.350
1464.411, 7.241
1465.613, 9.180
1466.814, 16.121
1468.016, 14.903
1469.217, 11.003
1470.419, 11.896
1471.620, 16.807
1472.821, 12.534
1474.021, 3.472
1475.222, 9.411
1476.423, 8.349
1477.623, 13.288
1478.823, 12.225
1480.023, 6.163
1481.223, 14.082
1482.423, 5.983
1483.622, 12.926
1484.822, 13.869
1486.021, 3.812
1487.220, 12.755
1488.419, 4.698
1489.618, 9.641
1490.816, 2.417
1492.015, 1.525
1493.213, 18.467
1494.411, 9.409
1495.609, 5.352
1496.807, 6.294
1498.005, 5.246
1499.202, 7.142
1500.400, 9.053
1501.597, 0.994
1502.794, 14.959
1503.991, 17.914
1505.187, 19.875
1506.384, 6.815
1507.580, 7.783
1508.777, 4.753
1509.973, 5.727
1511.169, 1.704
1512.365, 4.650
1513.560, 12.616
1514.756, 5.152
1515.951, 8.057
1517.146, 12.951
1518.341, 3.832
1519.536, 7.671
1520.731, 6.469
1521.926, 5.241
1523.120, 7.916
1524.314, 6.245
1525.508, 12.737
1526.702, 15.373
1527.896, 0.158
1529.090, 19.480
1530.283, 8.068
1531.476, 3.708
1532.670, 4.934
1533.863, 4.074
1535.055, 0.010
1536.248, 0.000
##END=



