##NAMES=Sulphur
##RRUFFID=R050006
##IDEAL CHEMISTRY=S
##LOCALITY=San Felipe, Mexicali, Baja California Norte, Mexico
##OWNER=RRUFF
##SOURCE=Eugene Schlepp
##DESCRIPTION=Yellow single crystal
##STATUS=The identification of this mineral has been confirmed by X-ray diffraction and chemical analysis
##URL=rruff.info/R050006
##MEASURED CHEMISTRY=S_1.00_
##PIN_ID=L00477
##ORIENTATION=Laser parallel to -b* (0 -1 0). Fiducial mark perpendicular to laser is parallel to -c [0 0 -1]
52.261, 0.000
53.667, 5.802
55.072, 10.695
56.477, 14.460
57.882, 24.509
59.287, 23.145
60.691, 17.901
62.095, 16.146
63.499, 24.345
64.903, 29.435
66.306, 18.111
67.709, 6.845
69.112, 6.961
70.515, 0.576
71.917, 2.204
73.319, 6.279
74.721, 7.372
76.123, 15.771
77.525, 0.938
78.926, 1.893
80.327, 10.347
81.728, 34.767
83.128, 85.354
84.529, 118.095
85.929, 185.981
87.329, 280.002
88.728, 459.151
90.128, 698.432
91.527, 947.847
92.926, 903.393
94.324, 735.059
95.723, 594.834
97.121, 526.707
98.519, 455.670
99.917, 448.715
101.314, 450.834
102.712, 500.024
104.109, 516.279
105.505, 538.596
106.902, 598.972
108.298, 570.404
109.694, 656.890
111.090, 642.428
112.486, 639.016
113.881, 665.652
115.277, 722.336
116.672, 729.064
118.066, 705.836
119.461, 715.651
120.855, 683.508
122.249, 675.405
123.643, 708.352
125.036, 659.378
126.430, 654.539
127.823, 657.799
129.216, 642.168
130.608, 636.621
132.001, 667.114
133.393, 668.623
134.785, 656.147
136.176, 720.680
137.568, 763.203
138.959, 850.721
140.350, 1003.235
141.741, 1300.747
143.131, 1974.258
144.521, 3127.771
145.911, 5363.284
147.301, 8609.803
148.691, 11599.313
150.080, 12797.833
151.469, 12306.360
152.858, 11644.902
154.247, 11343.449
155.635, 10552.018
157.024, 8896.595
158.411, 6879.182
159.799, 4952.787
161.187, 3321.404
162.574, 2311.036
163.961, 1665.683
165.348, 1248.345
166.734, 975.023
168.121, 779.716
169.507, 669.425
170.893, 548.149
172.278, 509.890
173.664, 446.647
175.049, 435.419
176.434, 413.208
177.819, 377.011
179.203, 369.831
180.587, 389.666
181.971, 402.247
183.355, 432.381
184.739, 488.262
186.122, 553.158
187.505, 593.340
188.888, 674.994
190.271, 697.934
191.653, 751.889
193.035, 813.865
194.417, 992.669
195.799, 1132.603
197.180, 1132.648
198.562, 1072.557
199.943, 901.525
201.324, 836.806
202.704, 723.039
204.084, 759.763
205.465, 766.558
206.844, 903.257
208.224, 1156.432
209.603, 1671.949
210.983, 2885.926
212.362, 5859.916
213.740, 11862.919
215.119, 19841.939
216.497, 24740.963
217.875, 29580.006
219.253, 34268.340
220.631, 37616.738
222.008, 34875.176
223.385, 23653.662
224.762, 13092.172
226.139, 7518.712
227.515, 4586.278
228.891, 2846.866
230.267, 1857.468
231.643, 1331.068
233.018, 1071.700
234.394, 979.368
235.769, 911.068
237.144, 959.684
238.518, 953.444
239.893, 920.233
241.267, 918.760
242.641, 976.962
244.014, 1150.812
245.388, 1482.672
246.761, 1881.584
248.134, 2012.518
249.507, 1807.473
250.879, 1187.448
252.252, 765.443
253.624, 552.456
254.996, 394.489
256.367, 311.538
257.739, 254.605
259.110, 203.689
260.481, 171.789
261.852, 181.905
263.222, 162.040
264.592, 145.190
265.962, 143.357
267.332, 136.543
268.702, 139.741
270.071, 146.956
271.440, 153.182
272.809, 168.422
274.178, 174.676
275.546, 164.944
276.915, 172.011
278.283, 146.529
279.650, 164.846
281.018, 149.175
282.385, 136.516
283.752, 138.870
285.119, 138.234
286.486, 137.609
287.852, 141.994
289.218, 121.392
290.584, 116.804
291.950, 122.225
293.316, 123.657
294.681, 146.098
296.046, 137.547
297.411, 139.005
298.775, 146.470
300.140, 140.942
301.504, 135.839
302.868, 131.519
304.231, 120.405
305.595, 117.908
306.958, 118.418
308.321, 118.937
309.684, 86.462
311.047, 108.996
312.409, 85.537
313.771, 77.086
315.133, 88.643
316.495, 73.207
317.856, 83.781
319.217, 62.363
320.578, 76.957
321.939, 70.558
323.299, 56.169
324.660, 69.787
326.020, 52.412
327.380, 56.046
328.739, 34.686
330.099, 13.334
331.458, 0.989
332.817, 16.350
334.176, 6.315
335.534, 3.987
336.892, 18.335
338.251, 3.653
339.608, 16.966
340.966, 16.277
342.323, 37.584
343.681, 16.893
345.037, 38.199
346.394, 17.508
347.751, 7.814
349.107, 21.115
350.463, 2.416
351.819, 26.711
353.174, 25.007
354.530, 16.302
355.885, 18.595
357.240, 15.886
358.594, 17.180
359.949, 1.524
361.303, 22.772
362.657, 4.920
364.011, 10.396
365.365, 10.285
366.718, 42.965
368.071, 38.639
369.424, 49.310
370.777, 48.978
372.129, 48.647
373.481, 55.601
374.833, 61.995
376.185, 65.678
377.537, 71.367
378.888, 80.061
380.239, 93.761
381.590, 103.466
382.941, 113.198
384.291, 120.907
385.642, 133.642
386.992, 141.627
388.341, 171.138
389.691, 163.898
391.040, 165.666
392.389, 184.441
393.738, 159.225
395.087, 171.016
396.435, 170.815
397.784, 161.623
399.132, 187.438
400.479, 200.261
401.827, 211.091
403.174, 232.928
404.521, 249.773
405.868, 318.628
407.215, 369.490
408.561, 467.358
409.908, 578.233
411.254, 659.114
412.599, 742.001
413.945, 739.894
415.290, 803.796
416.636, 674.705
417.980, 698.621
419.325, 722.555
420.670, 735.487
422.014, 863.476
423.358, 971.489
424.702, 1098.398
426.045, 1297.355
427.389, 1463.901
428.732, 1722.030
430.075, 2002.004
431.417, 2308.981
432.760, 2565.147
434.102, 2798.167
435.444, 2936.554
436.786, 3021.859
438.127, 3274.911
439.469, 3170.724
440.810, 3227.885
442.151, 2944.101
443.492, 2392.299
444.832, 1873.544
446.172, 1341.576
447.512, 991.627
448.852, 759.693
450.192, 642.188
451.531, 641.148
452.870, 609.220
454.209, 662.765
455.548, 749.013
456.887, 939.073
458.225, 1252.258
459.563, 1624.326
460.901, 2363.396
462.238, 3141.474
463.576, 4458.552
464.913, 6186.634
466.250, 8164.722
467.587, 11984.813
468.923, 16254.903
470.259, 23144.996
471.596, 29165.096
472.931, 37595.191
474.267, 47665.297
475.603, 47815.402
476.938, 42735.516
478.273, 30435.947
479.608, 20186.248
480.942, 13397.330
482.276, 8883.540
483.611, 6260.891
484.944, 4450.049
486.278, 3302.240
487.612, 2640.502
488.945, 2023.631
490.278, 1645.761
491.611, 1418.894
492.943, 1197.023
494.276, 1062.456
495.608, 954.593
496.940, 883.732
498.271, 754.055
499.603, 755.041
500.934, 639.424
502.265, 602.837
503.596, 554.148
504.927, 486.522
506.257, 459.788
507.587, 420.124
508.917, 388.916
510.247, 378.063
511.577, 334.084
512.906, 341.944
514.235, 331.885
515.564, 328.260
516.892, 303.522
518.221, 300.912
519.549, 314.234
520.877, 275.588
522.205, 290.624
523.533, 288.794
524.860, 285.443
526.187, 282.004
527.514, 269.019
528.841, 262.966
530.167, 236.144
531.493, 227.323
532.820, 204.504
534.145, 204.686
535.471, 206.870
536.796, 194.056
538.122, 221.280
539.447, 208.468
540.771, 187.658
542.096, 203.850
543.420, 174.918
544.744, 187.158
546.068, 199.353
547.392, 201.612
548.715, 216.810
550.039, 203.008
551.362, 183.207
552.684, 190.407
554.007, 196.666
555.329, 173.995
556.652, 155.292
557.973, 161.534
559.295, 129.892
560.617, 102.096
561.938, 77.386
563.259, 77.596
564.580, 55.803
565.901, 53.154
567.221, 14.360
568.541, 19.588
569.861, 8.795
571.181, 29.120
572.501, 21.413
573.820, 28.191
575.139, 13.671
576.458, 15.165
577.777, 4.292
579.095, 11.786
580.414, 2.468
581.732, 1.898
583.049, 13.831
584.367, 7.447
585.685, 7.338
587.002, 17.149
588.319, 6.053
589.636, 10.539
590.952, 0.284
592.268, 4.005
593.585, 3.806
594.900, 2.146
596.216, 14.721
597.532, 10.544
598.847, 16.398
600.162, 0.139
601.477, 0.338
602.792, 0.352
604.106, 17.205
605.420, 6.395
606.734, 5.627
608.048, 4.105
609.361, 11.986
610.675, 6.148
611.988, 4.747
613.301, 0.384
614.614, 15.659
615.926, 1.875
617.238, 16.878
618.550, 30.282
619.862, 28.979
621.174, 38.066
622.485, 36.152
623.797, 32.695
625.108, 31.777
626.418, 28.735
627.729, 20.937
629.039, 21.014
630.349, 28.117
631.659, 19.191
632.969, 11.304
634.279, 12.499
635.588, 1.432
636.897, 0.953
638.206, 11.732
639.515, 4.317
640.823, 0.363
642.131, 7.405
643.439, 5.444
644.747, 2.481
646.055, 12.057
647.362, 28.546
648.669, 27.576
649.976, 33.603
651.283, 41.629
652.589, 40.655
653.896, 53.680
655.202, 63.702
656.508, 58.727
657.814, 67.750
659.119, 56.774
660.424, 71.800
661.729, 53.832
663.034, 53.865
664.339, 52.904
665.643, 39.945
666.947, 37.986
668.251, 33.031
669.555, 40.074
670.859, 29.121
672.162, 31.171
673.465, 12.223
674.768, 36.276
676.071, 27.330
677.373, 1.387
678.676, 48.438
679.978, 19.493
681.280, 28.545
682.581, 22.597
683.883, 47.647
685.184, 25.694
686.485, 32.740
687.786, 56.782
689.087, 50.823
690.387, 28.860
691.687, 24.895
692.987, 40.928
694.287, 9.958
695.586, 24.986
696.886, 18.012
698.185, 26.035
699.484, 8.945
700.783, 10.065
702.081, 21.073
703.379, 9.078
704.677, 34.080
705.975, 32.078
707.273, 28.074
708.570, 18.068
709.868, 10.061
711.165, 6.050
712.462, 8.036
713.758, 12.018
715.055, 4.997
716.351, 17.971
717.647, 8.943
718.943, 16.911
720.238, 17.875
721.533, 5.837
722.829, 20.795
724.124, 14.750
725.418, 23.701
726.713, 7.650
728.007, 9.594
729.301, 3.465
730.595, 1.468
731.889, 1.209
733.182, 6.685
734.476, 1.217
735.769, 1.878
737.061, 2.973
738.354, 11.801
739.647, 9.733
740.939, 15.620
742.231, 19.920
743.523, 13.639
744.814, 0.485
746.106, 24.387
747.397, 6.073
748.688, 14.906
749.978, 3.627
751.269, 0.079
752.559, 12.723
753.849, 15.765
755.139, 2.459
756.429, 2.899
757.719, 0.242
759.008, 4.398
760.297, 6.194
761.586, 2.998
762.875, 0.790
764.163, 13.154
765.451, 9.053
766.739, 20.842
768.027, 8.158
769.315, 1.229
770.602, 0.572
771.890, 2.249
773.177, 0.043
774.463, 8.167
775.750, 14.616
777.036, 26.396
778.323, 5.826
779.609, 22.946
780.894, 14.716
782.180, 30.483
783.465, 38.247
784.750, 9.010
786.035, 16.769
787.320, 7.526
788.605, 0.281
789.889, 34.032
791.173, 20.456
792.457, 7.983
793.741, 30.784
795.024, 25.434
796.307, 25.938
797.591, 39.638
798.873, 40.304
800.156, 42.898
801.439, 50.609
802.721, 45.351
804.003, 51.073
805.285, 66.794
806.566, 47.513
807.848, 37.231
809.129, 81.947
810.410, 60.660
811.691, 107.372
812.971, 119.081
814.252, 114.788
815.532, 155.493
816.812, 166.200
818.092, 166.901
819.371, 203.658
820.651, 188.354
821.930, 213.435
823.209, 207.152
824.488, 190.848
825.766, 205.535
827.045, 182.219
828.323, 181.898
829.601, 152.578
830.878, 150.255
832.156, 174.736
833.433, 139.409
834.710, 139.080
835.987, 130.748
837.264, 115.417
838.540, 127.282
839.817, 153.897
841.093, 143.561
842.369, 156.222
843.644, 159.881
844.920, 155.538
846.195, 159.216
847.470, 191.034
848.745, 180.747
850.020, 177.395
851.294, 195.136
852.568, 178.780
853.842, 190.571
855.116, 216.364
856.390, 218.001
857.663, 216.572
858.936, 232.205
860.209, 248.835
861.482, 259.464
862.755, 240.692
864.027, 286.258
865.299, 262.788
866.571, 281.322
867.843, 313.901
869.115, 276.362
870.386, 266.976
871.657, 279.502
872.928, 256.108
874.199, 271.715
875.470, 242.188
876.740, 279.792
878.010, 272.373
879.280, 245.973
880.550, 250.461
881.820, 216.980
883.089, 208.036
884.358, 193.356
885.627, 182.523
886.896, 192.336
888.164, 138.637
889.433, 126.202
890.701, 137.561
891.969, 85.102
893.236, 90.606
894.504, 100.170
895.771, 94.778
897.038, 88.344
898.305, 83.623
899.572, 77.210
900.838, 98.681
902.105, 105.270
903.371, 103.363
904.637, 85.687
905.902, 82.254
907.168, 84.844
908.433, 56.315
909.698, 54.563
910.963, 67.978
912.228, 50.142
913.492, 69.671
914.757, 54.156
916.021, 40.073
917.285, 63.665
918.548, 44.233
919.812, 68.828
921.075, 57.392
922.338, 53.864
923.601, 75.337
924.864, 74.837
926.126, 84.298
927.388, 101.281
928.650, 104.883
929.912, 141.473
931.174, 105.704
932.435, 154.292
933.697, 140.879
934.958, 152.481
936.218, 155.065
937.479, 105.621
938.739, 112.204
940.000, 104.744
941.260, 122.199
942.520, 130.783
943.779, 104.363
945.039, 121.374
946.298, 91.958
947.557, 77.541
948.816, 65.546
950.074, 56.129
951.333, 45.711
952.591, 39.294
953.849, 26.877
955.107, 25.466
956.365, 31.061
957.622, 26.670
958.879, 43.522
960.136, 14.100
961.393, 23.705
962.650, 44.298
963.906, 8.874
965.162, 31.457
966.418, 12.075
967.674, 6.649
968.930, 11.222
970.185, 1.241
971.441, 16.365
972.696, 8.065
973.950, 1.501
975.205, 6.071
976.459, 24.635
977.714, 28.212
978.968, 12.807
980.222, 17.370
981.475, 20.972
982.729, 13.532
983.982, 19.093
985.235, 13.653
986.488, 12.213
987.740, 13.513
988.993, 12.825
990.245, 3.371
991.497, 19.526
992.749, 22.080
994.000, 32.634
995.252, 11.273
996.503, 2.826
997.754, 3.588
999.005, 2.036
1000.256, 24.517
1001.506, 1.932
1002.756, 24.619
1004.006, 2.168
1005.256, 4.267
1006.506, 22.299
1007.755, 40.891
1009.005, 9.441
1010.254, 24.012
1011.502, 11.560
1012.751, 10.835
1014.000, 26.707
1015.248, 0.248
1016.496, 6.789
1017.744, 26.330
1018.991, 22.871
1020.239, 21.412
1021.486, 20.952
1022.733, 16.492
1023.980, 21.031
1025.227, 5.575
1026.473, 24.122
1027.719, 35.768
1028.965, 10.323
1030.211, 6.861
1031.457, 6.399
1032.702, 0.937
1033.948, 14.494
1035.193, 7.051
1036.438, 28.593
1037.682, 14.138
1038.927, 8.303
1040.171, 16.240
1041.415, 2.812
1042.659, 23.377
1043.903, 17.920
1045.146, 3.688
1046.390, 24.229
1047.633, 11.771
1048.876, 12.314
1050.118, 33.856
1051.361, 4.398
1052.603, 19.940
1053.845, 22.483
1055.087, 30.029
1056.329, 26.575
1057.571, 29.358
1058.812, 30.016
1060.053, 27.800
1061.294, 28.346
1062.535, 23.894
1063.775, 18.483
1065.016, 7.970
1066.256, 9.573
1067.496, 10.115
1068.736, 33.685
1069.975, 11.226
1071.214, 0.234
1072.454, 28.306
1073.693, 18.847
1074.931, 11.390
1076.170, 18.952
1077.408, 7.559
1078.647, 28.112
1079.885, 1.348
1081.122, 16.193
1082.360, 18.734
1083.597, 6.274
1084.835, 13.813
1086.072, 26.351
1087.308, 13.897
1088.545, 23.456
1089.781, 28.001
1091.018, 9.546
1092.254, 28.091
1093.490, 8.642
1094.725, 15.187
1095.961, 30.744
1097.196, 6.672
1098.431, 35.868
1099.666, 11.406
1100.900, 22.256
1102.135, 12.793
1103.369, 9.329
1104.603, 7.893
1105.837, 4.452
1107.071, 4.012
1108.304, 13.520
1109.538, 5.051
1110.771, 7.618
1112.004, 26.148
1113.236, 9.776
1114.469, 1.304
1115.701, 15.831
1116.933, 37.370
1118.165, 36.965
1119.397, 15.430
1120.629, 22.954
1121.860, 24.089
1123.091, 10.592
1124.322, 18.106
1125.553, 8.655
1126.783, 4.205
1128.014, 20.724
1129.244, 2.241
1130.474, 24.758
1131.704, 25.273
1132.933, 15.825
1134.163, 14.339
1135.392, 11.147
1136.621, 17.363
1137.850, 36.868
1139.079, 4.776
1140.307, 30.725
1141.535, 21.225
1142.763, 0.276
1143.991, 13.222
1145.219, 5.302
1146.446, 16.708
1147.674, 20.456
1148.901, 24.039
1150.128, 26.437
1151.354, 16.929
1152.581, 10.395
1153.807, 9.686
1155.033, 3.176
1156.259, 18.665
1157.485, 8.153
1158.710, 16.640
1159.936, 1.147
1161.161, 18.029
1162.386, 32.531
1163.611, 23.054
1164.835, 18.529
1166.060, 22.010
1167.284, 16.524
1168.508, 28.004
1169.732, 22.482
1170.955, 19.986
1172.179, 12.463
1173.402, 12.092
1174.625, 0.434
1175.848, 10.039
1177.070, 22.539
1178.293, 14.002
1179.515, 14.463
1180.737, 9.899
1181.959, 10.059
1183.181, 16.840
1184.402, 16.305
1185.624, 10.769
1186.845, 20.789
1188.066, 7.250
1189.286, 8.691
1190.507, 37.192
1191.727, 2.350
1192.947, 35.083
1194.167, 18.580
1195.387, 23.033
1196.607, 24.549
1197.826, 22.461
1199.045, 14.430
1200.264, 29.919
1201.483, 27.908
1202.702, 34.363
1203.920, 8.811
1205.138, 22.257
1206.356, 7.297
1207.574, 27.142
1208.792, 32.581
1210.009, 5.018
1211.227, 16.453
1212.444, 38.416
1213.661, 27.881
1214.877, 8.313
1216.094, 27.759
1217.310, 25.188
1218.526, 44.561
1219.742, 29.136
1220.958, 14.562
1222.173, 9.987
1223.389, 28.410
1224.604, 0.825
1225.819, 39.273
1227.034, 24.616
1228.248, 54.033
1229.463, 28.461
1230.677, 23.874
1231.891, 23.288
1233.105, 26.687
1234.318, 14.098
1235.532, 35.577
1236.745, 22.999
1237.958, 31.401
1239.171, 15.805
1240.384, 30.199
1241.596, 14.601
1242.809, 8.008
1244.021, 29.985
1245.233, 38.382
1246.444, 2.221
1247.656, 45.174
1248.867, 41.567
1250.079, 6.431
1251.290, 19.808
1252.500, 20.168
1253.711, 28.284
1254.921, 26.672
1256.132, 9.043
1257.342, 36.417
1258.552, 1.802
1259.761, 29.193
1260.971, 44.532
1262.180, 13.913
1263.389, 4.306
1264.598, 45.686
1265.807, 30.061
1267.015, 27.432
1268.223, 16.805
1269.432, 32.172
1270.640, 11.543
1271.847, 10.899
1273.055, 46.289
1274.262, 35.656
1275.470, 31.981
1276.677, 24.346
1277.883, 9.788
1279.090, 34.150
1280.296, 27.511
1281.503, 17.129
1282.709, 31.488
1283.915, 25.846
1285.120, 18.862
1286.326, 30.219
1287.531, 38.575
1288.736, 40.843
1289.941, 6.682
1291.146, 3.635
1292.350, 3.990
1293.555, 25.353
1294.759, 34.696
1295.963, 37.037
1297.167, 45.883
1298.370, 35.715
1299.574, 47.039
1300.777, 24.335
1301.980, 27.672
1303.183, 37.987
1304.386, 13.322
1305.588, 34.597
1306.790, 13.969
1307.993, 4.303
1309.195, 27.620
1310.396, 18.935
1311.598, 10.248
1312.799, 21.561
1314.000, 23.872
1315.201, 12.182
1316.402, 23.491
1317.603, 0.789
1318.803, 33.084
1320.003, 21.276
1321.203, 11.559
1322.403, 28.856
1323.603, 30.151
1324.802, 33.445
1326.002, 31.721
1327.201, 14.996
1328.400, 28.286
1329.599, 44.574
1330.797, 15.846
1331.995, 40.133
1333.194, 17.391
1334.392, 8.653
1335.589, 36.935
1336.787, 30.990
1337.985, 8.267
1339.182, 40.543
1340.379, 5.817
1341.576, 30.089
1342.772, 23.360
1343.969, 8.629
1345.165, 5.105
1346.361, 17.891
1347.557, 28.152
1348.753, 40.387
1349.949, 21.646
1351.144, 24.340
1352.339, 22.597
1353.534, 23.853
1354.729, 31.065
1355.924, 39.318
1357.118, 10.573
1358.312, 24.827
1359.506, 15.051
1360.700, 22.303
1361.894, 36.554
1363.088, 1.805
1364.281, 32.054
1365.474, 24.275
1366.667, 18.474
1367.860, 17.693
1369.052, 11.894
1370.245, 12.108
1371.437, 49.318
1372.629, 15.549
1373.821, 14.750
1375.013, 19.948
1376.204, 27.847
1377.395, 31.331
1378.586, 5.486
1379.777, 14.650
1380.968, 22.803
1382.159, 25.949
1383.349, 25.271
1384.539, 32.546
1385.729, 16.876
1386.919, 41.883
1388.109, 68.154
1389.298, 19.473
1390.487, 39.794
1391.676, 32.074
1392.865, 3.716
1394.054, 58.581
1395.242, 21.819
1396.431, 35.132
1397.619, 44.436
1398.807, 15.679
1399.995, 16.987
1401.182, 48.294
1402.370, 14.557
1403.557, 50.859
1404.744, 36.169
1405.931, 15.482
1407.118, 46.793
1408.304, 36.267
1409.490, 47.023
1410.676, 46.317
1411.862, 30.609
1413.048, 31.901
1414.234, 55.192
1415.419, 7.455
1416.604, 53.621
1417.789, 46.907
1418.974, 22.147
1420.159, 5.395
1421.343, 42.448
1422.528, 33.729
1423.712, 38.969
1424.896, 37.248
1426.079, 38.506
1427.263, 30.785
1428.446, 22.047
1429.629, 20.255
1430.812, 42.534
1431.995, 3.748
1433.178, 45.927
1434.360, 12.140
1435.543, 34.535
1436.725, 32.790
1437.907, 37.049
1439.088, 15.312
1440.270, 44.575
1441.451, 18.780
1442.632, 45.017
1443.813, 32.017
1444.994, 17.276
1446.175, 74.528
1447.355, 49.687
1448.535, 9.924
1449.715, 22.154
1450.895, 56.554
1452.075, 59.586
1453.255, 35.784
1454.434, 38.980
1455.613, 48.162
1456.792, 35.355
1457.971, 48.543
1459.149, 44.674
1460.328, 29.836
1461.506, 14.968
1462.684, 48.105
1463.862, 18.210
1465.040, 47.315
1466.217, 61.452
1467.395, 35.602
1468.572, 49.746
1469.749, 52.743
1470.925, 17.872
1472.102, 45.781
1473.278, 32.897
1474.455, 34.005
1475.631, 39.104
1476.807, 22.195
1477.982, 46.899
1479.158, 27.882
1480.333, 32.958
1481.508, 31.989
1482.683, 55.041
1483.858, 19.084
1485.033, 40.111
1486.207, 27.992
1487.381, 8.943
1488.555, 34.183
1489.729, 30.303
1490.903, 22.416
1492.076, 35.563
1493.250, 26.995
1494.423, 41.858
1495.596, 22.005
1496.769, 22.154
1497.941, 18.692
1499.114, 45.474
1500.286, 18.642
1501.458, 43.840
1502.630, 37.052
1503.802, 28.282
1504.973, 57.539
1506.145, 11.784
1507.316, 18.639
1508.487, 50.443
1509.657, 0.181
1510.828, 31.832
1511.999, 18.365
1513.169, 0.732
1514.339, 34.853
1515.509, 36.573
1516.678, 0.067
1517.848, 24.292
1519.017, 11.767
1520.187, 0.061
1521.356, 44.645
1522.524, 0.000
##END=



