##NAMES=Sulphur
##RRUFFID=R040135
##IDEAL CHEMISTRY=S
##LOCALITY=Sicily, Italy
##OWNER=RRUFF
##SOURCE=University of Arizona Mineral Museum
##DESCRIPTION=Yellow fragments
##STATUS=The identification of this mineral has been confirmed by X-ray diffraction and chemical analysis
##URL=rruff.info/R040135
##MEASURED CHEMISTRY=S_1.00_
##PIN_ID=L00492
##ORIENTATION=Laser parallel to b* (0 1 0). Fiducial mark perpendicular to laser is parallel to -c [0 0 -1]
55.323, 0.000
56.716, 3.099
58.108, 17.725
59.501, 12.258
60.893, 26.207
62.285, 12.482
63.677, 32.166
65.069, 23.644
66.460, 7.845
67.851, 4.683
69.242, 4.068
70.633, 3.927
72.024, 3.800
73.414, 6.163
74.805, 5.199
76.195, 6.062
77.585, 14.594
78.974, 27.369
80.364, 66.366
81.753, 104.561
83.142, 216.938
84.531, 331.479
85.920, 417.172
87.308, 502.002
88.697, 610.960
90.085, 668.037
91.473, 634.227
92.860, 514.538
94.248, 400.971
95.635, 305.516
97.022, 224.162
98.409, 212.899
99.796, 181.716
101.183, 176.606
102.569, 172.561
103.955, 162.576
105.341, 164.648
106.727, 164.771
108.113, 176.943
109.498, 187.161
110.883, 175.422
112.268, 212.724
113.653, 223.065
115.038, 191.443
116.422, 198.857
117.806, 197.304
119.190, 199.784
120.574, 197.295
121.958, 190.836
123.341, 202.405
124.725, 209.004
126.108, 224.668
127.491, 209.458
128.873, 219.381
130.256, 254.403
131.638, 257.509
133.020, 286.631
134.402, 308.754
135.784, 344.878
137.165, 388.003
138.547, 459.124
139.928, 561.226
141.309, 751.316
142.690, 1064.395
144.070, 1601.468
145.450, 2548.535
146.831, 4205.599
148.211, 6429.658
149.590, 9150.719
150.970, 12113.774
152.349, 14733.840
153.729, 16573.910
155.108, 15463.977
156.487, 11534.051
157.865, 7076.136
159.244, 4061.222
160.622, 2398.318
162.000, 1522.418
163.378, 1035.526
164.755, 808.640
166.133, 636.762
167.510, 511.891
168.887, 447.027
170.264, 378.171
171.641, 327.322
173.017, 311.481
174.394, 305.647
175.770, 266.821
177.146, 280.002
178.522, 282.190
179.897, 317.386
181.272, 349.588
182.648, 373.797
184.023, 409.013
185.397, 439.235
186.772, 456.464
188.146, 410.700
189.521, 390.941
190.895, 343.189
192.269, 331.442
193.642, 350.783
195.016, 331.721
196.389, 360.038
197.762, 336.566
199.135, 364.169
200.507, 380.627
201.880, 416.830
203.252, 461.985
204.624, 565.061
205.996, 690.245
207.368, 992.512
208.740, 1417.764
210.111, 2266.889
211.482, 3893.019
212.853, 7762.154
214.224, 14243.294
215.594, 20413.438
216.965, 26843.584
218.335, 38553.738
219.705, 40923.883
221.075, 29583.445
222.444, 15483.091
223.814, 6662.802
225.183, 3253.563
226.552, 1897.364
227.921, 1288.203
229.290, 1047.071
230.658, 881.953
232.026, 794.869
233.394, 735.817
234.762, 688.794
236.130, 597.797
237.498, 581.724
238.865, 525.618
240.232, 518.575
241.599, 558.668
242.966, 616.779
244.332, 691.909
245.699, 781.054
247.065, 788.215
248.431, 781.392
249.797, 666.583
251.162, 516.787
252.528, 354.005
253.893, 253.237
255.258, 176.482
256.623, 162.737
257.988, 137.004
259.352, 124.280
260.717, 112.566
262.081, 108.861
263.445, 111.163
264.808, 106.475
266.172, 107.681
267.535, 104.216
268.898, 109.458
270.261, 94.799
271.624, 96.149
272.987, 86.505
274.349, 91.868
275.711, 101.238
277.073, 78.613
278.435, 86.995
279.797, 93.382
281.158, 73.776
282.519, 68.176
283.881, 73.584
285.241, 80.997
286.602, 70.414
287.963, 81.837
289.323, 69.264
290.683, 84.696
292.043, 89.132
293.403, 85.572
294.762, 93.015
296.122, 93.461
297.481, 98.908
298.840, 75.357
300.199, 98.808
301.557, 71.260
302.916, 66.713
304.274, 64.168
305.632, 50.624
306.990, 56.082
308.348, 54.542
309.705, 45.003
311.062, 35.466
312.420, 42.931
313.777, 38.398
315.133, 45.866
316.490, 45.336
317.846, 47.808
319.202, 46.729
320.558, 48.756
321.914, 38.232
323.270, 27.710
324.625, 16.190
325.980, 17.671
327.335, 11.153
328.690, 1.636
330.045, 5.121
331.400, 2.606
332.754, 6.908
334.108, 15.423
335.462, 10.942
336.816, 18.463
338.169, 10.989
339.522, 22.517
340.876, 23.051
342.229, 20.591
343.581, 23.136
344.934, 12.687
346.286, 12.242
347.639, 14.799
348.991, 9.362
350.343, 18.927
351.694, 19.497
353.046, 14.073
354.397, 10.652
355.748, 7.236
357.099, 2.756
358.450, 3.829
359.800, 6.983
361.151, 17.372
362.501, 26.745
363.851, 31.105
365.201, 52.456
366.550, 55.799
367.900, 54.130
369.249, 63.452
370.598, 59.769
371.947, 56.087
373.296, 58.405
374.644, 64.724
375.993, 76.044
377.341, 66.365
378.689, 86.687
380.036, 81.011
381.384, 85.335
382.731, 88.661
384.079, 79.990
385.426, 81.322
386.772, 86.657
388.119, 92.995
389.465, 97.336
390.812, 94.098
392.158, 83.023
393.504, 84.370
394.849, 70.718
396.195, 65.069
397.540, 80.420
398.885, 80.774
400.230, 94.129
401.575, 97.802
402.920, 100.844
404.264, 105.204
405.608, 103.565
406.952, 105.926
408.296, 129.288
409.640, 125.767
410.983, 142.131
412.327, 134.694
413.670, 143.083
415.013, 166.040
416.356, 185.786
417.698, 215.156
419.040, 234.630
420.383, 279.096
421.725, 297.466
423.066, 332.873
424.408, 411.245
425.750, 458.940
427.091, 523.316
428.432, 605.985
429.773, 631.354
431.113, 691.741
432.454, 743.556
433.794, 784.012
435.135, 823.542
436.474, 888.057
437.814, 892.521
439.154, 870.134
440.493, 758.612
441.833, 597.493
443.172, 443.044
444.510, 342.084
445.849, 276.670
447.188, 251.044
448.526, 239.668
449.864, 256.157
451.202, 277.820
452.540, 329.295
453.877, 377.060
455.215, 484.590
456.552, 626.272
457.889, 825.634
459.226, 1136.019
460.562, 1494.370
461.899, 2022.719
463.235, 2700.070
464.571, 3683.417
465.907, 5323.764
467.243, 7633.109
468.578, 11231.451
469.914, 15311.823
471.249, 19722.193
472.584, 22852.588
473.919, 20782.965
475.253, 15593.298
476.588, 9963.633
477.922, 6250.963
479.256, 4154.325
480.590, 2801.683
481.924, 2109.009
483.257, 1628.409
484.591, 1310.738
485.924, 1097.059
487.257, 901.379
488.590, 766.697
489.922, 673.991
491.255, 567.313
492.587, 509.587
493.919, 448.373
495.251, 427.678
496.583, 377.227
497.914, 347.333
499.245, 332.861
500.577, 282.709
501.908, 258.515
503.238, 253.486
504.569, 235.268
505.899, 213.653
507.230, 187.055
508.560, 178.298
509.889, 192.866
511.219, 172.849
512.549, 164.791
513.878, 166.042
515.207, 142.490
516.536, 146.125
517.865, 140.998
519.193, 148.182
520.522, 151.434
521.850, 127.712
523.178, 139.989
524.506, 119.264
525.834, 119.539
527.161, 115.812
528.489, 112.085
529.816, 92.356
531.143, 102.627
532.469, 85.898
533.796, 103.167
535.122, 89.434
536.449, 83.736
537.775, 89.007
539.101, 86.628
540.426, 88.044
541.752, 98.178
543.077, 93.440
544.402, 93.704
545.727, 100.985
547.052, 113.246
548.376, 102.510
549.701, 101.766
551.025, 107.020
552.349, 89.273
553.673, 98.525
554.997, 72.787
556.320, 78.036
557.644, 63.284
558.967, 44.531
560.290, 31.776
561.612, 26.030
562.935, 17.273
564.257, 21.565
565.580, 20.805
566.902, 11.045
568.224, 0.295
569.545, 6.647
570.867, 0.926
572.188, 4.610
573.509, 6.984
574.830, 3.551
576.151, 8.825
577.472, 1.143
578.792, 1.413
580.112, 8.669
581.432, 3.895
582.752, 7.104
584.072, 2.680
585.392, 6.519
586.711, 2.280
588.030, 7.947
589.349, 5.138
590.668, 4.647
591.986, 1.645
593.305, 0.063
594.623, 0.132
595.941, 1.350
597.259, 1.461
598.577, 1.028
599.894, 5.481
601.212, 0.225
602.529, 8.035
603.846, 0.810
605.163, 6.357
606.479, 1.489
607.796, 0.661
609.112, 2.204
610.428, 0.926
611.744, 3.942
613.060, 0.231
614.376, 2.697
615.691, 6.417
617.006, 4.530
618.321, 9.640
619.636, 15.837
620.951, 24.207
622.265, 24.312
623.579, 11.428
624.894, 18.530
626.208, 20.630
627.521, 4.736
628.835, 4.832
630.148, 2.927
631.462, 4.019
632.775, 8.109
634.088, 9.197
635.400, 9.283
636.713, 4.368
638.025, 4.451
639.337, 7.532
640.649, 1.612
641.961, 6.689
643.273, 9.764
644.584, 9.837
645.895, 7.909
647.206, 2.980
648.517, 6.049
649.828, 6.038
651.139, 12.182
652.449, 10.248
653.759, 12.318
655.069, 12.390
656.379, 22.465
657.689, 14.542
658.998, 15.625
660.307, 3.712
661.617, 9.803
662.926, 11.900
664.234, 9.999
665.543, 13.101
666.851, 5.205
668.160, 10.312
669.468, 9.423
670.775, 12.538
672.083, 6.656
673.391, 10.777
674.698, 16.899
676.005, 12.021
677.312, 22.143
678.619, 21.263
679.926, 20.382
681.232, 25.499
682.538, 22.925
683.844, 18.729
685.150, 22.842
686.456, 20.953
687.762, 23.063
689.067, 8.171
690.372, 20.278
691.677, 22.383
692.982, 3.486
694.287, 7.588
695.591, 4.312
696.896, 4.784
698.200, 8.877
699.504, 9.971
700.808, 8.063
702.111, 5.153
703.415, 8.242
704.718, 7.329
706.021, 11.415
707.324, 13.499
708.627, 9.582
709.929, 13.663
711.232, 6.743
712.534, 9.821
713.836, 11.898
715.138, 12.974
716.439, 11.048
717.741, 7.120
719.042, 11.191
720.343, 2.261
721.644, 12.328
722.945, 9.395
724.246, 6.459
725.546, 0.594
726.846, 1.834
728.146, 3.674
729.446, 1.642
730.746, 2.179
732.045, 1.984
733.345, 0.814
734.644, 0.478
735.943, 1.425
737.242, 4.465
738.541, 7.468
739.839, 5.504
741.137, 8.215
742.436, 7.244
743.733, 1.978
745.031, 9.011
746.329, 3.023
747.626, 1.394
748.924, 1.455
750.221, 3.409
751.518, 0.285
752.814, 3.212
754.111, 5.011
755.407, 5.104
756.703, 1.602
757.999, 0.227
759.295, 1.434
760.591, 0.828
761.886, 2.448
763.182, 2.105
764.477, 4.987
765.772, 5.692
767.067, 3.585
768.361, 3.184
769.656, 12.017
770.950, 11.697
772.244, 10.694
773.538, 4.665
774.832, 2.331
776.125, 5.329
777.419, 7.670
778.712, 0.668
780.005, 3.665
781.298, 8.662
782.591, 1.658
783.883, 9.624
785.176, 8.590
786.468, 6.528
787.760, 6.483
789.052, 15.476
790.343, 7.468
791.635, 6.459
792.926, 17.419
794.217, 21.379
795.508, 18.369
796.799, 28.283
798.089, 13.266
799.380, 42.254
800.670, 37.241
801.960, 45.228
803.250, 68.169
804.540, 56.145
805.829, 73.121
807.119, 79.105
808.408, 87.089
809.697, 106.072
810.986, 117.054
812.274, 141.043
813.563, 141.024
814.851, 159.005
816.139, 197.956
817.427, 189.935
818.715, 212.914
820.003, 202.892
821.290, 210.870
822.578, 192.832
823.865, 204.809
825.152, 211.784
826.439, 180.759
827.725, 174.729
829.012, 143.702
830.298, 129.675
831.584, 138.647
832.870, 135.618
834.155, 122.589
835.441, 131.559
836.726, 129.528
838.012, 142.497
839.297, 138.465
840.582, 132.432
841.866, 160.398
843.151, 162.366
844.435, 176.329
845.719, 170.293
847.003, 176.256
848.287, 174.184
849.571, 176.141
850.854, 179.522
852.137, 181.708
853.421, 183.902
854.704, 199.864
855.986, 197.846
857.269, 213.049
858.551, 235.744
859.834, 239.696
861.116, 250.654
862.398, 264.644
863.679, 276.601
864.961, 288.558
866.242, 287.503
867.524, 301.458
868.805, 298.413
870.086, 274.367
871.366, 285.321
872.647, 290.275
873.927, 306.239
875.207, 294.140
876.487, 289.183
877.767, 284.044
879.047, 258.982
880.326, 237.833
881.606, 218.592
882.885, 185.476
884.164, 165.392
885.443, 159.013
886.721, 115.796
888.000, 102.837
889.278, 78.731
890.556, 81.638
891.834, 66.573
893.112, 54.522
894.390, 67.463
895.667, 54.417
896.944, 51.366
898.221, 73.287
899.498, 52.241
900.775, 64.182
902.052, 60.030
903.328, 55.876
904.604, 64.816
905.880, 53.147
907.156, 60.087
908.432, 42.725
909.707, 40.412
910.983, 43.276
912.258, 39.320
913.533, 37.209
914.808, 26.216
916.083, 28.236
917.357, 26.954
918.632, 31.167
919.906, 32.397
921.180, 33.361
922.454, 39.326
923.727, 34.295
925.001, 61.266
926.274, 50.237
927.547, 70.251
928.820, 60.132
930.093, 89.839
931.366, 74.809
932.638, 90.766
933.910, 73.735
935.183, 81.704
936.454, 90.664
937.726, 82.633
938.998, 79.601
940.269, 76.570
941.541, 67.539
942.812, 54.513
944.083, 51.481
945.353, 48.449
946.624, 44.417
947.894, 39.477
949.165, 36.353
950.435, 27.321
951.705, 25.289
952.974, 17.259
954.244, 9.227
955.513, 18.194
956.783, 23.161
958.052, 8.128
959.321, 8.099
960.589, 12.065
961.858, 13.032
963.126, 5.998
964.394, 0.036
965.662, 4.929
966.930, 2.203
968.198, 3.859
969.466, 6.840
970.733, 5.821
972.000, 8.794
973.267, 4.818
974.534, 5.783
975.801, 4.747
977.067, 7.711
978.333, 5.400
979.600, 4.638
980.866, 4.601
982.131, 2.657
983.397, 7.620
984.663, 1.582
985.928, 10.545
987.193, 5.619
988.458, 12.581
989.723, 5.548
990.988, 8.510
992.252, 8.472
993.516, 7.433
994.780, 1.395
996.044, 4.356
997.308, 6.317
998.572, 2.293
999.835, 5.262
1001.099, 6.260
1002.362, 12.222
1003.625, 0.465
1004.887, 4.397
1006.150, 2.577
1007.413, 0.462
1008.675, 3.499
1009.937, 1.460
1011.199, 10.444
1012.461, 18.404
1013.722, 0.635
1014.984, 7.324
1016.245, 4.284
1017.506, 9.256
1018.767, 7.215
1020.028, 5.174
1021.288, 9.133
1022.549, 7.092
1023.809, 0.117
1025.069, 0.090
1026.329, 10.056
1027.589, 2.014
1028.848, 8.988
1030.108, 4.946
1031.367, 0.097
1032.626, 1.861
1033.885, 4.180
1035.144, 9.777
1036.402, 0.735
1037.661, 1.697
1038.919, 3.344
1040.177, 7.614
1041.435, 3.614
1042.693, 6.572
1043.950, 10.530
1045.208, 11.487
1046.465, 14.445
1047.722, 6.417
1048.979, 5.374
1050.235, 8.331
1051.492, 0.504
1052.748, 10.460
1054.005, 3.431
1055.261, 8.388
1056.517, 6.645
1057.772, 8.308
1059.028, 10.261
1060.283, 0.697
1061.538, 9.258
1062.793, 1.770
1064.048, 3.184
1065.303, 0.849
1066.558, 0.885
1067.812, 8.067
1069.066, 1.020
1070.320, 4.028
1071.574, 14.922
1072.828, 8.872
1074.081, 11.821
1075.335, 16.770
1076.588, 10.719
1077.841, 0.333
1079.094, 4.615
1080.347, 4.563
1081.599, 14.519
1082.852, 14.467
1084.104, 4.415
1085.356, 9.362
1086.608, 5.309
1087.859, 4.256
1089.111, 7.213
1090.362, 4.235
1091.614, 9.181
1092.865, 3.134
1094.115, 5.079
1095.366, 16.024
1096.617, 11.969
1097.867, 5.913
1099.117, 8.856
1100.367, 4.799
1101.617, 10.742
1102.867, 3.685
1104.116, 4.627
1105.366, 14.569
1106.615, 11.510
1107.864, 8.451
1109.113, 3.392
1110.362, 9.332
1111.610, 14.271
1112.859, 10.211
1114.107, 15.151
1115.355, 5.083
1116.603, 7.022
1117.850, 5.960
1119.098, 0.904
1120.345, 0.841
1121.593, 2.785
1122.840, 0.278
1124.087, 13.661
1125.333, 9.596
1126.580, 6.531
1127.826, 14.484
1129.072, 7.418
1130.319, 15.352
1131.564, 0.715
1132.810, 6.216
1134.056, 9.148
1135.301, 16.079
1136.546, 0.989
1137.791, 6.955
1139.036, 3.885
1140.281, 12.825
1141.526, 12.754
1142.770, 7.682
1144.014, 9.610
1145.258, 6.535
1146.502, 11.462
1147.746, 1.392
1148.990, 3.512
1150.233, 0.438
1151.476, 7.576
1152.719, 4.499
1153.962, 0.587
1155.205, 2.100
1156.448, 8.041
1157.690, 7.950
1158.932, 7.869
1160.174, 0.783
1161.416, 17.706
1162.658, 8.628
1163.900, 19.512
1165.141, 5.450
1166.382, 2.366
1167.624, 10.311
1168.864, 6.225
1170.105, 6.140
1171.346, 20.053
1172.586, 0.033
1173.827, 1.868
1175.067, 3.772
1176.307, 15.683
1177.546, 1.591
1178.786, 8.501
1180.026, 7.411
1181.265, 6.314
1182.504, 16.225
1183.743, 8.893
1184.982, 12.802
1186.220, 4.700
1187.459, 10.603
1188.697, 5.318
1189.935, 0.224
1191.173, 6.130
1192.411, 11.034
1193.649, 5.939
1194.886, 12.843
1196.124, 1.746
1197.361, 11.657
1198.598, 13.560
1199.835, 2.525
1201.071, 7.363
1202.308, 2.263
1203.544, 8.163
1204.780, 3.061
1206.016, 12.543
1207.252, 7.441
1208.488, 0.661
1209.723, 11.181
1210.959, 1.077
1212.194, 13.855
1213.429, 1.755
1214.664, 2.597
1215.899, 11.424
1217.133, 8.548
1218.368, 7.430
1219.602, 8.059
1220.836, 4.950
1222.070, 5.926
1223.304, 11.750
1224.537, 7.641
1225.770, 9.532
1227.004, 13.385
1228.237, 20.278
1229.470, 3.167
1230.703, 10.056
1231.935, 11.945
1233.168, 6.847
1234.400, 14.735
1235.632, 6.622
1236.864, 2.509
1238.096, 0.588
1239.327, 7.310
1240.559, 3.240
1241.790, 11.076
1243.021, 4.963
1244.252, 7.846
1245.483, 11.737
1246.714, 11.619
1247.944, 9.503
1249.174, 9.384
1250.404, 11.264
1251.634, 12.146
1252.864, 14.034
1254.094, 10.914
1255.323, 5.794
1256.553, 7.673
1257.782, 7.547
1259.011, 9.425
1260.240, 12.381
1261.469, 13.448
1262.697, 7.149
1263.925, 15.026
1265.154, 8.903
1266.382, 3.782
1267.610, 14.643
1268.837, 3.502
1270.065, 13.370
1271.292, 4.185
1272.519, 7.069
1273.747, 17.941
1274.973, 0.812
1276.200, 11.683
1277.427, 19.554
1278.653, 13.424
1279.879, 10.202
1281.106, 10.071
1282.332, 14.092
1283.557, 20.960
1284.783, 1.731
1286.008, 14.599
1287.234, 2.462
1288.459, 12.329
1289.684, 18.196
1290.909, 11.063
1292.133, 13.930
1293.358, 15.848
1294.582, 4.713
1295.806, 2.437
1297.030, 13.420
1298.254, 2.753
1299.478, 5.109
1300.701, 1.622
1301.925, 13.380
1303.148, 0.238
1304.371, 1.100
1305.594, 11.972
1306.816, 6.855
1308.039, 3.691
1309.261, 3.558
1310.484, 10.418
1311.706, 0.277
1312.928, 8.135
1314.149, 0.019
1315.371, 8.839
1316.592, 11.696
1317.814, 6.553
1319.035, 15.410
1320.256, 10.201
1321.477, 4.042
1322.697, 18.890
1323.918, 9.746
1325.138, 11.585
1326.358, 6.440
1327.578, 2.295
1328.798, 3.503
1330.018, 11.002
1331.237, 4.857
1332.456, 10.711
1333.676, 14.562
1334.895, 13.416
1336.113, 8.270
1337.332, 13.083
1338.551, 12.106
1339.769, 8.798
1340.987, 12.650
1342.205, 10.501
1343.423, 3.486
1344.641, 12.337
1345.859, 2.186
1347.076, 12.820
1348.293, 19.670
1349.510, 19.506
1350.727, 8.354
1351.944, 10.210
1353.161, 10.060
1354.377, 9.910
1355.593, 8.770
1356.810, 7.521
1358.026, 5.353
1359.241, 3.203
1360.457, 2.038
1361.673, 9.878
1362.888, 3.273
1364.103, 7.576
1365.318, 5.424
1366.533, 6.273
1367.748, 9.124
1368.962, 0.969
1370.177, 14.814
1371.391, 16.815
1372.605, 3.660
1373.819, 4.504
1375.033, 13.347
1376.246, 5.183
1377.460, 15.026
1378.673, 1.869
1379.886, 12.711
1381.099, 5.553
1382.312, 9.395
1383.524, 1.216
1384.737, 1.972
1385.949, 4.801
1387.161, 8.640
1388.373, 4.479
1389.585, 9.303
1390.797, 3.121
1392.008, 11.957
1393.220, 4.735
1394.431, 8.599
1395.642, 9.462
1396.853, 4.324
1398.064, 3.186
1399.274, 12.048
1400.485, 13.909
1401.695, 9.769
1402.905, 6.623
1404.115, 10.475
1405.325, 0.670
1406.534, 9.190
1407.744, 2.028
1408.953, 7.887
1410.162, 11.746
1411.371, 4.604
1412.580, 18.446
1413.789, 12.291
1414.997, 5.149
1416.206, 9.006
1417.414, 2.627
1418.622, 9.223
1419.830, 12.059
1421.038, 7.888
1422.245, 19.724
1423.453, 18.573
1424.660, 6.421
1425.867, 13.248
1427.074, 1.936
1428.281, 13.918
1429.487, 1.773
1430.694, 10.623
1431.900, 14.478
1433.106, 24.318
1434.312, 9.164
1435.518, 5.019
1436.724, 7.873
1437.929, 0.272
1439.134, 6.583
1440.340, 5.438
1441.545, 12.282
1442.750, 15.118
1443.954, 9.974
1445.159, 23.830
1446.363, 11.686
1447.568, 3.543
1448.772, 14.389
1449.976, 3.227
1451.179, 0.700
1452.383, 21.552
1453.587, 3.375
1454.790, 6.226
1455.993, 16.061
1457.196, 7.911
1458.399, 5.735
1459.601, 16.585
1460.804, 11.403
1462.006, 17.225
1463.209, 7.071
1464.411, 11.905
1465.613, 5.754
1466.814, 8.606
1468.016, 7.433
1469.217, 12.284
1470.419, 11.134
1471.620, 7.814
1472.821, 5.630
1474.021, 6.476
1475.222, 6.985
1476.423, 12.156
1477.623, 12.976
1478.823, 12.829
1480.023, 18.684
1481.223, 18.538
1482.423, 12.995
1483.622, 2.804
1484.822, 18.649
1486.021, 8.495
1487.220, 1.663
1488.419, 14.026
1489.618, 16.865
1490.816, 6.704
1492.015, 15.542
1493.213, 14.352
1494.411, 22.082
1495.609, 1.897
1496.807, 27.738
1498.005, 5.579
1499.202, 13.420
1500.400, 6.262
1501.597, 16.103
1502.794, 15.943
1503.991, 15.783
1505.187, 8.628
1506.384, 18.474
1507.580, 6.321
1508.777, 17.167
1509.973, 10.020
1511.169, 5.822
1512.365, 9.814
1513.560, 5.641
1514.756, 1.533
1515.951, 14.295
1517.146, 11.994
1518.341, 9.806
1519.536, 20.620
1520.731, 13.428
1521.926, 7.229
1523.120, 11.020
1524.314, 7.774
1525.508, 13.621
1526.702, 10.279
1527.896, 9.863
1529.090, 13.372
1530.283, 0.767
1531.476, 0.976
1532.670, 3.478
1533.863, 4.080
1535.055, 0.026
1536.248, 0.000
##END=



