##NAMES=Sulphur
##RRUFFID=R040135
##IDEAL CHEMISTRY=S
##LOCALITY=Sicily, Italy
##OWNER=RRUFF
##SOURCE=University of Arizona Mineral Museum
##DESCRIPTION=Yellow fragments
##STATUS=The identification of this mineral has been confirmed by X-ray diffraction and chemical analysis
##URL=rruff.info/R040135
##MEASURED CHEMISTRY=S_1.00_
##PIN_ID=L00267
##ORIENTATION=Laser parallel to -a* (-1 0 0). Fiducial mark perpendicular to laser is parallel to b [0 1 0]
55.323, 0.000
56.716, 4.447
58.108, 12.932
59.501, 12.007
60.893, 10.599
62.285, 18.252
63.677, 12.019
65.069, 2.740
66.460, 10.380
67.851, 1.195
69.242, 4.907
70.633, 6.403
72.024, 8.199
73.414, 12.458
74.805, 6.523
76.195, 15.960
77.585, 33.735
78.974, 66.813
80.364, 138.166
81.753, 239.767
83.142, 434.593
84.531, 652.622
85.920, 950.839
87.308, 1311.228
88.697, 1820.773
90.085, 2130.467
91.473, 1837.311
92.860, 1517.311
94.248, 1033.460
95.635, 778.747
97.022, 593.157
98.409, 495.677
99.796, 434.295
101.183, 404.001
102.569, 343.786
103.955, 348.644
105.341, 349.570
106.727, 336.559
108.113, 327.606
109.498, 324.709
110.883, 337.864
112.268, 351.068
113.653, 348.320
115.038, 347.615
116.422, 331.954
117.806, 341.333
119.190, 362.750
120.574, 345.205
121.958, 367.696
123.341, 339.234
124.725, 360.865
126.108, 351.635
127.491, 359.564
128.873, 342.608
130.256, 353.745
131.638, 349.935
133.020, 353.133
134.402, 360.330
135.784, 355.527
137.165, 386.724
138.547, 418.916
139.928, 486.084
141.309, 602.236
142.690, 764.374
144.070, 1106.503
145.450, 1619.623
146.831, 2674.735
148.211, 4073.844
149.590, 5661.954
150.970, 7864.066
152.349, 10843.181
153.729, 14013.299
155.108, 13173.423
156.487, 9096.554
157.865, 4863.688
159.244, 2573.832
160.622, 1535.981
162.000, 980.139
163.378, 746.304
164.755, 568.476
166.133, 474.657
167.510, 425.846
168.887, 346.043
170.264, 308.249
171.641, 292.463
173.017, 252.686
174.394, 229.918
175.770, 217.158
177.146, 216.406
178.522, 219.663
179.897, 217.927
181.272, 253.200
182.648, 271.479
184.023, 279.767
185.397, 315.062
186.772, 374.364
188.146, 403.673
189.521, 502.990
190.895, 684.428
192.269, 892.823
193.642, 1205.079
195.016, 1412.987
196.389, 1369.830
197.762, 1124.576
199.135, 916.095
200.507, 725.665
201.880, 620.036
203.252, 593.286
204.624, 612.792
205.996, 692.948
207.368, 797.776
208.740, 1134.965
210.111, 1717.121
211.482, 2746.283
212.853, 5176.451
214.224, 9366.625
215.594, 14520.798
216.965, 21840.977
218.335, 36761.160
219.705, 41911.348
221.075, 29500.852
222.444, 13610.450
223.814, 5689.119
225.183, 2971.838
226.552, 1749.607
227.921, 1268.417
229.290, 1017.241
230.658, 875.096
232.026, 817.010
233.394, 775.906
234.762, 820.896
236.130, 832.747
237.498, 984.596
238.865, 1243.677
240.232, 1725.785
241.599, 2534.917
242.966, 3733.072
244.332, 5828.249
245.699, 6717.445
247.065, 5773.660
248.431, 3429.893
249.797, 1845.143
251.162, 1062.409
252.528, 624.690
253.893, 428.986
255.258, 326.295
256.623, 238.617
257.988, 222.951
259.352, 180.297
260.717, 166.653
262.081, 150.019
263.445, 145.396
264.808, 137.781
266.172, 141.175
267.535, 144.579
268.898, 127.992
270.261, 136.412
271.624, 133.840
272.987, 137.275
274.349, 139.717
275.711, 141.167
277.073, 126.625
278.435, 123.091
279.797, 113.564
281.158, 107.968
282.519, 119.535
283.881, 96.031
285.241, 105.535
286.602, 94.045
287.963, 93.561
289.323, 107.084
290.683, 110.611
292.043, 109.142
293.403, 116.676
294.762, 115.872
296.122, 106.751
297.481, 115.291
298.840, 105.832
300.199, 99.375
301.557, 115.919
302.916, 102.465
304.274, 91.012
305.632, 75.561
306.990, 51.111
308.348, 63.663
309.705, 42.217
311.062, 38.773
312.420, 43.331
313.777, 33.890
315.133, 38.451
316.490, 32.123
317.846, 30.579
319.202, 23.145
320.558, 6.714
321.914, 5.284
323.270, 4.144
324.625, 8.572
325.980, 0.001
327.335, 11.429
328.690, 4.859
330.045, 19.290
331.400, 11.725
332.754, 22.162
334.108, 18.605
335.462, 29.052
336.816, 31.506
338.169, 14.968
339.522, 18.434
340.876, 24.905
342.229, 13.381
343.581, 15.862
344.934, 11.347
346.286, 14.835
347.639, 18.327
348.991, 5.824
350.343, 11.324
351.694, 16.827
353.046, 2.664
354.397, 8.850
355.748, 3.627
357.099, 3.905
358.450, 9.549
359.800, 7.988
361.151, 18.412
362.501, 24.295
363.851, 19.221
365.201, 40.612
366.550, 35.995
367.900, 51.368
369.249, 35.737
370.598, 56.104
371.947, 55.472
373.296, 45.840
374.644, 60.210
375.993, 54.581
377.341, 60.953
378.689, 69.328
380.036, 77.704
381.384, 94.081
382.731, 108.459
384.079, 108.942
385.426, 94.230
386.772, 110.622
388.119, 119.016
389.465, 122.414
390.812, 142.814
392.158, 128.218
393.504, 134.624
394.849, 121.032
396.195, 136.443
397.540, 151.856
398.885, 116.271
400.230, 125.689
401.575, 146.109
402.920, 135.530
404.264, 148.952
405.608, 171.375
406.952, 182.800
408.296, 185.226
409.640, 206.653
410.983, 202.081
412.327, 227.509
413.670, 263.939
415.013, 263.369
416.356, 280.799
417.698, 318.247
419.040, 344.679
420.383, 420.111
421.725, 472.547
423.066, 554.980
424.408, 646.415
425.750, 760.888
427.091, 934.325
428.432, 1083.085
429.773, 1243.630
431.113, 1372.083
432.454, 1536.521
433.794, 1561.023
435.135, 1633.500
436.474, 1582.163
437.814, 1621.989
439.154, 1510.925
440.493, 1269.519
441.833, 1015.657
443.172, 752.587
444.510, 570.306
445.849, 480.430
447.188, 425.209
448.526, 410.767
449.864, 422.921
451.202, 459.401
452.540, 523.076
453.877, 634.793
455.215, 762.317
456.552, 995.751
457.889, 1316.183
459.226, 1836.616
460.562, 2498.047
461.899, 3438.480
463.235, 4537.908
464.571, 6115.338
465.907, 8666.766
467.243, 12489.190
468.578, 19029.621
469.914, 27720.041
471.249, 40290.469
472.584, 49080.883
473.919, 47611.309
475.253, 35331.727
476.588, 21222.148
477.922, 13132.564
479.256, 8321.017
480.590, 5762.428
481.924, 4252.986
483.257, 3192.407
484.591, 2593.516
485.924, 2049.362
487.257, 1715.777
488.590, 1439.421
489.922, 1266.413
491.255, 1056.587
492.587, 898.185
493.919, 825.167
495.251, 705.345
496.583, 643.900
497.914, 592.300
499.245, 546.657
500.577, 504.227
501.908, 461.556
503.238, 433.975
504.569, 403.239
505.899, 373.757
507.230, 369.061
508.560, 361.152
509.889, 350.957
511.219, 332.439
512.549, 323.094
513.878, 311.928
515.207, 297.423
516.536, 294.677
517.865, 280.496
519.193, 276.912
520.522, 274.255
521.850, 262.627
523.178, 269.999
524.506, 264.369
525.834, 244.740
527.161, 230.109
528.489, 209.479
529.816, 184.847
531.143, 184.215
532.469, 170.078
533.796, 169.950
535.122, 161.317
536.449, 155.707
537.775, 155.363
539.101, 156.820
540.426, 154.152
541.752, 155.481
543.077, 155.197
544.402, 154.565
545.727, 158.927
547.052, 154.288
548.376, 153.652
549.701, 147.014
551.025, 154.373
552.349, 138.731
553.673, 142.088
554.997, 142.444
556.320, 136.800
557.644, 110.154
558.967, 92.508
560.290, 71.860
561.612, 56.212
562.935, 49.563
564.257, 37.957
565.580, 31.998
566.902, 30.749
568.224, 24.145
569.545, 19.527
570.867, 18.889
572.188, 12.265
573.509, 16.647
574.830, 11.066
576.151, 3.467
577.472, 10.894
578.792, 7.266
580.112, 4.656
581.432, 11.071
582.752, 6.794
584.072, 2.442
585.392, 13.079
586.711, 3.535
588.030, 0.085
589.349, 4.488
590.668, 6.887
591.986, 1.256
593.305, 2.772
594.623, 1.784
595.941, 4.386
597.259, 6.165
598.577, 0.712
599.894, 9.398
601.212, 6.106
602.529, 2.782
603.846, 9.027
605.163, 3.389
606.479, 0.310
607.796, 9.059
609.112, 3.247
610.428, 1.497
611.744, 2.210
613.060, 1.045
614.376, 8.367
615.691, 9.974
617.006, 14.591
618.321, 21.522
619.636, 21.915
620.951, 33.189
622.265, 38.511
623.579, 45.758
624.894, 35.034
626.208, 34.276
627.521, 37.521
628.835, 20.763
630.148, 22.004
631.462, 22.230
632.775, 5.459
634.088, 13.681
635.400, 8.903
636.713, 3.122
638.025, 7.343
639.337, 0.441
640.649, 4.778
641.961, 2.989
643.273, 3.665
644.584, 0.587
645.895, 9.624
647.206, 15.836
648.517, 24.049
649.828, 18.266
651.139, 23.485
652.449, 18.709
653.759, 23.938
655.069, 28.172
656.379, 24.414
657.689, 20.660
658.998, 23.909
660.307, 21.604
661.617, 25.422
662.926, 24.684
664.234, 26.948
665.543, 33.216
666.851, 21.488
668.160, 28.762
669.468, 27.038
670.775, 17.318
672.083, 21.597
673.391, 21.879
674.698, 20.160
676.005, 26.442
677.312, 17.723
678.619, 25.003
679.926, 27.280
681.232, 33.557
682.538, 33.004
683.844, 34.106
685.150, 31.378
686.456, 28.648
687.762, 28.917
689.067, 32.185
690.372, 28.451
691.677, 15.715
692.982, 4.978
694.287, 2.760
695.591, 0.497
696.896, 5.751
698.200, 4.004
699.504, 1.744
700.808, 7.503
702.111, 13.749
703.415, 14.993
704.718, 8.236
706.021, 8.478
707.324, 9.717
708.627, 12.955
709.929, 23.192
711.232, 13.427
712.534, 28.661
713.836, 25.893
715.138, 26.124
716.439, 21.354
717.741, 21.582
719.042, 13.808
720.343, 4.033
721.644, 5.256
722.945, 2.477
724.246, 3.696
725.546, 4.913
726.846, 7.128
728.146, 5.381
729.446, 4.554
730.746, 1.763
732.045, 2.971
733.345, 1.161
734.644, 5.364
735.943, 3.566
737.242, 1.763
738.541, 4.038
739.839, 2.844
741.137, 2.692
742.436, 3.494
743.733, 2.645
745.031, 1.428
746.329, 1.592
747.626, 3.767
748.924, 1.124
750.221, 0.009
751.518, 0.952
752.814, 7.731
754.111, 2.396
755.407, 6.402
756.703, 9.863
757.999, 2.529
759.295, 6.596
760.591, 5.130
761.886, 6.323
763.182, 5.298
764.477, 0.126
765.772, 9.223
767.067, 1.122
768.361, 4.977
769.656, 0.978
770.950, 1.155
772.244, 3.713
773.538, 2.585
774.832, 2.459
776.125, 0.664
777.419, 1.214
778.712, 3.907
780.005, 0.026
781.298, 4.143
782.591, 3.260
783.883, 3.376
785.176, 3.490
786.468, 7.603
787.760, 5.716
789.052, 11.817
790.343, 7.928
791.635, 8.037
792.926, 6.109
794.217, 13.217
795.508, 5.176
796.799, 26.269
798.089, 20.337
799.380, 26.416
800.670, 13.371
801.960, 33.474
803.250, 28.576
804.540, 27.677
805.829, 45.777
807.119, 39.876
808.408, 49.975
809.697, 61.073
810.986, 72.170
812.274, 95.266
813.563, 106.361
814.851, 114.455
816.139, 124.548
817.427, 129.640
818.715, 134.026
820.003, 142.821
821.290, 138.911
822.578, 139.000
823.865, 141.088
825.152, 144.175
826.439, 132.260
827.725, 116.348
829.012, 116.431
830.298, 102.513
831.584, 100.601
832.870, 96.680
834.155, 92.758
835.441, 97.834
836.726, 99.910
838.012, 98.987
839.297, 105.060
840.582, 109.132
841.866, 119.202
843.151, 133.272
844.435, 132.182
845.719, 137.407
847.003, 133.475
848.287, 132.522
849.571, 131.301
850.854, 134.271
852.137, 131.328
853.421, 136.411
854.704, 145.192
855.986, 147.244
857.269, 152.300
858.551, 162.356
859.834, 165.419
861.116, 189.459
862.398, 174.521
863.679, 183.574
864.961, 183.626
866.242, 205.676
867.524, 196.725
868.805, 202.899
870.086, 186.947
871.366, 183.993
872.647, 202.038
873.927, 189.082
875.207, 186.081
876.487, 191.092
877.767, 177.069
879.047, 182.059
880.326, 165.063
881.606, 161.084
882.885, 156.089
884.164, 142.085
885.443, 123.043
886.721, 101.017
888.000, 79.962
889.278, 76.137
890.556, 77.137
891.834, 61.326
893.112, 58.969
894.390, 65.683
895.667, 59.408
896.944, 53.381
898.221, 55.121
899.498, 54.071
900.775, 61.022
902.052, 63.016
903.328, 51.845
904.604, 57.745
905.880, 65.687
907.156, 52.704
908.432, 40.680
909.707, 43.857
910.983, 41.889
912.258, 33.883
913.533, 34.341
914.808, 32.118
916.083, 29.877
917.357, 27.552
918.632, 28.546
919.906, 27.591
921.180, 22.599
922.454, 29.480
923.727, 37.602
925.001, 42.614
926.274, 55.423
927.547, 66.328
928.820, 74.216
930.093, 77.221
931.366, 85.176
932.638, 87.204
933.910, 98.201
935.183, 98.230
936.454, 111.254
937.726, 112.278
938.998, 112.302
940.269, 113.339
941.541, 106.372
942.812, 106.471
944.083, 102.510
945.353, 86.546
946.624, 71.578
947.894, 71.616
949.165, 49.659
950.435, 44.694
951.705, 35.782
952.974, 34.824
954.244, 28.859
955.513, 22.945
956.783, 15.979
958.052, 16.013
959.321, 15.046
960.589, 8.250
961.858, 10.294
963.126, 16.326
964.394, 10.369
965.662, 11.400
966.930, 7.431
968.198, 13.473
969.466, 6.607
970.733, 1.637
972.000, 16.667
973.267, 9.923
974.534, 8.054
975.801, 4.083
977.067, 1.901
978.333, 4.177
979.600, 1.206
980.866, 2.234
982.131, 6.261
983.397, 0.289
984.663, 7.318
985.928, 3.345
987.193, 7.371
988.458, 7.395
989.723, 1.460
990.988, 5.485
992.252, 9.510
993.516, 5.541
994.780, 10.566
996.044, 3.590
997.308, 2.614
998.572, 1.638
999.835, 0.617
1001.099, 0.684
1002.362, 2.708
1003.625, 0.267
1004.887, 0.757
1006.150, 0.780
1007.413, 12.805
1008.675, 7.829
1009.937, 7.854
1011.199, 3.877
1012.461, 3.179
1013.722, 0.152
1014.984, 2.178
1016.245, 2.200
1017.506, 3.223
1018.767, 3.067
1020.028, 2.730
1021.288, 2.291
1022.549, 2.312
1023.809, 2.332
1025.069, 12.355
1026.329, 6.376
1027.589, 5.396
1028.848, 8.417
1030.108, 4.437
1031.367, 5.464
1032.626, 8.485
1033.885, 13.505
1035.144, 9.526
1036.402, 3.546
1037.661, 2.570
1038.919, 6.590
1040.177, 3.389
1041.435, 0.367
1042.693, 4.336
1043.950, 1.681
1045.208, 5.700
1046.465, 1.720
1047.722, 9.745
1048.979, 0.766
1050.235, 1.788
1051.492, 5.811
1052.748, 0.166
1054.005, 2.856
1055.261, 1.880
1056.517, 2.904
1057.772, 4.928
1059.028, 6.952
1060.283, 3.024
1061.538, 5.002
1062.793, 4.025
1064.048, 2.047
1065.303, 9.200
1066.558, 2.707
1067.812, 2.327
1069.066, 3.355
1070.320, 1.401
1071.574, 6.428
1072.828, 6.654
1074.081, 6.681
1075.335, 2.708
1076.588, 9.735
1077.841, 0.232
1079.094, 8.797
1080.347, 11.825
1081.599, 9.858
1082.852, 8.887
1084.104, 5.915
1085.356, 8.944
1086.608, 6.972
1087.859, 10.000
1089.111, 6.027
1090.362, 5.055
1091.614, 6.082
1092.865, 0.891
1094.115, 2.184
1095.366, 6.161
1096.617, 3.197
1097.867, 2.223
1099.117, 0.248
1100.367, 7.374
1101.617, 0.601
1102.867, 1.423
1104.116, 7.446
1105.366, 0.531
1106.615, 5.492
1107.864, 6.518
1109.113, 3.540
1110.362, 2.437
1111.610, 0.583
1112.859, 6.603
1114.107, 0.631
1115.355, 6.650
1116.603, 7.669
1117.850, 0.688
1119.098, 1.293
1120.345, 3.725
1121.593, 3.741
1122.840, 3.238
1124.087, 1.223
1125.333, 10.945
1126.580, 0.042
1127.826, 10.066
1129.072, 5.079
1130.319, 13.087
1131.564, 4.100
1132.810, 11.112
1134.056, 3.158
1135.301, 8.169
1136.546, 4.180
1137.791, 2.197
1139.036, 0.207
1140.281, 5.216
1141.526, 7.226
1142.770, 2.235
1144.014, 16.245
1145.258, 11.253
1146.502, 11.262
1147.746, 13.270
1148.990, 9.277
1150.233, 6.279
1151.476, 10.281
1152.719, 4.288
1153.962, 4.281
1155.205, 14.283
1156.448, 11.284
1157.690, 8.291
1158.932, 9.297
1160.174, 12.303
1161.416, 2.692
1162.658, 1.312
1163.900, 3.307
1165.141, 8.309
1166.382, 5.312
1167.624, 8.066
1168.864, 3.359
1170.105, 9.235
1171.346, 8.237
1172.586, 9.239
1173.827, 3.241
1175.067, 6.350
1176.307, 9.353
1177.546, 7.355
1178.786, 11.356
1180.026, 2.357
1181.265, 15.358
1182.504, 5.358
1183.743, 8.358
1184.982, 7.358
1186.220, 3.358
1187.459, 11.358
1188.697, 12.363
1189.935, 3.186
1191.173, 1.164
1192.411, 3.925
1193.649, 3.921
1194.886, 3.919
1196.124, 2.914
1197.361, 4.912
1198.598, 4.815
1199.835, 8.898
1201.071, 6.895
1202.308, 6.876
1203.544, 8.872
1204.780, 12.866
1206.016, 4.862
1207.252, 5.858
1208.488, 7.853
1209.723, 2.684
1210.959, 10.679
1212.194, 9.674
1213.429, 1.333
1214.664, 0.340
1215.899, 1.501
1217.133, 14.552
1218.368, 0.544
1219.602, 12.533
1220.836, 2.476
1222.070, 5.513
1223.304, 9.502
1224.537, 13.491
1225.770, 2.479
1227.004, 3.442
1228.237, 18.437
1229.470, 2.424
1230.703, 9.411
1231.935, 7.398
1233.168, 10.385
1234.400, 13.371
1235.632, 8.357
1236.864, 6.343
1238.096, 11.328
1239.327, 9.313
1240.559, 12.298
1241.790, 6.219
1243.021, 10.200
1244.252, 1.184
1245.483, 8.172
1246.714, 6.152
1247.944, 0.878
1249.174, 5.103
1250.404, 6.031
1251.634, 6.005
1252.864, 12.988
1254.094, 4.005
1255.323, 2.985
1256.553, 9.965
1257.782, 7.945
1259.011, 17.755
1260.240, 11.723
1261.469, 1.701
1262.697, 9.668
1263.925, 7.645
1265.154, 5.622
1266.382, 13.588
1267.610, 3.461
1268.837, 10.438
1270.065, 2.414
1271.292, 9.162
1272.519, 1.963
1273.747, 6.012
1274.973, 1.050
1276.200, 7.924
1277.427, 7.898
1278.653, 2.872
1279.879, 10.845
1281.106, 0.181
1282.332, 4.790
1283.557, 10.762
1284.783, 1.735
1286.008, 3.700
1287.234, 2.642
1288.459, 10.613
1289.684, 5.584
1290.909, 10.549
1292.133, 10.520
1293.358, 5.490
1294.582, 12.461
1295.806, 10.431
1297.030, 13.401
1298.254, 6.371
1299.478, 6.341
1300.701, 4.311
1301.925, 6.280
1303.148, 10.250
1304.371, 6.219
1305.594, 8.188
1306.816, 8.156
1308.039, 7.125
1309.261, 3.878
1310.484, 2.835
1311.706, 8.800
1312.928, 5.768
1314.149, 4.736
1315.371, 0.297
1316.592, 5.671
1317.814, 6.638
1319.035, 9.606
1320.256, 4.809
1321.477, 1.227
1322.697, 2.740
1323.918, 10.706
1325.138, 13.672
1326.358, 5.638
1327.578, 8.596
1328.798, 8.566
1330.018, 7.531
1331.237, 9.496
1332.456, 7.461
1333.676, 7.423
1334.895, 1.388
1336.113, 8.353
1337.332, 11.315
1338.551, 7.269
1339.769, 11.236
1340.987, 5.202
1342.205, 10.169
1343.423, 6.131
1344.641, 4.098
1345.859, 14.073
1347.076, 4.048
1348.293, 4.015
1349.510, 12.981
1350.727, 4.948
1351.944, 15.914
1353.161, 4.880
1354.377, 11.847
1355.593, 9.813
1356.810, 12.777
1358.026, 14.740
1359.241, 13.703
1360.457, 3.692
1361.673, 6.588
1362.888, 0.457
1364.103, 12.509
1365.318, 2.454
1366.533, 6.417
1367.748, 6.181
1368.962, 8.144
1370.177, 6.107
1371.391, 4.070
1372.605, 5.027
1373.819, 0.989
1375.033, 9.956
1376.246, 5.913
1377.460, 12.878
1378.673, 5.835
1379.886, 9.790
1381.099, 5.745
1382.312, 5.700
1383.524, 5.554
1384.737, 3.180
1385.949, 4.558
1387.161, 3.509
1388.373, 4.459
1389.585, 11.409
1390.797, 1.349
1392.008, 11.308
1393.220, 7.251
1394.431, 5.119
1395.642, 11.088
1396.853, 6.057
1398.064, 2.023
1399.274, 1.007
1400.485, 9.955
1401.695, 3.925
1402.905, 12.894
1404.115, 9.865
1405.325, 8.832
1406.534, 6.636
1407.744, 6.501
1408.953, 9.471
1410.162, 7.463
1411.371, 2.365
1412.580, 6.328
1413.789, 7.297
1414.997, 6.267
1416.206, 12.238
1417.414, 8.208
1418.622, 9.178
1419.830, 9.149
1421.038, 11.119
1422.245, 11.089
1423.453, 10.059
1424.660, 4.032
1425.867, 9.004
1427.074, 5.922
1428.281, 2.894
1429.487, 4.864
1430.694, 7.688
1431.900, 6.656
1433.106, 4.623
1434.312, 9.591
1435.518, 12.559
1436.724, 13.518
1437.929, 11.485
1439.134, 8.453
1440.340, 13.421
1441.545, 5.389
1442.750, 4.357
1443.954, 11.324
1445.159, 4.292
1446.363, 10.259
1447.568, 3.226
1448.772, 13.194
1449.976, 3.161
1451.179, 7.030
1452.383, 7.994
1453.587, 1.964
1454.790, 6.934
1455.993, 7.891
1457.196, 8.862
1458.399, 3.832
1459.601, 2.803
1460.804, 1.774
1462.006, 5.745
1463.209, 3.717
1464.411, 3.321
1465.613, 13.652
1466.814, 4.627
1468.016, 2.597
1469.217, 6.388
1470.419, 17.360
1471.620, 10.331
1472.821, 1.308
1474.021, 20.285
1475.222, 3.264
1476.423, 12.243
1477.623, 9.222
1478.823, 12.201
1480.023, 5.180
1481.223, 12.159
1482.423, 8.140
1483.622, 5.121
1484.822, 11.106
1486.021, 4.091
1487.220, 7.078
1488.419, 8.065
1489.618, 1.053
1490.816, 1.041
1492.015, 8.031
1493.213, 11.022
1494.411, 5.015
1495.609, 7.005
1496.807, 7.002
1498.005, 16.000
1499.202, 13.990
1500.400, 4.991
1501.597, 17.040
1502.794, 17.011
1503.991, 2.011
1505.187, 9.946
1506.384, 12.922
1507.580, 1.898
1508.777, 18.873
1509.973, 12.847
1511.169, 6.820
1512.365, 6.791
1513.560, 6.705
1514.756, 9.608
1515.951, 6.563
1517.146, 4.512
1518.341, 1.453
1519.536, 4.419
1520.731, 0.043
1521.926, 11.934
1523.120, 1.787
1524.314, 7.638
1525.508, 14.465
1526.702, 6.267
1527.896, 1.949
1529.090, 8.579
1530.283, 5.411
1531.476, 11.229
1532.670, 4.057
1533.863, 4.975
1535.055, 0.025
1536.248, 0.000
##END=



