##NAMES=Sulphur
##RRUFFID=R050006
##IDEAL CHEMISTRY=S
##LOCALITY=San Felipe, Mexicali, Baja California Norte, Mexico
##OWNER=RRUFF
##SOURCE=Eugene Schlepp
##DESCRIPTION=Yellow single crystal
##STATUS=The identification of this mineral has been confirmed by X-ray diffraction and chemical analysis
##URL=rruff.info/R050006
##MEASURED CHEMISTRY=S_1.00_
##PIN_ID=L00280
##ORIENTATION=Laser parallel to -a* (-1 0 0). Fiducial mark perpendicular to laser is parallel to -b [0 -1 0]
52.261, 0.000
53.667, 12.896
55.072, 22.831
56.477, 29.905
57.882, 27.619
59.287, 26.414
60.691, 16.872
62.095, 13.215
63.499, 28.460
64.903, 25.051
66.306, 21.983
67.709, 34.102
69.112, 22.534
70.515, 7.246
71.917, 10.213
73.319, 3.585
74.721, 10.168
76.123, 4.553
77.525, 4.240
78.926, 3.806
80.327, 6.295
81.728, 5.531
83.128, 30.888
84.529, 51.358
85.929, 108.932
87.329, 176.601
88.728, 274.368
90.128, 416.241
91.527, 569.219
92.926, 602.294
94.324, 557.455
95.723, 433.695
97.121, 344.002
98.519, 282.371
99.917, 235.796
101.314, 249.271
102.712, 207.791
104.109, 234.354
105.505, 235.956
106.902, 249.596
108.298, 266.848
109.694, 266.976
111.090, 292.714
112.486, 299.481
113.881, 301.276
115.277, 324.098
116.672, 353.944
118.066, 343.815
119.461, 380.710
120.855, 378.626
122.249, 364.579
123.643, 395.622
125.036, 375.812
126.430, 413.128
127.823, 389.529
129.216, 376.953
130.608, 393.401
132.001, 385.857
133.393, 396.306
134.785, 411.750
136.176, 402.186
137.568, 429.607
138.959, 441.016
140.350, 467.415
141.741, 562.806
143.131, 661.190
144.521, 851.568
145.911, 1267.942
147.301, 1889.307
148.691, 2837.666
150.080, 4265.022
151.469, 6162.379
152.858, 8188.737
154.247, 10195.102
155.635, 11675.460
157.024, 12355.825
158.411, 10646.194
159.799, 7616.566
161.187, 4790.941
162.574, 3042.319
163.961, 1886.701
165.348, 1240.088
166.734, 888.479
168.121, 648.873
169.507, 547.272
170.893, 441.676
172.278, 402.084
173.664, 336.496
175.049, 304.913
176.434, 278.334
177.819, 252.760
179.203, 270.190
180.587, 242.624
181.971, 259.062
183.355, 264.504
184.739, 274.950
186.122, 296.400
187.505, 331.853
188.888, 369.311
190.271, 438.284
191.653, 541.985
193.035, 701.899
194.417, 923.770
195.799, 1109.915
197.180, 1298.544
198.562, 1365.730
199.943, 1241.128
201.324, 1100.214
202.704, 895.458
204.084, 773.014
205.465, 716.131
206.844, 709.087
208.224, 753.127
209.603, 899.597
210.983, 1169.894
212.362, 1807.194
213.740, 3045.497
215.119, 5181.802
216.497, 9214.108
217.875, 15826.422
219.253, 23356.412
220.631, 30036.461
222.008, 34736.555
223.385, 32956.668
224.762, 22726.816
226.139, 13256.982
227.515, 7362.163
228.891, 4300.367
230.267, 2599.555
231.643, 1667.757
233.018, 1194.976
234.394, 1008.218
235.769, 923.478
237.144, 920.758
238.518, 967.055
239.893, 1149.216
241.267, 1387.139
242.641, 1918.332
244.014, 2861.689
245.388, 3958.965
246.761, 5172.347
248.134, 5909.737
249.507, 5851.141
250.879, 4510.554
252.252, 2998.976
253.624, 1937.408
254.996, 1210.848
256.367, 780.297
257.739, 525.753
259.110, 364.217
260.481, 295.687
261.852, 246.164
263.222, 201.646
264.592, 179.135
265.962, 168.629
267.332, 173.128
268.702, 155.633
270.071, 172.142
271.440, 160.656
272.809, 163.174
274.178, 152.697
275.546, 155.224
276.915, 142.755
278.283, 160.290
279.650, 150.831
281.018, 152.376
282.385, 152.925
283.752, 149.478
285.119, 150.182
286.486, 147.594
287.852, 149.158
289.218, 131.725
290.584, 132.297
291.950, 131.870
293.316, 125.448
294.681, 135.027
296.046, 130.243
297.411, 139.188
298.775, 132.770
300.140, 133.352
301.504, 142.935
302.868, 122.518
304.231, 130.103
305.595, 110.688
306.958, 89.273
308.321, 84.860
309.684, 82.448
311.047, 78.036
312.409, 57.626
313.771, 63.216
315.133, 46.807
316.495, 43.399
317.856, 45.993
319.217, 35.587
320.578, 38.182
321.939, 31.780
323.299, 16.381
324.660, 11.981
326.020, 5.416
327.380, 7.184
328.739, 1.214
330.099, 3.612
331.458, 13.012
332.817, 21.415
334.176, 22.823
335.534, 26.563
336.892, 7.660
338.251, 29.084
339.608, 26.516
340.966, 31.955
342.323, 3.404
343.681, 12.853
345.037, 12.307
346.394, 25.764
347.751, 9.229
349.107, 4.697
350.463, 3.166
351.819, 1.362
353.174, 1.890
354.530, 6.585
355.885, 0.936
357.240, 4.450
358.594, 6.052
359.949, 15.431
361.303, 8.103
362.657, 1.347
364.011, 5.787
365.365, 13.216
366.718, 25.641
368.071, 32.065
369.424, 37.486
370.777, 52.904
372.129, 39.320
373.481, 50.736
374.833, 69.153
376.185, 59.570
377.537, 50.989
378.888, 69.408
380.239, 63.829
381.590, 67.250
382.941, 73.674
384.291, 81.101
385.642, 84.529
386.992, 105.961
388.341, 107.395
389.691, 112.832
391.040, 109.270
392.389, 119.709
393.738, 108.151
395.087, 120.593
396.435, 126.038
397.784, 126.483
399.132, 131.930
400.479, 140.378
401.827, 137.728
403.174, 133.277
404.521, 134.730
405.868, 140.185
407.215, 136.641
408.561, 137.097
409.908, 153.555
411.254, 168.013
412.599, 173.471
413.945, 187.931
415.290, 203.391
416.636, 231.851
417.980, 256.664
419.325, 276.775
420.670, 315.238
422.014, 359.704
423.358, 382.172
424.702, 465.640
426.045, 545.110
427.389, 636.581
428.732, 764.055
430.075, 894.529
431.417, 1031.006
432.760, 1187.482
434.102, 1383.959
435.444, 1452.449
436.786, 1546.927
438.127, 1588.404
439.469, 1563.883
440.810, 1551.721
442.151, 1482.463
443.492, 1289.952
444.832, 1078.631
446.172, 839.158
447.512, 664.638
448.852, 544.289
450.192, 457.966
451.531, 433.976
452.870, 438.566
454.209, 461.754
455.548, 534.537
456.887, 623.020
458.225, 793.557
459.563, 1022.039
460.901, 1383.522
462.238, 1851.005
463.576, 2548.488
464.913, 3502.971
466.250, 4534.454
467.587, 6307.938
468.923, 8745.419
470.259, 13105.900
471.596, 19706.381
472.931, 29026.859
474.267, 39817.336
475.603, 45277.809
476.938, 45578.305
478.273, 37918.770
479.608, 27149.246
480.942, 18269.729
482.276, 12090.827
483.611, 8338.397
484.944, 5817.869
486.278, 4213.396
487.612, 3244.464
488.945, 2607.937
490.278, 2073.255
491.611, 1751.393
492.943, 1478.964
494.276, 1236.009
495.608, 1039.958
496.940, 927.664
498.271, 807.522
499.603, 730.056
500.934, 662.745
502.265, 559.085
503.596, 541.171
504.927, 512.698
506.257, 462.252
507.587, 415.957
508.917, 423.683
510.247, 399.670
511.577, 361.743
512.906, 397.071
514.235, 332.419
515.564, 344.279
516.892, 318.575
518.221, 339.990
519.549, 311.870
520.877, 312.323
522.205, 304.079
523.533, 295.385
524.860, 270.819
526.187, 289.271
527.514, 258.724
528.841, 256.176
530.167, 249.629
531.493, 228.081
532.820, 212.534
534.145, 208.986
535.471, 197.439
536.796, 188.891
538.122, 186.344
539.447, 176.174
540.771, 166.269
542.096, 165.728
543.420, 164.211
544.744, 167.725
546.068, 158.376
547.392, 167.025
548.715, 171.495
550.039, 164.991
551.362, 160.462
552.684, 166.913
554.007, 177.363
555.329, 181.814
556.652, 175.134
557.973, 161.714
559.295, 149.164
560.617, 143.613
561.938, 117.062
563.259, 100.510
564.580, 94.958
565.901, 74.406
567.221, 59.860
568.541, 54.307
569.861, 43.795
571.181, 34.302
572.501, 38.771
573.820, 28.270
575.139, 25.777
576.458, 9.269
577.777, 11.974
579.095, 14.596
580.414, 12.575
581.732, 15.283
583.049, 1.848
584.367, 15.893
585.685, 16.409
587.002, 3.353
588.319, 7.154
589.636, 13.936
590.952, 8.512
592.268, 9.956
593.585, 0.437
594.900, 5.076
596.216, 2.602
597.532, 1.338
598.847, 6.148
600.162, 4.618
601.477, 0.018
602.792, 3.520
604.106, 1.075
605.420, 4.577
606.734, 2.987
608.048, 3.301
609.361, 8.375
610.675, 1.453
611.988, 10.983
613.301, 4.536
614.614, 9.054
615.926, 0.551
617.238, 14.009
618.550, 12.679
619.862, 12.396
621.174, 16.973
622.485, 28.405
623.797, 21.014
625.108, 33.420
626.418, 20.819
627.729, 32.240
629.039, 22.649
630.349, 26.042
631.659, 28.442
632.969, 13.836
634.279, 14.217
635.588, 6.594
636.897, 8.963
638.206, 3.331
639.515, 9.302
640.823, 0.926
642.131, 7.434
643.439, 0.210
644.747, 1.144
646.055, 4.498
647.362, 0.148
648.669, 3.204
649.976, 8.557
651.283, 14.912
652.589, 11.273
653.896, 18.639
655.202, 21.011
656.508, 12.385
657.814, 11.767
659.119, 28.154
660.424, 28.550
661.729, 21.946
663.034, 32.346
664.339, 19.748
665.643, 10.156
666.947, 23.567
668.251, 22.978
669.555, 21.391
670.859, 17.803
672.162, 11.214
673.465, 12.626
674.768, 23.039
676.071, 16.450
677.373, 9.862
678.676, 23.274
679.978, 18.687
681.280, 18.100
682.581, 19.511
683.883, 23.922
685.184, 24.330
686.485, 34.738
687.786, 26.143
689.087, 34.548
690.387, 28.951
691.687, 26.352
692.987, 15.752
694.287, 14.151
695.586, 12.548
696.886, 4.944
698.185, 8.338
699.484, 3.730
700.783, 1.120
702.081, 1.491
703.379, 1.422
704.677, 6.276
705.975, 2.655
707.273, 6.033
708.570, 12.410
709.868, 11.784
711.165, 13.157
712.462, 11.529
713.758, 17.899
715.055, 23.267
716.351, 18.634
717.647, 17.000
718.943, 15.364
720.238, 16.726
721.533, 23.087
722.829, 10.447
724.124, 15.804
725.418, 4.160
726.713, 2.514
728.007, 6.866
729.301, 3.216
730.595, 2.563
731.889, 3.909
733.182, 1.748
734.476, 0.408
735.769, 6.071
737.061, 1.741
738.354, 0.585
739.647, 7.092
740.939, 2.224
742.231, 5.462
743.523, 3.154
744.814, 2.851
746.106, 0.447
747.397, 1.353
748.688, 2.035
749.978, 2.312
751.269, 1.600
752.559, 2.113
753.849, 2.169
755.139, 1.089
756.429, 0.897
757.719, 5.367
759.008, 7.439
760.297, 1.340
761.586, 8.926
762.875, 1.982
764.163, 5.919
765.451, 6.193
766.739, 1.948
768.027, 2.489
769.315, 1.568
770.602, 10.673
771.890, 1.143
773.177, 2.907
774.463, 3.674
775.750, 1.446
777.036, 2.780
778.323, 1.997
779.609, 6.223
780.894, 7.442
782.180, 3.659
783.465, 4.874
784.750, 8.087
786.035, 6.298
787.320, 7.508
788.605, 10.131
789.889, 10.924
791.173, 14.129
792.457, 15.333
793.741, 14.527
795.024, 8.104
796.307, 11.205
797.591, 17.404
798.873, 16.545
800.156, 24.716
801.439, 28.905
802.721, 23.045
804.003, 26.226
805.285, 32.416
806.566, 39.605
807.848, 49.792
809.129, 63.978
810.410, 72.488
811.691, 71.348
812.971, 91.532
814.252, 102.715
815.532, 106.896
816.812, 137.075
818.092, 135.253
819.371, 154.429
820.651, 170.604
821.930, 171.789
823.209, 164.968
824.488, 146.137
825.766, 148.305
827.045, 140.472
828.323, 133.636
829.601, 133.805
830.878, 117.999
832.156, 116.159
833.433, 114.316
834.710, 117.472
835.987, 108.627
837.264, 113.780
838.540, 110.932
839.817, 123.089
841.093, 110.237
842.369, 124.383
843.644, 135.531
844.920, 135.674
846.195, 128.816
847.470, 131.956
848.745, 141.094
850.020, 149.230
851.294, 147.346
852.568, 153.423
853.842, 157.854
855.116, 155.650
856.390, 164.579
857.663, 163.512
858.936, 160.620
860.209, 180.702
861.482, 183.804
862.755, 201.924
864.027, 202.045
865.299, 210.168
866.571, 217.298
867.843, 235.444
869.115, 238.557
870.386, 213.723
871.657, 220.853
872.928, 204.960
874.199, 216.067
875.470, 203.175
876.740, 200.272
878.010, 186.373
879.280, 203.439
880.550, 195.476
881.820, 185.550
883.089, 177.592
884.358, 170.624
885.627, 139.670
886.896, 135.582
888.164, 123.493
889.433, 88.045
890.701, 88.866
891.969, 83.838
893.236, 72.327
894.504, 64.345
895.771, 64.927
897.038, 58.650
898.305, 62.399
899.572, 68.343
900.838, 59.323
902.105, 71.324
903.371, 67.333
904.637, 67.546
905.902, 60.316
907.168, 57.312
908.433, 54.281
909.698, 61.153
910.963, 45.185
912.228, 53.274
913.492, 47.110
914.757, 41.161
916.021, 43.959
917.285, 40.514
918.548, 41.068
919.812, 24.072
921.075, 38.093
922.338, 28.968
923.601, 34.112
924.864, 52.038
926.126, 60.835
927.388, 55.762
928.650, 77.651
929.912, 82.689
931.174, 82.533
932.435, 94.576
933.697, 103.624
934.958, 112.649
936.218, 118.682
937.479, 119.731
938.739, 119.776
940.000, 107.819
941.260, 117.872
942.520, 127.941
943.779, 116.003
945.039, 123.068
946.298, 97.128
947.557, 81.174
948.816, 67.233
950.074, 54.486
951.333, 46.492
952.591, 39.423
953.849, 36.482
955.107, 32.545
956.365, 32.603
957.622, 27.146
958.879, 17.732
960.136, 19.858
961.393, 18.168
962.650, 18.418
963.906, 10.563
965.162, 14.678
966.418, 10.731
967.674, 20.784
968.930, 12.836
970.185, 9.942
971.441, 12.992
972.696, 2.042
973.950, 3.091
975.205, 15.139
976.459, 6.187
977.714, 7.234
978.968, 5.280
980.222, 3.338
981.475, 0.617
982.729, 6.436
983.982, 5.491
985.235, 11.538
986.488, 9.680
987.740, 10.721
988.993, 4.770
990.245, 2.811
991.497, 9.852
992.749, 4.891
994.000, 4.021
995.252, 8.059
996.503, 7.104
997.754, 8.144
999.005, 10.181
1000.256, 8.217
1001.506, 4.253
1002.756, 2.291
1004.006, 4.326
1005.256, 4.360
1006.506, 4.394
1007.755, 3.429
1009.005, 8.464
1010.254, 3.499
1011.502, 9.534
1012.751, 4.568
1014.000, 3.603
1015.248, 2.641
1016.496, 0.674
1017.744, 0.634
1018.991, 4.737
1020.239, 1.232
1021.486, 0.202
1022.733, 5.828
1023.980, 8.857
1025.227, 2.886
1026.473, 7.918
1027.719, 8.946
1028.965, 1.974
1030.211, 5.001
1031.457, 6.097
1032.702, 5.191
1033.948, 5.218
1035.193, 4.244
1036.438, 1.729
1037.682, 5.298
1038.927, 4.325
1040.171, 6.358
1041.415, 1.516
1042.659, 1.546
1043.903, 1.705
1045.146, 2.742
1046.390, 2.846
1047.633, 0.819
1048.876, 2.856
1050.118, 3.893
1051.361, 1.938
1052.603, 0.975
1053.845, 3.984
1055.087, 7.051
1056.329, 2.087
1057.571, 7.124
1058.812, 1.160
1060.053, 6.198
1061.294, 0.765
1062.535, 6.271
1063.775, 9.309
1065.016, 7.346
1066.256, 10.386
1067.496, 8.427
1068.736, 9.469
1069.975, 7.511
1071.214, 5.553
1072.454, 1.405
1073.693, 0.293
1074.931, 1.748
1076.170, 3.075
1077.408, 0.974
1078.647, 0.017
1079.885, 3.067
1081.122, 6.117
1082.360, 8.160
1083.597, 6.203
1084.835, 5.246
1086.072, 3.288
1087.308, 2.331
1088.545, 7.373
1089.781, 5.415
1091.018, 0.457
1092.254, 10.498
1093.490, 2.539
1094.725, 6.583
1095.961, 7.623
1097.196, 4.663
1098.431, 7.704
1099.666, 1.743
1100.900, 5.783
1102.135, 4.842
1103.369, 2.881
1104.603, 5.920
1105.837, 2.958
1107.071, 0.997
1108.304, 0.958
1109.538, 3.919
1110.771, 2.955
1112.004, 1.281
1113.236, 0.788
1114.469, 4.243
1115.701, 6.274
1116.933, 6.304
1118.165, 0.666
1119.397, 9.363
1120.629, 4.392
1121.860, 4.417
1123.091, 13.438
1124.322, 6.469
1125.553, 10.497
1126.783, 3.525
1128.014, 0.556
1129.244, 3.577
1130.474, 1.571
1131.704, 0.601
1132.933, 2.677
1134.163, 1.297
1135.392, 4.729
1136.621, 1.804
1137.850, 4.829
1139.079, 7.847
1140.307, 6.872
1141.535, 1.103
1142.763, 8.918
1143.991, 1.942
1145.219, 2.965
1146.446, 5.988
1147.674, 8.011
1148.901, 7.034
1150.128, 3.056
1151.354, 9.070
1152.581, 9.100
1153.807, 5.122
1155.033, 8.143
1156.259, 7.162
1157.485, 7.183
1158.710, 6.201
1159.936, 4.222
1161.161, 3.243
1162.386, 2.262
1163.611, 7.277
1164.835, 9.283
1166.060, 7.271
1167.284, 6.291
1168.508, 6.713
1169.732, 7.254
1170.955, 5.274
1172.179, 5.293
1173.402, 2.312
1174.625, 6.331
1175.848, 3.350
1177.070, 12.361
1178.293, 0.620
1179.515, 0.602
1180.737, 6.415
1181.959, 4.432
1183.181, 3.449
1184.402, 7.383
1185.624, 9.399
1186.845, 2.415
1188.066, 1.569
1189.286, 7.459
1190.507, 1.535
1191.727, 2.469
1192.947, 1.478
1194.167, 5.487
1195.387, 6.487
1196.607, 6.496
1197.826, 1.508
1199.045, 4.513
1200.264, 2.513
1201.483, 9.293
1202.702, 9.305
1203.920, 4.309
1205.138, 4.320
1206.356, 3.321
1207.574, 7.331
1208.792, 7.299
1210.009, 7.310
1211.227, 4.319
1212.444, 2.329
1213.661, 8.339
1214.877, 8.348
1216.094, 11.358
1217.310, 3.367
1218.526, 4.375
1219.742, 0.693
1220.958, 6.289
1222.173, 1.711
1223.389, 1.108
1224.604, 4.102
1225.819, 1.090
1227.034, 1.093
1228.248, 5.097
1229.463, 4.102
1230.677, 4.106
1231.891, 6.110
1233.105, 5.112
1234.318, 7.110
1235.532, 4.113
1236.745, 7.116
1237.958, 11.105
1239.171, 5.108
1240.384, 2.106
1241.596, 7.108
1242.809, 5.109
1244.021, 11.111
1245.233, 5.112
1246.444, 3.105
1247.656, 0.177
1248.867, 5.178
1250.079, 6.178
1251.290, 6.177
1252.500, 7.174
1253.711, 1.163
1254.921, 2.093
1256.132, 0.003
1257.342, 1.640
1258.552, 0.548
1259.761, 2.486
1260.971, 9.484
1262.180, 11.481
1263.389, 11.478
1264.598, 10.420
1265.807, 10.417
1267.015, 0.414
1268.223, 5.411
1269.432, 1.407
1270.640, 7.404
1271.847, 2.400
1273.055, 1.396
1274.262, 6.379
1275.470, 6.375
1276.677, 1.362
1277.883, 0.654
1279.090, 2.433
1280.296, 4.329
1281.503, 0.672
1282.709, 5.315
1283.915, 4.409
1285.120, 3.403
1286.326, 8.397
1287.531, 8.301
1288.736, 9.824
1289.941, 11.282
1291.146, 10.273
1292.350, 12.271
1293.555, 8.264
1294.759, 2.257
1295.963, 6.248
1297.167, 0.241
1298.370, 6.234
1299.574, 5.227
1300.777, 5.220
1301.980, 6.212
1303.183, 4.205
1304.386, 6.197
1305.588, 5.189
1306.790, 4.753
1307.993, 4.216
1309.195, 4.208
1310.396, 3.200
1311.598, 4.192
1312.799, 8.186
1314.000, 6.178
1315.201, 4.170
1316.402, 16.163
1317.603, 1.154
1318.803, 4.148
1320.003, 13.139
1321.203, 14.130
1322.403, 6.121
1323.603, 9.044
1324.802, 3.968
1326.002, 8.959
1327.201, 7.950
1328.400, 7.941
1329.599, 5.935
1330.797, 3.927
1331.995, 3.914
1333.194, 0.224
1334.392, 3.766
1335.589, 7.628
1336.787, 7.614
1337.985, 6.594
1339.182, 9.605
1340.379, 2.594
1341.576, 8.582
1342.772, 3.563
1343.969, 3.552
1345.165, 13.537
1346.361, 6.558
1347.557, 8.547
1348.753, 2.536
1349.949, 10.525
1351.144, 8.513
1352.339, 15.501
1353.534, 3.490
1354.729, 6.478
1355.924, 8.466
1357.118, 5.451
1358.312, 3.439
1359.506, 1.427
1360.700, 8.416
1361.894, 6.404
1363.088, 5.391
1364.281, 8.309
1365.474, 6.444
1366.667, 5.149
1367.860, 6.129
1369.052, 3.116
1370.245, 3.099
1371.437, 8.096
1372.629, 3.083
1373.821, 9.069
1375.013, 5.056
1376.204, 7.042
1377.395, 10.029
1378.586, 8.014
1379.777, 5.998
1380.968, 4.982
1382.159, 8.982
1383.349, 2.965
1384.539, 6.929
1385.729, 6.921
1386.919, 6.913
1388.109, 9.884
1389.298, 4.874
1390.487, 1.136
1391.676, 1.845
1392.865, 0.812
1394.054, 3.799
1395.242, 5.795
1396.431, 5.790
1397.619, 7.724
1398.807, 8.042
1399.995, 8.765
1401.182, 8.757
1402.370, 7.749
1403.557, 7.687
1404.744, 7.624
1405.931, 9.617
1407.118, 6.610
1408.304, 7.604
1409.490, 4.598
1410.676, 6.592
1411.862, 5.336
1413.048, 3.227
1414.234, 4.564
1415.419, 1.557
1416.604, 1.550
1417.789, 6.543
1418.974, 3.536
1420.159, 1.529
1421.343, 1.479
1422.528, 8.509
1423.712, 0.501
1424.896, 4.493
1426.079, 1.513
1427.263, 1.481
1428.446, 2.474
1429.629, 3.468
1430.812, 4.431
1431.995, 2.428
1433.178, 4.982
1434.360, 0.422
1435.543, 8.419
1436.725, 9.416
1437.907, 11.412
1439.088, 6.409
1440.270, 11.407
1441.451, 5.404
1442.632, 9.401
1443.813, 7.397
1444.994, 3.394
1446.175, 6.393
1447.355, 7.394
1448.535, 0.604
1449.715, 7.398
1450.895, 9.400
1452.075, 11.403
1453.255, 6.405
1454.434, 1.409
1455.613, 9.412
1456.792, 5.417
1457.971, 8.422
1459.149, 6.275
1460.328, 0.273
1461.506, 8.276
1462.684, 8.280
1463.862, 7.285
1465.040, 10.290
1466.217, 6.297
1467.395, 10.305
1468.572, 7.313
1469.749, 11.321
1470.925, 1.330
1472.102, 7.340
1473.278, 3.349
1474.455, 3.097
1475.631, 6.090
1476.807, 1.808
1477.982, 1.807
1479.158, 3.806
1480.333, 0.210
1481.508, 5.788
1482.683, 7.787
1483.858, 2.785
1485.033, 3.783
1486.207, 1.781
1487.381, 0.401
1488.555, 1.669
1489.729, 1.579
1490.903, 4.560
1492.076, 7.546
1493.250, 8.508
1494.423, 6.496
1495.596, 9.483
1496.769, 4.467
1497.941, 5.449
1499.114, 5.412
1500.286, 3.393
1501.458, 1.385
1502.630, 5.384
1503.802, 4.240
1504.973, 5.230
1506.145, 4.216
1507.316, 2.961
1508.487, 4.937
1509.657, 5.916
1510.828, 0.894
1511.999, 0.131
1513.169, 1.843
1514.339, 2.788
1515.509, 2.763
1516.678, 4.748
1517.848, 8.752
1519.017, 10.309
1520.187, 8.230
1521.356, 12.116
1522.524, 0.012
1523.693, 6.905
1524.861, 0.000
##END=



