##NAMES=Sulphur
##RRUFFID=R050006
##IDEAL CHEMISTRY=S
##LOCALITY=San Felipe, Mexicali, Baja California Norte, Mexico
##OWNER=RRUFF
##SOURCE=Eugene Schlepp
##DESCRIPTION=Yellow single crystal
##STATUS=The identification of this mineral has been confirmed by X-ray diffraction and chemical analysis
##URL=rruff.info/R050006
##MEASURED CHEMISTRY=S_1.00_
##PIN_ID=L00244
##ORIENTATION=Laser parallel to -c* (0 0 -1). Fiducial mark perpendicular to laser is parallel to a [1 0 0]
48.666, 0.000
50.068, 10.702
51.471, 7.381
52.873, 10.866
54.275, 11.208
55.677, 10.198
57.079, 8.430
58.480, 19.389
59.882, 21.297
61.283, 15.386
62.683, 24.322
64.084, 14.145
65.484, 16.393
66.884, 11.019
68.284, 2.012
69.684, 2.728
71.083, 3.846
72.482, 7.316
73.881, 2.238
75.280, 9.941
76.678, 1.555
78.076, 23.234
79.474, 45.082
80.872, 93.085
82.270, 161.231
83.667, 258.511
85.064, 407.921
86.461, 673.465
87.858, 988.145
89.254, 1188.952
90.650, 1113.877
92.046, 927.908
93.442, 775.032
94.838, 588.242
96.233, 497.530
97.628, 428.888
99.023, 425.313
100.418, 390.799
101.812, 410.344
103.206, 394.942
104.600, 419.593
105.994, 391.293
107.387, 403.040
108.781, 421.833
110.174, 443.668
111.566, 432.546
112.959, 474.463
114.351, 447.419
115.744, 489.413
117.136, 473.443
118.527, 491.508
119.919, 481.650
121.310, 491.915
122.701, 487.298
124.092, 514.803
125.482, 489.379
126.873, 481.016
128.263, 513.676
129.653, 496.344
131.042, 502.019
132.432, 501.695
133.821, 504.355
135.210, 552.004
136.599, 594.645
137.987, 657.282
139.376, 810.915
140.764, 1022.547
142.152, 1481.179
143.539, 2127.810
144.927, 3178.441
146.314, 4697.073
147.701, 6734.710
149.088, 9303.357
150.474, 12190.009
151.861, 14629.673
153.247, 15989.344
154.633, 14469.023
156.018, 10658.717
157.404, 6646.417
158.789, 4077.129
160.174, 2571.852
161.559, 1715.585
162.943, 1243.329
164.327, 933.084
165.711, 756.851
167.095, 621.629
168.479, 558.418
169.862, 467.219
171.246, 440.032
172.628, 398.856
174.011, 357.692
175.394, 376.538
176.776, 363.396
178.158, 363.264
179.540, 391.144
180.922, 368.033
182.303, 439.934
183.684, 440.845
185.065, 510.766
186.446, 539.697
187.826, 653.639
189.207, 791.848
190.587, 948.095
191.967, 1281.669
193.346, 1479.011
194.726, 1617.755
196.105, 1497.665
197.484, 1274.243
198.862, 1119.295
200.241, 949.278
201.619, 883.501
202.997, 835.654
204.375, 917.490
205.753, 1019.593
207.130, 1330.471
208.507, 1983.354
209.884, 3140.245
211.261, 5359.144
212.638, 9075.052
214.014, 15664.966
215.390, 25014.189
216.766, 36073.496
218.141, 43762.863
219.517, 43582.293
220.892, 32141.760
222.267, 17741.264
223.642, 9620.801
225.016, 5610.363
226.391, 3341.953
227.765, 2195.558
229.139, 1594.181
230.512, 1331.836
231.886, 1201.521
233.259, 1138.235
234.632, 1157.875
236.005, 1222.535
237.377, 1423.323
238.749, 1846.907
240.122, 2633.691
241.493, 3985.259
242.865, 5465.129
244.237, 6790.021
245.608, 6875.930
246.979, 5867.854
248.350, 3899.796
249.720, 2419.753
251.090, 1494.724
252.461, 929.710
253.830, 649.710
255.200, 442.722
256.570, 376.748
257.939, 302.786
259.308, 252.835
260.677, 239.895
262.045, 200.966
263.414, 223.048
264.782, 191.141
266.150, 212.245
267.517, 186.358
268.885, 186.482
270.252, 205.617
271.619, 202.761
272.986, 199.914
274.353, 199.075
275.719, 203.244
277.085, 197.423
278.451, 193.610
279.817, 190.807
281.182, 170.016
282.548, 157.236
283.913, 166.466
285.278, 155.706
286.642, 158.958
288.007, 148.217
289.371, 167.483
290.735, 151.753
292.099, 144.028
293.462, 160.308
294.826, 166.592
296.189, 186.880
297.552, 172.173
298.914, 144.470
300.277, 167.771
301.639, 134.077
303.001, 130.388
304.363, 129.703
305.724, 127.022
307.086, 81.346
308.447, 72.675
309.808, 73.008
311.168, 71.346
312.529, 52.688
313.889, 63.035
315.249, 33.387
316.609, 43.742
317.969, 22.103
319.328, 38.471
320.687, 22.843
322.046, 22.220
323.405, 8.603
324.764, 2.990
326.122, 0.094
327.480, 17.224
328.838, 4.831
330.196, 13.435
331.553, 13.039
332.910, 26.642
334.267, 17.249
335.624, 18.857
336.981, 14.466
338.337, 12.075
339.693, 15.206
341.049, 30.295
342.405, 20.910
343.760, 19.527
345.116, 22.146
346.471, 9.768
347.826, 0.610
349.180, 14.009
350.535, 8.630
351.889, 9.250
353.243, 12.877
354.597, 3.511
355.950, 5.156
357.304, 5.810
358.657, 0.473
360.010, 5.117
361.362, 6.170
362.715, 23.480
364.067, 32.788
365.419, 43.092
366.771, 46.394
368.123, 51.695
369.474, 52.997
370.825, 61.303
372.176, 59.612
373.527, 57.924
374.877, 72.239
376.228, 57.558
377.578, 75.880
378.928, 71.208
380.277, 78.543
381.627, 101.884
382.976, 108.231
384.325, 120.585
385.674, 121.944
387.023, 128.308
388.371, 144.678
389.719, 147.052
391.067, 134.431
392.415, 146.815
393.762, 130.203
395.110, 147.596
396.457, 151.993
397.804, 149.394
399.150, 151.800
400.497, 157.724
401.843, 154.624
403.189, 170.043
404.535, 174.466
405.881, 178.893
407.226, 195.323
408.571, 213.757
409.916, 223.194
411.261, 226.635
412.605, 265.080
413.950, 254.528
415.294, 289.982
416.638, 343.440
417.981, 391.934
419.325, 447.410
420.668, 536.881
422.011, 595.355
423.354, 690.832
424.697, 808.312
426.039, 987.102
427.381, 1143.623
428.723, 1309.177
430.065, 1473.022
431.406, 1617.659
432.748, 1723.260
434.089, 1834.769
435.430, 1865.283
436.770, 1853.814
438.111, 1764.387
439.451, 1583.157
440.791, 1308.171
442.131, 1031.518
443.471, 799.080
444.810, 604.043
446.149, 519.469
447.488, 497.175
448.827, 469.040
450.166, 480.755
451.504, 567.355
452.842, 633.887
454.180, 798.469
455.518, 1047.003
456.855, 1368.539
458.193, 1835.075
459.530, 2468.613
460.867, 3401.152
462.203, 4547.691
463.540, 6155.232
464.876, 8431.775
466.212, 12169.315
467.548, 18349.861
468.883, 27790.404
470.219, 40500.949
471.554, 51911.496
472.889, 54562.043
474.224, 49092.625
475.558, 35873.168
476.892, 23753.752
478.227, 15584.350
479.561, 10425.492
480.894, 7338.173
482.228, 5267.827
483.561, 3978.640
484.894, 3228.200
486.227, 2584.750
487.559, 2135.217
488.892, 1809.797
490.224, 1473.014
491.556, 1273.786
492.888, 1138.573
494.220, 946.614
495.551, 848.159
496.882, 780.610
498.213, 733.294
499.544, 640.103
500.874, 592.735
502.205, 540.537
503.535, 516.848
504.865, 457.229
506.194, 460.462
507.524, 416.363
508.853, 415.791
510.182, 399.453
511.511, 403.402
512.840, 396.313
514.168, 367.022
515.496, 367.226
516.824, 366.345
518.152, 327.428
519.480, 335.778
520.807, 341.321
522.134, 323.876
523.461, 302.436
524.788, 291.996
526.114, 281.558
527.441, 274.119
528.767, 247.682
530.093, 243.245
531.418, 228.809
532.744, 217.374
534.069, 212.939
535.394, 215.504
536.719, 203.071
538.044, 202.342
539.368, 189.260
540.693, 196.993
542.017, 197.597
543.340, 202.405
544.664, 202.977
545.987, 204.315
547.311, 210.173
548.634, 206.796
549.956, 200.365
551.279, 202.935
552.601, 203.504
553.923, 193.074
555.245, 186.079
556.567, 154.213
557.889, 153.783
559.210, 147.352
560.531, 116.922
561.852, 109.491
563.173, 80.060
564.493, 57.662
565.813, 51.269
567.133, 30.849
568.453, 27.474
569.773, 25.151
571.092, 30.019
572.412, 21.701
573.731, 10.837
575.049, 9.700
576.368, 1.365
577.686, 3.562
579.005, 7.549
580.323, 8.249
581.640, 15.942
582.958, 5.649
584.275, 3.324
585.593, 2.367
586.909, 1.033
588.226, 3.863
589.543, 0.264
590.859, 0.398
592.175, 5.093
593.491, 4.821
594.807, 3.685
596.122, 1.609
597.438, 2.187
598.753, 6.085
600.068, 11.436
601.382, 14.774
602.697, 5.043
604.011, 12.469
605.325, 16.879
606.639, 3.293
607.952, 0.717
609.266, 1.942
610.579, 9.825
611.892, 3.015
613.205, 18.564
614.518, 16.044
615.830, 17.572
617.142, 26.065
618.454, 28.634
619.766, 33.110
621.078, 35.622
622.389, 36.140
623.700, 39.654
625.011, 42.367
626.322, 34.857
627.632, 29.361
628.943, 20.896
630.253, 16.347
631.563, 4.797
632.872, 11.254
634.182, 3.700
635.491, 3.144
636.800, 7.414
638.109, 0.021
639.418, 0.453
640.726, 2.118
642.035, 6.306
643.343, 10.729
644.651, 6.150
645.958, 8.570
647.266, 13.993
648.573, 17.416
649.880, 21.840
651.187, 27.267
652.494, 29.698
653.800, 22.132
655.106, 26.570
656.412, 19.010
657.718, 25.451
659.024, 20.895
660.329, 25.345
661.634, 26.798
662.939, 28.255
664.244, 23.716
665.549, 27.178
666.853, 26.640
668.157, 25.103
669.461, 27.568
670.765, 26.033
672.069, 24.501
673.372, 34.968
674.675, 31.436
675.978, 29.905
677.281, 34.372
678.583, 26.838
679.886, 35.302
681.188, 30.763
682.490, 39.223
683.792, 45.681
685.093, 50.137
686.394, 42.591
687.696, 38.042
688.997, 36.492
690.297, 19.940
691.598, 14.385
692.898, 12.829
694.198, 7.270
695.498, 6.710
696.798, 0.146
698.097, 6.579
699.397, 0.990
700.696, 10.436
701.995, 6.861
703.293, 8.283
704.592, 5.704
705.890, 13.121
707.188, 15.537
708.486, 22.951
709.784, 19.362
711.081, 19.771
712.378, 26.178
713.675, 22.582
714.972, 23.984
716.269, 24.384
717.565, 25.782
718.862, 17.177
720.158, 8.571
721.453, 7.961
722.749, 11.349
724.045, 6.734
725.340, 3.117
726.635, 1.504
727.930, 2.871
729.224, 5.758
730.519, 1.394
731.813, 3.965
733.107, 6.713
734.401, 3.374
735.694, 1.969
736.988, 2.307
738.281, 1.643
739.574, 4.025
740.867, 1.994
742.160, 3.282
743.452, 5.464
744.744, 7.497
746.036, 2.666
747.328, 0.869
748.620, 0.164
749.911, 1.452
751.202, 2.723
752.493, 2.409
753.784, 6.021
755.075, 1.761
756.365, 0.209
757.655, 1.559
758.945, 3.270
760.235, 0.636
761.525, 0.369
762.814, 0.352
764.103, 2.277
765.392, 0.910
766.681, 2.165
767.969, 0.370
769.258, 7.619
770.546, 1.867
771.834, 5.493
773.122, 0.645
774.409, 7.596
775.697, 2.834
776.984, 2.070
778.271, 2.304
779.558, 3.465
780.844, 4.763
782.131, 2.988
783.417, 0.211
784.703, 12.431
785.989, 14.650
787.274, 8.843
788.560, 14.058
789.845, 14.235
791.130, 18.401
792.415, 17.014
793.699, 23.092
794.983, 21.196
796.268, 23.138
797.552, 23.331
798.835, 33.532
800.119, 40.720
801.402, 44.918
802.686, 47.113
803.969, 57.307
805.251, 65.500
806.534, 76.690
807.816, 88.879
809.098, 105.066
810.380, 127.252
811.662, 134.435
812.944, 158.617
814.225, 169.797
815.506, 186.975
816.787, 203.151
818.068, 209.660
819.349, 220.498
820.629, 218.669
821.909, 218.837
823.189, 213.004
824.469, 195.170
825.749, 206.333
827.028, 171.494
828.307, 175.653
829.586, 154.810
830.865, 149.965
832.144, 144.128
833.422, 137.288
834.700, 149.437
835.978, 131.585
837.256, 158.730
838.534, 141.873
839.811, 163.015
841.088, 162.154
842.365, 182.311
843.642, 189.453
844.919, 186.593
846.195, 191.768
847.472, 191.015
848.748, 194.022
850.023, 191.125
851.299, 190.085
852.575, 194.171
853.850, 197.173
855.125, 207.322
856.400, 224.573
857.674, 246.677
858.949, 259.804
860.223, 255.918
861.497, 264.031
862.771, 259.163
864.045, 260.532
865.318, 290.374
866.591, 262.478
867.864, 258.580
869.137, 264.680
870.410, 233.779
871.682, 245.875
872.955, 250.985
874.227, 243.045
875.499, 245.097
876.770, 222.176
878.042, 223.208
879.313, 217.186
880.584, 200.006
881.855, 191.982
883.126, 176.494
884.396, 154.348
885.667, 127.328
886.937, 108.890
888.207, 92.544
889.476, 80.483
890.746, 79.436
892.015, 76.369
893.284, 80.974
894.553, 66.913
895.822, 71.873
897.090, 73.394
898.359, 69.414
899.627, 70.927
900.895, 68.289
902.163, 65.173
903.430, 67.105
904.698, 60.058
905.965, 55.015
907.232, 61.548
908.499, 49.496
909.765, 43.424
911.032, 38.277
912.298, 41.460
913.564, 43.745
914.830, 36.734
916.095, 36.778
917.361, 33.678
918.626, 33.689
919.891, 41.714
921.156, 53.717
922.420, 62.793
923.685, 72.812
924.949, 72.863
926.213, 93.836
927.477, 98.899
928.740, 116.924
930.004, 119.977
931.267, 122.995
932.530, 122.812
933.793, 152.850
935.056, 135.871
936.318, 138.859
937.581, 145.000
938.843, 133.069
940.104, 137.127
941.366, 138.193
942.628, 111.259
943.889, 93.324
945.150, 79.391
946.411, 70.458
947.672, 47.533
948.932, 46.600
950.193, 50.667
951.453, 33.736
952.713, 31.801
953.973, 24.866
955.232, 20.940
956.491, 28.003
957.751, 18.066
959.010, 14.127
960.268, 18.190
961.527, 10.260
962.785, 16.330
964.044, 4.389
965.302, 6.447
966.559, 4.504
967.817, 7.571
969.075, 8.706
970.332, 4.771
971.589, 5.825
972.846, 6.904
974.102, 8.957
975.359, 9.516
976.615, 11.019
977.871, 10.140
979.127, 11.192
980.383, 9.242
981.638, 4.292
982.893, 1.345
984.149, 1.394
985.404, 3.442
986.658, 3.493
987.913, 3.540
989.167, 6.587
990.421, 4.633
991.675, 4.738
992.929, 0.276
994.183, 1.775
995.436, 1.825
996.689, 1.128
997.942, 0.816
999.195, 0.958
1000.448, 1.000
1001.700, 5.047
1002.952, 4.094
1004.204, 2.864
1005.456, 0.818
1006.708, 3.768
1007.959, 0.271
1009.210, 1.691
1010.461, 2.351
1011.712, 2.388
1012.963, 0.473
1014.213, 5.568
1015.464, 4.603
1016.714, 5.738
1017.964, 10.773
1019.214, 6.808
1020.463, 2.842
1021.712, 5.876
1022.962, 0.091
1024.210, 4.942
1025.459, 2.984
1026.708, 8.106
1027.956, 6.139
1029.204, 5.171
1030.452, 0.796
1031.700, 1.324
1032.948, 5.365
1034.195, 1.599
1035.442, 3.466
1036.689, 2.498
1037.936, 6.752
1039.183, 6.791
1040.429, 0.831
1041.676, 1.871
1042.922, 3.919
1044.168, 3.962
1045.413, 7.008
1046.659, 6.058
1047.904, 5.684
1049.149, 5.125
1050.394, 3.194
1051.639, 3.240
1052.884, 2.286
1054.128, 4.335
1055.372, 0.403
1056.616, 0.550
1057.860, 5.506
1059.104, 4.556
1060.347, 7.612
1061.590, 3.155
1062.833, 5.104
1064.076, 0.962
1065.319, 0.987
1066.561, 3.061
1067.803, 3.110
1069.046, 3.159
1070.287, 3.208
1071.529, 1.274
1072.771, 3.322
1074.012, 4.371
1075.253, 5.419
1076.494, 3.468
1077.735, 5.516
1078.975, 0.420
1080.216, 7.635
1081.456, 7.683
1082.696, 2.737
1083.936, 6.786
1085.175, 5.834
1086.415, 1.118
1087.654, 2.931
1088.893, 3.980
1090.132, 5.028
1091.371, 6.496
1092.609, 5.127
1093.847, 4.179
1095.085, 9.224
1096.323, 1.270
1097.561, 5.316
1098.799, 5.363
1100.036, 2.408
1101.273, 5.452
1102.510, 4.429
1103.747, 0.541
1104.983, 5.585
1106.220, 4.628
1107.456, 5.672
1108.692, 2.715
1109.928, 0.757
1111.163, 0.800
1112.399, 3.842
1113.634, 6.883
1114.869, 10.925
1116.104, 0.966
1117.339, 0.993
1118.573, 1.047
1119.808, 4.087
1121.042, 0.126
1122.276, 10.165
1123.509, 0.205
1124.743, 2.243
1125.976, 5.296
1127.210, 8.345
1128.443, 5.383
1129.675, 4.420
1130.908, 2.458
1132.141, 9.485
1133.373, 4.513
1134.605, 2.550
1135.837, 8.591
1137.068, 3.627
1138.300, 7.662
1139.531, 3.698
1140.762, 4.733
1141.993, 1.748
1143.224, 1.776
1144.455, 2.339
1145.685, 4.795
1146.915, 2.819
1148.145, 3.844
1149.375, 1.868
1150.605, 1.902
1151.834, 5.935
1153.063, 1.847
1154.292, 0.846
1155.521, 4.709
1156.750, 4.734
1157.978, 1.701
1159.207, 5.730
1160.435, 1.241
1161.663, 1.766
1162.891, 3.796
1164.118, 1.174
1165.345, 4.855
1166.573, 2.884
1167.800, 4.913
1169.026, 2.940
1170.253, 4.969
1171.480, 9.987
1172.706, 1.015
1173.932, 0.957
1175.158, 3.069
1176.383, 6.096
1177.609, 6.122
1178.834, 0.887
1180.059, 1.165
1181.284, 9.189
1182.509, 0.143
1183.734, 4.167
1184.958, 2.925
1186.182, 6.097
1187.406, 3.121
1188.630, 6.179
1189.854, 1.195
1191.077, 6.216
1192.301, 2.237
1193.524, 1.257
1194.747, 7.277
1195.969, 4.297
1197.192, 4.317
1198.414, 3.336
1199.636, 5.355
1200.858, 2.371
1202.080, 0.389
1203.302, 5.396
1204.523, 1.380
1205.744, 7.456
1206.966, 1.473
1208.186, 2.073
1209.407, 5.764
1210.628, 0.478
1211.848, 2.483
1213.068, 3.440
1214.288, 5.466
1215.508, 5.479
1216.727, 4.493
1217.947, 0.505
1219.166, 4.510
1220.385, 13.522
1221.604, 7.534
1222.822, 7.546
1224.041, 3.557
1225.259, 0.568
1226.477, 1.068
1227.695, 4.552
1228.913, 1.562
1230.130, 5.570
1231.348, 6.579
1232.565, 8.588
1233.782, 2.525
1234.999, 2.532
1236.215, 2.544
1237.432, 1.552
1238.648, 6.559
1239.864, 1.566
1241.080, 3.573
1242.296, 6.676
1243.511, 3.675
1244.726, 2.681
1245.942, 11.687
1247.156, 5.690
1248.371, 7.695
1249.586, 6.701
1250.800, 7.695
1252.014, 8.700
1253.228, 6.709
1254.442, 8.713
1255.656, 6.715
1256.869, 9.709
1258.083, 3.703
1259.296, 8.706
1260.509, 3.709
1261.722, 6.712
1262.934, 7.710
1264.147, 9.633
1265.359, 5.626
1266.571, 6.511
1267.783, 10.607
1268.994, 2.609
1270.206, 5.589
1271.417, 0.586
1272.628, 0.773
1273.839, 5.588
1275.050, 3.588
1276.260, 2.588
1277.471, 7.585
1278.681, 6.585
1279.891, 2.584
1281.101, 1.581
1282.310, 8.580
1283.520, 10.579
1284.729, 5.577
1285.938, 7.576
1287.147, 5.575
1288.356, 7.567
1289.564, 9.559
1290.773, 8.552
1291.981, 4.618
1293.189, 4.613
1294.397, 4.269
1295.604, 11.614
1296.812, 5.602
1298.019, 6.595
1299.226, 7.583
1300.433, 4.567
1301.640, 1.561
1302.846, 2.459
1304.053, 6.546
1305.259, 5.540
1306.465, 6.431
1307.671, 8.334
1308.876, 8.413
1310.082, 9.307
1311.287, 8.303
1312.492, 5.295
1313.697, 4.530
1314.902, 3.278
1316.106, 1.269
1317.310, 4.260
1318.515, 5.246
1319.719, 4.151
1320.922, 8.142
1322.126, 4.132
1323.329, 2.122
1324.533, 0.025
1325.736, 3.007
1326.939, 5.997
1328.141, 4.420
1329.344, 8.948
1330.546, 2.726
1331.748, 1.715
1332.950, 0.295
1334.152, 8.694
1335.354, 11.675
1336.555, 5.664
1337.757, 5.648
1338.958, 4.628
1340.159, 9.615
1341.359, 8.601
1342.560, 10.588
1343.760, 3.574
1344.960, 4.560
1346.160, 4.543
1347.360, 7.509
1348.560, 4.496
1349.759, 0.477
1350.959, 2.508
1352.158, 6.513
1353.357, 4.290
1354.555, 5.274
1355.754, 2.241
1356.952, 7.224
1358.151, 0.209
1359.349, 2.194
1360.546, 6.179
1361.744, 9.163
1362.941, 7.132
1364.139, 10.117
1365.336, 6.102
1366.533, 5.085
1367.730, 6.068
1368.926, 6.051
1370.123, 7.019
1371.319, 6.994
1372.515, 7.977
1373.711, 6.955
1374.906, 5.938
1376.102, 5.922
1377.297, 3.905
1378.492, 4.889
1379.687, 0.884
1380.882, 7.869
1382.077, 2.841
1383.271, 2.831
1384.465, 3.826
1385.659, 1.181
1386.853, 5.812
1388.047, 1.806
1389.240, 3.799
1390.434, 4.792
1391.627, 6.785
1392.820, 6.778
1394.013, 6.770
1395.205, 5.763
1396.398, 0.756
1397.590, 6.747
1398.782, 5.722
1399.974, 10.702
1401.166, 3.693
1402.357, 1.685
1403.549, 5.670
1404.740, 9.661
1405.931, 0.652
1407.122, 7.643
1408.313, 3.634
1409.503, 4.624
1410.693, 1.614
1411.883, 1.603
1413.073, 2.593
1414.263, 3.574
1415.453, 3.047
1416.642, 1.553
1417.831, 3.543
1419.020, 3.534
1420.209, 6.525
1421.398, 6.509
1422.587, 5.500
1423.775, 6.492
1424.963, 6.435
1426.151, 5.427
1427.339, 8.420
1428.526, 2.412
1429.714, 1.338
1430.901, 1.333
1432.088, 5.327
1433.275, 9.322
1434.462, 0.682
1435.648, 7.313
1436.835, 4.309
1438.021, 0.208
1439.207, 5.474
1440.393, 4.461
1441.579, 6.426
1442.764, 1.413
1443.949, 6.399
1445.135, 0.386
1446.320, 1.373
1447.504, 10.360
1448.689, 6.347
1449.873, 3.334
1451.058, 8.322
1452.242, 5.302
1453.426, 0.289
1454.609, 9.275
1455.793, 9.063
1456.976, 7.045
1458.159, 11.027
1459.342, 6.009
1460.525, 0.019
1461.708, 0.039
1462.890, 0.876
1464.073, 4.921
1465.255, 7.889
1466.437, 1.867
1467.619, 3.844
1468.800, 2.819
1469.982, 4.796
1471.163, 3.769
1472.344, 1.744
1473.525, 3.718
1474.706, 4.691
1475.886, 9.664
1477.066, 8.404
1478.247, 7.601
1479.427, 6.356
1480.607, 7.319
1481.786, 4.250
1482.966, 3.233
1484.145, 9.215
1485.324, 1.189
1486.503, 11.171
1487.682, 1.151
1488.860, 4.121
1490.039, 0.104
1491.217, 0.910
1492.395, 5.060
1493.573, 3.028
1494.751, 5.014
1495.928, 11.000
1497.106, 2.986
1498.283, 10.973
1499.460, 5.961
1500.637, 5.950
1501.814, 2.947
1502.990, 3.342
1504.166, 3.239
1505.342, 4.980
1506.518, 5.999
1507.694, 5.586
1508.870, 6.431
1510.045, 7.579
1511.221, 7.577
1512.396, 6.576
1513.571, 8.573
1514.745, 3.563
1515.920, 3.576
1517.094, 4.630
1518.269, 3.702
1519.443, 3.808
1520.616, 0.033
1521.790, 9.195
1522.964, 0.000
##END=



