##NAMES=Sulphur
##RRUFFID=R050006
##IDEAL CHEMISTRY=S
##LOCALITY=San Felipe, Mexicali, Baja California Norte, Mexico
##OWNER=RRUFF
##SOURCE=Eugene Schlepp
##DESCRIPTION=Yellow single crystal
##STATUS=The identification of this mineral has been confirmed by X-ray diffraction and chemical analysis
##URL=rruff.info/R050006
##MEASURED CHEMISTRY=S_1.00_
##PIN_ID=L00244
##ORIENTATION=Laser parallel to -c* (0 0 -1). Fiducial mark perpendicular to laser is parallel to a [1 0 0]
48.666, 0.000
50.068, 2.316
51.471, 12.327
52.873, 18.977
54.275, 8.197
55.677, 19.197
57.079, 20.140
58.480, 19.259
59.882, 12.834
61.283, 22.103
62.683, 22.332
64.084, 12.973
65.484, 11.977
66.884, 9.304
68.284, 5.922
69.684, 4.194
71.083, 3.066
72.482, 7.714
73.881, 6.159
75.280, 3.581
76.678, 7.490
78.076, 26.554
79.474, 53.760
80.872, 94.097
82.270, 122.556
83.667, 193.129
85.064, 330.807
86.461, 545.591
87.858, 942.487
89.254, 1126.493
90.650, 1080.600
92.046, 886.797
93.442, 710.076
94.838, 570.428
96.233, 501.848
97.628, 472.329
99.023, 448.866
100.418, 433.457
101.812, 435.098
103.206, 441.786
104.600, 447.519
105.994, 442.295
107.387, 435.111
108.781, 456.966
110.174, 490.859
111.566, 465.787
112.959, 481.750
114.351, 466.747
115.744, 455.775
117.136, 466.835
118.527, 484.925
119.919, 470.044
121.310, 484.200
122.701, 466.447
124.092, 464.832
125.482, 425.310
126.873, 423.875
128.263, 426.488
129.653, 430.109
131.042, 422.736
132.432, 410.364
133.821, 399.977
135.210, 403.582
136.599, 401.179
137.987, 440.773
139.376, 518.364
140.764, 686.953
142.152, 963.544
143.539, 1333.133
144.927, 1941.720
146.314, 2606.310
147.701, 3197.906
149.088, 3600.509
150.474, 3947.118
151.861, 4352.734
153.247, 4714.359
154.633, 4435.993
156.018, 3575.633
157.404, 2550.283
158.789, 1740.942
160.174, 1152.610
161.559, 816.288
162.943, 572.975
164.327, 415.672
165.711, 385.379
167.095, 290.096
168.479, 276.823
169.862, 235.560
171.246, 219.306
172.628, 196.063
174.011, 189.829
175.394, 192.604
176.776, 197.390
178.158, 197.184
179.540, 233.988
180.922, 279.801
182.303, 297.623
183.684, 341.455
185.065, 386.295
186.446, 386.145
187.826, 392.003
189.207, 414.871
190.587, 449.748
191.967, 535.684
193.346, 561.962
194.726, 603.664
196.105, 561.783
197.484, 470.091
198.862, 445.641
200.241, 387.338
201.619, 371.735
202.997, 417.989
204.375, 467.089
205.753, 568.343
207.130, 824.193
208.507, 1310.007
209.884, 2200.828
211.261, 3683.657
212.638, 5883.494
214.014, 9352.337
215.390, 14019.573
216.766, 19548.887
218.141, 24268.256
219.517, 24767.674
220.892, 18167.125
222.267, 9620.610
223.642, 4962.122
225.016, 2776.667
226.391, 1619.223
227.765, 1071.785
229.139, 739.377
230.512, 611.996
231.886, 547.640
233.259, 508.309
234.632, 530.000
236.005, 540.573
237.377, 612.219
238.749, 767.741
240.122, 1017.349
241.493, 1475.137
242.865, 1978.942
244.237, 2614.762
245.608, 2731.598
246.979, 2320.448
248.350, 1496.312
249.720, 890.189
251.090, 530.080
252.461, 350.983
253.830, 236.898
255.200, 161.825
256.570, 137.763
257.939, 104.712
259.308, 101.671
260.677, 93.640
262.045, 91.618
263.414, 77.606
264.782, 77.603
266.150, 77.611
267.517, 81.628
268.885, 87.412
270.252, 87.690
271.619, 101.736
272.986, 103.792
274.353, 106.856
275.719, 100.931
277.085, 92.015
278.451, 75.106
279.817, 76.204
281.182, 74.309
282.548, 66.422
283.913, 63.541
285.278, 60.667
286.642, 51.801
288.007, 67.940
289.371, 71.085
290.735, 84.235
292.099, 63.389
293.462, 79.547
294.826, 88.710
296.189, 84.876
297.552, 99.047
298.914, 96.222
300.277, 94.401
301.639, 88.584
303.001, 85.772
304.363, 74.964
305.724, 76.160
307.086, 64.361
308.447, 55.566
309.808, 61.775
311.168, 59.989
312.529, 69.207
313.889, 67.429
315.249, 60.658
316.609, 67.892
317.969, 76.130
319.328, 65.373
320.687, 64.622
322.046, 48.878
323.405, 44.138
324.764, 45.403
326.122, 22.671
327.480, 23.943
328.838, 31.219
330.196, 19.499
331.553, 20.782
332.910, 1.070
334.267, 0.360
335.624, 3.346
336.981, 15.051
338.337, 12.756
339.693, 18.460
341.049, 16.166
342.405, 24.873
343.760, 29.583
345.116, 17.297
346.471, 25.012
347.826, 18.730
349.180, 9.450
350.535, 8.170
351.889, 14.889
353.243, 14.609
354.597, 23.330
355.950, 14.055
357.304, 3.784
358.657, 13.519
360.010, 7.266
361.362, 2.973
362.715, 12.203
364.067, 15.427
365.419, 23.647
366.771, 28.860
368.123, 38.069
369.474, 33.276
370.825, 41.485
372.176, 40.698
373.527, 30.914
374.877, 47.133
376.228, 55.356
377.578, 77.582
378.928, 90.815
380.277, 93.055
381.627, 97.300
382.976, 117.552
384.325, 114.808
385.674, 128.070
387.023, 131.337
388.371, 141.608
389.719, 150.899
391.067, 155.166
392.415, 172.451
393.762, 184.741
395.110, 202.036
396.457, 233.334
397.804, 235.636
399.150, 275.944
400.497, 341.255
401.843, 399.572
403.189, 483.893
404.535, 589.218
405.881, 734.547
407.226, 903.880
408.571, 1017.219
409.916, 1083.781
411.261, 1166.912
412.605, 1148.267
413.950, 1152.626
415.294, 1144.992
416.638, 1223.381
417.981, 1372.753
419.325, 1543.129
420.668, 1749.508
422.011, 2067.889
423.354, 2434.297
424.697, 2777.684
426.039, 3302.076
427.381, 3735.039
428.723, 4467.437
430.065, 4979.046
431.406, 5445.566
432.748, 5969.465
434.089, 6240.510
435.430, 6782.991
436.770, 6646.136
438.111, 6407.880
439.451, 5756.335
440.791, 4490.771
442.131, 3440.200
443.471, 2350.739
444.810, 1693.198
446.149, 1210.667
447.488, 945.458
448.827, 800.900
450.166, 810.345
451.504, 843.790
452.842, 952.237
454.180, 1164.686
455.518, 1549.135
456.855, 2150.588
458.193, 3123.040
459.530, 4338.495
460.867, 6245.952
462.203, 8625.409
463.540, 12113.867
464.876, 17404.328
466.212, 23154.795
467.548, 29055.262
468.883, 33005.719
470.219, 38066.191
471.554, 43626.660
472.889, 43007.133
474.224, 37747.648
475.558, 26678.512
476.892, 17439.107
478.227, 11209.604
479.561, 7388.379
480.894, 5141.192
482.228, 3612.229
483.561, 2699.774
484.894, 2144.252
486.227, 1679.731
487.559, 1413.211
488.892, 1229.691
490.224, 1101.172
491.556, 971.654
492.888, 884.136
494.220, 810.574
495.551, 752.976
496.882, 699.898
498.213, 691.834
499.544, 610.581
500.874, 588.014
502.205, 526.566
503.535, 465.640
504.865, 448.452
506.194, 427.929
507.524, 383.981
508.853, 376.371
510.182, 359.256
511.511, 340.203
512.840, 346.790
514.168, 331.388
515.496, 334.508
516.824, 325.766
518.152, 313.283
519.480, 307.927
520.807, 300.903
522.134, 288.358
523.461, 273.855
524.788, 274.354
526.114, 261.854
527.441, 266.354
528.767, 246.856
530.093, 236.359
531.418, 209.863
532.744, 231.368
534.069, 207.874
535.394, 197.380
536.719, 211.897
538.044, 208.710
539.368, 201.331
540.693, 189.944
542.017, 190.550
543.340, 195.068
544.664, 205.614
545.987, 176.142
547.311, 187.655
548.634, 193.204
549.956, 166.719
551.279, 169.242
552.601, 157.758
553.923, 142.274
555.245, 119.791
556.567, 106.935
557.889, 92.860
559.210, 74.422
560.531, 59.993
561.852, 44.536
563.173, 39.113
564.493, 20.787
565.813, 32.426
567.133, 18.492
568.453, 5.348
569.773, 15.434
571.092, 10.373
572.412, 9.480
573.731, 5.485
575.049, 1.102
576.368, 14.835
577.686, 5.479
579.005, 6.053
580.323, 11.636
581.640, 1.308
582.958, 4.883
584.275, 10.688
585.593, 8.589
586.909, 7.013
588.226, 2.431
589.543, 0.823
590.859, 7.264
592.175, 9.696
593.491, 0.115
594.807, 11.116
596.122, 3.907
597.438, 1.790
598.753, 3.381
600.068, 5.576
601.382, 0.069
602.697, 2.627
604.011, 2.371
605.325, 4.022
606.639, 7.476
607.952, 4.989
609.266, 16.455
610.579, 17.937
611.892, 22.441
613.205, 22.942
614.518, 34.487
615.830, 37.983
617.142, 40.452
618.454, 36.986
619.766, 42.466
621.078, 36.992
622.389, 34.466
623.700, 31.012
625.011, 20.553
626.322, 10.027
627.632, 9.516
628.943, 8.076
630.253, 4.551
631.563, 2.003
632.872, 4.553
634.182, 0.082
635.491, 3.354
636.800, 3.211
638.109, 3.753
639.418, 7.328
640.726, 1.091
642.035, 6.508
643.343, 7.924
644.651, 8.337
645.958, 19.750
647.266, 32.161
648.573, 34.887
649.880, 49.978
651.187, 47.384
652.494, 48.790
653.800, 57.194
655.106, 36.598
656.412, 41.005
657.718, 40.413
659.024, 42.825
660.329, 39.239
661.634, 33.658
662.939, 38.083
664.244, 32.510
665.549, 22.943
666.853, 26.378
668.157, 26.815
669.461, 18.253
670.765, 16.693
672.069, 10.135
673.372, 13.582
674.675, 14.031
675.978, 11.480
677.281, 7.932
678.583, 11.384
679.886, 13.834
681.188, 13.283
682.490, 17.730
683.792, 13.175
685.093, 17.618
686.394, 13.060
687.696, 12.499
688.997, 17.937
690.297, 22.374
691.598, 11.808
692.898, 7.241
694.198, 2.328
695.498, 1.098
696.798, 1.521
698.097, 1.941
699.397, 8.358
700.696, 5.774
701.995, 7.354
703.293, 14.597
704.592, 6.006
705.890, 10.413
707.188, 8.817
708.486, 13.219
709.784, 11.619
711.081, 11.017
712.378, 12.413
713.675, 6.807
714.972, 6.198
716.269, 5.587
717.565, 7.974
718.862, 5.358
720.158, 0.740
721.453, 2.118
722.749, 5.506
724.045, 2.138
725.340, 5.775
726.635, 3.419
727.930, 6.068
729.224, 4.426
730.519, 3.611
731.813, 0.077
733.107, 2.252
734.401, 6.578
735.694, 5.901
736.988, 1.221
738.281, 6.516
739.574, 1.170
740.867, 0.139
742.160, 3.876
743.452, 7.178
744.744, 3.269
746.036, 6.449
747.328, 3.249
748.620, 2.098
749.911, 1.880
751.202, 9.329
752.493, 1.378
753.784, 0.859
755.075, 4.884
756.365, 2.624
757.655, 2.526
758.945, 2.245
760.235, 0.026
761.525, 6.868
762.814, 5.111
764.103, 12.351
765.392, 8.590
766.681, 5.827
767.969, 6.061
769.258, 2.293
770.546, 6.523
771.834, 9.750
773.122, 2.975
774.409, 8.198
775.697, 3.418
776.984, 8.636
778.271, 1.851
779.558, 2.064
780.844, 8.274
782.131, 6.482
783.417, 0.687
784.703, 7.890
785.989, 11.083
787.274, 16.234
788.560, 7.047
789.845, 14.121
791.130, 12.289
792.415, 7.176
793.699, 20.029
794.983, 14.654
796.268, 12.771
797.552, 26.954
798.835, 20.136
800.119, 19.315
801.402, 14.493
802.686, 19.632
803.969, 21.811
805.251, 34.015
806.534, 36.185
807.816, 46.354
809.098, 61.521
810.380, 63.686
811.662, 62.849
812.944, 75.011
814.225, 74.171
815.506, 84.329
816.787, 91.486
818.068, 97.640
819.349, 99.793
820.629, 105.944
821.909, 115.093
823.189, 114.240
824.469, 109.384
825.749, 105.527
827.028, 90.668
828.307, 82.807
829.586, 85.944
830.865, 70.080
832.144, 72.215
833.422, 77.346
834.700, 78.475
835.978, 79.603
837.256, 76.729
838.534, 89.852
839.811, 93.975
841.088, 92.132
842.365, 92.250
843.642, 100.483
844.919, 102.597
846.195, 103.781
847.472, 91.831
848.748, 107.647
850.023, 99.673
851.299, 106.675
852.575, 111.694
853.850, 124.788
855.125, 123.854
856.400, 144.942
857.674, 146.037
858.949, 134.095
860.223, 164.186
861.497, 153.268
862.771, 154.356
864.045, 159.442
865.318, 168.527
866.591, 163.614
867.864, 173.659
869.137, 162.797
870.410, 163.821
871.682, 155.872
872.955, 159.887
874.227, 159.954
875.499, 170.905
876.770, 148.427
878.042, 155.161
879.313, 140.661
880.584, 132.305
881.855, 122.780
883.126, 109.359
884.396, 99.321
885.667, 84.165
886.937, 80.096
888.207, 73.096
889.476, 70.086
890.746, 59.984
892.015, 63.977
893.284, 58.740
894.553, 59.582
895.822, 62.541
897.090, 68.543
898.359, 66.491
899.627, 69.531
900.895, 67.441
902.163, 71.204
903.430, 66.044
904.698, 67.068
905.965, 52.284
907.232, 57.224
908.499, 49.838
909.765, 39.704
911.032, 42.672
912.298, 40.454
913.564, 34.368
914.830, 34.387
916.095, 40.390
917.361, 40.437
918.626, 45.482
919.891, 56.487
921.156, 65.493
922.420, 75.843
923.685, 83.466
924.949, 96.498
926.213, 109.464
927.477, 114.486
928.740, 130.455
930.004, 141.479
931.267, 138.429
932.530, 142.699
933.793, 135.391
935.056, 130.421
936.318, 116.348
937.581, 97.354
938.843, 96.384
940.104, 81.416
941.366, 89.446
942.628, 71.480
943.889, 71.512
945.150, 58.517
946.411, 51.551
947.672, 40.595
948.932, 40.630
950.193, 35.672
951.453, 23.707
952.713, 26.740
953.973, 21.780
955.232, 23.812
956.491, 16.850
957.751, 17.884
959.010, 11.914
960.268, 8.943
961.527, 11.972
962.785, 7.000
964.044, 8.034
965.302, 6.166
966.559, 5.192
967.817, 4.228
969.075, 10.255
970.332, 6.279
971.589, 5.313
972.846, 13.336
974.102, 4.358
975.359, 8.380
976.615, 8.402
977.871, 8.423
979.127, 6.443
980.383, 6.505
981.638, 7.525
982.893, 2.548
984.149, 5.606
985.404, 8.657
986.658, 4.725
987.913, 6.779
989.167, 5.832
990.421, 2.857
991.675, 1.128
992.929, 4.887
994.183, 3.098
995.436, 4.915
996.689, 0.042
997.942, 0.970
999.195, 0.018
1000.448, 0.974
1001.700, 6.012
1002.952, 0.054
1004.204, 7.067
1005.456, 10.079
1006.708, 1.091
1007.959, 4.103
1009.210, 4.118
1010.461, 9.130
1011.712, 3.166
1012.963, 7.177
1014.213, 5.187
1015.464, 2.197
1016.714, 1.207
1017.964, 3.216
1019.214, 2.767
1020.463, 4.241
1021.712, 2.325
1022.962, 5.333
1024.210, 3.651
1025.459, 8.491
1026.708, 2.520
1027.956, 1.664
1029.204, 6.676
1030.452, 5.696
1031.700, 6.712
1032.948, 1.730
1034.195, 3.881
1035.442, 4.903
1036.689, 3.924
1037.936, 3.948
1039.183, 4.969
1040.429, 3.990
1041.676, 3.011
1042.922, 2.033
1044.168, 6.055
1045.413, 5.086
1046.659, 8.109
1047.904, 7.472
1049.149, 4.158
1050.394, 5.182
1051.639, 1.222
1052.884, 1.729
1054.128, 1.703
1055.372, 0.332
1056.616, 3.363
1057.860, 3.399
1059.104, 2.569
1060.347, 5.592
1061.590, 1.624
1062.833, 5.663
1064.076, 2.696
1065.319, 7.736
1066.561, 7.769
1067.803, 0.199
1069.046, 6.834
1070.287, 4.866
1071.529, 4.899
1072.771, 0.932
1074.012, 2.964
1075.253, 2.997
1076.494, 1.036
1077.735, 5.069
1078.975, 1.101
1080.216, 1.134
1081.456, 2.299
1082.696, 2.332
1083.936, 0.635
1085.175, 1.398
1086.415, 5.431
1087.654, 1.464
1088.893, 4.496
1090.132, 0.471
1091.371, 2.561
1092.609, 5.594
1093.847, 2.626
1095.085, 2.658
1096.323, 0.690
1097.561, 3.721
1098.799, 0.753
1100.036, 10.784
1101.273, 7.836
1102.510, 0.867
1103.747, 6.901
1104.983, 0.931
1106.220, 1.961
1107.456, 3.991
1108.692, 11.021
1109.928, 5.051
1111.163, 5.081
1112.399, 1.110
1113.634, 1.861
1114.869, 3.168
1116.104, 0.196
1117.339, 2.223
1118.573, 8.251
1119.808, 0.278
1121.042, 8.306
1122.276, 11.333
1123.509, 5.368
1124.743, 8.395
1125.976, 7.422
1127.210, 4.448
1128.443, 0.525
1129.675, 2.501
1130.908, 1.527
1132.141, 0.450
1133.373, 0.308
1134.605, 0.663
1135.837, 0.376
1137.068, 0.352
1138.300, 0.572
1139.531, 5.738
1140.762, 2.724
1141.993, 5.918
1143.224, 6.824
1144.455, 0.154
1145.685, 4.855
1146.915, 2.869
1148.145, 1.879
1149.375, 5.869
1150.605, 0.109
1151.834, 6.900
1153.063, 14.921
1154.292, 6.942
1155.521, 7.957
1156.750, 1.978
1157.978, 9.998
1159.207, 0.019
1160.435, 4.039
1161.663, 4.059
1162.891, 3.079
1164.118, 5.098
1165.345, 6.112
1166.573, 1.132
1167.800, 4.048
1169.026, 0.930
1170.253, 6.088
1171.480, 1.180
1172.706, 1.878
1173.932, 0.139
1175.158, 1.844
1176.383, 6.168
1177.609, 1.184
1178.834, 5.199
1180.059, 6.214
1181.284, 1.772
1182.509, 2.242
1183.734, 7.255
1184.958, 2.268
1186.182, 7.281
1187.406, 4.294
1188.630, 3.307
1189.854, 9.319
1191.077, 5.330
1192.301, 1.342
1193.524, 5.354
1194.747, 10.412
1195.969, 3.424
1197.192, 3.443
1198.414, 0.454
1199.636, 0.247
1200.858, 3.403
1202.080, 1.354
1203.302, 2.356
1204.523, 1.365
1205.744, 6.435
1206.966, 1.667
1208.186, 4.341
1209.407, 1.345
1210.628, 12.353
1211.848, 1.360
1213.068, 7.367
1214.288, 8.374
1215.508, 9.366
1216.727, 6.372
1217.947, 9.378
1219.166, 4.384
1220.385, 5.384
1221.604, 7.390
1222.822, 1.396
1224.041, 9.397
1225.259, 6.402
1226.477, 5.401
1227.695, 1.600
1228.913, 8.402
1230.130, 10.404
1231.348, 7.373
1232.565, 3.403
1233.782, 3.405
1234.999, 6.402
1236.215, 7.403
1237.432, 6.376
1238.648, 7.377
1239.864, 5.377
1241.080, 5.377
1242.296, 7.377
1243.511, 11.370
1244.726, 9.369
1245.942, 10.361
1247.156, 0.360
1248.371, 4.359
1249.586, 2.351
1250.800, 4.349
1252.014, 6.340
1253.228, 10.336
1254.442, 9.334
1255.656, 6.331
1256.869, 5.328
1258.083, 6.325
1259.296, 9.316
1260.509, 8.208
1261.722, 6.204
1262.934, 3.189
1264.147, 6.183
1265.359, 9.194
1266.571, 11.184
1267.783, 6.179
1268.994, 1.173
1270.206, 10.168
1271.417, 5.162
1272.628, 6.155
1273.839, 7.148
1275.050, 10.100
1276.260, 9.092
1277.471, 8.079
1278.681, 7.031
1279.891, 5.989
1281.101, 8.930
1282.310, 4.884
1283.520, 12.840
1284.729, 0.175
1285.938, 4.815
1287.147, 2.195
1288.356, 6.794
1289.564, 4.787
1290.773, 3.746
1291.981, 3.735
1293.189, 11.724
1294.397, 14.717
1295.604, 10.705
1296.812, 13.664
1298.019, 5.652
1299.226, 10.639
1300.433, 5.627
1301.640, 11.614
1302.846, 5.597
1304.053, 6.584
1305.259, 9.545
1306.465, 7.532
1307.671, 6.518
1308.876, 8.504
1310.082, 4.489
1311.287, 8.475
1312.492, 8.454
1313.697, 2.440
1314.902, 4.349
1316.106, 0.659
1317.310, 0.682
1318.515, 7.171
1319.719, 9.135
1320.922, 8.986
1322.126, 6.977
1323.329, 9.954
1324.533, 4.938
1325.736, 1.922
1326.939, 9.773
1328.141, 4.754
1329.344, 4.737
1330.546, 5.721
1331.748, 8.704
1332.950, 4.687
1334.152, 5.670
1335.354, 5.652
1336.555, 6.635
1337.757, 2.610
1338.958, 0.408
1340.159, 5.574
1341.359, 0.556
1342.560, 3.537
1343.760, 3.503
1344.960, 5.461
1346.160, 0.443
1347.360, 6.419
1348.560, 7.404
1349.759, 0.621
1350.959, 5.361
1352.158, 3.212
1353.357, 5.194
1354.555, 6.255
1355.754, 5.261
1356.952, 6.239
1358.151, 7.046
1359.349, 7.202
1360.546, 8.183
1361.744, 6.165
1362.941, 4.147
1364.139, 4.128
1365.336, 2.331
1366.533, 2.842
1367.730, 2.067
1368.926, 4.045
1370.123, 8.021
1371.319, 8.997
1372.515, 4.840
1373.711, 7.815
1374.906, 5.803
1376.102, 0.203
1377.297, 3.771
1378.492, 2.853
1379.687, 5.708
1380.882, 6.667
1382.077, 6.620
1383.271, 7.605
1384.465, 8.591
1385.659, 8.250
1386.853, 9.069
1388.047, 7.520
1389.240, 8.504
1390.434, 7.488
1391.627, 4.471
1392.820, 4.454
1394.013, 3.757
1395.205, 7.422
1396.398, 3.405
1397.590, 4.380
1398.782, 3.362
1399.974, 10.345
1401.166, 4.327
1402.357, 3.310
1403.549, 9.293
1404.740, 7.276
1405.931, 14.206
1407.122, 7.981
1408.313, 0.038
1409.503, 0.943
1410.693, 10.923
1411.883, 5.904
1413.073, 1.884
1414.263, 8.864
1415.453, 4.844
1416.642, 7.824
1417.831, 8.804
1419.020, 7.783
1420.209, 4.761
1421.398, 8.535
1422.587, 12.515
1423.775, 5.495
1424.963, 5.476
1426.151, 1.453
1427.339, 1.435
1428.526, 5.417
1429.714, 5.399
1430.901, 7.381
1432.088, 1.289
1433.275, 3.257
1434.462, 5.238
1435.648, 11.205
1436.835, 0.185
1438.021, 4.066
1439.207, 4.046
1440.393, 3.026
1441.579, 5.005
1442.764, 5.983
1443.949, 8.962
1445.135, 10.939
1446.320, 5.914
1447.504, 3.892
1448.689, 5.871
1449.873, 3.851
1451.058, 8.769
1452.242, 2.748
1453.426, 7.727
1454.609, 1.706
1455.793, 5.685
1456.976, 2.664
1458.159, 0.643
1459.342, 5.621
1460.525, 1.599
1461.708, 5.577
1462.890, 7.554
1464.073, 0.531
1465.255, 9.509
1466.437, 5.449
1467.619, 4.416
1468.800, 2.393
1469.982, 6.373
1471.163, 6.353
1472.344, 1.333
1473.525, 6.318
1474.706, 2.303
1475.886, 7.271
1477.066, 2.256
1478.247, 8.231
1479.427, 7.217
1480.607, 4.175
1481.786, 9.164
1482.966, 4.154
1484.145, 10.143
1485.324, 4.134
1486.503, 6.125
1487.682, 5.117
1488.860, 2.112
1490.039, 1.100
1491.217, 15.070
1492.395, 12.056
1493.573, 13.052
1494.751, 6.017
1495.928, 0.983
1497.106, 0.018
1498.283, 2.002
1499.460, 3.005
1500.637, 3.010
1501.814, 7.017
1502.990, 5.028
1504.166, 11.041
1505.342, 6.055
1506.518, 8.061
1507.694, 10.031
1508.870, 5.051
1510.045, 9.181
1511.221, 9.814
1512.396, 2.712
1513.571, 2.582
1514.745, 3.412
1515.920, 0.186
1517.094, 0.048
1518.269, 1.803
1519.443, 5.638
1520.616, 0.826
1521.790, 0.533
1522.964, 0.000
##END=



