##NAMES=Talc
##RRUFFID=R050087
##IDEAL CHEMISTRY=Mg_3_Si_4_O_10_(OH)_2_
##LOCALITY=St. Lawrence County, New York, USA
##OWNER=RRUFF
##SOURCE=University of Arizona Mineral Museum
##DESCRIPTION=An aggregate of colorless foliated coarse single crystals
##STATUS=The identification of this mineral has been confirmed by X-ray diffraction and chemical analysis
##URL=rruff.info/R050087
##MEASURED CHEMISTRY=(Mg_.998_Fe_.002_)_3_(Si_.997_Al_.003_)_4_O_10_(OH_.966_F_.034_)_2_
##PIN_ID=M00180
##ORIENTATION=Laser parallel to b* (0 1 0). Fiducial mark perpendicular to laser is parallel to c [0 0 1]
93.48000, 0.0000000E+00
94.71400, 373.7148
95.94800, 355.5791
97.18200, 666.5566
98.41600, 1135.654
99.64900, 1737.945
100.8830, 2566.240
102.1160, 3602.211
103.3490, 4539.379
104.5820, 4580.201
105.8150, 4585.172
107.0470, 5126.797
108.2800, 5540.646
109.5120, 5801.322
110.7440, 4819.064
111.9760, 3724.297
113.2080, 3105.336
114.4400, 2709.658
115.6710, 2049.066
116.9030, 1522.320
118.1340, 1046.207
119.3650, 665.5430
120.5960, 379.1855
121.8270, 87.06250
123.0580, 84.01758
124.2880, 92.04883
125.5190, 12.49805
126.7490, 18.37695
127.9790, 117.3477
129.2090, 12.51758
130.4390, 134.9902
131.6680, 115.4512
132.8980, 94.72461
134.1270, 13.11719
135.3560, 149.6621
136.5850, 77.31055
137.8140, 258.4727
139.0430, 227.9883
140.2710, 324.7754
141.5000, 318.8164
142.7280, 193.0645
143.9560, 25.51172
145.1840, 206.1543
146.4120, 166.0684
147.6390, 48.53516
148.8670, 17.36328
150.0940, 186.9102
151.3210, 203.4004
152.5490, 305.9922
153.7750, 26.31445
155.0020, 96.80078
156.2290, 2.404297
157.4550, 68.49219
158.6810, 52.50195
159.9080, 168.6074
161.1340, 7.179688
162.3590, 24.86523
163.5850, 101.5469
164.8110, 233.0547
166.0360, 143.6562
167.2610, 6.171875
168.4860, 228.3066
169.7110, 281.4121
170.9360, 156.6738
172.1610, 219.5488
173.3850, 219.8457
174.6100, 336.4863
175.8340, 256.3555
177.0580, 340.2832
178.2820, 462.1875
179.5050, 637.2793
180.7290, 704.4785
181.9520, 900.1777
183.1760, 1514.877
184.3990, 2735.438
185.6220, 3815.035
186.8450, 4324.391
188.0670, 4571.111
189.2900, 6100.926
190.5120, 8618.828
191.7340, 11268.82
192.9560, 12673.90
194.1780, 11279.06
195.4000, 8979.309
196.6220, 6676.637
197.8430, 4443.035
199.0640, 2849.391
200.2860, 1920.857
201.5070, 1420.172
202.7270, 1220.373
203.9480, 1077.951
205.1690, 603.3066
206.3890, 234.7422
207.6090, 322.9668
208.8290, 187.4980
210.0490, 269.0996
211.2690, 229.7676
212.4890, 363.5039
213.7080, 107.3066
214.9280, 249.1699
216.1470, 30.90234
217.3660, 244.1152
218.5850, 203.2012
219.8030, 283.3438
221.0220, 245.5996
222.2400, 242.4805
223.4590, 246.2676
224.6770, 225.7051
225.8950, 176.2207
227.1120, 201.7793
228.3300, 309.3730
229.5480, 121.0000
230.7650, 364.6699
231.9820, 217.3828
233.1990, 143.1348
234.4160, 116.9277
235.6330, 107.7598
236.8490, 262.6289
238.0660, 196.5449
239.2820, 159.4961
240.4980, 29.93945
241.7140, 66.61133
242.9300, 15.33984
244.1460, 89.11328
245.3610, 142.0352
246.5770, 49.65820
247.7920, 128.6621
249.0070, 99.02539
250.2220, 104.5156
251.4370, 24.72266
252.6510, 64.76367
253.8660, 74.63672
255.0800, 85.90039
256.2940, 71.74414
257.5080, 60.39844
258.7220, 205.1191
259.9360, 294.7812
261.1490, 147.4043
262.3630, 52.97656
263.5760, 71.52734
264.7890, 88.54688
266.0020, 67.58398
267.2150, 82.93164
268.4270, 6.394531
269.6400, 42.03125
270.8520, 41.35938
272.0640, 53.50391
273.2760, 215.5781
274.4880, 72.80078
275.7000, 80.33789
276.9120, 339.0762
278.1230, 163.7188
279.3340, 2.414063
280.5450, 135.1465
281.7560, 329.9219
282.9670, 452.7344
284.1780, 456.5859
285.3880, 414.4727
286.5980, 593.3984
287.8090, 773.3535
289.0190, 822.3574
290.2290, 718.3906
291.4380, 569.4551
292.6480, 329.5488
293.8570, 338.6738
295.0670, 161.4297
296.2760, 177.6055
297.4850, 244.8066
298.6930, 129.0410
299.9020, 230.6797
301.1110, 126.9590
302.3190, 122.1992
303.5270, 53.42773
304.7350, 13.48438
305.9430, 23.12500
307.1510, 25.07422
308.3580, 73.17578
309.5660, 151.7539
310.7730, 81.64844
311.9800, 30.93359
313.1870, 181.2773
314.3940, 210.7324
315.6010, 147.1621
316.8070, 266.6230
318.0130, 318.0586
319.2200, 22.52344
320.4260, 322.8672
321.6310, 185.2070
322.8370, 225.5664
324.0430, 354.9160
325.2480, 314.2852
326.4540, 530.6797
327.6590, 701.0742
328.8640, 873.4805
330.0680, 994.9062
331.2730, 998.3516
332.4780, 1076.797
333.6820, 1058.580
334.8860, 883.7363
336.0900, 929.2266
337.2940, 848.8828
338.4980, 832.2168
339.7010, 736.3105
340.9050, 839.8477
342.1080, 821.4102
343.3110, 838.9844
344.5140, 1226.539
345.7170, 1642.693
346.9200, 1624.336
348.1220, 1735.793
349.3240, 2382.240
350.5270, 3187.699
351.7290, 3870.168
352.9310, 4810.629
354.1320, 5716.461
355.3340, 6922.941
356.5350, 8126.562
357.7370, 9282.066
358.9380, 10484.58
360.1390, 11095.10
361.3400, 11317.38
362.5400, 9947.926
363.7410, 8430.471
364.9410, 6847.029
366.1410, 5150.592
367.3410, 4071.164
368.5410, 3095.826
369.7410, 2227.410
370.9400, 2070.002
372.1400, 1601.600
373.3390, 1435.201
374.5380, 1518.809
375.7370, 1317.422
376.9360, 1434.041
378.1350, 1551.666
379.3330, 1166.043
380.5310, 1077.676
381.7300, 995.3145
382.9280, 826.9551
384.1260, 759.0742
385.3230, 550.5352
386.5210, 483.7715
387.7180, 413.1406
388.9160, 352.1406
390.1130, 287.9141
391.3100, 306.6973
392.5060, 141.4922
393.7030, 341.8301
394.9000, 141.6855
396.0960, 330.5684
397.2920, 204.1426
398.4880, 15.64648
399.6840, 187.4316
400.8800, 207.7129
402.0750, 96.97461
403.2710, 97.54297
404.4660, 195.9512
405.6610, 23.23438
406.8560, 2.074219
408.0510, 46.88672
409.2450, 115.6934
410.4400, 151.5000
411.6340, 103.6914
412.8280, 25.08984
414.0220, 134.1621
415.2160, 17.38867
416.4100, 188.8223
417.6030, 192.5176
418.7970, 299.2266
419.9900, 372.8262
421.1830, 459.8125
422.3760, 516.5371
423.5690, 650.5391
424.7610, 760.2637
425.9540, 1094.984
427.1460, 1294.705
428.3380, 1542.424
429.5300, 1770.141
430.7220, 2227.854
431.9140, 2038.854
433.1050, 2111.562
434.2970, 1629.432
435.4880, 1147.133
436.6790, 660.8320
437.8700, 536.5664
439.0610, 312.2617
440.2510, 180.5508
441.4420, 216.5664
442.6320, 197.4863
443.8220, 194.1660
445.0120, 350.9570
446.2020, 322.6289
447.3910, 273.9629
448.5810, 276.2480
449.7700, 126.8711
450.9600, 246.2207
452.1490, 192.8750
453.3370, 372.6074
454.5260, 385.1504
455.7150, 348.2715
456.9030, 513.8906
458.0910, 598.5156
459.2800, 635.3379
460.4670, 1026.111
461.6550, 1207.740
462.8430, 1373.117
464.0300, 1605.711
465.2180, 2109.301
466.4050, 2294.156
467.5920, 2354.734
468.7790, 2171.436
469.9650, 1706.998
471.1520, 1069.807
472.3380, 841.3574
473.5250, 492.9004
474.7110, 305.4395
475.8970, 336.0000
477.0820, 186.5254
478.2680, 134.3945
479.4540, 99.55273
480.6390, 6.054688
481.8240, 131.5273
483.0090, 49.99414
484.1940, 188.4395
485.3780, 125.9766
486.5630, 173.4121
487.7470, 50.16016
488.9320, 102.2090
490.1160, 167.5703
491.3000, 349.9258
492.4830, 313.2715
493.6670, 229.6133
494.8500, 435.9453
496.0340, 63.72656
497.2170, 201.5371
498.4000, 103.7930
499.5820, 217.0410
500.7650, 197.2812
501.9480, 173.5156
503.1300, 155.7402
504.3120, 258.9707
505.4940, 479.1934
506.6760, 422.4082
507.8580, 391.6133
509.0390, 311.8125
510.2210, 109.0039
511.4020, 222.1855
512.5830, 146.3594
513.7640, 136.5254
514.9450, 227.6836
516.1250, 236.8320
517.3060, 319.9746
518.4860, 224.1094
519.6660, 225.2324
520.8460, 61.34961
522.0260, 360.4512
523.2060, 151.5449
524.3850, 195.6289
525.5650, 26.70508
526.7440, 43.75977
527.9230, 73.80664
529.1020, 39.51953
530.2810, 34.14258
531.4590, 149.8477
532.6380, 175.8301
533.8160, 355.8047
534.9940, 34.76758
536.1720, 116.7363
537.3500, 25.69336
538.5270, 135.6387
539.7050, 20.40625
540.8820, 45.19727
542.0590, 101.1113
543.2360, 64.03906
544.4130, 10.79492
545.5900, 68.03516
546.7660, 78.41406
547.9430, 127.4141
549.1190, 145.6289
550.2950, 166.4238
551.4710, 211.2891
552.6470, 199.8125
553.8220, 225.2988
554.9980, 192.3340
556.1730, 130.9434
557.3480, 167.7461
558.5230, 137.5820
559.6980, 152.1191
560.8730, 86.22852
562.0470, 212.0371
563.2220, 248.8379
564.3960, 325.6289
565.5700, 194.4180
566.7440, 177.1992
567.9170, 243.9707
569.0910, 145.7305
570.2640, 202.4824
571.4380, 232.2246
572.6110, 14.04297
573.7840, 166.6621
574.9570, 86.35352
576.1290, 239.0352
577.3020, 159.7070
578.4740, 18.36914
579.6460, 247.0137
580.8180, 45.64648
581.9900, 15.73438
583.1620, 78.14453
584.3330, 153.3789
585.5040, 172.1074
586.6760, 134.2949
587.8470, 4.287109
589.0180, 71.12695
590.1880, 50.46289
591.3590, 113.9297
592.5290, 242.3223
593.7000, 17.26758
594.8700, 279.1602
596.0400, 131.4160
597.2090, 18.94141
598.3790, 228.2793
599.5490, 32.39062
600.7180, 83.90039
601.8870, 45.81836
603.0560, 1.576172
604.2250, 173.6562
605.3940, 142.6133
606.5620, 69.82617
607.7300, 296.0430
608.8990, 16.70312
610.0670, 197.5371
611.2350, 4.765625
612.4020, 160.9746
613.5700, 261.2129
614.7370, 185.4395
615.9050, 104.6621
617.0720, 223.8770
618.2390, 176.0371
619.4060, 241.3066
620.5720, 235.3867
621.7390, 201.2363
622.9050, 230.4492
624.0710, 302.6699
625.2370, 85.87109
626.4030, 255.4629
627.5690, 163.6426
628.7340, 165.1973
629.9000, 283.2207
631.0650, 280.3730
632.2300, 357.5176
633.3950, 415.6797
634.5600, 420.8711
635.7240, 398.0801
636.8890, 430.9199
638.0530, 355.1133
639.2170, 565.1641
640.3810, 506.3379
641.5450, 763.5020
642.7080, 425.6641
643.8720, 607.8145
645.0350, 594.9551
646.1980, 680.0898
647.3610, 813.2148
648.5240, 912.3340
649.6870, 818.4434
650.8490, 846.4609
652.0120, 1096.553
653.1740, 1032.637
654.3360, 1285.715
655.4980, 1393.781
656.6600, 1506.842
657.8210, 2079.893
658.9830, 2197.963
660.1440, 2321.020
661.3050, 3116.326
662.4660, 3386.367
663.6270, 4479.402
664.7870, 5345.430
665.9480, 6559.975
667.1080, 8258.908
668.2680, 10089.38
669.4280, 12722.21
670.5880, 15204.88
671.7480, 17968.85
672.9070, 20439.83
674.0670, 22439.79
675.2260, 23148.51
676.3850, 22572.42
677.5440, 21046.94
678.7030, 18080.87
679.8610, 15374.38
681.0200, 12324.35
682.1780, 9774.117
683.3360, 8015.389
684.4940, 6397.568
685.6520, 5206.904
686.8090, 4421.385
687.9670, 3474.279
689.1240, 3065.180
690.2810, 2445.078
691.4380, 2143.969
692.5950, 1775.852
693.7520, 1694.768
694.9080, 1619.691
696.0650, 1471.896
697.2210, 1463.816
698.3770, 1053.729
699.5330, 934.9590
700.6880, 1006.740
701.8440, 791.7148
702.9990, 817.5977
704.1550, 758.4727
705.3100, 444.3418
706.4650, 799.1992
707.6190, 642.0508
708.7740, 515.8984
709.9290, 793.7344
711.0830, 788.5664
712.2370, 588.1016
713.3910, 315.9160
714.5450, 543.5645
715.6980, 278.3652
716.8520, 600.1602
718.0050, 582.0879
719.1580, 635.8672
720.3110, 591.0430
721.4640, 567.2891
722.6170, 370.0020
723.7700, 470.7754
724.9220, 377.4082
726.0740, 327.9219
727.2260, 346.7617
728.3780, 334.4590
729.5300, 330.0566
730.6810, 327.1445
731.8330, 294.4883
732.9840, 302.5352
734.1350, 273.0859
735.2860, 242.2578
736.4370, 302.1289
737.5880, 229.8125
738.7380, 210.8164
739.8880, 153.6523
741.0390, 94.52734
742.1890, 77.72266
743.3380, 18.62109
744.4880, 132.0215
745.6380, 366.3926
746.7870, 454.4395
747.9360, 291.0020
749.0850, 410.7031
750.2340, 211.0703
751.3830, 395.5273
752.5310, 255.1309
753.6800, 161.6777
754.8280, 287.2344
755.9760, 199.2891
757.1240, 276.8984
758.2720, 258.9707
759.4190, 259.3379
760.5670, 152.1055
761.7140, 194.1191
762.8610, 227.6816
764.0080, 14.13867
765.1550, 108.3809
766.3020, 101.7891
767.4480, 125.7773
768.5950, 202.3281
769.7410, 218.8711
770.8870, 268.1172
772.0330, 335.8281
773.1780, 281.1562
774.3240, 304.6719
775.4690, 287.2031
776.6140, 204.7305
777.7590, 387.2539
778.9040, 581.7656
780.0490, 518.5195
781.1940, 724.0156
782.3380, 863.5117
783.4820, 786.9922
784.6260, 914.4688
785.7700, 898.9375
786.9140, 1100.484
788.0580, 1133.941
789.2010, 1563.473
790.3450, 1574.914
791.4880, 1643.352
792.6310, 1496.824
793.7730, 1502.246
794.9160, 1175.816
796.0590, 1320.473
797.2010, 1031.871
798.3430, 772.2578
799.4850, 702.6445
800.6270, 509.1094
801.7690, 373.4805
802.9100, 410.8789
804.0520, 165.2422
805.1930, 526.6016
806.3340, 583.9609
807.4750, 285.3125
808.6160, 304.7148
809.7560, 222.0742
810.8970, 198.5703
812.0370, 340.0508
813.1770, 327.3945
814.3170, 187.7305
815.4570, 162.0664
816.5960, 354.3945
817.7360, 306.7344
818.8750, 399.0703
820.0140, 195.3945
821.1530, 253.7227
822.2920, 280.0508
823.4310, 78.37500
824.5690, 111.6953
825.7070, 336.0117
826.8460, 261.3203
827.9840, 176.6250
829.1220, 330.9180
830.2590, 153.2070
831.3970, 385.4883
832.5340, 25.23438
833.6710, 209.0156
834.8080, 196.2578
835.9450, 31.48828
837.0820, 74.71875
838.2190, 62.93750
839.3550, 255.1523
840.4910, 314.3594
841.6270, 157.5586
842.7630, 120.7539
843.8990, 171.9414
845.0350, 254.1211
846.1700, 255.3359
847.3060, 127.4688
848.4410, 349.6328
849.5760, 112.8008
850.7100, 185.9609
851.8450, 113.1211
852.9800, 246.2695
854.1140, 46.41406
855.2480, 254.5586
856.3820, 245.6992
857.5160, 127.8281
858.6500, 145.9688
859.7830, 77.13281
860.9170, 372.2812
862.0500, 80.51172
863.1830, 179.6289
864.3160, 312.7773
865.4480, 57.07812
866.5810, 251.0391
867.7130, 240.1523
868.8460, 14.73828
869.9780, 254.3594
871.1100, 19.55078
872.2410, 86.55859
873.3730, 231.6680
874.5050, 245.7695
875.6360, 2.875000
876.7670, 11.97656
877.8980, 144.0820
879.0290, 144.1914
880.1590, 305.5586
881.2900, 36.33984
882.4200, 170.2734
883.5500, 37.31250
884.6800, 60.62891
885.8100, 306.5664
886.9400, 129.5000
888.0690, 93.35547
889.1990, 3.796875
890.3280, 155.0430
891.4570, 44.12891
892.5860, 70.66797
893.7140, 92.54688
894.8430, 97.17969
895.9710, 286.8984
897.1000, 12.38281
898.2280, 104.3438
899.3560, 128.0664
900.4830, 213.3867
901.6110, 229.0625
902.7380, 142.7969
903.8660, 152.5039
904.9930, 150.2070
906.1200, 81.10156
907.2460, 136.4609
908.3730, 82.89453
909.5000, 283.6133
910.6260, 209.1172
911.7520, 133.6250
912.8780, 99.12500
914.0040, 87.62500
915.1290, 20.11719
916.2550, 247.6055
917.3800, 91.08203
918.5050, 125.5586
919.6300, 237.0312
920.7550, 71.49609
921.8800, 45.96094
923.0040, 96.41797
924.1290, 44.44141
925.2530, 205.3203
926.3770, 143.7656
927.5010, 51.20312
928.6250, 220.6406
929.7480, 25.07031
930.8720, 77.50391
931.9950, 125.8672
933.1180, 285.2383
934.2410, 251.6094
935.3640, 38.97266
936.4860, 411.3320
937.6090, 50.69141
938.7310, 157.0586
939.8530, 237.4258
940.9750, 252.7969
942.0970, 261.1602
943.2180, 47.51953
944.3400, 337.8711
945.4610, 20.22656
946.5820, 22.57422
947.7030, 270.9141
948.8240, 235.2578
949.9450, 240.5898
951.0650, 427.9531
952.1860, 156.3125
953.3060, 171.6836
954.4260, 87.05859
955.5460, 112.5234
956.6650, 202.9883
957.7850, 292.7773
958.9040, 349.2188
960.0230, 362.8477
961.1420, 356.1211
962.2610, 331.5664
963.3800, 462.0078
964.4990, 427.4492
965.6170, 397.0312
966.7350, 409.2305
967.8530, 312.4609
968.9710, 313.8867
970.0890, 359.3125
971.2070, 271.4023
972.3240, 188.7891
973.4410, 362.1250
974.5580, 291.5391
975.6750, 524.9492
976.7920, 419.4102
977.9090, 282.8672
979.0250, 255.3203
980.1410, 443.7734
981.2580, 347.2227
982.3740, 109.6719
983.4890, 260.1133
984.6050, 538.5625
985.7200, 386.0234
986.8360, 714.4766
987.9510, 517.9258
989.0660, 475.1992
990.1810, 479.6484
991.2950, 448.0898
992.4100, 561.5312
993.5240, 246.9727
994.6390, 468.3906
995.7530, 323.8242
996.8660, 618.4844
997.9800, 327.9141
999.0940, 638.3398
1000.207, 192.4609
1001.320, 481.8789
1002.433, 516.3125
1003.546, 284.0938
1004.659, 554.5195
1005.772, 378.9922
1006.884, 521.4141
1007.996, 613.8359
1009.108, 598.2578
1010.220, 489.0430
1011.332, 512.0000
1012.444, 476.2109
1013.555, 713.8242
1014.666, 561.2344
1015.777, 674.6328
1016.888, 935.6328
1017.999, 590.9688
1019.110, 652.2969
1020.220, 1090.707
1021.331, 702.3398
1022.441, 394.7461
1023.551, 619.1992
1024.661, 535.6016
1025.770, 589.5312
1026.880, 415.9102
1027.989, 404.8125
1029.098, 370.2188
1030.207, 451.6211
1031.316, 427.8477
1032.425, 373.2461
1033.533, 366.6562
1034.642, 369.0625
1035.750, 331.5039
1036.858, 465.7227
1037.966, 327.1328
1039.073, 451.5430
1040.181, 539.2422
1041.288, 437.1133
1042.396, 281.7148
1043.503, 633.1328
1044.610, 694.9531
1045.716, 525.3711
1046.823, 781.7930
1047.929, 838.2109
1049.036, 866.3867
1050.142, 1123.809
1051.248, 1057.238
1052.353, 880.6641
1053.459, 615.0938
1054.564, 824.5234
1055.670, 701.8711
1056.775, 643.3047
1057.880, 183.6562
1058.985, 287.0938
1060.089, 254.5352
1061.194, 381.9258
1062.298, 227.3711
1063.402, 484.6602
1064.506, 720.8555
1065.610, 446.3086
1066.713, 252.7656
1067.817, 184.2227
1068.920, 561.5898
1070.023, 387.1641
1071.126, 492.0195
1072.229, 199.9492
1073.332, 21.42188
1074.435, 210.8906
1075.537, 344.3672
1076.639, 395.8047
1077.741, 154.2852
1078.843, 296.6211
1079.945, 397.9688
1081.046, 396.4570
1082.148, 532.9453
1083.249, 344.5508
1084.350, 257.0391
1085.451, 285.6211
1086.551, 295.1172
1087.652, 249.5547
1088.752, 54.05469
1089.853, 10.44141
1090.953, 456.0547
1092.053, 91.54688
1093.152, 184.0469
1094.252, 501.5469
1095.351, 228.0430
1096.451, 43.54688
1097.550, 209.0469
1098.649, 354.5508
1099.748, 103.0547
1100.846, 46.57031
1101.945, 318.0859
1103.043, 397.6055
1104.141, 165.7188
1105.239, 131.2383
1106.337, 145.7617
1107.434, 168.2812
1108.532, 279.6562
1109.629, 400.1797
1110.726, 347.7070
1111.823, 491.2852
1112.920, 461.8047
1114.017, 548.3320
1115.113, 403.8594
1116.210, 341.6914
1117.306, 176.8477
1118.402, 274.3789
1119.498, 267.9062
1120.593, 585.4375
1121.689, 532.9688
1122.784, 606.8594
1123.879, 852.0352
1124.974, 567.5664
1126.069, 688.1016
1127.164, 532.6367
1128.259, 390.1758
1129.353, 300.7344
1130.447, 293.5859
1131.541, 120.8633
1132.635, 319.4531
1133.729, 340.7109
1134.822, 262.3008
1135.916, 90.89844
1137.009, 231.4922
1138.102, 301.1016
1139.195, 331.7070
1140.288, 431.3164
1141.380, 423.2539
1142.473, 193.5430
1143.565, 395.1562
1144.657, 194.7773
1145.749, 105.3984
1146.841, 279.0156
1147.932, 262.6445
1149.024, 255.3359
1150.115, 55.03125
1151.206, 125.7344
1152.297, 3.437500
1153.388, 124.1758
1154.479, 234.9180
1155.569, 205.6680
1156.659, 253.4141
1157.750, 604.1836
1158.839, 431.9492
1159.929, 26.74609
1161.019, 407.5430
1162.108, 102.6562
1163.198, 216.0977
1164.287, 253.8477
1165.376, 302.6328
1166.465, 17.42188
1167.553, 11.79297
1168.642, 46.98828
1169.730, 414.7695
1170.818, 177.5508
1171.906, 26.64062
1172.994, 222.1953
1174.082, 16.05859
1175.170, 22.07812
1176.257, 517.7734
1177.344, 270.7266
1178.431, 131.5781
1179.518, 230.4336
1180.605, 136.2930
1181.691, 329.1523
1182.778, 332.0156
1183.864, 315.2578
1184.950, 312.7422
1186.036, 242.6094
1187.122, 225.4727
1188.207, 190.5547
1189.292, 145.2148
1190.378, 120.0898
1191.463, 111.9609
1192.548, 70.83984
1193.632, 76.21484
1194.717, 67.93359
1195.801, 132.4961
1196.886, 82.39844
1197.970, 61.46875
1199.054, 265.2148
1200.137, 13.87891
1201.221, 36.97656
1202.305, 20.10156
1203.388, 107.7656
1204.471, 326.6289
1205.554, 352.4961
1206.637, 243.3633
1207.719, 160.2344
1208.802, 404.1055
1209.884, 208.9805
1210.966, 239.8633
1212.048, 216.7344
1213.130, 110.3867
1214.212, 154.4336
1215.293, 77.86719
1216.374, 369.0312
1217.456, 362.1914
1218.536, 334.3945
1219.617, 89.98047
1220.698, 479.2383
1221.778, 422.8242
1222.859, 254.4180
1223.939, 332.0156
1225.019, 91.60938
1226.099, 315.2031
1227.178, 163.8047
1228.258, 177.4062
1229.337, 259.0117
1230.417, 40.61328
1231.496, 169.2188
1232.574, 313.8281
1233.653, 2.562500
1234.732, 399.0391
1235.810, 125.6484
1236.888, 218.2695
1237.966, 186.1055
1239.044, 354.4180
1240.122, 67.94531
1241.199, 19.47266
1242.277, 315.0000
1243.354, 441.5312
1244.431, 181.0703
1245.508, 34.34375
1246.585, 22.77344
1247.661, 240.7773
1248.738, 485.3320
1249.814, 158.8906
1250.890, 564.4492
1251.966, 275.0078
1253.042, 187.5781
1254.117, 282.1523
1255.193, 346.7227
1256.268, 413.3242
1257.343, 152.9180
1258.418, 401.5195
1259.493, 332.1250
1260.567, 324.7344
1261.642, 555.3477
1262.716, 41.03516
1263.790, 173.5547
1264.864, 214.1523
1265.938, 150.7461
1267.011, 384.3438
1268.085, 399.9453
1269.158, 142.5469
1270.231, 268.1484
1271.304, 75.76172
