##NAMES=Talc
##RRUFFID=R050087
##IDEAL CHEMISTRY=Mg_3_Si_4_O_10_(OH)_2_
##LOCALITY=St. Lawrence County, New York, USA
##OWNER=RRUFF
##SOURCE=University of Arizona Mineral Museum
##DESCRIPTION=An aggregate of colorless foliated coarse single crystals
##STATUS=The identification of this mineral has been confirmed by X-ray diffraction and chemical analysis
##URL=rruff.info/R050087
##MEASURED CHEMISTRY=(Mg_.998_Fe_.002_)_3_(Si_.997_Al_.003_)_4_O_10_(OH_.966_F_.034_)_2_
##PIN_ID=M00418
##ORIENTATION=Laser parallel to (1 0 1). Fiducial mark perpendicular to laser is parallel to b [0 1 0]
91.01200, 0.0000000E+00
92.24600, 232.3408
93.48000, 257.2168
94.71400, 727.7305
95.94800, 1594.702
97.18200, 2259.744
98.41600, 2659.952
99.64900, 3366.176
100.8830, 4551.078
102.1160, 6120.630
103.3490, 7177.473
104.5820, 7291.715
105.8150, 7376.399
107.0470, 7901.754
108.2800, 8572.211
109.5120, 8358.005
110.7440, 7190.430
111.9760, 6330.598
113.2080, 6205.639
114.4400, 5667.389
115.6710, 5346.609
116.9030, 4449.328
118.1340, 3410.084
119.3650, 2783.080
120.5960, 1842.404
121.8270, 1211.976
123.0580, 694.6055
124.2880, 411.4863
125.5190, 194.4834
126.7490, 218.9258
127.9790, 52.22656
129.2090, 90.99023
130.4390, 8.020508
131.6680, 21.13672
132.8980, 10.41992
134.1270, 42.69824
135.3560, 16.97949
136.5850, 13.13184
137.8140, 17.38574
139.0430, 40.85742
140.2710, 68.48535
141.5000, 101.6709
142.7280, 150.0312
143.9560, 41.36523
145.1840, 100.6719
146.4120, 87.91992
147.6390, 67.91699
148.8670, 116.1279
150.0940, 65.14453
151.3210, 59.86426
152.5490, 25.09668
153.7750, 87.97266
155.0020, 5.927734
156.2290, 21.79492
157.4550, 1.370117
158.6810, 36.57031
159.9080, 96.80566
161.1340, 105.7354
162.3590, 34.38184
163.5850, 151.7207
164.8110, 192.0625
166.0360, 234.3916
167.2610, 107.7842
168.4860, 124.4004
169.7110, 276.7725
170.9360, 527.5430
172.1610, 293.1787
173.3850, 412.0781
174.6100, 476.9258
175.8340, 516.5361
177.0580, 748.7266
178.2820, 939.0869
179.5050, 1323.113
180.7290, 2138.148
181.9520, 3502.365
183.1760, 6409.455
184.3990, 12256.57
185.6220, 19763.72
186.8450, 25016.87
188.0670, 23439.06
189.2900, 24413.24
190.5120, 31970.32
191.7340, 37851.33
192.9560, 39898.31
194.1780, 38373.25
195.4000, 35743.21
196.6220, 31079.21
197.8430, 23852.25
199.0640, 15901.33
200.2860, 9287.473
201.5070, 4936.734
202.7270, 3204.215
203.9480, 2132.977
205.1690, 1337.135
206.3890, 944.4404
207.6090, 671.7861
208.8290, 553.1709
210.0490, 407.5908
211.2690, 556.0439
212.4890, 340.5303
213.7080, 393.0479
214.9280, 349.5967
216.1470, 412.1758
217.3660, 330.7900
218.5850, 455.4385
219.8030, 729.1143
221.0220, 842.8672
222.2400, 827.6533
223.4590, 872.4678
224.6770, 959.7148
225.8950, 968.2246
227.1120, 1119.136
228.3300, 1140.069
229.5480, 1216.025
230.7650, 894.0000
231.9820, 576.9951
233.1990, 456.0098
234.4160, 322.0439
235.6330, 239.0967
236.8490, 140.1670
238.0660, 112.4922
239.2820, 90.27051
240.4980, 126.5352
241.7140, 60.49121
242.9300, 121.9004
244.1460, 17.38770
245.3610, 60.48926
246.5770, 14.51953
247.7920, 86.59668
249.0070, 48.71094
250.2220, 75.16406
251.4370, 45.09961
252.6510, 63.10449
253.8660, 9.029297
255.0800, 32.05762
256.2940, 31.21484
257.5080, 36.71289
258.7220, 66.29883
259.9360, 49.45312
261.1490, 25.03418
262.3630, 43.79297
263.5760, 41.93555
264.7890, 68.06934
266.0020, 25.75684
267.2150, 31.64258
268.4270, 41.95605
269.6400, 14.57422
270.8520, 39.81348
272.0640, 19.18457
273.2760, 5.115234
274.4880, 56.09863
275.7000, 175.8018
276.9120, 287.6885
278.1230, 523.0254
279.3340, 611.7178
280.5450, 1006.143
281.7560, 1385.941
282.9670, 1868.754
284.1780, 1973.417
285.3880, 2082.015
286.5980, 2603.239
287.8090, 2864.806
289.0190, 2865.755
290.2290, 2648.412
291.4380, 2528.104
292.6480, 1890.495
293.8570, 1577.449
295.0670, 1030.368
296.2760, 737.9512
297.4850, 443.9492
298.6930, 464.5918
299.9020, 312.6455
301.1110, 415.1924
302.3190, 317.0420
303.5270, 456.9277
304.7350, 260.0107
305.9430, 318.0996
307.1510, 338.1943
308.3580, 191.3174
309.5660, 16.55566
310.7730, 121.5684
311.9800, 102.6992
313.1870, 18.83691
314.3940, 22.92383
315.6010, 5.988281
316.8070, 26.94629
318.0130, 65.01660
319.2200, 135.9707
320.4260, 226.8994
321.6310, 223.8330
322.8370, 204.7627
324.0430, 297.3545
325.2480, 359.2646
326.4540, 469.2754
327.6590, 578.0488
328.8640, 632.9736
330.0680, 686.9639
331.2730, 758.3594
332.4780, 772.1396
333.6820, 826.9258
334.8860, 939.7168
336.0900, 779.5137
337.2940, 833.3164
338.4980, 667.1250
339.7010, 719.9404
340.9050, 649.7617
342.1080, 913.4287
343.3110, 967.2607
344.5140, 1103.100
345.7170, 1241.943
346.9200, 1523.781
348.1220, 1829.701
349.3240, 2305.539
350.5270, 2967.088
351.7290, 3403.078
352.9310, 4419.915
354.1320, 5545.949
355.3340, 6412.682
356.5350, 7209.527
357.7370, 7771.376
358.9380, 8541.228
360.1390, 8813.081
361.3400, 8724.940
362.5400, 8261.797
363.7410, 7467.656
364.9410, 6345.520
366.1410, 5197.383
367.3410, 4048.247
368.5410, 3158.114
369.7410, 2423.450
370.9400, 1800.438
372.1400, 1446.717
373.3390, 1087.585
374.5380, 1039.453
375.7370, 1097.322
376.9360, 953.1914
378.1350, 1031.061
379.3330, 836.9287
380.5310, 924.7959
381.7300, 820.6621
382.9280, 743.5449
384.1260, 679.9268
385.3230, 602.8115
386.5210, 573.0615
387.7180, 549.9346
388.9160, 401.8037
390.1130, 248.2041
391.3100, 164.5596
392.5060, 144.3916
393.7030, 132.2090
394.9000, 70.68262
396.0960, 65.23242
397.2920, 18.94727
398.4880, 22.63086
399.6840, 69.01074
400.8800, 11.37891
402.0750, 150.1250
403.2710, 7.964844
404.4660, 42.59180
405.6610, 76.00879
406.8560, 23.15625
408.0510, 100.5645
409.2450, 60.58105
410.4400, 54.59766
411.6340, 49.61719
412.8280, 105.9365
414.0220, 127.1816
415.2160, 135.7119
416.4100, 125.3535
417.6030, 205.0771
418.7970, 183.5547
419.9900, 312.7012
421.1830, 523.3291
422.3760, 533.9590
423.5690, 931.6016
424.7610, 1132.288
425.9540, 1478.642
427.1460, 1790.264
428.3380, 2042.182
429.5300, 2410.809
430.7220, 2465.512
431.9140, 2535.170
433.1050, 2511.869
434.2970, 2330.200
435.4880, 1851.718
436.6790, 1477.952
437.8700, 1162.667
439.0610, 989.7246
440.2510, 911.3340
441.4420, 876.6475
442.6320, 898.9238
443.8220, 954.0879
445.0120, 1102.227
446.2020, 1127.947
447.3910, 1412.660
448.5810, 1547.599
449.7700, 1692.295
450.9600, 1745.009
452.1490, 1787.688
453.3370, 1631.790
454.5260, 1482.795
455.7150, 1287.852
456.9030, 1310.860
458.0910, 1088.690
459.2800, 1094.812
460.4670, 1021.256
461.6550, 1153.902
462.8430, 1319.526
464.0300, 1349.779
465.2180, 1366.387
466.4050, 1596.688
467.5920, 1279.413
468.7790, 1329.999
469.9650, 1072.863
471.1520, 904.4336
472.3380, 612.9951
473.5250, 534.5488
474.7110, 312.1113
475.8970, 182.6660
477.0820, 143.2129
478.2680, 146.7529
479.4540, 166.2832
480.6390, 111.8047
481.8240, 74.32129
483.0090, 132.8281
484.1940, 3.326172
485.3780, 259.8174
486.5630, 236.2998
487.7470, 95.77344
488.9320, 75.23828
490.1160, 64.30469
491.3000, 178.0986
492.4830, 9.496094
493.6670, 45.87695
494.8500, 115.2480
496.0340, 43.61035
497.2170, 29.03809
498.4000, 185.2793
499.5820, 178.5859
500.7650, 138.8848
501.9480, 328.1738
503.1300, 153.4541
504.3120, 289.7256
505.4940, 381.9883
506.6760, 306.2412
507.8580, 243.4854
509.0390, 233.7207
510.2210, 284.9463
511.4020, 314.1631
512.5830, 332.3711
513.7640, 233.5693
514.9450, 339.7578
516.1250, 244.9385
517.3060, 292.1084
518.4860, 258.2686
519.6660, 263.4199
520.8460, 290.5625
522.0260, 203.6953
523.2060, 135.8184
524.3850, 144.9326
525.5650, 5.962891
526.7440, 155.1172
527.9230, 36.18750
529.1020, 173.2461
530.2810, 126.2949
531.4590, 234.3438
532.6380, 71.40234
533.8160, 118.4551
534.9940, 117.4980
536.1720, 227.5312
537.3500, 174.5703
538.5270, 197.0684
539.7050, 111.4971
540.8820, 143.4072
542.0590, 130.4678
543.2360, 40.26660
544.4130, 143.6758
545.5900, 111.2207
546.7660, 36.84180
547.9430, 12.07617
549.1190, 187.7529
550.2950, 132.6670
551.4710, 37.46191
552.6470, 18.56543
553.8220, 62.32129
554.9980, 62.20215
556.1730, 29.07812
557.3480, 14.95996
558.5230, 6.132813
559.6980, 121.7178
560.8730, 24.58398
562.0470, 91.43750
563.2220, 188.2822
564.3960, 86.11719
565.5700, 77.94336
566.7440, 11.76074
567.9170, 160.5625
569.0910, 45.35449
570.2640, 143.1348
571.4380, 77.90723
572.6110, 217.6699
573.7840, 78.57715
574.9570, 8.885742
576.1290, 91.21973
577.3020, 27.38086
578.4740, 95.96582
579.6460, 30.54199
580.8180, 57.89746
581.9900, 135.3857
583.1620, 25.03320
584.3330, 33.43848
585.5040, 34.83008
586.6760, 143.2080
587.8470, 137.5752
589.0180, 54.93359
590.1880, 183.2793
591.3590, 63.38477
592.5290, 137.8984
593.7000, 117.1709
594.8700, 41.44336
596.0400, 39.96875
597.2090, 26.88379
598.3790, 46.45703
599.5490, 33.09082
600.7180, 93.31152
601.8870, 100.5342
603.0560, 203.7471
604.2250, 19.94824
605.3940, 137.1357
606.5620, 15.33008
607.7300, 73.04102
608.8990, 159.2100
610.0670, 52.36816
611.2350, 145.5137
612.4020, 237.6504
613.5700, 225.7783
614.7370, 134.7656
615.9050, 380.8730
617.0720, 269.0127
618.2390, 170.0996
619.4060, 437.1768
620.5720, 387.2451
621.7390, 237.5420
622.9050, 333.5908
624.0710, 511.6289
625.2370, 482.9863
626.4030, 558.0049
627.5690, 444.1191
628.7340, 594.1191
629.9000, 509.1084
631.0650, 692.0107
632.2300, 391.5010
633.3950, 415.7402
634.5600, 471.5508
635.7240, 421.5098
636.8890, 542.2695
638.0530, 634.3271
639.2170, 746.2822
640.3810, 715.2285
641.5450, 663.1689
642.7080, 785.0996
643.8720, 834.0293
645.0350, 1022.951
646.1980, 1249.863
647.3610, 1139.767
648.5240, 1207.675
649.6870, 1414.573
650.8490, 1410.464
652.0120, 1523.368
653.1740, 1774.264
654.3360, 1906.793
655.4980, 2049.033
656.6600, 2434.904
657.8210, 2776.771
658.9830, 3217.629
660.1440, 3799.479
661.3050, 4555.320
662.4660, 5375.158
663.6270, 6815.988
664.7870, 8339.836
665.9480, 10340.18
667.1080, 12856.01
668.2680, 15915.46
669.4280, 19029.29
670.5880, 22346.10
671.7480, 25217.89
672.9070, 27551.64
674.0670, 28884.42
675.2260, 30029.20
676.3850, 29297.00
677.5440, 27791.78
678.7030, 25099.56
679.8610, 21803.33
681.0200, 18300.10
682.1780, 15381.86
683.3360, 12315.47
684.4940, 9966.039
685.6520, 8290.777
686.8090, 6773.055
687.9670, 5510.027
689.1240, 4550.748
690.2810, 3892.457
691.4380, 3246.801
692.5950, 2899.760
693.7520, 2508.350
694.9080, 2075.932
696.0650, 1757.174
697.2210, 1585.207
698.3770, 1395.076
699.5330, 1218.412
700.6880, 1128.900
701.8440, 943.5605
702.9990, 952.2109
704.1550, 817.8496
705.3100, 821.4414
706.4650, 640.3555
707.6190, 698.9883
708.7740, 446.3477
709.9290, 479.9668
711.0830, 582.5117
712.2370, 472.1172
713.3910, 514.8125
714.5450, 393.8887
715.6980, 528.6641
716.8520, 347.7285
718.0050, 220.3008
719.1580, 226.3926
720.3110, 320.4727
721.4640, 355.4512
722.6170, 169.4570
723.7700, 127.5645
724.9220, 267.6836
726.0740, 130.2168
727.2260, 329.7461
728.3780, 80.03516
729.5300, 87.55469
730.6810, 218.0391
731.8330, 175.5488
732.9840, 115.0508
734.1350, 75.79297
735.2860, 167.2773
736.4370, 112.5781
737.5880, 29.30469
738.7380, 117.6465
739.8880, 167.0312
741.0390, 274.4922
742.1890, 161.9082
743.3380, 107.6836
744.4880, 153.2520
745.6380, 10.04688
746.7870, 172.2148
747.9360, 105.6055
749.0850, 86.70312
750.2340, 116.0820
751.3830, 138.4570
752.5310, 67.16992
753.6800, 245.1660
754.8280, 36.49414
755.9760, 112.8281
757.1240, 145.1484
758.2720, 142.4648
759.4190, 0.2207030
760.5670, 272.0859
761.7140, 54.38672
762.8610, 40.31445
764.0080, 107.9668
765.1550, 19.24219
766.3020, 156.5137
767.4480, 176.7812
768.5950, 224.0430
769.7410, 10.67383
770.8870, 114.5977
772.0330, 285.7324
773.1780, 147.0000
774.3240, 368.1797
775.4690, 237.4414
776.6140, 145.0176
777.7590, 523.2832
778.9040, 616.1504
780.0490, 608.4102
781.1940, 702.2793
782.3380, 829.5293
783.4820, 766.7773
784.6260, 871.0234
785.7700, 842.2090
786.9140, 1131.447
788.0580, 1035.824
789.2010, 953.1465
790.3450, 745.3711
791.4880, 791.9414
792.6310, 799.1562
793.7730, 830.3672
794.9160, 645.3750
796.0590, 613.5781
797.2010, 561.8535
798.3430, 418.0469
799.4850, 515.1348
800.6270, 174.3672
801.7690, 151.7988
802.9100, 283.9746
804.0520, 223.1562
805.1930, 60.33398
806.3340, 58.50977
807.4750, 144.6777
808.6160, 191.8457
809.7560, 82.00586
810.8970, 191.1641
812.0370, 112.3164
813.1770, 149.5801
814.3170, 160.7246
815.4570, 161.8652
816.5960, 81.00195
817.7360, 150.1504
818.8750, 209.2754
820.0140, 19.40039
821.1530, 174.5176
822.2920, 82.67578
823.4310, 358.8281
824.5690, 158.9941
825.7070, 150.4512
826.8460, 104.6113
827.9840, 100.9316
829.1220, 2.097656
830.2590, 176.2715
831.3970, 197.6621
832.5340, 121.8301
833.6710, 161.9922
834.8080, 211.1562
835.9450, 163.3203
837.0820, 149.4766
838.2190, 155.6367
839.3550, 138.0195
840.4910, 145.4023
841.6270, 147.9688
842.7630, 120.1094
843.8990, 136.3047
845.0350, 56.44141
846.1700, 158.5723
847.3060, 111.7012
848.4410, 154.8281
849.5760, 35.94727
850.7100, 32.08789
851.8450, 274.2324
852.9800, 106.4004
854.1140, 273.5684
855.2480, 151.7344
856.3820, 15.89648
857.5160, 290.0742
858.6500, 336.2871
859.7830, 152.5000
860.9170, 171.7090
862.0500, 387.9180
863.1830, 199.1230
864.3160, 199.3242
865.4480, 256.5215
866.5810, 207.7188
867.7130, 156.9355
868.8460, 176.1484
869.9780, 105.3555
871.1100, 160.2949
872.2410, 28.49805
873.3730, 231.6875
874.5050, 220.4688
875.6360, 133.6504
876.7670, 42.82812
877.8980, 214.0039
879.0290, 252.1758
880.1590, 56.65234
881.2900, 311.4766
882.4200, 165.0781
883.5500, 333.2090
884.6800, 194.3340
885.8100, 268.4590
886.9400, 299.5781
888.0690, 142.7266
889.1990, 118.9980
890.3280, 155.1426
891.4570, 48.23828
892.5860, 73.37695
893.7140, 133.5098
894.8430, 68.63867
895.9710, 116.8281
897.1000, 101.6523
898.2280, 153.7715
899.3560, 62.72266
900.4830, 98.83594
901.6110, 246.8438
902.7380, 334.9551
903.8660, 124.0625
904.9930, 247.1660
906.1200, 160.7578
907.2460, 53.13281
908.3730, 156.9395
909.5000, 5.992188
910.6260, 49.07617
911.7520, 59.86133
912.8780, 133.1621
914.0040, 0.8183590
915.1290, 117.1934
916.2550, 16.79688
917.3800, 141.1953
918.5050, 180.1895
919.6300, 126.8438
920.7550, 37.82617
921.8800, 51.13477
923.0040, 14.09375
924.1290, 71.95117
925.2530, 64.95703
926.3770, 3.861328
927.5010, 76.76172
928.6250, 129.6699
929.7480, 3.421875
930.8720, 70.47461
931.9950, 24.37891
933.1180, 82.28125
934.2410, 4.822266
935.3640, 31.06250
936.4860, 90.04492
937.6090, 139.7871
938.7310, 76.62109
939.8530, 150.4492
940.9750, 241.2773
942.0970, 284.0918
943.2180, 291.0938
944.3400, 127.7344
945.4610, 180.5527
946.5820, 124.3672
947.7030, 103.8184
948.8240, 218.9336
949.9450, 93.68555
951.0650, 215.4453
952.1860, 33.20703
953.3060, 183.9609
954.4260, 204.7168
955.5460, 252.2520
956.6650, 176.0039
957.7850, 136.7520
958.9040, 187.4980
960.0230, 5.240234
961.1420, 295.9766
962.2610, 9.289063
963.3800, 247.4316
964.4990, 273.4199
965.6170, 8.144531
966.7350, 93.86328
967.8530, 152.5840
968.9710, 139.3008
970.0890, 143.0117
971.2070, 163.7246
972.3240, 91.43164
973.4410, 174.1406
974.5580, 20.15625
975.6750, 293.5254
976.7920, 86.20898
977.9090, 17.88867
979.0250, 137.5625
980.1410, 159.2109
981.2580, 191.8809
982.3740, 134.5508
983.4890, 235.2188
984.6050, 190.7754
985.7200, 151.3105
986.8360, 124.9707
987.9510, 403.6289
989.0660, 185.2832
990.1810, 28.93750
991.2950, 411.3516
992.4100, 247.0293
993.5240, 205.7070
994.6390, 257.3828
995.7530, 238.0547
996.8660, 391.7246
997.9800, 172.3926
999.0940, 268.0547
1000.207, 556.3848
1001.320, 504.0449
1002.433, 1107.705
1003.546, 866.0840
1004.659, 1374.018
1005.772, 637.6855
1006.884, 687.4688
1007.996, 683.1328
1009.108, 505.8027
1010.220, 1055.473
1011.332, 1128.084
1012.444, 1191.746
1013.555, 1497.408
1014.666, 1675.906
1015.777, 1993.561
1016.888, 1982.217
1017.999, 2020.895
1019.110, 1889.547
1020.220, 1856.197
1021.331, 1613.680
1022.441, 1410.326
1023.551, 1183.988
1024.661, 1039.646
1025.770, 864.7246
1026.880, 627.9941
1027.989, 640.6504
1029.098, 620.2988
1030.207, 662.9473
1031.316, 494.5938
1032.425, 424.2402
1033.533, 581.8926
1034.642, 513.5449
1035.750, 660.1934
1036.858, 803.8398
1037.966, 664.4844
1039.073, 1043.939
1040.181, 1193.582
1041.288, 1273.363
1042.396, 1539.004
1043.503, 1934.816
1044.610, 2461.453
1045.716, 3250.787
1046.823, 3983.418
1047.929, 4752.660
1049.036, 5455.078
1050.142, 5891.094
1051.248, 6015.293
1052.353, 5397.920
1053.459, 4912.543
1054.564, 3928.221
1055.670, 3055.844
1056.775, 2322.320
1057.880, 1845.846
1058.985, 2241.465
1060.089, 2557.732
1061.194, 3220.635
1062.298, 2248.791
1063.402, 875.0684
1064.506, 509.8145
1065.610, 550.3516
1066.713, 473.9668
1067.817, 358.6836
1068.920, 556.8711
1070.023, 370.2363
1071.126, 168.8496
1072.229, 282.4609
1073.332, 270.0742
1074.435, 114.6855
1075.537, 417.2969
1076.639, 162.9082
1077.741, 341.5195
1078.843, 252.4902
1079.945, 266.4609
1081.046, 487.6641
1082.148, 310.2754
1083.249, 320.1738
1084.350, 287.7832
1085.451, 134.3770
1086.551, 205.9863
1087.652, 295.5977
1088.752, 201.2090
1089.853, 349.8223
1090.953, 127.4336
1092.053, 331.0469
1093.152, 229.3672
1094.252, 290.9805
1095.351, 137.4258
1096.451, 25.88477
1097.550, 140.2539
1098.649, 57.16992
1099.748, 225.7734
1100.846, 195.3770
1101.945, 165.9805
1103.043, 220.5820
1104.141, 16.18750
1105.239, 186.7949
1106.337, 238.4004
1107.434, 169.1230
1108.532, 32.73047
1109.629, 215.3398
1110.726, 103.8945
1111.823, 192.5039
1112.920, 181.1172
1114.017, 136.7305
1115.113, 79.34375
1116.210, 122.7070
1117.306, 366.5742
1118.402, 223.1914
1119.498, 389.8105
1120.593, 500.4336
1121.689, 421.0527
1122.784, 523.9863
1123.879, 522.7637
1124.974, 569.3906
1126.069, 323.0176
1127.164, 345.6465
1128.259, 176.2773
1129.353, 231.9062
1130.447, 15.53711
1131.541, 5.234375
1132.635, 91.39258
1133.729, 220.0215
1134.822, 194.6523
1135.916, 287.2832
1137.009, 167.9160
1138.102, 2.449219
1139.195, 72.19141
1140.288, 71.83984
1141.380, 170.4902
1142.473, 190.1406
1143.565, 215.7949
1144.657, 214.4492
1145.749, 26.10352
1146.841, 80.78125
1147.932, 165.4570
1149.024, 10.13672
1150.115, 119.8223
1151.206, 99.50977
1152.297, 107.8008
1153.388, 164.8320
1154.479, 235.4648
1155.569, 132.1016
1156.659, 78.74023
1157.750, 8.380859
1158.839, 11.02148
1159.929, 229.6641
1161.019, 94.30664
1162.108, 162.9570
1163.198, 252.6582
1164.287, 175.3105
1165.376, 185.9629
1166.465, 19.61719
1167.553, 112.2754
1168.642, 15.93555
1169.730, 28.39844
1170.818, 144.2656
1171.906, 88.92578
1172.994, 260.6094
1174.082, 33.70508
1175.170, 222.9668
1176.257, 192.6426
1177.344, 20.33984
1178.431, 166.0352
1179.518, 42.77148
1180.605, 198.4492
1181.691, 24.83398
1182.778, 49.87305
1183.864, 81.58203
1184.950, 71.29492
1186.036, 205.0234
1187.122, 88.75391
1188.207, 20.48633
1189.292, 37.24609
1190.378, 140.0059
1191.463, 55.22656
1192.548, 352.5156
1193.632, 81.25977
1194.717, 35.99023
1195.801, 230.7461
1196.886, 280.4863
1197.970, 179.2285
1199.054, 27.02148
1200.137, 119.7168
1201.221, 69.48828
1202.305, 175.2598
1203.388, 207.0371
1204.471, 280.8164
1205.554, 116.5996
1206.637, 196.3867
1207.719, 162.1758
1208.802, 3.029297
1209.884, 64.76562
1210.966, 3.562500
1212.048, 36.39258
1213.130, 57.77344
1214.212, 165.0352
1215.293, 17.84766
1216.374, 190.6621
1217.456, 184.4824
1218.536, 209.3066
1219.617, 254.8457
1220.698, 223.0840
1221.778, 226.8027
1222.859, 178.6426
1223.939, 83.48633
1225.019, 49.33594
1226.099, 18.80273
1227.178, 8.650391
1228.258, 8.628906
1229.337, 18.58203
1230.417, 23.91016
1231.496, 101.7715
1232.574, 76.63672
1233.653, 69.50586
1234.732, 315.3809
1235.810, 122.2598
1236.888, 236.1445
1237.966, 51.04297
1239.044, 180.9434
1240.122, 195.8477
1241.199, 143.7598
1242.277, 166.6758
1243.354, 211.2832
1244.431, 201.5215
1245.508, 295.4512
1246.585, 196.3848
1247.661, 138.3242
1248.738, 329.2695
1249.814, 44.21875
1250.890, 16.17188
1251.966, 248.1309
1253.042, 129.9062
1254.117, 93.99805
1255.193, 191.9102
1256.268, 244.8223
1257.343, 174.7422
1258.418, 177.6680
1259.493, 265.5977
1260.567, 12.46680
1261.642, 271.8066
1262.716, 347.7461
1263.790, 243.6914
1264.864, 100.9043
1265.938, 363.8711
1267.011, 223.8438
1268.085, 589.3164
1269.158, 125.5312
