##NAMES=Talc
##RRUFFID=R050087
##IDEAL CHEMISTRY=Mg_3_Si_4_O_10_(OH)_2_
##LOCALITY=St. Lawrence County, New York, USA
##OWNER=RRUFF
##SOURCE=University of Arizona Mineral Museum
##DESCRIPTION=An aggregate of colorless foliated coarse single crystals
##STATUS=The identification of this mineral has been confirmed by X-ray diffraction and chemical analysis
##URL=rruff.info/R050087
##MEASURED CHEMISTRY=(Mg_.998_Fe_.002_)_3_(Si_.997_Al_.003_)_4_O_10_(OH_.966_F_.034_)_2_
##PIN_ID=M00178
##ORIENTATION=Laser parallel to (1 1 0). Fiducial mark perpendicular to laser is parallel to c [0 0 1]
99.64900, 0.0000000E+00
100.8830, 263.6455
102.1160, 577.5918
103.3490, 1164.377
104.5820, 1766.994
105.8150, 2586.666
107.0470, 3141.857
108.2800, 3268.520
109.5120, 3167.057
110.7440, 3006.901
111.9760, 2705.057
113.2080, 2662.948
114.4400, 2333.878
115.6710, 2105.631
116.9030, 1745.771
118.1340, 1434.438
119.3650, 1109.095
120.5960, 799.2275
121.8270, 543.4023
123.0580, 287.6602
124.2880, 127.5078
125.5190, 34.50195
126.7490, 104.4697
127.9790, 23.46777
129.2090, 138.4287
130.4390, 129.1445
131.6680, 31.61230
132.8980, 103.2246
134.1270, 56.41504
135.3560, 53.01172
136.5850, 21.97266
137.8140, 26.43750
139.0430, 168.5645
140.2710, 116.0059
141.5000, 162.8613
142.7280, 166.4746
143.9560, 4.539063
145.1840, 44.09570
146.4120, 139.5547
147.6390, 107.4727
148.8670, 236.6504
150.0940, 102.0820
151.3210, 87.76172
152.5490, 277.7109
153.7750, 22.96484
155.0020, 239.5977
156.2290, 322.5176
157.4550, 112.6133
158.6810, 94.88281
159.9080, 213.3184
161.1340, 316.9180
162.3590, 70.68359
163.5850, 81.61133
164.8110, 114.6992
166.0360, 346.9434
167.2610, 264.3379
168.4860, 259.8770
169.7110, 358.5625
170.9360, 315.9863
172.1610, 333.9336
173.3850, 319.4668
174.6100, 355.4551
175.8340, 311.4668
177.0580, 329.5645
178.2820, 256.7578
179.5050, 569.0371
180.7290, 523.4316
181.9520, 658.8848
183.1760, 1034.555
184.3990, 1526.383
185.6220, 2228.889
186.8450, 2932.291
188.0670, 3185.875
189.2900, 4084.535
190.5120, 6090.203
191.7340, 8833.930
192.9560, 12264.72
194.1780, 16132.60
195.4000, 18514.55
196.6220, 17137.57
197.8430, 12588.68
199.0640, 7307.863
200.2860, 3994.699
201.5070, 2454.045
202.7270, 1773.465
203.9480, 1101.969
205.1690, 757.8789
206.3890, 523.5371
207.6090, 381.4492
208.8290, 436.1875
210.0490, 281.9473
211.2690, 458.7305
212.4890, 534.5859
213.7080, 292.5156
214.9280, 299.5215
216.1470, 42.59570
217.3660, 229.7402
218.5850, 363.9824
219.8030, 263.2949
221.0220, 335.6719
222.2400, 357.1758
223.4590, 96.84180
224.6770, 245.5684
225.8950, 388.3496
227.1120, 122.2715
228.3300, 296.2441
229.5480, 386.2715
230.7650, 171.3438
231.9820, 292.4668
233.1990, 447.6387
234.4160, 245.8555
235.6330, 258.1230
236.8490, 123.4355
238.0660, 190.8008
239.2820, 403.2129
240.4980, 10.32031
241.7140, 325.1855
242.9300, 201.7324
244.1460, 118.3184
245.3610, 161.9551
246.5770, 9.000000
247.7920, 86.48633
249.0070, 29.76758
250.2220, 117.5703
251.4370, 85.74023
252.6510, 76.19141
253.8660, 196.0449
255.0800, 198.9805
256.2940, 217.8184
257.5080, 274.3672
258.7220, 215.3262
259.9360, 155.8340
261.1490, 112.9551
262.3630, 261.2090
263.5760, 73.36328
264.7890, 203.6172
266.0020, 0.9785160
267.2150, 70.42188
268.4270, 99.85742
269.6400, 76.75586
270.8520, 70.65625
272.0640, 3.281250
273.2760, 53.97461
274.4880, 93.01172
275.7000, 136.0801
276.9120, 214.2266
278.1230, 129.4531
279.3340, 234.7988
280.5450, 148.1797
281.7560, 297.6172
282.9670, 487.4453
284.1780, 352.2090
285.3880, 553.8340
286.5980, 838.5117
287.8090, 1045.248
289.0190, 1169.066
290.2290, 1795.934
291.4380, 1905.578
292.6480, 1684.537
293.8570, 1152.543
295.0670, 949.6191
296.2760, 583.7363
297.4850, 226.8965
298.6930, 253.1211
299.9020, 10.61719
301.1110, 192.7129
302.3190, 164.0801
303.5270, 271.4844
304.7350, 230.9199
305.9430, 335.3887
307.1510, 331.8984
308.3580, 138.4395
309.5660, 57.94727
310.7730, 121.6914
311.9800, 18.62891
313.1870, 21.92578
314.3940, 176.8008
315.6010, 8.421875
316.8070, 25.62500
318.0130, 146.8086
319.2200, 142.0020
320.4260, 75.83984
321.6310, 95.70312
322.8370, 31.59375
324.0430, 233.5078
325.2480, 132.4473
326.4540, 209.4102
327.6590, 190.3965
328.8640, 189.4043
330.0680, 639.3789
331.2730, 419.3770
332.4780, 559.3809
333.6820, 676.8457
334.8860, 601.9922
336.0900, 898.4375
337.2940, 849.5273
338.4980, 606.6387
339.7010, 612.7734
340.9050, 328.2969
342.1080, 428.4707
343.3110, 525.0547
344.5140, 420.8652
345.7170, 603.0918
346.9200, 883.3359
348.1220, 720.5977
349.3240, 994.8750
350.5270, 790.1562
351.7290, 1297.002
352.9310, 1418.303
354.1320, 1857.607
355.3340, 2378.891
356.5350, 2561.188
357.7370, 3401.496
358.9380, 3734.824
360.1390, 4879.162
361.3400, 5836.516
362.5400, 6175.885
363.7410, 6092.262
364.9410, 5916.656
366.1410, 4771.057
367.3410, 3787.473
368.5410, 2952.994
369.7410, 2169.430
370.9400, 1685.277
372.1400, 1108.334
373.3390, 1055.709
374.5380, 955.1816
375.7370, 902.6621
376.9360, 697.5449
378.1350, 775.0410
379.3330, 825.5469
380.5310, 793.0605
381.7300, 595.5781
382.9280, 589.1055
384.1260, 477.6367
385.3230, 259.8789
386.5210, 331.9375
387.7180, 288.4863
388.9160, 74.76367
390.1130, 360.3750
391.3100, 35.72656
392.5060, 129.3438
393.7030, 62.98047
394.9000, 61.63477
396.0960, 210.3047
397.2920, 64.99219
398.4880, 94.66992
399.6840, 8.341797
400.8800, 84.02930
402.0750, 14.28125
403.2710, 28.03711
404.4660, 109.6016
405.6610, 103.2969
406.8560, 48.99023
408.0510, 87.69531
409.2450, 40.40820
410.4400, 31.04102
411.6340, 71.93750
412.8280, 99.43945
414.0220, 79.81641
415.2160, 45.04883
416.4100, 24.58398
417.6030, 156.0918
418.7970, 266.8203
419.9900, 255.2246
421.1830, 241.8730
422.3760, 228.9336
423.5690, 269.0352
424.7610, 270.8145
425.9540, 369.1738
427.1460, 474.4629
428.3380, 673.2578
429.5300, 916.0566
430.7220, 1266.398
431.9140, 1543.947
433.1050, 1609.650
434.2970, 1663.279
435.4880, 1558.508
436.6790, 1389.318
437.8700, 1089.582
439.0610, 672.3906
440.2510, 492.1992
441.4420, 183.3223
442.6320, 258.1289
443.8220, 407.6133
445.0120, 179.8809
446.2020, 282.3047
447.3910, 369.1094
448.5810, 334.9180
449.7700, 466.4082
450.9600, 417.1934
452.1490, 416.7422
453.3370, 484.1074
454.5260, 496.2559
455.7150, 461.2598
456.9030, 375.1230
458.0910, 413.0605
459.2800, 425.4395
460.4670, 472.5156
461.6550, 353.7363
462.8430, 428.4941
464.0300, 329.2461
465.2180, 654.7305
466.4050, 689.4688
467.5920, 719.2090
468.7790, 565.9414
469.9650, 609.5762
471.1520, 794.3809
472.3380, 544.0898
473.5250, 413.1289
474.7110, 333.8496
475.8970, 42.54492
477.0820, 1.771484
478.2680, 46.88477
479.4540, 172.5293
480.6390, 240.1641
481.8240, 213.7891
483.0090, 49.40625
484.1940, 195.0098
485.3780, 166.3965
486.5630, 24.91406
487.7470, 104.5254
488.9320, 108.9570
490.1160, 384.3789
491.3000, 174.7891
492.4830, 93.19141
493.6670, 102.4160
494.8500, 264.8926
496.0340, 260.1895
497.2170, 164.4785
498.4000, 218.7559
499.5820, 190.0195
500.7650, 241.2754
501.9480, 243.9902
503.1300, 250.7520
504.3120, 225.9707
505.4940, 220.1816
506.6760, 134.3809
507.8580, 282.5664
509.0390, 274.7422
510.2210, 80.90625
511.4020, 435.0566
512.5830, 204.1953
513.7640, 278.3203
514.9450, 38.43359
516.1250, 368.5293
517.3060, 256.6113
518.4860, 23.67969
519.6660, 443.7246
520.8460, 477.7539
522.0260, 244.7715
523.2060, 319.7773
524.3850, 359.7676
525.5650, 136.7500
526.7440, 164.7148
527.9230, 61.66992
529.1020, 183.6074
530.2810, 19.53125
531.4590, 95.42578
532.6380, 102.7285
533.8160, 380.1777
534.9940, 151.0371
536.1720, 167.8828
537.3500, 198.7168
538.5270, 105.5352
539.7050, 120.1172
540.8820, 163.9102
542.0590, 68.86914
543.2360, 209.8340
544.4130, 23.75195
545.5900, 42.93555
546.7660, 41.58008
547.9430, 117.2051
549.1190, 205.8164
550.2950, 115.4121
551.4710, 321.9824
552.6470, 42.41992
553.8220, 332.9766
554.9980, 179.5371
556.1730, 9.099609
557.3480, 283.0703
558.5230, 199.3926
559.6980, 123.8887
560.8730, 92.36719
562.0470, 21.83398
563.2220, 28.58789
564.3960, 76.67773
565.5700, 106.0664
566.7440, 39.43945
567.9170, 186.7891
569.0910, 207.1250
570.2640, 211.4473
571.4380, 68.75586
572.6110, 83.93555
573.7840, 333.2930
574.9570, 98.51172
576.1290, 144.7109
577.3020, 198.8945
578.4740, 62.93750
579.6460, 157.1562
580.8180, 133.2402
581.9900, 60.69727
583.1620, 366.2949
584.3330, 72.73047
585.5040, 80.16992
586.6760, 71.04688
587.8470, 126.9004
589.0180, 125.7363
590.1880, 20.55469
591.3590, 221.3418
592.5290, 115.8906
593.7000, 10.77734
594.8700, 1.761719
596.0400, 137.3691
597.2090, 154.3418
598.3790, 42.58008
599.5490, 211.3867
600.7180, 95.88672
601.8870, 109.3711
603.0560, 171.1094
604.2250, 195.6055
605.3940, 72.62695
606.5620, 293.3223
607.7300, 352.1152
608.8990, 208.5234
610.0670, 339.9160
611.2350, 361.2891
612.4020, 433.6484
613.5700, 105.1621
614.7370, 152.4961
615.9050, 202.7988
617.0720, 231.1543
618.2390, 281.3340
619.4060, 259.8086
620.5720, 191.5488
621.7390, 219.7930
622.9050, 188.1094
624.0710, 189.6719
625.2370, 241.3711
626.4030, 248.9883
627.5690, 279.5391
628.7340, 238.6738
629.9000, 217.8848
631.0650, 442.9805
632.2300, 379.8301
633.3950, 305.8926
634.5600, 422.3867
635.7240, 326.4180
636.8890, 294.4629
638.0530, 328.4883
639.2170, 171.5215
640.3810, 319.5410
641.5450, 398.5410
642.7080, 378.5254
643.8720, 511.4883
645.0350, 423.4375
646.1980, 623.3672
647.3610, 450.2793
648.5240, 664.1738
649.6870, 520.0508
650.8490, 725.8105
652.0120, 760.7109
653.1740, 724.5938
654.3360, 1035.461
655.4980, 978.3984
656.6600, 899.2305
657.8210, 1101.043
658.9830, 1269.488
660.1440, 1445.305
661.3050, 1667.131
662.4660, 1873.938
663.6270, 2144.727
664.7870, 2703.502
665.9480, 3060.258
667.1080, 3941.000
668.2680, 5034.215
669.4280, 5733.922
670.5880, 7556.973
671.7480, 8972.609
672.9070, 10448.53
674.0670, 12173.18
675.2260, 14135.71
676.3850, 15307.39
677.5440, 15791.98
678.7030, 15015.54
679.8610, 13665.38
681.0200, 11793.98
682.1780, 9705.180
683.3360, 7450.078
684.4940, 6225.559
685.6520, 5220.180
686.8090, 4003.254
687.9670, 3303.375
689.1240, 2652.035
690.2810, 2192.520
691.4380, 1820.215
692.5950, 1499.609
693.7520, 1394.045
694.9080, 1352.988
696.0650, 1141.043
697.2210, 1097.555
698.3770, 1006.959
699.5330, 948.3457
700.6880, 863.0508
701.8440, 660.9199
702.9990, 660.1816
704.1550, 496.1641
705.3100, 232.5449
706.4650, 546.3789
707.6190, 460.2598
708.7740, 649.6855
709.9290, 490.4492
711.0830, 186.4180
712.2370, 354.5078
713.3910, 431.9023
714.5450, 257.9180
715.6980, 298.5801
716.8520, 311.7051
718.0050, 268.3633
719.1580, 381.1504
720.3110, 408.2246
721.4640, 335.2227
722.6170, 388.4531
723.7700, 187.9512
724.9220, 339.4922
726.0740, 291.8574
727.2260, 206.8223
728.3780, 284.7637
729.5300, 433.0000
730.6810, 247.9238
731.8330, 215.0605
732.9840, 57.95898
734.1350, 137.4570
735.2860, 28.30469
736.4370, 207.5273
737.5880, 71.83203
738.7380, 456.9258
739.8880, 263.2734
741.0390, 75.76172
742.1890, 129.6680
743.3380, 25.36328
744.4880, 74.13672
745.6380, 18.39844
746.7870, 148.2305
747.9360, 344.9609
749.0850, 147.2891
750.2340, 430.8750
751.3830, 95.43750
752.5310, 134.0547
753.6800, 33.38281
754.8280, 31.48047
755.9760, 163.0391
757.1240, 130.6914
758.2720, 192.4258
759.4190, 198.9258
760.5670, 120.4609
761.7140, 158.8750
762.8610, 84.27344
764.0080, 2.917969
765.1550, 216.7500
766.3020, 330.4844
767.4480, 120.8750
768.5950, 164.2539
769.7410, 7.617188
770.8870, 330.2305
772.0330, 187.6094
773.1780, 256.6055
774.3240, 147.1328
775.4690, 163.4023
776.6140, 219.4336
777.7590, 158.7383
778.9040, 305.0000
780.0490, 235.4102
781.1940, 484.6328
782.3380, 513.0742
783.4820, 873.2695
784.6260, 789.4492
785.7700, 609.7344
786.9140, 832.9570
788.0580, 643.0859
789.2010, 969.9531
790.3450, 812.8984
791.4880, 900.9727
792.6310, 1058.137
793.7730, 1141.184
794.9160, 1083.402
796.0590, 754.5938
797.2010, 742.5898
798.3430, 764.7734
799.4850, 556.8086
800.6270, 599.0234
801.7690, 415.5664
802.9100, 525.4766
804.0520, 329.9062
805.1930, 524.3203
806.3340, 389.1797
807.4750, 166.9727
808.6160, 218.8281
809.7560, 118.6445
810.8970, 309.4492
812.0370, 27.33594
813.1770, 167.2266
814.3170, 269.0312
815.4570, 237.7461
816.5960, 122.4492
817.7360, 237.2617
818.8750, 62.05078
820.0140, 112.4141
821.1530, 79.11328
822.2920, 23.08984
823.4310, 70.77734
824.5690, 64.43750
825.7070, 153.0703
826.8460, 249.6797
827.9840, 137.2773
829.1220, 194.8477
830.2590, 229.8047
831.3970, 2.144531
832.5340, 53.60156
833.6710, 170.1016
834.8080, 427.5781
835.9450, 284.0352
837.0820, 91.47266
838.2190, 186.8945
839.3550, 132.2969
840.4910, 220.8828
841.6270, 170.6094
842.7630, 60.00781
843.8990, 61.37109
845.0350, 148.7031
846.1700, 71.01953
847.3060, 62.35938
848.4410, 57.88672
849.5760, 9.507813
850.7100, 413.3359
851.8450, 72.53125
852.9800, 196.7070
854.1140, 208.8711
855.2480, 51.03125
856.3820, 318.1758
857.5160, 327.3047
858.6500, 223.4336
859.7830, 225.5508
860.9170, 278.6758
862.0500, 224.1367
863.1830, 211.8828
864.3160, 274.9609
865.4480, 228.0156
866.5810, 391.0664
867.7130, 256.0938
868.8460, 267.4805
869.9780, 238.4844
871.1100, 99.51562
872.2410, 186.7500
873.3730, 225.7500
874.5050, 232.2969
875.6360, 268.2734
876.7670, 398.2383
877.8980, 137.9453
879.0290, 347.8555
880.1590, 6.796875
881.2900, 33.82812
882.4200, 275.3086
883.5500, 11.15234
884.6800, 39.96094
885.8100, 323.7461
886.9400, 342.5273
888.0690, 87.10938
889.1990, 169.8398
890.3280, 94.55859
891.4570, 26.25391
892.5860, 43.59766
893.7140, 115.9531
894.8430, 142.5352
895.9710, 317.1016
897.1000, 249.5508
898.2280, 224.0820
899.3560, 117.3477
900.4830, 80.00391
901.6110, 102.4766
902.7380, 209.9258
903.8660, 191.2656
904.9930, 204.6797
906.1200, 113.3125
907.2460, 13.69141
908.3730, 46.04297
909.5000, 58.62500
910.6260, 34.63281
911.7520, 86.12109
912.8780, 172.0430
914.0040, 331.1875
915.1290, 138.3203
916.2550, 426.4336
917.3800, 121.5273
918.5050, 560.6094
919.6300, 416.6719
920.7550, 146.7188
921.8800, 155.7461
923.0040, 177.7539
924.1290, 194.2578
925.2530, 24.59766
926.3770, 227.4336
927.5010, 148.2500
928.6250, 270.0508
929.7480, 126.8359
930.8720, 121.4023
931.9950, 316.2656
933.1180, 74.08203
934.2410, 153.4961
935.3640, 105.0625
936.4860, 41.60938
937.6090, 172.1328
938.7310, 49.67969
939.8530, 49.20703
940.9750, 209.7148
942.0970, 21.79297
943.2180, 162.5820
944.3400, 394.0117
945.4610, 190.1562
946.5820, 139.5547
947.7030, 131.0352
948.8240, 147.3242
949.9450, 373.6758
951.0650, 400.0117
952.1860, 120.9219
953.3060, 129.3086
954.4260, 27.89453
955.5460, 250.7539
956.6650, 73.14453
957.7850, 149.2734
958.9040, 266.2188
960.0230, 174.7422
961.1420, 445.6953
962.2610, 172.7852
963.3800, 355.6367
964.4990, 72.69922
965.6170, 54.73828
966.7350, 108.2344
967.8530, 339.5508
968.9710, 228.4531
970.0890, 312.4297
971.2070, 162.3906
972.3240, 160.9180
973.4410, 221.8320
974.5580, 112.5352
975.6750, 297.2734
976.7920, 79.10547
977.9090, 191.3750
979.0250, 231.6406
980.1410, 178.3359
981.2580, 81.65625
982.3740, 150.1953
983.4890, 202.3789
984.6050, 306.9727
985.7200, 187.7656
986.8360, 148.0273
987.9510, 372.3047
989.0660, 338.0547
990.1810, 446.0938
991.2950, 240.8164
992.4100, 252.5273
993.5240, 308.2266
994.6390, 263.9023
995.7530, 206.5781
996.8660, 266.2383
997.9800, 317.8828
999.0940, 332.5156
1000.207, 216.1562
1001.320, 170.7812
1002.433, 60.39062
1003.546, 67.46094
1004.659, 433.5664
1005.772, 111.7617
1006.884, 286.3125
1007.996, 360.8633
1009.108, 204.4141
1010.220, 305.9531
1011.332, 331.4805
1012.444, 469.8047
1013.555, 409.3047
1014.666, 362.9570
1015.777, 519.6289
1016.888, 529.2930
1017.999, 834.4453
1019.110, 686.1641
1020.220, 843.2734
1021.331, 853.6992
1022.441, 793.7070
1023.551, 423.0547
1024.661, 530.0898
1025.770, 128.4023
1026.880, 457.6055
1027.989, 311.6953
1029.098, 329.8945
1030.207, 468.2344
1031.316, 155.5703
1032.425, 375.8984
1033.533, 407.9492
1034.642, 247.8359
1035.750, 442.8086
1036.858, 401.0977
1037.966, 133.3750
1039.073, 321.6445
1040.181, 322.8281
1041.288, 821.8242
1042.396, 484.4141
1043.503, 728.4414
1044.610, 616.9062
1045.716, 706.1875
1046.823, 1134.371
1047.929, 1288.566
1049.036, 1451.590
1050.142, 1530.117
1051.248, 1878.059
1052.353, 1699.223
1053.459, 2025.379
1054.564, 1687.406
1055.670, 1247.461
1056.775, 1073.590
1057.880, 839.9609
1058.985, 737.2227
1060.089, 531.3359
1061.194, 507.3438
1062.298, 393.4453
1063.402, 466.3516
1064.506, 251.2617
1065.610, 135.3438
1066.713, 217.2227
1067.817, 146.9648
1068.920, 211.0312
1070.023, 239.4727
1071.126, 377.1953
1072.229, 454.7070
1073.332, 173.2109
1074.435, 25.74609
1075.537, 99.32422
1076.639, 212.3203
1077.741, 207.3281
1078.843, 160.3320
1079.945, 69.22656
1081.046, 431.1055
1082.148, 357.0547
1083.249, 328.6680
1084.350, 200.7539
1085.451, 267.6133
1086.551, 313.5078
1087.652, 310.8281
1088.752, 90.15234
1089.853, 42.44141
1090.953, 164.6484
1092.053, 301.2266
1093.152, 419.1094
1094.252, 126.9883
1095.351, 243.8633
1096.451, 126.7344
1097.550, 185.2109
1098.649, 311.5664
1099.748, 459.1992
1100.846, 88.07422
1101.945, 311.9453
1103.043, 113.8164
1104.141, 265.6836
1105.239, 176.5508
1106.337, 63.22266
1107.434, 91.10938
1108.532, 106.7031
1109.629, 236.1641
1110.726, 111.9766
1111.823, 267.7930
1112.920, 153.6055
1114.017, 251.0977
1115.113, 330.9180
1116.210, 159.7539
1117.306, 31.59766
1118.402, 61.43750
1119.498, 23.72656
1120.593, 250.0977
1121.689, 313.9297
1122.784, 298.7617
1123.879, 484.5898
1124.974, 439.4180
1126.069, 429.2500
1127.164, 443.6133
1128.259, 337.4414
1129.353, 189.2734
1130.447, 64.10547
1131.541, 404.3086
1132.635, 258.1367
1133.729, 129.9688
1134.822, 377.4727
1135.916, 224.0078
1137.009, 417.8398
1138.102, 15.56250
1139.195, 298.4141
1140.288, 517.2734
1141.380, 245.1289
1142.473, 168.9922
1143.565, 231.8516
1144.657, 120.7148
1145.749, 187.5742
1146.841, 234.4453
1147.932, 381.3281
1149.024, 279.2070
1150.115, 183.0977
1151.206, 28.00781
1152.297, 443.8906
1153.388, 273.7930
1154.479, 302.6992
1155.569, 25.62891
1156.659, 421.5586
1157.750, 233.5078
1158.839, 194.4766
1159.929, 360.4492
1161.019, 223.4258
1162.108, 149.4023
1163.198, 103.3789
1164.287, 237.3633
1165.376, 292.3477
1166.465, 335.3398
1167.553, 97.33203
1168.642, 123.3281
1169.730, 137.3281
1170.818, 74.32812
1171.906, 142.3359
1172.994, 529.3477
1174.082, 132.3672
1175.170, 451.4102
1176.257, 205.4688
1177.344, 152.5508
1178.431, 161.6406
1179.518, 349.7344
1180.605, 2.171875
1181.691, 69.92188
1182.778, 478.0195
1183.864, 137.1250
1184.950, 389.2305
1186.036, 400.3477
1187.122, 73.46484
1188.207, 217.5859
1189.292, 225.7695
1190.378, 426.9609
1191.463, 209.6172
1192.548, 312.8203
1193.632, 224.0273
1194.717, 231.2344
1195.801, 253.4883
1196.886, 196.7500
1197.970, 26.04297
1199.054, 225.3359
1200.137, 289.6445
1201.221, 147.0469
1202.305, 217.1914
1203.388, 73.43750
1204.471, 229.6914
1205.554, 300.9453
1206.637, 377.2227
1207.719, 357.6797
1208.802, 181.8047
1209.884, 260.1055
1210.966, 91.43359
1212.048, 71.75000
1213.130, 27.92969
1214.212, 5.835938
1215.293, 68.87891
1216.374, 145.8164
1217.456, 217.1836
1218.536, 308.5547
1219.617, 222.2344
1220.698, 237.6250
1221.778, 313.6680
1222.859, 510.0664
1223.939, 180.4688
1225.019, 112.8828
1226.099, 126.3008
1227.178, 409.7266
1228.258, 148.1602
1229.337, 262.6016
1230.417, 232.0508
1231.496, 327.5156
1232.574, 435.9883
1233.653, 270.4688
1234.732, 334.9492
1235.810, 139.5586
1236.888, 186.8711
1237.966, 105.5078
1239.044, 383.9531
1240.122, 321.4102
1241.199, 286.8672
1242.277, 474.5039
1243.354, 196.9766
1244.431, 288.4648
1245.508, 515.9570
1246.585, 23.45312
1247.661, 201.9609
1248.738, 379.4766
1249.814, 254.4883
1250.890, 203.0156
1251.966, 264.5547
1253.042, 284.1016
1254.117, 471.6523
1255.193, 131.2148
1256.268, 33.21484
1257.343, 467.3398
1258.418, 244.5547
1259.493, 284.1328
1260.567, 88.28125
1261.642, 312.2734
1262.716, 317.8320
1263.790, 435.4062
1264.864, 351.9844
1265.938, 404.0352
1267.011, 270.1680
1268.085, 390.2148
1269.158, 434.3906
1270.231, 363.0156
1271.304, 108.6445
1272.377, 159.2812
1273.450, 163.9297
1274.522, 376.5820
1275.594, 560.2461
1276.666, 280.8281
