##NAMES=Talc
##RRUFFID=R050087
##IDEAL CHEMISTRY=Mg_3_Si_4_O_10_(OH)_2_
##LOCALITY=St. Lawrence County, New York, USA
##OWNER=RRUFF
##SOURCE=University of Arizona Mineral Museum
##DESCRIPTION=An aggregate of colorless foliated coarse single crystals
##STATUS=The identification of this mineral has been confirmed by X-ray diffraction and chemical analysis
##URL=rruff.info/R050087
##MEASURED CHEMISTRY=(Mg_.998_Fe_.002_)_3_(Si_.997_Al_.003_)_4_O_10_(OH_.966_F_.034_)_2_
##PIN_ID=M00418
##ORIENTATION=Laser parallel to (1 0 1). Fiducial mark perpendicular to laser is parallel to b [0 1 0]
91.01200, 0.0000000E+00
92.24600, 132.8076
93.48000, 122.5410
94.71400, 385.9590
95.94800, 903.3921
97.18200, 1261.835
98.41600, 1758.395
99.64900, 2717.315
100.8830, 4313.617
102.1160, 6070.035
103.3490, 7444.996
104.5820, 7762.082
105.8150, 7725.652
107.0470, 8409.358
108.2800, 9755.947
109.5120, 10391.22
110.7440, 8923.498
111.9760, 7422.434
113.2080, 7045.441
114.4400, 7448.484
115.6710, 7079.259
116.9030, 4997.591
118.1340, 2995.518
119.3650, 1848.403
120.5960, 1452.852
121.8270, 1002.754
123.0580, 608.4683
124.2880, 397.4873
125.5190, 233.7705
126.7490, 54.83838
127.9790, 98.13428
129.2090, 36.38330
130.4390, 90.48486
131.6680, 60.31055
132.8980, 54.45215
134.1270, 87.98633
135.3560, 57.79980
136.5850, 7.535645
137.8140, 82.43994
139.0430, 67.35107
140.2710, 13.74609
141.5000, 22.84766
142.7280, 25.95459
143.9560, 3.066895
145.1840, 47.18408
146.4120, 76.30322
147.6390, 70.40918
148.8670, 53.50098
150.0940, 36.33691
151.3210, 99.66211
152.5490, 28.27344
153.7750, 31.22168
155.0020, 52.18555
156.2290, 67.83447
157.4550, 64.16309
158.6810, 2.820801
159.9080, 78.78564
161.1340, 75.72900
162.3590, 22.34814
163.5850, 56.44580
164.8110, 136.5366
166.0360, 210.2954
167.2610, 195.6797
168.4860, 166.8232
169.7110, 197.9277
170.9360, 349.3828
172.1610, 221.1138
173.3850, 239.3364
174.6100, 176.7710
175.8340, 376.4165
177.0580, 354.1562
178.2820, 675.7871
179.5050, 705.7471
180.7290, 912.6006
181.9520, 1509.487
183.1760, 2927.101
184.3990, 5513.720
185.6220, 8242.244
186.8450, 10060.74
188.0670, 10353.29
189.2900, 13023.89
190.5120, 20274.51
191.7340, 27154.14
192.9560, 29041.74
194.1780, 22812.31
195.4000, 15072.87
196.6220, 10534.47
197.8430, 8547.082
199.0640, 6482.711
200.2860, 4342.322
201.5070, 2693.019
202.7270, 1820.728
203.9480, 1413.355
205.1690, 965.1426
206.3890, 556.9717
207.6090, 508.8394
208.8290, 410.7451
210.0490, 258.6851
211.2690, 265.6577
212.4890, 226.6611
213.7080, 317.6963
214.9280, 281.7622
216.1470, 260.8574
217.3660, 179.9819
218.5850, 277.1392
219.8030, 241.3267
221.0220, 389.5415
222.2400, 395.7832
223.4590, 405.0518
224.6770, 430.3457
225.8950, 532.6650
227.1120, 853.0093
228.3300, 710.3779
229.5480, 606.7705
230.7650, 384.1865
231.9820, 263.6255
233.1990, 368.0869
234.4160, 190.5708
235.6330, 154.0762
236.8490, 55.60205
238.0660, 87.15332
239.2820, 47.54150
240.4980, 36.78369
241.7140, 39.44580
242.9300, 3.190918
244.1460, 50.64258
245.3610, 17.16943
246.5770, 65.00977
247.7920, 5.042969
249.0070, 23.84668
250.2220, 33.11963
251.4370, 20.45996
252.6510, 34.37939
253.8660, 40.75879
255.0800, 78.89648
256.2940, 39.36426
257.5080, 24.73340
258.7220, 109.8486
259.9360, 216.7490
261.1490, 194.6494
262.3630, 211.8613
263.5760, 119.6768
264.7890, 47.42871
266.0020, 32.97754
267.2150, 38.48242
268.4270, 62.29785
269.6400, 62.67578
270.8520, 12.32422
272.0640, 21.03516
273.2760, 73.21191
274.4880, 110.4863
275.7000, 41.78516
276.9120, 380.1143
278.1230, 254.4629
279.3340, 427.1475
280.5450, 760.2217
281.7560, 1077.610
282.9670, 1170.940
284.1780, 1374.348
285.3880, 1717.761
286.5980, 2503.305
287.8090, 2860.470
289.0190, 2873.491
290.2290, 2253.494
291.4380, 1635.544
292.6480, 1290.161
293.8570, 953.0732
295.0670, 955.8350
296.2760, 692.4004
297.4850, 573.8486
298.6930, 749.3359
299.9020, 780.8311
301.1110, 813.3311
302.3190, 808.3984
303.5270, 649.9297
304.7350, 391.0664
305.9430, 328.6484
307.1510, 184.3926
308.3580, 283.9883
309.5660, 53.60938
310.7730, 75.23828
311.9800, 115.8105
313.1870, 95.35449
314.3940, 94.84863
315.6010, 15.33887
316.8070, 141.7803
318.0130, 94.19434
319.2200, 174.6113
320.4260, 322.0215
321.6310, 258.4395
322.8370, 438.8750
324.0430, 432.3135
325.2480, 769.6963
326.4540, 804.0020
327.6590, 1053.269
328.8640, 1337.544
330.0680, 1305.822
331.2730, 1413.109
332.4780, 1673.403
333.6820, 1554.707
334.8860, 1471.019
336.0900, 1132.338
337.2940, 1115.665
338.4980, 1053.000
339.7010, 1031.344
340.9050, 1068.695
342.1080, 1150.055
343.3110, 1264.848
344.5140, 1616.224
345.7170, 1839.721
346.9200, 2127.110
348.1220, 2453.510
349.3240, 3076.910
350.5270, 3780.319
351.7290, 4986.734
352.9310, 6120.155
354.1320, 7604.584
355.3340, 9091.019
356.5350, 10755.46
357.7370, 12623.91
358.9380, 13927.36
360.1390, 14683.82
361.3400, 14423.28
362.5400, 13195.75
363.7410, 11080.23
364.9410, 8945.710
366.1410, 6927.193
367.3410, 5434.684
368.5410, 4168.178
369.7410, 3176.678
370.9400, 2719.181
372.1400, 2072.689
373.3390, 1971.201
374.5380, 1884.718
375.7370, 2087.238
376.9360, 2031.763
378.1350, 1960.291
379.3330, 1687.822
380.5310, 1527.357
381.7300, 1336.896
382.9280, 1274.453
384.1260, 1002.222
385.3230, 992.5400
386.5210, 741.6660
387.7180, 566.7119
388.9160, 503.1172
390.1130, 262.5342
391.3100, 363.5635
392.5060, 139.1826
393.7030, 236.8057
394.9000, 213.9600
396.0960, 123.7197
397.2920, 168.8076
398.4880, 147.6543
399.6840, 3.191406
400.8800, 122.6162
402.0750, 33.46094
403.2710, 45.97754
404.4660, 177.5303
405.6610, 27.68262
406.8560, 228.9785
408.0510, 163.4609
409.2450, 141.5615
410.4400, 199.3008
411.6340, 150.6582
412.8280, 175.5830
414.0220, 62.63574
415.2160, 212.9951
416.4100, 201.8594
417.6030, 319.4414
418.7970, 399.1855
419.9900, 649.9043
421.1830, 666.0713
422.3760, 814.5947
423.5690, 1114.262
424.7610, 1407.664
425.9540, 1986.314
427.1460, 2358.684
428.3380, 2899.184
429.5300, 3655.681
430.7220, 4085.182
431.9140, 3988.688
433.1050, 3479.247
434.2970, 2833.810
435.4880, 2306.331
436.6790, 1624.869
437.8700, 1213.422
439.0610, 1052.985
440.2510, 845.5557
441.4420, 814.1484
442.6320, 764.7383
443.8220, 783.3262
445.0120, 911.9541
446.2020, 1217.207
447.3910, 1376.059
448.5810, 1556.105
449.7700, 1583.889
450.9600, 1614.296
452.1490, 1607.593
453.3370, 1473.496
454.5260, 1233.114
455.7150, 988.3164
456.9030, 952.9287
458.0910, 825.5908
459.2800, 947.7910
460.4670, 939.3965
461.6550, 1044.047
462.8430, 1287.178
464.0300, 1521.774
465.2180, 1814.679
466.4050, 1928.271
467.5920, 1978.859
468.7790, 1793.443
469.9650, 1459.027
471.1520, 1133.697
472.3380, 847.2764
473.5250, 588.8535
474.7110, 451.4277
475.8970, 391.0000
477.0820, 185.5693
478.2680, 194.1367
479.4540, 49.70117
480.6390, 309.2646
481.8240, 61.82422
483.0090, 138.3818
484.1940, 131.9365
485.3780, 11.48926
486.5630, 80.03711
487.7470, 32.58203
488.9320, 118.1230
490.1160, 49.66211
491.3000, 229.1973
492.4830, 88.73047
493.6670, 105.2598
494.8500, 198.7861
496.0340, 71.31055
497.2170, 145.8320
498.4000, 165.3516
499.5820, 352.8682
500.7650, 466.3809
501.9480, 554.8916
503.1300, 543.4004
504.3120, 459.9053
505.4940, 592.4082
506.6760, 627.9082
507.8580, 477.4062
509.0390, 450.9004
510.2210, 523.3936
511.4020, 414.8838
512.5830, 434.3701
513.7640, 330.8535
514.9450, 314.3750
516.1250, 195.8125
517.3060, 238.2881
518.4860, 228.7607
519.6660, 131.2295
520.8460, 192.6963
522.0260, 124.1602
523.2060, 293.6201
524.3850, 132.0771
525.5650, 151.5312
526.7440, 71.99805
527.9230, 79.47949
529.1020, 92.97168
530.2810, 131.4688
531.4590, 42.01953
532.6380, 29.52832
533.8160, 28.06152
534.9940, 68.38672
536.1720, 31.84570
537.3500, 37.31738
538.5270, 19.78809
539.7050, 32.72949
540.8820, 56.72754
542.0590, 67.56738
543.2360, 73.96191
544.4130, 68.37305
545.5900, 37.79590
546.7660, 13.21582
547.9430, 19.29980
549.1190, 47.72168
550.2950, 27.65039
551.4710, 13.44238
552.6470, 6.977539
553.8220, 28.58789
554.9980, 63.15137
556.1730, 21.34277
557.3480, 53.67773
558.5230, 15.07617
559.6980, 10.46484
560.8730, 39.15039
562.0470, 3.052734
563.2220, 32.55469
564.3960, 16.90234
565.5700, 32.24707
566.7440, 85.58691
567.9170, 6.075195
569.0910, 64.25098
570.2640, 47.57324
571.4380, 112.8936
572.6110, 49.21094
573.7840, 32.52539
574.9570, 32.83594
576.1290, 69.14453
577.3020, 51.44922
578.4740, 60.17090
579.6460, 60.12012
580.8180, 57.34570
581.9900, 54.63867
583.1620, 58.92871
584.3330, 71.21582
585.5040, 9.500977
586.6760, 35.23145
587.8470, 12.98926
589.0180, 111.7617
590.1880, 15.39746
591.3590, 62.55176
592.5290, 64.29688
593.7000, 5.811523
594.8700, 70.91309
596.0400, 18.98730
597.2090, 125.0938
598.3790, 29.17090
599.5490, 7.246094
600.7180, 217.3164
601.8870, 29.38574
603.0560, 82.55078
604.2250, 52.46289
605.3940, 31.52637
606.5620, 150.4600
607.7300, 110.4424
608.8990, 133.4219
610.0670, 132.3984
611.2350, 19.37207
612.4020, 67.34473
613.5700, 71.31543
614.7370, 87.28320
615.9050, 173.2480
617.0720, 159.2090
618.2390, 171.1914
619.4060, 213.1699
620.5720, 167.1455
621.7390, 372.1182
622.9050, 258.1035
624.0710, 100.0898
625.2370, 308.0723
626.4030, 138.8164
627.5690, 269.7930
628.7340, 317.6543
629.9000, 185.6260
631.0650, 367.6094
632.2300, 470.5908
633.3950, 460.5693
634.5600, 473.5449
635.7240, 443.5186
636.8890, 494.5166
638.0530, 546.5234
639.2170, 549.5381
640.3810, 677.5508
641.5450, 617.5908
642.7080, 716.6270
643.8720, 801.6934
645.0350, 826.7559
646.1980, 992.8145
647.3610, 993.8721
648.5240, 1106.928
649.6870, 1236.979
650.8490, 1334.028
652.0120, 1604.077
653.1740, 1780.862
654.3360, 2027.166
655.4980, 2311.207
656.6600, 2582.246
657.8210, 2958.281
658.9830, 3407.314
660.1440, 3964.346
661.3050, 4808.373
662.4660, 5878.399
663.6270, 7036.424
664.7870, 8847.455
665.9480, 11063.48
667.1080, 13990.51
668.2680, 17353.57
669.4280, 20988.62
670.5880, 25268.67
671.7480, 29814.46
672.9070, 33012.05
674.0670, 35566.73
675.2260, 36711.76
676.3850, 35407.71
677.5440, 32638.69
678.7030, 28122.52
679.8610, 23831.89
681.0200, 19412.92
682.1780, 15788.96
683.3360, 12856.76
684.4940, 10584.79
685.6520, 8364.778
686.8090, 7066.533
687.9670, 5782.726
689.1240, 4764.768
690.2810, 4183.699
691.4380, 3386.371
692.5950, 3052.078
693.7520, 2698.798
694.9080, 2276.346
696.0650, 2086.517
697.2210, 1773.008
698.3770, 1514.945
699.5330, 1356.212
700.6880, 1134.266
701.8440, 1033.586
702.9990, 1055.171
704.1550, 954.0000
705.3100, 841.9570
706.4650, 797.9658
707.6190, 676.1016
708.7740, 571.1084
709.9290, 555.1133
711.0830, 574.1172
712.2370, 510.1172
713.3910, 625.0684
714.5450, 508.0479
715.6980, 445.0449
716.8520, 406.0420
718.0050, 257.0381
719.1580, 322.0322
720.3110, 368.0254
721.4640, 205.0166
722.6170, 303.0078
723.7700, 408.9961
724.9220, 303.9424
726.0740, 370.2754
727.2260, 375.0078
728.3780, 303.5439
729.5300, 174.3594
730.6810, 179.3438
731.8330, 128.8750
732.9840, 226.5508
734.1350, 166.5352
735.2860, 311.9326
736.4370, 154.9160
737.5880, 288.8467
738.7380, 199.5625
739.8880, 242.5459
741.0390, 350.5342
742.1890, 318.9990
743.3380, 362.4541
744.4880, 333.6592
745.6380, 301.6455
746.7870, 296.4805
747.9360, 224.7471
749.0850, 249.6758
750.2340, 147.2422
751.3830, 136.2959
752.5310, 229.2861
753.6800, 218.2754
754.8280, 110.2666
755.9760, 284.7715
757.1240, 150.7637
758.2720, 150.7559
759.4190, 150.8105
760.5670, 124.1357
761.7140, 149.8857
762.8610, 39.87891
764.0080, 13.12695
765.1550, 126.8682
766.3020, 211.8623
767.4480, 64.85742
768.5950, 77.16504
769.7410, 252.1602
770.8870, 260.3262
772.0330, 184.3223
773.1780, 279.3184
774.3240, 400.5508
775.4690, 439.5918
776.6140, 345.5752
777.7590, 578.5713
778.9040, 627.6611
780.0490, 813.6543
781.1940, 896.8340
782.3380, 1246.825
783.4820, 1405.816
784.6260, 1570.805
785.7700, 1600.793
786.9140, 1832.779
788.0580, 1918.765
789.2010, 2025.891
790.3450, 2033.920
791.4880, 2261.038
792.6310, 2106.019
793.7730, 2045.036
794.9160, 1885.015
796.0590, 1411.990
797.2010, 1145.966
798.3430, 945.9404
799.4850, 842.9141
800.6270, 620.8857
801.7690, 711.3203
802.9100, 379.2910
804.0520, 524.2598
805.1930, 365.3242
806.3340, 316.2900
807.4750, 213.2559
808.6160, 221.2197
809.7560, 227.1953
810.8970, 198.4570
812.0370, 317.2832
813.1770, 213.3066
814.3170, 183.2988
815.4570, 207.2910
816.5960, 86.31445
817.7360, 225.4014
818.8750, 211.7188
820.0140, 277.7168
821.1530, 143.7363
822.2920, 160.7549
823.4310, 114.7715
824.5690, 39.14160
825.7070, 16.85352
826.8460, 77.84766
827.9840, 241.8398
829.1220, 17.83789
830.2590, 169.8359
831.3970, 40.84473
832.5340, 113.8711
833.6710, 176.9043
834.8080, 89.95410
835.9450, 117.0029
837.0820, 69.05371
838.2190, 38.11426
839.3550, 10.82227
840.4910, 234.2334
841.6270, 138.3975
842.7630, 183.4531
843.8990, 231.5059
845.0350, 136.5615
846.1700, 108.6162
847.3060, 103.6709
848.4410, 133.7256
849.5760, 222.7783
850.7100, 15.83105
851.8450, 163.8809
852.9800, 111.9307
854.1140, 110.9775
855.2480, 109.0234
856.3820, 145.0693
857.5160, 99.11230
858.6500, 112.1543
859.7830, 175.1953
860.9170, 94.23438
862.0500, 135.2783
863.1830, 58.33203
864.3160, 266.3906
865.4480, 303.4795
866.5810, 177.5674
867.7130, 186.6543
868.8460, 55.75977
869.9780, 177.8643
871.1100, 66.96777
872.2410, 251.0781
873.3730, 185.1855
874.5050, 203.2920
875.6360, 208.3975
876.7670, 15.50488
877.8980, 25.60938
879.0290, 188.7363
880.1590, 28.86133
881.2900, 192.9961
882.4200, 138.1289
883.5500, 13.26172
884.6800, 218.3975
885.8100, 6.468750
886.9400, 15.65820
888.0690, 166.7822
889.1990, 37.90430
890.3280, 131.0234
891.4570, 82.83301
892.5860, 60.25977
893.7140, 107.3506
894.8430, 18.43945
895.9710, 47.47363
897.1000, 6.289063
898.2280, 166.6260
899.3560, 42.66992
900.4830, 86.52539
901.6110, 128.5654
902.7380, 105.6025
903.8660, 46.36133
904.9930, 106.6494
906.1200, 5.659180
907.2460, 138.6641
908.3730, 51.66602
909.5000, 92.33398
910.6260, 41.38867
911.7520, 24.47266
912.8780, 87.42285
914.0040, 105.6836
915.1290, 42.14551
916.2550, 107.0264
917.3800, 80.74609
918.5050, 184.5176
919.6300, 76.28906
920.7550, 165.0615
921.8800, 47.82910
923.0040, 111.5967
924.1290, 10.36133
925.2530, 26.12305
926.3770, 10.88184
927.5010, 87.63672
928.6250, 28.40039
929.7480, 127.1631
930.8720, 124.9414
931.9950, 235.7178
933.1180, 66.49121
934.2410, 84.26270
935.3640, 192.0508
936.4860, 31.16406
937.6090, 105.5967
938.7310, 66.35645
939.8530, 104.8877
940.9750, 95.80664
942.0970, 200.4980
943.2180, 85.18848
944.3400, 86.87402
945.4610, 29.55957
946.5820, 21.24219
947.7030, 31.17188
948.8240, 51.60742
949.9450, 55.29004
951.0650, 29.97070
952.1860, 17.64941
953.3060, 12.67676
954.4260, 120.9971
955.5460, 185.6689
956.6650, 74.33691
957.7850, 170.0049
958.9040, 21.71191
960.0230, 135.1055
961.1420, 157.8193
962.2610, 83.54004
963.3800, 99.25684
964.4990, 129.9668
965.6170, 97.69043
966.7350, 94.41211
967.8530, 108.9912
968.9710, 96.84766
970.0890, 120.5615
971.2070, 178.2725
972.3240, 168.9805
973.4410, 68.68652
974.5580, 112.7637
975.6750, 12.46289
976.7920, 165.1582
977.9090, 233.8516
979.0250, 47.54102
980.1410, 197.2275
981.2580, 339.1543
982.3740, 195.8398
983.4890, 258.5225
984.6050, 350.2012
985.7200, 119.8496
986.8360, 238.5234
987.9510, 192.1934
989.0660, 249.8604
990.1810, 166.5244
991.2950, 267.1855
992.4100, 313.8447
993.5240, 274.5000
994.6390, 304.1533
995.7530, 363.8027
996.8660, 376.4492
997.9800, 274.0938
999.0940, 242.7344
1000.207, 271.3711
1001.320, 513.0059
1002.433, 406.6367
1003.546, 580.2637
1004.659, 575.8887
1005.772, 407.5098
1006.884, 482.1279
1007.996, 644.7412
1009.108, 591.3516
1010.220, 566.2344
1011.332, 817.7861
1012.444, 919.3750
1013.555, 1387.973
1014.666, 1465.565
1015.777, 1839.156
1016.888, 1851.209
1017.999, 1917.729
1019.110, 1830.309
1020.220, 1777.216
1021.331, 1518.725
1022.441, 1359.295
1023.551, 1122.860
1024.661, 882.0088
1025.770, 627.0527
1026.880, 588.6074
1027.989, 457.1592
1029.098, 659.6455
1030.207, 462.8574
1031.316, 290.6416
1032.425, 473.1807
1033.533, 350.7139
1034.642, 286.2471
1035.750, 405.7754
1036.858, 463.3018
1037.966, 559.7734
1039.073, 479.2939
1040.181, 470.6396
1041.288, 537.1543
1042.396, 782.6641
1043.503, 935.9346
1044.610, 1206.395
1045.716, 1275.907
1046.823, 1549.407
1047.929, 1940.810
1049.036, 2132.341
1050.142, 2554.442
1051.248, 2599.935
1052.353, 2250.338
1053.459, 1867.826
1054.564, 1662.313
1055.670, 1486.799
1056.775, 1116.282
1057.880, 831.6230
1058.985, 718.0566
1060.089, 509.3984
1061.194, 562.4844
1062.298, 539.9219
1063.402, 412.6553
1064.506, 467.1260
1065.610, 415.5967
1066.713, 309.0645
1067.817, 344.5176
1068.920, 352.0459
1070.023, 196.0439
1071.126, 163.5039
1072.229, 374.9619
1073.332, 151.3203
1074.435, 254.7734
1075.537, 284.2256
1076.639, 258.6777
1077.741, 216.1260
1078.843, 262.5371
1079.945, 268.9121
1081.046, 452.2539
1082.148, 368.6963
1083.249, 342.1377
1084.350, 187.5430
1085.451, 170.8955
1086.551, 308.2227
1087.652, 258.6572
1088.752, 243.0908
1089.853, 197.5205
1090.953, 285.4893
1092.053, 297.9082
1093.152, 337.5107
1094.252, 332.9424
1095.351, 347.9229
1096.451, 331.2900
1097.550, 348.8340
1098.649, 276.2549
1099.748, 239.6748
1100.846, 196.0928
1101.945, 191.4678
1103.043, 33.91797
1104.141, 232.3281
1105.239, 292.7354
1106.337, 367.1387
1107.434, 198.5449
1108.532, 228.8389
1109.629, 46.23926
1110.726, 220.6367
1111.823, 34.03320
1112.920, 2.424805
1114.017, 240.4775
1115.113, 304.8613
1116.210, 373.2441
1117.306, 219.6230
1118.402, 415.9980
1119.498, 533.3750
1120.593, 665.7480
1121.689, 781.1172
1122.784, 667.4844
1123.879, 672.8496
1124.974, 469.2129
1126.069, 416.5742
1127.164, 512.9316
1128.259, 335.2891
1129.353, 347.6445
1130.447, 319.9941
1131.541, 297.3438
1132.635, 195.6914
1133.729, 286.0371
1134.822, 394.3789
1135.916, 225.7188
1137.009, 311.0566
1138.102, 157.4082
1139.195, 37.76172
1140.288, 45.11719
1141.380, 1.666016
1142.473, 55.81445
1143.565, 100.1582
1144.657, 139.5020
1145.749, 295.8418
1146.841, 165.1797
1147.932, 1.486328
1149.024, 10.15625
1150.115, 121.1621
1151.206, 139.4785
1152.297, 32.79492
1153.388, 148.1113
1154.479, 45.42578
1155.569, 83.26172
1156.659, 124.0020
1157.750, 148.2871
1158.839, 214.5684
1159.929, 250.4609
1161.019, 221.4023
1162.108, 182.4238
1163.198, 190.7207
1164.287, 47.01367
1165.376, 121.3203
1166.465, 182.6250
1167.553, 219.9258
1168.642, 14.77148
1169.730, 463.5293
1170.818, 700.8281
1171.906, 165.1309
1172.994, 222.4297
1174.082, 218.7285
1175.170, 82.07227
1176.257, 206.4316
1177.344, 94.79492
1178.431, 48.15820
1179.518, 15.55273
1180.605, 23.36719
1181.691, 84.34766
1182.778, 9.248047
1183.864, 70.14453
1184.950, 162.5391
1186.036, 43.92969
1187.122, 80.31836
1188.207, 184.7070
1189.292, 106.0957
1190.378, 73.48438
1191.463, 36.12891
1192.548, 257.2344
1193.632, 62.40625
1194.717, 105.9180
1195.801, 80.24414
1196.886, 49.56641
1197.970, 58.11328
1199.054, 8.171875
1200.137, 58.45508
1201.221, 97.74805
1202.305, 193.0430
1203.388, 26.33398
1204.471, 101.6582
1205.554, 39.97852
1206.637, 246.3008
1207.719, 142.6191
1208.802, 74.93945
1209.884, 193.2578
1210.966, 25.42383
1212.048, 171.8730
1213.130, 184.1719
1214.212, 130.4727
1215.293, 309.7695
1216.374, 45.93164
1217.456, 126.3438
1218.536, 46.61719
1219.617, 151.8926
1220.698, 162.8359
1221.778, 59.65039
1222.859, 2.496094
1223.939, 38.64062
1225.019, 95.78516
1226.099, 91.14844
1227.178, 36.92773
1228.258, 100.1934
1229.337, 35.31250
1230.417, 100.4336
1231.496, 181.5527
1232.574, 33.67188
1233.653, 36.79102
1234.732, 160.9082
1235.810, 64.02930
1236.888, 139.1465
1237.966, 239.2637
1239.044, 264.3828
1240.122, 222.5000
1241.199, 229.6172
1242.277, 184.7383
1243.354, 7.384766
1244.431, 204.7266
1245.508, 103.8418
1246.585, 35.95312
1247.661, 145.0664
1248.738, 91.17969
1249.814, 195.2930
1250.890, 153.4043
1251.966, 169.5176
1253.042, 176.6309
1254.117, 88.74219
1255.193, 126.8555
1256.268, 264.9707
1257.343, 85.08398
1258.418, 268.1992
1259.493, 182.3145
1260.567, 115.4277
1261.642, 189.5430
1262.716, 170.6602
1263.790, 142.7754
1264.864, 205.8926
1265.938, 43.00977
1267.011, 86.98047
1268.085, 98.52148
1269.158, 292.1699
