##NAMES=Talc
##RRUFFID=R050087
##IDEAL CHEMISTRY=Mg_3_Si_4_O_10_(OH)_2_
##LOCALITY=St. Lawrence County, New York, USA
##OWNER=RRUFF
##SOURCE=University of Arizona Mineral Museum
##DESCRIPTION=An aggregate of colorless foliated coarse single crystals
##STATUS=The identification of this mineral has been confirmed by X-ray diffraction and chemical analysis
##URL=rruff.info/R050087
##MEASURED CHEMISTRY=(Mg_.998_Fe_.002_)_3_(Si_.997_Al_.003_)_4_O_10_(OH_.966_F_.034_)_2_
##PIN_ID=M00271
##ORIENTATION=Laser parallel to (0 -1 -1). Fiducial mark perpendicular to laser is parallel to a [1 0 0]
93.48000, 0.0000000E+00
94.71400, 10.15039
95.94800, 596.7451
97.18200, 856.4648
98.41600, 1372.021
99.64900, 1909.896
100.8830, 2933.459
102.1160, 4264.299
103.3490, 5866.932
104.5820, 6922.344
105.8150, 7554.273
107.0470, 7273.348
108.2800, 7460.628
109.5120, 7646.049
110.7440, 7652.170
111.9760, 7404.998
113.2080, 6542.150
114.4400, 5722.211
115.6710, 5162.420
116.9030, 4206.919
118.1340, 3237.849
119.3650, 2536.311
120.5960, 1379.388
121.8270, 812.7539
123.0580, 387.8613
124.2880, 363.2754
125.5190, 249.5352
126.7490, 16.88184
127.9790, 34.96973
129.2090, 111.4609
130.4390, 51.64355
131.6680, 161.0117
132.8980, 121.9668
134.1270, 96.25586
135.3560, 58.67871
136.5850, 138.5518
137.8140, 108.6816
139.0430, 113.9844
140.2710, 245.4492
141.5000, 291.0420
142.7280, 145.7588
143.9560, 258.5928
145.1840, 236.5361
146.4120, 275.5801
147.6390, 104.7314
148.8670, 41.27930
150.0940, 102.9854
151.3210, 6.198242
152.5490, 4.371094
153.7750, 106.4980
155.0020, 112.5947
156.2290, 22.64551
157.4550, 107.6562
158.6810, 29.62500
159.9080, 42.55371
161.1340, 57.71191
162.3590, 39.29102
163.5850, 71.10156
164.8110, 93.87402
166.0360, 103.8115
167.2610, 25.33691
168.4860, 18.60938
169.7110, 0.4707030
170.9360, 36.74023
172.1610, 26.97363
173.3850, 112.4443
174.6100, 248.7451
175.8340, 24.67773
177.0580, 174.1768
178.2820, 238.2119
179.5050, 390.1240
180.7290, 708.6953
181.9520, 1003.992
183.1760, 1833.563
184.3990, 3405.229
185.6220, 5502.554
186.8450, 7328.254
188.0670, 7218.993
189.2900, 8295.771
190.5120, 12606.58
191.7340, 17876.43
192.9560, 23340.32
194.1780, 26492.25
195.4000, 24088.17
196.6220, 18076.07
197.8430, 11838.96
199.0640, 7131.797
200.2860, 3992.585
201.5070, 2325.655
202.7270, 1496.927
203.9480, 939.8457
205.1690, 781.0479
206.3890, 514.4932
207.6090, 435.4307
208.8290, 235.9414
210.0490, 206.4883
211.2690, 312.0684
212.4890, 122.6807
213.7080, 170.3242
214.9280, 182.0000
216.1470, 195.7041
217.3660, 168.4365
218.5850, 311.2012
219.8030, 303.9971
221.0220, 235.8252
222.2400, 268.6816
223.4590, 213.5635
224.6770, 458.4688
225.8950, 564.4033
227.1120, 813.3564
228.3300, 871.3301
229.5480, 804.3223
230.7650, 733.3330
231.9820, 632.3584
233.1990, 355.4014
234.4160, 184.4619
235.6330, 305.5381
236.8490, 150.6279
238.0660, 179.7324
239.2820, 123.8496
240.4980, 127.1855
241.7140, 139.6768
242.9300, 97.72559
244.1460, 89.45215
245.3610, 101.0605
246.5770, 168.9883
247.7920, 121.8428
249.0070, 6.475586
250.2220, 34.07227
251.4370, 191.4668
252.6510, 50.90918
253.8660, 9.233398
255.0800, 151.4775
256.2940, 77.21680
257.5080, 3.044922
258.7220, 35.66309
259.9360, 266.3447
261.1490, 32.78027
262.3630, 46.42188
263.5760, 152.6367
264.7890, 15.54688
266.0020, 221.8691
267.2150, 59.34375
268.4270, 170.0771
269.6400, 22.58887
270.8520, 92.98242
272.0640, 110.3594
273.2760, 74.52539
274.4880, 125.5957
275.7000, 53.51660
276.9120, 68.34180
278.1230, 128.1455
279.3340, 210.9824
280.5450, 552.8379
281.7560, 655.7051
282.9670, 798.5879
284.1780, 1111.492
285.3880, 1249.455
286.5980, 1832.432
287.8090, 2430.422
289.0190, 3077.420
290.2290, 3172.447
291.4380, 2665.523
292.6480, 2047.609
293.8570, 1420.709
295.0670, 1067.816
296.2760, 586.1152
297.4850, 402.2871
298.6930, 271.5664
299.9020, 426.6953
301.1110, 305.5332
302.3190, 235.0254
303.5270, 226.1660
304.7350, 162.9961
305.9430, 233.9160
307.1510, 143.7285
308.3580, 10.48438
309.5660, 49.65820
310.7730, 74.36133
311.9800, 102.9277
313.1870, 9.537109
314.3940, 77.05664
315.6010, 9.488281
316.8070, 322.4980
318.0130, 142.3965
319.2200, 20.34375
320.4260, 168.2754
321.6310, 250.9648
322.8370, 308.8867
324.0430, 518.8066
325.2480, 320.7051
326.4540, 590.6035
327.6590, 750.4961
328.8640, 1049.385
330.0680, 1309.275
331.2730, 1519.162
332.4780, 1406.051
333.6820, 1470.938
334.8860, 1283.820
336.0900, 1137.705
337.2940, 1018.586
338.4980, 862.4688
339.7010, 871.1250
340.9050, 838.4199
342.1080, 943.5117
343.3110, 1035.387
344.5140, 1146.068
345.7170, 1344.994
346.9200, 1692.307
348.1220, 1865.320
349.3240, 2101.234
350.5270, 2557.094
351.7290, 3273.865
352.9310, 4156.715
354.1320, 5177.113
355.3340, 6326.383
356.5350, 7657.150
357.7370, 8948.914
358.9380, 10674.68
360.1390, 12405.44
361.3400, 13153.20
362.5400, 13170.95
363.7410, 12127.70
364.9410, 10300.45
366.1410, 8094.199
367.3410, 6268.939
368.5410, 4536.684
369.7410, 3354.418
370.9400, 2621.146
372.1400, 1786.873
373.3390, 1563.594
374.5380, 1521.312
375.7370, 1567.025
376.9360, 1276.732
378.1350, 1611.438
379.3330, 1401.135
380.5310, 1391.826
381.7300, 1234.516
382.9280, 1011.193
384.1260, 1065.977
385.3230, 836.6602
386.5210, 646.6914
387.7180, 703.9473
388.9160, 427.6230
390.1130, 289.0410
391.3100, 361.9102
392.5060, 225.1016
393.7030, 420.0996
394.9000, 336.2168
396.0960, 202.1035
397.2920, 54.53516
398.4880, 108.0742
399.6840, 176.5000
400.8800, 114.2246
402.0750, 68.42578
403.2710, 153.7422
404.4660, 6.246094
405.6610, 99.48438
406.8560, 9.941406
408.0510, 99.26367
409.2450, 12.61914
410.4400, 14.42578
411.6340, 41.63867
412.8280, 136.4629
414.0220, 140.6094
415.2160, 60.82617
416.4100, 205.4805
417.6030, 177.3750
418.7970, 211.6641
419.9900, 271.2676
421.1830, 231.4512
422.3760, 381.4766
423.5690, 501.5957
424.7610, 960.4023
425.9540, 1076.004
427.1460, 1467.389
428.3380, 1787.898
429.5300, 2164.943
430.7220, 2877.650
431.9140, 3267.746
433.1050, 3483.912
434.2970, 2979.600
435.4880, 2386.959
436.6790, 1718.814
437.8700, 1290.098
439.0610, 836.7227
440.2510, 825.8047
441.4420, 619.0234
442.6320, 565.9297
443.8220, 364.8418
445.0120, 574.7109
446.2020, 367.6016
447.3910, 695.6523
448.5810, 861.9492
449.7700, 957.8418
450.9600, 1013.967
452.1490, 1064.682
453.3370, 1044.502
454.5260, 979.3828
455.7150, 910.1484
456.9030, 890.9121
458.0910, 861.0332
459.2800, 940.3008
460.4670, 1130.154
461.6550, 1212.992
462.8430, 1435.459
464.0300, 1835.277
465.2180, 2329.102
466.4050, 2742.908
467.5920, 2780.881
468.7790, 2770.896
469.9650, 2537.236
471.1520, 2224.980
472.3380, 1633.703
473.5250, 1143.590
474.7110, 946.2812
475.8970, 641.9551
477.0820, 376.6074
478.2680, 387.2598
479.4540, 373.8926
480.6390, 250.5078
481.8240, 232.1016
483.0090, 106.6797
484.1940, 103.2383
485.3780, 176.7754
486.5630, 48.29492
487.7470, 112.7871
488.9320, 91.16016
490.1160, 114.7090
491.3000, 128.1387
492.4830, 141.5508
493.6670, 257.9434
494.8500, 144.3164
496.0340, 63.67188
497.2170, 74.00000
498.4000, 172.3066
499.5820, 252.5918
500.7650, 427.8594
501.9480, 485.1055
503.1300, 488.3379
504.3120, 498.5449
505.4940, 540.7363
506.6760, 568.2949
507.8580, 578.0566
509.0390, 623.1895
510.2210, 504.3008
511.4020, 447.3926
512.5830, 439.4668
513.7640, 496.5195
514.9450, 645.5527
516.1250, 569.5684
517.3060, 611.5625
518.4860, 548.5391
519.6660, 609.4941
520.8460, 310.4297
522.0260, 433.3457
523.2060, 296.2422
524.3850, 276.1172
525.5650, 156.9727
526.7440, 244.8086
527.9230, 102.6230
529.1020, 270.4141
530.2810, 189.2129
531.4590, 60.99219
532.6380, 135.7461
533.8160, 14.47461
534.9940, 31.20703
536.1720, 77.91211
537.3500, 0.3925780
538.5270, 5.062500
539.7050, 7.525391
540.8820, 25.49805
542.0590, 33.05469
543.2360, 114.5781
544.4130, 180.0859
545.5900, 192.2344
546.7660, 161.2676
547.9430, 133.7148
549.1190, 134.5566
550.2950, 47.23828
551.4710, 154.6836
552.6470, 123.2637
553.8220, 42.69531
554.9980, 33.19531
556.1730, 193.8633
557.3480, 8.769531
558.5230, 51.77930
559.6980, 154.7637
560.8730, 30.27344
562.0470, 152.6406
563.2220, 32.46484
564.3960, 261.3789
565.5700, 53.20312
566.7440, 75.00000
567.9170, 12.77734
569.0910, 153.4766
570.2640, 233.1523
571.4380, 54.76367
572.6110, 164.3516
573.7840, 38.07812
574.9570, 110.5293
576.1290, 6.894531
577.3020, 34.28711
578.4740, 99.65234
579.6460, 49.00000
580.8180, 145.7539
581.9900, 111.0586
583.1620, 194.8242
584.3330, 177.0879
585.5040, 26.33594
586.6760, 183.7852
587.8470, 14.21094
589.0180, 87.83008
590.1880, 193.9844
591.3590, 126.1562
592.5290, 37.27148
593.7000, 218.4395
594.8700, 56.82617
596.0400, 14.90820
597.2090, 68.91992
598.3790, 124.2129
599.5490, 198.3008
600.7180, 248.0898
601.8870, 215.9902
603.0560, 324.6895
604.2250, 316.6367
605.3940, 273.4668
606.5620, 290.5098
607.7300, 236.6074
608.8990, 201.5137
610.0670, 298.6699
611.2350, 211.6406
612.4020, 199.7070
613.5700, 142.5801
614.7370, 383.5430
615.9050, 401.5293
617.0720, 588.3086
618.2390, 365.5977
619.4060, 512.3418
620.5720, 718.2363
621.7390, 591.9434
622.9050, 771.6816
624.0710, 743.1543
625.2370, 926.6504
626.4030, 1009.307
627.5690, 854.1133
628.7340, 801.6152
629.9000, 937.8770
631.0650, 918.7129
632.2300, 767.1230
633.3950, 710.8281
634.5600, 892.3418
635.7240, 584.7598
636.8890, 778.6094
638.0530, 914.5664
639.2170, 952.0117
640.3810, 1034.441
641.5450, 848.8555
642.7080, 1080.250
643.8720, 1099.641
645.0350, 1432.012
646.1980, 1381.365
647.3610, 1342.705
648.5240, 1390.068
649.6870, 1569.416
650.8490, 1400.768
652.0120, 1776.104
653.1740, 1931.422
654.3360, 1989.725
655.4980, 2105.012
656.6600, 2144.285
657.8210, 2618.543
658.9830, 2707.785
660.1440, 3133.010
661.3050, 3802.221
662.4660, 4460.418
663.6270, 5233.598
664.7870, 6442.766
665.9480, 7894.805
667.1080, 9901.945
668.2680, 12178.71
669.4280, 15169.82
670.5880, 18785.91
671.7480, 21874.25
672.9070, 25803.10
674.0670, 29545.58
675.2260, 31952.42
676.3850, 33446.89
677.5440, 32858.65
678.7030, 30123.72
679.8610, 26165.11
681.0200, 21818.24
682.1780, 17715.04
683.3360, 14177.68
684.4940, 11217.58
685.6520, 9152.518
686.8090, 7150.311
687.9670, 6213.977
689.1240, 5125.641
690.2810, 4103.568
691.4380, 3290.779
692.5950, 2670.205
693.7520, 2385.041
694.9080, 1922.980
696.0650, 1736.893
697.2210, 1507.371
698.3770, 1546.525
699.5330, 1198.330
700.6880, 1109.471
701.8440, 970.2422
702.9990, 959.2363
704.1550, 703.1133
705.3100, 792.3633
706.4650, 544.7090
707.6190, 585.2520
708.7740, 482.6699
709.9290, 499.5293
711.0830, 491.7559
712.2370, 216.5938
713.3910, 88.33984
714.5450, 307.5430
715.6980, 97.04688
716.8520, 93.02930
718.0050, 307.5586
719.1580, 3.279297
720.3110, 316.4238
721.4640, 6.023438
722.6170, 439.8379
723.7700, 138.6738
724.9220, 30.55859
726.0740, 30.40234
727.2260, 34.91406
728.3780, 83.50195
729.5300, 75.30664
730.6810, 124.8711
731.8330, 65.85352
732.9840, 8.636719
734.1350, 185.8008
735.2860, 22.53516
736.4370, 26.71094
737.5880, 71.21289
738.7380, 8.947266
739.8880, 0.6738280
741.0390, 15.61133
742.1890, 62.90820
743.3380, 93.24023
744.4880, 89.38086
745.6380, 32.00586
746.7870, 254.5898
747.9360, 14.17773
749.0850, 53.95312
750.2340, 25.62500
751.3830, 68.19141
752.5310, 41.56836
753.6800, 31.12109
754.8280, 178.6641
755.9760, 72.79883
757.1240, 122.7012
758.2720, 34.19531
759.4190, 155.6816
760.5670, 63.16211
761.7140, 192.6367
762.8610, 60.10547
764.0080, 68.56836
765.1550, 89.02734
766.3020, 51.48438
767.4480, 250.9336
768.5950, 7.617188
769.7410, 210.8203
770.8870, 10.25391
772.0330, 213.7617
773.1780, 215.1855
774.3240, 201.6035
775.4690, 461.0195
776.6140, 318.4316
777.7590, 326.8398
778.9040, 578.5254
780.0490, 944.9258
781.1940, 911.1680
782.3380, 1386.555
783.4820, 1552.938
784.6260, 1937.504
785.7700, 2224.324
786.9140, 2218.693
788.0580, 2117.557
789.2010, 2140.047
790.3450, 2224.398
791.4880, 2188.746
792.6310, 2048.090
793.7730, 2032.840
794.9160, 1895.176
796.0590, 1647.504
797.2010, 1465.826
798.3430, 1203.568
799.4850, 1114.881
800.6270, 510.5703
801.7690, 551.9512
802.9100, 352.2500
804.0520, 259.5410
805.1930, 265.8340
806.3340, 226.5371
807.4750, 385.8203
808.6160, 455.7559
809.7560, 247.0352
810.8970, 121.3828
812.0370, 116.8926
813.1770, 206.3359
814.3170, 94.61328
815.4570, 95.89453
816.5960, 31.24805
817.7360, 155.5371
818.8750, 164.0625
820.0140, 109.3652
821.1530, 273.8281
822.2920, 203.1230
823.4310, 301.4141
824.5690, 120.7656
825.7070, 260.2656
826.8460, 251.5098
827.9840, 308.8438
829.1220, 260.1875
830.2590, 103.9102
831.3970, 208.3848
832.5340, 160.4922
833.6710, 139.8828
834.8080, 218.3457
835.9450, 402.0742
837.0820, 151.5742
838.2190, 310.9707
839.3550, 347.3770
840.4910, 236.7930
841.6270, 71.31250
842.7630, 279.7266
843.8990, 282.4609
845.0350, 154.5176
846.1700, 396.0059
847.3060, 254.5742
848.4410, 344.6582
849.5760, 223.1328
850.7100, 438.5840
851.8450, 403.0996
852.9800, 415.7148
854.1140, 508.2266
855.2480, 286.7363
856.3820, 510.9277
857.5160, 710.6621
858.6500, 546.5156
859.7830, 836.0547
860.9170, 717.5352
862.0500, 829.7852
863.1830, 810.0293
864.3160, 673.0547
865.4480, 776.5156
866.5810, 693.9395
867.7130, 473.3887
868.8460, 567.7676
869.9780, 431.9004
871.1100, 421.3340
872.2410, 504.8457
873.3730, 388.0527
874.5050, 419.4414
875.6360, 288.5625
876.7670, 420.6309
877.8980, 392.8926
879.0290, 188.7656
880.1590, 451.3125
881.2900, 259.7227
882.4200, 288.8516
883.5500, 196.2500
884.6800, 71.37109
885.8100, 94.47656
886.9400, 370.8145
888.0690, 146.1465
889.1990, 167.3613
890.3280, 371.5273
891.4570, 239.8848
892.5860, 168.7051
893.7140, 325.0469
894.8430, 326.2129
895.9710, 331.5430
897.1000, 342.8164
898.2280, 276.1367
899.3560, 257.3945
900.4830, 277.6777
901.6110, 200.9785
902.7380, 283.1836
903.8660, 442.4707
904.9930, 450.3242
906.1200, 250.7109
907.2460, 102.7500
908.3730, 188.0430
909.5000, 207.3262
910.6260, 195.6035
911.7520, 392.8750
912.8780, 405.1406
914.0040, 56.39648
915.1290, 214.6484
916.2550, 16.10938
917.3800, 265.1074
918.5050, 257.3184
919.6300, 81.53906
920.7550, 136.2461
921.8800, 301.8809
923.0040, 56.99805
924.1290, 96.08008
925.2530, 158.1465
926.3770, 219.2070
927.5010, 255.2598
928.6250, 29.33594
929.7480, 167.3691
930.8720, 146.3984
931.9950, 360.4258
933.1180, 27.52148
934.2410, 152.5312
935.3640, 38.53906
936.4860, 111.5332
937.6090, 232.5195
938.7310, 229.5098
939.8530, 168.4941
940.9750, 31.67383
942.0970, 204.8223
943.2180, 8.152344
944.3400, 290.8496
945.4610, 114.8691
946.5820, 76.88086
947.7030, 63.11328
948.8240, 177.8555
949.9450, 145.8164
951.0650, 117.7695
952.1860, 179.5039
953.3060, 81.43945
954.4260, 179.3691
955.5460, 96.28516
956.6650, 159.1934
957.7850, 225.0938
958.9040, 120.9863
960.0230, 84.86914
961.1420, 9.257813
962.2610, 128.5879
963.3800, 152.4258
964.4990, 56.25391
965.6170, 115.1172
966.7350, 15.92578
967.8530, 145.7168
968.9710, 73.21484
970.0890, 29.49414
971.2070, 112.1855
972.3240, 167.8535
973.4410, 172.0254
974.5580, 212.4082
975.6750, 116.6895
976.7920, 141.2383
977.9090, 64.85547
979.0250, 75.80273
980.1410, 254.7402
981.2580, 162.7285
982.3740, 75.31055
983.4890, 226.0391
984.6050, 229.3770
985.7200, 327.8203
986.8360, 127.0352
987.9510, 340.3477
989.0660, 244.6504
990.1810, 121.9414
991.2950, 94.22070
992.4100, 46.50977
993.5240, 17.70703
994.6390, 185.9004
995.7530, 192.0879
996.8660, 189.2637
997.9800, 439.4277
999.0940, 591.5918
1000.207, 475.7422
1001.320, 745.8828
1002.433, 907.0508
1003.546, 976.1719
1004.659, 773.2812
1005.772, 594.3711
1006.884, 761.4629
1007.996, 536.5430
1009.108, 490.6133
1010.220, 540.6777
1011.332, 663.7285
1012.444, 835.7715
1013.555, 945.0273
1014.666, 1261.084
1015.777, 1276.131
1016.888, 1401.172
1017.999, 1665.283
1019.110, 1551.105
1020.220, 1528.051
1021.331, 1119.049
1022.441, 1046.037
1023.551, 871.0410
1024.661, 528.6992
1025.770, 908.1133
1026.880, 387.0742
1027.989, 538.0195
1029.098, 508.9570
1030.207, 541.8828
1031.316, 292.3926
1032.425, 224.2949
1033.533, 274.1875
1034.642, 320.0703
1035.750, 331.9355
1036.858, 254.7930
1037.966, 410.8359
1039.073, 138.6738
1040.181, 621.5000
1041.288, 294.2344
1042.396, 675.0371
1043.503, 589.8281
1044.610, 636.6074
1045.716, 862.3750
1046.823, 1381.133
1047.929, 1520.691
1049.036, 1635.426
1050.142, 2016.299
1051.248, 2081.010
1052.353, 2222.643
1053.459, 1999.148
1054.564, 1614.314
1055.670, 1166.980
1056.775, 883.1328
1057.880, 832.6484
1058.985, 479.2793
1060.089, 464.9023
1061.194, 136.5137
1062.298, 437.6992
1063.402, 229.2871
1064.506, 332.4863
1065.610, 126.4180
1066.713, 162.5508
1067.817, 160.0957
1068.920, 347.2461
1070.023, 342.6953
1071.126, 285.9336
1072.229, 191.4336
1073.332, 94.92578
1074.435, 99.98438
1075.537, 297.5273
1076.639, 211.3242
1077.741, 458.4102
1078.843, 508.7695
1079.945, 160.5000
1081.046, 249.6406
1082.148, 541.0391
1083.249, 298.4219
1084.350, 455.7266
1085.451, 583.0859
1086.551, 470.2227
1087.652, 236.5664
1088.752, 376.7344
1089.853, 303.0586
1090.953, 494.3711
1092.053, 392.6094
1093.152, 457.6836
1094.252, 255.0039
1095.351, 183.2344
1096.451, 228.4922
1097.550, 140.3984
1098.649, 274.5312
1099.748, 228.0391
1100.846, 81.25391
1101.945, 479.3828
1103.043, 419.2305
1104.141, 311.2969
1105.239, 5.539063
1106.337, 187.5938
1107.434, 122.7148
1108.532, 336.7148
1109.629, 278.8398
1110.726, 100.3438
1111.823, 311.1055
1112.920, 209.1523
1114.017, 170.1094
1115.113, 376.5391
1116.210, 297.5586
1117.306, 375.4844
1118.402, 282.4883
1119.498, 149.3867
1120.593, 190.3750
1121.689, 260.3555
1122.784, 177.2070
1123.879, 234.5625
1124.974, 200.3203
1126.069, 226.9453
1127.164, 216.8867
1128.259, 171.8203
1129.353, 308.7500
1130.447, 244.6641
1131.541, 259.5781
1132.635, 305.4805
1133.729, 90.37500
1134.822, 276.2656
1135.916, 308.1484
1137.009, 9.023438
1138.102, 122.8828
1139.195, 292.7266
1140.288, 163.5703
1141.380, 140.4062
1142.473, 166.2383
1143.565, 98.05859
1144.657, 60.12500
1145.749, 136.6367
1146.841, 183.3945
1147.932, 353.1406
1149.024, 70.88672
1150.115, 220.8516
1151.206, 80.35156
1152.297, 242.0742
1153.388, 126.7852
1154.479, 80.49609
1155.569, 12.19922
1156.659, 19.28125
1157.750, 279.5703
1158.839, 87.24609
1159.929, 163.9219
1161.019, 224.5898
1162.108, 13.24609
1163.198, 87.90234
1164.287, 317.5430
1165.376, 368.1836
1166.465, 167.8164
1167.553, 284.4492
1168.642, 95.91016
1169.730, 298.6641
1170.818, 347.1602
1171.906, 395.7344
1172.994, 127.2969
1174.082, 100.8633
1175.170, 179.4219
1176.257, 114.9766
1177.344, 133.5195
1178.431, 48.06250
1179.518, 219.5977
1180.605, 305.1328
1181.691, 127.6680
1182.778, 46.79688
1183.864, 226.6914
1184.950, 1.183594
1186.036, 406.6992
1187.122, 190.2070
1188.207, 250.7344
1189.292, 261.2578
1190.378, 177.7812
1191.463, 130.2969
1192.548, 248.7773
1193.632, 93.29297
1194.717, 12.19922
1195.801, 12.28906
1196.886, 87.69531
1197.970, 184.1758
1199.054, 279.6484
1200.137, 131.1211
1201.221, 31.40625
1202.305, 130.0352
1203.388, 316.4727
1204.471, 216.7070
1205.554, 245.0391
1206.637, 146.2578
1207.719, 79.44141
1208.802, 354.8086
1209.884, 4.050781
1210.966, 52.70703
1212.048, 68.51562
1213.130, 96.73438
1214.212, 334.9570
1215.293, 287.1719
1216.374, 483.0547
1217.456, 315.2695
1218.536, 441.4805
1219.617, 64.69141
1220.698, 271.3008
1221.778, 265.5039
1222.859, 366.7109
1223.939, 127.9141
1225.019, 188.1250
1226.099, 137.3398
1227.178, 136.5469
1228.258, 116.7070
1229.337, 386.9180
1230.417, 112.1289
1231.496, 550.0508
1232.574, 190.2852
1233.653, 269.5352
1234.732, 492.7812
1235.810, 275.2188
1236.888, 475.4688
1237.966, 303.6445
1239.044, 566.5195
1240.122, 435.6016
1241.199, 67.11719
1242.277, 443.3945
1243.354, 303.6719
1244.431, 437.0000
1245.508, 574.3594
1246.585, 7.285156
1247.661, 328.0664
1248.738, 289.4805
1249.814, 296.8320
1250.890, 495.1836
1251.966, 208.5352
1253.042, 571.8945
1254.117, 273.2617
1255.193, 209.6484
1256.268, 130.0391
1257.343, 271.4375
1258.418, 453.8320
1259.493, 205.2266
1260.567, 194.6289
1261.642, 572.0273
1262.716, 415.4258
1263.790, 753.7891
1264.864, 737.1914
1265.938, 247.5977
1267.011, 327.0156
1268.085, 580.4258
1269.158, 475.8359
1270.231, 527.2500
1271.304, 603.6680
