##NAMES=Talc
##RRUFFID=R050087
##IDEAL CHEMISTRY=Mg_3_Si_4_O_10_(OH)_2_
##LOCALITY=St. Lawrence County, New York, USA
##OWNER=RRUFF
##SOURCE=University of Arizona Mineral Museum
##DESCRIPTION=An aggregate of colorless foliated coarse single crystals
##STATUS=The identification of this mineral has been confirmed by X-ray diffraction and chemical analysis
##URL=rruff.info/R050087
##MEASURED CHEMISTRY=(Mg_.998_Fe_.002_)_3_(Si_.997_Al_.003_)_4_O_10_(OH_.966_F_.034_)_2_
##PIN_ID=M00196
##ORIENTATION=Laser parallel to a* (1 0 0). Fiducial mark perpendicular to laser is parallel to -b [0 -1 0]
95.94800, 0.0000000E+00
97.18200, 133.1680
98.41600, 344.0840
99.64900, 872.1133
100.8830, 1676.414
102.1160, 2391.647
103.3490, 3171.040
104.5820, 3504.499
105.8150, 3763.014
107.0470, 4172.330
108.2800, 4677.437
109.5120, 4913.156
110.7440, 4578.754
111.9760, 4306.114
113.2080, 4325.132
114.4400, 3821.306
115.6710, 3174.926
116.9030, 2573.473
118.1340, 2008.688
119.3650, 1518.435
120.5960, 1136.543
121.8270, 599.8633
123.0580, 213.2686
124.2880, 77.67969
125.5190, 80.96484
126.7490, 91.75488
127.9790, 117.7734
129.2090, 135.9668
130.4390, 81.24219
131.6680, 74.83789
132.8980, 33.72070
134.1270, 97.76172
135.3560, 18.50000
136.5850, 230.8135
137.8140, 309.5449
139.0430, 384.6738
140.2710, 429.3350
141.5000, 425.6074
142.7280, 321.1377
143.9560, 304.8672
145.1840, 340.7871
146.4120, 257.8906
147.6390, 262.1709
148.8670, 323.6250
150.0940, 275.7246
151.3210, 241.4189
152.5490, 269.9443
153.7750, 138.7754
155.0020, 129.7109
156.2290, 152.7432
157.4550, 78.87305
158.6810, 116.1006
159.9080, 128.4258
161.1340, 152.8438
162.3590, 158.3574
163.5850, 272.9639
164.8110, 80.66113
166.0360, 244.4473
167.2610, 151.3213
168.4860, 141.5859
169.7110, 185.5449
170.9360, 164.3594
172.1610, 350.4141
173.3850, 265.6777
174.6100, 344.8184
175.8340, 494.7910
177.0580, 463.5293
178.2820, 835.6152
179.5050, 1146.762
180.7290, 1647.777
181.9520, 2499.285
183.1760, 4651.770
184.3990, 8796.027
185.6220, 14278.88
186.8450, 18127.43
188.0670, 16793.46
189.2900, 15834.57
190.5120, 19854.74
191.7340, 23679.99
192.9560, 25316.31
194.1780, 25107.70
195.4000, 24920.17
196.6220, 22558.71
197.8430, 17740.31
199.0640, 12419.99
200.2860, 7391.730
201.5070, 3969.541
202.7270, 2315.414
203.9480, 1481.830
205.1690, 1224.363
206.3890, 712.4590
207.6090, 640.8887
208.8290, 426.2363
210.0490, 456.2910
211.2690, 369.2246
212.4890, 235.2129
213.7080, 372.2559
214.9280, 427.3535
216.1470, 421.5020
217.3660, 503.6992
218.5850, 512.0098
219.8030, 420.2461
221.0220, 564.6328
222.2400, 686.0625
223.4590, 737.5352
224.6770, 546.0527
225.8950, 751.6113
227.1120, 655.2051
228.3300, 834.9512
229.5480, 743.7324
230.7650, 815.5449
231.9820, 478.3906
233.1990, 420.2656
234.4160, 298.1699
235.6330, 266.1113
236.8490, 174.0781
238.0660, 97.07227
239.2820, 162.0938
240.4980, 19.85352
241.7140, 195.2227
242.9300, 188.7812
244.1460, 294.9102
245.3610, 131.9023
246.5770, 159.4434
247.7920, 233.3418
249.0070, 52.50195
250.2220, 52.84180
251.4370, 39.71289
252.6510, 59.78906
253.8660, 15.01758
255.0800, 0.1132810
256.2940, 20.20312
257.5080, 0.4707030
258.7220, 44.87109
259.9360, 72.69922
261.1490, 88.02539
262.3630, 113.4395
263.5760, 2.960938
264.7890, 207.5996
266.0020, 15.04492
267.2150, 25.71875
268.4270, 131.5957
269.6400, 16.22070
270.8520, 13.30469
272.0640, 139.1348
273.2760, 8.066406
274.4880, 36.78125
275.7000, 40.64648
276.9120, 157.6973
278.1230, 98.15234
279.3340, 172.5977
280.5450, 484.0879
281.7560, 838.0020
282.9670, 889.5938
284.1780, 990.2266
285.3880, 1154.904
286.5980, 1037.615
287.8090, 1338.359
289.0190, 1418.131
290.2290, 1291.932
291.4380, 1054.779
292.6480, 1095.670
293.8570, 976.5918
295.0670, 633.5352
296.2760, 359.5059
297.4850, 253.5000
298.6930, 232.5332
299.9020, 217.5840
301.1110, 163.3320
302.3190, 169.7441
303.5270, 115.8730
304.7350, 113.0156
305.9430, 109.1875
307.1510, 122.3789
308.3580, 65.60352
309.5660, 18.17383
310.7730, 27.92969
311.9800, 25.68164
313.1870, 21.42188
314.3940, 26.65234
315.6010, 57.91797
316.8070, 43.66797
318.0130, 31.41992
319.2200, 69.12109
320.4260, 2.994141
321.6310, 32.79492
322.8370, 5.615234
324.0430, 98.57227
325.2480, 124.7676
326.4540, 225.9902
327.6590, 359.2148
328.8640, 267.4492
330.0680, 595.6406
331.2730, 397.8242
332.4780, 495.0020
333.6820, 454.1895
334.8860, 517.3867
336.0900, 487.5938
337.2940, 274.8242
338.4980, 270.4258
339.7010, 349.6621
340.9050, 359.9062
342.1080, 596.1582
343.3110, 458.4434
344.5140, 602.7109
345.7170, 817.9824
346.9200, 820.2598
348.1220, 1059.545
349.3240, 1657.979
350.5270, 1853.232
351.7290, 2305.455
352.9310, 3122.656
354.1320, 3802.828
355.3340, 4426.988
356.5350, 4992.166
357.7370, 5230.990
358.9380, 5416.164
360.1390, 5743.342
361.3400, 5784.523
362.5400, 5703.705
363.7410, 5023.893
364.9410, 4346.080
366.1410, 3610.271
367.3410, 2709.465
368.5410, 2102.660
369.7410, 1719.855
370.9400, 1227.051
372.1400, 978.7715
373.3390, 803.9668
374.5380, 732.1641
375.7370, 606.3594
376.9360, 654.5547
378.1350, 628.7500
379.3330, 646.9395
380.5310, 512.4922
381.7300, 557.6816
382.9280, 550.8711
384.1260, 356.8223
385.3230, 300.8574
386.5210, 377.4570
387.7180, 173.6816
388.9160, 332.9863
390.1130, 199.0684
391.3100, 299.2871
392.5060, 103.5098
393.7030, 143.3418
394.9000, 144.3242
396.0960, 117.2930
397.2920, 203.8984
398.4880, 4.791016
399.6840, 10.73047
400.8800, 119.9570
402.0750, 200.2871
403.2710, 0.6015630
404.4660, 227.7617
405.6610, 95.91602
406.8560, 75.06836
408.0510, 11.74805
409.2450, 24.56641
410.4400, 7.300781
411.6340, 102.8047
412.8280, 22.93359
414.0220, 58.00000
415.2160, 211.7715
416.4100, 149.0039
417.6030, 194.5352
418.7970, 2.085938
419.9900, 219.1562
421.1830, 142.4688
422.3760, 420.0215
423.5690, 712.4023
424.7610, 741.2227
425.9540, 820.5039
427.1460, 1039.881
428.3380, 1001.209
429.5300, 1341.773
430.7220, 1241.836
431.9140, 1168.889
433.1050, 1271.213
434.2970, 1147.348
435.4880, 894.9297
436.6790, 686.7441
437.8700, 664.3320
439.0610, 416.5938
440.2510, 553.7793
441.4420, 510.7480
442.6320, 289.9180
443.8220, 506.8535
445.0120, 404.3730
446.2020, 849.3477
447.3910, 733.9590
448.5810, 767.3477
449.7700, 776.0020
450.9600, 808.8984
452.1490, 819.1777
453.3370, 855.5215
454.5260, 774.3164
455.7150, 779.1641
456.9030, 801.5801
458.0910, 697.4453
459.2800, 1018.686
460.4670, 887.6348
461.6550, 1139.166
462.8430, 1375.703
464.0300, 1167.619
465.2180, 1363.016
466.4050, 1571.756
467.5920, 1462.676
468.7790, 1625.648
469.9650, 1316.594
471.1520, 1268.570
472.3380, 944.2363
473.5250, 804.8164
474.7110, 555.3828
475.8970, 229.0352
477.0820, 158.5762
478.2680, 343.0996
479.4540, 78.60547
480.6390, 52.33008
481.8240, 267.8047
483.0090, 170.2656
484.1940, 104.7090
485.3780, 30.86328
486.5630, 207.5176
487.7470, 394.8809
488.9320, 228.2305
490.1160, 232.5645
491.3000, 71.88867
492.4830, 220.1914
493.6670, 219.5039
494.8500, 281.7988
496.0340, 145.0762
497.2170, 362.3379
498.4000, 96.58203
499.5820, 166.1934
500.7650, 225.9062
501.9480, 350.9902
503.1300, 238.0547
504.3120, 317.0996
505.4940, 231.1270
506.6760, 292.1367
507.8580, 352.1289
509.0390, 155.1016
510.2210, 207.0547
511.4020, 474.9902
512.5830, 418.9082
513.7640, 63.80664
514.9450, 363.6816
516.1250, 173.5352
517.3060, 209.3711
518.4860, 355.1895
519.6660, 198.9883
520.8460, 137.7656
522.0260, 79.52539
523.2060, 215.2637
524.3850, 290.9824
525.5650, 54.68164
526.7440, 256.3535
527.9230, 48.98828
529.1020, 136.6035
530.2810, 27.82227
531.4590, 9.697266
532.6380, 249.1797
533.8160, 169.6406
534.9940, 83.08203
536.1720, 6.486328
537.3500, 184.9004
538.5270, 27.27930
539.7050, 127.6230
540.8820, 86.10547
542.0590, 183.2520
543.2360, 60.54492
544.4130, 1.818359
545.5900, 154.5332
546.7660, 218.7461
547.9430, 243.9395
549.1190, 188.1113
550.2950, 208.0957
551.4710, 196.7324
552.6470, 164.8965
553.8220, 153.9961
554.9980, 143.4023
556.1730, 50.40430
557.3480, 42.56055
558.5230, 13.44141
559.6980, 83.58789
560.8730, 3.357422
562.0470, 119.5059
563.2220, 83.34766
564.3960, 105.1641
565.5700, 42.02344
566.7440, 126.7266
567.9170, 103.4551
569.0910, 2.839844
570.2640, 79.82227
571.4380, 238.4590
572.6110, 261.0762
573.7840, 108.6719
574.9570, 48.75586
576.1290, 24.24805
577.3020, 55.62109
578.4740, 73.04688
579.6460, 113.4473
580.8180, 129.8242
581.9900, 47.82227
583.1620, 128.8418
584.3330, 230.1074
585.5040, 11.34961
586.6760, 33.37695
587.8470, 63.77344
589.0180, 8.837891
590.1880, 58.24219
591.3590, 17.70508
592.5290, 92.29883
593.7000, 47.12695
594.8700, 49.23242
596.0400, 51.16797
597.2090, 127.2051
598.3790, 232.1074
599.5490, 235.9121
600.7180, 204.3105
601.8870, 309.1875
603.0560, 246.9336
604.2250, 304.7285
605.3940, 245.2715
606.5620, 193.1055
607.7300, 132.9258
608.8990, 38.84766
610.0670, 23.88867
611.2350, 110.7207
612.4020, 38.40039
613.5700, 215.1719
614.7370, 418.4082
615.9050, 175.0156
617.0720, 220.1309
618.2390, 438.7129
619.4060, 333.2734
620.5720, 147.1191
621.7390, 218.4805
622.9050, 446.3926
624.0710, 271.1855
625.2370, 519.1094
626.4030, 455.5059
627.5690, 540.9395
628.7340, 498.7070
629.9000, 582.2168
631.0650, 476.1348
632.2300, 406.3086
633.3950, 492.8125
634.5600, 297.6055
635.7240, 434.9199
636.8890, 426.3359
638.0530, 557.6074
639.2170, 547.0488
640.3810, 567.6465
641.5450, 551.8770
642.7080, 471.1016
643.8720, 765.3047
645.0350, 809.4902
646.1980, 809.6504
647.3610, 762.7930
648.5240, 705.9141
649.6870, 964.0117
650.8490, 1060.117
652.0120, 1129.203
653.1740, 1001.270
654.3360, 1475.793
655.4980, 1372.818
656.6600, 1691.832
657.8210, 2010.826
658.9830, 2277.801
660.1440, 2610.754
661.3050, 2963.795
662.4660, 3693.346
663.6270, 4449.242
664.7870, 5650.172
665.9480, 6826.318
667.1080, 8371.207
668.2680, 10281.67
669.4280, 12395.63
670.5880, 14381.65
671.7480, 16269.76
672.9070, 17728.57
674.0670, 18865.35
675.2260, 19487.71
676.3850, 19329.70
677.5440, 18579.43
678.7030, 17099.78
679.8610, 14841.38
681.0200, 12801.70
682.1780, 10723.21
683.3360, 8598.652
684.4940, 6935.166
685.6520, 5925.059
686.8090, 4772.688
687.9670, 4095.299
689.1240, 3258.889
690.2810, 2841.469
691.4380, 2338.031
692.5950, 1990.596
693.7520, 1797.111
694.9080, 1607.566
696.0650, 1358.258
697.2210, 1191.949
698.3770, 947.8242
699.5330, 947.9121
700.6880, 898.0625
701.8440, 757.3555
702.9990, 657.3398
704.1550, 663.6309
705.3100, 563.2969
706.4650, 524.5254
707.6190, 406.9492
708.7740, 386.0352
709.9290, 501.8613
711.0830, 277.1562
712.2370, 198.4375
713.3910, 444.4180
714.5450, 177.7969
715.6980, 71.46484
716.8520, 176.8691
718.0050, 233.4746
719.1580, 262.5762
720.3110, 265.5273
721.4640, 76.84180
722.6170, 224.7812
723.7700, 437.8984
724.9220, 150.4043
726.0740, 330.4219
727.2260, 99.77734
728.3780, 286.3184
729.5300, 204.5703
730.6810, 327.5430
731.8330, 337.1074
732.9840, 198.1699
734.1350, 183.2480
735.2860, 128.6328
736.4370, 184.3203
737.5880, 94.50781
738.7380, 118.8457
739.8880, 264.7676
741.0390, 62.35156
742.1890, 85.47656
743.3380, 79.33203
744.4880, 219.1250
745.6380, 316.8945
746.7870, 54.39453
747.9360, 370.1426
749.0850, 122.5566
750.2340, 296.1348
751.3830, 123.7637
752.5310, 15.44922
753.6800, 152.1152
754.8280, 23.41797
755.9760, 205.6699
757.1240, 294.2773
758.2720, 18.87695
759.4190, 102.4590
760.5670, 55.01367
761.7140, 78.54688
762.8610, 42.62305
764.0080, 9.994141
765.1550, 151.0059
766.3020, 20.13867
767.4480, 124.3145
768.5950, 24.78125
769.7410, 201.1250
770.8870, 99.98242
772.0330, 39.71875
773.1780, 213.0332
774.3240, 131.3281
775.4690, 431.6094
776.6140, 122.3105
777.7590, 348.5566
778.9040, 277.0879
780.0490, 473.3027
781.1940, 424.5879
782.3380, 668.8301
783.4820, 707.0566
784.6260, 565.2695
785.7700, 559.4766
786.9140, 863.7930
788.0580, 655.2402
789.2010, 861.7148
790.3450, 493.8516
791.4880, 674.5488
792.6310, 503.8066
793.7730, 395.5898
794.9160, 459.6680
796.0590, 286.2344
797.2010, 216.7812
798.3430, 144.9160
799.4850, 323.7109
800.6270, 387.7168
801.7690, 298.0547
802.9100, 326.2793
804.0520, 248.2422
805.1930, 385.4590
806.3340, 156.5293
807.4750, 119.4688
808.6160, 148.4062
809.7560, 262.3359
810.8970, 269.1719
812.0370, 285.2148
813.1770, 362.7910
814.3170, 300.3164
815.4570, 293.1797
816.5960, 363.3496
817.7360, 224.1953
818.8750, 18.04688
820.0140, 73.18359
821.1530, 329.2344
822.2920, 126.2188
823.4310, 191.3516
824.5690, 403.2168
825.7070, 187.3809
826.8460, 340.0996
827.9840, 310.8066
829.1220, 188.8770
830.2590, 345.5527
831.3970, 232.2109
832.5340, 179.8555
833.6710, 201.9844
834.8080, 266.7500
835.9450, 240.3848
837.0820, 201.0352
838.2190, 173.6816
839.3550, 193.7188
840.4910, 49.63672
841.6270, 212.9453
842.7630, 176.0742
843.8990, 101.0059
845.0350, 463.5742
846.1700, 321.2988
847.3060, 333.8770
848.4410, 382.4980
849.5760, 256.0508
850.7100, 129.5898
851.8450, 260.1309
852.9800, 402.2598
854.1140, 248.9355
855.2480, 137.4531
856.3820, 439.6797
857.5160, 144.7188
858.6500, 178.8379
859.7830, 229.3203
860.9170, 196.7832
862.0500, 204.1758
863.1830, 397.6328
864.3160, 352.8164
865.4480, 353.2578
866.5810, 265.6855
867.7130, 187.1133
868.8460, 264.5254
869.9780, 258.9297
871.1100, 115.3203
872.2410, 228.5801
873.3730, 124.9453
874.5050, 85.05469
875.6360, 180.2500
876.7670, 413.5938
877.8980, 190.0625
879.0290, 175.0938
880.1590, 298.0898
881.2900, 200.3906
882.4200, 320.6797
883.5500, 106.5234
884.6800, 184.8008
885.8100, 130.9414
886.9400, 272.1914
888.0690, 259.3125
889.1990, 205.9336
890.3280, 42.85547
891.4570, 73.80078
892.5860, 290.9453
893.7140, 125.0703
894.8430, 323.8672
895.9710, 218.7461
897.1000, 330.4141
898.2280, 51.16797
899.3560, 10.75000
900.4830, 63.78516
901.6110, 1.972656
902.7380, 188.3984
903.8660, 72.23828
904.9930, 63.62500
906.1200, 64.57812
907.2460, 4.671875
908.3730, 94.25000
909.5000, 271.5781
910.6260, 263.2734
911.7520, 68.92578
912.8780, 264.6367
914.0040, 119.3633
915.1290, 28.92578
916.2550, 170.7461
917.3800, 217.3984
918.5050, 223.0391
919.6300, 255.6680
920.7550, 175.2812
921.8800, 144.8828
923.0040, 81.51953
924.1290, 100.0117
925.2530, 238.5234
926.3770, 40.01953
927.5010, 141.5039
928.6250, 8.031250
929.7480, 257.4023
930.8720, 295.8242
931.9950, 203.2500
933.1180, 152.6562
934.2410, 13.94141
935.3640, 344.3164
936.4860, 193.3242
937.6090, 115.9062
938.7310, 256.1250
939.8530, 32.67188
940.9750, 147.4844
942.0970, 393.5312
943.2180, 354.4062
944.3400, 206.3906
945.4610, 181.5039
946.5820, 132.6133
947.7030, 34.92578
948.8240, 27.82422
949.9450, 44.11719
951.0650, 97.91016
952.1860, 227.9258
953.3060, 166.9219
954.4260, 45.08203
955.5460, 156.6953
956.6650, 123.6484
957.7850, 83.32812
958.9040, 144.2500
960.0230, 68.15625
961.1420, 173.0430
962.2610, 295.9180
963.3800, 18.21484
964.4990, 207.6211
965.6170, 362.4375
966.7350, 254.8906
967.8530, 50.99219
968.9710, 139.1641
970.0890, 3.921875
971.2070, 206.6523
972.3240, 211.4922
973.4410, 158.1406
974.5580, 78.57812
975.6750, 183.0977
976.7920, 36.76172
977.9090, 83.49609
979.0250, 332.3320
980.1410, 127.9766
981.2580, 281.1445
982.3740, 160.0508
983.4890, 192.6484
984.6050, 172.2305
985.7200, 393.5625
986.8360, 368.4336
987.9510, 136.9805
989.0660, 237.5039
990.1810, 18.80859
991.2950, 38.58203
992.4100, 392.6016
993.5240, 9.023438
994.6390, 263.4570
995.7530, 197.9258
996.8660, 213.3789
997.9800, 217.8164
999.0940, 337.2461
1000.207, 455.6562
1001.320, 537.0508
1002.433, 570.3438
1003.546, 577.8047
1004.659, 511.1562
1005.772, 534.9258
1006.884, 535.5312
1007.996, 596.4570
1009.108, 605.3203
1010.220, 651.5742
1011.332, 749.9648
1012.444, 1046.230
1013.555, 1026.453
1014.666, 1296.742
1015.777, 1124.973
1016.888, 1561.180
1017.999, 1388.258
1019.110, 1217.441
1020.220, 1269.387
1021.331, 1122.543
1022.441, 888.6836
1023.551, 636.8164
1024.661, 844.0117
1025.770, 618.6562
1026.880, 543.7422
1027.989, 436.5742
1029.098, 286.6406
1030.207, 459.6953
1031.316, 346.7422
1032.425, 513.2109
1033.533, 424.3477
1034.642, 561.8516
1035.750, 404.4688
1036.858, 587.4531
1037.966, 379.9609
1039.073, 781.2070
1040.181, 897.6680
1041.288, 777.3008
1042.396, 817.2539
1043.503, 1443.191
1044.610, 1648.184
1045.716, 1981.656
1046.823, 2575.559
1047.929, 3179.203
1049.036, 3312.133
1050.142, 3459.969
1051.248, 3646.816
1052.353, 3612.656
1053.459, 2835.562
1054.564, 2478.363
1055.670, 1990.309
1056.775, 1470.812
1057.880, 1207.266
1058.985, 1231.023
1060.089, 814.1992
1061.194, 850.7969
1062.298, 650.8320
1063.402, 585.5469
1064.506, 631.2422
1065.610, 543.9336
1066.713, 402.5117
1067.817, 523.4062
1068.920, 482.0586
1070.023, 344.3555
1071.126, 480.7344
1072.229, 265.3555
1073.332, 431.6953
1074.435, 401.0938
1075.537, 326.6875
1076.639, 333.2617
1077.741, 506.8320
1078.843, 195.3906
1079.945, 114.8984
1081.046, 205.8516
1082.148, 363.1133
1083.249, 459.8398
1084.350, 688.2227
1085.451, 288.7188
1086.551, 360.1797
1087.652, 96.32031
1088.752, 262.7266
1089.853, 357.9844
1090.953, 440.0664
1092.053, 340.3984
1093.152, 194.3945
1094.252, 232.1758
1095.351, 260.5859
1096.451, 142.7852
1097.550, 193.9922
1098.649, 9.367188
1099.748, 39.73047
1100.846, 24.58594
1101.945, 177.7969
1103.043, 341.1250
1104.141, 90.44141
1105.239, 414.7500
1106.337, 41.98828
1107.434, 318.8867
1108.532, 318.1523
1109.629, 12.34766
1110.726, 16.52734
1111.823, 440.7383
1112.920, 99.21484
1114.017, 50.91016
1115.113, 299.9766
1116.210, 190.0859
1117.306, 320.1836
1118.402, 42.27734
1119.498, 116.3594
1120.593, 161.2812
1121.689, 439.3438
1122.784, 294.6758
1123.879, 301.1680
1124.974, 321.2070
1126.069, 209.2305
1127.164, 241.3281
1128.259, 177.7305
1129.353, 213.7383
1130.447, 232.7305
1131.541, 263.7148
1132.635, 237.1133
1133.729, 130.6641
1134.822, 206.6211
1135.916, 168.5781
1137.009, 231.5312
1138.102, 421.4805
1139.195, 86.53906
1140.288, 157.3398
1141.380, 145.2148
1142.473, 58.92188
1143.565, 419.8945
1144.657, 307.6953
1145.749, 99.49609
1146.841, 197.2852
1147.932, 351.0664
1149.024, 59.84375
1150.115, 360.6094
1151.206, 423.3750
1152.297, 213.1211
1153.388, 251.8711
1154.479, 238.6133
1155.569, 359.3398
1156.659, 345.0820
1157.750, 476.8242
1158.839, 144.5508
1159.929, 496.2734
1161.019, 174.9922
1162.108, 126.7031
1163.198, 179.4062
1164.287, 101.1094
1165.376, 191.8047
1166.465, 204.5000
1167.553, 520.1953
1168.642, 285.8789
1169.730, 58.43750
1170.818, 274.1953
1171.906, 81.83203
1172.994, 210.4688
1174.082, 145.1250
1175.170, 76.77734
1176.257, 256.4219
1177.344, 100.0859
1178.431, 147.7461
1179.518, 175.3984
1180.605, 442.0586
1181.691, 604.7148
1182.778, 402.3633
1183.864, 66.01172
1184.950, 273.6484
1186.036, 37.71484
1187.122, 187.8828
1188.207, 225.5039
1189.292, 305.1289
1190.378, 446.7422
1191.463, 241.3555
1192.548, 429.9688
1193.632, 141.5781
1194.717, 50.81250
1195.801, 342.7539
1196.886, 268.3242
1197.970, 76.88672
1199.054, 419.4453
1200.137, 247.0000
1201.221, 263.6094
1202.305, 76.21875
1203.388, 81.82031
1204.471, 51.56250
1205.554, 125.0156
1206.637, 276.5898
1207.719, 409.1602
1208.802, 224.7266
1209.884, 36.30859
1210.966, 298.8125
1212.048, 28.62891
1213.130, 42.08984
1214.212, 18.42969
1215.293, 160.9492
1216.374, 188.4688
1217.456, 15.98047
1218.536, 190.3672
1219.617, 403.8789
1220.698, 147.3828
1221.778, 102.8867
1222.859, 284.3945
1223.939, 31.10156
1225.019, 361.3789
1226.099, 82.85938
1227.178, 254.3438
1228.258, 364.8281
1229.337, 269.6641
1230.417, 227.8047
1231.496, 260.8867
1232.574, 120.3633
1233.653, 120.8477
1234.732, 55.21094
1235.810, 119.6914
1236.888, 400.4180
1237.966, 55.89844
1239.044, 122.6250
1240.122, 142.6836
1241.199, 134.5625
1242.277, 61.98438
1243.354, 33.86719
1244.431, 34.39844
1245.508, 63.73047
1246.585, 57.84375
1247.661, 119.2656
1248.738, 152.3750
1249.814, 35.79297
1250.890, 278.2148
1251.966, 239.6406
1253.042, 457.0664
1254.117, 325.5000
1255.193, 246.9258
1256.268, 189.6367
1257.343, 218.7070
1258.418, 324.0469
1259.493, 103.3867
1260.567, 323.7344
1261.642, 214.0781
1262.716, 154.4297
1263.790, 254.7773
1264.864, 238.1289
1265.938, 364.2031
1267.011, 67.96875
1268.085, 12.29688
1269.158, 241.7734
1270.231, 523.1328
1271.304, 328.4961
1272.377, 333.7422
