##NAMES=Talc
##RRUFFID=R050087
##IDEAL CHEMISTRY=Mg_3_Si_4_O_10_(OH)_2_
##LOCALITY=St. Lawrence County, New York, USA
##OWNER=RRUFF
##SOURCE=University of Arizona Mineral Museum
##DESCRIPTION=An aggregate of colorless foliated coarse single crystals
##STATUS=The identification of this mineral has been confirmed by X-ray diffraction and chemical analysis
##URL=rruff.info/R050087
##MEASURED CHEMISTRY=(Mg_.998_Fe_.002_)_3_(Si_.997_Al_.003_)_4_O_10_(OH_.966_F_.034_)_2_
##PIN_ID=M00418
##ORIENTATION=Laser parallel to (1 0 1). Fiducial mark perpendicular to laser is parallel to b [0 1 0]
93.48000, 0.0000000E+00
94.71400, 193.0093
95.94800, 372.5327
97.18200, 917.6738
98.41600, 934.3813
99.64900, 1125.249
100.8830, 1520.001
102.1160, 2006.554
103.3490, 2344.000
104.5820, 2493.970
105.8150, 2797.676
107.0470, 3451.936
108.2800, 4053.717
109.5120, 4163.359
110.7440, 3651.413
111.9760, 3415.111
113.2080, 3508.916
114.4400, 3256.277
115.6710, 2892.535
116.9030, 2376.402
118.1340, 1623.680
119.3650, 1480.588
120.5960, 960.1240
121.8270, 536.0762
123.0580, 250.8594
124.2880, 122.2061
125.5190, 153.5410
126.7490, 39.07910
127.9790, 28.31348
129.2090, 2.866211
130.4390, 17.54492
131.6680, 10.74023
132.8980, 35.85254
134.1270, 48.55176
135.3560, 49.40332
136.5850, 99.09180
137.8140, 81.29004
139.0430, 14.15625
140.2710, 52.80176
141.5000, 5.708008
142.7280, 14.63965
143.9560, 1.899414
145.1840, 45.93652
146.4120, 11.10742
147.6390, 34.27246
148.8670, 2.353516
150.0940, 33.19629
151.3210, 5.915039
152.5490, 13.73145
153.7750, 86.63867
155.0020, 103.6387
156.2290, 20.27246
157.4550, 95.90332
158.6810, 41.83594
159.9080, 107.5098
161.1340, 89.93848
162.3590, 117.4492
163.5850, 183.0391
164.8110, 210.7061
166.0360, 258.3779
167.2610, 189.1094
168.4860, 232.8193
169.7110, 244.1934
170.9360, 399.8428
172.1610, 409.6836
173.3850, 508.3809
174.6100, 480.1572
175.8340, 676.0264
177.0580, 738.0332
178.2820, 1041.193
179.5050, 1487.073
180.7290, 2460.469
181.9520, 3695.895
183.1760, 7416.098
184.3990, 14198.06
185.6220, 22968.29
186.8450, 28394.54
188.0670, 25876.82
189.2900, 25226.05
190.5120, 32063.30
191.7340, 38220.58
192.9560, 41339.89
194.1780, 43537.25
195.4000, 44703.66
196.6220, 42111.13
197.8430, 33675.64
199.0640, 22207.21
200.2860, 12584.79
201.5070, 6330.436
202.7270, 3591.938
203.9480, 2301.636
205.1690, 1495.990
206.3890, 1138.959
207.6090, 808.4990
208.8290, 687.3223
210.0490, 551.1914
211.2690, 475.1016
212.4890, 453.0527
213.7080, 300.0449
214.9280, 326.0752
216.1470, 294.1455
217.3660, 213.2529
218.5850, 270.3984
219.8030, 324.5791
221.0220, 266.7979
222.2400, 384.0791
223.4590, 233.3945
224.6770, 227.7617
225.8950, 331.1729
227.1120, 349.6338
228.3300, 338.1289
229.5480, 381.6533
230.7650, 332.4570
231.9820, 395.7891
233.1990, 266.3984
234.4160, 122.0361
235.6330, 125.7021
236.8490, 174.4004
238.0660, 24.84961
239.2820, 81.92480
240.4980, 46.79590
241.7140, 106.0781
242.9300, 29.12988
244.1460, 26.32324
245.3610, 42.44043
246.5770, 57.16016
247.7920, 39.96973
249.0070, 26.57324
250.2220, 61.15430
251.4370, 96.76758
252.6510, 77.42090
253.8660, 159.1152
255.0800, 129.2529
256.2940, 40.78320
257.5080, 98.52832
258.7220, 102.4023
259.9360, 88.68652
261.1490, 87.36230
262.3630, 128.3154
263.5760, 1.177734
264.7890, 39.70215
266.0020, 42.72852
267.2150, 40.88477
268.4270, 55.90820
269.6400, 46.78711
270.8520, 70.82715
272.0640, 48.76953
273.2760, 150.7881
274.4880, 27.34863
275.7000, 161.2549
276.9120, 184.3818
278.1230, 372.8311
279.3340, 456.3418
280.5450, 799.4160
281.7560, 1049.455
282.9670, 1130.280
284.1780, 1128.961
285.3880, 1178.548
286.5980, 1354.590
287.8090, 1473.832
289.0190, 1479.492
290.2290, 1440.245
291.4380, 1350.199
292.6480, 1195.542
293.8570, 953.9082
295.0670, 819.1582
296.2760, 425.5742
297.4850, 279.0098
298.6930, 162.4658
299.9020, 201.9395
301.1110, 177.4404
302.3190, 100.1865
303.5270, 158.7217
304.7350, 55.62305
305.9430, 156.1914
307.1510, 55.77539
308.3580, 67.37598
309.5660, 44.00879
310.7730, 71.60840
311.9800, 44.22754
313.1870, 78.86035
314.3940, 11.49219
315.6010, 78.13770
316.8070, 20.24512
318.0130, 27.36621
319.2200, 18.99121
320.4260, 11.37012
321.6310, 38.19629
322.8370, 103.9355
324.0430, 91.60938
325.2480, 140.2852
326.4540, 153.9512
327.6590, 204.6006
328.8640, 169.2637
330.0680, 276.9229
331.2730, 253.5938
332.4780, 225.2764
333.6820, 293.9717
334.8860, 321.6797
336.0900, 440.4014
337.2940, 389.1338
338.4980, 463.8779
339.7010, 477.6348
340.9050, 516.4023
342.1080, 604.1816
343.3110, 716.9717
344.5140, 843.9824
345.7170, 957.5850
346.9200, 1161.407
348.1220, 1443.056
349.3240, 1616.882
350.5270, 2237.709
351.7290, 2671.536
352.9310, 3439.233
354.1320, 4129.070
355.3340, 4652.918
356.5350, 4974.325
357.7370, 5372.189
358.9380, 5627.059
360.1390, 5892.940
361.3400, 5845.832
362.5400, 5708.729
363.7410, 5191.637
364.9410, 4433.562
366.1410, 3869.483
367.3410, 3049.412
368.5410, 2558.349
369.7410, 1855.291
370.9400, 1527.241
372.1400, 1034.197
373.3390, 1010.177
374.5380, 782.1445
375.7370, 640.4512
376.9360, 602.6904
378.1350, 573.0205
379.3330, 604.3457
380.5310, 558.2490
381.7300, 423.2500
382.9280, 394.7988
384.1260, 346.8096
385.3230, 203.8438
386.5210, 206.8955
387.7180, 56.95801
388.9160, 256.4775
390.1130, 213.2129
391.3100, 273.1240
392.5060, 113.9834
393.7030, 20.57324
394.9000, 181.5127
396.0960, 54.60547
397.2920, 158.7002
398.4880, 5.198242
399.6840, 5.894531
400.8800, 67.98340
402.0750, 35.07617
403.2710, 145.8281
404.4660, 2.197266
405.6610, 5.894531
406.8560, 299.1113
408.0510, 23.60645
409.2450, 121.1895
410.4400, 57.12598
411.6340, 14.63184
412.8280, 69.89258
414.0220, 29.20215
415.2160, 0.5566410
416.4100, 116.8857
417.6030, 106.9189
418.7970, 93.63184
419.9900, 164.5879
421.1830, 202.2314
422.3760, 305.5215
423.5690, 357.5869
424.7610, 562.8555
425.9540, 672.9346
427.1460, 722.0342
428.3380, 686.1523
429.5300, 787.3838
430.7220, 788.5176
431.9140, 684.6523
433.1050, 662.0576
434.2970, 690.2520
435.4880, 490.6846
436.6790, 402.4199
437.8700, 372.6270
439.0610, 316.7822
440.2510, 285.3574
441.4420, 261.4170
442.6320, 267.4346
443.8220, 224.3896
445.0120, 265.5459
446.2020, 249.7129
447.3910, 310.8730
448.5810, 289.1699
449.7700, 307.3271
450.9600, 275.3740
452.1490, 323.5400
453.3370, 344.8516
454.5260, 356.0166
455.7150, 340.1816
456.9030, 433.3457
458.0910, 493.0068
459.2800, 607.1689
460.4670, 708.4961
461.6550, 859.7969
462.8430, 912.8555
464.0300, 1001.758
465.2180, 1035.919
466.4050, 1204.080
467.5920, 1341.240
468.7790, 1173.399
469.9650, 1053.557
471.1520, 1064.720
472.3380, 712.8828
473.5250, 531.0547
474.7110, 273.2256
475.8970, 287.3945
477.0820, 267.5625
478.2680, 157.7305
479.4540, 72.89746
480.6390, 135.0645
481.8240, 91.22949
483.0090, 86.39258
484.1940, 135.5557
485.3780, 79.71680
486.5630, 83.87695
487.7470, 137.0371
488.9320, 111.9844
490.1160, 23.65137
491.3000, 162.4922
492.4830, 111.6348
493.6670, 199.7754
494.8500, 7.085938
496.0340, 104.0352
497.2170, 174.1553
498.4000, 18.72656
499.5820, 177.3662
500.7650, 10.45898
501.9480, 127.5400
503.1300, 122.6201
504.3120, 241.6992
505.4940, 92.77539
506.6760, 74.85059
507.8580, 91.92383
509.0390, 155.9951
510.2210, 149.0645
511.4020, 118.1328
512.5830, 247.1992
513.7640, 136.2627
514.9450, 74.32520
516.1250, 154.3848
517.3060, 44.44238
518.4860, 50.49512
519.6660, 43.80469
520.8460, 15.41211
522.0260, 13.60840
523.2060, 113.6182
524.3850, 103.6289
525.5650, 107.6445
526.7440, 80.65625
527.9230, 176.6670
529.1020, 214.6748
530.2810, 73.68848
531.4590, 7.705078
532.6380, 124.7207
533.8160, 90.25195
534.9940, 71.71582
536.1720, 155.5205
537.3500, 130.5020
538.5270, 160.4814
539.7050, 82.45703
540.8820, 100.9707
542.0590, 80.24707
543.2360, 93.21777
544.4130, 82.05371
545.5900, 66.45020
546.7660, 2.447266
547.9430, 118.9912
549.1190, 22.95508
550.2950, 61.41602
551.4710, 173.5049
552.6470, 21.43945
553.8220, 102.8223
554.9980, 90.23438
556.1730, 23.61719
557.3480, 32.11426
558.5230, 191.9756
559.6980, 105.8457
560.8730, 32.27539
562.0470, 20.42285
563.2220, 50.58984
564.3960, 153.2090
565.5700, 40.00586
566.7440, 116.8008
567.9170, 156.5928
569.0910, 169.3838
570.2640, 50.17285
571.4380, 115.9600
572.6110, 191.7451
573.7840, 3.530273
574.9570, 11.30469
576.1290, 32.07324
577.3020, 10.83887
578.4740, 21.40332
579.6460, 100.3350
580.8180, 145.0713
581.9900, 39.80664
583.1620, 147.5381
584.3330, 17.73145
585.5040, 128.9805
586.6760, 63.69141
587.8470, 117.4023
589.0180, 74.11133
590.1880, 191.8184
591.3590, 122.5244
592.5290, 86.22852
593.7000, 183.9316
594.8700, 144.6465
596.0400, 222.3604
597.2090, 75.07422
598.3790, 18.21484
599.5490, 92.48730
600.7180, 103.1855
601.8870, 127.8936
603.0560, 219.8760
604.2250, 176.5801
605.3940, 219.2910
606.5620, 89.99902
607.7300, 280.7090
608.8990, 173.4150
610.0670, 268.1221
611.2350, 158.0244
612.4020, 204.7295
613.5700, 297.4961
614.7370, 114.2021
615.9050, 246.9072
617.0720, 157.6133
618.2390, 272.3164
619.4060, 341.0186
620.5720, 223.7266
621.7390, 221.4326
622.9050, 308.1387
624.0710, 356.8438
625.2370, 370.3574
626.4030, 318.2520
627.5690, 441.9541
628.7340, 410.6562
629.9000, 510.3584
631.0650, 384.5049
632.2300, 530.2148
633.3950, 309.9258
634.5600, 393.6377
635.7240, 449.4824
636.8890, 500.1943
638.0530, 435.9053
639.2170, 563.0664
640.3810, 506.7764
641.5450, 501.4932
642.7080, 596.2041
643.8720, 642.9160
645.0350, 768.6289
646.1980, 679.3555
647.3610, 803.0703
648.5240, 928.7969
649.6870, 894.5234
650.8490, 1068.250
652.0120, 1112.977
653.1740, 1334.705
654.3360, 1602.433
655.4980, 1763.143
656.6600, 1813.871
657.8210, 2050.267
658.9830, 2281.736
660.1440, 2660.122
661.3050, 3232.519
662.4660, 3790.343
663.6270, 4735.318
664.7870, 5972.051
665.9480, 7044.783
667.1080, 9087.518
668.2680, 10839.25
669.4280, 12718.37
670.5880, 14886.07
671.7480, 16645.75
672.9070, 18077.49
674.0670, 19283.46
675.2260, 20048.89
676.3850, 19846.64
677.5440, 19269.39
678.7030, 17675.15
679.8610, 15624.92
681.0200, 13380.69
682.1780, 10978.47
683.3360, 8776.251
684.4940, 7087.034
685.6520, 5804.370
686.8090, 4871.320
687.9670, 4133.172
689.1240, 3290.560
690.2810, 2840.846
691.4380, 2362.705
692.5950, 1892.081
693.7520, 1660.945
694.9080, 1326.528
696.0650, 1293.079
697.2210, 1047.670
698.3770, 1059.767
699.5330, 890.6895
700.6880, 800.8232
701.8440, 758.6572
702.9990, 658.9746
704.1550, 617.9482
705.3100, 548.4043
706.4650, 530.3447
707.6190, 465.2881
708.7740, 430.2334
709.9290, 359.0732
711.0830, 360.7656
712.2370, 349.9805
713.3910, 371.2021
714.5450, 295.5820
715.6980, 305.2646
716.8520, 286.3789
718.0050, 145.5664
719.1580, 241.5410
720.3110, 189.5195
721.4640, 124.3174
722.6170, 222.3018
723.7700, 38.49219
724.9220, 62.51465
726.0740, 105.5361
727.2260, 146.5684
728.3780, 56.60254
729.5300, 39.64160
730.6810, 47.68555
731.8330, 252.7314
732.9840, 320.7832
734.1350, 190.8379
735.2860, 89.89648
736.4370, 192.9600
737.5880, 208.2998
738.7380, 89.37012
739.8880, 25.44629
741.0390, 10.47461
742.1890, 81.60742
743.3380, 163.6924
744.4880, 146.7812
745.6380, 269.8760
746.7870, 145.9736
747.9360, 53.07812
749.0850, 29.81543
750.2340, 69.28516
751.3830, 44.61035
752.5310, 199.3037
753.6800, 158.3975
754.8280, 162.1885
755.9760, 100.6016
757.1240, 119.7109
758.2720, 136.9531
759.4190, 81.07031
760.5670, 19.19336
761.7140, 115.3193
762.8610, 28.45020
764.0080, 136.6113
765.1550, 42.75293
766.3020, 31.89746
767.4480, 119.0479
768.5950, 63.61816
769.7410, 71.52539
770.8870, 88.67285
772.0330, 57.44141
773.1780, 79.59863
774.3240, 116.7686
775.4690, 162.9443
776.6140, 146.1240
777.7590, 153.3193
778.9040, 189.5312
780.0490, 242.8809
781.1940, 236.0957
782.3380, 236.3164
783.4820, 228.6836
784.6260, 264.0029
785.7700, 262.2363
786.9140, 205.4756
788.0580, 292.7188
789.2010, 140.9678
790.3450, 139.2207
791.4880, 250.4785
792.6310, 259.7412
793.7730, 170.0098
794.9160, 198.2822
796.0590, 101.5605
797.2010, 57.84570
798.3430, 125.1377
799.4850, 185.4443
800.6270, 8.239258
801.7690, 122.0791
802.9100, 99.40332
804.0520, 79.73047
805.1930, 124.0635
806.3340, 29.59766
807.4750, 124.7334
808.6160, 156.0703
809.7560, 37.41602
810.8970, 191.7676
812.0370, 52.84766
813.1770, 59.52051
814.3170, 195.8916
815.4570, 138.2695
816.5960, 89.10645
817.7360, 21.49316
818.8750, 175.8857
820.0140, 30.28418
821.1530, 115.6875
822.2920, 46.27246
823.4310, 229.1182
824.5690, 40.51758
825.7070, 49.92285
826.8460, 118.3340
827.9840, 104.7695
829.1220, 118.2109
830.2590, 118.8594
831.3970, 143.1113
832.5340, 72.06641
833.6710, 28.03711
834.8080, 38.45605
835.9450, 91.61230
837.0820, 16.12891
838.2190, 168.6416
839.3550, 136.1670
840.4910, 143.7148
841.6270, 142.2666
842.7630, 79.82324
843.8990, 21.38477
845.0350, 51.95117
846.1700, 114.5215
847.3060, 146.0967
848.4410, 128.6768
849.5760, 330.2617
850.7100, 181.8535
851.8450, 216.4619
852.9800, 127.0762
854.1140, 256.6973
855.2480, 119.3320
856.3820, 285.9717
857.5160, 167.6152
858.6500, 317.2656
859.7830, 90.92090
860.9170, 210.7656
862.0500, 322.4355
863.1830, 278.1123
864.3160, 236.7920
865.4480, 246.1367
866.5810, 171.1641
867.7130, 159.8574
868.8460, 158.5693
869.9780, 82.28613
871.1100, 189.0078
872.2410, 123.7402
873.3730, 100.4785
874.5050, 93.22852
875.6360, 66.61328
876.7670, 81.74023
877.8980, 130.2266
879.0290, 46.99414
880.1590, 239.7656
881.2900, 178.5430
882.4200, 273.3242
883.5500, 151.1094
884.6800, 179.9004
885.8100, 42.49805
886.9400, 82.29688
888.0690, 8.962891
889.1990, 87.83789
890.3280, 228.6426
891.4570, 192.4648
892.5860, 81.28906
893.7140, 13.87891
894.8430, 134.9453
895.9710, 290.7734
897.1000, 88.60938
898.2280, 247.4473
899.3560, 6.289063
900.4830, 156.1367
901.6110, 162.9902
902.7380, 101.8477
903.8660, 31.29297
904.9930, 81.28516
906.1200, 119.1367
907.2460, 6.007813
908.3730, 200.8477
909.5000, 214.7090
910.6260, 84.57227
911.7520, 26.44336
912.8780, 159.3184
914.0040, 2.197266
915.1290, 155.0781
916.2550, 140.9648
917.3800, 153.8555
918.5050, 50.24805
919.6300, 177.6250
920.7550, 23.50195
921.8800, 95.38281
923.0040, 80.27148
924.1290, 140.1621
925.2530, 279.0586
926.3770, 212.9609
927.5010, 182.8691
928.6250, 228.9160
929.7480, 67.70312
930.8720, 208.6270
931.9950, 189.5566
933.1180, 111.4902
934.2410, 184.4297
935.3640, 116.3320
936.4860, 125.0742
937.6090, 74.03125
938.7310, 101.9922
939.8530, 126.9551
940.9750, 102.9258
942.0970, 148.5195
943.2180, 69.49805
944.3400, 59.48242
945.4610, 82.47266
946.5820, 60.46680
947.7030, 212.7188
948.8240, 123.7227
949.9450, 117.7324
951.0650, 38.25586
952.1860, 211.7402
953.3060, 102.7422
954.4260, 218.7500
955.5460, 20.75781
956.6650, 41.22656
957.7850, 88.26562
958.9040, 77.27539
960.0230, 110.2891
961.1420, 194.3086
962.2610, 84.33984
963.3800, 103.3770
964.4990, 117.4160
965.6170, 6.462891
966.7350, 22.47070
967.8530, 56.60156
968.9710, 68.61914
970.0890, 76.53711
971.2070, 3.464844
972.3240, 119.4727
973.4410, 66.48242
974.5580, 34.50000
975.6750, 8.521484
976.7920, 8.296875
977.9090, 240.5781
979.0250, 46.61328
980.1410, 126.6543
981.2580, 177.6992
982.3740, 72.75195
983.4890, 199.8066
984.6050, 243.8672
985.7200, 224.7891
986.8360, 152.8613
987.9510, 111.9531
989.0660, 133.8301
990.1810, 132.1562
991.2950, 153.2617
992.4100, 154.3730
993.5240, 82.49219
994.6390, 120.3848
995.7530, 250.6777
996.8660, 51.74805
997.9800, 201.8223
999.0940, 274.9023
1000.207, 103.9883
1001.320, 364.0762
1002.433, 290.6816
1003.546, 343.7812
1004.659, 398.8848
1005.772, 479.6934
1006.884, 375.8242
1007.996, 397.9570
1009.108, 482.1172
1010.220, 380.2793
1011.332, 734.4531
1012.444, 551.6328
1013.555, 843.8184
1014.666, 915.0059
1015.777, 871.1992
1016.888, 1078.396
1017.999, 1063.598
1019.110, 984.8047
1020.220, 981.0215
1021.331, 868.2441
1022.441, 738.6582
1023.551, 653.9004
1024.661, 467.5977
1025.770, 604.8477
1026.880, 370.1035
1027.989, 422.2344
1029.098, 342.5000
1030.207, 498.7676
1031.316, 367.0410
1032.425, 344.3184
1033.533, 403.5762
1034.642, 383.8652
1035.750, 513.1621
1036.858, 666.4590
1037.966, 640.5840
1039.073, 887.9043
1040.181, 985.2324
1041.288, 1239.949
1042.396, 1425.285
1043.503, 2101.627
1044.610, 2624.977
1045.716, 3469.328
1046.823, 4369.688
1047.929, 5389.902
1049.036, 5539.270
1050.142, 6218.643
1051.248, 6376.020
1052.353, 6041.172
1053.459, 5349.559
1054.564, 4174.953
1055.670, 3406.352
1056.775, 2766.756
1057.880, 1863.164
1058.985, 1651.580
1060.089, 1137.680
1061.194, 966.1035
1062.298, 819.5371
1063.402, 659.9746
1064.506, 555.4160
1065.610, 503.8633
1066.713, 537.3164
1067.817, 469.7734
1068.920, 446.2383
1070.023, 404.6055
1071.126, 318.6191
1072.229, 296.0996
1073.332, 267.9551
1074.435, 314.0781
1075.537, 261.5820
1076.639, 279.6934
1077.741, 316.6074
1078.843, 284.1270
1079.945, 281.6543
1081.046, 342.1973
1082.148, 317.1641
1083.249, 333.2988
1084.350, 293.4043
1085.451, 264.9688
1086.551, 254.6797
1087.652, 228.1133
1088.752, 197.6973
1089.853, 180.6484
1090.953, 123.6426
1092.053, 95.25000
1093.152, 148.8652
1094.252, 191.0312
1095.351, 237.6602
1096.451, 260.2949
1097.550, 293.9336
1098.649, 81.22266
1099.748, 20.41016
1100.846, 29.59961
1101.945, 271.2715
1103.043, 173.3770
1104.141, 162.0449
1105.239, 103.7422
1106.337, 122.4434
1107.434, 125.0332
1108.532, 128.8672
1109.629, 198.5859
1110.726, 109.3125
1111.823, 195.0449
1112.920, 201.7852
1114.017, 4.529297
1115.113, 274.2793
1116.210, 144.0371
1117.306, 35.19922
1118.402, 136.5527
1119.498, 337.5684
1120.593, 372.3320
1121.689, 95.10352
1122.784, 285.8789
1123.879, 319.6621
1124.974, 206.4512
1126.069, 430.2480
1127.164, 72.88086
1128.259, 106.6973
1129.353, 388.5215
1130.447, 262.3711
1131.541, 84.22852
1132.635, 254.0898
1133.729, 65.04102
1134.822, 187.8027
1135.916, 146.6562
1137.009, 31.50195
1138.102, 25.34570
1139.195, 83.20117
1140.288, 83.45703
1141.380, 143.3242
1142.473, 224.2461
1143.565, 130.1270
1144.657, 113.0117
1145.749, 213.9043
1146.841, 223.8027
1147.932, 153.7070
1149.024, 119.6172
1150.115, 223.5332
1151.206, 135.4570
1152.297, 85.38477
1153.388, 263.3203
1154.479, 199.2637
1155.569, 42.78711
1156.659, 61.14648
1157.750, 208.0898
1158.839, 19.03906
1159.929, 101.9980
1161.019, 192.9668
1162.108, 21.93945
1163.198, 167.9238
1164.287, 86.91406
1165.376, 137.9121
1166.465, 204.9160
1167.553, 318.9277
1168.642, 158.9434
1169.730, 78.97656
1170.818, 342.0176
1171.906, 59.06055
1172.994, 150.1133
1174.082, 7.175781
1175.170, 181.2402
1176.257, 54.31445
1177.344, 188.3906
1178.431, 73.47656
1179.518, 167.5703
1180.605, 115.6699
1181.691, 79.77734
1182.778, 49.88867
1183.864, 33.02148
1184.950, 83.15625
1186.036, 172.3008
1187.122, 180.4531
1188.207, 160.6094
1189.292, 46.77344
1190.378, 11.05469
1191.463, 125.1133
1192.548, 188.2910
1193.632, 153.4707
1194.717, 49.66016
1195.801, 19.85352
1196.886, 144.0547
1197.970, 26.26367
1199.054, 79.63867
1200.137, 6.298828
1201.221, 83.91992
1202.305, 60.14844
1203.388, 42.38477
1204.471, 54.70508
1205.554, 49.60352
1206.637, 14.12891
1207.719, 61.39062
1208.802, 40.65625
1209.884, 27.92773
1210.966, 52.20898
1212.048, 33.49414
1213.130, 34.33789
1214.212, 74.20508
1215.293, 45.40234
1216.374, 143.7227
1217.456, 206.0527
1218.536, 219.3887
1219.617, 126.7305
1220.698, 24.91211
1221.778, 49.44141
1222.859, 173.8008
1223.939, 27.83398
1225.019, 197.5234
1226.099, 135.8848
1227.178, 175.2559
1228.258, 64.36719
1229.337, 215.5684
1230.417, 16.93164
1231.496, 86.31641
1232.574, 266.7090
1233.653, 129.1250
1234.732, 125.5488
1235.810, 104.9785
1236.888, 54.41602
1237.966, 269.8574
1239.044, 354.3262
1240.122, 162.7988
1241.199, 201.2812
1242.277, 97.76562
1243.354, 48.58008
1244.431, 72.76172
1245.508, 31.26562
1246.585, 154.7773
1247.661, 275.4375
1248.738, 75.03906
1249.814, 230.4551
1250.890, 277.9531
1251.966, 110.4609
1253.042, 361.9727
1254.117, 43.48828
1255.193, 165.0137
1256.268, 210.7891
1257.343, 238.3555
1258.418, 264.4805
1259.493, 174.9414
1260.567, 245.5254
1261.642, 251.1191
1262.716, 224.7168
1263.790, 352.8105
1264.864, 77.42188
1265.938, 68.96289
1267.011, 203.9434
1268.085, 100.5410
1269.158, 76.85938
1270.231, 172.7109
1271.304, 18.71289
