##NAMES=Talc
##RRUFFID=R050087
##IDEAL CHEMISTRY=Mg_3_Si_4_O_10_(OH)_2_
##LOCALITY=St. Lawrence County, New York, USA
##OWNER=RRUFF
##SOURCE=University of Arizona Mineral Museum
##DESCRIPTION=An aggregate of colorless foliated coarse single crystals
##STATUS=The identification of this mineral has been confirmed by X-ray diffraction and chemical analysis
##URL=rruff.info/R050087
##MEASURED CHEMISTRY=(Mg_.998_Fe_.002_)_3_(Si_.997_Al_.003_)_4_O_10_(OH_.966_F_.034_)_2_
##PIN_ID=M00271
##ORIENTATION=Laser parallel to (0 -1 -1). Fiducial mark perpendicular to laser is parallel to a [1 0 0]
92.24600, 0.0000000E+00
93.48000, 8.640625
94.71400, 367.5996
95.94800, 1005.894
97.18200, 1482.282
98.41600, 1994.378
99.64900, 2642.217
100.8830, 3737.762
102.1160, 5410.318
103.3490, 7114.991
104.5820, 7839.418
105.8150, 7532.234
107.0470, 6716.393
108.2800, 6676.690
109.5120, 7224.018
110.7440, 7040.887
111.9760, 6085.566
113.2080, 5417.583
114.4400, 5322.309
115.6710, 4261.676
116.9030, 4152.709
118.1340, 2728.566
119.3650, 1871.279
120.5960, 1236.908
121.8270, 809.3994
123.0580, 491.2969
124.2880, 266.4844
125.5190, 145.1562
126.7490, 90.12500
127.9790, 11.89453
129.2090, 45.74023
130.4390, 127.3555
131.6680, 149.7139
132.8980, 46.43262
134.1270, 172.4863
135.3560, 79.70312
136.5850, 79.31641
137.8140, 217.2520
139.0430, 31.49316
140.2710, 255.9199
141.5000, 222.5234
142.7280, 187.2969
143.9560, 125.2305
145.1840, 178.3164
146.4120, 47.57227
147.6390, 39.18359
148.8670, 118.9082
150.0940, 52.22070
151.3210, 5.773438
152.5490, 54.85156
153.7750, 134.0098
155.0020, 1.246094
156.2290, 43.43945
157.4550, 69.95117
158.6810, 54.39453
159.9080, 22.95312
161.1340, 165.4414
162.3590, 50.76562
163.5850, 131.0215
164.8110, 126.2129
166.0360, 118.5137
167.2610, 102.5039
168.4860, 96.96484
169.7110, 175.6504
170.9360, 55.92969
172.1610, 256.8203
173.3850, 2.244141
174.6100, 110.9023
175.8340, 216.1035
177.0580, 248.9863
178.2820, 265.0605
179.5050, 488.5547
180.7290, 783.8105
181.9520, 1113.148
183.1760, 2163.977
184.3990, 4041.494
185.6220, 6342.070
186.8450, 8258.660
188.0670, 8617.293
189.2900, 10112.98
190.5120, 15518.72
191.7340, 20870.50
192.9560, 25588.33
194.1780, 24292.21
195.4000, 18490.10
196.6220, 14361.02
197.8430, 11544.96
199.0640, 8517.916
200.2860, 5359.857
201.5070, 2788.031
202.7270, 1605.484
203.9480, 1119.090
205.1690, 713.6875
206.3890, 528.0156
207.6090, 271.8418
208.8290, 207.5000
210.0490, 211.1973
211.2690, 232.9355
212.4890, 205.7109
213.7080, 218.5273
214.9280, 110.3770
216.1470, 220.2617
217.3660, 200.1816
218.5850, 295.1348
219.8030, 234.1230
221.0220, 316.1426
222.2400, 431.1914
223.4590, 489.2676
224.6770, 401.3984
225.8950, 826.5625
227.1120, 1045.756
228.3300, 1035.971
229.5480, 982.2090
230.7650, 574.4707
231.9820, 494.7539
233.1990, 361.0586
234.4160, 398.3848
235.6330, 170.7305
236.8490, 263.0938
238.0660, 68.47852
239.2820, 39.27148
240.4980, 54.55664
241.7140, 2.472656
242.9300, 28.80273
244.1460, 81.36523
245.3610, 78.09180
246.5770, 148.7188
247.7920, 1.759766
249.0070, 34.03320
250.2220, 43.28711
251.4370, 46.71094
252.6510, 40.27539
253.8660, 156.3281
255.0800, 60.02148
256.2940, 88.33594
257.5080, 146.3887
258.7220, 4.886719
259.9360, 113.9746
261.1490, 311.9102
262.3630, 129.5664
263.5760, 106.1797
264.7890, 51.42383
266.0020, 11.88477
267.2150, 95.22852
268.4270, 153.8965
269.6400, 115.6641
270.8520, 221.3262
272.0640, 63.16602
273.2760, 34.69727
274.4880, 150.0176
275.7000, 155.4824
276.9120, 162.6309
278.1230, 301.7539
279.3340, 329.8848
280.5450, 655.0430
281.7560, 1005.229
282.9670, 1310.443
284.1780, 1498.682
285.3880, 1718.941
286.5980, 2743.221
287.8090, 3526.516
289.0190, 4021.842
290.2290, 3505.188
291.4380, 2429.545
292.6480, 1529.918
293.8570, 1302.305
295.0670, 1090.703
296.2760, 652.0996
297.4850, 466.0703
298.6930, 241.5039
299.9020, 326.9473
301.1110, 149.7949
302.3190, 363.6973
303.5270, 247.1680
304.7350, 167.6055
305.9430, 20.08984
307.1510, 131.0195
308.3580, 182.6699
309.5660, 75.61914
310.7730, 70.32617
311.9800, 31.78320
313.1870, 66.75781
314.3940, 81.90430
315.6010, 132.3027
316.8070, 142.1211
318.0130, 138.4980
319.2200, 22.89062
320.4260, 261.2246
321.6310, 20.45508
322.8370, 368.8594
324.0430, 487.1777
325.2480, 295.4746
326.4540, 516.7812
327.6590, 879.0879
328.8640, 1102.365
330.0680, 1187.645
331.2730, 1279.926
332.4780, 1180.207
333.6820, 1209.492
334.8860, 917.7773
336.0900, 955.0645
337.2940, 710.3516
338.4980, 766.6387
339.7010, 862.9941
340.9050, 684.2832
342.1080, 739.5703
343.3110, 919.8750
344.5140, 1019.160
345.7170, 1276.525
346.9200, 1386.764
348.1220, 1694.998
349.3240, 1859.230
350.5270, 2476.467
351.7290, 2965.762
352.9310, 4080.980
354.1320, 4841.035
355.3340, 5992.957
356.5350, 6845.176
357.7370, 8162.389
358.9380, 9431.746
360.1390, 10416.96
361.3400, 10865.17
362.5400, 10370.38
363.7410, 8813.588
364.9410, 7509.789
366.1410, 5723.992
367.3410, 4756.191
368.5410, 3560.387
369.7410, 2588.578
370.9400, 2002.768
372.1400, 1500.953
373.3390, 1482.135
374.5380, 1251.312
375.7370, 1186.482
376.9360, 1045.648
378.1350, 981.1406
379.3330, 976.9707
380.5310, 898.1230
381.7300, 883.2695
382.9280, 825.4102
384.1260, 682.2402
385.3230, 657.4004
386.5210, 347.3906
387.7180, 377.0176
388.9160, 330.1758
390.1130, 207.9453
391.3100, 346.5996
392.5060, 164.5684
393.7030, 97.12305
394.9000, 206.2715
396.0960, 288.4199
397.2920, 44.60742
398.4880, 345.1641
399.6840, 31.44531
400.8800, 132.3535
402.0750, 112.5059
403.2710, 54.72461
404.4660, 25.07031
405.6610, 149.8848
406.8560, 130.0996
408.0510, 38.24414
409.2450, 164.7363
410.4400, 50.26562
411.6340, 227.8730
412.8280, 84.43555
414.0220, 151.8848
415.2160, 30.72266
416.4100, 14.76562
417.6030, 23.78516
418.7970, 30.50977
419.9900, 195.6270
421.1830, 263.9570
422.3760, 483.8730
423.5690, 684.5996
424.7610, 976.4160
425.9540, 1318.207
427.1460, 1617.561
428.3380, 1614.521
429.5300, 2561.285
430.7220, 2969.713
431.9140, 3097.270
433.1050, 3282.648
434.2970, 2590.295
435.4880, 2058.730
436.6790, 1462.262
437.8700, 1018.996
439.0610, 735.9043
440.2510, 580.5273
441.4420, 426.1602
442.6320, 440.4844
443.8220, 431.1621
445.0120, 513.4395
446.2020, 627.7305
447.3910, 789.0020
448.5810, 1009.273
449.7700, 1009.031
450.9600, 1137.307
452.1490, 1088.752
453.3370, 1090.277
454.5260, 1017.414
455.7150, 795.8867
456.9030, 964.4199
458.0910, 949.7090
459.2800, 1066.979
460.4670, 1207.264
461.6550, 1177.529
462.8430, 1327.225
464.0300, 1626.467
465.2180, 1934.174
466.4050, 2123.391
467.5920, 2106.789
468.7790, 2075.701
469.9650, 1762.869
471.1520, 1415.135
472.3380, 1020.289
473.5250, 960.4336
474.7110, 560.5645
475.8970, 407.6738
477.0820, 250.7832
478.2680, 229.8770
479.4540, 153.5469
480.6390, 197.0020
481.8240, 125.0371
483.0090, 166.0547
484.1940, 169.0488
485.3780, 141.1094
486.5630, 160.9863
487.7470, 126.9277
488.9320, 177.8477
490.1160, 201.7500
491.3000, 195.8809
492.4830, 193.4922
493.6670, 140.3359
494.8500, 183.1602
496.0340, 16.96289
497.2170, 21.72656
498.4000, 280.4570
499.5820, 222.1680
500.7650, 128.8574
501.9480, 536.5254
503.1300, 503.1738
504.3120, 346.8008
505.4940, 482.4062
506.6760, 755.9941
507.8580, 432.5605
509.0390, 634.1055
510.2210, 463.6289
511.4020, 576.1328
512.5830, 493.6152
513.7640, 382.0762
514.9450, 642.5156
516.1250, 456.9355
517.3060, 683.3340
518.4860, 537.7109
519.6660, 387.0684
520.8460, 565.4062
522.0260, 526.7207
523.2060, 330.0137
524.3850, 272.2852
525.5650, 85.53711
526.7440, 201.7734
527.9230, 191.9902
529.1020, 213.1875
530.2810, 231.2871
531.4590, 116.5449
532.6380, 181.7109
533.8160, 195.8555
534.9940, 104.9844
536.1720, 173.1016
537.3500, 166.8047
538.5270, 141.1602
539.7050, 105.6816
540.8820, 75.40430
542.0590, 151.5391
543.2360, 157.3711
544.4130, 5.181641
545.5900, 44.72266
546.7660, 9.828125
547.9430, 167.8691
549.1190, 86.59570
550.2950, 45.67969
551.4710, 86.69922
552.6470, 43.55664
553.8220, 91.06055
554.9980, 9.283203
556.1730, 25.39062
557.3480, 33.55859
558.5230, 34.62500
559.6980, 57.21094
560.8730, 31.24023
562.0470, 0.8593750
563.2220, 94.91992
564.3960, 130.9590
565.5700, 106.3086
566.7440, 8.025391
567.9170, 46.92773
569.0910, 81.85742
570.2640, 104.7617
571.4380, 256.6465
572.6110, 22.49023
573.7840, 37.32812
574.9570, 118.1211
576.1290, 164.8906
577.3020, 145.7617
578.4740, 97.33398
579.6460, 79.31055
580.8180, 105.9980
581.9900, 120.7246
583.1620, 289.7734
584.3330, 107.3984
585.5040, 190.4004
586.6760, 296.3359
587.8470, 196.0645
589.0180, 257.0371
590.1880, 232.8887
591.3590, 255.7227
592.5290, 149.4453
593.7000, 86.34180
594.8700, 49.88672
596.0400, 53.39258
597.2090, 130.9355
598.3790, 252.7148
599.5490, 319.1348
600.7180, 354.6836
601.8870, 391.9688
603.0560, 354.4922
604.2250, 329.6562
605.3940, 258.7754
606.5620, 224.6914
607.7300, 148.9668
608.8990, 61.33594
610.0670, 241.6035
611.2350, 168.8125
612.4020, 370.3691
613.5700, 337.7266
614.7370, 511.2402
615.9050, 334.3711
617.0720, 477.7773
618.2390, 821.9941
619.4060, 816.0664
620.5720, 748.1895
621.7390, 833.5059
622.9050, 1260.592
624.0710, 1017.732
625.2370, 1257.121
626.4030, 1223.059
627.5690, 1364.344
628.7340, 1219.172
629.9000, 1122.324
631.0650, 854.2031
632.2300, 988.0625
633.3950, 729.0957
634.5600, 635.8535
635.7240, 907.6562
636.8890, 692.5977
638.0530, 873.6562
639.2170, 1058.402
640.3810, 1084.129
641.5450, 1087.695
642.7080, 1136.385
643.8720, 1253.057
645.0350, 1251.711
646.1980, 1549.350
647.3610, 1356.967
648.5240, 1786.568
649.6870, 1526.152
650.8490, 1802.719
652.0120, 1849.266
653.1740, 2007.799
654.3360, 2040.314
655.4980, 2124.814
656.6600, 2480.299
657.8210, 2382.779
658.9830, 2674.242
660.1440, 3090.689
661.3050, 3556.117
662.4660, 4709.531
663.6270, 5205.926
664.7870, 6828.305
665.9480, 8081.004
667.1080, 10080.35
668.2680, 12448.68
669.4280, 15225.99
670.5880, 18415.28
671.7480, 21894.19
672.9070, 24683.44
674.0670, 27634.71
675.2260, 28973.54
676.3850, 29314.69
677.5440, 27789.83
678.7030, 24582.81
679.8610, 21656.54
681.0200, 17992.39
682.1780, 14464.40
683.3360, 11980.42
684.4940, 9622.398
685.6520, 7585.305
686.8090, 6397.420
687.9670, 5217.443
689.1240, 4104.117
690.2810, 3789.277
691.4380, 2907.895
692.5950, 2656.215
693.7520, 2074.551
694.9080, 1855.975
696.0650, 1467.449
697.2210, 1408.520
698.3770, 1203.551
699.5330, 1046.291
700.6880, 846.6816
701.8440, 728.0859
702.9990, 742.8965
704.1550, 499.8848
705.3100, 362.7617
706.4650, 226.6367
707.6190, 363.9824
708.7740, 326.6973
709.9290, 234.6094
711.0830, 214.8477
712.2370, 163.9277
713.3910, 231.1621
714.5450, 298.1016
715.6980, 71.72461
716.8520, 243.3105
718.0050, 53.11719
719.1580, 241.7676
720.3110, 105.3867
721.4640, 19.43555
722.6170, 270.5410
723.7700, 21.28516
724.9220, 32.36523
726.0740, 77.43359
727.2260, 14.36133
728.3780, 38.96680
729.5300, 40.57227
730.6810, 61.59375
731.8330, 15.42578
732.9840, 99.92578
734.1350, 104.0684
735.2860, 88.25195
736.4370, 26.96680
737.5880, 107.9199
738.7380, 59.13477
739.8880, 282.7734
741.0390, 69.67188
742.1890, 34.43945
743.3380, 137.4277
744.4880, 51.71680
745.6380, 161.1055
746.7870, 21.27930
747.9360, 102.7910
749.0850, 187.5781
750.2340, 95.76172
751.3830, 45.03906
752.5310, 24.65234
753.6800, 293.3340
754.8280, 78.99414
755.9760, 80.63281
757.1240, 120.2480
758.2720, 93.85938
759.4190, 42.46094
760.5670, 76.05078
761.7140, 74.63086
762.8610, 10.20312
764.0080, 232.7617
765.1550, 25.31641
766.3020, 341.8574
767.4480, 47.39062
768.5950, 114.9180
769.7410, 145.4336
770.8870, 61.94141
772.0330, 534.4414
773.1780, 217.9336
774.3240, 132.4199
775.4690, 479.9082
776.6140, 328.3926
777.7590, 445.8730
778.9040, 796.3457
780.0490, 782.8105
781.1940, 1011.271
782.3380, 1265.906
783.4820, 1441.525
784.6260, 1570.225
785.7700, 1684.857
786.9140, 1720.820
788.0580, 1749.402
789.2010, 1746.834
790.3450, 1640.412
791.4880, 1656.512
792.6310, 1434.227
793.7730, 1551.059
794.9160, 1382.957
796.0590, 1209.758
797.2010, 1064.182
798.3430, 825.5684
799.4850, 590.0586
800.6270, 436.4043
801.7690, 473.7441
802.9100, 479.2012
804.0520, 336.5312
805.1930, 152.8535
806.3340, 503.1719
807.4750, 435.5195
808.6160, 413.8242
809.7560, 166.4062
810.8970, 137.7402
812.0370, 93.02734
813.1770, 193.5449
814.3170, 277.8223
815.4570, 376.4180
816.5960, 353.7383
817.7360, 549.0547
818.8750, 352.4395
820.0140, 434.7754
821.1530, 489.1914
822.2920, 142.7832
823.4310, 150.1191
824.5690, 470.4609
825.7070, 252.0879
826.8460, 233.4199
827.9840, 416.9551
829.1220, 248.3086
830.2590, 381.0469
831.3970, 294.4395
832.5340, 367.2168
833.6710, 228.6816
834.8080, 292.4160
835.9450, 405.3926
837.0820, 367.6758
838.2190, 493.1250
839.3550, 429.7949
840.4910, 333.4199
841.6270, 302.6113
842.7630, 547.0488
843.8990, 514.7500
845.0350, 568.3613
846.1700, 658.5215
847.3060, 503.0488
848.4410, 707.4668
849.5760, 487.8926
850.7100, 509.4199
851.8450, 364.5254
852.9800, 762.2559
854.1140, 861.6426
855.2480, 991.6035
856.3820, 848.9766
857.5160, 861.6270
858.6500, 892.5742
859.7830, 838.5879
860.9170, 993.8516
862.0500, 815.8242
863.1830, 982.9766
864.3160, 958.8535
865.4480, 962.8242
866.5810, 637.7930
867.7130, 811.8359
868.8460, 615.6836
869.9780, 783.8750
871.1100, 367.0762
872.2410, 508.2031
873.3730, 564.0664
874.5050, 627.2617
875.6360, 244.3711
876.7670, 494.6211
877.8980, 627.6719
879.0290, 343.2305
880.1590, 637.4453
881.2900, 480.0312
882.4200, 365.2344
883.5500, 344.3125
884.6800, 342.4531
885.8100, 263.6250
886.9400, 417.4219
888.0690, 414.3906
889.1990, 445.1680
890.3280, 554.3047
891.4570, 330.1367
892.5860, 381.1250
893.7140, 415.2305
894.8430, 490.2617
895.9710, 460.3828
897.1000, 327.9961
898.2280, 375.9219
899.3560, 381.5625
900.4830, 282.6094
901.6110, 362.3164
902.7380, 401.3594
903.8660, 455.1406
904.9930, 329.1719
906.1200, 542.1914
907.2460, 439.0078
908.3730, 526.0547
909.5000, 271.0938
910.6260, 353.1289
911.7520, 284.1445
912.8780, 220.1602
914.0040, 480.1602
915.1290, 236.1523
916.2550, 380.1328
917.3800, 118.1055
918.5050, 121.0664
919.6300, 358.0156
920.7550, 165.9570
921.8800, 210.8867
923.0040, 123.8047
924.1290, 158.7070
925.2530, 122.6602
926.3770, 23.59375
927.5010, 86.51562
928.6250, 58.42188
929.7480, 17.67578
930.8720, 62.58594
931.9950, 152.0625
933.1180, 158.9258
934.2410, 133.7812
935.3640, 185.6172
936.4860, 219.5078
937.6090, 137.2695
938.7310, 292.0781
939.8530, 263.8750
940.9750, 194.6641
942.0970, 159.4375
943.2180, 271.2070
944.3400, 58.03906
945.4610, 159.6562
946.5820, 261.3438
947.7030, 112.9609
948.8240, 437.6797
949.9450, 24.61719
951.0650, 402.0469
952.1860, 389.6992
953.3060, 160.3438
954.4260, 327.9766
955.5460, 151.5898
956.6650, 110.1953
957.7850, 412.7930
958.9040, 181.3750
960.0230, 150.0547
961.1420, 284.4023
962.2610, 122.8555
963.3800, 418.2891
964.4990, 84.71094
965.6170, 177.1211
966.7350, 70.48438
967.8530, 158.8477
968.9710, 12.16406
970.0890, 88.54297
971.2070, 28.67188
972.3240, 262.8633
973.4410, 34.95703
974.5580, 129.1719
975.6750, 34.28906
976.7920, 224.3906
977.9090, 177.1953
979.0250, 20.02734
980.1410, 57.03906
981.2580, 15.17188
982.3740, 227.6523
983.4890, 294.4688
984.6050, 148.2734
985.7200, 151.9414
986.8360, 104.7344
987.9510, 289.4102
989.0660, 5.074219
990.1810, 514.7031
991.2950, 89.32812
992.4100, 327.9570
993.5240, 235.5781
994.6390, 208.1914
995.7530, 197.7852
996.8660, 478.3633
997.9800, 316.9336
999.0940, 541.4961
1000.207, 719.0469
1001.320, 1205.582
1002.433, 1166.113
1003.546, 1231.625
1004.659, 784.1250
1005.772, 391.6133
1006.884, 523.0898
1007.996, 420.5547
1009.108, 414.0078
1010.220, 642.6406
1011.332, 659.0820
1012.444, 1069.508
1013.555, 1285.957
1014.666, 1219.363
1015.777, 1321.352
1016.888, 1334.746
1017.999, 1361.246
1019.110, 1546.609
1020.220, 1304.969
1021.331, 1307.336
1022.441, 982.7422
1023.551, 1176.094
1024.661, 967.4375
1025.770, 783.7852
1026.880, 697.1211
1027.989, 419.4414
1029.098, 407.7500
1030.207, 488.0469
1031.316, 611.3359
1032.425, 455.6094
1033.533, 441.8672
1034.642, 314.5859
1035.750, 360.1211
1036.858, 399.3477
1037.966, 361.5586
1039.073, 576.7617
1040.181, 463.9492
1041.288, 611.0039
1042.396, 705.1641
1043.503, 871.3164
1044.610, 980.4492
1045.716, 1081.578
1046.823, 1210.684
1047.929, 1494.777
1049.036, 1909.859
1050.142, 2243.930
1051.248, 2685.801
1052.353, 2157.672
1053.459, 2231.699
1054.564, 1647.719
1055.670, 1576.723
1056.775, 866.5508
1057.880, 1075.535
1058.985, 644.3281
1060.089, 453.5742
1061.194, 609.1836
1062.298, 488.0039
1063.402, 447.3945
1064.506, 581.7188
1065.610, 468.5508
1066.713, 468.3906
1067.817, 293.1133
1068.920, 404.9570
1070.023, 447.7891
1071.126, 337.6836
1072.229, 429.2891
1073.332, 231.0820
1074.435, 192.8555
1075.537, 204.5859
1076.639, 406.3438
1077.741, 287.7969
1078.843, 608.4844
1079.945, 546.1914
1081.046, 544.8750
1082.148, 709.5664
1083.249, 751.9727
1084.350, 382.6367
1085.451, 464.2852
1086.551, 459.8789
1087.652, 492.5117
1088.752, 411.0391
1089.853, 273.3867
1090.953, 441.9727
1092.053, 261.5508
1093.152, 430.8281
1094.252, 253.3789
1095.351, 230.7109
1096.451, 445.2461
1097.550, 386.3945
1098.649, 169.8984
1099.748, 143.0195
1100.846, 479.4453
1101.945, 248.5977
1103.043, 450.5117
1104.141, 135.1250
1105.239, 385.5742
1106.337, 197.8047
1107.434, 446.0586
1108.532, 6.734375
1109.629, 1.136719
1110.726, 45.26172
1111.823, 347.4570
1112.920, 306.0898
1114.017, 293.3398
1115.113, 235.6836
1116.210, 381.0117
1117.306, 332.2227
1118.402, 511.8438
1119.498, 517.8633
1120.593, 317.1641
1121.689, 314.6133
1122.784, 361.9062
1123.879, 402.8398
1124.974, 601.1211
1126.069, 409.3945
1127.164, 509.6602
1128.259, 380.9180
1129.353, 175.1719
1130.447, 423.4219
1131.541, 148.6680
1132.635, 520.9062
1133.729, 269.1406
1134.822, 214.3633
1135.916, 357.5820
1137.009, 318.8008
1138.102, 127.0117
1139.195, 75.22656
1140.288, 214.4375
1141.380, 160.3555
1142.473, 61.75000
1143.565, 201.8477
1144.657, 50.94531
1145.749, 134.0391
1146.841, 8.125000
1147.932, 99.19922
1149.024, 27.27344
1150.115, 134.3359
1151.206, 106.3945
1152.297, 71.44922
1153.388, 38.50391
1154.479, 103.5508
1155.569, 198.5977
1156.659, 164.6367
1157.750, 192.7617
1158.839, 187.5352
1159.929, 150.7930
1161.019, 152.8477
1162.108, 120.9023
1163.198, 120.9570
1164.287, 76.00391
1165.376, 43.94922
1166.465, 9.582031
1167.553, 397.0703
1168.642, 65.09375
1169.730, 350.1250
1170.818, 419.1445
1171.906, 179.8320
1172.994, 176.0820
1174.082, 324.9961
1175.170, 276.9062
1176.257, 243.8125
1177.344, 316.7188
1178.431, 328.6250
1179.518, 175.5273
1180.605, 256.4258
1181.691, 75.32812
1182.778, 218.2305
1183.864, 215.1250
1184.950, 433.0234
1186.036, 155.9180
1187.122, 157.8125
1188.207, 187.2930
1189.292, 243.4922
1190.378, 380.2812
1191.463, 108.0742
1192.548, 17.13281
1193.632, 29.64844
1194.717, 75.56250
1195.801, 253.1953
1196.886, 63.94141
1197.970, 140.6953
1199.054, 240.4453
1200.137, 11.19922
1201.221, 291.9531
1202.305, 420.7070
1203.388, 209.4609
1204.471, 42.21484
1205.554, 234.9727
1206.637, 42.72656
1207.719, 23.48438
1208.802, 91.26562
1209.884, 15.94922
1210.966, 183.1758
1212.048, 141.5078
1213.130, 273.1875
1214.212, 141.8906
1215.293, 510.5938
1216.374, 277.2969
1217.456, 74.00000
1218.536, 270.7070
1219.617, 176.4180
1220.698, 245.1328
1221.778, 146.8477
1222.859, 29.57031
1223.939, 92.33984
1225.019, 193.1094
1226.099, 219.8867
1227.178, 144.6680
1228.258, 98.44922
1229.337, 241.2383
1230.417, 69.06250
1231.496, 105.8867
1232.574, 174.7188
1233.653, 171.5898
1234.732, 111.6914
1235.810, 406.0508
1236.888, 162.9531
1237.966, 243.8633
1239.044, 491.7734
1240.122, 19.35938
1241.199, 435.0742
1242.277, 310.0664
1243.354, 471.0859
1244.431, 557.1289
1245.508, 323.1758
1246.585, 270.2266
1247.661, 403.2852
1248.738, 221.3945
1249.814, 397.5078
1250.890, 440.6328
1251.966, 346.7695
1253.042, 591.9180
1254.117, 294.0664
1255.193, 383.2266
1256.268, 289.3906
1257.343, 308.5820
1258.418, 399.7773
1259.493, 587.9766
1260.567, 379.2070
1261.642, 722.4414
1262.716, 371.6836
1263.790, 556.9297
1264.864, 441.1836
1265.938, 631.4453
1267.011, 764.7109
1268.085, 607.9531
1269.158, 912.2344
1270.231, 683.5234
