##NAMES=Thomsonite-Ca
##RRUFFID=R050103
##IDEAL CHEMISTRY=NaCa_2_(Al_5_Si_5_)O_20_&#183;6H_2_O
##LOCALITY=Seeberg, Bohemia, Czech Republic
##OWNER=RRUFF
##SOURCE=Rock Currier
##DESCRIPTION=Colorless prismatic crystals
##STATUS=The identification of this mineral has been confirmed by X-ray diffraction and chemical analysis
##URL=rruff.info/R050103
##MEASURED CHEMISTRY=Na_1.00_(Ca_0.92_Sr_0.08_)_2_(Al_5.00_Si_5.00_)O_20_Â·6H_2_O
##PIN_ID=L00246
##ORIENTATION=Laser parallel to c* (0 0 1). Fiducial mark perpendicular to laser is parallel to -a [-1 0 0]
93.48000, 0.0000000E+00
94.71400, 191.6270
95.94800, 873.0742
97.18200, 1802.875
98.41600, 2791.344
99.64900, 3837.699
100.8830, 5291.363
102.1160, 6540.354
103.3490, 8236.977
104.5820, 10347.86
105.8150, 12674.33
107.0470, 13493.60
108.2800, 13684.40
109.5120, 13789.36
110.7440, 13569.35
111.9760, 13500.25
113.2080, 13700.89
114.4400, 13026.07
115.6710, 12111.09
116.9030, 10197.00
118.1340, 8731.586
119.3650, 7414.406
120.5960, 6236.111
121.8270, 5106.391
123.0580, 3809.791
124.2880, 2823.764
125.5190, 1969.795
126.7490, 1351.463
127.9790, 767.4277
129.2090, 272.4141
130.4390, 60.46289
131.6680, 403.8945
132.8980, 506.9512
134.1270, 319.4980
135.3560, 451.7031
136.5850, 260.2402
137.8140, 40.16211
139.0430, 239.7852
140.2710, 623.4902
141.5000, 873.6348
142.7280, 1179.688
143.9560, 1427.746
145.1840, 1524.352
146.4120, 1611.904
147.6390, 1543.625
148.8670, 1503.850
150.0940, 1257.701
151.3210, 983.1797
152.5490, 776.8926
153.7750, 791.5938
155.0020, 502.0996
156.2290, 359.4082
157.4550, 780.6133
158.6810, 1087.793
159.9080, 1507.031
161.1340, 2064.396
162.3590, 2681.965
163.5850, 3502.820
164.8110, 4368.084
166.0360, 5414.289
167.2610, 6900.439
168.4860, 8245.350
169.7110, 9607.633
170.9360, 11530.96
172.1610, 13026.70
173.3850, 14384.88
174.6100, 15408.34
175.8340, 15876.37
177.0580, 16335.53
178.2820, 16164.04
179.5050, 15623.32
180.7290, 14788.41
181.9520, 13376.21
183.1760, 11653.00
184.3990, 10151.14
185.6220, 8612.652
186.8450, 7308.012
188.0670, 6135.779
189.2900, 5768.414
190.5120, 5067.391
191.7340, 4504.764
192.9560, 4279.529
194.1780, 3888.572
195.4000, 3465.121
196.6220, 3136.721
197.8430, 2777.309
199.0640, 2570.750
200.2860, 2615.967
201.5070, 2349.195
202.7270, 2231.020
203.9480, 2317.041
205.1690, 2762.434
206.3890, 3150.717
207.6090, 3859.432
208.8290, 4484.430
210.0490, 5305.592
211.2690, 6205.332
212.4890, 7224.492
213.7080, 8365.350
214.9280, 9354.764
216.1470, 10377.78
217.3660, 11220.39
218.5850, 11983.59
219.8030, 12085.37
221.0220, 12714.72
222.2400, 13056.63
223.4590, 13437.10
224.6770, 13509.12
225.8950, 13182.70
227.1120, 12031.84
228.3300, 10815.53
229.5480, 9411.799
230.7650, 8319.623
231.9820, 6765.648
233.1990, 4789.688
234.4160, 3386.883
235.6330, 2299.406
236.8490, 1114.686
238.0660, 487.6016
239.2820, 2.998047
240.4980, 193.4902
241.7140, 334.7168
242.9300, 319.5840
244.1460, 630.6387
245.3610, 324.7285
246.5770, 323.3672
247.7920, 111.0273
249.0070, 218.1582
250.2220, 465.0215
251.4370, 725.4922
252.6510, 977.8301
253.8660, 1221.322
255.0800, 1438.902
256.2940, 1706.088
257.5080, 1903.658
258.7220, 1472.340
259.9360, 925.0527
261.1490, 902.2305
262.3630, 538.5449
263.5760, 443.6152
264.7890, 226.2051
266.0020, 104.9336
267.2150, 159.2539
268.4270, 52.08203
269.6400, 21.49414
270.8520, 47.48047
272.0640, 140.3750
273.2760, 152.5781
274.4880, 199.3438
275.7000, 287.6758
276.9120, 451.9434
278.1230, 266.3164
279.3340, 479.6230
280.5450, 472.0430
281.7560, 313.1055
282.9670, 396.3008
284.1780, 330.3477
285.3880, 231.8984
286.5980, 235.9375
287.8090, 53.47266
289.0190, 65.46875
290.2290, 72.91992
291.4380, 34.16992
292.6480, 121.8320
293.8570, 42.91016
295.0670, 103.0918
296.2760, 123.7324
297.4850, 174.5508
298.6930, 152.8750
299.9020, 175.5000
301.1110, 61.07227
302.3190, 53.13086
303.5270, 63.31738
304.7350, 3.703125
305.9430, 193.7793
307.1510, 4.193359
308.3580, 150.3271
309.5660, 50.63184
310.7730, 97.12598
311.9800, 73.10059
313.1870, 89.17773
314.3940, 11.14258
315.6010, 5.837891
316.8070, 306.6426
318.0130, 86.92090
319.2200, 335.7314
320.4260, 382.1406
321.6310, 357.1748
322.8370, 449.7988
324.0430, 660.9697
325.2480, 502.6074
326.4540, 851.6152
327.6590, 953.9004
328.8640, 1027.520
330.0680, 946.5742
331.2730, 1217.150
332.4780, 1464.267
333.6820, 1587.953
334.8860, 1851.215
336.0900, 2022.023
337.2940, 2208.516
338.4980, 2496.012
339.7010, 2565.135
340.9050, 2747.779
342.1080, 2879.979
343.3110, 2843.709
344.5140, 2761.906
345.7170, 2839.512
346.9200, 2609.557
348.1220, 2614.143
349.3240, 2605.285
350.5270, 2844.947
351.7290, 2784.221
352.9310, 2713.156
354.1320, 2748.771
355.3340, 2713.084
356.5350, 2814.123
357.7370, 2896.898
358.9380, 2628.428
360.1390, 2710.725
361.3400, 2402.805
362.5400, 2358.666
363.7410, 2064.314
364.9410, 2027.748
366.1410, 1767.971
367.3410, 1661.980
368.5410, 1501.785
369.7410, 1338.379
370.9400, 1441.762
372.1400, 1462.939
373.3390, 1129.912
374.5380, 1395.676
375.7370, 1200.240
376.9360, 1246.598
378.1350, 1253.746
379.3330, 929.6816
380.5310, 1028.410
381.7300, 821.6875
382.9280, 607.0312
384.1260, 514.0332
385.3230, 286.7676
386.5210, 198.4707
387.7180, 181.0312
388.9160, 37.18945
390.1130, 91.15234
391.3100, 100.9863
392.5060, 170.6953
393.7030, 31.38281
394.9000, 213.6914
396.0960, 255.0859
397.2920, 120.5801
398.4880, 134.4961
399.6840, 173.9512
400.8800, 190.7598
402.0750, 154.3340
403.2710, 173.0430
404.4660, 133.6230
405.6610, 193.4434
406.8560, 54.31250
408.0510, 13.01562
409.2450, 33.41797
410.4400, 247.4746
411.6340, 44.65820
412.8280, 396.9531
414.0220, 389.5293
415.2160, 518.5059
416.4100, 850.6484
417.6030, 1155.033
418.7970, 1401.012
419.9900, 1731.613
421.1830, 2090.664
422.3760, 2383.766
423.5690, 2824.566
424.7610, 3555.254
425.9540, 3971.389
427.1460, 4624.051
428.3380, 5145.338
429.5300, 6039.143
430.7220, 6457.814
431.9140, 7337.297
433.1050, 8014.188
434.2970, 8748.252
435.4880, 9297.875
436.6790, 9681.809
437.8700, 9796.754
439.0610, 10083.48
440.2510, 9962.914
441.4420, 9701.008
442.6320, 8800.219
443.8220, 8107.027
445.0120, 7340.010
446.2020, 6634.453
447.3910, 5793.846
448.5810, 5435.186
449.7700, 4822.021
450.9600, 4132.180
452.1490, 3931.543
453.3370, 3847.209
454.5260, 3700.027
455.7150, 3683.668
456.9030, 3909.984
458.0910, 4147.137
459.2800, 4731.945
460.4670, 5689.373
461.6550, 6505.531
462.8430, 7440.332
464.0300, 8461.805
465.2180, 10034.87
466.4050, 11226.07
467.5920, 12087.17
468.7790, 13150.88
469.9650, 13451.20
471.1520, 13531.87
472.3380, 13382.77
473.5250, 12635.25
474.7110, 11401.80
475.8970, 10345.31
477.0820, 8803.279
478.2680, 7967.287
479.4540, 6907.469
480.6390, 6324.566
481.8240, 5845.582
483.0090, 5653.520
484.1940, 5575.381
485.3780, 5543.172
486.5630, 5670.891
487.7470, 5873.543
488.9320, 5797.129
490.1160, 5955.652
491.3000, 5851.119
492.4830, 5837.531
493.6670, 5551.889
494.8500, 5150.193
496.0340, 4826.445
497.2170, 4396.654
498.4000, 3856.814
499.5820, 3637.930
500.7650, 3033.002
501.9480, 2683.035
503.1300, 2404.027
504.3120, 2238.982
505.4940, 2079.900
506.6760, 2065.783
507.8580, 2244.635
509.0390, 2208.453
510.2210, 2317.240
511.4020, 2691.402
512.5830, 3167.902
513.7640, 3551.855
514.9450, 4136.920
516.1250, 5014.764
517.3060, 6014.236
518.4860, 7299.488
519.6660, 8931.754
520.8460, 10804.08
522.0260, 13082.15
523.2060, 15556.56
524.3850, 18606.21
525.5650, 21747.04
526.7440, 25402.67
527.9230, 28890.36
529.1020, 32266.84
530.2810, 35204.68
531.4590, 37464.22
532.6380, 39048.57
533.8160, 39590.99
534.9940, 39260.62
536.1720, 37790.35
537.3500, 35693.05
538.5270, 32642.46
539.7050, 29367.36
540.8820, 26022.81
542.0590, 22759.28
543.2360, 19690.00
544.4130, 16842.17
545.5900, 15012.67
546.7660, 12915.34
547.9430, 10898.32
549.1190, 9564.312
550.2950, 8317.557
551.4710, 7173.441
552.6470, 6303.467
553.8220, 5440.900
554.9980, 4671.145
556.1730, 4212.688
557.3480, 3713.143
558.5230, 3352.967
559.6980, 2934.957
560.8730, 2638.076
562.0470, 2504.314
563.2220, 2202.652
564.3960, 2037.113
565.5700, 1745.670
566.7440, 1580.320
567.9170, 1189.078
569.0910, 1315.965
570.2640, 1299.977
571.4380, 910.1133
572.6110, 793.4043
573.7840, 584.8516
574.9570, 744.4473
576.1290, 585.2129
577.3020, 456.1875
578.4740, 367.3652
579.6460, 423.7109
580.8180, 509.2109
581.9900, 184.8594
583.1620, 290.6523
584.3330, 97.59570
585.5040, 333.6816
586.6760, 100.9336
587.8470, 19.61719
589.0180, 306.0488
590.1880, 231.8965
591.3590, 298.9805
592.5290, 297.2500
593.7000, 348.3926
594.8700, 538.4473
596.0400, 553.2949
597.2090, 728.3281
598.3790, 975.5312
599.5490, 1138.961
600.7180, 1163.623
601.8870, 1323.305
603.0560, 1502.438
604.2250, 1475.584
605.3940, 1347.883
606.5620, 1390.318
607.7300, 1248.895
608.8990, 1025.600
610.0670, 939.4375
611.2350, 828.3965
612.4020, 791.4746
613.5700, 498.6758
614.7370, 629.0078
615.9050, 351.4492
617.0720, 442.0039
618.2390, 495.6699
619.4060, 512.4453
620.5720, 471.3320
621.7390, 516.3242
622.9050, 444.4258
624.0710, 559.6387
625.2370, 310.9629
626.4030, 161.3984
627.5690, 329.9473
628.7340, 67.60742
629.9000, 272.3828
631.0650, 401.2695
632.2300, 267.2754
633.3950, 280.3945
634.5600, 198.6289
635.7240, 290.9824
636.8890, 293.4512
638.0530, 229.0352
639.2170, 536.7383
640.3810, 359.5605
641.5450, 472.5039
642.7080, 72.56641
643.8720, 294.7480
645.0350, 118.0488
646.1980, 325.4727
647.3610, 275.0156
648.5240, 379.6797
649.6870, 224.4688
650.8490, 379.3809
652.0120, 65.41406
653.1740, 453.5781
654.3360, 356.8691
655.4980, 251.2871
656.6600, 434.8379
657.8210, 232.5176
658.9830, 356.3262
660.1440, 290.2695
661.3050, 338.8203
662.4660, 195.0312
663.6270, 428.3750
664.7870, 329.1250
665.9480, 421.7480
667.1080, 448.5176
668.2680, 236.4336
669.4280, 371.4961
670.5880, 661.9004
671.7480, 466.2715
672.9070, 350.4121
674.0670, 690.0938
675.2260, 515.1152
676.3850, 586.5410
677.5440, 572.5508
678.7030, 388.1895
679.8610, 900.7227
681.0200, 926.4512
682.1780, 765.3535
683.3360, 965.3398
684.4940, 964.6113
685.6520, 868.8848
686.8090, 1164.266
687.9670, 1213.014
689.1240, 1190.518
690.2810, 1478.746
691.4380, 1533.908
692.5950, 1409.326
693.7520, 1727.438
694.9080, 1414.039
696.0650, 1518.674
697.2210, 1566.910
698.3770, 1767.434
699.5330, 1665.715
700.6880, 1676.936
701.8440, 1725.168
702.9990, 1705.660
704.1550, 1664.111
705.3100, 1634.381
706.4650, 1603.059
707.6190, 1539.566
708.7740, 1555.283
709.9290, 1560.721
711.0830, 1561.287
712.2370, 1475.492
713.3910, 1516.805
714.5450, 1482.748
715.6980, 1566.035
716.8520, 1524.760
718.0050, 1502.193
719.1580, 1512.135
720.3110, 1308.066
721.4640, 1366.055
722.6170, 1155.348
723.7700, 1041.580
724.9220, 1099.156
726.0740, 1241.668
727.2260, 1114.246
728.3780, 1133.867
729.5300, 999.3086
730.6810, 931.1191
731.8330, 747.2363
732.9840, 946.2344
734.1350, 734.3281
735.2860, 795.8027
736.4370, 864.4199
737.5880, 546.8945
738.7380, 534.9844
739.8880, 518.8105
741.0390, 489.5820
742.1890, 466.4805
743.3380, 402.4082
744.4880, 535.3008
745.6380, 456.5059
746.7870, 352.5684
747.9360, 403.7148
749.0850, 258.9453
750.2340, 530.2598
751.3830, 510.6602
752.5310, 6.138672
753.6800, 192.7012
754.8280, 259.3457
755.9760, 220.0703
757.1240, 383.8770
758.2720, 270.7656
759.4190, 229.7363
760.5670, 216.7891
761.7140, 323.9297
762.8610, 318.1523
764.0080, 563.4551
765.1550, 353.8516
766.3020, 465.3301
767.4480, 812.8887
768.5950, 494.5312
769.7410, 655.2500
770.8870, 543.0430
772.0330, 647.9180
773.1780, 793.8750
774.3240, 803.9102
775.4690, 601.0352
776.6140, 402.2344
777.7590, 403.5098
778.9040, 400.8574
780.0490, 450.2715
781.1940, 245.7539
782.3380, 25.30664
783.4820, 348.9258
784.6260, 461.6113
785.7700, 262.3652
786.9140, 234.1836
788.0580, 313.0684
789.2010, 109.0137
790.3450, 133.0273
791.4880, 113.0996
792.6310, 197.2363
793.7730, 250.4316
794.9160, 358.6914
796.0590, 28.00781
797.2010, 254.3848
798.3430, 80.17969
799.4850, 31.28906
800.6270, 91.81250
801.7690, 94.60547
802.9100, 109.9961
804.0520, 127.6543
805.1930, 126.3672
806.3340, 21.13086
807.4750, 5.2733999E-02
808.6160, 104.8086
809.7560, 89.27930
810.8970, 161.6484
812.0370, 242.3789
813.1770, 143.4551
814.3170, 84.54688
815.4570, 156.6289
816.5960, 38.38086
817.7360, 49.18750
818.8750, 25.14844
820.0140, 97.84961
821.1530, 219.8535
822.2920, 26.91797
823.4310, 23.96289
824.5690, 175.0098
825.7070, 37.98242
826.8460, 151.9648
827.9840, 94.01562
829.1220, 145.9688
830.2590, 31.99414
831.3970, 180.0098
832.5340, 196.0762
833.6710, 64.20508
834.8080, 145.3301
835.9450, 37.50391
837.0820, 8.626953
838.2190, 67.26172
839.3550, 16.20312
840.4910, 100.1777
841.6270, 96.23047
842.7630, 105.3379
843.8990, 66.50586
845.0350, 32.34180
846.1700, 51.86328
847.3060, 120.8496
848.4410, 110.3945
849.5760, 196.6719
850.7100, 17.02930
851.8450, 79.74023
852.9800, 143.5117
854.1140, 54.77930
855.2480, 46.06055
856.3820, 130.3457
857.5160, 55.64844
858.6500, 50.95703
859.7830, 200.2852
860.9170, 96.63477
862.0500, 50.98242
863.1830, 31.61719
864.3160, 253.7930
865.4480, 81.32617
866.5810, 376.7578
867.7130, 5.689453
868.8460, 213.9141
869.9780, 188.5781
871.1100, 18.29297
872.2410, 117.0605
873.3730, 91.09961
874.5050, 117.3242
875.6360, 51.43555
876.7670, 8.253906
877.8980, 92.10742
879.0290, 34.95703
880.1590, 212.7852
881.2900, 97.63672
882.4200, 329.5039
883.5500, 212.4395
884.6800, 251.4785
885.8100, 370.5293
886.9400, 327.6133
888.0690, 388.6973
889.1990, 399.7754
890.3280, 455.8730
891.4570, 459.9766
892.5860, 508.5371
893.7140, 449.0664
894.8430, 606.5000
895.9710, 553.4277
897.1000, 617.0605
898.2280, 751.9473
899.3560, 679.6426
900.4830, 916.9219
901.6110, 854.0957
902.7380, 953.9844
903.8660, 915.9824
904.9930, 1432.213
906.1200, 1270.453
907.2460, 1902.891
908.3730, 2243.672
909.5000, 2211.160
910.6260, 2480.613
911.7520, 2845.672
912.8780, 3089.178
914.0040, 3132.402
915.1290, 3300.408
916.2550, 3522.387
917.3800, 3565.346
918.5050, 3708.297
919.6300, 3776.227
920.7550, 3907.146
921.8800, 3992.035
923.0040, 3840.889
924.1290, 3998.705
925.2530, 4146.492
926.3770, 4313.248
927.5010, 4537.709
928.6250, 4798.654
929.7480, 4955.305
930.8720, 5124.922
931.9950, 5203.500
933.1180, 5175.037
934.2410, 5212.145
935.3640, 5143.039
936.4860, 5055.914
937.6090, 5027.014
938.7310, 4766.336
939.8530, 4816.609
940.9750, 4788.838
942.0970, 4203.020
943.2180, 4263.961
944.3400, 4333.047
945.4610, 4128.455
946.5820, 4165.439
947.7030, 3936.217
948.8240, 3807.686
949.9450, 3942.707
951.0650, 3905.248
952.1860, 4049.996
953.3060, 3956.660
954.4260, 3883.266
955.5460, 3890.910
956.6650, 3826.381
957.7850, 3799.959
958.9040, 3886.535
960.0230, 3730.857
961.1420, 3771.508
962.2610, 3471.307
963.3800, 3850.676
964.4990, 3456.820
965.6170, 3471.338
966.7350, 3430.094
967.8530, 3318.893
968.9710, 3633.184
970.0890, 3574.350
971.2070, 3589.104
972.3240, 3602.662
973.4410, 3635.199
974.5580, 3968.510
975.6750, 4206.242
976.7920, 4334.441
977.9090, 4738.934
979.0250, 4783.094
980.1410, 4978.469
981.2580, 5229.459
982.3740, 5262.551
983.4890, 5505.746
984.6050, 5604.594
985.7200, 5704.396
986.8360, 5584.008
987.9510, 5476.445
989.0660, 5326.225
990.1810, 5085.217
991.2950, 4703.488
992.4100, 4518.193
993.5240, 4204.590
994.6390, 3861.922
995.7530, 3766.797
996.8660, 3510.014
997.9800, 3248.299
999.0940, 2995.414
1000.207, 2830.945
1001.320, 2591.758
1002.433, 2603.006
1003.546, 2424.646
1004.659, 2331.000
1005.772, 2356.074
1006.884, 1882.527
1007.996, 2000.488
1009.108, 2237.236
1010.220, 1750.240
1011.332, 1732.482
1012.444, 1561.754
1013.555, 1742.848
1014.666, 1808.959
1015.777, 1482.820
1016.888, 1304.652
1017.999, 1533.311
1019.110, 1510.906
1020.220, 1073.912
1021.331, 1090.064
1022.441, 928.1738
1023.551, 728.9492
1024.661, 769.7227
1025.770, 665.8750
1026.880, 396.9004
1027.989, 516.7441
1029.098, 414.3945
1030.207, 326.4492
1031.316, 434.6680
1032.425, 497.1719
1033.533, 208.2383
1034.642, 388.7031
1035.750, 457.9570
1036.858, 317.1719
1037.966, 617.9688
1039.073, 615.9785
1040.181, 355.6035
1041.288, 274.1094
1042.396, 560.4727
1043.503, 201.5586
1044.610, 426.5488
1045.716, 556.0645
1046.823, 621.4453
1047.929, 728.6973
1049.036, 825.7871
1050.142, 909.8223
1051.248, 783.7207
1052.353, 1082.256
1053.459, 1171.715
1054.564, 1227.801
1055.670, 1023.848
1056.775, 1298.809
1057.880, 1340.789
1058.985, 1239.732
1060.089, 1416.574
1061.194, 1726.262
1062.298, 1582.180
1063.402, 1638.451
1064.506, 1933.730
1065.610, 1786.619
1066.713, 1767.273
1067.817, 1926.002
1068.920, 2055.762
1070.023, 2153.412
1071.126, 2091.066
1072.229, 2006.889
1073.332, 2134.537
1074.435, 1871.932
1075.537, 2022.082
1076.639, 2103.730
1077.741, 1959.789
1078.843, 1919.777
1079.945, 1955.217
1081.046, 2189.895
1082.148, 1956.008
1083.249, 1879.025
1084.350, 1529.928
1085.451, 1615.914
1086.551, 1387.561
1087.652, 1301.418
1088.752, 1206.113
1089.853, 1129.266
1090.953, 914.9395
1092.053, 905.0117
1093.152, 829.9492
1094.252, 581.7656
1095.351, 718.4805
1096.451, 729.0566
1097.550, 491.5352
1098.649, 356.8828
1099.748, 569.1250
1100.846, 197.2734
1101.945, 337.2754
1103.043, 306.1641
1104.141, 187.8984
1105.239, 102.4785
1106.337, 139.8711
1107.434, 30.90820
1108.532, 46.07031
1109.629, 88.84766
1110.726, 31.43555
1111.823, 47.15820
1112.920, 84.98047
1114.017, 204.9336
1115.113, 221.7188
1116.210, 550.3418
1117.306, 416.8223
1118.402, 387.1738
1119.498, 592.4062
1120.593, 538.4961
1121.689, 532.4492
1122.784, 439.2656
1123.879, 461.9355
1124.974, 141.4668
1126.069, 213.8320
1127.164, 64.03906
1128.259, 54.06055
1129.353, 171.0781
1130.447, 50.50586
1131.541, 157.0996
1132.635, 50.00586
1133.729, 182.0703
1134.822, 76.43359
1135.916, 43.04102
1137.009, 173.8789
1138.102, 151.9980
1139.195, 204.6035
1140.288, 167.9082
1141.380, 185.6699
1142.473, 158.7129
1143.565, 210.9844
1144.657, 221.5293
1145.749, 34.93750
1146.841, 24.83398
1147.932, 151.8086
1149.024, 312.0488
1150.115, 68.35352
1151.206, 38.40820
1152.297, 239.6211
1153.388, 66.50195
1154.479, 76.22070
1155.569, 65.77344
1156.659, 203.8320
1157.750, 89.27344
1158.839, 174.4766
1159.929, 48.98828
1161.019, 53.87500
1162.108, 97.87500
1163.198, 75.53125
1164.287, 174.0664
1165.376, 111.9297
1166.465, 227.7422
1167.553, 212.6914
1168.642, 122.3750
1169.730, 197.6758
1170.818, 240.8164
1171.906, 233.6055
1172.994, 17.10156
1174.082, 107.3203
1175.170, 13.61719
1176.257, 315.1484
1177.344, 312.0820
1178.431, 121.1445
1179.518, 313.2734
1180.605, 35.27734
1181.691, 52.86328
1182.778, 23.83203
1183.864, 49.60938
1184.950, 214.7891
1186.036, 518.0625
1187.122, 689.2227
1188.207, 94.27344
1189.292, 78.19531
1190.378, 259.9883
1191.463, 261.6641
1192.548, 170.2188
1193.632, 76.65234
1194.717, 250.9688
1195.801, 308.1602
1196.886, 327.2422
1197.970, 276.2148
1199.054, 471.0742
1200.137, 221.8242
1201.221, 426.4609
1202.305, 349.9961
1203.388, 115.4219
1204.471, 377.7344
1205.554, 398.9375
1206.637, 244.0391
1207.719, 347.0391
1208.802, 330.9297
1209.884, 184.7148
1210.966, 341.3984
1212.048, 599.9805
1213.130, 435.4648
1214.212, 578.8516
1215.293, 377.1445
1216.374, 533.3398
1217.456, 332.4414
1218.536, 338.4492
1219.617, 203.3555
1220.698, 281.5664
1221.778, 544.8750
1222.859, 409.4961
1223.939, 578.0312
1225.019, 474.6758
1226.099, 507.8047
1227.178, 562.8750
1228.258, 396.8633
1229.337, 697.0977
1230.417, 599.2266
1231.496, 637.2383
1232.574, 572.0430
1233.653, 700.4688
1234.732, 355.1133
1235.810, 873.7305
1236.888, 681.2773
1237.966, 486.4023
1239.044, 630.9180
1240.122, 498.9883
1241.199, 527.7891
1242.277, 644.8594
1243.354, 864.5469
1244.431, 781.9609
1245.508, 490.5977
1246.585, 705.4375
1247.661, 677.6484
1248.738, 674.6641
1249.814, 767.4766
1250.890, 697.9961
1251.966, 691.4219
1253.042, 604.3984
1254.117, 774.4023
1255.193, 555.3633
1256.268, 655.4180
1257.343, 674.5312
1258.418, 460.3203
1259.493, 813.7969
1260.567, 779.4922
1261.642, 945.9023
1262.716, 907.6172
1263.790, 784.5391
1264.864, 932.1406
1265.938, 778.8828
1267.011, 604.4766
1268.085, 912.5039
1269.158, 649.1094
1270.231, 599.2695
1271.304, 532.3867
1272.377, 784.2695
