##NAMES=Thomsonite-Ca
##RRUFFID=R050103
##IDEAL CHEMISTRY=NaCa_2_(Al_5_Si_5_)O_20_&#183;6H_2_O
##LOCALITY=Seeberg, Bohemia, Czech Republic
##OWNER=RRUFF
##SOURCE=Rock Currier
##DESCRIPTION=Colorless prismatic crystals
##STATUS=The identification of this mineral has been confirmed by X-ray diffraction and chemical analysis
##URL=rruff.info/R050103
##MEASURED CHEMISTRY=Na_1.00_(Ca_0.92_Sr_0.08_)_2_(Al_5.00_Si_5.00_)O_20_Â·6H_2_O
##PIN_ID=L00246
##ORIENTATION=Laser parallel to c* (0 0 1). Fiducial mark perpendicular to laser is parallel to -a [-1 0 0]
93.48000, 0.0000000E+00
94.71400, 58.08398
95.94800, 20.44238
97.18200, 234.3125
98.41600, 333.3467
99.64900, 315.5479
100.8830, 455.0996
102.1160, 672.5781
103.3490, 772.8232
104.5820, 1314.459
105.8150, 1265.892
107.0470, 1977.387
108.2800, 1453.564
109.5120, 1276.386
110.7440, 1521.081
111.9760, 1647.983
113.2080, 1782.522
114.4400, 1791.228
115.6710, 2031.714
116.9030, 2162.767
118.1340, 2119.444
119.3650, 2027.862
120.5960, 2069.865
121.8270, 1953.065
123.0580, 1858.123
124.2880, 1905.754
125.5190, 1901.727
126.7490, 1703.848
127.9790, 1818.954
129.2090, 1440.907
130.4390, 1234.589
131.6680, 1130.899
132.8980, 1010.783
134.1270, 641.2129
135.3560, 628.1758
136.5850, 456.6367
137.8140, 594.5547
139.0430, 765.5117
140.2710, 772.5273
141.5000, 986.5273
142.7280, 1005.317
143.9560, 1340.600
145.1840, 1465.389
146.4120, 1516.769
147.6390, 1974.695
148.8670, 2102.141
150.0940, 2476.129
151.3210, 2434.697
152.5490, 3000.865
153.7750, 3450.660
155.0020, 3698.101
156.2290, 4303.207
157.4550, 4854.992
158.6810, 5602.469
159.9080, 6400.648
161.1340, 7415.545
162.3590, 8520.171
163.5850, 9739.532
164.8110, 11345.64
166.0360, 12837.51
167.2610, 14508.10
168.4860, 16414.40
169.7110, 18028.73
170.9360, 19981.17
172.1610, 21951.67
173.3850, 23553.46
174.6100, 24685.54
175.8340, 25486.96
177.0580, 25129.31
178.2820, 24829.80
179.5050, 23997.32
180.7290, 22033.73
181.9520, 20087.06
183.1760, 17560.47
184.3990, 15172.09
185.6220, 13050.52
186.8450, 11164.43
188.0670, 9678.697
189.2900, 8479.588
190.5120, 7555.547
191.7340, 6878.658
192.9560, 6472.040
194.1780, 5703.281
195.4000, 5271.691
196.6220, 4910.748
197.8430, 4604.643
199.0640, 4119.705
200.2860, 3950.647
201.5070, 3933.602
202.7270, 3904.562
203.9480, 4048.530
205.1690, 4565.503
206.3890, 4870.475
207.6090, 5385.444
208.8290, 6131.411
210.0490, 6801.373
211.2690, 7941.324
212.4890, 8675.265
213.7080, 9396.181
214.9280, 10482.08
216.1470, 10754.93
217.3660, 10983.73
218.5850, 10884.48
219.8030, 10548.17
221.0220, 9974.790
222.2400, 9354.354
223.4590, 8379.857
224.6770, 7278.301
225.8950, 6371.686
227.1120, 5200.014
228.3300, 4276.283
229.5480, 3578.495
230.7650, 2976.652
231.9820, 2327.755
233.1990, 1858.802
234.4160, 1540.795
235.6330, 1299.733
236.8490, 895.6211
238.0660, 701.4561
239.2820, 653.2402
240.4980, 482.1104
241.7140, 590.9346
242.9300, 486.0596
244.1460, 708.8994
245.3610, 766.2979
246.5770, 951.4248
247.7920, 1321.360
249.0070, 1705.368
250.2220, 1968.506
251.4370, 2500.897
252.6510, 2825.972
253.8660, 3042.424
255.0800, 3318.565
256.2940, 3374.622
257.5080, 3199.562
258.7220, 3105.252
259.9360, 2568.353
261.1490, 1980.748
262.3630, 1563.084
263.5760, 1031.644
264.7890, 843.4062
266.0020, 625.2314
267.2150, 369.1055
268.4270, 163.0176
269.6400, 76.95996
270.8520, 15.07617
272.0640, 3.887695
273.2760, 187.1484
274.4880, 18.75879
275.7000, 122.3428
276.9120, 229.4922
278.1230, 123.7217
279.3340, 92.99316
280.5450, 227.3057
281.7560, 10.69336
282.9670, 159.1172
284.1780, 311.6211
285.3880, 275.2480
286.5980, 141.0010
287.8090, 296.8516
289.0190, 243.8574
290.2290, 204.0146
291.4380, 239.3223
292.6480, 247.7910
293.8570, 134.4219
295.0670, 120.1826
296.2760, 169.0693
297.4850, 86.09570
298.6930, 56.23438
299.9020, 122.4795
301.1110, 29.84570
302.3190, 45.69141
303.5270, 106.1523
304.7350, 194.0156
305.9430, 247.8809
307.1510, 363.1562
308.3580, 386.3750
309.5660, 493.7061
310.7730, 611.4805
311.9800, 717.6904
313.1870, 848.6885
314.3940, 982.8740
315.6010, 995.5273
316.8070, 1289.367
318.0130, 1454.154
319.2200, 1652.887
320.4260, 1706.564
321.6310, 1783.185
322.8370, 1862.746
324.0430, 2023.252
325.2480, 2185.699
326.4540, 2244.087
327.6590, 2344.419
328.8640, 2739.650
330.0680, 2914.715
331.2730, 2886.536
332.4780, 3301.232
333.6820, 3418.733
334.8860, 3773.945
336.0900, 3917.893
337.2940, 4108.527
338.4980, 4193.895
339.7010, 4156.018
340.9050, 4167.934
342.1080, 4054.700
343.3110, 3797.314
344.5140, 3722.874
345.7170, 3364.408
346.9200, 3270.913
348.1220, 2957.391
349.3240, 3208.841
350.5270, 3299.272
351.7290, 3188.676
352.9310, 3344.055
354.1320, 3409.406
355.3340, 3625.733
356.5350, 3727.033
357.7370, 3752.309
358.9380, 3780.828
360.1390, 3697.301
361.3400, 3619.980
362.5400, 3395.154
363.7410, 3157.303
364.9410, 2869.427
366.1410, 2568.529
367.3410, 2170.605
368.5410, 1964.661
369.7410, 1783.691
370.9400, 1559.702
372.1400, 1705.690
373.3390, 1452.656
374.5380, 1486.603
375.7370, 1470.535
376.9360, 1135.447
378.1350, 1321.340
379.3330, 860.2139
380.5310, 835.0742
381.7300, 611.9189
382.9280, 552.7480
384.1260, 367.5635
385.3230, 221.3848
386.5210, 13.79590
387.7180, 32.92383
388.9160, 62.37891
390.1130, 64.81543
391.3100, 6.362305
392.5060, 15.01465
393.7030, 45.67773
394.9000, 220.4736
396.0960, 20.46387
397.2920, 214.5449
398.4880, 15.81836
399.6840, 299.1816
400.8800, 63.21680
402.0750, 90.56250
403.2710, 70.86523
404.4660, 92.88086
405.6610, 43.75684
406.8560, 36.26367
408.0510, 261.2227
409.2450, 266.1504
410.4400, 511.0488
411.6340, 624.9160
412.8280, 668.7529
414.0220, 849.5605
415.2160, 1094.651
416.4100, 1411.674
417.6030, 1631.894
418.7970, 1827.396
419.9900, 2417.308
421.1830, 2632.307
422.3760, 3176.764
423.5690, 3647.340
424.7610, 4368.938
425.9540, 4667.861
427.1460, 5547.389
428.3380, 6051.174
429.5300, 6609.074
430.7220, 7317.242
431.9140, 7938.467
433.1050, 8833.867
434.2970, 9432.623
435.4880, 10224.02
436.6790, 10490.75
437.8700, 11078.47
439.0610, 10863.95
440.2510, 11123.25
441.4420, 10604.64
442.6320, 10348.79
443.8220, 9553.668
445.0120, 8772.260
446.2020, 7979.119
447.3910, 7177.795
448.5810, 6558.027
449.7700, 5714.258
450.9600, 5096.479
452.1490, 4924.697
453.3370, 4704.906
454.5260, 4671.113
455.7150, 4644.314
456.9030, 5024.514
458.0910, 5182.707
459.2800, 5582.896
460.4670, 6509.084
461.6550, 7498.270
462.8430, 8708.453
464.0300, 9890.633
465.2180, 11141.81
466.4050, 12227.99
467.5920, 13642.17
468.7790, 14281.35
469.9650, 15036.53
471.1520, 15011.71
472.3380, 14790.89
473.5250, 13704.07
474.7110, 12455.26
475.8970, 11127.45
477.0820, 9565.645
478.2680, 8592.848
479.4540, 7593.061
480.6390, 6842.281
481.8240, 6130.514
483.0090, 5947.762
484.1940, 5456.021
485.3780, 5122.316
486.5630, 5044.641
487.7470, 4916.010
488.9320, 4576.393
490.1160, 4516.809
491.3000, 4242.244
492.4830, 4265.105
493.6670, 3984.672
494.8500, 3937.641
496.0340, 3644.305
497.2170, 3548.986
498.4000, 3255.705
499.5820, 2966.537
500.7650, 2960.328
501.9480, 2643.137
503.1300, 2701.965
504.3120, 2683.818
505.4940, 2855.695
506.6760, 2880.598
507.8580, 3131.516
509.0390, 3314.475
510.2210, 3533.477
511.4020, 4035.502
512.5830, 4597.551
513.7640, 5217.617
514.9450, 5922.750
516.1250, 6891.582
517.3060, 7950.498
518.4860, 9343.771
519.6660, 11059.04
520.8460, 13031.33
522.0260, 15767.83
523.2060, 18680.62
524.3850, 21885.35
525.5650, 25075.86
526.7440, 29416.63
527.9230, 32397.19
529.1020, 36367.10
530.2810, 39462.90
531.4590, 42053.97
532.6380, 43435.01
533.8160, 43985.83
534.9940, 43332.05
536.1720, 41310.57
537.3500, 39059.19
538.5270, 35891.45
539.7050, 32321.66
540.8820, 28566.44
542.0590, 25117.53
543.2360, 22122.69
544.4130, 19365.81
545.5900, 16906.15
546.7660, 14917.92
547.9430, 12883.61
549.1190, 11338.20
550.2950, 10058.71
551.4710, 8952.270
552.6470, 7918.912
553.8220, 6903.600
554.9980, 6461.332
556.1730, 5437.105
557.3480, 5263.934
558.5230, 4607.838
559.6980, 4125.881
560.8730, 3916.006
562.0470, 3498.211
563.2220, 2987.531
564.3960, 2781.932
565.5700, 2651.373
566.7440, 2365.926
567.9170, 2312.539
569.0910, 1977.254
570.2640, 1723.105
571.4380, 1806.082
572.6110, 1649.150
573.7840, 1347.354
574.9570, 1329.678
576.1290, 1173.113
577.3020, 1083.674
578.4740, 939.3574
579.6460, 812.1367
580.8180, 665.0039
581.9900, 730.9785
583.1620, 486.0352
584.3330, 667.1680
585.5040, 502.3965
586.6760, 570.6895
587.8470, 515.0352
589.0180, 494.4238
590.1880, 653.8477
591.3590, 650.3105
592.5290, 838.8066
593.7000, 822.3418
594.8700, 1059.916
596.0400, 1310.525
597.2090, 1496.172
598.3790, 1556.857
599.5490, 1763.578
600.7180, 2322.338
601.8870, 2237.131
603.0560, 2263.963
604.2250, 2374.828
605.3940, 2166.730
606.5620, 2050.670
607.7300, 2002.643
608.8990, 1687.654
610.0670, 1191.701
611.2350, 1330.781
612.4020, 973.8965
613.5700, 778.0508
614.7370, 588.2402
615.9050, 575.4648
617.0720, 340.7246
618.2390, 513.0156
619.4060, 381.3438
620.5720, 229.7090
621.7390, 355.1074
622.9050, 176.7441
624.0710, 464.2109
625.2370, 188.1660
626.4030, 189.0879
627.5690, 165.0039
628.7340, 285.5996
629.9000, 93.21484
631.0650, 56.15625
632.2300, 101.7520
633.3950, 1.779297
634.5600, 40.46875
635.7240, 61.75977
636.8890, 50.68555
638.0530, 307.7949
639.2170, 5.142578
640.3810, 85.00586
641.5450, 238.0371
642.7080, 75.27344
643.8720, 119.9648
645.0350, 195.1172
646.1980, 183.5039
647.3610, 208.5645
648.5240, 245.4863
649.6870, 160.8145
650.8490, 209.1973
652.0120, 77.86328
653.1740, 124.1934
654.3360, 23.80859
655.4980, 14.87695
656.6600, 90.05078
657.8210, 2.314453
658.9830, 15.55859
660.1440, 20.14453
661.3050, 77.75586
662.4660, 34.72070
663.6270, 28.37109
664.7870, 68.18555
665.9480, 19.89453
667.1080, 19.84375
668.2680, 17.53906
669.4280, 157.1523
670.5880, 69.83594
671.7480, 95.59570
672.9070, 226.9160
674.0670, 179.3223
675.2260, 205.8672
676.3850, 256.4863
677.5440, 196.7012
678.7030, 210.4883
679.8610, 255.8516
681.0200, 456.5215
682.1780, 498.1543
683.3360, 538.5156
684.4940, 708.5449
685.6520, 705.9648
686.8090, 596.1465
687.9670, 776.0820
689.1240, 604.5957
690.2810, 700.4434
691.4380, 879.6699
692.5950, 1036.270
693.7520, 1105.381
694.9080, 988.1816
696.0650, 1113.713
697.2210, 1175.328
698.3770, 1360.896
699.5330, 1217.961
700.6880, 1267.424
701.8440, 1287.154
702.9990, 1262.449
704.1550, 1170.840
705.3100, 1180.193
706.4650, 1418.119
707.6190, 1223.777
708.7740, 1370.115
709.9290, 1142.387
711.0830, 1230.652
712.2370, 1303.912
713.3910, 1280.162
714.5450, 1353.404
715.6980, 1320.264
716.8520, 1331.488
718.0050, 1339.701
719.1580, 1427.982
720.3110, 1362.238
721.4640, 1308.414
722.6170, 1140.578
723.7700, 1366.730
724.9220, 1251.867
726.0740, 1199.988
727.2260, 1238.096
728.3780, 1083.188
729.5300, 1183.262
730.6810, 910.3223
731.8330, 822.3633
732.9840, 896.3906
734.1350, 930.3984
735.2860, 742.0605
736.4370, 720.1074
737.5880, 661.0625
738.7380, 624.0000
739.8880, 663.9199
741.0390, 588.6074
742.1890, 553.6973
743.3380, 523.5586
744.4880, 441.4004
745.6380, 456.2207
746.7870, 463.0195
747.9360, 417.7988
749.0850, 395.5566
750.2340, 461.2910
751.3830, 270.4785
752.5310, 142.1680
753.6800, 153.8359
754.8280, 103.4805
755.9760, 157.1016
757.1240, 79.70117
758.2720, 85.27344
759.4190, 63.82227
760.5670, 18.34766
761.7140, 80.84570
762.8610, 55.68359
764.0080, 21.28125
765.1550, 82.92773
766.3020, 183.3398
767.4480, 26.41406
768.5950, 25.76953
769.7410, 78.07422
770.8870, 116.3906
772.0330, 54.45898
773.1780, 235.9609
774.3240, 76.75781
775.4690, 39.55078
776.6140, 84.93164
777.7590, 53.53516
778.9040, 91.03125
780.0490, 51.49414
781.1940, 25.92578
782.3380, 18.31836
783.4820, 47.66797
784.6260, 87.98242
785.7700, 19.73438
786.9140, 43.51758
788.0580, 80.62109
789.2010, 45.72461
790.3450, 110.7930
791.4880, 106.1738
792.6310, 106.7461
793.7730, 57.36719
794.9160, 19.96484
796.0590, 169.7285
797.2010, 31.42188
798.3430, 11.93359
799.4850, 106.5234
800.6270, 166.5449
801.7690, 107.3418
802.9100, 93.06055
804.0520, 87.91406
805.1930, 33.92969
806.3340, 94.85547
807.4750, 221.8965
808.6160, 94.11914
809.7560, 117.4570
810.8970, 10.07617
812.0370, 1.548828
813.1770, 93.95312
814.3170, 1.320313
815.4570, 54.38086
816.5960, 26.82031
817.7360, 8.964844
818.8750, 92.04297
820.0140, 6.078125
821.1530, 3.953125
822.2920, 145.9395
823.4310, 32.79492
824.5690, 83.59375
825.7070, 55.34766
826.8460, 28.95117
827.9840, 98.33789
829.1220, 27.15039
830.2590, 39.58008
831.3970, 107.9512
832.5340, 59.27930
833.6710, 39.44336
834.8080, 102.2617
835.9450, 62.20703
837.0820, 186.7402
838.2190, 122.6465
839.3550, 295.5098
840.4910, 204.3359
841.6270, 213.1230
842.7630, 47.86719
843.8990, 139.5586
845.0350, 216.2090
846.1700, 241.8184
847.3060, 322.7188
848.4410, 304.9219
849.5760, 347.4141
850.7100, 293.8691
851.8450, 103.2852
852.9800, 319.6582
854.1140, 433.9902
855.2480, 215.2832
856.3820, 218.5391
857.5160, 314.7539
858.6500, 426.9297
859.7830, 326.0684
860.9170, 394.1680
862.0500, 415.2324
863.1830, 335.2559
864.3160, 286.2402
865.4480, 292.1895
866.5810, 399.1016
867.7130, 277.9746
868.8460, 285.8496
869.9780, 307.6973
871.1100, 99.50977
872.2410, 219.2812
873.3730, 252.0156
874.5050, 395.7109
875.6360, 404.5039
876.7670, 406.9941
877.8980, 419.5820
879.0290, 366.1309
880.1590, 323.6426
881.2900, 341.1172
882.4200, 527.5527
883.5500, 323.9551
884.6800, 566.3184
885.8100, 524.6445
886.9400, 120.9375
888.0690, 425.1875
889.1990, 456.4004
890.3280, 448.5820
891.4570, 264.7266
892.5860, 430.8340
893.7140, 314.9199
894.8430, 385.0117
895.9710, 303.0918
897.1000, 509.9277
898.2280, 541.9355
899.3560, 396.4551
900.4830, 598.0039
901.6110, 399.5566
902.7380, 724.4258
903.8660, 590.2793
904.9930, 540.8047
906.1200, 854.1758
907.2460, 1019.102
908.3730, 975.8047
909.5000, 808.0234
910.6260, 1016.541
911.7520, 1149.875
912.8780, 1208.254
914.0040, 1178.545
915.1290, 1133.949
916.2550, 1295.145
917.3800, 1275.887
918.5050, 1242.199
919.6300, 1550.293
920.7550, 1411.531
921.8800, 1414.268
923.0040, 1504.414
924.1290, 1648.504
925.2530, 1741.578
926.3770, 1872.443
927.5010, 1982.287
928.6250, 2119.332
929.7480, 2169.064
930.8720, 2367.152
931.9950, 2374.361
933.1180, 2643.223
934.2410, 2442.572
935.3640, 2816.016
936.4860, 2995.180
937.6090, 3268.498
938.7310, 2980.713
939.8530, 3142.480
940.9750, 3125.287
942.0970, 3364.203
943.2180, 3322.082
944.3400, 3549.961
945.4610, 3505.324
946.5820, 3417.664
947.7030, 3565.436
948.8240, 3495.062
949.9450, 3697.727
951.0650, 3423.848
952.1860, 3451.811
953.3060, 3653.814
954.4260, 3616.295
955.5460, 3660.055
956.6650, 3861.146
957.7850, 4004.865
958.9040, 3956.869
960.0230, 4137.148
961.1420, 4233.859
962.2610, 3996.229
963.3800, 4140.213
964.4990, 4298.820
965.6170, 4525.906
966.7350, 4579.377
967.8530, 4314.949
968.9710, 4689.510
970.0890, 4534.109
971.2070, 4528.203
972.3240, 4683.895
973.4410, 4855.309
974.5580, 5031.143
975.6750, 5048.877
976.7920, 5158.637
977.9090, 5123.814
979.0250, 5544.250
980.1410, 5695.994
981.2580, 5420.795
982.3740, 5878.590
983.4890, 5824.377
984.6050, 6149.156
985.7200, 6006.934
986.8360, 6112.078
987.9510, 6008.846
989.0660, 5856.609
990.1810, 5614.289
991.2950, 5354.977
992.4100, 5096.705
993.5240, 4671.516
994.6390, 4551.299
995.7530, 4236.084
996.8660, 4063.863
997.9800, 3880.100
999.0940, 3630.592
1000.207, 3482.361
1001.320, 3343.129
1002.433, 3072.105
1003.546, 2937.111
1004.659, 2859.871
1005.772, 2431.051
1006.884, 2540.734
1007.996, 2294.572
1009.108, 2139.324
1010.220, 2246.072
1011.332, 2241.820
1012.444, 2068.635
1013.555, 2072.379
1014.666, 1990.121
1015.777, 1812.863
1016.888, 1840.605
1017.999, 1470.346
1019.110, 1442.109
1020.220, 1334.850
1021.331, 1049.115
1022.441, 1042.221
1023.551, 1002.961
1024.661, 838.7031
1025.770, 910.4453
1026.880, 680.2598
1027.989, 637.1934
1029.098, 699.1641
1030.207, 279.9102
1031.316, 482.7227
1032.425, 548.4688
1033.533, 427.2383
1034.642, 604.0234
1035.750, 323.8379
1036.858, 413.6523
1037.966, 608.4824
1039.073, 497.6484
1040.181, 630.5137
1041.288, 378.4219
1042.396, 618.4082
1043.503, 475.4121
1044.610, 506.4219
1045.716, 538.4551
1046.823, 661.5215
1047.929, 733.5938
1049.036, 551.6680
1050.142, 642.0449
1051.248, 693.2402
1052.353, 1009.584
1053.459, 945.6855
1054.564, 916.3340
1055.670, 1093.461
1056.775, 1070.615
1057.880, 1252.771
1058.985, 1460.938
1060.089, 1398.105
1061.194, 1473.320
1062.298, 1541.539
1063.402, 1735.172
1064.506, 1715.445
1065.610, 1861.766
1066.713, 1883.512
1067.817, 1699.879
1068.920, 1982.898
1070.023, 1732.260
1071.126, 1848.730
1072.229, 1828.301
1073.332, 1555.756
1074.435, 1706.352
1075.537, 1595.902
1076.639, 1598.215
1077.741, 1571.219
1078.843, 1559.609
1079.945, 1535.781
1081.046, 1508.391
1082.148, 1435.127
1083.249, 1395.879
1084.350, 1249.857
1085.451, 1383.998
1086.551, 1147.318
1087.652, 928.1406
1088.752, 1034.982
1089.853, 1036.779
1090.953, 611.6426
1092.053, 865.5195
1093.152, 662.6484
1094.252, 672.5410
1095.351, 606.8535
1096.451, 490.8203
1097.550, 529.7988
1098.649, 522.7891
1099.748, 328.7852
1100.846, 310.7949
1101.945, 407.8359
1103.043, 493.9258
1104.141, 438.0488
1105.239, 456.1758
1106.337, 214.4062
1107.434, 455.5430
1108.532, 161.8359
1109.629, 338.9766
1110.726, 322.1270
1111.823, 329.4512
1112.920, 356.6074
1114.017, 386.9004
1115.113, 253.9316
1116.210, 440.0957
1117.306, 440.2656
1118.402, 368.6719
1119.498, 584.8496
1120.593, 605.0293
1121.689, 506.2129
1122.784, 695.3945
1123.879, 618.5820
1124.974, 314.9277
1126.069, 441.1191
1127.164, 195.7695
1128.259, 220.9609
1129.353, 349.1562
1130.447, 1.646484
1131.541, 43.54883
1132.635, 44.74805
1133.729, 167.0547
1134.822, 55.40430
1135.916, 175.1895
1137.009, 31.68945
1138.102, 86.42773
1139.195, 18.54297
1140.288, 109.6582
1141.380, 197.7793
1142.473, 103.8965
1143.565, 26.01562
1144.657, 133.1367
1145.749, 128.3164
1146.841, 88.44922
1147.932, 60.58398
1149.024, 86.81055
1150.115, 43.65039
1151.206, 155.1855
1152.297, 53.33203
1153.388, 5.517578
1154.479, 107.6270
1155.569, 177.7734
1156.659, 57.91992
1157.750, 56.93164
1158.839, 153.8145
1159.929, 90.13867
1161.019, 81.35547
1162.108, 45.36914
1163.198, 147.3848
1164.287, 101.3984
1165.376, 130.1719
1166.465, 225.4277
1167.553, 79.44531
1168.642, 173.4629
1169.730, 0.4785160
1170.818, 184.4941
1171.906, 129.5078
1172.994, 58.52148
1174.082, 91.53516
1175.170, 178.5430
1176.257, 181.5547
1177.344, 75.60742
1178.431, 213.6602
1179.518, 195.7070
1180.605, 7.753906
1181.691, 125.2090
1182.778, 63.08203
1183.864, 103.6836
1184.950, 1.390625
1186.036, 162.5215
1187.122, 88.43359
1188.207, 89.34180
1189.292, 216.2461
1190.378, 354.1484
1191.463, 140.0449
1192.548, 172.9395
1193.632, 28.17188
1194.717, 185.6934
1195.801, 83.55273
1196.886, 36.40625
1197.970, 151.7461
1199.054, 125.7012
1200.137, 178.6875
1201.221, 35.64258
1202.305, 69.99414
1203.388, 310.6250
1204.471, 74.25000
1205.554, 95.86914
1206.637, 123.4414
1207.719, 18.09180
1208.802, 122.3867
1209.884, 24.05664
1210.966, 305.4883
1212.048, 295.9121
1213.130, 202.3301
1214.212, 62.95312
1215.293, 27.35547
1216.374, 12.09570
1217.456, 126.1523
1218.536, 146.5254
1219.617, 27.05469
1220.698, 210.2773
1221.778, 220.5996
1222.859, 54.91406
1223.939, 139.2188
1225.019, 23.76758
1226.099, 217.0527
1227.178, 350.3301
1228.258, 159.5996
1229.337, 165.8613
1230.417, 169.3281
1231.496, 166.5703
1232.574, 254.8066
1233.653, 265.0312
1234.732, 135.2480
1235.810, 99.45312
1236.888, 285.6621
1237.966, 86.84766
1239.044, 400.1973
1240.122, 260.3613
1241.199, 86.51562
1242.277, 195.6621
1243.354, 236.7988
1244.431, 159.9258
1245.508, 390.1465
1246.585, 225.7031
1247.661, 74.90234
1248.738, 135.0078
1249.814, 320.1016
1250.890, 178.1875
1251.966, 368.2578
1253.042, 302.3203
1254.117, 131.6289
1255.193, 199.3223
1256.268, 36.26367
1257.343, 164.1914
1258.418, 151.1055
1259.493, 207.0078
1260.567, 277.7227
1261.642, 262.6211
1262.716, 241.6230
1263.790, 300.6465
1264.864, 472.9043
1265.938, 234.7598
1267.011, 222.5078
1268.085, 434.3418
1269.158, 465.0801
1270.231, 248.8906
1271.304, 370.6914
1272.377, 213.4824
1273.450, 293.1934
