##NAMES=Thomsonite-Ca
##RRUFFID=R050091
##IDEAL CHEMISTRY=NaCa_2_(Al_5_Si_5_)O_20_&#183;6H_2_O
##LOCALITY=Amudikha River, near Mirny, Yakutia, Siberia, Russia
##OWNER=RRUFF
##SOURCE=Rock Currier
##DESCRIPTION=Radial groups of colorless bladed crystals
##STATUS=The identification of this mineral has been confirmed by X-ray diffraction and chemical analysis
##URL=rruff.info/R050091
##MEASURED CHEMISTRY=(Na_0.94_[box]_0.06_)_Σ=1_(Ca_1.71_Na_0.29_)_Σ=2_(Si_5.35_Al_4.65_)O_20_·7.09H_2_O
##PIN_ID=M00227
##ORIENTATION=Laser parallel to c* (0 0 1). Fiducial mark perpendicular to laser is parallel to a [1 0 0]
54.966, 0.000
56.365, 96.861
57.765, 172.288
59.164, 39.160
60.563, 43.940
61.962, 43.399
63.360, 76.463
64.758, 237.543
66.157, 657.680
67.554, 1086.357
68.952, 1837.551
70.349, 2768.738
71.747, 3829.681
73.144, 5061.353
74.540, 6130.898
75.937, 7385.551
77.333, 8477.629
78.729, 9591.519
80.125, 10102.552
81.521, 10465.700
82.916, 10713.367
84.311, 10702.640
85.706, 10610.168
87.101, 10338.590
88.496, 10167.639
89.890, 10089.301
91.284, 10186.417
92.678, 10559.722
94.071, 10769.980
95.465, 11296.996
96.858, 11513.595
98.251, 12029.598
99.644, 12306.839
101.036, 12218.198
102.428, 11932.578
103.820, 11464.896
105.212, 10915.088
106.604, 10690.097
107.995, 10959.110
109.387, 11602.421
110.777, 12245.534
112.168, 13476.546
113.559, 14136.340
114.949, 15057.348
116.339, 15896.570
117.729, 16470.012
119.119, 16121.672
120.508, 14819.721
121.897, 13128.578
123.286, 11789.605
124.675, 9902.964
126.063, 8523.438
127.452, 7356.847
128.840, 6253.202
130.228, 5460.515
131.615, 4728.798
133.003, 4321.061
134.390, 3939.311
135.777, 3693.560
137.164, 3568.811
138.550, 3518.984
139.937, 3423.818
141.323, 3452.337
142.709, 3387.639
144.094, 3294.829
145.480, 3171.957
146.865, 3045.065
148.250, 2920.185
149.635, 2851.345
151.019, 2892.562
152.403, 2810.856
153.788, 2937.238
155.171, 2878.719
156.555, 3044.310
157.939, 3201.014
159.322, 3354.837
160.705, 3671.943
162.088, 3912.483
163.470, 4347.220
164.853, 4726.170
166.235, 5439.856
167.617, 6173.533
168.998, 6924.552
170.380, 7990.186
171.761, 9495.558
173.142, 10840.098
174.523, 12854.795
175.904, 14723.651
177.284, 16374.661
178.664, 17751.814
180.044, 18012.121
181.424, 18129.562
182.803, 17273.152
184.183, 15860.873
185.562, 14235.512
186.940, 13087.540
188.319, 11788.363
189.698, 10884.246
191.076, 10112.342
192.454, 9824.325
193.831, 9444.129
195.209, 9127.803
196.586, 8838.247
197.963, 8203.824
199.340, 7582.529
200.717, 6827.362
202.093, 6228.321
203.470, 5569.402
204.846, 4994.600
206.221, 4716.905
207.597, 4474.307
208.972, 4465.808
210.347, 4322.402
211.722, 4365.091
213.097, 4611.874
214.472, 4780.748
215.846, 5270.714
217.220, 5651.773
218.594, 6199.922
219.967, 6473.160
221.341, 6587.749
222.714, 6610.916
224.087, 6287.146
225.460, 6003.485
226.832, 5435.144
228.204, 4958.049
229.577, 4280.562
230.948, 3730.839
232.320, 3110.802
233.692, 2514.386
235.063, 2147.532
236.434, 1699.192
237.805, 1408.323
239.175, 1162.887
240.545, 844.849
241.916, 798.180
243.286, 613.853
244.655, 504.844
246.025, 440.134
247.394, 354.703
248.763, 324.532
250.132, 264.605
251.501, 303.905
252.869, 278.419
254.237, 385.133
255.605, 381.036
256.973, 345.114
258.340, 353.357
259.708, 293.757
261.075, 128.304
262.442, 30.992
263.808, 53.188
265.175, 179.252
266.541, 189.231
267.907, 276.131
269.273, 231.978
270.639, 260.764
272.004, 374.502
273.369, 257.224
274.734, 278.913
276.099, 301.589
277.463, 205.266
278.828, 152.927
280.192, 146.562
281.556, 158.172
282.919, 68.761
284.283, 23.311
285.646, 66.186
287.009, 82.729
288.372, 119.311
289.734, 289.925
291.097, 292.570
292.459, 496.247
293.821, 530.957
295.183, 762.698
296.544, 980.472
297.905, 1013.279
299.266, 1228.118
300.627, 1281.990
301.988, 1237.894
303.348, 1122.832
304.709, 934.804
306.069, 839.813
307.428, 764.859
308.788, 490.944
310.147, 313.067
311.507, 276.234
312.865, 1.560
314.224, 119.304
315.583, 242.031
316.941, 238.771
318.299, 343.511
319.657, 358.277
321.015, 279.065
322.372, 339.858
323.729, 294.673
325.086, 271.574
326.443, 234.354
327.800, 150.867
329.156, 86.283
330.512, 33.858
331.868, 85.481
333.224, 150.786
334.579, 352.101
335.935, 381.485
337.290, 628.920
338.645, 711.397
339.999, 924.927
341.354, 1135.499
342.708, 1450.127
344.062, 1660.795
345.416, 1897.504
346.769, 2140.252
348.123, 2375.040
349.476, 2281.794
350.829, 2327.417
352.182, 2265.843
353.534, 2016.098
354.887, 1753.200
356.239, 1457.200
357.591, 1106.170
358.942, 957.184
360.294, 741.244
361.645, 592.350
362.996, 463.502
364.347, 385.699
365.698, 251.941
367.048, 204.228
368.398, 192.558
369.748, 172.933
371.098, 243.351
372.448, 297.813
373.797, 410.317
375.146, 558.864
376.495, 674.453
377.844, 765.084
379.192, 618.758
380.540, 643.472
381.889, 533.228
383.236, 407.024
384.584, 432.906
385.932, 345.874
387.279, 331.928
388.626, 366.068
389.973, 295.292
391.319, 345.590
392.666, 469.954
394.012, 495.380
395.358, 578.865
396.704, 745.406
398.049, 695.000
399.394, 694.645
400.740, 635.338
402.084, 700.079
403.429, 570.863
404.774, 582.690
406.118, 676.559
407.462, 648.467
408.806, 695.414
410.150, 787.398
411.493, 859.418
412.836, 1011.473
414.179, 1134.562
415.522, 1291.648
416.865, 1533.836
418.207, 1648.021
419.549, 1866.236
420.891, 2067.480
422.233, 2446.754
423.575, 2872.056
424.916, 3010.385
426.257, 3654.063
427.598, 4222.060
428.939, 4787.452
430.279, 5650.377
431.619, 6275.418
432.959, 7295.912
434.299, 8403.140
435.639, 9837.614
436.978, 10728.798
438.318, 12039.629
439.657, 12837.424
440.996, 13759.760
442.334, 13622.322
443.673, 13395.215
445.011, 12543.411
446.349, 11815.593
447.687, 10579.386
449.024, 9343.209
450.361, 8552.060
451.699, 7310.936
453.036, 6575.841
454.372, 5951.774
455.709, 5558.736
457.045, 5147.724
458.381, 5183.739
459.717, 5212.782
461.053, 5479.852
462.388, 6030.950
463.724, 6888.073
465.059, 8131.225
466.394, 9415.402
467.728, 11367.606
469.063, 13675.839
470.397, 15718.093
471.731, 17492.869
473.065, 18850.176
474.398, 18306.762
475.732, 17538.303
477.065, 15160.376
478.398, 13078.763
479.731, 11173.126
481.063, 9748.891
482.396, 8537.220
483.728, 7870.530
485.060, 7642.388
486.391, 7381.726
487.723, 7602.670
489.054, 7794.135
490.385, 8118.989
491.716, 8666.405
493.047, 8902.403
494.377, 9143.888
495.708, 8950.014
497.038, 8547.079
498.368, 7738.958
499.697, 6909.733
501.027, 6206.836
502.356, 5391.940
503.685, 4635.021
505.014, 4261.165
506.342, 3800.356
507.671, 3594.598
508.999, 3382.896
510.327, 3291.253
511.655, 3389.644
512.982, 3470.091
514.310, 3813.605
515.637, 4093.165
516.964, 4692.786
518.291, 5186.461
519.617, 6180.185
520.944, 7313.953
522.270, 8283.768
523.596, 10398.619
524.921, 12449.526
526.247, 15291.485
527.572, 18646.490
528.897, 22665.541
530.222, 27782.621
531.547, 32950.746
532.871, 38341.887
534.196, 42555.082
535.520, 45945.297
536.844, 47062.402
538.167, 47777.836
539.491, 45443.156
540.814, 41884.496
542.137, 37184.867
543.460, 32506.266
544.783, 28138.693
546.105, 23730.154
547.427, 20661.641
548.749, 17468.154
550.071, 14860.688
551.393, 12822.249
552.714, 11067.836
554.035, 9481.446
555.356, 8445.086
556.677, 7427.747
557.998, 6516.434
559.318, 5919.143
560.638, 5372.875
561.958, 4855.631
563.278, 4343.407
564.597, 4069.208
565.917, 3688.029
567.236, 3473.872
568.555, 3284.737
569.874, 2919.624
571.192, 2835.531
572.511, 2637.459
573.829, 2518.408
575.147, 2186.377
576.464, 2141.366
577.782, 2026.376
579.099, 1858.406
580.416, 1811.455
581.733, 1640.523
583.050, 1584.612
584.366, 1318.720
585.683, 1507.857
586.999, 1197.049
588.315, 1169.300
589.630, 1205.626
590.946, 1139.019
592.261, 1182.486
593.576, 1105.053
594.891, 1101.695
596.206, 1131.416
597.520, 1172.221
598.834, 1295.090
600.148, 1321.012
601.462, 1426.984
602.776, 1539.012
604.089, 1512.074
605.402, 1649.165
606.715, 1552.271
608.028, 1448.394
609.341, 1326.531
610.653, 990.685
611.965, 850.854
613.277, 617.038
614.589, 498.236
615.901, 433.449
617.212, 241.677
618.523, 295.919
619.834, 295.175
621.145, 258.446
622.456, 272.730
623.766, 173.027
625.076, 212.338
626.386, 119.663
627.696, 82.000
629.006, 0.349
630.315, 54.701
631.624, 90.934
632.933, 56.595
634.242, 61.239
635.551, 98.843
636.859, 111.424
638.167, 132.963
639.475, 138.327
640.783, 126.961
642.090, 129.421
643.398, 99.860
644.705, 76.269
646.012, 127.645
647.318, 91.751
648.625, 54.023
649.931, 99.632
651.237, 15.643
652.543, 76.795
653.849, 4.632
655.155, 57.050
656.460, 14.325
657.765, 40.681
659.070, 29.992
660.375, 73.288
661.679, 261.155
662.984, 277.210
664.288, 285.090
665.592, 306.183
666.895, 435.545
668.199, 437.282
669.502, 534.306
670.805, 561.240
672.108, 727.055
673.411, 715.849
674.713, 687.481
676.016, 815.264
677.318, 829.578
678.620, 927.082
679.921, 934.907
681.223, 1033.277
682.524, 1063.069
683.825, 1158.089
685.126, 1282.527
686.427, 1464.877
687.727, 1413.885
689.028, 1629.206
690.328, 1686.479
691.628, 1794.485
692.927, 1873.394
694.227, 2069.068
695.526, 2046.682
696.825, 2317.137
698.124, 2299.024
699.423, 2407.520
700.721, 2431.031
702.020, 2426.938
703.318, 2404.851
704.616, 2302.269
705.913, 2129.680
707.211, 2175.084
708.508, 2251.493
709.805, 2103.883
711.102, 1960.266
712.399, 2064.407
713.695, 1841.775
714.992, 2037.144
716.288, 1788.496
717.584, 1871.840
718.879, 1639.174
720.175, 1590.502
721.470, 1693.821
722.765, 1541.131
724.060, 1495.431
725.355, 1372.724
726.649, 1374.006
727.944, 1249.279
729.238, 1242.543
730.532, 1157.877
731.825, 1065.042
733.119, 1011.277
734.412, 822.502
735.705, 759.717
736.998, 719.922
738.291, 564.116
739.584, 621.300
740.876, 567.473
742.168, 569.635
743.460, 473.787
744.752, 391.926
746.043, 375.054
747.334, 441.170
748.626, 366.273
749.916, 367.363
751.207, 283.439
752.498, 347.501
753.788, 386.550
755.078, 272.583
756.368, 358.602
757.658, 310.605
758.947, 385.593
760.237, 376.564
761.526, 433.520
762.815, 487.459
764.104, 592.384
765.392, 602.291
766.680, 832.181
767.969, 872.055
769.257, 1100.913
770.544, 1147.753
771.832, 1349.578
773.119, 1442.385
774.406, 1407.175
775.693, 1425.948
776.980, 1203.704
778.267, 1272.442
779.553, 1085.163
780.839, 946.867
782.125, 887.553
783.411, 815.222
784.697, 718.383
785.982, 564.016
787.267, 591.974
788.552, 497.898
789.837, 396.506
791.122, 459.868
792.406, 404.447
793.690, 364.717
794.974, 299.627
796.258, 227.155
797.542, 295.491
798.825, 193.510
800.108, 235.861
801.391, 109.154
802.674, 130.498
803.957, 50.001
805.239, 3.224
806.522, 91.374
807.804, 41.659
809.085, 100.361
810.367, 1.424
811.649, 72.100
812.930, 61.119
814.211, 30.156
815.492, 87.175
816.772, 42.275
818.053, 39.435
819.333, 74.651
820.613, 78.943
821.893, 14.687
823.173, 57.710
824.452, 104.175
825.732, 22.731
827.011, 70.335
828.290, 52.012
829.568, 22.751
830.847, 15.539
832.125, 18.796
833.403, 8.248
834.681, 33.164
835.959, 56.133
837.236, 44.166
838.514, 26.745
839.791, 2.369
841.068, 54.481
842.345, 2.689
843.621, 34.104
844.898, 52.881
846.174, 2.637
847.450, 85.367
848.726, 98.080
850.001, 144.775
851.277, 58.455
852.552, 120.114
853.827, 114.758
855.102, 54.391
856.376, 53.007
857.651, 200.607
858.925, 222.198
860.199, 182.778
861.473, 125.343
862.746, 195.894
864.020, 252.436
865.293, 27.963
866.566, 190.472
867.839, 121.966
869.112, 163.457
870.384, 154.931
871.656, 199.404
872.928, 170.862
874.200, 215.305
875.472, 179.732
876.744, 182.145
878.015, 279.542
879.286, 214.926
880.557, 242.295
881.828, 272.649
883.098, 377.009
884.369, 301.360
885.639, 354.699
886.909, 462.024
888.178, 503.335
889.448, 443.632
890.717, 567.915
891.987, 490.184
893.256, 630.440
894.524, 594.687
895.793, 617.919
897.061, 651.137
898.330, 649.341
899.598, 800.531
900.865, 889.716
902.133, 899.887
903.401, 925.044
904.668, 1098.188
905.935, 1267.317
907.202, 1323.435
908.468, 1495.537
909.735, 1757.638
911.001, 2017.726
912.267, 2063.800
913.533, 2351.860
914.799, 2569.911
916.064, 2705.947
917.330, 2962.974
918.595, 3146.987
919.860, 3282.990
921.124, 3736.987
922.389, 3965.971
923.653, 4202.953
924.918, 4547.923
926.182, 4813.880
927.445, 5017.826
928.709, 5083.761
929.972, 5177.701
931.236, 5092.642
932.499, 5154.568
933.761, 5100.482
935.024, 4850.386
936.286, 4817.279
937.549, 4875.165
938.811, 4402.041
940.073, 4399.930
941.334, 4033.827
942.596, 3896.733
943.857, 3756.654
945.118, 3623.598
946.379, 3444.982
947.640, 3326.773
948.900, 3129.584
950.161, 3056.630
951.421, 3011.695
952.681, 2865.774
953.940, 2916.597
955.200, 2764.594
956.459, 2767.939
957.719, 2782.655
958.978, 2697.508
960.236, 2698.017
961.495, 2664.996
962.753, 2721.034
964.012, 2672.678
965.270, 2663.000
966.527, 2687.354
967.785, 2635.134
969.043, 2651.734
970.300, 2615.508
971.557, 2625.066
972.814, 2732.354
974.071, 2822.262
975.327, 3055.887
976.583, 3178.598
977.840, 3439.428
979.095, 3757.275
980.351, 3944.283
981.607, 4327.134
982.862, 4545.450
984.117, 4914.573
985.372, 5384.373
986.627, 5216.639
987.882, 5553.480
989.136, 5547.531
990.390, 5310.728
991.644, 5446.161
992.898, 5099.776
994.152, 4909.199
995.405, 4649.781
996.659, 4408.776
997.912, 4238.333
999.165, 3963.717
1000.417, 3807.723
1001.670, 3532.002
1002.922, 3493.699
1004.174, 3090.979
1005.426, 2985.537
1006.678, 2740.877
1007.930, 2677.409
1009.181, 2584.101
1010.432, 2530.438
1011.683, 2513.749
1012.934, 2458.166
1014.185, 2423.034
1015.435, 2394.920
1016.685, 2357.661
1017.935, 2345.063
1019.185, 2350.554
1020.435, 2350.717
1021.684, 2080.123
1022.934, 1936.312
1024.183, 1949.470
1025.432, 1708.760
1026.680, 1630.915
1027.929, 1453.208
1029.177, 1353.603
1030.425, 1202.752
1031.673, 1125.574
1032.921, 1061.166
1034.169, 997.255
1035.416, 980.361
1036.663, 918.525
1037.911, 927.912
1039.157, 943.052
1040.404, 873.524
1041.650, 966.872
1042.897, 937.438
1044.143, 894.364
1045.389, 965.678
1046.634, 995.842
1047.880, 898.091
1049.125, 996.438
1050.371, 875.375
1051.615, 1131.632
1052.860, 988.765
1054.105, 1134.190
1055.349, 1167.321
1056.593, 1189.705
1057.837, 1209.853
1059.081, 1268.472
1060.325, 1391.817
1061.568, 1397.938
1062.812, 1494.057
1064.055, 1599.746
1065.298, 1521.010
1066.540, 1645.571
1067.783, 1653.045
1069.025, 1659.415
1070.267, 1860.456
1071.509, 1814.560
1072.751, 1877.090
1073.993, 1946.279
1075.234, 2024.601
1076.475, 2177.913
1077.716, 2239.351
1078.957, 2225.323
1080.198, 2160.285
1081.438, 2338.526
1082.679, 2324.607
1083.919, 2346.900
1085.159, 2283.142
1086.398, 2201.445
1087.638, 2099.864
1088.877, 2021.733
1090.116, 1906.134
1091.355, 1815.392
1092.594, 1688.511
1093.833, 1573.112
1095.071, 1450.660
1096.309, 1323.710
1097.547, 1203.970
1098.785, 1112.987
1100.023, 1021.048
1101.260, 949.118
1102.498, 888.311
1103.735, 822.927
1104.972, 810.185
1106.208, 699.243
1107.445, 613.050
1108.681, 567.116
1109.918, 570.381
1111.154, 512.694
1112.389, 441.873
1113.625, 412.490
1114.860, 373.004
1116.096, 324.143
1117.331, 245.650
1118.566, 202.151
1119.800, 242.300
1121.035, 282.710
1122.269, 254.425
1123.503, 341.669
1124.737, 241.391
1125.971, 257.177
1127.205, 226.694
1128.438, 82.313
1129.671, 152.637
1130.904, 93.018
1132.137, 80.659
1133.370, 98.967
1134.602, 91.001
1135.834, 47.324
1137.066, 14.286
1138.298, 119.016
1139.530, 1.533
1140.762, 106.034
1141.993, 8.463
1143.224, 31.923
1144.455, 10.324
1145.686, 22.762
1146.917, 11.168
1148.147, 39.278
1149.377, 11.559
1150.607, 60.967
1151.837, 1.995
1153.067, 33.523
1154.296, 12.844
1155.526, 17.398
1156.755, 30.929
1157.984, 22.772
1159.213, 25.674
1160.441, 2.168
1161.670, 27.270
1162.898, 46.098
1164.126, 22.589
1165.354, 7.541
1166.581, 40.313
1167.809, 103.879
1169.036, 54.001
1170.263, 59.982
1171.490, 71.954
1172.717, 37.033
1173.943, 85.035
1175.170, 36.973
1176.396, 12.953
1177.622, 112.865
1178.848, 34.817
1180.073, 77.913
1181.299, 12.080
1182.524, 12.154
1183.749, 70.638
1184.974, 17.580
1186.199, 103.803
1187.423, 7.809
1188.648, 28.729
1189.872, 1.455
1191.096, 6.177
1192.320, 40.877
1193.543, 76.672
1194.767, 58.269
1195.990, 35.095
1197.213, 22.051
1198.436, 57.556
1199.659, 99.167
1200.881, 21.208
1202.104, 110.853
1203.326, 28.563
1204.548, 85.167
1205.770, 31.239
1206.991, 46.284
1208.213, 116.760
1209.434, 116.223
1210.655, 2.837
1211.876, 58.268
1213.096, 8.685
1214.317, 19.370
1215.537, 33.753
1216.757, 18.817
1217.977, 111.629
1219.197, 26.037
1220.417, 77.304
1221.636, 45.588
1222.855, 47.857
1224.074, 26.112
1225.293, 47.650
1226.512, 31.299
1227.731, 65.047
1228.949, 105.396
1230.167, 52.720
1231.385, 64.931
1232.603, 50.025
1233.820, 30.105
1235.038, 74.835
1236.255, 120.882
1237.472, 61.101
1238.689, 94.117
1239.906, 100.116
1241.122, 108.100
1242.338, 115.072
1243.555, 59.034
1244.771, 111.120
1245.986, 152.058
1247.202, 102.980
1248.417, 72.889
1249.633, 113.782
1250.848, 7.690
1252.063, 104.544
1253.277, 9.362
1254.492, 104.468
1255.706, 61.249
1256.920, 49.011
1258.134, 82.756
1259.348, 17.488
1260.562, 31.202
1261.775, 41.946
1262.988, 15.316
1264.201, 40.509
1265.414, 124.095
1266.627, 62.760
1267.839, 23.300
1269.052, 7.822
1270.264, 25.327
1271.476, 21.912
1272.688, 58.205
1273.899, 45.597
1275.111, 113.968
1276.322, 102.321
1277.533, 47.656
1278.744, 179.973
1279.955, 49.727
1281.165, 151.536
1282.376, 111.781
1283.586, 21.289
1284.796, 82.907
1286.006, 86.931
1287.215, 103.086
1288.425, 59.100
1289.634, 57.962
1290.843, 64.898
1292.052, 10.908
1293.261, 86.672
1294.469, 152.661
1295.678, 91.511
1296.886, 17.483
1298.094, 70.239
1299.302, 77.322
1300.509, 68.908
1301.717, 58.915
1302.924, 11.769
1304.131, 135.883
1305.338, 45.542
1306.545, 36.063
1307.752, 58.376
1308.958, 69.045
1310.164, 107.521
1311.370, 100.839
1312.576, 80.320
1313.782, 94.978
1314.987, 121.374
1316.193, 124.296
1317.398, 87.566
1318.603, 103.018
1319.807, 142.584
1321.012, 102.990
1322.216, 124.274
1323.421, 103.786
1324.625, 37.118
1325.829, 117.629
1327.032, 84.139
1328.236, 119.612
1329.439, 72.010
1330.642, 23.166
1331.845, 50.552
1333.048, 67.587
1334.251, 163.730
1335.453, 7.365
1336.656, 34.162
1337.858, 81.285
1339.060, 4.536
1340.261, 67.686
1341.463, 57.720
1342.664, 114.148
1343.866, 104.241
1345.067, 21.531
1346.267, 89.421
1347.468, 70.591
1348.669, 92.491
1349.869, 91.612
1351.069, 98.212
1352.269, 137.138
1353.469, 167.241
1354.668, 66.331
1355.868, 106.836
1357.067, 168.753
1358.266, 40.423
1359.465, 145.103
1360.664, 93.713
1361.862, 80.975
1363.061, 153.989
1364.259, 92.564
1365.457, 149.468
1366.655, 161.270
1367.852, 129.030
1369.050, 103.655
1370.247, 60.737
1371.444, 50.555
1372.641, 46.405
1373.838, 48.513
1375.035, 72.124
1376.231, 104.462
1377.427, 143.015
1378.623, 5.536
1379.819, 112.135
1381.015, 51.731
1382.211, 191.049
1383.406, 121.409
1384.601, 167.714
1385.796, 173.334
1386.991, 107.713
1388.185, 63.243
1389.380, 105.613
1390.574, 122.219
1391.768, 124.826
1392.962, 109.727
1394.156, 88.389
1395.350, 88.920
1396.543, 150.218
1397.736, 26.202
1398.929, 142.675
1400.122, 108.667
1401.315, 93.106
1402.507, 90.069
1403.700, 162.750
1404.892, 41.286
1406.084, 87.708
1407.276, 28.215
1408.467, 123.644
1409.659, 56.857
1410.850, 168.690
1412.041, 138.297
1413.232, 74.805
1414.423, 125.092
1415.614, 61.482
1416.804, 70.628
1417.994, 127.303
1419.184, 201.504
1420.374, 161.733
1421.564, 153.152
1422.753, 95.533
1423.943, 129.973
1425.132, 77.387
1426.321, 28.238
1427.510, 85.574
1428.698, 138.831
1429.887, 177.257
1431.075, 135.422
1432.263, 107.799
1433.451, 7.559
1434.639, 145.269
1435.827, 117.552
1437.014, 113.984
1438.201, 204.878
1439.388, 209.952
1440.575, 159.180
1441.762, 157.109
1442.949, 275.811
1444.135, 239.864
1445.321, 317.819
1446.507, 359.879
1447.693, 235.990
1448.879, 248.815
1450.064, 293.228
1451.250, 311.784
1452.435, 267.871
1453.620, 434.643
1454.805, 336.301
1455.989, 376.308
1457.174, 309.267
1458.358, 337.887
1459.542, 383.751
1460.726, 388.518
1461.910, 291.389
1463.093, 345.598
1464.277, 177.472
1465.460, 215.307
1466.643, 238.825
1467.826, 148.221
1469.009, 271.913
1470.191, 185.828
1471.373, 118.902
