##NAMES=Thomsonite-Ca
##RRUFFID=R050103
##IDEAL CHEMISTRY=NaCa_2_(Al_5_Si_5_)O_20_&#183;6H_2_O
##LOCALITY=Seeberg, Bohemia, Czech Republic
##OWNER=RRUFF
##SOURCE=Rock Currier
##DESCRIPTION=Colorless prismatic crystals
##STATUS=The identification of this mineral has been confirmed by X-ray diffraction and chemical analysis
##URL=rruff.info/R050103
##MEASURED CHEMISTRY=Na_1.00_(Ca_0.92_Sr_0.08_)_2_(Al_5.00_Si_5.00_)O_20_Â·6H_2_O
##PIN_ID=M00072
##ORIENTATION=Laser parallel to a* (1 0 0). Fiducial mark perpendicular to laser is parallel to b [0 1 0]
93.48000, 0.0000000E+00
94.71400, 122.8125
95.94800, 629.3340
97.18200, 1025.266
98.41600, 1621.090
99.64900, 1985.293
100.8830, 1912.891
102.1160, 2034.896
103.3490, 2305.002
104.5820, 2940.162
105.8150, 3680.363
107.0470, 4719.094
108.2800, 4889.129
109.5120, 5318.838
110.7440, 6320.352
111.9760, 8309.043
113.2080, 10334.86
114.4400, 10939.29
115.6710, 11788.29
116.9030, 12380.52
118.1340, 14052.28
119.3650, 12113.15
120.5960, 13475.87
121.8270, 8336.332
123.0580, 6327.031
124.2880, 4901.996
125.5190, 3745.943
126.7490, 2829.883
127.9790, 2158.705
129.2090, 1538.508
130.4390, 808.9277
131.6680, 663.4277
132.8980, 335.7910
134.1270, 3.285156
135.3560, 28.97266
136.5850, 86.33789
137.8140, 60.32422
139.0430, 78.13281
140.2710, 132.5293
141.5000, 151.8945
142.7280, 224.2676
143.9560, 175.8984
145.1840, 125.9258
146.4120, 244.2637
147.6390, 239.7461
148.8670, 59.04688
150.0940, 43.56055
151.3210, 181.0391
152.5490, 230.9512
153.7750, 377.9648
155.0020, 547.9590
156.2290, 885.9531
157.4550, 1266.996
158.6810, 1363.135
159.9080, 1752.410
161.1340, 2074.869
162.3590, 2627.613
163.5850, 3048.799
164.8110, 3590.869
166.0360, 4330.324
167.2610, 5238.838
168.4860, 6350.754
169.7110, 7588.512
170.9360, 8720.006
172.1610, 10016.10
173.3850, 11404.02
174.6100, 12830.57
175.8340, 13972.27
177.0580, 14749.89
178.2820, 15049.84
179.5050, 15298.64
180.7290, 14826.44
181.9520, 13781.01
183.1760, 12907.94
184.3990, 11875.20
185.6220, 10843.64
186.8450, 9624.861
188.0670, 9041.424
189.2900, 8436.107
190.5120, 7853.192
191.7340, 7838.479
192.9560, 7356.418
194.1780, 7003.840
195.4000, 6627.066
196.6220, 6156.148
197.8430, 5715.131
199.0640, 5348.805
200.2860, 4673.727
201.5070, 4105.576
202.7270, 3861.332
203.9480, 3581.204
205.1690, 3332.957
206.3890, 3140.442
207.6090, 3235.057
208.8290, 3450.293
210.0490, 3707.439
211.2690, 3721.394
212.4890, 4095.167
213.7080, 4230.187
214.9280, 4716.680
216.1470, 4933.842
217.3660, 5214.888
218.5850, 5202.816
219.8030, 5426.633
221.0220, 5283.336
222.2400, 5024.926
223.4590, 4641.406
224.6770, 4378.771
225.8950, 3756.027
227.1120, 3212.174
228.3300, 2773.150
229.5480, 2171.023
230.7650, 1919.076
231.9820, 1462.338
233.1990, 928.0078
234.4160, 963.9141
235.6330, 567.2754
236.8490, 513.5391
238.0660, 392.6875
239.2820, 169.7012
240.4980, 88.18164
241.7140, 55.22070
242.9300, 145.1328
244.1460, 94.91211
245.3610, 24.83398
246.5770, 169.0625
247.7920, 41.77930
249.0070, 28.97266
250.2220, 43.19336
251.4370, 25.82031
252.6510, 21.76172
253.8660, 77.91211
255.0800, 142.2910
256.2940, 281.9883
257.5080, 221.8867
258.7220, 256.6348
259.9360, 87.60352
261.1490, 70.70898
262.3630, 89.05664
263.5760, 122.7910
264.7890, 241.9043
266.0020, 174.2188
267.2150, 129.8945
268.4270, 247.2129
269.6400, 137.9297
270.8520, 220.9395
272.0640, 234.1895
273.2760, 0.3242190
274.4880, 1260.666
275.7000, 1234.879
276.9120, 1086.957
278.1230, 343.2695
279.3340, 139.0234
280.5450, 171.5918
281.7560, 99.35156
282.9670, 210.0977
284.1780, 299.0020
285.3880, 324.0332
286.5980, 419.7148
287.8090, 585.8672
289.0190, 693.1836
290.2290, 597.2656
291.4380, 717.2344
292.6480, 874.5449
293.8570, 1116.930
295.0670, 1271.459
296.2760, 1289.596
297.4850, 1226.758
298.6930, 1342.174
299.9020, 1382.609
301.1110, 1140.596
302.3190, 1228.848
303.5270, 809.1777
304.7350, 927.3770
305.9430, 749.4473
307.1510, 518.3926
308.3580, 431.2070
309.5660, 401.8887
310.7730, 80.41992
311.9800, 21.76953
313.1870, 121.8926
314.3940, 1.605469
315.6010, 178.0488
316.8070, 125.1523
318.0130, 113.5547
319.2200, 75.25781
320.4260, 107.1934
321.6310, 36.34180
322.8370, 22.30469
324.0430, 107.3379
325.2480, 87.55273
326.4540, 263.0488
327.6590, 206.1270
328.8640, 292.7754
330.0680, 330.2695
331.2730, 496.6895
332.4780, 596.5508
333.6820, 749.2070
334.8860, 873.1621
336.0900, 1080.102
337.2940, 1220.959
338.4980, 1367.746
339.7010, 1621.482
340.9050, 1878.168
342.1080, 1970.807
343.3110, 2132.398
344.5140, 2266.436
345.7170, 2408.438
346.9200, 2463.865
348.1220, 2424.215
349.3240, 2461.508
350.5270, 2232.715
351.7290, 1883.799
352.9310, 1708.791
354.1320, 1498.730
355.3340, 1284.594
356.5350, 1020.406
357.7370, 909.2129
358.9380, 645.9922
360.1390, 590.7383
361.3400, 464.4707
362.5400, 566.1738
363.7410, 233.8691
364.9410, 165.5332
366.1410, 312.1562
367.3410, 301.7461
368.5410, 292.3125
369.7410, 554.8438
370.9400, 618.3457
372.1400, 463.8223
373.3390, 773.2637
374.5380, 866.6680
375.7370, 896.0332
376.9360, 615.3613
378.1350, 712.6426
379.3330, 665.0781
380.5310, 703.8594
381.7300, 576.4219
382.9280, 564.3418
384.1260, 549.2188
385.3230, 447.6055
386.5210, 479.5898
387.7180, 542.7598
388.9160, 560.9023
390.1130, 666.2539
391.3100, 796.3613
392.5060, 762.2715
393.7030, 851.3066
394.9000, 896.8496
396.0960, 779.3789
397.2920, 888.5293
398.4880, 788.9102
399.6840, 667.6074
400.8800, 645.8262
402.0750, 601.3789
403.2710, 479.1992
404.4660, 635.3164
405.6610, 560.8223
406.8560, 665.1816
408.0510, 653.3691
409.2450, 700.0527
410.4400, 794.2266
411.6340, 829.0234
412.8280, 974.1621
414.0220, 995.4941
415.2160, 1061.666
416.4100, 1214.059
417.6030, 1517.229
418.7970, 1528.977
419.9900, 1953.686
421.1830, 2167.043
422.3760, 2728.035
423.5690, 3062.082
424.7610, 3436.609
425.9540, 4158.180
427.1460, 4637.176
428.3380, 5472.016
429.5300, 6084.098
430.7220, 6933.861
431.9140, 7696.439
433.1050, 8929.621
434.2970, 9798.539
435.4880, 10435.07
436.6790, 11227.42
437.8700, 11478.41
439.0610, 11905.44
440.2510, 11629.46
441.4420, 11534.48
442.6320, 10806.49
443.8220, 9820.496
445.0120, 8893.484
446.2020, 7980.455
447.3910, 7158.867
448.5810, 6347.777
449.7700, 5609.945
450.9600, 5133.148
452.1490, 4658.994
453.3370, 4261.719
454.5260, 4273.674
455.7150, 4270.164
456.9030, 4207.520
458.0910, 4860.789
459.2800, 5199.699
460.4670, 5760.051
461.6550, 6691.252
462.8430, 7907.980
464.0300, 9395.836
465.2180, 10737.13
466.4050, 12290.99
467.5920, 13643.29
468.7790, 15061.85
469.9650, 15918.37
471.1520, 16376.69
472.3380, 16169.42
473.5250, 15316.35
474.7110, 13827.02
475.8970, 12410.15
477.0820, 10631.97
478.2680, 9352.973
479.4540, 8086.086
480.6390, 7318.119
481.8240, 6910.170
483.0090, 6794.234
484.1940, 6779.316
485.3780, 6506.414
486.5630, 6684.527
487.7470, 7232.656
488.9320, 7259.805
490.1160, 7237.988
491.3000, 7635.395
492.4830, 7569.738
493.6670, 7162.695
494.8500, 7062.711
496.0340, 6526.109
497.2170, 6037.949
498.4000, 5447.922
499.5820, 4767.016
500.7650, 4306.111
501.9480, 3666.205
503.1300, 3287.301
504.3120, 3102.916
505.4940, 2767.965
506.6760, 2691.641
507.8580, 2724.213
509.0390, 2752.443
510.2210, 2874.066
511.4020, 3154.305
512.5830, 3427.688
513.7640, 4126.195
514.9450, 4596.289
516.1250, 5166.836
517.3060, 6174.402
518.4860, 7156.002
519.6660, 8437.637
520.8460, 10053.32
522.0260, 12463.09
523.2060, 14851.92
524.3850, 17682.83
525.5650, 20845.48
526.7440, 24296.50
527.9230, 28274.43
529.1020, 32371.62
530.2810, 35929.97
531.4590, 39168.43
532.6380, 41475.98
533.8160, 42760.64
534.9940, 42822.41
536.1720, 42059.26
537.3500, 40024.23
538.5270, 37345.27
539.7050, 33950.44
540.8820, 30420.68
542.0590, 26625.98
543.2360, 22914.34
544.4130, 20070.74
545.5900, 17362.23
546.7660, 14973.82
547.9430, 13044.49
549.1190, 11041.28
550.2950, 9774.189
551.4710, 8542.242
552.6470, 7478.424
553.8220, 6704.721
554.9980, 6161.164
556.1730, 5379.723
557.3480, 4854.420
558.5230, 4438.254
559.6980, 4046.164
560.8730, 3762.107
562.0470, 3605.082
563.2220, 3268.215
564.3960, 3009.176
565.5700, 2740.295
566.7440, 2704.469
567.9170, 2444.719
569.0910, 2376.020
570.2640, 2410.365
571.4380, 1980.758
572.6110, 1933.191
573.7840, 1906.680
574.9570, 1586.203
576.1290, 1572.762
577.3020, 1355.355
578.4740, 1449.975
579.6460, 1335.623
580.8180, 1256.297
581.9900, 1258.996
583.1620, 1169.301
584.3330, 1132.303
585.5040, 1086.246
586.6760, 972.0527
587.8470, 956.8809
589.0180, 745.7363
590.1880, 785.6191
591.3590, 599.5312
592.5290, 819.4746
593.7000, 715.4512
594.8700, 1148.465
596.0400, 887.5156
597.2090, 953.6152
598.3790, 1321.754
599.5490, 1252.936
600.7180, 1170.211
601.8870, 1165.562
603.0560, 1357.986
604.2250, 1217.473
605.3940, 1270.312
606.5620, 933.1895
607.7300, 777.6348
608.8990, 487.3242
610.0670, 492.5293
611.2350, 522.5781
612.4020, 320.9922
613.5700, 434.9961
614.7370, 265.0273
615.9050, 152.1113
617.0720, 55.32031
618.2390, 84.35742
619.4060, 2.669922
620.5720, 76.32031
621.7390, 19.33008
622.9050, 254.9629
624.0710, 373.0137
625.2370, 388.0820
626.4030, 214.1680
627.5690, 139.2734
628.7340, 10.40039
629.9000, 6.542969
631.0650, 219.2949
632.2300, 343.1934
633.3950, 263.2031
634.5600, 299.2949
635.7240, 212.4844
636.8890, 199.7285
638.0530, 87.02344
639.2170, 257.3301
640.3810, 112.7168
641.5450, 28.12305
642.7080, 114.5215
643.8720, 32.94141
645.0350, 157.3535
646.1980, 29.80273
647.3610, 96.76172
648.5240, 13.34375
649.6870, 72.05078
650.8490, 67.54883
652.0120, 26.16797
653.1740, 128.8535
654.3360, 69.50195
655.4980, 187.2422
656.6600, 64.98047
657.8210, 97.38086
658.9830, 109.9043
660.1440, 116.0059
661.3050, 108.5859
662.4660, 226.1543
663.6270, 184.6934
664.7870, 8.138672
665.9480, 244.7227
667.1080, 277.1445
668.2680, 146.9414
669.4280, 278.1582
670.5880, 366.2695
671.7480, 435.5566
672.9070, 575.4707
674.0670, 462.3887
675.2260, 653.6035
676.3850, 682.4180
677.5440, 693.3516
678.7030, 784.5527
679.8610, 615.6992
681.0200, 823.0117
682.1780, 901.2852
683.3360, 890.1348
684.4940, 1095.980
685.6520, 1259.941
686.8090, 1126.127
687.9670, 1243.945
689.1240, 1440.467
690.2810, 1894.871
691.4380, 1766.781
692.5950, 1881.756
693.7520, 1878.539
694.9080, 1910.709
696.0650, 1931.678
697.2210, 2016.381
698.3770, 2015.381
699.5330, 2071.088
700.6880, 2045.385
701.8440, 1930.961
702.9990, 1927.602
704.1550, 1964.287
705.3100, 2095.898
706.4650, 1934.408
707.6190, 1840.986
708.7740, 1621.902
709.9290, 1671.723
711.0830, 1690.252
712.2370, 1835.107
713.3910, 1427.631
714.5450, 1477.109
715.6980, 1530.570
716.8520, 1616.014
718.0050, 1422.438
719.1580, 1431.842
720.3110, 1316.229
721.4640, 1407.596
722.6170, 1238.941
723.7700, 1001.270
724.9220, 1299.578
726.0740, 1110.865
727.2260, 991.1309
728.3780, 850.3770
729.5300, 831.6035
730.6810, 724.8086
731.8330, 638.3594
732.9840, 560.1523
734.1350, 518.2910
735.2860, 538.4102
736.4370, 602.5039
737.5880, 173.5762
738.7380, 477.6270
739.8880, 210.6543
741.0390, 332.6562
742.1890, 211.6348
743.3380, 50.58984
744.4880, 77.49609
745.6380, 42.63672
746.7870, 3.138672
747.9360, 12.64258
749.0850, 82.47461
750.2340, 74.06836
751.3830, 151.6211
752.5310, 153.1426
753.6800, 149.2773
754.8280, 130.1055
755.9760, 174.5391
757.1240, 234.9473
758.2720, 366.2305
759.4190, 391.5840
760.5670, 116.9082
761.7140, 347.1953
762.8610, 502.4570
764.0080, 612.6895
765.1550, 869.8945
766.3020, 835.0703
767.4480, 927.2148
768.5950, 1155.312
769.7410, 1051.176
770.8870, 1501.088
772.0330, 1206.379
773.1780, 1218.598
774.3240, 1112.424
775.4690, 904.8027
776.6140, 1148.037
777.7590, 979.1445
778.9040, 779.2422
780.0490, 501.3301
781.1940, 554.2266
782.3380, 178.0977
783.4820, 428.9805
784.6260, 340.8672
785.7700, 379.5918
786.9140, 354.2930
788.0580, 185.5742
789.2010, 290.2246
790.3450, 133.8496
791.4880, 200.4512
792.6310, 130.0234
793.7730, 38.57227
794.9160, 21.18359
796.0590, 18.44922
797.2010, 51.04688
798.3430, 157.7227
799.4850, 77.53711
800.6270, 124.4492
801.7690, 70.47852
802.9100, 130.7148
804.0520, 122.4375
805.1930, 43.29297
806.3340, 71.01367
807.4750, 37.41211
808.6160, 29.11328
809.7560, 129.5977
810.8970, 97.94531
812.0370, 31.40430
813.1770, 112.2852
814.3170, 39.91016
815.4570, 182.9336
816.5960, 37.92578
817.7360, 68.00586
818.8750, 28.90430
820.0140, 144.7637
821.1530, 114.4043
822.2920, 84.68945
823.4310, 9.070313
824.5690, 35.51172
825.7070, 52.97656
826.8460, 58.05078
827.9840, 35.85352
829.1220, 100.2344
830.2590, 38.58984
831.3970, 67.91016
832.5340, 92.76758
833.6710, 166.4590
834.8080, 120.6934
835.9450, 101.9023
837.0820, 54.08398
838.2190, 22.76758
839.3550, 344.3203
840.4910, 133.3828
841.6270, 247.4180
842.7630, 40.57031
843.8990, 251.3711
845.0350, 68.28711
846.1700, 79.17383
847.3060, 205.0352
848.4410, 34.12695
849.5760, 134.6426
850.7100, 177.3906
851.8450, 222.1133
852.9800, 358.8125
854.1140, 538.4883
855.2480, 232.1387
856.3820, 473.7676
857.5160, 441.3730
858.6500, 261.9531
859.7830, 579.5137
860.9170, 524.0469
862.0500, 549.5605
863.1830, 277.0586
864.3160, 426.5332
865.4480, 650.9883
866.5810, 312.4180
867.7130, 243.8262
868.8460, 133.2207
869.9780, 419.6016
871.1100, 229.9746
872.2410, 258.3359
873.3730, 367.6855
874.5050, 281.0137
875.6360, 180.3203
876.7670, 211.6055
877.8980, 176.7285
879.0290, 214.1055
880.1590, 251.0762
881.2900, 295.0488
882.4200, 416.4980
883.5500, 393.7461
884.6800, 401.4961
885.8100, 388.4180
886.9400, 297.9902
888.0690, 336.9863
889.1990, 360.9746
890.3280, 193.9219
891.4570, 485.7500
892.5860, 607.7539
893.7140, 618.8281
894.8430, 485.8887
895.9710, 522.9297
897.1000, 545.3555
898.2280, 759.3770
899.3560, 647.3848
900.4830, 758.3770
901.6110, 871.3516
902.7380, 646.3125
903.8660, 1159.262
904.9930, 1091.199
906.1200, 1275.160
907.2460, 1181.176
908.3730, 1450.230
909.5000, 1522.354
910.6260, 1595.498
911.7520, 1837.672
912.8780, 1825.844
914.0040, 2027.070
915.1290, 2358.320
916.2550, 2473.586
917.3800, 2681.857
918.5050, 2846.121
919.6300, 3013.400
920.7550, 3201.680
921.8800, 3356.947
923.0040, 3745.205
924.1290, 3973.459
925.2530, 4238.703
926.3770, 4439.889
927.5010, 4477.111
928.6250, 4508.246
929.7480, 4765.383
930.8720, 4602.873
931.9950, 4832.992
933.1180, 4772.074
934.2410, 4724.434
935.3640, 4476.801
936.4860, 4242.199
937.6090, 4181.973
938.7310, 3988.047
939.8530, 3850.562
940.9750, 3584.705
942.0970, 3219.432
943.2180, 3185.258
944.3400, 3027.912
945.4610, 2722.949
946.5820, 2881.980
947.7030, 2643.713
948.8240, 2652.848
949.9450, 2623.861
951.0650, 2427.422
952.1860, 2335.396
953.3060, 2188.023
954.4260, 2172.686
955.5460, 2163.768
956.6650, 2221.850
957.7850, 2164.816
958.9040, 1980.553
960.0230, 2122.652
961.1420, 2171.045
962.2610, 1964.555
963.3800, 2103.549
964.4990, 2010.473
965.6170, 1909.592
966.7350, 1958.316
967.8530, 2015.236
968.9710, 2197.428
970.0890, 2358.496
971.2070, 2244.488
972.3240, 2464.062
973.4410, 2506.348
974.5580, 2439.559
975.6750, 3065.711
976.7920, 3120.936
977.9090, 3428.248
979.0250, 3824.480
980.1410, 4082.371
981.2580, 4247.344
982.3740, 4299.596
983.4890, 4585.512
984.6050, 4666.748
985.7200, 4751.020
986.8360, 4904.297
987.9510, 4691.584
989.0660, 4615.877
990.1810, 4619.178
991.2950, 4354.484
992.4100, 4171.799
993.5240, 3907.121
994.6390, 3708.453
995.7530, 3556.795
996.8660, 3329.098
997.9800, 2926.453
999.0940, 3006.818
1000.207, 3200.191
1001.320, 3029.574
1002.433, 2633.736
1003.546, 2619.531
1004.659, 2273.342
1005.772, 2250.932
1006.884, 1942.822
1007.996, 1937.256
1009.108, 1880.699
1010.220, 1944.150
1011.332, 1829.609
1012.444, 1814.852
1013.555, 1945.330
1014.666, 1624.445
1015.777, 1718.346
1016.888, 1758.904
1017.999, 1722.496
1019.110, 1673.037
1020.220, 1640.754
1021.331, 1431.408
1022.441, 1392.098
1023.551, 1211.773
1024.661, 1196.459
1025.770, 1139.156
1026.880, 1002.924
1027.989, 1008.582
1029.098, 815.3086
1030.207, 684.7188
1031.316, 669.5449
1032.425, 659.3066
1033.533, 509.0801
1034.642, 578.8613
1035.750, 548.6543
1036.858, 443.4492
1037.966, 712.2676
1039.073, 663.3164
1040.181, 537.7188
1041.288, 580.7422
1042.396, 498.8828
1043.503, 357.8613
1044.610, 468.5508
1045.716, 442.4395
1046.823, 559.0098
1047.929, 629.8105
1049.036, 583.9629
1050.142, 630.8848
1051.248, 871.0781
1052.353, 745.0176
1053.459, 996.4590
1054.564, 800.4141
1055.670, 839.3770
1056.775, 952.4551
1057.880, 935.4336
1058.985, 841.9512
1060.089, 1000.947
1061.194, 1163.949
1062.298, 964.9590
1063.402, 1054.559
1064.506, 1284.598
1065.610, 1226.709
1066.713, 1206.812
1067.817, 1536.980
1068.920, 1633.189
1070.023, 1515.455
1071.126, 1298.760
1072.229, 1750.074
1073.332, 2008.443
1074.435, 1925.826
1075.537, 1948.248
1076.639, 1911.703
1077.741, 2304.648
1078.843, 2155.127
1079.945, 2223.652
1081.046, 2307.191
1082.148, 2087.785
1083.249, 2049.393
1084.350, 2213.068
1085.451, 2159.812
1086.551, 2010.570
1087.652, 1738.348
1088.752, 1714.133
1089.853, 1640.131
1090.953, 1521.012
1092.053, 1375.412
1093.152, 1111.988
1094.252, 1007.936
1095.351, 987.8906
1096.451, 835.8613
1097.550, 799.4668
1098.649, 638.4590
1099.748, 681.7383
1100.846, 733.2617
1101.945, 483.2793
1103.043, 532.3027
1104.141, 440.3359
1105.239, 226.3789
1106.337, 432.4434
1107.434, 316.5176
1108.532, 509.5977
1109.629, 335.6797
1110.726, 382.7969
1111.823, 176.9180
1112.920, 586.0547
1114.017, 361.1992
1115.113, 391.3555
1116.210, 494.5352
1117.306, 289.7344
1118.402, 146.9453
1119.498, 169.1602
1120.593, 480.3789
1121.689, 364.6055
1122.784, 455.8359
1123.879, 436.0703
1124.974, 186.3164
1126.069, 366.5586
1127.164, 133.8125
1128.259, 56.92969
1129.353, 113.3164
1130.447, 153.5625
1131.541, 126.8164
1132.635, 74.07812
1133.729, 50.65625
1134.822, 43.11328
1135.916, 77.55469
1137.009, 55.92969
1138.102, 42.72266
1139.195, 12.47656
1140.288, 100.6836
1141.380, 127.8945
1142.473, 159.1094
1143.565, 62.65625
1144.657, 126.5586
1145.749, 123.2266
1146.841, 87.06250
1147.932, 65.06641
1149.024, 64.21484
1150.115, 94.36719
1151.206, 215.7148
1152.297, 139.3008
1153.388, 44.96875
1154.479, 70.19141
1155.569, 39.36328
1156.659, 54.54688
1157.750, 62.75391
1158.839, 101.9219
1159.929, 24.11328
1161.019, 16.69141
1162.108, 41.44531
1163.198, 92.73438
1164.287, 131.9141
1165.376, 131.6133
1166.465, 110.7969
1167.553, 20.01562
1168.642, 18.15625
1169.730, 2.488281
1170.818, 10.30859
1171.906, 21.19141
1172.994, 89.02344
1174.082, 40.10156
1175.170, 30.55859
1176.257, 137.3398
1177.344, 59.54688
1178.431, 78.46484
1179.518, 83.43359
1180.605, 109.5586
1181.691, 0.5468750
1182.778, 227.5352
1183.864, 21.48438
1184.950, 105.4883
1186.036, 134.4570
1187.122, 8.425781
1188.207, 112.3906
1189.292, 2.644531
1190.378, 172.3125
1191.463, 152.2695
1192.548, 147.2227
1193.632, 34.82031
1194.717, 177.1094
1195.801, 136.9609
1196.886, 302.8867
1197.970, 69.73047
1199.054, 224.5742
1200.137, 193.4141
1201.221, 316.2578
1202.305, 361.2188
1203.388, 342.9102
1204.471, 353.7578
1205.554, 296.5820
1206.637, 55.40625
1207.719, 27.77344
1208.802, 144.0195
1209.884, 268.8086
1210.966, 256.5898
1212.048, 335.9492
1213.130, 347.1445
1214.212, 379.9180
1215.293, 386.3047
1216.374, 170.4453
1217.456, 345.1992
1218.536, 91.16016
1219.617, 38.90234
1220.698, 309.6367
1221.778, 115.3633
1222.859, 47.08594
1223.939, 101.8555
1225.019, 300.7617
1226.099, 310.5625
1227.178, 3.398438
1228.258, 326.2695
1229.337, 24.93750
1230.417, 32.41406
1231.496, 353.5859
1232.574, 252.1914
1233.653, 127.7852
1234.732, 230.3750
1235.810, 332.9492
1236.888, 237.5234
1237.966, 349.1211
1239.044, 405.6836
1240.122, 485.2539
1241.199, 476.7773
1242.277, 217.3008
1243.354, 349.8398
1244.431, 364.3594
1245.508, 140.8828
1246.585, 210.9336
1247.661, 372.4375
1248.738, 189.9297
1249.814, 269.4141
1250.890, 293.8906
1251.966, 396.3555
1253.042, 361.8164
1254.117, 327.2656
1255.193, 213.8125
1256.268, 298.2383
1257.343, 345.8867
1258.418, 318.8672
1259.493, 375.4141
1260.567, 321.5117
1261.642, 365.4375
1262.716, 316.8633
1263.790, 203.7383
1264.864, 351.6172
1265.938, 141.2969
1267.011, 166.5039
1268.085, 285.5664
1269.158, 477.6016
1270.231, 277.9570
1271.304, 460.5938
1272.377, 408.5859
1273.450, 300.1367
