##NAMES=Thomsonite-Ca
##RRUFFID=R050091
##IDEAL CHEMISTRY=NaCa_2_(Al_5_Si_5_)O_20_&#183;6H_2_O
##LOCALITY=Amudikha River, near Mirny, Yakutia, Siberia, Russia
##OWNER=RRUFF
##SOURCE=Rock Currier
##DESCRIPTION=Radial groups of colorless bladed crystals
##STATUS=The identification of this mineral has been confirmed by X-ray diffraction and chemical analysis
##URL=rruff.info/R050091
##MEASURED CHEMISTRY=(Na_0.94_[box]_0.06_)_Σ=1_(Ca_1.71_Na_0.29_)_Σ=2_(Si_5.35_Al_4.65_)O_20_·7.09H_2_O
##PIN_ID=L00456
##ORIENTATION=Laser parallel to a* (1 0 0). Fiducial mark perpendicular to laser is parallel to b [0 1 0]
137.584, 0.000
138.970, 9.534
140.355, 17.868
141.740, 69.364
143.124, 468.976
144.509, 706.508
145.893, 1231.582
147.277, 1674.537
148.660, 2391.287
150.044, 3114.448
151.427, 3760.644
152.810, 4723.430
154.193, 4983.077
155.576, 6009.426
156.958, 6070.240
158.341, 6213.141
159.723, 6336.553
161.105, 5780.403
162.486, 5888.544
163.867, 4970.773
165.249, 4821.430
166.630, 4154.759
168.010, 3813.104
169.391, 3610.688
170.771, 3371.094
172.151, 3604.781
173.531, 3530.839
174.911, 4124.211
176.290, 4545.480
177.669, 5041.182
179.049, 5571.852
180.427, 5178.003
181.806, 5240.111
183.184, 4362.481
184.562, 3893.812
185.940, 3144.357
187.318, 2577.695
188.696, 2363.197
190.073, 2200.718
191.450, 2100.411
192.827, 2030.994
194.204, 2010.815
195.580, 2155.881
196.956, 2303.014
198.332, 2389.773
199.708, 2389.062
201.084, 2615.939
202.459, 2565.814
203.834, 2571.918
205.209, 2578.628
206.584, 2484.212
207.958, 2433.898
209.333, 2252.980
210.707, 2089.926
212.081, 1853.127
213.454, 1762.624
214.828, 1590.819
216.201, 1612.915
217.574, 1643.921
218.947, 1619.845
220.320, 1807.812
221.692, 1668.211
223.064, 1641.081
224.436, 1523.428
225.808, 1208.239
227.179, 1136.207
228.551, 810.151
229.922, 709.595
231.293, 460.269
232.663, 279.920
234.034, 176.868
235.404, 16.084
236.774, 77.539
238.144, 14.200
239.514, 198.039
240.883, 295.030
242.252, 456.154
243.621, 643.391
244.990, 566.716
246.359, 516.103
247.727, 299.533
249.095, 79.990
250.463, 0.423
251.831, 92.379
253.198, 21.997
254.566, 118.991
255.933, 29.712
257.299, 118.954
258.666, 67.568
260.033, 142.813
261.399, 227.070
262.765, 240.932
264.131, 303.689
265.496, 288.538
266.862, 302.514
268.227, 285.693
269.592, 262.448
270.957, 274.035
272.321, 188.475
273.685, 178.735
275.050, 110.638
276.413, 105.842
277.777, 33.748
279.141, 26.949
280.504, 166.250
281.867, 367.100
283.230, 458.387
284.592, 628.082
285.955, 825.222
287.317, 896.864
288.679, 1288.126
290.041, 1388.108
291.403, 1630.955
292.764, 1709.785
294.125, 1735.634
295.486, 1889.521
296.847, 1773.451
298.207, 1871.423
299.568, 1812.437
300.928, 1824.494
302.288, 1731.562
303.647, 1667.646
305.007, 1834.533
306.366, 1583.237
307.725, 1616.302
309.084, 1428.580
310.443, 1211.966
311.801, 1183.377
313.159, 858.751
314.517, 818.042
315.875, 667.207
317.233, 692.213
318.590, 724.027
319.947, 717.616
321.304, 820.959
322.661, 824.047
324.018, 903.876
325.374, 981.443
326.730, 1057.729
328.086, 1154.713
329.442, 1158.401
330.797, 1389.790
332.153, 1361.847
333.508, 1578.548
334.863, 1608.866
336.217, 1802.780
337.572, 1994.302
338.926, 2091.451
340.280, 2318.263
341.634, 2410.760
342.988, 2491.965
344.341, 2652.894
345.694, 2519.562
347.047, 2721.962
348.400, 2413.050
349.753, 2448.717
351.105, 2173.822
352.457, 1957.446
353.809, 1739.799
355.161, 1430.941
356.512, 1329.841
357.864, 1042.308
359.215, 967.227
360.566, 781.611
361.916, 639.455
363.267, 636.656
364.617, 462.130
365.967, 447.877
367.317, 405.961
368.667, 360.466
370.016, 328.526
371.366, 327.256
372.715, 421.830
374.064, 444.352
375.412, 506.853
376.761, 663.351
378.109, 649.850
379.457, 694.350
380.805, 683.852
382.152, 685.357
383.500, 649.866
384.847, 653.375
386.194, 747.882
387.541, 798.389
388.887, 1005.893
390.233, 1127.239
391.580, 1304.236
392.926, 1489.829
394.271, 1533.632
395.617, 1593.182
396.962, 1439.599
398.307, 1322.652
399.652, 1302.909
400.997, 1271.177
402.341, 780.573
403.686, 631.834
405.030, 572.893
406.374, 481.325
407.717, 443.360
409.061, 435.992
410.404, 362.530
411.747, 498.028
413.090, 461.658
414.433, 607.571
415.775, 671.004
417.117, 680.451
418.459, 794.605
419.801, 798.269
421.143, 1057.279
422.484, 1045.690
423.825, 1048.939
425.166, 1233.444
426.507, 1208.142
427.848, 1495.923
429.188, 1482.959
430.528, 1721.186
431.868, 2020.013
433.208, 2224.257
434.547, 2775.012
435.887, 3039.515
437.226, 3659.426
438.565, 4095.788
439.904, 4338.827
441.242, 4701.695
442.580, 4572.693
443.918, 4652.942
445.256, 4089.974
446.594, 3655.770
447.932, 3333.445
449.269, 2645.480
450.606, 2432.634
451.943, 1972.816
453.280, 1633.026
454.616, 1431.264
455.952, 1117.531
457.288, 1158.827
458.624, 1016.149
459.960, 1000.513
461.295, 1050.892
462.631, 1198.298
463.966, 1477.671
465.300, 1629.008
466.635, 2115.302
467.969, 2641.550
469.304, 3258.751
470.638, 4054.903
471.972, 4321.005
473.305, 4739.059
474.639, 4365.061
475.972, 3931.867
477.305, 3407.979
478.638, 2644.133
479.970, 2371.361
481.303, 1937.502
482.635, 1883.020
483.967, 1679.494
485.298, 1586.124
486.630, 1778.738
487.961, 1658.287
489.293, 1897.801
490.624, 2114.071
491.954, 2170.546
493.285, 2413.406
494.615, 2289.141
495.945, 2290.548
497.275, 2169.821
498.605, 1908.218
499.935, 1691.483
501.264, 1354.842
502.593, 1293.786
503.922, 1048.805
505.251, 949.449
506.579, 856.540
507.908, 747.679
509.236, 929.712
510.564, 919.334
511.891, 1040.577
513.219, 1076.771
514.546, 1505.060
515.873, 1652.393
517.200, 1739.116
518.527, 2257.410
519.853, 2570.534
521.180, 3128.121
522.506, 3933.488
523.832, 4607.929
525.157, 5937.614
526.483, 7185.288
527.808, 9042.833
529.133, 11290.250
530.458, 13327.597
531.783, 16794.986
533.107, 18502.838
534.431, 21060.832
535.756, 22549.145
537.079, 22068.178
538.403, 22157.205
539.727, 19876.465
541.050, 17865.738
542.373, 15575.071
543.696, 13254.309
545.018, 11683.611
546.341, 9373.359
547.663, 8113.226
548.985, 6943.111
550.307, 5603.022
551.629, 4998.960
552.950, 4002.931
554.271, 3686.938
555.592, 3103.994
556.913, 2702.107
558.234, 2437.307
559.554, 2070.585
560.875, 1935.946
562.195, 1593.359
563.514, 1557.702
564.834, 1424.859
566.154, 1165.685
567.473, 1112.406
568.792, 985.153
570.111, 916.664
571.429, 805.851
572.748, 757.029
574.066, 675.180
575.384, 583.881
576.702, 529.961
578.019, 518.129
579.337, 437.406
580.654, 430.781
581.971, 317.271
583.288, 330.898
584.605, 226.666
585.921, 141.588
587.237, 297.662
588.553, 129.890
589.869, 169.097
591.185, 170.617
592.500, 85.686
593.815, 156.472
595.130, 132.377
596.445, 258.243
597.760, 146.346
599.074, 160.267
600.389, 245.355
601.703, 288.640
603.016, 353.794
604.330, 320.139
605.644, 309.528
606.957, 328.000
608.270, 230.411
609.583, 284.840
610.895, 177.288
612.208, 113.754
613.520, 187.238
614.832, 60.740
616.144, 78.260
617.455, 3.798
618.767, 25.352
620.078, 116.924
621.389, 25.512
622.700, 94.118
624.011, 19.740
625.321, 53.379
626.631, 55.036
627.941, 40.710
629.251, 46.400
630.561, 18.109
631.870, 45.835
633.180, 56.578
634.489, 37.058
635.798, 53.124
637.106, 24.942
638.415, 8.767
639.723, 32.808
641.031, 18.673
642.339, 29.707
643.647, 0.248
644.954, 56.926
646.261, 44.226
647.568, 87.817
648.875, 0.722
650.182, 32.159
651.488, 71.049
652.795, 1.745
654.101, 53.560
655.407, 5.359
656.712, 89.425
658.018, 92.708
659.323, 77.478
660.628, 80.164
661.933, 26.174
663.238, 82.105
664.542, 48.135
665.847, 43.321
667.151, 95.634
668.455, 6.188
669.758, 79.235
671.062, 0.524
672.365, 2.519
673.668, 59.987
674.971, 33.300
676.274, 69.716
677.577, 30.823
678.879, 42.319
680.181, 1.092
681.483, 104.575
682.785, 83.275
684.086, 69.865
685.388, 97.811
686.689, 103.286
687.990, 194.099
689.290, 131.580
690.591, 285.683
691.891, 312.854
693.192, 345.198
694.491, 375.203
695.791, 329.861
697.091, 426.681
698.390, 420.039
699.689, 381.055
700.988, 519.206
702.287, 404.264
703.586, 405.900
704.884, 503.593
706.182, 410.243
707.480, 485.973
708.778, 442.099
710.076, 435.092
711.373, 479.050
712.670, 418.388
713.968, 409.090
715.264, 423.794
716.561, 425.589
717.857, 413.144
719.154, 368.650
720.450, 510.471
721.746, 352.171
723.041, 400.985
724.337, 456.496
725.632, 320.313
726.927, 374.987
728.222, 278.689
729.517, 360.448
730.811, 275.957
732.105, 198.550
733.400, 221.063
734.693, 159.612
735.987, 108.327
737.281, 174.826
738.574, 96.365
739.867, 137.856
741.160, 37.342
742.453, 61.822
743.745, 86.295
745.038, 5.239
746.330, 42.210
747.622, 6.650
748.913, 60.076
750.205, 64.491
751.496, 24.105
752.788, 59.270
754.079, 1.633
755.369, 0.024
756.660, 131.297
757.950, 1.605
759.241, 65.891
760.531, 53.163
761.820, 40.421
763.110, 125.664
764.399, 125.893
765.689, 147.107
766.978, 199.307
768.267, 219.492
769.555, 278.662
770.844, 299.817
772.132, 392.956
773.420, 358.066
774.708, 387.174
775.996, 398.266
777.283, 336.343
778.570, 335.403
779.857, 306.446
781.144, 221.473
782.431, 264.483
783.718, 174.476
785.004, 204.453
786.290, 161.411
787.576, 115.353
788.862, 151.276
790.147, 130.182
791.433, 105.070
792.718, 112.939
794.003, 65.790
795.288, 141.621
796.572, 80.432
797.857, 84.224
799.141, 59.969
800.425, 17.719
801.709, 128.436
802.992, 23.341
804.276, 39.978
805.559, 25.171
806.842, 15.570
808.125, 88.950
809.407, 28.449
810.690, 32.961
811.972, 13.451
813.254, 45.207
814.536, 20.481
815.818, 6.045
817.099, 11.069
818.381, 6.315
819.662, 23.398
820.943, 37.062
822.223, 40.373
823.504, 67.362
824.784, 7.361
826.065, 41.502
827.345, 81.739
828.624, 21.571
829.904, 56.722
831.183, 8.101
832.462, 43.961
833.741, 15.569
835.020, 2.996
836.299, 34.546
837.577, 0.158
838.856, 52.814
840.134, 44.542
841.412, 47.662
842.689, 43.162
843.967, 38.947
845.244, 20.975
846.521, 7.178
847.798, 46.017
849.075, 4.958
850.351, 22.856
851.628, 11.717
852.904, 0.536
854.180, 17.308
855.455, 50.041
856.731, 101.744
858.006, 90.153
859.281, 32.081
860.556, 85.703
861.831, 51.299
863.106, 57.864
864.380, 60.403
865.655, 44.912
866.929, 101.390
868.202, 10.843
869.476, 82.251
870.750, 140.634
872.023, 41.992
873.296, 79.316
874.569, 109.614
875.842, 83.886
877.114, 158.131
878.386, 86.351
879.658, 122.545
880.930, 116.713
882.202, 103.856
883.474, 169.972
884.745, 144.070
886.016, 163.142
887.287, 154.191
888.558, 114.215
889.829, 237.214
891.099, 155.188
892.369, 261.137
893.639, 252.063
894.909, 227.964
896.179, 254.842
897.448, 230.695
898.718, 240.697
899.987, 286.504
901.256, 266.893
902.524, 350.661
903.793, 326.406
905.061, 366.267
906.329, 425.965
907.597, 389.900
908.865, 520.706
910.133, 594.334
911.400, 542.101
912.667, 742.683
913.934, 712.223
915.201, 841.686
916.468, 892.208
917.734, 864.706
919.001, 1059.182
920.267, 1111.635
921.532, 1201.065
922.798, 1384.474
924.064, 1299.859
925.329, 1501.229
926.594, 1510.576
927.859, 1525.900
929.124, 1690.203
930.388, 1619.483
931.653, 1641.741
932.917, 1757.977
934.181, 1573.192
935.445, 1701.384
936.708, 1572.554
937.972, 1533.703
939.235, 1647.830
940.498, 1471.936
941.761, 1602.020
943.024, 1423.083
944.286, 1338.111
945.548, 1416.138
946.811, 1303.948
948.072, 1347.932
949.334, 1286.745
950.596, 1239.544
951.857, 1324.213
953.118, 1212.753
954.379, 1294.633
955.640, 1323.366
956.901, 1291.627
958.161, 1405.338
959.421, 1388.851
960.681, 1509.480
961.941, 1591.088
963.201, 1588.960
964.460, 1700.040
965.720, 1617.596
966.979, 1667.060
968.238, 1735.839
969.496, 1616.537
970.755, 1787.325
972.013, 1861.264
973.272, 1749.326
974.529, 1974.241
975.787, 1934.401
977.045, 2064.370
978.302, 2263.140
979.560, 2282.335
980.817, 2645.770
982.073, 2725.508
983.330, 2878.333
984.587, 3118.908
985.843, 3180.040
987.099, 3395.104
988.355, 3438.143
989.611, 3294.299
990.866, 3594.107
992.122, 3188.395
993.377, 3254.363
994.632, 3137.671
995.887, 2885.368
997.141, 2867.003
998.396, 2631.471
999.650, 2399.281
1000.904, 2395.440
1002.158, 2122.439
1003.412, 2078.906
1004.665, 1945.738
1005.918, 1724.389
1007.172, 1762.157
1008.425, 1590.067
1009.677, 1610.214
1010.930, 1560.651
1012.182, 1472.757
1013.434, 1555.474
1014.687, 1462.631
1015.938, 1399.511
1017.190, 1501.009
1018.441, 1320.308
1019.693, 1387.440
1020.944, 1318.580
1022.195, 1166.852
1023.445, 1192.176
1024.696, 1054.180
1025.946, 1101.304
1027.197, 1059.313
1028.446, 855.624
1029.696, 904.627
1030.946, 842.774
1032.195, 776.920
1033.445, 858.977
1034.694, 791.991
1035.942, 778.964
1037.191, 810.079
1038.440, 681.320
1039.688, 783.391
1040.936, 670.688
1042.184, 784.924
1043.432, 835.199
1044.679, 718.521
1045.927, 856.798
1047.174, 851.162
1048.421, 857.747
1049.668, 983.007
1050.914, 973.355
1052.161, 1072.608
1053.407, 1198.856
1054.653, 1039.393
1055.899, 1248.640
1057.145, 1253.882
1058.391, 1365.146
1059.636, 1484.389
1060.881, 1517.633
1062.126, 1627.137
1063.371, 1653.376
1064.615, 1678.417
1065.860, 1813.651
1067.104, 1779.947
1068.348, 1867.217
1069.592, 1919.441
1070.836, 1816.775
1072.079, 1941.124
1073.323, 1861.345
1074.566, 1816.927
1075.809, 1906.142
1077.052, 1797.454
1078.294, 1819.708
1079.537, 1760.915
1080.779, 1616.163
1082.021, 1701.373
1083.263, 1508.646
1084.504, 1463.938
1085.746, 1491.142
1086.987, 1263.356
1088.228, 1282.681
1089.469, 1142.880
1090.710, 1021.199
1091.951, 1041.423
1093.191, 873.618
1094.431, 834.230
1095.671, 842.421
1096.911, 676.611
1098.151, 675.800
1099.390, 648.002
1100.630, 549.287
1101.869, 579.473
1103.108, 458.664
1104.346, 416.879
1105.585, 453.073
1106.823, 351.344
1108.062, 428.219
1109.300, 316.433
1110.537, 247.648
1111.775, 270.973
1113.013, 222.209
1114.250, 278.594
1115.487, 225.859
1116.724, 212.129
1117.961, 200.873
1119.197, 159.165
1120.434, 175.464
1121.670, 202.853
1122.906, 121.190
1124.142, 177.711
1125.377, 138.096
1126.613, 134.577
1127.848, 155.267
1129.083, 108.716
1130.318, 60.389
1131.553, 190.271
1132.787, 49.757
1134.022, 83.512
1135.256, 130.650
1136.490, 36.175
1137.724, 121.984
1138.957, 58.538
1140.191, 87.116
1141.424, 101.181
1142.657, 10.783
1143.890, 119.226
1145.123, 68.010
1146.355, 50.705
1147.588, 127.169
1148.820, 35.827
1150.052, 48.566
1151.284, 97.480
1152.516, 15.164
1153.747, 50.891
1154.978, 17.648
1156.209, 26.546
1157.440, 89.777
1158.671, 11.414
1159.902, 69.285
1161.132, 64.310
1162.362, 12.989
1163.592, 66.722
1164.822, 34.784
1166.052, 6.513
1167.281, 84.306
1168.511, 1.889
1169.740, 21.917
1170.969, 49.961
1172.197, 27.725
1173.426, 34.982
1174.654, 37.802
1175.883, 43.514
1177.111, 76.347
1178.338, 25.228
1179.566, 13.937
1180.794, 112.109
1182.021, 28.864
1183.248, 63.017
1184.475, 4.160
1185.702, 28.593
1186.928, 22.636
1188.155, 22.644
1189.381, 62.341
1190.607, 26.262
1191.833, 13.951
1193.059, 23.640
1194.284, 4.741
1195.509, 9.576
1196.735, 55.267
1197.960, 40.933
1199.184, 31.725
1200.409, 73.378
1201.633, 7.970
1202.858, 54.677
1204.082, 63.335
1205.306, 25.977
1206.529, 90.700
1207.753, 49.453
1208.976, 5.907
1210.199, 75.851
1211.422, 34.039
1212.645, 57.574
1213.868, 19.500
1215.090, 25.109
1216.313, 73.715
1217.535, 11.994
1218.757, 7.594
1219.978, 43.189
1221.200, 25.035
1222.421, 46.543
1223.643, 15.541
1224.864, 29.112
1226.084, 61.680
1227.305, 32.904
1228.526, 69.585
1229.746, 26.144
1230.966, 22.186
1232.186, 102.819
1233.406, 40.519
1234.625, 14.586
1235.845, 64.127
1237.064, 15.664
1238.283, 38.449
1239.502, 129.977
1240.721, 22.311
1241.939, 65.205
1243.157, 54.783
1244.376, 56.383
1245.594, 43.897
1246.811, 24.411
1248.029, 50.921
1249.247, 60.430
1250.464, 42.979
1251.681, 51.620
1252.898, 32.125
1254.115, 8.230
1255.331, 93.269
1256.548, 58.767
1257.764, 29.365
1258.980, 107.851
1260.196, 18.335
1261.411, 90.808
1262.627, 59.279
1263.842, 3.265
1265.057, 90.183
1266.272, 54.628
1267.487, 37.422
1268.702, 136.851
1269.916, 16.277
1271.130, 62.914
1272.344, 36.312
1273.558, 1.695
1274.772, 88.248
1275.986, 5.620
1277.199, 16.020
1278.412, 80.323
1279.625, 4.657
1280.838, 19.015
1282.051, 85.300
1283.263, 4.608
1284.475, 89.931
1285.687, 64.224
1286.899, 31.504
1288.111, 108.812
1289.323, 4.938
1290.534, 24.292
1291.745, 49.515
1292.957, 4.269
1294.167, 77.938
1295.378, 46.140
1296.589, 10.673
1297.799, 108.805
1299.009, 55.970
1300.219, 51.125
1301.429, 40.262
1302.639, 48.328
1303.848, 37.778
1305.057, 108.622
1306.267, 27.302
1307.476, 88.765
1308.684, 62.501
1309.893, 5.534
1311.101, 81.558
1312.310, 7.595
1313.518, 43.405
1314.725, 43.292
1315.933, 10.725
1317.141, 54.244
1318.348, 2.202
1319.555, 41.148
1320.762, 98.098
1321.969, 38.025
1323.176, 26.943
1324.382, 94.851
1325.589, 4.720
1326.795, 10.604
1328.001, 23.389
1329.206, 37.251
1330.412, 52.941
1331.617, 8.782
1332.823, 25.389
1334.028, 68.873
1335.233, 18.677
1336.437, 74.470
1337.642, 99.336
1338.846, 9.901
1340.051, 73.761
1341.255, 31.185
1342.458, 40.924
1343.662, 68.561
1344.866, 70.283
1346.069, 76.263
1347.272, 73.408
1348.475, 66.106
1349.678, 72.797
1350.880, 51.430
1352.083, 4.896
1353.285, 90.767
1354.487, 41.161
1355.689, 6.809
1356.891, 105.643
1358.093, 13.273
1359.294, 77.796
1360.495, 118.332
1361.696, 14.102
1362.897, 103.343
1364.098, 109.760
1365.298, 26.294
1366.499, 91.456
1367.699, 7.936
1368.899, 102.303
1370.099, 138.714
1371.298, 13.847
1372.498, 40.538
1373.697, 99.947
1374.896, 6.275
1376.095, 49.570
1377.294, 33.064
1378.493, 5.669
1379.691, 74.900
1380.889, 72.226
1382.087, 19.327
1383.285, 116.419
1384.483, 25.155
1385.681, 72.303
1386.878, 54.426
1388.075, 49.453
1389.272, 73.546
1390.469, 88.576
1391.666, 79.957
1392.862, 138.938
1394.059, 61.853
1395.255, 39.911
1396.451, 110.446
1397.647, 38.397
1398.842, 114.231
1400.038, 129.141
1401.233, 48.821
1402.428, 162.929
1403.623, 94.592
1404.818, 78.618
1406.013, 126.212
1407.207, 70.148
1408.401, 102.010
1409.595, 120.589
1410.789, 13.411
1411.983, 81.572
1413.177, 98.299
1414.370, 23.858
1415.563, 138.783
1416.756, 71.441
1417.949, 23.080
1419.142, 166.242
1420.335, 95.236
1421.527, 85.882
1422.719, 146.625
1423.911, 79.019
1425.103, 155.136
1426.295, 97.989
1427.486, 54.763
1428.677, 84.977
1429.869, 68.490
1431.060, 42.541
1432.250, 149.923
1433.441, 76.110
1434.632, 100.994
1435.822, 147.335
1437.012, 64.669
1438.202, 139.970
1439.392, 128.305
1440.581, 6.357
1441.771, 152.805
1442.960, 98.512
1444.149, 95.814
1445.338, 135.988
1446.527, 52.830
1447.715, 115.224
1448.904, 122.293
1450.092, 46.150
1451.280, 140.126
1452.468, 188.850
1453.656, 49.847
1454.843, 148.327
1456.031, 144.909
1457.218, 97.521
1458.405, 183.390
1459.592, 95.228
1460.778, 101.641
1461.965, 179.071
1463.151, 41.763
1464.337, 148.191
1465.523, 143.841
1466.709, 77.495
1467.895, 123.151
1469.080, 62.901
1470.266, 28.945
1471.451, 167.619
1472.636, 99.817
1473.821, 105.494
1475.005, 169.172
1476.190, 18.175
1477.374, 128.395
1478.558, 131.908
1479.742, 12.599
1480.926, 143.292
1482.109, 115.945
1483.293, 63.594
1484.476, 149.236
1485.659, 82.936
1486.842, 96.625
1488.025, 138.361
1489.207, 57.172
1490.390, 138.997
1491.572, 153.835
1492.754, 9.328
1493.936, 103.527
1495.118, 160.334
1496.299, 48.221
1497.481, 131.141
1498.662, 122.819
1499.843, 57.834
1501.024, 115.353
1502.205, 45.995
1503.385, 140.760
1504.565, 86.358
1505.746, 57.969
1506.926, 100.555
1508.106, 156.098
1509.285, 29.977
1510.465, 84.695
1511.644, 93.190
1512.823, 45.406
1514.002, 120.145
1515.181, 80.743
1516.360, 77.028
1517.538, 162.550
1518.717, 2.686
1519.895, 0.951
1521.073, 126.731
1522.251, 52.173
1523.428, 61.034
1524.606, 0.000
##END=



