##NAMES=Thomsonite-Ca
##RRUFFID=R050103
##IDEAL CHEMISTRY=NaCa_2_(Al_5_Si_5_)O_20_&#183;6H_2_O
##LOCALITY=Seeberg, Bohemia, Czech Republic
##OWNER=RRUFF
##SOURCE=Rock Currier
##DESCRIPTION=Colorless prismatic crystals
##STATUS=The identification of this mineral has been confirmed by X-ray diffraction and chemical analysis
##URL=rruff.info/R050103
##MEASURED CHEMISTRY=Na_1.00_(Ca_0.92_Sr_0.08_)_2_(Al_5.00_Si_5.00_)O_20_Â·6H_2_O
##PIN_ID=L00246
##ORIENTATION=Laser parallel to c* (0 0 1). Fiducial mark perpendicular to laser is parallel to -a [-1 0 0]
93.48000, 0.0000000E+00
94.71400, 151.4121
95.94800, 828.4805
97.18200, 1479.926
98.41600, 1664.355
99.64900, 2096.836
100.8830, 2491.688
102.1160, 2819.006
103.3490, 3729.953
104.5820, 4188.223
105.8150, 4820.930
107.0470, 5967.480
108.2800, 6316.559
109.5120, 6846.725
110.7440, 7949.242
111.9760, 8932.266
113.2080, 9794.986
114.4400, 10719.06
115.6710, 10952.35
116.9030, 10614.84
118.1340, 10432.19
119.3650, 9789.094
120.5960, 9232.729
121.8270, 8229.787
123.0580, 7223.655
124.2880, 5971.773
125.5190, 4633.454
126.7490, 3517.083
127.9790, 2783.568
129.2090, 2013.245
130.4390, 1503.049
131.6680, 975.2959
132.8980, 656.3242
134.1270, 469.1318
135.3560, 232.1240
136.5850, 155.4990
137.8140, 80.81934
139.0430, 20.68066
140.2710, 82.71875
141.5000, 46.08691
142.7280, 18.51367
143.9560, 139.4023
145.1840, 209.7197
146.4120, 364.4180
147.6390, 375.2500
148.8670, 354.2383
150.0940, 328.8848
151.3210, 198.9072
152.5490, 97.41797
153.7750, 17.10449
155.0020, 243.5410
156.2290, 327.9307
157.4550, 676.3271
158.6810, 1029.778
159.9080, 1553.328
161.1340, 2122.021
162.3590, 2774.918
163.5850, 3467.708
164.8110, 4456.390
166.0360, 5533.984
167.2610, 6793.664
168.4860, 8130.854
169.7110, 9722.154
170.9360, 11285.64
172.1610, 12543.51
173.3850, 14280.75
174.6100, 15514.12
175.8340, 16491.39
177.0580, 17053.83
178.2820, 17555.54
179.5050, 17430.98
180.7290, 17036.29
181.9520, 16019.64
183.1760, 14851.68
184.3990, 13806.13
185.6220, 12459.79
186.8450, 11326.59
188.0670, 10449.41
189.2900, 9829.588
190.5120, 9317.083
191.7340, 8884.819
192.9560, 8375.106
194.1780, 8059.627
195.4000, 7531.176
196.6220, 6953.000
197.8430, 6512.445
199.0640, 5936.011
200.2860, 5411.428
201.5070, 4926.570
202.7270, 4321.406
203.9480, 3935.628
205.1690, 3986.188
206.3890, 3938.947
207.6090, 4149.752
208.8290, 4132.938
210.0490, 4608.976
211.2690, 4794.559
212.4890, 5134.128
213.7080, 5614.244
214.9280, 5978.902
216.1470, 6337.453
217.3660, 6493.898
218.5850, 6456.234
219.8030, 6572.472
221.0220, 6322.604
222.2400, 6167.634
223.4590, 5610.562
224.6770, 5126.389
225.8950, 4460.113
227.1120, 3889.740
228.3300, 3493.271
229.5480, 2817.485
230.7650, 2328.930
231.9820, 1701.408
233.1990, 1220.681
234.4160, 833.7568
235.6330, 683.7529
236.8490, 453.6650
238.0660, 248.4531
239.2820, 128.0918
240.4980, 116.8164
241.7140, 24.90918
242.9300, 1.923828
244.1460, 26.55762
245.3610, 104.6250
246.5770, 94.35742
247.7920, 52.93457
249.0070, 95.54590
250.2220, 139.0801
251.4370, 177.6104
252.6510, 117.0732
253.8660, 323.3438
255.0800, 307.3301
256.2940, 522.1143
257.5080, 502.8369
258.7220, 372.5830
259.9360, 73.23242
261.1490, 28.33887
262.3630, 50.23828
263.5760, 160.4766
264.7890, 155.0684
266.0020, 177.7422
267.2150, 84.03516
268.4270, 181.5449
269.6400, 204.3652
270.8520, 218.8848
272.0640, 87.85840
273.2760, 137.0850
274.4880, 103.5186
275.7000, 80.85352
276.9120, 138.0771
278.1230, 306.9629
279.3340, 170.9453
280.5450, 219.2441
281.7560, 323.7441
282.9670, 411.8594
284.1780, 380.1152
285.3880, 582.7695
286.5980, 617.7393
287.8090, 695.3086
289.0190, 941.0879
290.2290, 967.1631
291.4380, 1163.725
292.6480, 1274.495
293.8570, 1277.523
295.0670, 1386.810
296.2760, 1372.614
297.4850, 1341.491
298.6930, 1466.666
299.9020, 1464.949
301.1110, 1252.483
302.3190, 1315.997
303.5270, 985.2969
304.7350, 864.9648
305.9430, 619.7178
307.1510, 355.8047
308.3580, 239.8027
309.5660, 61.45312
310.7730, 26.77637
311.9800, 85.35254
313.1870, 143.1846
314.3940, 15.34473
315.6010, 178.8857
316.8070, 202.8447
318.0130, 121.0771
319.2200, 228.5547
320.4260, 109.2783
321.6310, 2.197266
322.8370, 12.66992
324.0430, 18.20703
325.2480, 95.31641
326.4540, 144.7646
327.6590, 161.3203
328.8640, 290.2236
330.0680, 515.7842
331.2730, 577.1777
332.4780, 844.4277
333.6820, 850.5469
334.8860, 1034.550
336.0900, 1338.454
337.2940, 1629.274
338.4980, 1675.029
339.7010, 1909.736
340.9050, 2084.398
342.1080, 2459.021
343.3110, 2605.603
344.5140, 2852.161
345.7170, 2836.685
346.9200, 2871.160
348.1220, 2666.548
349.3240, 2744.841
350.5270, 2277.055
351.7290, 2007.123
352.9310, 1860.065
354.1320, 1700.009
355.3340, 1357.947
356.5350, 1157.866
357.7370, 883.7822
358.9380, 705.6992
360.1390, 701.6123
361.3400, 639.5498
362.5400, 726.4873
363.7410, 417.4443
364.9410, 495.3857
366.1410, 412.3164
367.3410, 512.2451
368.5410, 577.1514
369.7410, 523.0518
370.9400, 628.9365
372.1400, 713.8076
373.3390, 901.6562
374.5380, 958.4824
375.7370, 935.2910
376.9360, 971.0811
378.1350, 907.1611
379.3330, 712.4717
380.5310, 780.7725
381.7300, 675.1396
382.9280, 659.8936
384.1260, 671.5479
385.3230, 584.9326
386.5210, 672.9717
387.7180, 650.1895
388.9160, 621.6279
390.1130, 604.9258
391.3100, 669.2471
392.5060, 711.4805
393.7030, 844.5020
394.9000, 873.6914
396.0960, 961.1836
397.2920, 995.7734
398.4880, 977.1914
399.6840, 771.3428
400.8800, 684.8242
402.0750, 756.1084
403.2710, 846.4609
404.4660, 975.6016
405.6610, 934.3623
406.8560, 1075.665
408.0510, 913.9805
409.2450, 1032.585
410.4400, 1136.751
411.6340, 1157.835
412.8280, 1475.878
414.0220, 1509.592
415.2160, 1775.504
416.4100, 1765.754
417.6030, 2112.027
418.7970, 2476.526
419.9900, 2677.887
421.1830, 3336.979
422.3760, 3612.523
423.5690, 4351.982
424.7610, 4782.906
425.9540, 5558.789
427.1460, 6396.195
428.3380, 7264.546
429.5300, 8053.847
430.7220, 9179.377
431.9140, 10280.32
433.1050, 11189.42
434.2970, 12313.81
435.4880, 13169.25
436.6790, 13799.30
437.8700, 14045.50
439.0610, 14095.84
440.2510, 13817.66
441.4420, 12931.90
442.6320, 12449.56
443.8220, 11375.26
445.0120, 10050.99
446.2020, 8871.733
447.3910, 8059.258
448.5810, 7179.311
449.7700, 6487.365
450.9600, 5938.338
452.1490, 5710.850
453.3370, 5334.641
454.5260, 5168.373
455.7150, 5421.945
456.9030, 5733.769
458.0910, 6350.994
459.2800, 6974.012
460.4670, 8103.678
461.6550, 9450.054
462.8430, 10772.42
464.0300, 12649.56
465.2180, 14090.32
466.4050, 15970.29
467.5920, 17366.33
468.7790, 18407.75
469.9650, 18995.43
471.1520, 19138.22
472.3380, 18345.62
473.5250, 17547.02
474.7110, 15898.74
475.8970, 14320.58
477.0820, 12071.45
478.2680, 10874.34
479.4540, 9656.249
480.6390, 9018.180
481.8240, 8522.136
483.0090, 8423.115
484.1940, 8479.112
485.3780, 8549.138
486.5630, 8676.581
487.7470, 8923.657
488.9320, 9065.725
490.1160, 9312.123
491.3000, 9325.044
492.4830, 9126.471
493.6670, 8817.245
494.8500, 8332.852
496.0340, 7672.582
497.2170, 7329.084
498.4000, 6370.898
499.5820, 5894.797
500.7650, 5116.128
501.9480, 4680.527
503.1300, 4320.494
504.3120, 3933.143
505.4940, 3723.611
506.6760, 3688.738
507.8580, 3708.869
509.0390, 3897.427
510.2210, 4249.729
511.4020, 4507.188
512.5830, 4836.611
513.7640, 5408.705
514.9450, 6467.301
516.1250, 7442.920
517.3060, 8795.258
518.4860, 10204.92
519.6660, 11912.60
520.8460, 14549.31
522.0260, 17069.06
523.2060, 20529.85
524.3850, 24237.70
525.5650, 28341.60
526.7440, 32565.57
527.9230, 37086.62
529.1020, 41194.76
530.2810, 44643.98
531.4590, 47831.29
532.6380, 49963.70
533.8160, 50320.23
534.9940, 50165.86
536.1720, 48353.57
537.3500, 45808.38
538.5270, 42117.26
539.7050, 38022.23
540.8820, 33640.27
542.0590, 29547.37
543.2360, 25837.54
544.4130, 22402.78
545.5900, 19346.12
546.7660, 16761.58
547.9430, 14686.15
549.1190, 12677.83
550.2950, 11217.66
551.4710, 9864.624
552.6470, 8894.790
553.8220, 7928.100
554.9980, 7042.576
556.1730, 6596.195
557.3480, 5577.979
558.5230, 5374.906
559.6980, 4892.959
560.8730, 4277.145
562.0470, 4293.402
563.2220, 3885.771
564.3960, 3322.246
565.5700, 3487.783
566.7440, 3344.384
567.9170, 3258.038
569.0910, 2793.746
570.2640, 2670.506
571.4380, 2579.316
572.6110, 2510.177
573.7840, 2305.083
574.9570, 2062.026
576.1290, 2008.012
577.3020, 1871.029
578.4740, 1900.080
579.6460, 1688.158
580.8180, 1642.268
581.9900, 1433.406
583.1620, 1482.572
584.3330, 1362.765
585.5040, 1299.986
586.6760, 1254.235
587.8470, 1222.070
589.0180, 1208.334
590.1880, 1252.147
591.3590, 1228.513
592.5290, 1318.918
593.7000, 1375.363
594.8700, 1213.850
596.0400, 1478.391
597.2090, 1394.990
598.3790, 1443.661
599.5490, 1527.377
600.7180, 1623.174
601.8870, 1551.054
603.0560, 1618.997
604.2250, 1354.031
605.3940, 1258.125
606.5620, 1224.261
607.7300, 946.5156
608.8990, 715.7314
610.0670, 619.9854
611.2350, 627.2764
612.4020, 305.6016
613.5700, 475.0527
614.7370, 357.1914
615.9050, 231.6064
617.0720, 267.1426
618.2390, 96.60352
619.4060, 188.0850
620.5720, 120.5879
621.7390, 50.11230
622.9050, 217.6572
624.0710, 100.2217
625.2370, 96.80859
626.4030, 90.58594
627.5690, 79.99316
628.7340, 123.4121
629.9000, 2.858398
631.0650, 216.2920
632.2300, 241.7959
633.3950, 87.38281
634.5600, 146.9863
635.7240, 327.6338
636.8890, 287.4072
638.0530, 183.2900
639.2170, 201.2354
640.3810, 152.2510
641.5450, 110.3145
642.7080, 215.4082
643.8720, 112.5840
645.0350, 202.7910
646.1980, 24.07422
647.3610, 61.35547
648.5240, 97.65137
649.6870, 18.02539
650.8490, 56.28516
652.0120, 9.612305
653.1740, 3.093750
654.3360, 40.92871
655.4980, 47.62207
656.6600, 0.3291020
657.8210, 179.0381
658.9830, 266.9414
660.1440, 311.8623
661.3050, 148.8848
662.4660, 218.2295
663.6270, 346.9775
664.7870, 399.2227
665.9480, 492.0361
667.1080, 480.4570
668.2680, 627.9648
669.4280, 703.2803
670.5880, 704.2188
671.7480, 693.3174
672.9070, 830.7217
674.0670, 601.8604
675.2260, 675.6045
676.3850, 749.0684
677.5440, 922.6670
678.7030, 1060.329
679.8610, 1128.453
681.0200, 1312.238
682.1780, 1317.347
683.3360, 1380.847
684.4940, 1574.915
685.6520, 1793.761
686.8090, 1690.491
687.9670, 1877.445
689.1240, 2119.760
690.2810, 2212.492
691.4380, 2224.611
692.5950, 2331.003
693.7520, 2446.691
694.9080, 2398.756
696.0650, 2657.412
697.2210, 2782.638
698.3770, 2675.795
699.5330, 2661.871
700.6880, 2526.353
701.8440, 2632.078
702.9990, 2619.809
704.1550, 2597.424
705.3100, 2436.912
706.4650, 2442.683
707.6190, 2421.687
708.7740, 2288.316
709.9290, 2266.643
711.0830, 2239.984
712.2370, 1992.556
713.3910, 2028.132
714.5450, 2106.936
715.6980, 1958.446
716.8520, 1858.047
718.0050, 1940.514
719.1580, 1788.957
720.3110, 1756.380
721.4640, 1651.896
722.6170, 1503.273
723.7700, 1561.683
724.9220, 1387.015
726.0740, 1341.324
727.2260, 1281.609
728.3780, 1117.994
729.5300, 968.2324
730.6810, 964.5508
731.8330, 827.7402
732.9840, 744.9033
734.1350, 672.9756
735.2860, 639.0898
736.4370, 730.1758
737.5880, 552.2373
738.7380, 644.2715
739.8880, 437.4082
741.0390, 451.3877
742.1890, 434.3398
743.3380, 257.2627
744.4880, 487.1572
745.6380, 206.0225
746.7870, 244.8584
747.9360, 347.6650
749.0850, 300.4424
750.2340, 291.1885
751.3830, 212.9043
752.5310, 120.5889
753.6800, 270.2266
754.8280, 216.8330
755.9760, 414.4072
757.1240, 448.9502
758.2720, 488.4600
759.4190, 579.0791
760.5670, 640.3877
761.7140, 670.8047
762.8610, 855.1885
764.0080, 915.5391
765.1550, 1088.463
766.3020, 1328.740
767.4480, 1247.022
768.5950, 1421.963
769.7410, 1464.377
770.8870, 1454.273
772.0330, 1535.815
773.1780, 1411.522
774.3240, 1357.096
775.4690, 1234.891
776.6140, 968.3691
777.7590, 971.7617
778.9040, 774.7119
780.0490, 952.5908
781.1940, 752.8975
782.3380, 580.5176
783.4820, 596.3115
784.6260, 504.7197
785.7700, 362.4785
786.9140, 473.4961
788.0580, 348.2148
789.2010, 375.9971
790.3450, 139.7021
791.4880, 110.8350
792.6310, 228.4629
793.7730, 290.0645
794.9160, 199.9414
796.0590, 108.4902
797.2010, 108.0107
798.3430, 38.50391
799.4850, 67.95703
800.6270, 50.37695
801.7690, 6.239258
802.9100, 30.91504
804.0520, 24.39551
805.1930, 26.51367
806.3340, 6.350586
807.4750, 46.72363
808.6160, 40.76074
809.7560, 30.75684
810.8970, 13.71094
812.0370, 44.38770
813.1770, 23.94727
814.3170, 89.81543
815.4570, 24.83008
816.5960, 34.56836
817.7360, 55.95703
818.8750, 34.55469
820.0140, 6.858398
821.1530, 145.7832
822.2920, 126.5576
823.4310, 29.45605
824.5690, 143.5742
825.7070, 55.42578
826.8460, 20.49023
827.9840, 180.6406
829.1220, 89.92188
830.2590, 79.30566
831.3970, 106.2129
832.5340, 32.29785
833.6710, 89.88086
834.8080, 31.43457
835.9450, 25.29004
837.0820, 18.91797
838.2190, 132.9170
839.3550, 133.8770
840.4910, 46.04395
841.6270, 50.92676
842.7630, 133.7773
843.8990, 79.60156
845.0350, 184.3955
846.1700, 52.16406
847.3060, 48.89844
848.4410, 223.6016
849.5760, 146.2803
850.7100, 85.93066
851.8450, 178.5557
852.9800, 122.1553
854.1140, 207.7285
855.2480, 359.2754
856.3820, 258.8008
857.5160, 117.3008
858.6500, 271.7734
859.7830, 129.2246
860.9170, 390.6504
862.0500, 191.0508
863.1830, 250.4297
864.3160, 107.7852
865.4480, 267.1152
866.5810, 109.4238
867.7130, 179.7070
868.8460, 262.9688
869.9780, 15.20703
871.1100, 172.4141
872.2410, 282.6113
873.3730, 157.7852
874.5050, 262.9375
875.6360, 93.06641
876.7670, 158.1914
877.8980, 399.3145
879.0290, 213.4121
880.1590, 363.4883
881.2900, 274.5449
882.4200, 283.5332
883.5500, 341.5781
884.6800, 423.6152
885.8100, 415.6328
886.9400, 455.6270
888.0690, 472.5137
889.1990, 543.7188
890.3280, 273.6562
891.4570, 595.4766
892.5860, 469.3750
893.7140, 487.2559
894.8430, 646.1172
895.9710, 718.9609
897.1000, 832.8223
898.2280, 921.8164
899.3560, 966.5352
900.4830, 1061.365
901.6110, 1071.191
902.7380, 1102.020
903.8660, 1307.854
904.9930, 1344.674
906.1200, 1609.521
907.2460, 1646.404
908.3730, 1982.287
909.5000, 2140.186
910.6260, 2281.141
911.7520, 2467.143
912.8780, 2570.189
914.0040, 2906.260
915.1290, 3168.352
916.2550, 3204.453
917.3800, 3672.586
918.5050, 3925.730
919.6300, 4169.941
920.7550, 4339.145
921.8800, 4767.352
923.0040, 4935.564
924.1290, 5493.766
925.2530, 5502.967
926.3770, 5824.148
927.5010, 6075.193
928.6250, 6140.383
929.7480, 6413.584
930.8720, 6392.779
931.9950, 6280.779
933.1180, 6106.760
934.2410, 5914.672
935.3640, 6017.260
936.4860, 5595.443
937.6090, 5500.129
938.7310, 5174.246
939.8530, 4919.758
940.9750, 4732.178
942.0970, 4387.789
943.2180, 4067.781
944.3400, 4095.609
945.4610, 3789.127
946.5820, 3617.910
947.7030, 3587.137
948.8240, 3464.639
949.9450, 3221.008
951.0650, 3258.309
952.1860, 3037.143
953.3060, 2922.311
954.4260, 2920.150
955.5460, 2982.594
956.6650, 3015.465
957.7850, 2807.576
958.9040, 2787.797
960.0230, 2682.799
961.1420, 2636.244
962.2610, 2807.645
963.3800, 2617.459
964.4990, 2638.992
965.6170, 2696.219
966.7350, 2538.066
967.8530, 2595.309
968.9710, 2890.971
970.0890, 2822.691
971.2070, 3022.494
972.3240, 3209.916
973.4410, 3240.084
974.5580, 3605.250
975.6750, 3787.514
976.7920, 4362.895
977.9090, 4643.980
979.0250, 4663.816
980.1410, 4755.016
981.2580, 5241.504
982.3740, 5376.961
983.4890, 5637.172
984.6050, 5704.367
985.7200, 5685.316
986.8360, 5730.877
987.9510, 5536.676
989.0660, 5574.918
990.1810, 5279.168
991.2950, 5075.428
992.4100, 4856.578
993.5240, 4342.848
994.6390, 4156.070
995.7530, 3869.352
996.8660, 3707.643
997.9800, 3689.941
999.0940, 3219.121
1000.207, 3363.771
1001.320, 3139.984
1002.433, 2828.311
1003.546, 2748.646
1004.659, 2419.055
1005.772, 2383.916
1006.884, 2376.273
1007.996, 2229.639
1009.108, 2314.014
1010.220, 2330.463
1011.332, 2161.229
1012.444, 2255.625
1013.555, 2233.031
1014.666, 2204.445
1015.777, 2288.795
1016.888, 2195.289
1017.999, 2056.084
1019.110, 1869.527
1020.220, 1757.984
1021.331, 1744.520
1022.441, 1539.992
1023.551, 1514.480
1024.661, 1323.979
1025.770, 1128.486
1026.880, 1095.000
1027.989, 1077.527
1029.098, 920.2578
1030.207, 948.8652
1031.316, 801.4668
1032.425, 669.0254
1033.533, 660.5938
1034.642, 538.1680
1035.750, 624.8008
1036.858, 541.4473
1037.966, 622.0488
1039.073, 735.6602
1040.181, 641.4180
1041.288, 861.2051
1042.396, 749.9863
1043.503, 792.6309
1044.610, 584.2832
1045.716, 932.0020
1046.823, 884.7246
1047.929, 956.4004
1049.036, 933.5488
1050.142, 972.2383
1051.248, 976.9336
1052.353, 949.9199
1053.459, 1097.629
1054.564, 1069.346
1055.670, 1205.066
1056.775, 1077.793
1057.880, 1238.635
1058.985, 1329.486
1060.089, 1462.469
1061.194, 1459.223
1062.298, 1378.932
1063.402, 1698.697
1064.506, 1674.471
1065.610, 1644.248
1066.713, 1780.096
1067.817, 1735.895
1068.920, 1845.756
1070.023, 2015.572
1071.126, 1812.594
1072.229, 2081.660
1073.332, 2294.656
1074.435, 2301.623
1075.537, 2549.816
1076.639, 2461.160
1077.741, 2583.121
1078.843, 2627.266
1079.945, 2777.502
1081.046, 2750.527
1082.148, 2700.275
1083.249, 2572.539
1084.350, 2474.648
1085.451, 2282.033
1086.551, 2127.180
1087.652, 2130.355
1088.752, 1849.697
1089.853, 1988.637
1090.953, 1817.943
1092.053, 1542.822
1093.152, 1559.160
1094.252, 1201.527
1095.351, 1014.914
1096.451, 1084.363
1097.550, 970.8574
1098.649, 927.1348
1099.748, 842.6738
1100.846, 597.2383
1101.945, 597.8477
1103.043, 660.0391
1104.141, 437.6309
1105.239, 224.2812
1106.337, 294.6113
1107.434, 361.3691
1108.532, 378.2676
1109.629, 454.2637
1110.726, 301.0371
1111.823, 268.8125
1112.920, 349.5918
1114.017, 378.3789
1115.113, 397.7676
1116.210, 400.1055
1117.306, 468.1602
1118.402, 427.0859
1119.498, 478.2832
1120.593, 580.0898
1121.689, 566.8984
1122.784, 530.7070
1123.879, 524.5234
1124.974, 375.3379
1126.069, 283.1699
1127.164, 194.1172
1128.259, 222.9531
1129.353, 45.79102
1130.447, 212.6309
1131.541, 16.52734
1132.635, 27.30859
1133.729, 177.1504
1134.822, 39.99219
1135.916, 136.8340
1137.009, 63.32031
1138.102, 134.5059
1139.195, 44.34570
1140.288, 49.18750
1141.380, 87.97266
1142.473, 74.16797
1143.565, 43.60547
1144.657, 211.3867
1145.749, 86.16992
1146.841, 128.0469
1147.932, 4.675781
1149.024, 53.50586
1150.115, 134.1973
1151.206, 48.90039
1152.297, 7.599609
1153.388, 46.30078
1154.479, 59.00195
1155.569, 38.70117
1156.659, 82.62305
1157.750, 93.10742
1158.839, 77.92188
1159.929, 0.3750000
1161.019, 137.6699
1162.108, 89.03906
1163.198, 55.55078
1164.287, 53.13867
1165.376, 269.7324
1166.465, 31.33398
1167.553, 30.93359
1168.642, 105.5293
1169.730, 153.1230
1170.818, 14.72070
1171.906, 11.31445
1172.994, 14.90820
1174.082, 79.49805
1175.170, 113.1055
1176.257, 65.27539
1177.344, 42.28906
1178.431, 207.8613
1179.518, 2.574219
1180.605, 119.9922
1181.691, 82.55078
1182.778, 128.8906
1183.864, 134.5918
1184.950, 160.0703
1186.036, 256.5449
1187.122, 181.0137
1188.207, 43.47852
1189.292, 43.06250
1190.378, 15.58984
1191.463, 209.0098
1192.548, 86.57617
1193.632, 103.7793
1194.717, 175.1309
1195.801, 106.4766
1196.886, 102.1816
1197.970, 134.4102
1199.054, 68.75977
1200.137, 138.0449
1201.221, 41.30078
1202.305, 38.87109
1203.388, 62.23828
1204.471, 74.47266
1205.554, 27.96875
1206.637, 10.18945
1207.719, 114.3965
1208.802, 51.64062
1209.884, 178.6816
1210.966, 122.3984
1212.048, 3.474609
1213.130, 116.5293
1214.212, 275.5820
1215.293, 39.62109
1216.374, 232.6523
1217.456, 136.6758
1218.536, 67.69531
1219.617, 70.30078
1220.698, 144.6504
1221.778, 19.41211
1222.859, 352.4961
1223.939, 284.3926
1225.019, 153.6230
1226.099, 206.5039
1227.178, 242.4668
1228.258, 12.76562
1229.337, 222.6074
1230.417, 123.4375
1231.496, 114.2598
1232.574, 15.92969
1233.653, 117.1504
1234.732, 173.5371
1235.810, 31.69141
1236.888, 190.1113
1237.966, 87.73438
1239.044, 66.34375
1240.122, 131.9395
1241.199, 160.5586
1242.277, 191.1309
1243.354, 148.6895
1244.431, 103.4277
1245.508, 112.9883
1246.585, 64.53516
1247.661, 98.16211
1248.738, 34.09375
1249.814, 132.7031
1250.890, 198.3672
1251.966, 150.9434
1253.042, 275.0117
1254.117, 322.4941
1255.193, 284.6035
1256.268, 109.9375
1257.343, 223.4395
1258.418, 226.8516
1259.493, 210.5195
1260.567, 312.9199
1261.642, 263.0449
1262.716, 407.4160
1263.790, 217.7773
1264.864, 250.3242
1265.938, 299.6543
1267.011, 184.6055
1268.085, 182.7539
1269.158, 289.0430
1270.231, 329.3301
1271.304, 372.4023
1272.377, 346.2852
1273.450, 356.7852
