##NAMES=Tilleyite
##RRUFFID=R050227
##IDEAL CHEMISTRY=Ca_5_Si_2_O_7_(CO_3_)_2_
##LOCALITY=Crestmore Quarry, Riverside County, California, USA
##OWNER=RRUFF
##SOURCE=Marcus Origlieri
##DESCRIPTION=Aggregate of colorless subhedral crystals
##STATUS=The identification of this mineral has been confirmed by X-ray diffraction.
##URL=rruff.info/R050227
##PIN_ID=L00528
##ORIENTATION=Laser parallel to b* (0 1 0). Fiducial mark perpendicular to laser is parallel to -c [0 0 -1]
127.9790, 0.0000000E+00
129.2090, 162.1221
130.4390, 177.2578
131.6680, 60.39941
132.8980, 7.633789
134.1270, 68.65430
135.3560, 78.19727
136.5850, 275.1592
137.8140, 141.9492
139.0430, 443.1914
140.2710, 649.8447
141.5000, 814.8926
142.7280, 809.0420
143.9560, 1099.141
145.1840, 1227.106
146.4120, 1510.906
147.6390, 1486.281
148.8670, 1900.398
150.0940, 2141.502
151.3210, 2489.690
152.5490, 2559.164
153.7750, 2843.825
155.0020, 2964.807
156.2290, 2914.217
157.4550, 2705.144
158.6810, 2540.658
159.9080, 2023.818
161.1340, 1696.670
162.3590, 1238.252
163.5850, 754.6016
164.8110, 553.7432
166.0360, 117.7041
167.2610, 27.49512
168.4860, 18.83398
169.7110, 29.70410
170.9360, 154.0205
172.1610, 317.5791
173.3850, 431.1221
174.6100, 624.2100
175.8340, 671.0859
177.0580, 863.3535
178.2820, 1007.760
179.5050, 1059.297
180.7290, 978.9570
181.9520, 1011.729
183.1760, 985.6084
184.3990, 816.5830
185.6220, 853.6475
186.8450, 805.7959
188.0670, 703.0137
189.2900, 776.2871
190.5120, 897.6123
191.7340, 910.9854
192.9560, 1141.404
194.1780, 1140.869
195.4000, 1342.371
196.6220, 1219.909
197.8430, 1431.479
199.0640, 1220.080
200.2860, 1241.708
201.5070, 1229.371
202.7270, 1167.082
203.9480, 989.8252
205.1690, 706.6006
206.3890, 564.4209
207.6090, 437.2822
208.8290, 237.1836
210.0490, 284.1240
211.2690, 286.1025
212.4890, 7.118164
213.7080, 61.18359
214.9280, 10.70312
216.1470, 121.5371
217.3660, 78.24609
218.5850, 105.1250
219.8030, 151.9883
221.0220, 31.11816
222.2400, 57.86133
223.4590, 138.9336
224.6770, 265.1504
225.8950, 188.5039
227.1120, 279.8555
228.3300, 368.2734
229.5480, 549.7041
230.7650, 595.1650
231.9820, 623.0098
233.1990, 536.0381
234.4160, 636.4434
235.6330, 661.8242
236.8490, 747.1807
238.0660, 848.5156
239.2820, 688.8369
240.4980, 683.1504
241.7140, 663.5039
242.9300, 718.8369
244.1460, 810.1426
245.3610, 787.3574
246.5770, 886.3232
247.7920, 898.2656
249.0070, 1046.096
250.2220, 1149.912
251.4370, 1276.716
252.6510, 1496.506
253.8660, 1601.282
255.0800, 1723.043
256.2940, 1760.795
257.5080, 2114.629
258.7220, 2373.387
259.9360, 2628.119
261.1490, 2504.808
262.3630, 2564.482
263.5760, 2659.141
264.7890, 2760.782
266.0020, 2701.410
267.2150, 2795.023
268.4270, 3166.619
269.6400, 3554.201
270.8520, 3998.766
272.0640, 4683.315
273.2760, 5037.848
274.4880, 5662.636
275.7000, 6505.150
276.9120, 7068.364
278.1230, 7678.611
279.3340, 7810.855
280.5450, 8062.227
281.7560, 7929.623
282.9670, 7779.035
284.1780, 7681.457
285.3880, 7304.874
286.5980, 6885.289
287.8090, 6610.696
289.0190, 6409.099
290.2290, 6050.492
291.4380, 5644.881
292.6480, 5688.262
293.8570, 5307.795
295.0670, 5290.109
296.2760, 5320.840
297.4850, 5248.703
298.6930, 5473.766
299.9020, 5361.609
301.1110, 5329.914
302.3190, 4724.848
303.5270, 4593.127
304.7350, 4036.613
305.9430, 3822.290
307.1510, 3171.350
308.3580, 2652.160
309.5660, 2327.092
310.7730, 2158.933
311.9800, 1948.751
313.1870, 1731.457
314.3940, 1667.400
315.6010, 1669.682
316.8070, 1407.342
318.0130, 1261.948
319.2200, 1272.536
320.4260, 1397.515
321.6310, 1173.102
322.8370, 1230.413
324.0430, 1000.312
325.2480, 912.4912
326.4540, 876.1914
327.6590, 836.3691
328.8640, 824.2930
330.0680, 720.1191
331.2730, 733.9004
332.4780, 814.0840
333.6820, 799.1396
334.8860, 552.6191
336.0900, 533.6250
337.2940, 597.0850
338.4980, 690.5391
339.7010, 699.4072
340.9050, 814.4287
342.1080, 775.8633
343.3110, 934.2910
344.5140, 971.7109
345.7170, 1102.124
346.9200, 1387.528
348.1220, 1453.132
349.3240, 1525.677
350.5270, 1928.665
351.7290, 2052.207
352.9310, 2318.932
354.1320, 2335.392
355.3340, 2445.737
356.5350, 2274.072
357.7370, 2293.133
358.9380, 2200.367
360.1390, 2055.889
361.3400, 1948.481
362.5400, 1943.814
363.7410, 1610.477
364.9410, 1333.208
366.1410, 1275.532
367.3410, 1117.423
368.5410, 1070.638
369.7410, 930.8369
370.9400, 826.0195
372.1400, 792.1875
373.3390, 658.3672
374.5380, 529.5010
375.7370, 310.6172
376.9360, 396.7158
378.1350, 251.7969
379.3330, 341.8623
380.5310, 295.9102
381.7300, 251.9414
382.9280, 270.5439
384.1260, 247.0400
385.3230, 239.9287
386.5210, 251.8906
387.7180, 249.8340
388.9160, 249.7607
390.1130, 344.6699
391.3100, 478.5615
392.5060, 440.4395
393.7030, 543.2998
394.9000, 505.1445
396.0960, 542.9736
397.2920, 714.7871
398.4880, 812.5840
399.6840, 666.3652
400.8800, 753.1309
402.0750, 556.8789
403.2710, 556.6113
404.4660, 596.3271
405.6610, 477.0273
406.8560, 299.7109
408.0510, 293.3779
409.2450, 435.0293
410.4400, 410.6650
411.6340, 543.2842
412.8280, 416.8867
414.0220, 615.4727
415.2160, 450.0410
416.4100, 489.5938
417.6030, 403.1299
418.7970, 542.6455
419.9900, 760.1396
421.1830, 767.6152
422.3760, 748.0723
423.5690, 686.5137
424.7610, 816.2490
425.9540, 765.2520
427.1460, 784.8613
428.3380, 690.5469
429.5300, 635.5430
430.7220, 545.8408
431.9140, 455.4219
433.1050, 395.5186
434.2970, 277.7500
435.4880, 281.6416
436.6790, 221.7334
437.8700, 261.0850
439.0610, 160.5938
440.2510, 123.0059
441.4420, 75.39258
442.6320, 116.4785
443.8220, 41.70898
445.0120, 86.88086
446.2020, 41.26367
447.3910, 21.78906
448.5810, 71.66016
449.7700, 93.83496
450.9600, 89.96777
452.1490, 92.02734
453.3370, 58.84180
454.5260, 74.59375
455.7150, 6.779297
456.9030, 68.58008
458.0910, 69.93262
459.2800, 23.56641
460.4670, 105.5996
461.6550, 76.01562
462.8430, 117.0391
464.0300, 79.08594
465.2180, 91.86914
466.4050, 191.1484
467.5920, 9.974609
468.7790, 48.23242
469.9650, 9.492188
471.1520, 22.79688
472.3380, 30.06836
473.5250, 18.36133
474.7110, 119.2168
475.8970, 147.7676
477.0820, 284.2910
478.2680, 156.7910
479.4540, 295.2656
480.6390, 324.0039
481.8240, 557.4512
483.0090, 335.8789
484.1940, 449.2832
485.3780, 494.6680
486.5630, 494.0254
487.7470, 306.3613
488.9320, 301.6816
490.1160, 234.0234
491.3000, 42.37500
492.4830, 137.7402
493.6670, 242.0781
494.8500, 53.56250
496.0340, 256.7402
497.2170, 319.0215
498.4000, 303.2930
499.5820, 148.5410
500.7650, 221.7656
501.9480, 333.9668
503.1300, 577.1543
504.3120, 535.3535
505.4940, 723.5586
506.6760, 527.7695
507.8580, 462.0039
509.0390, 536.2305
510.2210, 434.4414
511.4020, 322.6289
512.5830, 327.7949
513.7640, 284.0664
514.9450, 273.0488
516.1250, 340.1406
517.3060, 447.2168
518.4860, 583.2734
519.6660, 696.2734
520.8460, 864.3086
522.0260, 1019.303
523.2060, 1037.271
524.3850, 1290.252
525.5650, 1283.211
526.7440, 1362.113
527.9230, 1358.973
529.1020, 1243.857
530.2810, 1180.703
531.4590, 1103.053
532.6380, 1051.375
533.8160, 925.1973
534.9940, 869.9941
536.1720, 792.7715
537.3500, 1104.521
538.5270, 1064.244
539.7050, 1184.953
540.8820, 1422.639
542.0590, 1388.299
543.2360, 1601.930
544.4130, 2069.566
545.5900, 1898.176
546.7660, 1798.760
547.9430, 1836.352
549.1190, 1565.916
550.2950, 1413.457
551.4710, 1150.969
552.6470, 832.4551
553.8220, 836.9121
554.9980, 595.3438
556.1730, 631.7480
557.3480, 431.1250
558.5230, 424.4746
559.6980, 304.7969
560.8730, 499.0918
562.0470, 292.3594
563.2220, 413.6016
564.3960, 292.8125
565.5700, 200.9961
566.7440, 132.1504
567.9170, 221.2734
569.0910, 197.3652
570.2640, 53.42578
571.4380, 124.4512
572.6110, 25.44336
573.7840, 78.39844
574.9570, 56.31641
576.1290, 116.1973
577.3020, 144.0449
578.4740, 153.0430
579.6460, 190.5117
580.8180, 207.6172
581.9900, 206.6914
583.1620, 271.5137
584.3330, 229.5000
585.5040, 235.9785
586.6760, 177.7793
587.8470, 53.18945
589.0180, 17.66016
590.1880, 127.2480
591.3590, 200.9922
592.5290, 100.8711
593.7000, 92.73047
594.8700, 206.9961
596.0400, 89.80273
597.2090, 168.7402
598.3790, 144.6230
599.5490, 51.94727
600.7180, 273.1660
601.8870, 160.8027
603.0560, 8.003906
604.2250, 233.8301
605.3940, 43.86523
606.5620, 98.34180
607.7300, 242.6953
608.8990, 230.2773
610.0670, 244.7715
611.2350, 51.58594
612.4020, 219.0566
613.5700, 63.79883
614.7370, 284.3594
615.9050, 265.9395
617.0720, 200.2402
618.2390, 311.4805
619.4060, 258.0508
620.5720, 130.3457
621.7390, 246.4102
622.9050, 390.1094
624.0710, 342.3594
625.2370, 360.2949
626.4030, 509.9238
627.5690, 569.6621
628.7340, 594.2383
629.9000, 823.2168
631.0650, 872.0781
632.2300, 1194.475
633.3950, 1332.682
634.5600, 1437.043
635.7240, 1770.031
636.8890, 2113.332
638.0530, 2786.084
639.2170, 3265.783
640.3810, 3929.949
641.5450, 4484.420
642.7080, 5206.078
643.8720, 5657.568
645.0350, 5905.404
646.1980, 6116.832
647.3610, 5958.023
648.5240, 5251.744
649.6870, 4959.260
650.8490, 4261.777
652.0120, 3725.367
653.1740, 2999.738
654.3360, 2618.834
655.4980, 2301.816
656.6600, 2004.445
657.8210, 1647.363
658.9830, 1632.295
660.1440, 1380.207
661.3050, 1478.479
662.4660, 1233.488
663.6270, 1051.359
664.7870, 1236.639
665.9480, 1037.529
667.1080, 863.3496
668.2680, 781.1016
669.4280, 719.8164
670.5880, 713.9766
671.7480, 797.2520
672.9070, 656.8730
674.0670, 614.4688
675.2260, 674.3047
676.3850, 456.8457
677.5440, 518.5195
678.7030, 537.5391
679.8610, 518.2305
681.0200, 428.6660
682.1780, 465.0762
683.3360, 439.5898
684.4940, 474.1270
685.6520, 449.4570
686.8090, 492.3301
687.9670, 530.6055
689.1240, 531.8535
690.2810, 626.0742
691.4380, 951.2695
692.5950, 908.4355
693.7520, 1146.688
694.9080, 1379.801
696.0650, 1454.887
697.2210, 1531.947
698.3770, 1449.980
699.5330, 1473.990
700.6880, 1355.969
701.8440, 1287.926
702.9990, 1188.855
704.1550, 1171.758
705.3100, 1250.320
706.4650, 1145.568
707.6190, 1477.166
708.7740, 1615.637
709.9290, 1884.402
711.0830, 2287.520
712.2370, 2497.957
713.3910, 2788.832
714.5450, 2984.523
715.6980, 2628.508
716.8520, 2720.629
718.0050, 2367.723
719.1580, 2213.949
720.3110, 1856.225
721.4640, 1661.477
722.6170, 1316.980
723.7700, 1153.287
724.9220, 711.6035
726.0740, 601.6582
727.2260, 441.0996
728.3780, 553.2988
729.5300, 136.1543
730.6810, 154.3594
731.8330, 118.1777
732.9840, 35.00000
734.1350, 137.3145
735.2860, 114.1680
736.4370, 227.3359
737.5880, 36.43555
738.7380, 50.73438
739.8880, 132.2363
741.0390, 222.4043
742.1890, 133.4688
743.3380, 7.089844
744.4880, 184.2598
745.6380, 22.24219
746.7870, 112.6250
747.9360, 21.99414
749.0850, 12.64648
750.2340, 241.0762
751.3830, 130.3848
752.5310, 249.1309
753.6800, 69.42188
754.8280, 158.6875
755.9760, 64.93750
757.1240, 91.16406
758.2720, 45.63086
759.4190, 89.25000
760.5670, 191.3730
761.7140, 32.47852
762.8610, 100.5566
764.0080, 214.6152
765.1550, 135.6504
766.3020, 6.328125
767.4480, 142.3477
768.5950, 93.47852
769.7410, 167.2402
770.8870, 83.98242
772.0330, 152.3652
773.1780, 22.82227
774.3240, 7.695313
775.4690, 30.81250
776.6140, 75.63281
777.7590, 62.05469
778.9040, 55.45898
780.0490, 62.84375
781.1940, 96.20703
782.3380, 14.55273
783.4820, 95.87500
784.6260, 157.1758
785.7700, 14.46094
786.9140, 19.27734
788.0580, 43.94727
789.2010, 20.15039
790.3450, 64.33398
791.4880, 122.5000
792.6310, 149.6504
793.7730, 26.21680
794.9160, 0.8769530
796.0590, 277.9434
797.2010, 164.9961
798.3430, 39.96680
799.4850, 90.02344
800.6270, 131.0039
801.7690, 9.878906
802.9100, 94.74219
804.0520, 37.41016
805.1930, 112.3926
806.3340, 113.1816
807.4750, 5.958984
808.6160, 96.28516
809.7560, 158.3984
810.8970, 125.0684
812.0370, 11.27344
813.1770, 158.3574
814.3170, 66.97461
815.4570, 34.42188
816.5960, 47.14648
817.7360, 111.7012
818.8750, 133.2422
820.0140, 111.2305
821.1530, 68.22461
822.2920, 102.6641
823.4310, 134.9043
824.5690, 121.4395
825.7070, 152.7734
826.8460, 333.0957
827.9840, 180.4062
829.1220, 179.7090
830.2590, 54.00000
831.3970, 146.2793
832.5340, 453.5488
833.6710, 217.8086
834.8080, 503.0586
835.9450, 442.2988
837.0820, 631.5293
838.2190, 667.7520
839.3550, 294.9648
840.4910, 526.1699
841.6270, 374.3672
842.7630, 225.5547
843.8990, 223.7383
845.0350, 161.9141
846.1700, 141.0215
847.3060, 56.24805
848.4410, 164.4082
849.5760, 124.5684
850.7100, 167.7227
851.8450, 68.87695
852.9800, 34.02539
854.1140, 133.1680
855.2480, 231.3066
856.3820, 248.4414
857.5160, 252.5684
858.6500, 91.69336
859.7830, 63.81055
860.9170, 138.9238
862.0500, 93.03125
863.1830, 211.1367
864.3160, 287.2441
865.4480, 381.3594
866.5810, 463.2051
867.7130, 472.1250
868.8460, 367.8984
869.9780, 355.3086
871.1100, 376.1641
872.2410, 368.9238
873.3730, 308.0176
874.5050, 144.4531
875.6360, 2.1484001E-02
876.7670, 211.8418
877.8980, 22.06055
879.0290, 145.8047
880.1590, 232.5547
881.2900, 188.6523
882.4200, 166.9863
883.5500, 220.7891
884.6800, 475.1309
885.8100, 446.6504
886.9400, 709.7617
888.0690, 578.7129
889.1990, 749.8672
890.3280, 813.5723
891.4570, 1292.717
892.5860, 1446.469
893.7140, 1946.334
894.8430, 2288.988
895.9710, 3056.848
897.1000, 4193.053
898.2280, 5651.701
899.3560, 7632.643
900.4830, 10294.87
901.6110, 13291.96
902.7380, 15551.20
903.8660, 18123.91
904.9930, 19884.71
906.1200, 20968.89
907.2460, 19952.79
908.3730, 17487.96
909.5000, 14281.28
910.6260, 11120.53
911.7520, 7873.404
912.8780, 5582.314
914.0040, 3855.201
915.1290, 2807.070
916.2550, 2071.988
917.3800, 1543.053
918.5050, 1374.754
919.6300, 1202.842
920.7550, 1140.160
921.8800, 734.9258
923.0040, 776.8809
924.1290, 1018.805
925.2530, 956.6445
926.3770, 1263.678
927.5010, 1136.965
928.6250, 880.3184
929.7480, 1075.033
930.8720, 918.4375
931.9950, 968.8066
933.1180, 872.1816
934.2410, 810.1738
935.3640, 903.4082
936.4860, 767.7617
937.6090, 666.6875
938.7310, 522.9844
939.8530, 646.3320
940.9750, 272.7285
942.0970, 634.1484
943.2180, 549.1035
944.3400, 239.9258
945.4610, 427.3828
946.5820, 474.8477
947.7030, 561.0547
948.8240, 528.5781
949.9450, 534.9668
951.0650, 685.9941
952.1860, 814.3320
953.3060, 675.9102
954.4260, 662.4980
955.5460, 312.8926
956.6650, 321.3906
957.7850, 235.0391
958.9040, 208.1250
960.0230, 213.7988
961.1420, 135.4785
962.2610, 272.1699
963.3800, 263.8730
964.4990, 67.58789
965.6170, 252.2148
966.7350, 472.9688
967.8530, 366.7324
968.9710, 553.2969
970.0890, 566.3262
971.2070, 656.0957
972.3240, 563.9102
973.4410, 507.7383
974.5580, 376.5781
975.6750, 430.4277
976.7920, 669.2891
977.9090, 713.1602
979.0250, 690.0469
980.1410, 1016.943
981.2580, 1021.854
982.3740, 1201.775
983.4890, 1277.707
984.6050, 1230.652
985.7200, 1221.613
986.8360, 1175.621
987.9510, 1140.012
989.0660, 1025.520
990.1810, 1020.537
991.2950, 941.5664
992.4100, 793.6289
993.5240, 664.7070
994.6390, 588.7969
995.7530, 523.8848
996.8660, 491.2539
997.9800, 490.5059
999.0940, 485.6543
1000.207, 530.8516
1001.320, 542.7246
1002.433, 755.3379
1003.546, 851.5566
1004.659, 1093.789
1005.772, 1212.086
1006.884, 1468.295
1007.996, 1399.566
1009.108, 1416.855
1010.220, 1318.094
1011.332, 1231.750
1012.444, 1173.785
1013.555, 993.5176
1014.666, 976.8828
1015.777, 844.2617
1016.888, 689.6758
1017.999, 815.1758
1019.110, 297.2500
1020.220, 449.5059
1021.331, 330.3906
1022.441, 386.3125
1023.551, 283.7969
1024.661, 244.0117
1025.770, 347.5605
1026.880, 280.1211
1027.989, 334.6934
1029.098, 415.2988
1030.207, 505.9160
1031.316, 514.5566
1032.425, 426.7148
1033.533, 443.3809
1034.642, 471.4258
1035.750, 254.1172
1036.858, 189.9551
1037.966, 442.7207
1039.073, 238.5293
1040.181, 89.40234
1041.288, 72.28125
1042.396, 284.2207
1043.503, 382.1797
1044.610, 228.1523
1045.716, 214.1523
1046.823, 68.05078
1047.929, 210.0742
1049.036, 25.64648
1050.142, 244.6875
1051.248, 252.4473
1052.353, 230.5176
1053.459, 293.7930
1054.564, 360.8809
1055.670, 14.14453
1056.775, 219.3340
1057.880, 216.4609
1058.985, 489.6016
1060.089, 367.7480
1061.194, 677.9043
1062.298, 565.0664
1063.402, 555.2500
1064.506, 578.6387
1065.610, 511.9570
1066.713, 726.1348
1067.817, 538.3652
1068.920, 852.6621
1070.023, 1067.945
1071.126, 1206.238
1072.229, 1534.742
1073.332, 2342.062
1074.435, 3280.742
1075.537, 5650.076
1076.639, 8184.684
1077.741, 12407.06
1078.843, 15704.70
1079.945, 19090.64
1081.046, 23547.34
1082.148, 26125.93
1083.249, 29243.35
1084.350, 32766.82
1085.451, 33919.61
1086.551, 33106.09
1087.652, 29747.93
1088.752, 25799.70
1089.853, 22415.01
1090.953, 22045.84
1092.053, 25252.41
1093.152, 25189.99
1094.252, 20939.57
1095.351, 16350.15
1096.451, 11483.93
1097.550, 7269.043
1098.649, 4179.410
1099.748, 2455.004
1100.846, 1425.037
1101.945, 937.9219
1103.043, 731.5742
1104.141, 749.8223
1105.239, 553.4258
1106.337, 318.4023
1107.434, 310.0078
1108.532, 423.6172
1109.629, 372.2305
1110.726, 258.8418
1111.823, 63.64062
1112.920, 207.2578
1114.017, 258.8770
1115.113, 114.7227
1116.210, 35.72852
1117.306, 425.4277
1118.402, 107.0488
1119.498, 334.6719
1120.593, 232.9902
1121.689, 430.3125
1122.784, 219.2520
1123.879, 549.9316
1124.974, 58.74023
1126.069, 262.4473
1127.164, 47.38086
1128.259, 191.4004
1129.353, 14.54102
1130.447, 17.07227
1131.541, 84.05273
1132.635, 3.197266
1133.729, 113.4199
1134.822, 31.03125
1135.916, 88.64258
1137.009, 264.2695
1138.102, 116.3770
1139.195, 157.9980
1140.288, 174.9160
1141.380, 30.53906
1142.473, 96.15625
1143.565, 48.76953
1144.657, 46.38281
1145.749, 48.23438
1146.841, 38.40625
1147.932, 28.62695
1149.024, 13.55273
1150.115, 13.85938
1151.206, 104.2812
1152.297, 161.2207
1153.388, 29.48633
1154.479, 201.9277
1155.569, 243.5391
1156.659, 334.8555
1157.750, 156.2070
1158.839, 295.2168
1159.929, 79.47070
1161.019, 155.7168
1162.108, 75.56055
1163.198, 11.37305
1164.287, 142.7070
1165.376, 2.421875
1166.465, 106.0762
1167.553, 44.21875
1168.642, 156.3477
1169.730, 185.8535
1170.818, 224.1895
1171.906, 123.2930
1172.994, 84.38477
1174.082, 167.4844
1175.170, 261.5566
1176.257, 290.6152
1177.344, 86.33594
1178.431, 168.4824
1179.518, 15.50781
1180.605, 168.4395
1181.691, 0.8496090
1182.778, 115.0801
1183.864, 40.01562
1184.950, 312.3711
1186.036, 63.22461
1187.122, 86.33203
1188.207, 215.1562
1189.292, 139.0352
1190.378, 111.8340
1191.463, 343.6211
1192.548, 158.5508
1193.632, 196.3086
1194.717, 67.05859
1195.801, 178.7910
1196.886, 95.88672
1197.970, 354.5898
1199.054, 106.2930
1200.137, 378.9824
1201.221, 276.6582
1202.305, 75.32227
1203.388, 186.2051
1204.471, 42.85352
1205.554, 388.5625
1206.637, 66.17578
1207.719, 359.7734
1208.802, 128.4414
1209.884, 318.0117
1210.966, 121.1582
1212.048, 42.69727
1213.130, 136.9648
1214.212, 149.1055
1215.293, 73.67773
1216.374, 261.5117
1217.456, 64.85352
1218.536, 95.81445
1219.617, 77.59766
1220.698, 82.63281
1221.778, 259.9805
1222.859, 246.2070
1223.939, 256.4180
1225.019, 308.6133
1226.099, 113.7910
1227.178, 7.035156
1228.258, 27.41797
1229.337, 203.2051
1230.417, 62.46484
1231.496, 99.52930
1232.574, 157.5742
1233.653, 35.59766
1234.732, 253.5977
1235.810, 84.57617
1236.888, 349.5371
1237.966, 305.4785
1239.044, 207.8809
1240.122, 492.1797
1241.199, 135.1699
1242.277, 190.4648
1243.354, 228.3047
1244.431, 128.1562
1245.508, 90.95898
1246.585, 165.8242
1247.661, 243.1426
1248.738, 247.0000
1249.814, 44.71680
1250.890, 15.52930
1251.966, 115.1816
1253.042, 38.98047
1254.117, 149.3926
1255.193, 174.2852
1256.268, 26.80469
1257.343, 101.3945
1258.418, 93.30078
1259.493, 203.3926
1260.567, 26.19141
1261.642, 170.4199
1262.716, 434.6445
1263.790, 272.9590
1264.864, 316.3320
1265.938, 241.3496
1267.011, 94.60156
1268.085, 228.5527
1269.158, 141.9004
1270.231, 256.5273
1271.304, 216.6816
1272.377, 319.8164
1273.450, 362.2617
1274.522, 158.5332
1275.594, 93.76758
1276.666, 427.9355
1277.738, 324.1250
1278.810, 529.0664
1279.882, 363.4238
1280.953, 86.60156
1282.025, 136.1367
1283.096, 328.6230
1284.167, 178.5352
1285.238, 110.2969
1286.308, 176.4961
1287.379, 42.25781
1288.449, 278.0000
1289.519, 408.7148
1290.589, 84.41016
1291.659, 453.4492
1292.729, 28.80078
1293.798, 65.79688
1294.868, 77.00000
1295.937, 227.5391
1297.006, 280.9336
1298.075, 108.4336
1299.143, 146.9062
1300.212, 205.3555
1301.280, 209.7812
1302.348, 198.1836
1303.416, 307.5625
1304.484, 250.9219
1305.552, 370.2578
1306.620, 35.67188
1307.687, 191.9531
