##NAMES=Tilleyite
##RRUFFID=R050227
##IDEAL CHEMISTRY=Ca_5_Si_2_O_7_(CO_3_)_2_
##LOCALITY=Crestmore Quarry, Riverside County, California, USA
##OWNER=RRUFF
##SOURCE=Marcus Origlieri
##DESCRIPTION=Aggregate of colorless subhedral crystals
##STATUS=The identification of this mineral has been confirmed by X-ray diffraction.
##URL=rruff.info/R050227
##PIN_ID=L00359
##ORIENTATION=Laser parallel to (1 0 1). Fiducial mark perpendicular to laser is parallel to b [0 1 0]
95.94800, 0.0000000E+00
97.18200, 149.1772
98.41600, 154.2607
99.64900, 155.7046
100.8830, 5.243164
102.1160, 15.72021
103.3490, 70.77734
104.5820, 233.2466
105.8150, 572.0732
107.0470, 951.5068
108.2800, 1539.136
109.5120, 1765.700
110.7440, 1440.028
111.9760, 1095.022
113.2080, 847.6089
114.4400, 663.5981
115.6710, 510.2100
116.9030, 508.8662
118.1340, 448.5928
119.3650, 686.4082
120.5960, 868.3247
121.8270, 1074.354
123.0580, 1085.501
124.2880, 815.7749
125.5190, 700.2100
126.7490, 427.8613
127.9790, 471.8184
129.2090, 340.8770
130.4390, 443.0415
131.6680, 557.3115
132.8980, 539.9150
134.1270, 528.4370
135.3560, 743.9888
136.5850, 1031.688
137.8140, 1343.525
139.0430, 1664.493
140.2710, 2311.586
141.5000, 2669.797
142.7280, 3038.123
143.9560, 3301.558
145.1840, 3580.100
146.4120, 3654.751
147.6390, 3341.521
148.8670, 2772.409
150.0940, 2377.416
151.3210, 1962.539
152.5490, 1809.768
153.7750, 1743.098
155.0020, 1736.739
156.2290, 1860.496
157.4550, 1784.071
158.6810, 1654.267
159.9080, 1382.933
161.1340, 1073.686
162.3590, 770.5215
163.5850, 583.6196
164.8110, 239.4321
166.0360, 228.5005
167.2610, 136.6401
168.4860, 15.15137
169.7110, 149.8613
170.9360, 56.49658
172.1610, 18.15283
173.3850, 130.1299
174.6100, 136.4268
175.8340, 122.7485
177.0580, 259.0986
178.2820, 336.4790
179.5050, 324.8901
180.7290, 259.3330
181.9520, 368.8086
183.1760, 227.3174
184.3990, 256.8618
185.6220, 291.4390
186.8450, 235.0498
188.0670, 292.6948
189.2900, 399.3765
190.5120, 606.0952
191.7340, 797.8555
192.9560, 1041.653
194.1780, 1259.602
195.4000, 1574.644
196.6220, 1820.820
197.8430, 1715.112
199.0640, 1661.525
200.2860, 1360.069
201.5070, 1094.666
202.7270, 918.3516
203.9480, 766.0957
205.1690, 611.8594
206.3890, 437.6006
207.6090, 344.3135
208.8290, 140.0586
210.0490, 99.88184
211.2690, 19.61914
212.4890, 22.51367
213.7080, 25.55078
214.9280, 26.60059
216.1470, 119.3672
217.3660, 135.3418
218.5850, 16.32812
219.8030, 71.32324
221.0220, 72.67969
222.2400, 58.32422
223.4590, 26.33398
224.6770, 154.3740
225.8950, 111.4414
227.1120, 277.5195
228.3300, 255.6084
229.5480, 236.7109
230.7650, 221.8301
231.9820, 258.9805
233.1990, 264.1631
234.4160, 247.3438
235.6330, 338.5205
236.8490, 443.6963
238.0660, 432.8691
239.2820, 336.0498
240.4980, 547.2246
241.7140, 595.3926
242.9300, 561.0273
244.1460, 703.8994
245.3610, 759.9922
246.5770, 780.1289
247.7920, 817.7080
249.0070, 769.6592
250.2220, 748.8643
251.4370, 625.0176
252.6510, 635.2744
253.8660, 579.5605
255.0800, 610.9180
256.2940, 620.3252
257.5080, 626.7793
258.7220, 686.2773
259.9360, 580.8135
261.1490, 558.3828
262.3630, 450.9805
263.5760, 520.6006
264.7890, 540.2461
266.0020, 479.9160
267.2150, 671.6104
268.4270, 874.3252
269.6400, 892.1289
270.8520, 967.1074
272.0640, 1332.887
273.2760, 1436.685
274.4880, 1607.500
275.7000, 1668.333
276.9120, 1570.299
278.1230, 1529.164
279.3340, 1454.343
280.5450, 1544.537
281.7560, 1433.301
282.9670, 1466.540
284.1780, 1496.917
285.3880, 1676.328
286.5980, 1744.604
287.8090, 1686.771
289.0190, 1554.258
290.2290, 1620.243
291.4380, 1667.706
292.6480, 1634.369
293.8570, 1683.628
295.0670, 1713.633
296.2760, 1891.459
297.4850, 2038.623
298.6930, 2310.399
299.9020, 2551.351
301.1110, 2922.275
302.3190, 2884.359
303.5270, 2552.070
304.7350, 2234.676
305.9430, 1967.636
307.1510, 1634.483
308.3580, 1425.161
309.5660, 1242.545
310.7730, 1094.242
311.9800, 1010.877
313.1870, 967.6348
314.3940, 868.6562
315.6010, 871.9785
316.8070, 769.6621
318.0130, 700.8838
319.2200, 764.8994
320.4260, 625.8623
321.6310, 683.2998
322.8370, 454.7148
324.0430, 477.4180
325.2480, 548.3252
326.4540, 439.2705
327.6590, 386.5039
328.8640, 394.9941
330.0680, 304.6240
331.2730, 468.4707
332.4780, 344.8447
333.6820, 357.9277
334.8860, 371.0117
336.0900, 299.2842
337.2940, 296.5752
338.4980, 205.2393
339.7010, 375.4971
340.9050, 485.0645
342.1080, 463.0664
343.3110, 364.0615
344.5140, 416.1885
345.7170, 408.6162
346.9200, 440.0986
348.1220, 482.9795
349.3240, 540.3320
350.5270, 588.7500
351.7290, 612.4902
352.9310, 699.4336
354.1320, 606.8359
355.3340, 689.3936
356.5350, 631.3730
357.7370, 722.9180
358.9380, 669.1113
360.1390, 683.4473
361.3400, 666.4346
362.5400, 532.2637
363.7410, 805.1143
364.9410, 686.2480
366.1410, 616.3721
367.3410, 775.4443
368.5410, 820.3467
369.7410, 583.4902
370.9400, 583.2295
372.1400, 611.0107
373.3390, 573.0273
374.5380, 570.1641
375.7370, 479.9473
376.9360, 342.9707
378.1350, 345.6953
379.3330, 305.9609
380.5310, 303.5840
381.7300, 304.9316
382.9280, 176.1426
384.1260, 311.7188
385.3230, 279.2783
386.5210, 267.8232
387.7180, 355.3438
388.9160, 425.8467
390.1130, 558.3398
391.3100, 688.8252
392.5060, 755.3115
393.7030, 917.8008
394.9000, 945.2822
396.0960, 1012.754
397.2920, 1060.213
398.4880, 939.6592
399.6840, 790.0928
400.8800, 732.5117
402.0750, 759.9180
403.2710, 567.3096
404.4660, 561.6865
405.6610, 375.0488
406.8560, 481.3965
408.0510, 369.7285
409.2450, 259.0449
410.4400, 370.3457
411.6340, 233.6309
412.8280, 156.8984
414.0220, 121.1494
415.2160, 244.3818
416.4100, 190.5977
417.6030, 203.7939
418.7970, 237.2627
419.9900, 151.1348
421.1830, 257.2783
422.3760, 82.40332
423.5690, 75.50684
424.7610, 272.6201
425.9540, 75.68359
427.1460, 47.89844
428.3380, 45.31934
429.5300, 82.31250
430.7220, 113.5898
431.9140, 41.53613
433.1050, 126.1719
434.2970, 29.65332
435.4880, 19.91895
436.6790, 130.1523
437.8700, 2.694336
439.0610, 74.22461
440.2510, 28.96289
441.4420, 22.26562
442.6320, 56.36523
443.8220, 39.61230
445.0120, 57.69727
446.2020, 51.28711
447.3910, 60.54199
448.5810, 11.09277
449.7700, 68.43164
450.9600, 49.18750
452.1490, 28.40723
453.3370, 48.12207
454.5260, 64.99512
455.7150, 41.20508
456.9030, 117.9092
458.0910, 86.11035
459.2800, 9.189453
460.4670, 63.22070
461.6550, 19.52734
462.8430, 1.381836
464.0300, 126.9502
465.2180, 133.0938
466.4050, 64.81641
467.5920, 35.88867
468.7790, 63.28125
469.9650, 51.65527
471.1520, 117.0596
472.3380, 83.62598
473.5250, 45.31543
474.7110, 145.1357
475.8970, 21.64648
477.0820, 214.6455
478.2680, 169.4102
479.4540, 164.9150
480.6390, 75.53320
481.8240, 171.8750
483.0090, 97.25000
484.1940, 256.5361
485.3780, 330.8047
486.5630, 199.0508
487.7470, 125.2930
488.9320, 192.5273
490.1160, 214.7314
491.3000, 95.91602
492.4830, 121.0703
493.6670, 39.80957
494.8500, 231.2578
496.0340, 119.2979
497.2170, 80.33594
498.4000, 31.34082
499.5820, 79.30957
500.7650, 59.24414
501.9480, 249.1553
503.1300, 26.95898
504.3120, 264.8721
505.4940, 233.6748
506.6760, 163.4473
507.8580, 107.7871
509.0390, 172.8789
510.2210, 210.5156
511.4020, 150.1484
512.5830, 266.7900
513.7640, 231.4141
514.9450, 172.0088
516.1250, 140.5732
517.3060, 222.1045
518.4860, 161.6045
519.6660, 230.0742
520.8460, 21.51270
522.0260, 293.9082
523.2060, 162.2754
524.3850, 267.6084
525.5650, 341.9131
526.7440, 440.1973
527.9230, 383.7422
529.1020, 279.9990
530.2810, 378.2256
531.4590, 409.8057
532.6380, 307.9746
533.8160, 374.1133
534.9940, 284.3213
536.1720, 343.8477
537.3500, 528.8994
538.5270, 630.9189
539.7050, 507.9102
540.8820, 672.8691
542.0590, 674.7988
543.2360, 1018.696
544.4130, 867.5654
545.5900, 970.4014
546.7660, 1023.208
547.9430, 938.9834
549.1190, 969.0146
550.2950, 922.6484
551.4710, 915.3311
552.6470, 757.9824
553.8220, 779.6016
554.9980, 713.1250
556.1730, 737.4619
557.3480, 532.9883
558.5230, 547.4834
559.6980, 464.6064
560.8730, 511.3789
562.0470, 364.6602
563.2220, 291.0293
564.3960, 294.9521
565.5700, 251.8096
566.7440, 261.0830
567.9170, 217.8691
569.0910, 163.5000
570.2640, 262.0801
571.4380, 186.7793
572.6110, 321.5693
573.7840, 172.0225
574.9570, 266.0664
576.1290, 141.3955
577.3020, 51.61230
578.4740, 203.2080
579.6460, 139.0381
580.8180, 47.97656
581.9900, 194.6260
583.1620, 132.5908
584.3330, 148.3574
585.5040, 93.12109
586.6760, 162.6904
587.8470, 105.6113
589.0180, 134.5889
590.1880, 144.6670
591.3590, 88.11133
592.5290, 132.2588
593.7000, 87.64453
594.8700, 37.78809
596.0400, 155.0293
597.2090, 27.75391
598.3790, 251.8438
599.5490, 104.7256
600.7180, 177.7920
601.8870, 105.4834
603.0560, 148.6953
604.2250, 79.93066
605.3940, 117.6621
606.5620, 219.5449
607.7300, 126.0186
608.8990, 183.2549
610.0670, 216.6484
611.2350, 170.5283
612.4020, 331.5576
613.5700, 180.0850
614.7370, 140.2734
615.9050, 214.3320
617.0720, 88.22363
618.2390, 138.3223
619.4060, 192.8428
620.5720, 158.7256
621.7390, 237.5586
622.9050, 202.7627
624.0710, 283.9570
625.2370, 340.5898
626.4030, 233.1934
627.5690, 463.3193
628.7340, 515.5293
629.9000, 463.8691
631.0650, 456.0088
632.2300, 535.0732
633.3950, 657.0215
634.5600, 781.9229
635.7240, 1013.534
636.8890, 1245.281
638.0530, 1535.099
639.2170, 1822.531
640.3810, 2263.119
641.5450, 2783.320
642.7080, 3309.635
643.8720, 4087.603
645.0350, 5015.901
646.1980, 5773.984
647.3610, 6090.988
648.5240, 5770.764
649.6870, 4942.979
650.8490, 3930.520
652.0120, 3270.878
653.1740, 2390.217
654.3360, 1786.186
655.4980, 1422.770
656.6600, 1135.192
657.8210, 871.9258
658.9830, 863.3740
660.1440, 783.0811
661.3050, 651.2012
662.4660, 605.1768
663.6270, 399.5098
664.7870, 488.1777
665.9480, 549.7744
667.1080, 170.8379
668.2680, 491.4199
669.4280, 516.9746
670.5880, 138.5010
671.7480, 447.0840
672.9070, 418.7188
674.0670, 204.4941
675.2260, 119.9072
676.3850, 227.2871
677.5440, 313.6416
678.7030, 250.9668
679.8610, 365.2656
681.0200, 266.5381
682.1780, 355.7842
683.3360, 308.7217
684.4940, 271.1943
685.6520, 241.3594
686.8090, 238.9375
687.9670, 166.6084
689.1240, 264.6934
690.2810, 337.7510
691.4380, 376.7812
692.5950, 527.7871
693.7520, 688.7656
694.9080, 1195.719
696.0650, 1574.647
697.2210, 1263.552
698.3770, 1160.439
699.5330, 874.3047
700.6880, 1117.144
701.8440, 1229.957
702.9990, 1108.745
704.1550, 900.5107
705.3100, 574.2217
706.4650, 432.9395
707.6190, 375.4590
708.7740, 248.7285
709.9290, 254.3789
711.0830, 442.7012
712.2370, 518.3057
713.3910, 733.5205
714.5450, 770.1201
715.6980, 914.2314
716.8520, 1001.632
718.0050, 704.0332
719.1580, 816.1475
720.3110, 891.0107
721.4640, 1034.382
722.6170, 832.4951
723.7700, 574.6904
724.9220, 373.6621
726.0740, 187.9424
727.2260, 245.9971
728.3780, 114.1543
729.5300, 179.3359
730.6810, 92.30566
731.8330, 98.43848
732.9840, 75.99805
734.1350, 2.055664
735.2860, 55.10449
736.4370, 44.72070
737.5880, 123.0830
738.7380, 141.9668
739.8880, 127.1436
741.0390, 181.1709
742.1890, 260.0244
743.3380, 177.7539
744.4880, 113.6250
745.6380, 15.12988
746.7870, 31.29590
747.9360, 3.285156
749.0850, 123.8506
750.2340, 119.1719
751.3830, 95.86914
752.5310, 115.7383
753.6800, 24.57520
754.8280, 112.3633
755.9760, 57.76270
757.1240, 137.3506
758.2720, 127.1523
759.4190, 97.79688
760.5670, 27.66797
761.7140, 106.4580
762.8610, 2.709961
764.0080, 17.08691
765.1550, 62.14258
766.3020, 53.32812
767.4480, 218.2061
768.5950, 0.1650390
769.7410, 73.43066
770.8870, 160.0117
772.0330, 26.42285
773.1780, 51.11816
774.3240, 84.35840
775.4690, 105.0928
776.6140, 35.53027
777.7590, 172.9531
778.9040, 4.635742
780.0490, 75.74707
781.1940, 7.885742
782.3380, 62.46582
783.4820, 174.8018
784.6260, 61.87695
785.7700, 101.3848
786.9140, 20.67383
788.0580, 70.05664
789.2010, 135.8477
790.3450, 18.73633
791.4880, 59.33984
792.6310, 86.40234
793.7730, 116.6426
794.9160, 146.7031
796.0590, 109.5195
797.2010, 124.5352
798.3430, 140.5371
799.4850, 19.53711
800.6270, 160.5215
801.7690, 157.4941
802.9100, 17.54492
804.0520, 105.6133
805.1930, 84.98633
806.3340, 175.8301
807.4750, 93.66406
808.6160, 33.10547
809.7560, 13.91406
810.8970, 4.712891
812.0370, 159.4023
813.1770, 68.72852
814.3170, 95.49414
815.4570, 44.24805
816.5960, 61.99023
817.7360, 38.72656
818.8750, 62.45117
820.0140, 91.60742
821.1530, 105.8750
822.2920, 189.5742
823.4310, 207.2637
824.5690, 294.9473
825.7070, 134.4141
826.8460, 189.0801
827.9840, 225.7383
829.1220, 229.3906
830.2590, 345.0332
831.3970, 343.6699
832.5340, 484.3008
833.6710, 410.1836
834.8080, 642.0020
835.9450, 835.6777
837.0820, 858.2793
838.2190, 1060.875
839.3550, 956.4668
840.4910, 860.0527
841.6270, 646.6309
842.7630, 440.2051
843.8990, 507.7754
845.0350, 248.3379
846.1700, 279.8984
847.3060, 271.4570
848.4410, 119.0098
849.5760, 84.56055
850.7100, 190.1094
851.8450, 120.6523
852.9800, 111.1934
854.1140, 103.7363
855.2480, 146.2754
856.3820, 142.8145
857.5160, 155.3730
858.6500, 161.2305
859.7830, 170.5645
860.9170, 160.8770
862.0500, 196.4277
863.1830, 212.9746
864.3160, 232.5234
865.4480, 307.8301
866.5810, 347.3730
867.7130, 299.2285
868.8460, 571.8477
869.9780, 302.0000
871.1100, 154.0859
872.2410, 404.0430
873.3730, 147.9004
874.5050, 43.30859
875.6360, 180.8125
876.7670, 201.2617
877.8980, 134.8340
879.0290, 262.4102
880.1590, 365.9902
881.2900, 329.4082
882.4200, 163.9355
883.5500, 123.4844
884.6800, 259.8105
885.8100, 349.3379
886.9400, 339.4277
888.0690, 428.8516
889.1990, 461.3711
890.3280, 645.4648
891.4570, 760.9902
892.5860, 893.2793
893.7140, 1027.928
894.8430, 1317.543
895.9710, 1647.045
897.1000, 2024.932
898.2280, 2984.488
899.3560, 3697.141
900.4830, 4994.799
901.6110, 6790.773
902.7380, 9011.326
903.8660, 12147.01
904.9930, 15982.95
906.1200, 20580.45
907.2460, 24488.14
908.3730, 22666.53
909.5000, 17710.97
910.6260, 12373.78
911.7520, 8431.473
912.8780, 5745.957
914.0040, 3991.688
915.1290, 2999.637
916.2550, 2252.266
917.3800, 1678.076
918.5050, 1306.676
919.6300, 1099.443
920.7550, 1002.969
921.8800, 769.7520
923.0040, 661.0625
924.1290, 480.1855
925.2530, 380.2168
926.3770, 355.9395
927.5010, 382.3574
928.6250, 362.1934
929.7480, 482.0371
930.8720, 479.8906
931.9950, 413.7539
933.1180, 557.6445
934.2410, 442.5469
935.3640, 384.2070
936.4860, 360.1289
937.6090, 354.0625
938.7310, 248.0625
939.8530, 258.5820
940.9750, 192.5625
942.0970, 39.55664
943.2180, 239.5605
944.3400, 218.4941
945.4610, 210.3555
946.5820, 346.0645
947.7030, 295.1191
948.8240, 337.1914
949.9450, 484.2734
951.0650, 404.3691
952.1860, 582.4805
953.3060, 302.6016
954.4260, 449.7539
955.5460, 275.9180
956.6650, 311.1113
957.7850, 378.3164
958.9040, 116.5371
960.0230, 70.76758
961.1420, 47.01562
962.2610, 210.2812
963.3800, 102.5605
964.4990, 133.8555
965.6170, 137.1641
966.7350, 158.4863
967.8530, 22.17578
968.9710, 88.82812
970.0890, 7.472656
971.2070, 62.89453
972.3240, 95.27734
973.4410, 30.67578
974.5580, 124.0879
975.6750, 219.5176
976.7920, 113.9629
977.9090, 94.42383
979.0250, 197.9082
980.1410, 371.4121
981.2580, 246.9277
982.3740, 250.7773
983.4890, 367.3281
984.6050, 206.8926
985.7200, 271.4746
986.8360, 61.07422
987.9510, 66.68555
989.0660, 167.3184
990.1810, 111.9648
991.2950, 76.62695
992.4100, 48.68945
993.5240, 129.9980
994.6390, 145.7031
995.7530, 190.4258
996.8660, 115.1875
997.9800, 273.9629
999.0940, 136.7578
1000.207, 323.5703
1001.320, 249.3984
1002.433, 507.2461
1003.546, 456.1133
1004.659, 685.9980
1005.772, 738.9121
1006.884, 1024.846
1007.996, 1047.299
1009.108, 1204.518
1010.220, 1225.980
1011.332, 1321.992
1012.444, 1281.592
1013.555, 1370.744
1014.666, 1129.879
1015.777, 842.9492
1016.888, 709.9121
1017.999, 514.4316
1019.110, 439.1426
1020.220, 336.3457
1021.331, 293.6094
1022.441, 367.1582
1023.551, 374.4590
1024.661, 436.7910
1025.770, 300.4629
1026.880, 215.8320
1027.989, 311.2188
1029.098, 404.6230
1030.207, 360.0469
1031.316, 340.4902
1032.425, 514.9551
1033.533, 669.8711
1034.642, 493.3848
1035.750, 596.9395
1036.858, 463.5352
1037.966, 355.1484
1039.073, 316.7871
1040.181, 234.2539
1041.288, 184.1211
1042.396, 124.2031
1043.503, 51.93945
1044.610, 55.91406
1045.716, 12.12109
1046.823, 74.37500
1047.929, 93.24023
1049.036, 124.8203
1050.142, 151.0430
1051.248, 151.9805
1052.353, 179.9355
1053.459, 183.9102
1054.564, 288.9258
1055.670, 82.95898
1056.775, 77.01367
1057.880, 173.1133
1058.985, 149.2695
1060.089, 372.4551
1061.194, 402.6641
1062.298, 325.8867
1063.402, 407.0664
1064.506, 322.3887
1065.610, 313.4180
1066.713, 390.7148
1067.817, 414.6992
1068.920, 547.3613
1070.023, 669.7148
1071.126, 887.2031
1072.229, 1203.600
1073.332, 1520.049
1074.435, 2865.514
1075.537, 4575.996
1076.639, 6652.496
1077.741, 9359.020
1078.843, 16382.56
1079.945, 16768.58
1081.046, 15850.58
1082.148, 18576.29
1083.249, 10537.89
1084.350, 6337.523
1085.451, 4791.170
1086.551, 4371.410
1087.652, 4653.100
1088.752, 6508.016
1089.853, 8672.738
1090.953, 12525.48
1092.053, 20918.24
1093.152, 35753.01
1094.252, 37287.46
1095.351, 22785.27
1096.451, 12008.10
1097.550, 6164.941
1098.649, 3358.803
1099.748, 2103.684
1100.846, 1513.322
1101.945, 930.2168
1103.043, 1082.102
1104.141, 565.0684
1105.239, 469.0527
1106.337, 352.0547
1107.434, 510.1426
1108.532, 400.1777
1109.629, 354.2344
1110.726, 437.5078
1111.823, 69.59961
1112.920, 224.7070
1114.017, 14.16797
1115.113, 362.9707
1116.210, 371.1230
1117.306, 121.2949
1118.402, 352.4824
1119.498, 341.6855
1120.593, 319.9062
1121.689, 425.1406
1122.784, 434.3926
1123.879, 449.6602
1124.974, 301.1016
1126.069, 176.4023
1127.164, 122.7188
1128.259, 100.7402
1129.353, 273.0879
1130.447, 104.4512
1131.541, 154.8320
1132.635, 55.22852
1133.729, 223.6367
1134.822, 117.0605
1135.916, 18.50391
1137.009, 124.9590
1138.102, 145.4297
1139.195, 15.08398
1140.288, 54.58789
1141.380, 14.09766
1142.473, 14.40430
1143.565, 19.08008
1144.657, 127.4434
1145.749, 1.019531
1146.841, 67.46680
1147.932, 101.9277
1149.024, 11.41602
1150.115, 13.19531
1151.206, 172.3359
1152.297, 131.8809
1153.388, 29.56055
1154.479, 203.0000
1155.569, 60.57422
1156.659, 6.837891
1157.750, 225.7598
1158.839, 190.3691
1159.929, 63.99414
1161.019, 81.63281
1162.108, 136.2832
1163.198, 92.06641
1164.287, 8.255859
1165.376, 60.42969
1166.465, 102.1270
1167.553, 205.8379
1168.642, 59.56055
1169.730, 128.2988
1170.818, 64.73828
1171.906, 28.80859
1172.994, 5.417969
1174.082, 101.5195
1175.170, 173.3145
1176.257, 283.1523
1177.344, 286.4434
1178.431, 141.2715
1179.518, 208.4316
1180.605, 75.96094
1181.691, 194.8242
1182.778, 163.6973
1183.864, 187.5781
1184.950, 184.4727
1186.036, 20.37891
1187.122, 253.2969
1188.207, 68.22070
1189.292, 77.16016
1190.378, 311.1074
1191.463, 34.06445
1192.548, 93.03125
1193.632, 140.0117
1194.717, 90.99805
1195.801, 65.00586
1196.886, 245.9668
1197.970, 31.94922
1199.054, 43.94531
1200.137, 119.9707
1201.221, 51.99219
1202.305, 362.0273
1203.388, 310.0566
1204.471, 196.0938
1205.554, 131.1387
1206.637, 179.1953
1207.719, 91.25977
1208.802, 152.3340
1209.884, 199.4355
1210.966, 268.5488
1212.048, 71.66992
1213.130, 326.7969
1214.212, 29.93359
1215.293, 172.0801
1216.374, 56.76367
1217.456, 165.8711
1218.536, 48.99219
1219.617, 210.1289
1220.698, 55.25586
1221.778, 216.3887
1222.859, 241.5586
1223.939, 0.7363280
1225.019, 233.9160
1226.099, 193.1074
1227.178, 93.32227
1228.258, 113.5469
1229.337, 168.7734
1230.417, 111.0098
1231.496, 25.45117
1232.574, 54.67188
1233.653, 54.04297
1234.732, 80.45312
1235.810, 82.71484
1236.888, 22.98828
1237.966, 248.2656
1239.044, 403.8164
1240.122, 23.89258
1241.199, 304.3867
1242.277, 266.6719
1243.354, 147.9609
1244.431, 136.9414
1245.508, 320.2461
1246.585, 165.5566
1247.661, 203.8730
1248.738, 295.1934
1249.814, 199.5234
1250.890, 103.8594
1251.966, 234.2012
1253.042, 151.5469
1254.117, 113.9004
1255.193, 252.2617
1256.268, 118.6328
1257.343, 65.99219
1258.418, 212.3477
1259.493, 94.69336
1260.567, 35.04492
1261.642, 343.4004
1262.716, 169.7637
1263.790, 191.1328
1264.864, 82.50586
1265.938, 238.8848
1267.011, 280.2695
1268.085, 153.6582
1269.158, 60.55469
1270.231, 69.70703
1271.304, 137.6348
1272.377, 156.0449
1273.450, 166.7812
1274.522, 198.2051
1275.594, 113.5586
1276.666, 173.0020
1277.738, 96.63477
1278.810, 34.34766
1279.882, 173.5488
