##NAMES=Tilleyite
##RRUFFID=R050227
##IDEAL CHEMISTRY=Ca_5_Si_2_O_7_(CO_3_)_2_
##LOCALITY=Crestmore Quarry, Riverside County, California, USA
##OWNER=RRUFF
##SOURCE=Marcus Origlieri
##DESCRIPTION=Aggregate of colorless subhedral crystals
##STATUS=The identification of this mineral has been confirmed by X-ray diffraction.
##URL=rruff.info/R050227
##PIN_ID=L00225
##ORIENTATION=Laser parallel to c* (0 0 1). Fiducial mark perpendicular to laser is parallel to a [1 0 0]
79.89500, 0.0000000E+00
81.13100, 72.18506
82.36700, 19.53174
83.60200, 90.98291
84.83700, 241.0156
86.07200, 409.3140
87.30800, 693.9736
88.54200, 922.9678
89.77700, 1413.634
91.01200, 1934.996
92.24600, 2390.433
93.48000, 2253.647
94.71400, 2331.614
95.94800, 2107.517
97.18200, 2002.954
98.41600, 1801.815
99.64900, 1812.503
100.8830, 1849.441
102.1160, 1721.175
103.3490, 2026.343
104.5820, 2357.653
105.8150, 2879.867
107.0470, 3468.785
108.2800, 3768.246
109.5120, 3381.116
110.7440, 3019.285
111.9760, 3040.693
113.2080, 2926.531
114.4400, 3095.908
115.6710, 3368.897
116.9030, 3580.520
118.1340, 4031.462
119.3650, 4203.703
120.5960, 4062.228
121.8270, 3534.032
123.0580, 3058.114
124.2880, 2755.475
125.5190, 2310.112
126.7490, 1889.026
127.9790, 1640.217
129.2090, 1560.683
130.4390, 1497.422
131.6680, 1551.433
132.8980, 1666.713
134.1270, 1800.265
135.3560, 2092.095
136.5850, 2474.210
137.8140, 3213.623
139.0430, 3644.338
140.2710, 3983.358
141.5000, 4374.688
142.7280, 4517.321
143.9560, 4759.562
145.1840, 4812.285
146.4120, 4619.395
147.6390, 4406.339
148.8670, 4330.797
150.0940, 4386.485
151.3210, 4626.693
152.5490, 4847.685
153.7750, 5012.871
155.0020, 5201.991
156.2290, 5156.120
157.4550, 4619.316
158.6810, 3986.616
159.9080, 3238.045
161.1340, 2618.619
162.3590, 1926.352
163.5850, 1439.253
164.8110, 928.3291
166.0360, 554.5845
167.2610, 418.0220
168.4860, 201.6416
169.7110, 213.4458
170.9360, 270.4326
172.1610, 392.6016
173.3850, 556.9487
174.6100, 588.4727
175.8340, 698.1704
177.0580, 861.0381
178.2820, 913.0747
179.5050, 937.2759
180.7290, 881.6401
181.9520, 805.1646
183.1760, 750.8457
184.3990, 737.6855
185.6220, 874.7202
186.8450, 880.9595
188.0670, 1004.107
189.2900, 1035.104
190.5120, 1315.105
191.7340, 1608.388
192.9560, 1916.960
194.1780, 2063.856
195.4000, 2144.039
196.6220, 2158.488
197.8430, 1895.173
199.0640, 1684.105
200.2860, 1354.293
201.5070, 1206.694
202.7270, 1091.250
203.9480, 568.9331
205.1690, 425.7144
206.3890, 130.5796
207.6090, 36.49316
208.8290, 101.5049
210.0490, 201.4580
211.2690, 307.3540
212.4890, 185.1934
213.7080, 266.9766
214.9280, 284.7061
216.1470, 333.3730
217.3660, 278.9771
218.5850, 283.3994
219.8030, 195.2490
221.0220, 194.0146
222.2400, 86.90381
223.4590, 32.11768
224.6770, 124.1104
225.8950, 240.1450
227.1120, 270.7676
228.3300, 371.6714
229.5480, 468.0430
230.7650, 497.1846
231.9820, 563.1001
233.1990, 573.6729
234.4160, 614.8145
235.6330, 719.4575
236.8490, 726.5449
238.0660, 676.0312
239.2820, 697.8760
240.4980, 820.0483
241.7140, 758.5195
242.9300, 881.2666
244.1460, 888.2681
245.3610, 938.5020
246.5770, 880.9507
247.7920, 912.5986
249.0070, 891.4316
250.2220, 1044.439
251.4370, 1088.611
252.6510, 1149.937
253.8660, 1232.409
255.0800, 1388.021
256.2940, 1327.764
257.5080, 1481.634
258.7220, 1636.624
259.9360, 1570.722
261.1490, 1628.912
262.3630, 1524.183
263.5760, 1524.529
264.7890, 1677.951
266.0020, 1765.447
267.2150, 2015.014
268.4270, 2375.651
269.6400, 2795.358
270.8520, 3074.133
272.0640, 3482.975
273.2760, 3904.880
274.4880, 4163.849
275.7000, 4363.879
276.9120, 4658.969
278.1230, 4819.121
279.3340, 5035.328
280.5450, 5174.592
281.7560, 5094.912
282.9670, 5061.285
284.1780, 5089.710
285.3880, 4949.187
286.5980, 4836.713
287.8090, 4583.767
289.0190, 4486.535
290.2290, 4267.628
291.4380, 4331.646
292.6480, 4285.973
293.8570, 4271.767
295.0670, 4391.483
296.2760, 4534.150
297.4850, 4816.747
298.6930, 5058.687
299.9020, 5113.260
301.1110, 4982.487
302.3190, 4631.722
303.5270, 4357.219
304.7350, 4015.543
305.9430, 3541.895
307.1510, 3343.001
308.3580, 3107.343
309.5660, 2764.012
310.7730, 2700.560
311.9800, 2651.103
313.1870, 2447.774
314.3940, 2223.697
315.6010, 2233.300
316.8070, 2117.804
318.0130, 2053.565
319.2200, 1850.083
320.4260, 1692.348
321.6310, 1601.185
322.8370, 1584.691
324.0430, 1388.110
325.2480, 1311.886
326.4540, 1263.169
327.6590, 1089.836
328.8640, 982.4927
330.0680, 900.2168
331.2730, 904.3989
332.4780, 886.6133
333.6820, 705.8271
334.8860, 810.0552
336.0900, 840.2954
337.2940, 875.5464
338.4980, 1003.807
339.7010, 909.0752
340.9050, 1143.350
342.1080, 1124.629
343.3110, 1133.912
344.5140, 1187.197
345.7170, 1393.504
346.9200, 1536.836
348.1220, 1682.122
349.3240, 1699.478
350.5270, 2046.228
351.7290, 2122.507
352.9310, 2229.836
354.1320, 2184.637
355.3340, 2135.614
356.5350, 2095.540
357.7370, 2108.020
358.9380, 1970.475
360.1390, 2011.235
361.3400, 1954.923
362.5400, 1721.840
363.7410, 1640.545
364.9410, 1712.561
366.1410, 1619.601
367.3410, 1476.017
368.5410, 1509.230
369.7410, 1220.439
370.9400, 1235.644
372.1400, 971.8892
373.3390, 902.1729
374.5380, 706.4937
375.7370, 585.8428
376.9360, 514.2153
378.1350, 296.6094
379.3330, 377.0215
380.5310, 341.4487
381.7300, 257.8892
382.9280, 282.3403
384.1260, 341.8018
385.3230, 347.2705
386.5210, 1020.745
387.7180, 1024.225
388.9160, 1366.708
390.1130, 1369.193
391.3100, 1002.680
392.5060, 1071.166
393.7030, 1176.651
394.9000, 1206.136
396.0960, 1181.616
397.2920, 1120.092
398.4880, 1068.564
399.6840, 929.0303
400.8800, 830.4897
402.0750, 798.9424
403.2710, 649.3867
404.4660, 565.8228
405.6610, 517.2490
406.8560, 312.6660
408.0510, 266.0718
409.2450, 280.4668
410.4400, 183.8501
411.6340, 223.2217
412.8280, 128.5806
414.0220, 224.9263
415.2160, 249.2578
416.4100, 257.5752
417.6030, 284.8779
418.7970, 321.1655
419.9900, 372.4370
421.1830, 379.6924
422.3760, 398.9312
423.5690, 389.3413
424.7610, 371.3691
425.9540, 336.9028
427.1460, 286.1777
428.3380, 238.3262
429.5300, 210.6704
430.7220, 49.90283
431.9140, 68.17529
433.1050, 48.08691
434.2970, 59.10303
435.4880, 0.6860350
436.6790, 9.380371
437.8700, 29.17236
439.0610, 42.26562
440.2510, 87.80322
441.4420, 43.26318
442.6320, 130.8521
443.8220, 27.68408
445.0120, 73.55176
446.2020, 75.76074
447.3910, 71.08203
448.5810, 117.4634
449.7700, 95.59863
450.9600, 113.1636
452.1490, 11.22852
453.3370, 65.08105
454.5260, 142.9521
455.7150, 0.1337890
456.9030, 34.39404
458.0910, 43.39160
459.2800, 104.1123
460.4670, 43.15430
461.6550, 69.91309
462.8430, 16.97607
464.0300, 40.89160
465.2180, 13.89307
466.4050, 66.69385
467.5920, 31.94922
468.7790, 3.837891
469.9650, 102.5332
471.1520, 105.2095
472.3380, 66.91260
473.5250, 153.4058
474.7110, 146.9507
475.8970, 163.3853
477.0820, 243.9536
478.2680, 215.3418
479.4540, 278.7129
480.6390, 296.0791
481.8240, 381.4297
483.0090, 256.7515
484.1940, 293.0410
485.3780, 209.3003
486.5630, 241.5278
487.7470, 161.7251
488.9320, 159.8911
490.1160, 170.0405
491.3000, 160.1807
492.4830, 91.28711
493.6670, 173.3486
494.8500, 87.37744
496.0340, 131.3657
497.2170, 233.3262
498.4000, 215.2852
499.5820, 277.2573
500.7650, 326.2188
501.9480, 327.1836
503.1300, 363.1538
504.3120, 405.1367
505.4940, 374.1240
506.6760, 403.6104
507.8580, 336.1006
509.0390, 377.0752
510.2210, 349.0273
511.4020, 263.9453
512.5830, 230.8267
513.7640, 236.6768
514.9450, 301.4912
516.1250, 386.2910
517.3060, 517.0532
518.4860, 459.7793
519.6660, 578.4941
520.8460, 571.1724
522.0260, 746.8193
523.2060, 882.4307
524.3850, 846.0225
525.5650, 876.5996
526.7440, 945.1484
527.9230, 999.6880
529.1020, 896.2026
530.2810, 820.6880
531.4590, 772.1548
532.6380, 781.6011
533.8160, 765.0239
534.9940, 789.4219
536.1720, 828.7832
537.3500, 1071.109
538.5270, 1076.396
539.7050, 1273.643
540.8820, 1316.848
542.0590, 1393.013
543.2360, 1565.136
544.4130, 1775.219
545.5900, 1696.260
546.7660, 1709.259
547.9430, 1633.218
549.1190, 1527.134
550.2950, 1373.008
551.4710, 1331.839
552.6470, 1199.629
553.8220, 969.3750
554.9980, 958.0791
556.1730, 871.7397
557.3480, 679.3579
558.5230, 680.9331
559.6980, 637.4653
560.8730, 738.9546
562.0470, 623.7266
563.2220, 534.0601
564.3960, 463.1621
565.5700, 311.4775
566.7440, 248.7490
567.9170, 291.9746
569.0910, 345.1553
570.2640, 269.2915
571.4380, 188.3828
572.6110, 277.9453
573.7840, 221.7944
574.9570, 272.3057
576.1290, 262.8145
577.3020, 243.8726
578.4740, 212.3066
579.6460, 208.0151
580.8180, 205.8872
581.9900, 185.1401
583.1620, 185.0508
584.3330, 185.3286
585.5040, 178.9517
586.6760, 193.5669
587.8470, 188.9209
589.0180, 178.4482
590.1880, 84.94775
591.3590, 50.68506
592.5290, 81.17676
593.7000, 114.3784
594.8700, 78.65332
596.0400, 151.9224
597.2090, 75.14941
598.3790, 17.71631
599.5490, 82.08105
600.7180, 85.70312
601.8870, 147.7690
603.0560, 211.4561
604.2250, 133.4287
605.3940, 209.7759
606.5620, 159.0322
607.7300, 82.79395
608.8990, 125.7388
610.0670, 152.3594
611.2350, 148.7925
612.4020, 140.4941
613.5700, 185.2637
614.7370, 161.0825
615.9050, 258.9995
617.0720, 145.6494
618.2390, 182.8750
619.4060, 293.8286
620.5720, 353.2212
621.7390, 248.2866
622.9050, 427.0737
624.0710, 382.4854
625.2370, 503.1187
626.4030, 633.5791
627.5690, 621.2354
628.7340, 840.8457
629.9000, 886.8149
631.0650, 1030.344
632.2300, 1216.625
633.3950, 1513.677
634.5600, 1771.894
635.7240, 2239.264
636.8890, 2830.926
638.0530, 3503.464
639.2170, 4406.454
640.3810, 5303.621
641.5450, 6401.816
642.7080, 7298.978
643.8720, 8268.014
645.0350, 8864.021
646.1980, 8927.103
647.3610, 8472.996
648.5240, 7476.068
649.6870, 6294.216
650.8490, 5161.934
652.0120, 4278.297
653.1740, 3518.509
654.3360, 2841.008
655.4980, 2376.130
656.6600, 2150.404
657.8210, 1774.027
658.9830, 1672.137
660.1440, 1649.652
661.3050, 1507.085
662.4660, 1387.646
663.6270, 1372.125
664.7870, 1321.661
665.9480, 1280.799
667.1080, 1297.699
668.2680, 1239.090
669.4280, 1129.953
670.5880, 1142.460
671.7480, 1091.781
672.9070, 993.1152
674.0670, 987.1899
675.2260, 1047.834
676.3850, 878.5269
677.5440, 791.4580
678.7030, 924.1719
679.8610, 874.8076
681.0200, 712.4497
682.1780, 679.8999
683.3360, 652.5869
684.4940, 735.9668
685.6520, 620.4526
686.8090, 720.9448
687.9670, 814.2212
689.1240, 1014.463
690.2810, 1114.670
691.4380, 1276.843
692.5950, 1499.982
693.7520, 1964.088
694.9080, 2340.160
696.0650, 2279.197
697.2210, 2092.203
698.3770, 2080.174
699.5330, 2120.113
700.6880, 2131.019
701.8440, 1904.892
702.9990, 1390.732
704.1550, 1292.541
705.3100, 1082.305
706.4650, 1060.700
707.6190, 1261.306
708.7740, 1298.986
709.9290, 1606.420
711.0830, 1737.914
712.2370, 2000.314
713.3910, 2462.194
714.5450, 2639.548
715.6980, 2472.180
716.8520, 2201.303
718.0050, 2185.105
719.1580, 2147.841
720.3110, 1948.600
721.4640, 1515.379
722.6170, 1150.025
723.7700, 812.8154
724.9220, 630.5669
726.0740, 547.5737
727.2260, 374.6055
728.3780, 268.6113
729.5300, 252.2715
730.6810, 195.2666
731.8330, 172.2065
732.9840, 198.7803
734.1350, 197.8281
735.2860, 157.0786
736.4370, 42.33545
737.5880, 130.2461
738.7380, 88.79541
739.8880, 156.5645
741.0390, 63.96729
742.1890, 3.580078
743.3380, 3.960449
744.4880, 160.5493
745.6380, 12.94873
746.7870, 53.97363
747.9360, 115.2808
749.0850, 64.65283
750.2340, 34.01465
751.3830, 18.21729
752.5310, 74.59326
753.6800, 44.86230
754.8280, 12.81641
755.9760, 13.30713
757.1240, 35.44775
758.2720, 75.25635
759.4190, 39.14111
760.5670, 31.91895
761.7140, 99.95117
762.8610, 39.95947
764.0080, 70.13135
765.1550, 26.90088
766.3020, 24.83350
767.4480, 45.26025
768.5950, 70.40967
769.7410, 50.37158
770.8870, 17.12988
772.0330, 63.86963
773.1780, 2.413086
774.3240, 27.27930
775.4690, 13.04834
776.6140, 5.341797
777.7590, 29.19141
778.9040, 18.77197
780.0490, 17.32959
781.1940, 32.86328
782.3380, 29.38477
783.4820, 10.86523
784.6260, 38.33154
785.7700, 2.777832
786.9140, 0.8007810
788.0580, 51.59521
789.2010, 148.9712
790.3450, 5.669922
791.4880, 74.66260
792.6310, 71.02295
793.7730, 154.2310
794.9160, 16.46875
796.0590, 89.31299
797.2010, 22.83691
798.3430, 17.03174
799.4850, 1.070313
800.6270, 67.84766
801.7690, 85.82031
802.9100, 32.85693
804.0520, 109.9282
805.1930, 51.07520
806.3340, 36.26562
807.4750, 75.49170
808.6160, 73.77295
809.7560, 59.32031
810.8970, 56.48877
812.0370, 16.91309
813.1770, 19.36035
814.3170, 12.16895
815.4570, 53.68262
816.5960, 62.18262
817.7360, 50.67041
818.8750, 92.14404
820.0140, 19.60645
821.1530, 83.05518
822.2920, 47.49316
823.4310, 35.91895
824.5690, 85.33154
825.7070, 227.7344
826.8460, 186.1270
827.9840, 290.5083
829.1220, 384.8809
830.2590, 375.2432
831.3970, 546.5962
832.5340, 724.9399
833.6710, 901.2744
834.8080, 1122.601
835.9450, 1180.918
837.0820, 1217.227
838.2190, 1146.527
839.3550, 984.8184
840.4910, 889.1035
841.6270, 634.3804
842.7630, 494.6494
843.8990, 434.9136
845.0350, 244.1709
846.1700, 170.4214
847.3060, 280.6655
848.4410, 196.9087
849.5760, 124.1465
850.7100, 127.3804
851.8450, 10.38965
852.9800, 33.83154
854.1140, 168.0483
855.2480, 36.26221
856.3820, 172.4741
857.5160, 3.316406
858.6500, 156.8896
859.7830, 77.09375
860.9170, 112.2959
862.0500, 182.4961
863.1830, 269.6934
864.3160, 360.8877
865.4480, 554.0791
866.5810, 694.2734
867.7130, 674.4741
868.8460, 518.6318
869.9780, 473.8345
871.1100, 350.0386
872.2410, 257.1499
873.3730, 272.6616
874.5050, 156.6904
875.6360, 211.5503
876.7670, 276.7031
877.8980, 289.4683
879.0290, 285.1914
880.1590, 303.9810
881.2900, 374.1821
882.4200, 370.9512
883.5500, 328.1792
884.6800, 629.2109
885.8100, 617.0317
886.9400, 777.5923
888.0690, 809.9990
889.1990, 979.8809
890.3280, 1170.621
891.4570, 1533.627
892.5860, 1891.050
893.7140, 2536.710
894.8430, 2963.927
895.9710, 3882.440
897.1000, 5287.199
898.2280, 6909.328
899.3560, 9839.205
900.4830, 13426.22
901.6110, 18173.03
902.7380, 22860.82
903.8660, 27639.21
904.9930, 32476.06
906.1200, 35059.06
907.2460, 32351.85
908.3730, 26784.92
909.5000, 20283.18
910.6260, 15102.11
911.7520, 10526.77
912.8780, 7360.944
914.0040, 5167.919
915.1290, 3831.836
916.2550, 2738.756
917.3800, 2186.797
918.5050, 2029.838
919.6300, 1582.786
920.7550, 1351.895
921.8800, 1298.789
923.0040, 1175.577
924.1290, 1196.765
925.2530, 1091.274
926.3770, 1114.649
927.5010, 1243.238
928.6250, 1103.876
929.7480, 1132.432
930.8720, 1007.581
931.9950, 1042.213
933.1180, 831.4121
934.2410, 847.6670
935.3640, 608.7812
936.4860, 636.9502
937.6090, 522.0332
938.7310, 361.4941
939.8530, 440.1650
940.9750, 472.5771
942.0970, 465.9678
943.2180, 560.9492
944.3400, 507.0898
945.4610, 642.1914
946.5820, 852.5273
947.7030, 882.2666
948.8240, 1227.929
949.9450, 1346.327
951.0650, 1414.918
952.1860, 1214.562
953.3060, 1041.175
954.4260, 916.9512
955.5460, 574.4648
956.6650, 504.2598
957.7850, 388.9248
958.9040, 162.5576
960.0230, 258.3818
961.1420, 274.2168
962.2610, 236.0605
963.3800, 165.9131
964.4990, 109.7744
965.6170, 249.6475
966.7350, 270.5322
967.8530, 299.4277
968.9710, 324.3311
970.0890, 372.2441
971.2070, 434.1680
972.3240, 449.0996
973.4410, 417.0410
974.5580, 535.9941
975.6750, 613.9531
976.7920, 547.9248
977.9090, 731.9062
979.0250, 892.8965
980.1410, 963.8975
981.2580, 1030.910
982.3740, 984.9326
983.4890, 887.9658
984.6050, 809.0107
985.7200, 773.0762
986.8360, 765.7754
987.9510, 717.8447
989.0660, 690.9297
990.1810, 712.0234
991.2950, 681.0469
992.4100, 715.9072
993.5240, 735.1807
994.6390, 727.3184
995.7530, 786.2188
996.8660, 797.6514
997.9800, 905.8398
999.0940, 961.0391
1000.207, 1069.247
1001.320, 1178.471
1002.433, 1458.774
1003.546, 1803.235
1004.659, 2105.486
1005.772, 2399.896
1006.884, 2768.166
1007.996, 3123.212
1009.108, 3504.508
1010.220, 3800.850
1011.332, 3730.062
1012.444, 3677.336
1013.555, 3284.564
1014.666, 2769.966
1015.777, 2192.474
1016.888, 1761.467
1017.999, 1445.978
1019.110, 1214.506
1020.220, 1068.261
1021.331, 806.0674
1022.441, 897.8281
1023.551, 679.8994
1024.661, 782.8877
1025.770, 812.8086
1026.880, 738.3838
1027.989, 828.1387
1029.098, 830.7520
1030.207, 980.5234
1031.316, 1101.346
1032.425, 1101.403
1033.533, 938.5977
1034.642, 1017.112
1035.750, 859.1816
1036.858, 747.5186
1037.966, 618.9062
1039.073, 615.5781
1040.181, 654.6494
1041.288, 477.5391
1042.396, 461.3955
1043.503, 429.5771
1044.610, 537.5117
1045.716, 371.5332
1046.823, 368.6504
1047.929, 394.9355
1049.036, 372.2217
1050.142, 420.3135
1051.248, 439.1973
1052.353, 466.3779
1053.459, 411.4775
1054.564, 514.5068
1055.670, 580.2598
1056.775, 558.0693
1057.880, 723.1748
1058.985, 789.2471
1060.089, 771.4121
1061.194, 905.3408
1062.298, 934.2266
1063.402, 951.6475
1064.506, 1068.797
1065.610, 1156.626
1066.713, 1225.704
1067.817, 1441.787
1068.920, 1672.098
1070.023, 1864.257
1071.126, 2529.041
1072.229, 3330.398
1073.332, 5015.518
1074.435, 8792.866
1075.537, 14884.29
1076.639, 20611.63
1077.741, 29898.06
1078.843, 31640.78
1079.945, 31662.28
1081.046, 34431.16
1082.148, 26301.51
1083.249, 22359.39
1084.350, 19905.81
1085.451, 18390.03
1086.551, 17929.07
1087.652, 19689.07
1088.752, 23633.41
1089.853, 28511.77
1090.953, 37478.87
1092.053, 51127.46
1093.152, 51614.58
1094.252, 37160.79
1095.351, 23837.87
1096.451, 15345.94
1097.550, 9186.437
1098.649, 5076.119
1099.748, 2857.588
1100.846, 1794.564
1101.945, 1303.545
1103.043, 1062.732
1104.141, 800.6875
1105.239, 708.9717
1106.337, 604.0645
1107.434, 534.0059
1108.532, 459.4707
1109.629, 525.3848
1110.726, 304.2871
1111.823, 317.6465
1112.920, 389.2119
1114.017, 240.5469
1115.113, 369.8799
1116.210, 525.0283
1117.306, 656.4492
1118.402, 790.9521
1119.498, 860.7227
1120.593, 1028.779
1121.689, 1074.641
1122.784, 1133.762
1123.879, 1041.048
1124.974, 851.0547
1126.069, 592.7324
1127.164, 453.4199
1128.259, 321.8193
1129.353, 226.0049
1130.447, 169.8486
1131.541, 122.2168
1132.635, 149.3262
1133.729, 58.07227
1134.822, 24.85156
1135.916, 159.9561
1137.009, 45.95801
1138.102, 155.0820
1139.195, 12.73145
1140.288, 100.4443
1141.380, 18.43750
1142.473, 37.52832
1143.565, 6.770508
1144.657, 98.82031
1145.749, 16.31934
1146.841, 65.15137
1147.932, 44.30176
1149.024, 15.87402
1150.115, 79.50586
1151.206, 53.40820
1152.297, 25.10449
1153.388, 40.78711
1154.479, 22.88184
1155.569, 69.25195
1156.659, 99.08887
1157.750, 103.0020
1158.839, 110.4561
1159.929, 9.476563
1161.019, 79.47070
1162.108, 108.6064
1163.198, 17.43457
1164.287, 2.389648
1165.376, 37.82227
1166.465, 13.92383
1167.553, 0.7685550
1168.642, 33.47656
1169.730, 162.1348
1170.818, 43.72168
1171.906, 90.48047
1172.994, 21.98438
1174.082, 26.79199
1175.170, 88.24902
1176.257, 71.67871
1177.344, 7.347656
1178.431, 15.12109
1179.518, 17.72754
1180.605, 68.76172
1181.691, 17.01953
1182.778, 18.88770
1183.864, 39.73730
1184.950, 92.06445
1186.036, 167.6914
1187.122, 150.0225
1188.207, 81.42773
1189.292, 3.8086001E-02
1190.378, 0.8486330
1191.463, 28.40039
1192.548, 5.218750
1193.632, 50.81445
1194.717, 87.49414
1195.801, 18.13574
1196.886, 34.99609
1197.970, 42.93359
1199.054, 63.25195
1200.137, 105.1221
1201.221, 4.270508
1202.305, 67.27246
1203.388, 132.3516
1204.471, 83.27246
1205.554, 70.31934
1206.637, 94.39160
1207.719, 80.87988
1208.802, 24.37402
1209.884, 102.9102
1210.966, 195.8076
1212.048, 114.6045
1213.130, 22.99023
1214.212, 96.34180
1215.293, 151.0488
1216.374, 196.3760
1217.456, 261.4629
1218.536, 125.5215
1219.617, 118.4893
1220.698, 186.1279
1221.778, 66.47559
1222.859, 178.6270
1223.939, 168.9111
1225.019, 202.0586
1226.099, 199.9121
1227.178, 102.2002
1228.258, 60.56738
1229.337, 108.7314
1230.417, 260.8164
1231.496, 225.2598
1232.574, 175.0908
1233.653, 239.1016
1234.732, 150.7080
1235.810, 195.2910
1236.888, 231.6309
1237.966, 105.1826
1239.044, 253.6836
1240.122, 257.9395
1241.199, 136.8301
1242.277, 86.30957
1243.354, 146.3818
1244.431, 146.2617
1245.508, 194.5771
1246.585, 128.9043
1247.661, 134.3154
1248.738, 256.5889
1249.814, 211.5098
1250.890, 353.3828
1251.966, 193.1826
1253.042, 152.7793
1254.117, 217.8838
1255.193, 75.77539
1256.268, 29.81348
1257.343, 5.248047
1258.418, 195.2959
1259.493, 251.7510
1260.567, 127.5127
1261.642, 51.69141
1262.716, 296.7061
1263.790, 261.2969
1264.864, 181.4160
1265.938, 205.0322
