##NAMES=Tilleyite
##RRUFFID=R050227
##IDEAL CHEMISTRY=Ca_5_Si_2_O_7_(CO_3_)_2_
##LOCALITY=Crestmore Quarry, Riverside County, California, USA
##OWNER=RRUFF
##SOURCE=Marcus Origlieri
##DESCRIPTION=Aggregate of colorless subhedral crystals
##STATUS=The identification of this mineral has been confirmed by X-ray diffraction.
##URL=rruff.info/R050227
##PIN_ID=L00383
##ORIENTATION=Laser parallel to a* (1 0 0). Fiducial mark perpendicular to laser is parallel to b [0 1 0]
95.94800, 0.0000000E+00
97.18200, 5.560547
98.41600, 245.6523
99.64900, 395.9688
100.8830, 277.8691
102.1160, 372.1328
103.3490, 237.4609
104.5820, 471.2129
105.8150, 672.7227
107.0470, 1018.652
108.2800, 1097.520
109.5120, 1306.740
110.7440, 1318.430
111.9760, 1521.070
113.2080, 1667.289
114.4400, 1634.891
115.6710, 1766.410
116.9030, 1531.271
118.1340, 1381.268
119.3650, 1372.230
120.5960, 1445.033
121.8270, 1499.574
123.0580, 1644.768
124.2880, 1436.762
125.5190, 1327.568
126.7490, 990.5781
127.9790, 829.9141
129.2090, 595.6445
130.4390, 457.4883
131.6680, 496.2812
132.8980, 449.6484
134.1270, 502.1426
135.3560, 401.6309
136.5850, 660.1191
137.8140, 707.6191
139.0430, 771.1426
140.2710, 764.7090
141.5000, 1057.314
142.7280, 954.9766
143.9560, 867.6875
145.1840, 1175.453
146.4120, 1313.283
147.6390, 1221.189
148.8670, 1533.186
150.0940, 1620.283
151.3210, 1571.490
152.5490, 1523.979
153.7750, 1507.959
155.0020, 1580.900
156.2290, 1580.658
157.4550, 1537.502
158.6810, 1685.287
159.9080, 1359.076
161.1340, 1430.561
162.3590, 1043.832
163.5850, 1042.658
164.8110, 534.7246
166.0360, 304.8965
167.2610, 172.1719
168.4860, 153.5469
169.7110, 54.02344
170.9360, 88.37305
172.1610, 37.78125
173.3850, 14.22461
174.6100, 27.72266
175.8340, 50.27930
177.0580, 238.9062
178.2820, 178.6055
179.5050, 282.3809
180.7290, 170.2734
181.9520, 257.1992
183.1760, 133.6641
184.3990, 356.9766
185.6220, 228.3574
186.8450, 220.8047
188.0670, 296.3066
189.2900, 360.8711
190.5120, 367.4922
191.7340, 404.6992
192.9560, 368.9043
194.1780, 464.7266
195.4000, 645.6543
196.6220, 781.8008
197.8430, 700.1562
199.0640, 791.6250
200.2860, 555.2480
201.5070, 614.1621
202.7270, 557.2910
203.9480, 444.5547
205.1690, 68.90430
206.3890, 137.3125
207.6090, 20.72656
208.8290, 92.84570
210.0490, 37.41797
211.2690, 34.99023
212.4890, 89.16992
213.7080, 257.1113
214.9280, 117.6641
216.1470, 130.2070
217.3660, 69.69531
218.5850, 2.812500
219.8030, 149.6934
221.0220, 56.20508
222.2400, 10.27930
223.4590, 163.2246
224.6770, 29.69336
225.8950, 142.8359
227.1120, 169.3164
228.3300, 1.683594
229.5480, 6.908203
230.7650, 42.93164
231.9820, 162.1406
233.1990, 161.1582
234.4160, 137.1191
235.6330, 233.0703
236.8490, 192.9961
238.0660, 126.9023
239.2820, 152.7930
240.4980, 119.1230
241.7140, 251.9824
242.9300, 88.75586
244.1460, 268.3926
245.3610, 310.5273
246.5770, 580.6543
247.7920, 593.9180
249.0070, 663.4941
250.2220, 991.3262
251.4370, 747.3770
252.6510, 1060.615
253.8660, 1081.016
255.0800, 1027.553
256.2940, 1199.215
257.5080, 1183.986
258.7220, 1388.854
259.9360, 1580.805
261.1490, 1223.824
262.3630, 1261.373
263.5760, 1173.512
264.7890, 1298.621
266.0020, 1315.129
267.2150, 1382.941
268.4270, 1391.895
269.6400, 1338.295
270.8520, 1333.750
272.0640, 1810.146
273.2760, 1868.871
274.4880, 1548.285
275.7000, 2093.707
276.9120, 2146.152
278.1230, 2363.578
279.3340, 2490.971
280.5450, 2598.371
281.7560, 2829.879
282.9670, 2473.395
284.1780, 2732.961
285.3880, 2691.410
286.5980, 2877.082
287.8090, 3038.498
289.0190, 2907.252
290.2290, 2991.744
291.4380, 3149.723
292.6480, 3107.732
293.8570, 3200.887
295.0670, 3204.846
296.2760, 3085.242
297.4850, 3231.400
298.6930, 3161.535
299.9020, 3309.299
301.1110, 3369.156
302.3190, 3336.053
303.5270, 3421.354
304.7350, 2988.555
305.9430, 3203.158
307.1510, 2753.855
308.3580, 2337.643
309.5660, 2260.234
310.7730, 2075.148
311.9800, 1784.318
313.1870, 1645.627
314.3940, 1764.916
315.6010, 1858.689
316.8070, 1562.562
318.0130, 1505.391
319.2200, 1344.607
320.4260, 1216.773
321.6310, 1182.645
322.8370, 1149.627
324.0430, 1059.236
325.2480, 901.5273
326.4540, 1034.088
327.6590, 683.4922
328.8640, 582.5664
330.0680, 426.2656
331.2730, 568.4102
332.4780, 259.6816
333.6820, 432.7930
334.8860, 489.5625
336.0900, 559.3613
337.2940, 570.3887
338.4980, 673.3516
339.7010, 587.9453
340.9050, 702.5215
342.1080, 543.4434
343.3110, 820.1445
344.5140, 839.8691
345.7170, 953.7637
346.9200, 1064.291
348.1220, 1409.961
349.3240, 1187.133
350.5270, 1123.455
351.7290, 1570.252
352.9310, 1447.002
354.1320, 1340.023
355.3340, 1354.207
356.5350, 1411.256
357.7370, 1183.057
358.9380, 1108.832
360.1390, 1169.326
361.3400, 991.1973
362.5400, 807.6582
363.7410, 698.6777
364.9410, 614.2793
366.1410, 467.4258
367.3410, 594.4844
368.5410, 454.5586
369.7410, 575.3613
370.9400, 291.6152
372.1400, 186.5703
373.3390, 493.7852
374.5380, 219.6465
375.7370, 260.7910
376.9360, 301.6426
378.1350, 144.4688
379.3330, 209.2676
380.5310, 238.0430
381.7300, 83.79297
382.9280, 66.51953
384.1260, 196.2168
385.3230, 256.8867
386.5210, 311.5312
387.7180, 348.1680
388.9160, 393.7969
390.1130, 435.6309
391.3100, 509.0078
392.5060, 517.5840
393.7030, 618.1406
394.9000, 669.1934
396.0960, 669.8730
397.2920, 682.8281
398.4880, 598.3516
399.6840, 550.8750
400.8800, 356.3750
402.0750, 363.8594
403.2710, 233.3242
404.4660, 323.7617
405.6610, 89.18359
406.8560, 231.5742
408.0510, 23.06250
409.2450, 91.77344
410.4400, 91.40625
411.6340, 43.54688
412.8280, 192.6406
414.0220, 190.7051
415.2160, 310.7344
416.4100, 139.7324
417.6030, 293.6934
418.7970, 321.6230
419.9900, 216.5176
421.1830, 311.7949
422.3760, 267.7188
423.5690, 267.7617
424.7610, 207.8340
425.9540, 208.8516
427.1460, 200.5488
428.3380, 231.2070
429.5300, 181.9062
430.7220, 264.4922
431.9140, 167.6426
433.1050, 48.12695
434.2970, 68.15820
435.4880, 68.00000
436.6790, 8.162109
437.8700, 68.34570
439.0610, 43.10156
440.2510, 39.01562
441.4420, 39.02734
442.6320, 165.8672
443.8220, 21.28125
445.0120, 32.48633
446.2020, 93.80664
447.3910, 141.2227
448.5810, 84.78711
449.7700, 118.2363
450.9600, 31.72461
452.1490, 21.14453
453.3370, 58.09570
454.5260, 50.86914
455.7150, 46.33008
456.9030, 0.3652340
458.0910, 125.4180
459.2800, 113.1680
460.4670, 64.37891
461.6550, 191.0273
462.8430, 202.6387
464.0300, 272.2129
465.2180, 245.3125
466.4050, 135.3066
467.5920, 172.7676
468.7790, 140.1895
469.9650, 158.5664
471.1520, 216.9043
472.3380, 127.2090
473.5250, 196.4707
474.7110, 171.6953
475.8970, 97.85352
477.0820, 279.0605
478.2680, 26.81055
479.4540, 212.2305
480.6390, 225.2695
481.8240, 395.2656
483.0090, 353.2441
484.1940, 226.1836
485.3780, 275.0840
486.5630, 265.9707
487.7470, 221.8203
488.9320, 130.6445
490.1160, 266.4336
491.3000, 14.18359
492.4830, 37.86523
493.6670, 221.5234
494.8500, 57.14062
496.0340, 116.7207
497.2170, 260.2734
498.4000, 306.7910
499.5820, 382.3145
500.7650, 398.6719
501.9480, 458.3418
503.1300, 427.8457
504.3120, 368.3418
505.4940, 479.8125
506.6760, 385.2480
507.8580, 415.6719
509.0390, 375.0703
510.2210, 394.4277
511.4020, 396.7812
512.5830, 266.1016
513.7640, 504.3828
514.9450, 222.6250
516.1250, 398.8301
517.3060, 409.9961
518.4860, 374.1309
519.6660, 751.2285
520.8460, 587.2891
522.0260, 689.3105
523.2060, 757.2949
524.3850, 996.0605
525.5650, 864.7051
526.7440, 916.5762
527.9230, 955.4102
529.1020, 1140.205
530.2810, 726.9629
531.4590, 648.6816
532.6380, 745.3828
533.8160, 750.0273
534.9940, 836.6309
536.1720, 764.4570
537.3500, 888.7246
538.5270, 831.3828
539.7050, 830.8926
540.8820, 979.6699
542.0590, 1107.199
543.2360, 1181.615
544.4130, 1307.619
545.5900, 1281.211
546.7660, 1109.447
547.9430, 1243.990
549.1190, 1309.557
550.2950, 964.7285
551.4710, 1054.510
552.6470, 854.9863
553.8220, 904.3223
554.9980, 654.2051
556.1730, 602.0273
557.3480, 749.8867
558.5230, 676.3965
559.6980, 431.1797
560.8730, 404.9219
562.0470, 253.6055
563.2220, 329.2676
564.3960, 292.8926
565.5700, 277.4785
566.7440, 332.9199
567.9170, 300.3125
569.0910, 400.9316
570.2640, 332.3203
571.4380, 398.4551
572.6110, 231.8047
573.7840, 333.7773
574.9570, 211.9785
576.1290, 243.6562
577.3020, 353.2598
578.4740, 557.6797
579.6460, 320.2578
580.8180, 600.3594
581.9900, 335.6602
583.1620, 419.9023
584.3330, 374.4453
585.5040, 526.6934
586.6760, 388.7578
587.8470, 500.3535
589.0180, 457.9414
590.1880, 357.7734
591.3590, 477.3379
592.5290, 454.4473
593.7000, 343.5996
594.8700, 279.6406
596.0400, 437.1016
597.2090, 368.1094
598.3790, 449.5137
599.5490, 411.3145
600.7180, 129.7656
601.8870, 444.4121
603.0560, 303.5938
604.2250, 513.8691
605.3940, 234.6426
606.5620, 375.3184
607.7300, 267.2500
608.8990, 491.4141
610.0670, 379.9551
611.2350, 382.9980
612.4020, 517.2910
613.5700, 606.6562
614.7370, 830.7090
615.9050, 1053.283
617.0720, 1115.043
618.2390, 1396.816
619.4060, 1564.695
620.5720, 1484.635
621.7390, 1353.285
622.9050, 1352.982
624.0710, 1229.100
625.2370, 1213.658
626.4030, 1321.363
627.5690, 885.0234
628.7340, 867.3086
629.9000, 950.9082
631.0650, 1173.477
632.2300, 1004.764
633.3950, 1470.395
634.5600, 1397.682
635.7240, 1678.717
636.8890, 2215.100
638.0530, 2401.453
639.2170, 2952.086
640.3810, 3383.801
641.5450, 3606.328
642.7080, 3868.828
643.8720, 4116.844
645.0350, 4484.119
646.1980, 4470.535
647.3610, 4259.924
648.5240, 4322.285
649.6870, 3961.617
650.8490, 3624.918
652.0120, 3218.342
653.1740, 2430.318
654.3360, 1901.541
655.4980, 1695.275
656.6600, 1316.443
657.8210, 1026.582
658.9830, 895.6973
660.1440, 676.9707
661.3050, 426.8418
662.4660, 505.8750
663.6270, 464.8809
664.7870, 539.1543
665.9480, 483.3711
667.1080, 450.6602
668.2680, 382.9453
669.4280, 328.8242
670.5880, 299.6777
671.7480, 219.5059
672.9070, 307.3105
674.0670, 573.0879
675.2260, 89.15820
676.3850, 33.49023
677.5440, 176.0996
678.7030, 200.6660
679.8610, 70.79492
681.0200, 94.66211
682.1780, 7.087891
683.3360, 16.47266
684.4940, 124.8184
685.6520, 9.863281
686.8090, 56.40820
687.9670, 96.83594
689.1240, 266.8613
690.2810, 231.0762
691.4380, 362.3066
692.5950, 483.5176
693.7520, 567.2559
694.9080, 647.8926
696.0650, 804.0469
697.2210, 828.1797
698.3770, 889.2910
699.5330, 759.4121
700.6880, 400.5156
701.8440, 518.1914
702.9990, 648.1641
704.1550, 283.9629
705.3100, 392.6797
706.4650, 366.6094
707.6190, 95.38281
708.7740, 343.3516
709.9290, 325.2207
711.0830, 619.1504
712.2370, 630.5625
713.3910, 571.3867
714.5450, 698.6992
715.6980, 723.1387
716.8520, 724.6387
718.0050, 737.8574
719.1580, 704.6738
720.3110, 716.5645
721.4640, 622.4707
722.6170, 497.3867
723.7700, 438.4863
724.9220, 303.1953
726.0740, 229.1016
727.2260, 133.0332
728.3780, 14.00781
729.5300, 6.001953
730.6810, 58.00977
731.8330, 80.01367
732.9840, 67.97461
734.1350, 87.00781
735.2860, 3.986328
736.4370, 51.95117
737.5880, 84.91602
738.7380, 150.8691
739.8880, 72.99414
741.0390, 81.24023
742.1890, 60.57617
743.3380, 18.07422
744.4880, 12.91406
745.6380, 17.78516
746.7870, 21.58594
747.9360, 88.48828
749.0850, 12.32812
750.2340, 9.851563
751.3830, 62.94531
752.5310, 9.265625
753.6800, 68.50000
754.8280, 74.21094
755.9760, 18.08594
757.1240, 5.410156
758.2720, 122.7266
759.4190, 228.8750
760.5670, 50.53516
761.7140, 43.01172
762.8610, 251.5469
764.0080, 87.92578
765.1550, 90.53906
766.3020, 55.00391
767.4480, 39.59375
768.5950, 75.78516
769.7410, 4.156250
770.8870, 136.4648
772.0330, 72.83984
773.1780, 88.86328
774.3240, 165.3789
775.4690, 219.6211
776.6140, 144.1445
777.7590, 17.99219
778.9040, 69.13672
780.0490, 124.2617
781.1940, 19.62891
782.3380, 0.4687500
783.4820, 186.5508
784.6260, 275.6250
785.7700, 69.70312
786.9140, 216.7891
788.0580, 91.86328
789.2010, 1.937500
790.3450, 57.00391
791.4880, 107.0664
792.6310, 36.11719
793.7730, 176.1680
794.9160, 295.2148
796.0590, 167.2539
797.2010, 142.2891
798.3430, 50.32031
799.4850, 131.3438
800.6270, 81.36719
801.7690, 8.617188
802.9100, 108.3906
804.0520, 397.3984
805.1930, 270.3984
806.3340, 286.3984
807.4750, 9.390625
808.6160, 313.3828
809.7560, 139.3555
810.8970, 164.3398
812.0370, 280.3203
813.1770, 2.046875
814.3170, 407.2852
815.4570, 217.0977
816.5960, 272.0156
817.7360, 124.9961
818.8750, 288.4453
820.0140, 212.3398
821.1530, 438.6016
822.2920, 368.2383
823.4310, 85.19141
824.5690, 303.3359
825.7070, 267.8867
826.8460, 233.8672
827.9840, 535.8516
829.1220, 271.8359
830.2590, 410.8203
831.3970, 467.8164
832.5340, 697.8047
833.6710, 714.8008
834.8080, 730.8008
835.9450, 789.4805
837.0820, 784.0703
838.2190, 693.5977
839.3550, 898.6055
840.4910, 1058.617
841.6270, 1036.848
842.7630, 685.6641
843.8990, 984.6875
845.0350, 902.4102
846.1700, 618.4414
847.3060, 678.4844
848.4410, 602.5273
849.5760, 997.5781
850.7100, 975.6289
851.8450, 738.6914
852.9800, 986.7617
854.1140, 957.8320
855.2480, 1239.906
856.3820, 1450.992
857.5160, 1328.078
858.6500, 1354.168
859.7830, 1083.270
860.9170, 1193.371
862.0500, 966.4727
863.1830, 817.5859
864.3160, 914.6875
865.4480, 1074.047
866.5810, 936.5469
867.7130, 885.3789
868.8460, 664.3398
869.9780, 673.1836
871.1100, 740.0664
872.2410, 643.3594
873.3730, 735.2461
874.5050, 719.3047
875.6360, 712.5195
876.7670, 435.5547
877.8980, 265.6641
879.0290, 666.7461
880.1590, 536.6094
881.2900, 685.4297
882.4200, 789.3633
883.5500, 554.3555
884.6800, 573.7539
885.8100, 519.7773
886.9400, 788.8516
888.0690, 1090.188
889.1990, 987.3633
890.3280, 1190.848
891.4570, 1051.285
892.5860, 1231.012
893.7140, 1516.574
894.8430, 1957.805
895.9710, 2243.363
897.1000, 2610.211
898.2280, 3684.613
899.3560, 4516.199
900.4830, 6241.824
901.6110, 8380.430
902.7380, 9779.203
903.8660, 11016.99
904.9930, 12098.63
906.1200, 12804.01
907.2460, 13140.85
908.3730, 13258.53
909.5000, 12149.46
910.6260, 10610.16
911.7520, 7943.867
912.8780, 5622.480
914.0040, 4160.066
915.1290, 2606.824
916.2550, 1856.594
917.3800, 1532.242
918.5050, 1321.805
919.6300, 926.6172
920.7550, 930.0195
921.8800, 886.2461
923.0040, 987.1016
924.1290, 888.9688
925.2530, 729.7070
926.3770, 843.6055
927.5010, 485.5195
928.6250, 681.4492
929.7480, 880.3906
930.8720, 707.3438
931.9950, 851.3125
933.1180, 688.3477
934.2410, 586.3945
935.3640, 533.4531
936.4860, 309.5273
937.6090, 307.3281
938.7310, 554.4375
939.8530, 361.5625
940.9750, 431.6953
942.0970, 237.8555
943.2180, 575.0273
944.3400, 664.2188
945.4610, 326.4258
946.5820, 360.6484
947.7030, 780.8906
948.8240, 774.1641
949.9450, 639.4922
951.0650, 876.8320
952.1860, 975.1914
953.3060, 845.6094
954.4260, 751.0781
955.5460, 964.5664
956.6650, 676.0781
957.7850, 539.6133
958.9040, 580.1719
960.0230, 402.6602
961.1420, 316.3477
962.2610, 279.9609
963.3800, 188.5938
964.4990, 147.2383
965.6170, 163.9062
966.7350, 114.5859
967.8530, 107.2773
968.9710, 175.9922
970.0890, 189.2812
971.2070, 38.59375
972.3240, 71.89453
973.4410, 189.8047
974.5580, 127.5234
975.6750, 267.6523
976.7920, 343.0039
977.9090, 518.7734
979.0250, 403.5547
980.1410, 606.3594
981.2580, 439.1758
982.3740, 389.0078
983.4890, 386.8594
984.6050, 618.7266
985.7200, 279.6094
986.8360, 488.5117
987.9510, 227.4336
989.0660, 404.3672
990.1810, 7.324219
991.2950, 381.2891
992.4100, 459.2773
993.5240, 551.2773
994.6390, 372.2969
995.7530, 686.3398
996.8660, 648.3906
997.9800, 781.4609
999.0940, 883.5703
1000.207, 782.2617
1001.320, 846.4180
1002.433, 750.8125
1003.546, 870.0000
1004.659, 731.2266
1005.772, 1284.473
1006.884, 1330.742
1007.996, 1331.777
1009.108, 1350.078
1010.220, 1323.398
1011.332, 1424.238
1012.444, 1587.184
1013.555, 1516.141
1014.666, 1496.531
1015.777, 1289.094
1016.888, 1175.512
1017.999, 1192.316
1019.110, 1136.766
1020.220, 610.2344
1021.331, 724.7266
1022.441, 474.2305
1023.551, 583.7578
1024.661, 522.3164
1025.770, 295.8945
1026.880, 320.4922
1027.989, 367.1094
1029.098, 299.7812
1030.207, 588.4609
1031.316, 505.1758
1032.425, 506.9023
1033.533, 548.6484
1034.642, 254.4297
1035.750, 275.2266
1036.858, 96.05078
1037.966, 201.9102
1039.073, 260.7734
1040.181, 232.6562
1041.288, 268.2305
1042.396, 246.9375
1043.503, 222.5273
1044.610, 167.5273
1045.716, 109.8125
1046.823, 7.878906
1047.929, 106.9688
1049.036, 152.0703
1050.142, 89.18359
1051.248, 248.3164
1052.353, 102.4648
1053.459, 21.37500
1054.564, 105.0625
1055.670, 98.07812
1056.775, 344.2344
1057.880, 56.40625
1058.985, 301.5859
1060.089, 195.7773
1061.194, 140.9844
1062.298, 306.2031
1063.402, 277.4375
1064.506, 311.6875
1065.610, 250.8906
1066.713, 418.1602
1067.817, 227.4414
1068.920, 719.7344
1070.023, 774.0430
1071.126, 1353.359
1072.229, 1724.691
1073.332, 2751.035
1074.435, 4365.203
1075.537, 7037.570
1076.639, 8655.945
1077.741, 9685.332
1078.843, 10726.73
1079.945, 12482.14
1081.046, 13219.57
1082.148, 13001.99
1083.249, 10821.44
1084.350, 8027.891
1085.451, 6010.609
1086.551, 6100.008
1087.652, 7051.492
1088.752, 9883.988
1089.853, 11485.49
1090.953, 12289.00
1092.053, 13290.52
1093.152, 14390.05
1094.252, 15350.60
1095.351, 14686.14
1096.451, 11559.71
1097.550, 7524.285
1098.649, 4321.867
1099.748, 2002.480
1100.846, 1062.105
1101.945, 957.7383
1103.043, 655.6992
1104.141, 783.7656
1105.239, 499.9062
1106.337, 482.5703
1107.434, 238.2461
1108.532, 373.9297
1109.629, 260.6250
1110.726, 665.3281
1111.823, 22.03906
1112.920, 90.75781
1114.017, 390.4844
1115.113, 358.2188
1116.210, 293.9648
1117.306, 78.71484
1118.402, 215.4805
1119.498, 469.2539
1120.593, 281.0234
1121.689, 246.8086
1122.784, 408.6016
1123.879, 199.4062
1124.974, 368.2148
1126.069, 185.0312
1127.164, 232.8516
1128.259, 316.6875
1129.353, 504.5234
1130.447, 371.3398
1131.541, 38.80859
1132.635, 408.0312
1133.729, 50.12891
1134.822, 219.6914
1135.916, 142.5156
1137.009, 68.35156
1138.102, 182.2070
1139.195, 57.92578
1140.288, 295.9062
1141.380, 83.75000
1142.473, 78.40234
1143.565, 177.5938
1144.657, 34.87891
1145.749, 295.8281
1146.841, 113.4648
1147.932, 90.23828
1149.024, 323.0586
1150.115, 120.4844
1151.206, 123.0312
1152.297, 338.5820
1153.388, 212.1445
1154.479, 122.7031
1155.569, 65.27344
1156.659, 26.45312
1157.750, 268.4258
1158.839, 62.01172
1159.929, 154.5977
1161.019, 292.1914
1162.108, 41.82422
1163.198, 71.46094
1164.287, 149.0977
1165.376, 260.7461
1166.465, 286.3945
1167.553, 304.2930
1168.642, 455.7109
1169.730, 248.3711
1170.818, 193.0430
1171.906, 103.7148
1172.994, 488.3867
1174.082, 240.0664
1175.170, 406.7539
1176.257, 4.562500
1177.344, 503.1133
1178.431, 188.7930
1179.518, 31.47656
1180.605, 181.1641
1181.691, 44.03125
1182.778, 90.54688
1183.864, 148.2383
1184.950, 23.35938
1186.036, 146.6680
1187.122, 129.3711
1188.207, 42.07422
1189.292, 54.78906
1190.378, 55.44141
1191.463, 353.2109
1192.548, 105.9297
1193.632, 37.65234
1194.717, 53.97266
1195.801, 164.9023
1196.886, 141.7305
1197.970, 192.3672
1199.054, 308.0117
1200.137, 296.6484
1201.221, 241.2930
1202.305, 129.9414
1203.388, 161.7773
1204.471, 13.76172
1205.554, 203.8750
1206.637, 206.5117
1207.719, 285.1562
1208.802, 52.80078
1209.884, 41.44531
1210.966, 461.0898
1212.048, 502.7383
1213.130, 201.3906
1214.212, 153.0430
1215.293, 55.29688
1216.374, 65.80078
1217.456, 109.8945
1218.536, 47.48047
1219.617, 250.0547
1220.698, 481.6367
1221.778, 401.2227
1222.859, 274.8047
1223.939, 256.3984
1225.019, 173.9844
1226.099, 483.1250
1227.178, 371.7148
1228.258, 44.31250
1229.337, 309.8633
1230.417, 559.4609
1231.496, 490.0625
1232.574, 179.6641
1233.653, 482.2969
1234.732, 649.9336
1235.810, 512.5781
1236.888, 711.2227
1237.966, 374.8711
1239.044, 492.5195
1240.122, 399.1680
1241.199, 344.8242
1242.277, 296.4844
1243.354, 359.1484
1244.431, 331.5703
1245.508, 345.7578
1246.585, 359.1367
1247.661, 407.8047
1248.738, 405.4648
1249.814, 518.1328
1250.890, 336.8008
1251.966, 437.4648
1253.042, 357.1328
1254.117, 206.8047
1255.193, 381.4688
1256.268, 315.1406
1257.343, 241.8125
1258.418, 414.4805
1259.493, 43.85547
1260.567, 685.7812
1261.642, 348.8477
1262.716, 782.4844
1263.790, 571.8945
1264.864, 794.5312
1265.938, 572.1875
1267.011, 833.5977
1268.085, 670.2500
1269.158, 694.1523
1270.231, 949.8086
1271.304, 700.4688
1272.377, 761.1406
1273.450, 900.6875
1274.522, 603.7656
1275.594, 618.4258
1276.666, 459.3164
1277.738, 723.9961
1278.810, 789.3086
1279.882, 381.0156
