##NAMES=Tilleyite
##RRUFFID=R050227
##IDEAL CHEMISTRY=Ca_5_Si_2_O_7_(CO_3_)_2_
##LOCALITY=Crestmore Quarry, Riverside County, California, USA
##OWNER=RRUFF
##SOURCE=Marcus Origlieri
##DESCRIPTION=Aggregate of colorless subhedral crystals
##STATUS=The identification of this mineral has been confirmed by X-ray diffraction.
##URL=rruff.info/R050227
##PIN_ID=L00383
##ORIENTATION=Laser parallel to a* (1 0 0). Fiducial mark perpendicular to laser is parallel to b [0 1 0]
95.94800, 0.0000000E+00
97.18200, 7.710938
98.41600, 205.5547
99.64900, 561.6602
100.8830, 391.4785
102.1160, 489.4141
103.3490, 526.9082
104.5820, 703.8906
105.8150, 783.9180
107.0470, 1304.740
108.2800, 1756.352
109.5120, 2045.986
110.7440, 1775.322
111.9760, 1851.783
113.2080, 2104.758
114.4400, 2026.625
115.6710, 2030.990
116.9030, 1859.518
118.1340, 1825.918
119.3650, 1956.018
120.5960, 2117.695
121.8270, 1895.850
123.0580, 1850.408
124.2880, 1662.252
125.5190, 1461.215
126.7490, 1159.732
127.9790, 1021.395
129.2090, 733.3906
130.4390, 472.8145
131.6680, 454.7285
132.8980, 222.1973
134.1270, 181.2695
135.3560, 237.7852
136.5850, 249.1621
137.8140, 345.2656
139.0430, 433.1309
140.2710, 497.7891
141.5000, 566.2695
142.7280, 632.5977
143.9560, 769.4434
145.1840, 964.8828
146.4120, 1100.891
147.6390, 1315.844
148.8670, 1571.760
150.0940, 1600.646
151.3210, 2016.512
152.5490, 1928.570
153.7750, 1889.283
155.0020, 2060.482
156.2290, 2281.541
157.4550, 2309.320
158.6810, 2313.840
159.9080, 2193.850
161.1340, 1975.299
162.3590, 1773.209
163.5850, 1377.215
164.8110, 1038.301
166.0360, 421.4570
167.2610, 469.6934
168.4860, 232.0098
169.7110, 241.3750
170.9360, 80.73828
172.1610, 46.14648
173.3850, 35.26562
174.6100, 0.6855470
175.8340, 42.77148
177.0580, 97.47266
178.2820, 130.2559
179.5050, 328.1211
180.7290, 306.1992
181.9520, 224.1973
183.1760, 349.4121
184.3990, 260.7168
185.6220, 258.1016
186.8450, 167.5781
188.0670, 194.1289
189.2900, 110.7383
190.5120, 248.4043
191.7340, 202.3691
192.9560, 452.5215
194.1780, 526.7500
195.4000, 368.1152
196.6220, 469.6465
197.8430, 665.4180
199.0640, 681.3301
200.2860, 640.4414
201.5070, 619.5996
202.7270, 500.7773
203.9480, 305.0508
205.1690, 180.3398
206.3890, 184.6875
207.6090, 133.9668
208.8290, 56.61914
210.0490, 198.2891
211.2690, 299.9648
212.4890, 81.64844
213.7080, 227.3438
214.9280, 271.0566
216.1470, 211.7969
217.3660, 210.5547
218.5850, 7.669922
219.8030, 26.87500
221.0220, 73.06055
222.2400, 118.2305
223.4590, 95.38281
224.6770, 66.50586
225.8950, 272.5293
227.1120, 266.3359
228.3300, 184.9453
229.5480, 317.2695
230.7650, 200.4023
231.9820, 253.5215
233.1990, 336.6230
234.4160, 297.7051
235.6330, 188.7754
236.8490, 287.8633
238.0660, 171.0781
239.2820, 312.2461
240.4980, 401.2246
241.7140, 377.5078
242.9300, 445.3086
244.1460, 566.2910
245.3610, 473.0430
246.5770, 779.9023
247.7920, 919.0801
249.0070, 894.5156
250.2220, 1278.158
251.4370, 1407.973
252.6510, 1468.928
253.8660, 1354.000
255.0800, 1684.174
256.2940, 1838.432
257.5080, 1753.762
258.7220, 2092.150
259.9360, 2136.582
261.1490, 2095.131
262.3630, 2038.830
263.5760, 1994.879
264.7890, 1916.568
266.0020, 1864.135
267.2150, 1702.523
268.4270, 1754.891
269.6400, 1769.471
270.8520, 1799.584
272.0640, 1623.148
273.2760, 1977.945
274.4880, 2208.480
275.7000, 2296.961
276.9120, 2733.562
278.1230, 2677.562
279.3340, 3115.605
280.5450, 3254.955
281.7560, 3342.275
282.9670, 3163.174
284.1780, 3208.541
285.3880, 3312.293
286.5980, 3476.852
287.8090, 3624.463
289.0190, 3682.982
290.2290, 3821.242
291.4380, 3783.953
292.6480, 3976.859
293.8570, 3965.818
295.0670, 3901.816
296.2760, 3968.609
297.4850, 3967.252
298.6930, 4079.102
299.9020, 4102.012
301.1110, 4208.586
302.3190, 4135.328
303.5270, 4250.693
304.7350, 4072.674
305.9430, 4002.586
307.1510, 3684.107
308.3580, 3427.967
309.5660, 2976.504
310.7730, 2947.121
311.9800, 2809.707
313.1870, 2806.807
314.3940, 2683.789
315.6010, 2421.018
316.8070, 2523.607
318.0130, 2452.135
319.2200, 2189.762
320.4260, 2145.707
321.6310, 1859.109
322.8370, 1648.939
324.0430, 1822.701
325.2480, 1413.936
326.4540, 1442.723
327.6590, 1248.480
328.8640, 1008.885
330.0680, 974.7383
331.2730, 985.5039
332.4780, 641.8477
333.6820, 814.5332
334.8860, 843.1992
336.0900, 856.6426
337.2940, 960.6699
338.4980, 713.0566
339.7010, 958.6406
340.9050, 1180.320
342.1080, 1127.855
343.3110, 1529.365
344.5140, 1546.852
345.7170, 1617.070
346.9200, 1621.037
348.1220, 1829.918
349.3240, 1910.607
350.5270, 2200.475
351.7290, 2185.789
352.9310, 2357.961
354.1320, 2469.400
355.3340, 2448.221
356.5350, 2115.748
357.7370, 1934.697
358.9380, 1987.125
360.1390, 1838.742
361.3400, 1683.018
362.5400, 1288.303
363.7410, 1363.328
364.9410, 1003.328
366.1410, 907.4902
367.3410, 889.4316
368.5410, 636.3555
369.7410, 864.2383
370.9400, 407.2051
372.1400, 556.0352
373.3390, 506.8379
374.5380, 523.8262
375.7370, 232.5820
376.9360, 64.30664
378.1350, 179.0039
379.3330, 283.6758
380.5310, 209.3223
381.7300, 343.9414
382.9280, 284.5332
384.1260, 176.0938
385.3230, 471.6309
386.5210, 438.1387
387.7180, 339.6289
388.9160, 458.1016
390.1130, 345.5547
391.3100, 316.9863
392.5060, 708.3887
393.7030, 438.7656
394.9000, 639.1152
396.0960, 611.4355
397.2920, 593.7266
398.4880, 504.9863
399.6840, 420.2188
400.8800, 424.4258
402.0750, 314.6230
403.2710, 329.8242
404.4660, 261.9922
405.6610, 234.1309
406.8560, 158.2324
408.0510, 249.2988
409.2450, 12.66992
410.4400, 32.28711
411.6340, 112.1934
412.8280, 441.0566
414.0220, 47.88086
415.2160, 338.6562
416.4100, 231.3965
417.6030, 88.09570
418.7970, 91.74805
419.9900, 77.61523
421.1830, 157.9336
422.3760, 142.4531
423.5690, 450.7031
424.7610, 453.1445
425.9540, 162.7656
427.1460, 286.1250
428.3380, 127.7969
429.5300, 188.6094
430.7220, 1.539063
431.9140, 179.4883
433.1050, 267.0996
434.2970, 42.91406
435.4880, 19.83984
436.6790, 125.0605
437.8700, 69.29102
439.0610, 34.74805
440.2510, 128.2969
441.4420, 53.98242
442.6320, 79.23242
443.8220, 153.5977
445.0120, 49.58008
446.2020, 77.65430
447.3910, 342.4336
448.5810, 9.218750
449.7700, 60.95898
450.9600, 123.6816
452.1490, 97.59766
453.3370, 161.0391
454.5260, 165.6621
455.7150, 11.75195
456.9030, 10.24219
458.0910, 24.19531
459.2800, 155.6621
460.4670, 168.0938
461.6550, 48.48242
462.8430, 79.85352
464.0300, 190.1797
465.2180, 329.4766
466.4050, 38.74023
467.5920, 220.9902
468.7790, 113.2012
469.9650, 114.3711
471.1520, 169.5156
472.3380, 99.61914
473.5250, 314.6777
474.7110, 171.6992
475.8970, 335.6816
477.0820, 357.6289
478.2680, 137.5371
479.4540, 229.4121
480.6390, 139.2500
481.8240, 561.0488
483.0090, 98.81250
484.1940, 326.5273
485.3780, 328.2051
486.5630, 112.8496
487.7470, 143.4492
488.9320, 197.0039
490.1160, 210.5195
491.3000, 204.9961
492.4830, 245.4277
493.6670, 413.8203
494.8500, 194.1797
496.0340, 192.5273
497.2170, 73.85742
498.4000, 199.2070
499.5820, 223.0469
500.7650, 426.0137
501.9480, 380.4609
503.1300, 458.9453
504.3120, 474.4570
505.4940, 375.9922
506.6760, 375.4883
507.8580, 280.9492
509.0390, 377.3711
510.2210, 324.1660
511.4020, 459.1055
512.5830, 301.4199
513.7640, 438.6934
514.9450, 427.9316
516.1250, 277.1348
517.3060, 510.2988
518.4860, 642.3867
519.6660, 422.5996
520.8460, 551.3750
522.0260, 604.3926
523.2060, 759.2109
524.3850, 797.1543
525.5650, 917.0645
526.7440, 801.6113
527.9230, 679.4473
529.1020, 907.2461
530.2810, 975.0059
531.4590, 986.5137
532.6380, 880.2031
533.8160, 680.1426
534.9940, 841.7578
536.1720, 562.9473
537.3500, 755.7363
538.5270, 907.2422
539.7050, 809.1660
540.8820, 828.9707
542.0590, 926.6133
543.2360, 886.3457
544.4130, 1237.561
545.5900, 1161.025
546.7660, 1043.174
547.9430, 858.7109
549.1190, 1030.406
550.2950, 1032.387
551.4710, 861.4648
552.6470, 915.6953
553.8220, 946.9180
554.9980, 467.9004
556.1730, 429.3125
557.3480, 537.2188
558.5230, 499.8184
559.6980, 477.6074
560.8730, 388.3828
562.0470, 327.9727
563.2220, 421.0957
564.3960, 147.1113
565.5700, 384.7559
566.7440, 277.3633
567.9170, 399.3340
569.0910, 148.2559
570.2640, 359.2500
571.4380, 274.3848
572.6110, 395.4102
573.7840, 133.2441
574.9570, 79.39844
576.1290, 224.4961
577.3020, 243.0000
578.4740, 419.3770
579.6460, 286.6992
580.8180, 636.1582
581.9900, 617.7109
583.1620, 333.9023
584.3330, 532.6680
585.5040, 256.5488
586.6760, 454.9355
587.8470, 173.5762
589.0180, 371.8965
590.1880, 495.3535
591.3590, 404.8008
592.5290, 316.4160
593.7000, 542.2070
594.8700, 346.9766
596.0400, 519.4180
597.2090, 397.9902
598.3790, 486.6387
599.5490, 639.6895
600.7180, 453.5664
601.8870, 475.6094
603.0560, 516.7441
604.2250, 440.0098
605.3940, 364.4414
606.5620, 326.2051
607.7300, 549.9570
608.8990, 758.0918
610.0670, 576.8750
611.2350, 845.9160
612.4020, 641.9043
613.5700, 952.1582
614.7370, 923.4473
615.9050, 1115.086
617.0720, 1140.334
618.2390, 1427.703
619.4060, 1534.816
620.5720, 1520.984
621.7390, 1506.723
622.9050, 1452.025
624.0710, 1166.988
625.2370, 1298.035
626.4030, 1070.055
627.5690, 1257.045
628.7340, 1235.248
629.9000, 1191.646
631.0650, 1163.074
632.2300, 1415.451
633.3950, 1411.971
634.5600, 1793.795
635.7240, 2093.045
636.8890, 2431.738
638.0530, 2658.418
639.2170, 3582.105
640.3810, 3951.873
641.5450, 4334.527
642.7080, 4680.795
643.8720, 4762.490
645.0350, 5358.027
646.1980, 5347.570
647.3610, 5518.084
648.5240, 5094.379
649.6870, 4853.836
650.8490, 4174.252
652.0120, 3725.650
653.1740, 2968.914
654.3360, 2325.258
655.4980, 2078.570
656.6600, 1566.645
657.8210, 1445.902
658.9830, 1144.133
660.1440, 841.3379
661.3050, 836.5176
662.4660, 818.7969
663.6270, 663.9219
664.7870, 620.0215
665.9480, 558.0918
667.1080, 294.1406
668.2680, 275.1582
669.4280, 291.1504
670.5880, 76.11523
671.7480, 321.0508
672.9070, 163.9570
674.0670, 231.8379
675.2260, 91.69141
676.3850, 169.5078
677.5440, 302.3027
678.7030, 116.0723
679.8610, 32.81250
681.0200, 37.51172
682.1780, 41.82031
683.3360, 98.23047
684.4940, 173.2617
685.6520, 47.72656
686.8090, 88.16016
687.9670, 41.56250
689.1240, 314.9375
690.2810, 362.2891
691.4380, 623.6289
692.5950, 410.9609
693.7520, 440.2734
694.9080, 447.5586
696.0650, 766.8281
697.2210, 994.0742
698.3770, 733.3047
699.5330, 800.5117
700.6880, 663.6992
701.8440, 722.8594
702.9990, 624.0156
704.1550, 579.3711
705.3100, 593.4922
706.4650, 369.3633
707.6190, 68.43750
708.7740, 431.7305
709.9290, 483.8125
711.0830, 573.8086
712.2370, 367.9258
713.3910, 516.3203
714.5450, 660.2812
715.6980, 959.0742
716.8520, 803.9570
718.0050, 820.0352
719.1580, 755.1250
720.3110, 794.2266
721.4640, 547.3555
722.6170, 303.4961
723.7700, 473.6211
724.9220, 273.7891
726.0740, 142.9609
727.2260, 63.88672
728.3780, 26.93750
729.5300, 85.08984
730.6810, 110.0391
731.8330, 108.7656
732.9840, 62.83984
734.1350, 65.01953
735.2860, 237.8594
736.4370, 145.7070
737.5880, 288.4453
738.7380, 11.23047
739.8880, 115.8789
741.0390, 92.48438
742.1890, 196.0820
743.3380, 16.36328
744.4880, 62.15625
745.6380, 125.3398
746.7870, 91.07031
747.9360, 30.47656
749.0850, 54.13672
750.2340, 46.19922
751.3830, 101.5234
752.5310, 100.8789
753.6800, 108.8984
754.8280, 126.4297
755.9760, 63.70312
757.1240, 12.03125
758.2720, 9.203125
759.4190, 8.820313
760.5670, 42.62891
761.7140, 85.82031
762.8610, 129.0039
764.0080, 158.1797
765.1550, 194.3359
766.3020, 288.4922
767.4480, 256.2812
768.5950, 182.7812
769.7410, 253.9062
770.8870, 86.03125
772.0330, 140.1602
773.1780, 181.2891
774.3240, 49.58203
775.4690, 47.50391
776.6140, 67.14844
777.7590, 99.83594
778.9040, 60.50391
780.0490, 39.58594
781.1940, 31.69922
782.3380, 13.84766
783.4820, 271.0195
784.6260, 199.8711
785.7700, 270.7188
786.9140, 166.5586
788.0580, 209.3945
789.2010, 98.21875
790.3450, 255.0391
791.4880, 396.8477
792.6310, 467.6562
793.7730, 439.0312
794.9160, 158.2461
796.0590, 305.0391
797.2010, 103.8242
798.3430, 88.60156
799.4850, 1.625000
800.6270, 68.13281
801.7690, 166.8984
802.9100, 269.6562
804.0520, 234.4023
805.1930, 179.1484
806.3340, 151.8945
807.4750, 47.63281
808.6160, 315.5859
809.7560, 309.3203
810.8970, 192.7578
812.0370, 114.4844
813.1770, 154.9688
814.3170, 293.0664
815.4570, 232.7891
816.5960, 472.0430
817.7360, 529.2617
818.8750, 553.5625
820.0140, 549.1680
821.1530, 599.9922
822.2920, 371.5195
823.4310, 374.2461
824.5690, 273.4219
825.7070, 419.0742
826.8460, 315.7891
827.9840, 371.5039
829.1220, 660.2188
830.2590, 479.9336
831.3970, 421.6523
832.5340, 589.3750
833.6710, 616.0977
834.8080, 647.8203
835.9450, 604.5469
837.0820, 761.3828
838.2190, 890.1133
839.3550, 742.8516
840.4910, 643.5898
841.6270, 722.3320
842.7630, 722.0820
843.8990, 789.8320
845.0350, 761.1094
846.1700, 817.6523
847.3060, 867.0156
848.4410, 921.4102
849.5760, 985.1875
850.7100, 1079.969
851.8450, 1144.340
852.9800, 1175.812
854.1140, 1171.359
855.2480, 1255.168
856.3820, 1263.980
857.5160, 1375.801
858.6500, 1206.621
859.7830, 972.4453
860.9170, 1276.277
862.0500, 927.1094
863.1830, 1045.910
864.3160, 1134.387
865.4480, 1017.766
866.5810, 990.8477
867.7130, 940.7383
868.8460, 798.0664
869.9780, 639.3086
871.1100, 678.8828
872.2410, 673.8086
873.3730, 618.7461
874.5050, 928.0195
875.6360, 706.1133
876.7670, 729.3086
877.8980, 510.8125
879.0290, 603.8516
880.1590, 637.4570
881.2900, 725.2656
882.4200, 599.1445
883.5500, 503.1602
884.6800, 673.9688
885.8100, 870.5312
886.9400, 1089.480
888.0690, 957.6797
889.1990, 813.9180
890.3280, 1111.184
891.4570, 1325.469
892.5860, 1605.613
893.7140, 1690.203
894.8430, 2107.145
895.9710, 2626.121
897.1000, 3310.301
898.2280, 4026.684
899.3560, 5370.105
900.4830, 7182.539
901.6110, 9245.984
902.7380, 11501.45
903.8660, 12793.92
904.9930, 13879.41
906.1200, 13916.93
907.2460, 14819.09
908.3730, 14620.56
909.5000, 13610.11
910.6260, 10991.20
911.7520, 8696.824
912.8780, 6135.926
914.0040, 4292.344
915.1290, 3137.262
916.2550, 2307.273
917.3800, 1572.832
918.5050, 1198.242
919.6300, 1368.934
920.7550, 1244.652
921.8800, 1173.379
923.0040, 1049.121
924.1290, 1073.883
925.2530, 918.6680
926.3770, 1066.465
927.5010, 1151.293
928.6250, 971.1406
929.7480, 1307.008
930.8720, 1102.891
931.9950, 852.7969
933.1180, 786.7109
934.2410, 670.4141
935.3640, 530.2266
936.4860, 562.4531
937.6090, 448.4453
938.7310, 357.4531
939.8530, 599.4844
940.9750, 489.5273
942.0970, 492.5977
943.2180, 451.6797
944.3400, 611.7852
945.4610, 514.9102
946.5820, 621.0586
947.7030, 1008.223
948.8240, 1064.406
949.9450, 1151.613
951.0650, 1312.840
952.1860, 1438.090
953.3060, 1309.363
954.4260, 1240.660
955.5460, 1475.004
956.6650, 630.4023
957.7850, 931.8242
958.9040, 553.2930
960.0230, 231.7930
961.1420, 196.3125
962.2610, 399.8555
963.3800, 84.41406
964.4990, 184.9961
965.6170, 60.59766
966.7350, 266.2148
967.8530, 164.8594
968.9710, 55.51953
970.0890, 36.19922
971.2070, 11.81641
972.3240, 258.6211
973.4410, 59.36719
974.5580, 153.1250
975.6750, 390.9062
976.7920, 245.7109
977.9090, 265.5352
979.0250, 559.3789
980.1410, 548.2461
981.2580, 552.1367
982.3740, 628.0469
983.4890, 791.9766
984.6050, 778.9258
985.7200, 586.8984
986.8360, 282.8945
987.9510, 520.9062
989.0660, 239.9414
990.1810, 220.0000
991.2950, 209.0742
992.4100, 12.17578
993.5240, 312.2969
994.6390, 459.4414
995.7530, 770.6016
996.8660, 784.8281
997.9800, 1101.074
999.0940, 1067.344
1000.207, 739.6562
1001.320, 696.0195
1002.433, 836.4375
1003.546, 1025.918
1004.659, 1303.438
1005.772, 1079.445
1006.884, 1654.016
1007.996, 1621.363
1009.108, 1405.316
1010.220, 1516.035
1011.332, 2064.773
1012.444, 1775.570
1013.555, 1562.383
1014.666, 1995.383
1015.777, 1337.641
1016.888, 1242.629
1017.999, 987.6797
1019.110, 1037.789
1020.220, 1136.547
1021.331, 659.2656
1022.441, 467.8906
1023.551, 441.9492
1024.661, 487.0391
1025.770, 555.1367
1026.880, 650.2617
1027.989, 426.5391
1029.098, 334.7383
1030.207, 429.9258
1031.316, 322.4648
1032.425, 254.1016
1033.533, 489.3477
1034.642, 221.6133
1035.750, 456.8945
1036.858, 178.1914
1037.966, 387.5078
1039.073, 336.8398
1040.181, 82.80859
1041.288, 88.46094
1042.396, 383.8711
1043.503, 159.2266
1044.610, 19.38672
1045.716, 105.0312
1046.823, 17.51172
1047.929, 134.0195
1049.036, 95.46484
1050.142, 121.9805
1051.248, 140.4766
1052.353, 262.0391
1053.459, 278.5703
1054.564, 214.1211
1055.670, 332.6875
1056.775, 58.30469
1057.880, 412.9062
1058.985, 172.5234
1060.089, 379.7305
1061.194, 356.3828
1062.298, 330.0469
1063.402, 316.7305
1064.506, 416.4258
1065.610, 486.1367
1066.713, 582.6992
1067.817, 391.6172
1068.920, 795.3828
1070.023, 868.1602
1071.126, 899.9570
1072.229, 1642.770
1073.332, 2729.598
1074.435, 4535.441
1075.537, 7763.301
1076.639, 10237.17
1077.741, 10687.07
1078.843, 12152.97
1079.945, 13506.89
1081.046, 13883.83
1082.148, 12853.78
1083.249, 11367.75
1084.350, 8422.727
1085.451, 6667.723
1086.551, 6435.734
1087.652, 7903.758
1088.752, 10746.80
1089.853, 12931.85
1090.953, 13788.91
1092.053, 14812.40
1093.152, 16146.49
1094.252, 16091.60
1095.351, 14876.72
1096.451, 11826.86
1097.550, 7933.012
1098.649, 4298.176
1099.748, 2115.352
1100.846, 1202.539
1101.945, 957.7422
1103.043, 533.9531
1104.141, 549.0781
1105.239, 428.3594
1106.337, 475.6523
1107.434, 704.9570
1108.532, 355.2734
1109.629, 207.6016
1110.726, 455.9453
1111.823, 204.3242
1112.920, 189.7070
1114.017, 326.1133
1115.113, 244.5234
1116.210, 251.3320
1117.306, 432.3906
1118.402, 198.8398
1119.498, 185.2969
1120.593, 219.7656
1121.689, 132.2461
1122.784, 268.7422
1123.879, 176.2461
1124.974, 99.76562
1126.069, 173.2891
1127.164, 249.8242
1128.259, 94.66406
1129.353, 155.6797
1130.447, 169.2461
1131.541, 123.8281
1132.635, 169.4180
1133.729, 111.0195
1134.822, 193.6250
1135.916, 176.9023
1137.009, 144.0938
1138.102, 135.5078
1139.195, 22.88281
1140.288, 172.2891
1141.380, 91.23438
1142.473, 181.7617
1143.565, 33.29297
1144.657, 26.83594
1145.749, 13.39062
1146.841, 69.05078
1147.932, 98.52344
1149.024, 63.10156
1150.115, 99.18359
1151.206, 0.8164060
1152.297, 2.222656
1153.388, 33.80078
1154.479, 210.0156
1155.569, 46.41016
1156.659, 71.82422
1157.750, 318.2500
1158.839, 96.32422
1159.929, 24.05469
1161.019, 358.4453
1162.108, 12.91016
1163.198, 46.62109
1164.287, 41.82812
1165.376, 51.27344
1166.465, 134.7344
1167.553, 218.1953
1168.642, 193.6641
1169.730, 253.7148
1170.818, 203.6172
1171.906, 267.4531
1172.994, 254.0195
1174.082, 221.5195
1175.170, 124.0234
1176.257, 195.1758
1177.344, 76.69141
1178.431, 128.8945
1179.518, 26.14062
1180.605, 229.6641
1181.691, 186.2500
1182.778, 373.0391
1183.864, 262.5820
1184.950, 231.1328
1186.036, 336.6836
1187.122, 17.24609
1188.207, 111.8047
1189.292, 20.37109
1190.378, 54.05859
1191.463, 221.4844
1192.548, 186.0352
1193.632, 259.5859
1194.717, 121.1445
1195.801, 152.7031
1196.886, 124.2695
1197.970, 243.8398
1199.054, 326.4141
1200.137, 171.9922
1201.221, 358.5703
1202.305, 198.1562
1203.388, 35.74609
1204.471, 129.3398
1205.554, 206.9375
1206.637, 111.5391
1207.719, 190.1445
1208.802, 162.7500
1209.884, 146.3594
1210.966, 71.97656
1212.048, 330.5938
1213.130, 62.21094
1214.212, 293.8359
1215.293, 58.46484
1216.374, 343.0938
1217.456, 213.7305
1218.536, 341.3672
1219.617, 87.00781
1220.698, 89.35156
1221.778, 10.26953
1222.859, 312.8242
1223.939, 99.41797
1225.019, 395.0078
1226.099, 454.6055
1227.178, 175.2188
1228.258, 254.8203
1229.337, 209.4258
1230.417, 206.0352
1231.496, 485.6445
1232.574, 381.2539
1233.653, 332.8711
1234.732, 260.3750
1235.810, 132.9922
1236.888, 654.8008
1237.966, 267.4219
1239.044, 416.0469
1240.122, 652.6680
1241.199, 417.4414
1242.277, 335.0664
1243.354, 517.6953
1244.431, 506.3242
1245.508, 777.9492
1246.585, 735.9023
1247.661, 437.2109
1248.738, 674.8398
1249.814, 442.4727
1250.890, 287.1016
1251.966, 284.7305
1253.042, 319.3633
1254.117, 524.9961
1255.193, 295.6289
1256.268, 70.25781
1257.343, 129.1055
1258.418, 19.47266
1259.493, 360.0820
1260.567, 214.6992
1261.642, 465.4922
1262.716, 881.9258
1263.790, 667.5391
1264.864, 735.2266
1265.938, 743.7188
1267.011, 725.8789
1268.085, 812.5000
1269.158, 892.3555
1270.231, 436.7109
1271.304, 789.3320
1272.377, 797.9492
1273.450, 628.5703
1274.522, 980.2188
1275.594, 662.7344
1276.666, 820.2812
1277.738, 822.0586
1278.810, 676.5781
1279.882, 580.2305
