##NAMES=Tilleyite
##RRUFFID=R050227
##IDEAL CHEMISTRY=Ca_5_Si_2_O_7_(CO_3_)_2_
##LOCALITY=Crestmore Quarry, Riverside County, California, USA
##OWNER=RRUFF
##SOURCE=Marcus Origlieri
##DESCRIPTION=Aggregate of colorless subhedral crystals
##STATUS=The identification of this mineral has been confirmed by X-ray diffraction.
##URL=rruff.info/R050227
##PIN_ID=L00383
##ORIENTATION=Laser parallel to a* (1 0 0). Fiducial mark perpendicular to laser is parallel to b [0 1 0]
95.94800, 0.0000000E+00
97.18200, 2.408203
98.41600, 180.9688
99.64900, 314.6152
100.8830, 282.4961
102.1160, 286.0137
103.3490, 156.1855
104.5820, 492.5098
105.8150, 713.6367
107.0470, 752.6426
108.2800, 1151.316
109.5120, 1488.748
110.7440, 1275.385
111.9760, 1238.217
113.2080, 1586.992
114.4400, 1478.916
115.6710, 1637.129
116.9030, 1460.316
118.1340, 1381.031
119.3650, 1254.877
120.5960, 1296.822
121.8270, 1162.695
123.0580, 1353.967
124.2880, 1061.371
125.5190, 952.8086
126.7490, 1065.887
127.9790, 699.7832
129.2090, 508.8281
130.4390, 448.4531
131.6680, 502.6992
132.8980, 400.9707
134.1270, 621.9668
135.3560, 401.9434
136.5850, 386.0586
137.8140, 572.4199
139.0430, 771.6270
140.2710, 810.7695
141.5000, 770.8574
142.7280, 865.9043
143.9560, 980.9180
145.1840, 1012.906
146.4120, 1161.885
147.6390, 1364.871
148.8670, 1313.885
150.0940, 1292.934
151.3210, 1647.016
152.5490, 1644.436
153.7750, 1276.334
155.0020, 1514.955
156.2290, 1324.945
157.4550, 1444.812
158.6810, 1286.258
159.9080, 1335.164
161.1340, 1173.326
162.3590, 837.3965
163.5850, 601.4355
164.8110, 327.5547
166.0360, 251.7422
167.2610, 59.99219
168.4860, 95.69727
169.7110, 187.6504
170.9360, 126.0000
172.1610, 3.390625
173.3850, 79.83594
174.6100, 68.35156
175.8340, 63.93945
177.0580, 12.40234
178.2820, 116.3320
179.5050, 61.86328
180.7290, 136.0312
181.9520, 181.0039
183.1760, 40.05664
184.3990, 166.1738
185.6220, 211.3574
186.8450, 250.5977
188.0670, 246.8926
189.2900, 201.2305
190.5120, 372.6152
191.7340, 452.0371
192.9560, 461.5332
194.1780, 612.1328
195.4000, 587.8672
196.6220, 539.7637
197.8430, 781.8613
199.0640, 618.2188
200.2860, 850.7363
201.5070, 741.3828
202.7270, 466.0234
203.9480, 412.7520
205.1690, 168.5410
206.3890, 213.3633
207.6090, 145.1016
208.8290, 70.15039
210.0490, 130.3848
211.2690, 3.384766
212.4890, 22.13477
213.7080, 63.87891
214.9280, 188.3613
216.1470, 193.5938
217.3660, 102.1562
218.5850, 230.1133
219.8030, 74.39258
221.0220, 30.69141
222.2400, 76.99414
223.4590, 1.662109
224.6770, 115.6680
225.8950, 11.98047
227.1120, 12.53906
228.3300, 148.0762
229.5480, 267.4395
230.7650, 149.9141
231.9820, 181.7773
233.1990, 59.85352
234.4160, 84.84961
235.6330, 96.12109
236.8490, 223.7773
238.0660, 186.7109
239.2820, 94.63281
240.4980, 189.5332
241.7140, 71.41211
242.9300, 397.2754
244.1460, 359.0371
245.3610, 418.3535
246.5770, 450.0566
247.7920, 485.0527
249.0070, 537.2773
250.2220, 575.6836
251.4370, 696.2344
252.6510, 784.4043
253.8660, 1072.668
255.0800, 1033.512
256.2940, 1140.420
257.5080, 1282.383
258.7220, 1207.389
259.9360, 1545.426
261.1490, 1249.490
262.3630, 1250.562
263.5760, 1509.566
264.7890, 1158.688
266.0020, 1376.818
267.2150, 1318.893
268.4270, 1219.629
269.6400, 1514.826
270.8520, 1408.299
272.0640, 1806.691
273.2760, 1519.031
274.4880, 1877.045
275.7000, 2003.350
276.9120, 2192.314
278.1230, 2419.256
279.3340, 2624.230
280.5450, 2760.512
281.7560, 2902.049
282.9670, 2966.998
284.1780, 3014.775
285.3880, 2997.367
286.5980, 3030.076
287.8090, 3036.828
289.0190, 3074.186
290.2290, 3047.105
291.4380, 3142.168
292.6480, 3133.768
293.8570, 3306.400
295.0670, 3256.594
296.2760, 3211.400
297.4850, 3109.516
298.6930, 3242.793
299.9020, 3382.047
301.1110, 3336.627
302.3190, 3412.291
303.5270, 3379.197
304.7350, 3254.854
305.9430, 3058.047
307.1510, 2758.352
308.3580, 2364.461
309.5660, 2060.096
310.7730, 1824.146
311.9800, 1879.051
313.1870, 1859.492
314.3940, 1652.836
315.6010, 1459.096
316.8070, 1526.371
318.0130, 1411.260
319.2200, 1147.945
320.4260, 1103.355
321.6310, 983.6523
322.8370, 990.0352
324.0430, 898.5996
325.2480, 798.3105
326.4540, 846.0293
327.6590, 749.3379
328.8640, 623.3828
330.0680, 637.1406
331.2730, 447.6602
332.4780, 333.6094
333.6820, 443.8828
334.8860, 414.9551
336.0900, 304.7754
337.2940, 485.2852
338.4980, 459.9043
339.7010, 579.4766
340.9050, 607.9297
342.1080, 659.3672
343.3110, 737.7812
344.5140, 695.5059
345.7170, 861.2344
346.9200, 824.4258
348.1220, 1166.855
349.3240, 1138.605
350.5270, 1039.684
351.7290, 1278.197
352.9310, 1242.391
354.1320, 1140.328
355.3340, 1264.699
356.5350, 1173.561
357.7370, 1238.795
358.9380, 1187.611
360.1390, 950.3730
361.3400, 927.6172
362.5400, 876.6484
363.7410, 892.4863
364.9410, 655.5410
366.1410, 709.6582
367.3410, 501.6406
368.5410, 677.1641
369.7410, 514.7598
370.9400, 464.6113
372.1400, 405.3906
373.3390, 414.1992
374.5380, 296.9824
375.7370, 279.7422
376.9360, 370.4785
378.1350, 228.1934
379.3330, 807.8848
380.5310, 749.0039
381.7300, 614.3320
382.9280, 1045.824
384.1260, 229.4238
385.3230, 327.9961
386.5210, 283.5488
387.7180, 343.0898
388.9160, 493.6113
390.1130, 381.1152
391.3100, 552.5996
392.5060, 323.0586
393.7030, 344.4922
394.9000, 452.9004
396.0960, 460.2832
397.2920, 579.6387
398.4880, 587.9727
399.6840, 440.2754
400.8800, 514.5508
402.0750, 314.8145
403.2710, 307.0527
404.4660, 309.2656
405.6610, 330.4434
406.8560, 78.59570
408.0510, 238.7109
409.2450, 70.79102
410.4400, 265.8340
411.6340, 110.8457
412.8280, 225.8223
414.0220, 160.7617
415.2160, 179.6660
416.4100, 188.5371
417.6030, 307.3730
418.7970, 187.5449
419.9900, 360.3125
421.1830, 445.0469
422.3760, 234.7520
423.5690, 602.8164
424.7610, 204.4531
425.9540, 167.0566
427.1460, 231.0820
428.3380, 483.9922
429.5300, 221.5137
430.7220, 413.0020
431.9140, 37.44141
433.1050, 24.92578
434.2970, 158.7148
435.4880, 56.00391
436.6790, 34.18359
437.8700, 49.68164
439.0610, 43.63672
440.2510, 48.67969
441.4420, 99.92383
442.6320, 101.0664
443.8220, 122.4297
445.0120, 47.92773
446.2020, 41.50391
447.3910, 115.1328
448.5810, 215.3418
449.7700, 172.5508
450.9600, 217.7207
452.1490, 69.10547
453.3370, 78.99414
454.5260, 34.06250
455.7150, 82.77930
456.9030, 16.86719
458.0910, 173.0020
459.2800, 97.83984
460.4670, 173.6934
461.6550, 105.5215
462.8430, 14.33398
464.0300, 58.08984
465.2180, 16.28125
466.4050, 42.98047
467.5920, 89.08398
468.7790, 95.70117
469.9650, 116.6797
471.1520, 246.8398
472.3380, 89.36719
473.5250, 111.8535
474.7110, 0.6660160
475.8970, 137.7734
477.0820, 173.2188
478.2680, 229.6387
479.4540, 383.0234
480.6390, 270.3789
481.8240, 277.7012
483.0090, 104.9883
484.1940, 386.2363
485.3780, 400.4824
486.5630, 223.6973
487.7470, 216.9062
488.9320, 124.0781
490.1160, 278.2090
491.3000, 196.3105
492.4830, 46.37305
493.6670, 241.3906
494.8500, 38.36719
496.0340, 219.2969
497.2170, 35.22461
498.4000, 396.1328
499.5820, 279.0156
500.7650, 140.8672
501.9480, 273.6797
503.1300, 368.5039
504.3120, 349.3398
505.4940, 431.1719
506.6760, 404.4160
507.8580, 325.8652
509.0390, 342.6816
510.2210, 378.4648
511.4020, 342.2168
512.5830, 421.9648
513.7640, 418.6797
514.9450, 454.3633
516.1250, 527.0156
517.3060, 522.6348
518.4860, 656.2207
519.6660, 647.7734
520.8460, 767.2949
522.0260, 759.7812
523.2060, 771.2363
524.3850, 909.6582
525.5650, 1069.047
526.7440, 893.4043
527.9230, 878.9551
529.1020, 957.2461
530.2810, 877.5059
531.4590, 847.0586
532.6380, 948.8496
533.8160, 1029.217
534.9940, 952.1113
536.1720, 854.4355
537.3500, 851.9570
538.5270, 931.1621
539.7050, 950.2207
540.8820, 996.2227
542.0590, 1167.600
543.2360, 1109.805
544.4130, 1305.490
545.5900, 1197.814
546.7660, 1309.609
547.9430, 1307.578
549.1190, 1242.609
550.2950, 1015.258
551.4710, 1096.223
552.6470, 658.8555
553.8220, 680.7871
554.9980, 612.2285
556.1730, 652.3574
557.3480, 483.5254
558.5230, 530.6934
559.6980, 219.1289
560.8730, 531.2109
562.0470, 543.5801
563.2220, 427.9160
564.3960, 211.0820
565.5700, 432.3477
566.7440, 309.3066
567.9170, 203.4062
569.0910, 222.3945
570.2640, 459.5273
571.4380, 309.3984
572.6110, 282.4668
573.7840, 104.6270
574.9570, 187.2617
576.1290, 308.7070
577.3020, 421.5742
578.4740, 355.3652
579.6460, 578.5566
580.8180, 458.0918
581.9900, 277.2812
583.1620, 317.2188
584.3330, 255.0605
585.5040, 415.5332
586.6760, 236.6602
587.8470, 286.3711
589.0180, 173.2402
590.1880, 395.5293
591.3590, 416.6152
592.5290, 386.8008
593.7000, 664.4551
594.8700, 468.8711
596.0400, 198.2734
597.2090, 366.3477
598.3790, 617.8652
599.5490, 323.7578
600.7180, 553.1309
601.8870, 322.5918
603.0560, 386.0020
604.2250, 300.7832
605.3940, 316.4570
606.5620, 442.0879
607.7300, 301.5254
608.8990, 461.1133
610.0670, 475.2148
611.2350, 468.2441
612.4020, 666.4395
613.5700, 612.6094
614.7370, 805.8848
615.9050, 1041.232
617.0720, 1405.857
618.2390, 1339.609
619.4060, 1397.648
620.5720, 1514.877
621.7390, 1534.684
622.9050, 1249.479
624.0710, 1382.535
625.2370, 1307.641
626.4030, 1402.461
627.5690, 1134.320
628.7340, 1124.875
629.9000, 1051.771
631.0650, 1160.385
632.2300, 1128.629
633.3950, 1182.492
634.5600, 1310.873
635.7240, 1595.641
636.8890, 1976.352
638.0530, 2570.887
639.2170, 3001.045
640.3810, 3491.457
641.5450, 3672.238
642.7080, 4053.576
643.8720, 4204.027
645.0350, 4398.902
646.1980, 4545.293
647.3610, 4571.662
648.5240, 4416.000
649.6870, 4331.340
650.8490, 3688.631
652.0120, 3362.896
653.1740, 2726.139
654.3360, 2221.355
655.4980, 1671.549
656.6600, 1250.715
657.8210, 1067.857
658.9830, 1138.977
660.1440, 814.0703
661.3050, 909.1426
662.4660, 476.1895
663.6270, 758.2109
664.7870, 256.2109
665.9480, 286.1895
667.1080, 161.1406
668.2680, 244.0742
669.4280, 265.9844
670.5880, 132.8711
671.7480, 81.73047
672.9070, 159.5625
674.0670, 285.3691
675.2260, 267.1523
676.3850, 94.91797
677.5440, 160.6543
678.7030, 38.36523
679.8610, 191.0488
681.0200, 92.26758
682.1780, 30.66016
683.3360, 49.91602
684.4940, 81.46094
685.6520, 219.9805
686.8090, 26.48047
687.9670, 134.9473
689.1240, 357.3945
690.2810, 101.8242
691.4380, 437.2344
692.5950, 405.6230
693.7520, 371.9961
694.9080, 531.3477
696.0650, 834.6816
697.2210, 855.9980
698.3770, 744.2969
699.5330, 752.2051
700.6880, 718.4648
701.8440, 497.7051
702.9990, 657.9297
704.1550, 780.7344
705.3100, 340.9219
706.4650, 37.90820
707.6190, 197.7656
708.7740, 354.5039
709.9290, 296.5840
711.0830, 477.6484
712.2370, 546.5918
713.3910, 513.6523
714.5450, 789.2266
715.6980, 788.2578
716.8520, 649.3047
718.0050, 930.3438
719.1580, 734.3945
720.3110, 921.4570
721.4640, 783.5371
722.6170, 599.6426
723.7700, 472.7656
724.9220, 469.9277
726.0740, 585.0898
727.2260, 320.2598
728.3780, 318.2246
729.5300, 161.4102
730.6810, 102.4141
731.8330, 71.32227
732.9840, 11.26367
734.1350, 111.7656
735.2860, 51.64844
736.4370, 3.310547
737.5880, 150.7227
738.7380, 90.25391
739.8880, 4.304688
741.0390, 59.38281
742.1890, 68.48828
743.3380, 133.3555
744.4880, 109.2148
745.6380, 13.92188
746.7870, 69.08984
747.9360, 185.6875
749.0850, 57.53906
750.2340, 31.17969
751.3830, 43.88281
752.5310, 112.4180
753.6800, 57.80078
754.8280, 148.2188
755.9760, 20.73828
757.1240, 11.71484
758.2720, 19.15625
759.4190, 80.58203
760.5670, 83.99219
761.7140, 35.40234
762.8610, 103.2031
764.0080, 195.1211
765.1550, 90.56250
766.3020, 36.68750
767.4480, 87.92969
768.5950, 82.16406
769.7410, 318.3906
770.8870, 103.6133
772.0330, 182.8320
773.1780, 30.04688
774.3240, 48.73828
775.4690, 275.4414
776.6140, 20.38281
777.7590, 125.7734
778.9040, 147.9180
780.0490, 59.07031
781.1940, 40.21094
782.3380, 84.65234
783.4820, 60.42578
784.6260, 80.50000
785.7700, 51.57031
786.9140, 25.63281
788.0580, 232.6914
789.2010, 30.74219
790.3450, 388.7891
791.4880, 319.8359
792.6310, 406.8711
793.7730, 206.8984
794.9160, 334.9258
796.0590, 258.7695
797.2010, 158.9648
798.3430, 168.9766
799.4850, 255.9883
800.6270, 177.9961
801.7690, 311.9961
802.9100, 71.99609
804.0520, 112.9922
805.1930, 366.5898
806.3340, 39.57422
807.4750, 244.5625
808.6160, 311.2188
809.7560, 190.6016
810.8970, 261.3750
812.0370, 400.3477
813.1770, 308.3281
814.3170, 354.8398
815.4570, 183.6367
816.5960, 371.5430
817.7360, 425.4727
818.8750, 512.0000
820.0140, 466.6602
821.1530, 277.8047
822.2920, 443.2812
823.4310, 208.2500
824.5690, 502.0156
825.7070, 354.7578
826.8460, 194.7305
827.9840, 553.3477
829.1220, 408.3242
830.2590, 396.2969
831.3970, 621.2773
832.5340, 920.2578
833.6710, 624.2344
834.8080, 678.2227
835.9450, 918.2070
837.0820, 888.1992
838.2190, 981.1914
839.3550, 817.2461
840.4910, 1037.246
841.6270, 972.2500
842.7630, 983.2578
843.8990, 906.9297
845.0350, 984.9453
846.1700, 869.9648
847.3060, 741.9844
848.4410, 863.0156
849.5760, 983.0547
850.7100, 1111.098
851.8450, 1084.148
852.9800, 1041.203
854.1140, 1374.262
855.2480, 1172.324
856.3820, 1125.977
857.5160, 1344.051
858.6500, 1288.129
859.7830, 1240.211
860.9170, 1078.301
862.0500, 1099.395
863.1830, 1040.941
864.3160, 1099.598
865.4480, 972.7070
866.5810, 950.8242
867.7130, 829.0039
868.8460, 1079.160
869.9780, 787.1133
871.1100, 1152.199
872.2410, 837.0781
873.3730, 643.6328
874.5050, 647.8477
875.6360, 625.0352
876.7670, 627.3164
877.8980, 650.9766
879.0290, 734.9258
880.1590, 713.1914
881.2900, 739.4688
882.4200, 751.6523
883.5500, 712.4062
884.6800, 692.7109
885.8100, 598.2578
886.9400, 940.3125
888.0690, 533.4336
889.1990, 1030.664
890.3280, 1115.387
891.4570, 1006.500
892.5860, 1628.672
893.7140, 1587.777
894.8430, 1894.980
895.9710, 2264.461
897.1000, 2966.961
898.2280, 3838.973
899.3560, 4652.559
900.4830, 6222.102
901.6110, 7946.258
902.7380, 9690.680
903.8660, 11145.27
904.9930, 12183.87
906.1200, 13419.66
907.2460, 13788.28
908.3730, 13982.92
909.5000, 12826.46
910.6260, 10699.66
911.7520, 8460.352
912.8780, 6198.449
914.0040, 4429.184
915.1290, 3018.301
916.2550, 1905.160
917.3800, 1636.961
918.5050, 1300.316
919.6300, 1534.152
920.7550, 774.0078
921.8800, 921.5312
923.0040, 930.4102
924.1290, 852.3242
925.2530, 814.2773
926.3770, 992.2461
927.5010, 991.2852
928.6250, 974.2891
929.7480, 874.3086
930.8720, 673.3555
931.9950, 811.4219
933.1180, 501.5039
934.2410, 845.6055
935.3640, 374.7148
936.4860, 355.8516
937.6090, 159.9961
938.7310, 478.1641
939.8530, 51.65234
940.9750, 308.5391
942.0970, 306.7656
943.2180, 482.0547
944.3400, 433.3633
945.4610, 351.6875
946.5820, 699.0273
947.7030, 409.3867
948.8240, 663.7617
949.9450, 1017.164
951.0650, 660.5781
952.1860, 676.0156
953.3060, 643.4688
954.4260, 616.9414
955.5460, 518.4531
956.6650, 474.9844
957.7850, 323.5391
958.9040, 360.1055
960.0230, 7.699219
961.1420, 316.3164
962.2610, 284.9492
963.3800, 7.593750
964.4990, 126.2656
965.6170, 194.9492
966.7350, 197.6562
967.8530, 13.37891
968.9710, 81.12109
970.0890, 94.87891
971.2070, 33.00000
972.3240, 92.45703
973.4410, 6.730469
974.5580, 143.0977
975.6750, 112.9531
976.7920, 251.8203
977.9090, 200.7070
979.0250, 64.63672
980.1410, 224.5781
981.2580, 467.5430
982.3740, 382.5273
983.4890, 526.5234
984.6050, 187.5430
985.7200, 156.5859
986.8360, 155.6406
987.9510, 248.7148
989.0660, 374.8125
990.1810, 40.07812
991.2950, 199.0469
992.4100, 308.1914
993.5240, 69.35547
994.6390, 580.5352
995.7530, 634.7383
996.8660, 843.9609
997.9800, 883.1992
999.0940, 980.4570
1000.207, 814.7305
1001.320, 843.1953
1002.433, 775.5430
1003.546, 970.9336
1004.659, 1148.359
1005.772, 1064.078
1006.884, 1298.543
1007.996, 1326.137
1009.108, 1375.645
1010.220, 1258.648
1011.332, 1317.641
1012.444, 1246.098
1013.555, 1285.738
1014.666, 1243.398
1015.777, 1120.375
1016.888, 917.0781
1017.999, 1007.828
1019.110, 571.5938
1020.220, 904.0117
1021.331, 528.8398
1022.441, 679.6836
1023.551, 366.1836
1024.661, 424.4883
1025.770, 461.3906
1026.880, 425.4180
1027.989, 468.6250
1029.098, 410.5234
1030.207, 425.6055
1031.316, 512.6992
1032.425, 351.8125
1033.533, 363.9727
1034.642, 302.1484
1035.750, 431.3711
1036.858, 321.6133
1037.966, 249.4375
1039.073, 12.85938
1040.181, 15.42188
1041.288, 37.72656
1042.396, 43.95703
1043.503, 135.5898
1044.610, 274.5742
1045.716, 122.7930
1046.823, 8.187500
1047.929, 49.29297
1049.036, 3.875000
1050.142, 50.55469
1051.248, 164.0039
1052.353, 46.48438
1053.459, 25.98438
1054.564, 28.50781
1055.670, 179.3398
1056.775, 69.87891
1057.880, 248.5195
1058.985, 48.08594
1060.089, 2.335938
1061.194, 212.2578
1062.298, 106.9609
1063.402, 145.0898
1064.506, 294.7266
1065.610, 307.6250
1066.713, 548.2891
1067.817, 390.9609
1068.920, 528.6523
1070.023, 744.3516
1071.126, 805.0664
1072.229, 1226.793
1073.332, 2556.699
1074.435, 3884.266
1075.537, 6504.992
1076.639, 8852.766
1077.741, 9583.559
1078.843, 11218.39
1079.945, 12426.23
1081.046, 13234.08
1082.148, 12602.95
1083.249, 10793.82
1084.350, 8195.715
1085.451, 6239.617
1086.551, 5953.523
1087.652, 6741.449
1088.752, 9547.387
1089.853, 11671.34
1090.953, 12486.30
1092.053, 14052.27
1093.152, 15273.27
1094.252, 15729.26
1095.351, 14392.26
1096.451, 11733.29
1097.550, 8087.309
1098.649, 4322.348
1099.748, 2446.398
1100.846, 1411.457
1101.945, 927.5273
1103.043, 664.6055
1104.141, 531.6992
1105.239, 534.8320
1106.337, 451.9102
1107.434, 668.0625
1108.532, 517.2266
1109.629, 417.4023
1110.726, 215.5820
1111.823, 400.7773
1112.920, 472.9766
1114.017, 123.1875
1115.113, 344.4062
1116.210, 313.6367
1117.306, 273.8789
1118.402, 85.12500
1119.498, 124.3828
1120.593, 350.6523
1121.689, 132.9258
1122.784, 168.6250
1123.879, 481.9180
1124.974, 129.2188
1126.069, 334.5312
1127.164, 300.8477
1128.259, 220.1797
1129.353, 132.5117
1130.447, 223.8594
1131.541, 43.21094
1132.635, 9.570313
1133.729, 104.9375
1134.822, 293.3125
1135.916, 416.6953
1137.009, 86.91406
1138.102, 153.4531
1139.195, 117.1641
1140.288, 23.16016
1141.380, 33.50000
1142.473, 302.8203
1143.565, 9.851563
1144.657, 46.47656
1145.749, 58.81641
1146.841, 11.16797
1147.932, 36.51562
1149.024, 110.8750
1150.115, 160.2383
1151.206, 51.39453
1152.297, 100.9492
1153.388, 234.3008
1154.479, 85.34375
1155.569, 98.02734
1156.659, 36.76562
1157.750, 153.4766
1158.839, 224.7227
1159.929, 201.9766
1161.019, 119.2383
1162.108, 138.4961
1163.198, 71.76172
1164.287, 237.0352
1165.376, 361.3086
1166.465, 433.5898
1167.553, 303.8750
1168.642, 418.1680
1169.730, 312.4609
1170.818, 486.5781
1171.906, 171.8789
1172.994, 207.1836
1174.082, 22.48438
1175.170, 27.59766
1176.257, 12.91406
1177.344, 41.35938
1178.431, 103.3594
1179.518, 175.5195
1180.605, 209.6758
1181.691, 208.9062
1182.778, 147.1367
1183.864, 192.3711
1184.950, 206.6094
1186.036, 56.80469
1187.122, 173.3984
1188.207, 52.39062
1189.292, 168.7812
1190.378, 379.9648
1191.463, 131.0859
1192.548, 2.269531
1193.632, 23.55078
1194.717, 92.60547
1195.801, 24.76172
1196.886, 175.9180
1197.970, 225.0820
1199.054, 190.2422
1200.137, 244.0625
1201.221, 177.5742
1202.305, 197.7422
1203.388, 43.91406
1204.471, 44.91016
1205.554, 143.7695
1206.637, 213.2930
1207.719, 132.0039
1208.802, 188.8750
1209.884, 354.9453
1210.966, 199.0117
1212.048, 383.0820
1213.130, 436.1523
1214.212, 225.2266
1215.293, 321.3047
1216.374, 319.3789
1217.456, 516.4570
1218.536, 430.4531
1219.617, 424.8906
1220.698, 264.9727
1221.778, 346.0664
1222.859, 165.1484
1223.939, 256.2539
1225.019, 52.32422
1226.099, 326.4102
1227.178, 453.4961
1228.258, 318.5859
1229.337, 406.6797
1230.417, 339.7734
1231.496, 371.8672
1232.574, 413.9570
1233.653, 447.0547
1234.732, 468.9727
1235.810, 424.3750
1236.888, 487.4727
1237.966, 367.5703
1239.044, 361.6680
1240.122, 742.7812
1241.199, 292.8906
1242.277, 581.0078
1243.354, 376.1250
1244.431, 705.2422
1245.508, 526.3594
1246.585, 238.4766
1247.661, 512.5938
1248.738, 285.7070
1249.814, 416.8242
1250.890, 491.9414
1251.966, 329.0625
1253.042, 199.1797
1254.117, 258.3047
1255.193, 160.4414
1256.268, 141.5938
1257.343, 144.7422
1258.418, 191.9102
1259.493, 223.9414
1260.567, 321.2539
1261.642, 435.4258
1262.716, 419.4375
1263.790, 717.6094
1264.864, 813.0195
1265.938, 801.2148
1267.011, 687.5977
1268.085, 794.2305
1269.158, 588.3008
1270.231, 740.4766
1271.304, 693.3789
1272.377, 872.5742
1273.450, 658.8398
1274.522, 777.6602
1275.594, 723.8594
1276.666, 751.7617
1277.738, 516.9648
1278.810, 933.3555
1279.882, 618.5547
