##NAMES=Tilleyite
##RRUFFID=R050227
##IDEAL CHEMISTRY=Ca_5_Si_2_O_7_(CO_3_)_2_
##LOCALITY=Crestmore Quarry, Riverside County, California, USA
##OWNER=RRUFF
##SOURCE=Marcus Origlieri
##DESCRIPTION=Aggregate of colorless subhedral crystals
##STATUS=The identification of this mineral has been confirmed by X-ray diffraction.
##URL=rruff.info/R050227
##PIN_ID=L00528
##ORIENTATION=Laser parallel to b* (0 1 0). Fiducial mark perpendicular to laser is parallel to -c [0 0 -1]
127.9790, 0.0000000E+00
129.2090, 0.1181640
130.4390, 59.88477
131.6680, 38.67383
132.8980, 38.87012
134.1270, 14.02832
135.3560, 151.2354
136.5850, 293.9570
137.8140, 360.5449
139.0430, 444.5752
140.2710, 564.3008
141.5000, 632.4990
142.7280, 788.7080
143.9560, 935.6416
145.1840, 1114.109
146.4120, 1114.984
147.6390, 1271.180
148.8670, 1368.631
150.0940, 1630.438
151.3210, 1555.805
152.5490, 1903.054
153.7750, 1910.840
155.0020, 1774.248
156.2290, 1782.350
157.4550, 1732.201
158.6810, 1509.847
159.9080, 1292.318
161.1340, 1054.655
162.3590, 741.8799
163.5850, 438.0098
164.8110, 371.0625
166.0360, 122.0459
167.2610, 286.9707
168.4860, 55.84375
169.7110, 57.67480
170.9360, 252.4727
172.1610, 341.0879
173.3850, 460.1650
174.6100, 634.2988
175.8340, 606.1670
177.0580, 794.7627
178.2820, 827.4951
179.5050, 827.3594
180.7290, 790.3477
181.9520, 869.4551
183.1760, 689.6699
184.3990, 775.9873
185.6220, 606.4004
186.8450, 509.9014
188.0670, 673.4795
189.2900, 566.1240
190.5120, 545.8320
191.7340, 745.6025
192.9560, 797.5049
194.1780, 837.4893
195.4000, 878.5186
196.6220, 929.1592
197.8430, 992.6982
199.0640, 967.8447
200.2860, 1008.027
201.5070, 902.2354
202.7270, 924.4570
203.9480, 757.6973
205.1690, 676.9521
206.3890, 548.2354
207.6090, 388.5498
208.8290, 334.8965
210.0490, 336.2754
211.2690, 240.6875
212.4890, 179.1338
213.7080, 79.62305
214.9280, 25.16113
216.1470, 32.99707
217.3660, 112.5674
218.5850, 108.8584
219.8030, 132.1123
221.0220, 120.9893
222.2400, 21.37500
223.4590, 10.61230
224.6770, 49.79395
225.8950, 141.2275
227.1120, 169.8184
228.3300, 222.4199
229.5480, 292.0732
230.7650, 330.7842
231.9820, 174.4980
233.1990, 323.2070
234.4160, 376.9062
235.6330, 525.5996
236.8490, 652.2861
238.0660, 410.9668
239.2820, 499.6416
240.4980, 480.3086
241.7140, 478.9707
242.9300, 463.6270
244.1460, 502.3594
245.3610, 503.9160
246.5770, 584.4385
247.7920, 612.3125
249.0070, 636.6592
250.2220, 714.4658
251.4370, 800.7930
252.6510, 942.1191
253.8660, 1006.550
255.0800, 1126.071
256.2940, 1189.902
257.5080, 1302.918
258.7220, 1420.883
259.9360, 1591.154
261.1490, 1776.424
262.3630, 1482.691
263.5760, 1730.956
264.7890, 1854.217
266.0020, 2120.477
267.2150, 2253.663
268.4270, 2424.985
269.6400, 2653.234
270.8520, 2903.479
272.0640, 3343.719
273.2760, 3563.954
274.4880, 4370.724
275.7000, 4785.588
276.9120, 5142.564
278.1230, 5320.556
279.3340, 5654.658
280.5450, 5598.309
281.7560, 5629.576
282.9670, 5303.906
284.1780, 5494.294
285.3880, 5215.727
286.5980, 4900.199
287.8090, 4860.704
289.0190, 4377.236
290.2290, 4082.795
291.4380, 3909.373
292.6480, 3812.971
293.8570, 3714.584
295.0670, 3604.133
296.2760, 3556.035
297.4850, 3496.064
298.6930, 3228.263
299.9020, 3300.597
301.1110, 3230.884
302.3190, 3237.022
303.5270, 2824.559
304.7350, 2243.255
305.9430, 2373.370
307.1510, 1784.074
308.3580, 1537.058
309.5660, 1376.728
310.7730, 1251.716
311.9800, 1063.801
313.1870, 1034.106
314.3940, 1076.424
315.6010, 787.2988
316.8070, 778.1074
318.0130, 989.2910
319.2200, 714.2070
320.4260, 780.9531
321.6310, 721.0586
322.8370, 604.7109
324.0430, 637.7031
325.2480, 603.1738
326.4540, 570.6006
327.6590, 604.2656
328.8640, 411.6396
330.0680, 379.1455
331.2730, 403.9453
332.4780, 404.9014
333.6820, 304.6729
334.8860, 385.3447
336.0900, 296.7324
337.2940, 168.1211
338.4980, 323.5088
339.7010, 179.8965
340.9050, 293.2852
342.1080, 375.6738
343.3110, 430.0605
344.5140, 527.4443
345.7170, 602.6582
346.9200, 562.2168
348.1220, 807.5967
349.3240, 816.9736
350.5270, 990.3486
351.7290, 1049.721
352.9310, 1221.092
354.1320, 1196.460
355.3340, 1136.824
356.5350, 1263.271
357.7370, 1211.630
358.9380, 1305.985
360.1390, 1170.337
361.3400, 1222.205
362.5400, 1014.229
363.7410, 842.5039
364.9410, 809.3350
366.1410, 745.8779
367.3410, 711.3662
368.5410, 620.6816
369.7410, 488.9932
370.9400, 470.2949
372.1400, 374.5898
373.3390, 325.8750
374.5380, 392.1514
375.7370, 118.4199
376.9360, 170.6787
378.1350, 59.92676
379.3330, 87.16699
380.5310, 141.3965
381.7300, 21.38281
382.9280, 84.81836
384.1260, 8.7890001E-03
385.3230, 1.185547
386.5210, 65.34668
387.7180, 20.50000
388.9160, 129.6396
390.1130, 179.7695
391.3100, 199.8916
392.5060, 292.0039
393.7030, 281.1084
394.9000, 235.2041
396.0960, 349.2910
397.2920, 348.3691
398.4880, 291.4365
399.6840, 304.4951
400.8800, 403.5332
402.0750, 439.5518
403.2710, 399.5586
404.4660, 352.5557
405.6610, 245.5439
406.8560, 274.5234
408.0510, 150.4941
409.2450, 242.4541
410.4400, 324.4043
411.6340, 164.3457
412.8280, 260.2783
414.0220, 392.2002
415.2160, 522.1123
416.4100, 472.0137
417.6030, 427.9062
418.7970, 575.7910
419.9900, 621.6689
421.1830, 715.5371
422.3760, 741.3965
423.5690, 664.3555
424.7610, 753.6494
425.9540, 569.9014
427.1460, 704.1709
428.3380, 720.0771
429.5300, 549.3848
430.7220, 701.3750
431.9140, 472.6182
433.1050, 212.9834
434.2970, 269.0938
435.4880, 230.2773
436.6790, 294.2217
437.8700, 177.1797
439.0610, 117.2461
440.2510, 66.19824
441.4420, 40.25977
442.6320, 27.03809
443.8220, 31.62695
445.0120, 52.84375
446.2020, 21.34473
447.3910, 11.43750
448.5810, 59.10840
449.7700, 161.9189
450.9600, 5.596680
452.1490, 195.1826
453.3370, 99.22949
454.5260, 76.66797
455.7150, 78.14453
456.9030, 1.527344
458.0910, 132.8525
459.2800, 14.65039
460.4670, 59.85449
461.6550, 58.15918
462.8430, 153.9229
464.0300, 191.4414
465.2180, 100.7559
466.4050, 173.3584
467.5920, 149.0918
468.7790, 17.84277
469.9650, 109.6396
471.1520, 180.7178
472.3380, 115.4795
473.5250, 87.84961
474.7110, 62.60742
475.8970, 96.23438
477.0820, 120.8379
478.2680, 218.4873
479.4540, 355.2256
480.6390, 364.7812
481.8240, 428.5508
483.0090, 349.0986
484.1940, 424.6025
485.3780, 440.0889
486.5630, 340.5566
487.7470, 212.0088
488.9320, 190.4502
490.1160, 304.8789
491.3000, 326.3125
492.4830, 233.7451
493.6670, 280.1973
494.8500, 279.6387
496.0340, 208.0645
497.2170, 230.7715
498.4000, 174.8594
499.5820, 210.2305
500.7650, 215.5811
501.9480, 232.9141
503.1300, 252.2285
504.3120, 373.5303
505.4940, 541.8516
506.6760, 548.1943
507.8580, 333.5508
509.0390, 452.9258
510.2210, 251.3408
511.4020, 408.7412
512.5830, 378.1250
513.7640, 322.4873
514.9450, 315.8818
516.1250, 235.2559
517.3060, 257.6123
518.4860, 233.9492
519.6660, 555.2656
520.8460, 592.3770
522.0260, 687.5791
523.2060, 935.8379
524.3850, 873.9600
525.5650, 933.0830
526.7440, 1020.491
527.9230, 1088.941
529.1020, 779.9131
530.2810, 814.6328
531.4590, 838.7852
532.6380, 857.9180
533.8160, 805.3330
534.9940, 823.1689
536.1720, 725.2793
537.3500, 848.3730
538.5270, 943.4492
539.7050, 1008.502
540.8820, 1156.055
542.0590, 1193.547
543.2360, 1382.539
544.4130, 1524.512
545.5900, 1550.605
546.7660, 1451.396
547.9430, 1401.309
549.1190, 1246.199
550.2950, 981.0664
551.4710, 896.9180
552.6470, 726.7480
553.8220, 654.5547
554.9980, 500.3398
556.1730, 438.1035
557.3480, 304.8457
558.5230, 335.5645
559.6980, 249.2617
560.8730, 267.9375
562.0470, 280.5938
563.2220, 233.2246
564.3960, 189.8320
565.5700, 108.4199
566.7440, 115.9805
567.9170, 109.5137
569.0910, 194.0195
570.2640, 95.50391
571.4380, 168.9629
572.6110, 105.4062
573.7840, 80.82617
574.9570, 132.2188
576.1290, 111.5859
577.3020, 165.9258
578.4740, 1.242188
579.6460, 130.5137
580.8180, 154.5977
581.9900, 124.4414
583.1620, 303.0820
584.3330, 37.55469
585.5040, 19.95312
586.6760, 30.64062
587.8470, 160.8086
589.0180, 32.78711
590.1880, 15.59766
591.3590, 173.3066
592.5290, 188.4551
593.7000, 15.01367
594.8700, 230.8965
596.0400, 10.31836
597.2090, 133.8164
598.3790, 208.4336
599.5490, 90.98828
600.7180, 156.9160
601.8870, 89.08984
603.0560, 179.7832
604.2250, 84.06250
605.3940, 108.1309
606.5620, 219.5391
607.7300, 22.53711
608.8990, 169.1055
610.0670, 18.11914
611.2350, 83.87500
612.4020, 33.59375
613.5700, 23.46289
614.7370, 135.4316
615.9050, 161.5781
617.0720, 235.2500
618.2390, 155.6465
619.4060, 130.5078
620.5720, 286.0605
621.7390, 428.3418
622.9050, 108.5820
624.0710, 280.8008
625.2370, 240.9980
626.4030, 432.1758
627.5690, 564.7168
628.7340, 543.4668
629.9000, 623.2031
631.0650, 805.7656
632.2300, 787.9258
633.3950, 990.5117
634.5600, 1107.369
635.7240, 1414.180
636.8890, 1994.713
638.0530, 2290.678
639.2170, 2814.602
640.3810, 3586.520
641.5450, 3860.416
642.7080, 4244.531
643.8720, 4658.387
645.0350, 4782.688
646.1980, 4795.305
647.3610, 4563.203
648.5240, 4238.877
649.6870, 3857.283
650.8490, 3494.021
652.0120, 2972.023
653.1740, 2714.258
654.3360, 2182.254
655.4980, 2201.949
656.6600, 1833.801
657.8210, 1696.490
658.9830, 1510.041
660.1440, 1421.820
661.3050, 1359.559
662.4660, 1257.041
663.6270, 1097.770
664.7870, 989.4824
665.9480, 911.8105
667.1080, 999.3066
668.2680, 785.6973
669.4280, 814.0566
670.5880, 788.7871
671.7480, 676.0977
672.9070, 683.2520
674.0670, 661.5137
675.2260, 468.0859
676.3850, 360.3457
677.5440, 394.0020
678.7030, 499.8164
679.8610, 433.9570
681.0200, 585.0723
682.1780, 542.8594
683.3360, 606.9258
684.4940, 630.0195
685.6520, 455.2598
686.8090, 428.2539
687.9670, 438.3184
689.1240, 459.2617
690.2810, 572.8770
691.4380, 745.7734
692.5950, 767.6465
693.7520, 997.4941
694.9080, 898.3203
696.0650, 1118.123
697.2210, 1302.898
698.3770, 1180.652
699.5330, 1286.381
700.6880, 1002.088
701.8440, 1121.770
702.9990, 1041.430
704.1550, 987.9590
705.3100, 958.1211
706.4650, 905.2910
707.6190, 1220.412
708.7740, 1492.859
709.9290, 1810.873
711.0830, 1902.531
712.2370, 2211.312
713.3910, 2373.162
714.5450, 2611.232
715.6980, 2399.191
716.8520, 2437.355
718.0050, 2040.471
719.1580, 2002.584
720.3110, 1733.633
721.4640, 1540.533
722.6170, 1246.811
723.7700, 792.9766
724.9220, 645.6074
726.0740, 372.6055
727.2260, 501.5820
728.3780, 23.62891
729.5300, 300.4941
730.6810, 48.45703
731.8330, 37.46680
732.9840, 85.97461
734.1350, 352.0527
735.2860, 86.34375
736.4370, 50.15039
737.5880, 234.1895
738.7380, 81.72070
739.8880, 175.5137
741.0390, 52.04492
742.1890, 139.9766
743.3380, 97.57812
744.4880, 119.3711
745.6380, 132.4375
746.7870, 12.84961
747.9360, 71.92188
749.0850, 16.09375
750.2340, 129.5605
751.3830, 96.54297
752.5310, 186.7188
753.6800, 60.51562
754.8280, 48.59375
755.9760, 56.52344
757.1240, 25.03906
758.2720, 75.68555
759.4190, 135.4805
760.5670, 174.2559
761.7140, 177.6211
762.8610, 281.5078
764.0080, 150.2363
765.1550, 42.94727
766.3020, 2.361328
767.4480, 16.29688
768.5950, 64.38477
769.7410, 42.77148
770.8870, 113.9727
772.0330, 7.541016
773.1780, 48.85938
774.3240, 118.2383
775.4690, 138.6055
776.6140, 105.9531
777.7590, 184.2891
778.9040, 158.6992
780.0490, 60.91406
781.1940, 160.2031
782.3380, 21.51953
783.4820, 27.28320
784.6260, 85.91406
785.7700, 13.90234
786.9140, 185.7520
788.0580, 0.7226560
789.2010, 33.28516
790.3450, 133.2754
791.4880, 175.7480
792.6310, 85.11328
793.7730, 39.96289
794.9160, 71.79688
796.0590, 161.6172
797.2010, 35.42383
798.3430, 38.21484
799.4850, 93.99414
800.6270, 25.75977
801.7690, 24.51172
802.9100, 6.750000
804.0520, 71.96484
805.1930, 81.66992
806.3340, 95.36523
807.4750, 95.95312
808.6160, 241.6602
809.7560, 88.73242
810.8970, 169.8086
812.0370, 49.65820
813.1770, 13.16602
814.3170, 42.30664
815.4570, 173.7656
816.5960, 260.2168
817.7360, 238.0664
818.8750, 8.910156
820.0140, 171.5039
821.1530, 46.90820
822.2920, 4.306641
823.4310, 160.6914
824.5690, 31.07031
825.7070, 153.4375
826.8460, 12.20508
827.9840, 152.1406
829.1220, 69.47656
830.2590, 197.8047
831.3970, 227.1270
832.5340, 254.4785
833.6710, 307.7480
834.8080, 350.0488
835.9450, 370.3418
837.0820, 413.6270
838.2190, 476.9062
839.3550, 437.1816
840.4910, 291.4512
841.6270, 303.7129
842.7630, 50.97070
843.8990, 85.20703
845.0350, 221.4766
846.1700, 87.72461
847.3060, 54.03320
848.4410, 22.81641
849.5760, 174.3887
850.7100, 67.59375
851.8450, 109.7949
852.9800, 227.9941
854.1140, 57.18945
855.2480, 5.609375
856.3820, 166.5879
857.5160, 162.7832
858.6500, 24.97656
859.7830, 130.1680
860.9170, 215.3594
862.0500, 301.5645
863.1830, 266.5605
864.3160, 305.1484
865.4480, 169.1016
866.5810, 264.3223
867.7130, 263.9941
868.8460, 210.5449
869.9780, 397.4258
871.1100, 240.6484
872.2410, 4.453125
873.3730, 268.3086
874.5050, 123.5527
875.6360, 111.4629
876.7670, 247.7070
877.8980, 86.50391
879.0290, 112.6719
880.1590, 275.6680
881.2900, 129.7676
882.4200, 50.92578
883.5500, 215.0254
884.6800, 319.9453
885.8100, 394.3965
886.9400, 507.5840
888.0690, 626.0957
889.1990, 771.4629
890.3280, 705.4355
891.4570, 1117.084
892.5860, 1307.086
893.7140, 1522.896
894.8430, 2036.992
895.9710, 2779.342
897.1000, 3718.713
898.2280, 4814.086
899.3560, 6447.461
900.4830, 8642.840
901.6110, 10990.84
902.7380, 13109.60
903.8660, 14657.36
904.9930, 15959.29
906.1200, 16141.65
907.2460, 15282.55
908.3730, 13216.21
909.5000, 10769.36
910.6260, 8236.828
911.7520, 6067.342
912.8780, 4200.793
914.0040, 3014.316
915.1290, 2161.848
916.2550, 1587.145
917.3800, 1269.686
918.5050, 856.7637
919.6300, 887.5391
920.7550, 691.0117
921.8800, 625.6953
923.0040, 599.6289
924.1290, 700.2148
925.2530, 609.5176
926.3770, 643.1367
927.5010, 913.8574
928.6250, 822.4219
929.7480, 646.8359
930.8720, 500.4023
931.9950, 671.0859
933.1180, 619.5293
934.2410, 631.0020
935.3640, 580.7168
936.4860, 343.1699
937.6090, 140.6328
938.7310, 312.4258
939.8530, 317.1230
940.9750, 72.87500
942.0970, 242.6445
943.2180, 287.0352
944.3400, 227.8262
945.4610, 313.7617
946.5820, 380.6094
947.7030, 348.1328
948.8240, 488.9551
949.9450, 281.7207
951.0650, 275.6113
952.1860, 373.5156
953.3060, 348.4297
954.4260, 226.6758
955.5460, 283.6465
956.6650, 397.5742
957.7850, 35.34570
958.9040, 227.3516
960.0230, 59.27539
961.1420, 50.30664
962.2610, 164.6582
963.3800, 163.7148
964.4990, 426.7812
965.6170, 92.86328
966.7350, 281.9590
967.8530, 373.0664
968.9710, 165.1836
970.0890, 285.3164
971.2070, 651.4609
972.3240, 456.6172
973.4410, 620.7910
974.5580, 515.9746
975.6750, 423.1719
976.7920, 669.3809
977.9090, 481.6055
979.0250, 649.8418
980.1410, 795.0918
981.2580, 846.3574
982.3740, 943.2676
983.4890, 1150.783
984.6050, 1200.088
985.7200, 1087.404
986.8360, 1397.738
987.9510, 1449.086
989.0660, 1313.451
990.1810, 1372.682
991.2950, 1193.074
992.4100, 1060.479
993.5240, 824.8984
994.6390, 640.3418
995.7530, 644.8008
996.8660, 659.2754
997.9800, 516.7637
999.0940, 689.2676
1000.207, 719.7930
1001.320, 915.3320
1002.433, 942.8867
1003.546, 881.4590
1004.659, 739.0449
1005.772, 1157.646
1006.884, 974.0898
1007.996, 1102.723
1009.108, 837.3672
1010.220, 1103.031
1011.332, 1072.709
1012.444, 1162.402
1013.555, 1091.352
1014.666, 580.6953
1015.777, 776.4512
1016.888, 633.5684
1017.999, 354.3398
1019.110, 472.1289
1020.220, 196.9414
1021.331, 464.8516
1022.441, 430.0391
1023.551, 385.9316
1024.661, 343.5508
1025.770, 203.4883
1026.880, 454.4434
1027.989, 448.4121
1029.098, 412.5371
1030.207, 321.5859
1031.316, 598.5938
1032.425, 516.6152
1033.533, 629.6484
1034.642, 351.6953
1035.750, 639.7539
1036.858, 358.8359
1037.966, 235.8105
1039.073, 404.2480
1040.181, 304.4121
1041.288, 387.7285
1042.396, 132.9609
1043.503, 308.2031
1044.610, 355.7012
1045.716, 263.9922
1046.823, 430.2988
1047.929, 562.6133
1049.036, 336.9375
1050.142, 328.4688
1051.248, 131.8145
1052.353, 184.1133
1053.459, 191.5039
1054.564, 408.9043
1055.670, 415.3203
1056.775, 497.9004
1057.880, 465.4004
1058.985, 458.9082
1060.089, 528.5234
1061.194, 435.1035
1062.298, 569.1270
1063.402, 458.7266
1064.506, 565.3496
1065.610, 768.9727
1066.713, 775.0000
1067.817, 744.6895
1068.920, 1030.389
1070.023, 1098.096
1071.126, 1216.812
1072.229, 1392.688
1073.332, 2032.426
1074.435, 2718.174
1075.537, 4658.926
1076.639, 6675.719
1077.741, 9359.668
1078.843, 13655.97
1079.945, 16835.81
1081.046, 18635.67
1082.148, 20713.54
1083.249, 24004.43
1084.350, 27394.31
1085.451, 27696.35
1086.551, 27068.95
1087.652, 25839.13
1088.752, 23252.05
1089.853, 19344.98
1090.953, 17623.91
1092.053, 18591.85
1093.152, 18617.92
1094.252, 15902.87
1095.351, 12036.84
1096.451, 8532.805
1097.550, 5340.793
1098.649, 3261.785
1099.748, 1996.787
1100.846, 886.7910
1101.945, 1033.803
1103.043, 670.8203
1104.141, 592.8438
1105.239, 497.8730
1106.337, 218.9102
1107.434, 538.9531
1108.532, 296.9980
1109.629, 249.0488
1110.726, 204.1016
1111.823, 300.1602
1112.920, 451.2188
1114.017, 192.2852
1115.113, 460.3652
1116.210, 191.4727
1117.306, 405.6074
1118.402, 659.0410
1119.498, 995.5293
1120.593, 642.7930
1121.689, 972.9355
1122.784, 1057.084
1123.879, 676.2344
1124.974, 1015.523
1126.069, 463.9785
1127.164, 488.4492
1128.259, 297.8262
1129.353, 423.9863
1130.447, 285.9863
1131.541, 286.1523
1132.635, 283.5586
1133.729, 24.48828
1134.822, 267.6621
1135.916, 149.8398
1137.009, 194.9570
1138.102, 79.80273
1139.195, 138.3457
1140.288, 83.49609
1141.380, 82.01562
1142.473, 97.16602
1143.565, 39.81836
1144.657, 184.5801
1145.749, 40.26758
1146.841, 1.865234
1147.932, 29.97852
1149.024, 141.4570
1150.115, 229.9805
1151.206, 228.0957
1152.297, 0.5898440
1153.388, 220.3008
1154.479, 200.1074
1155.569, 49.90039
1156.659, 151.0625
1157.750, 118.3281
1158.839, 85.35352
1159.929, 1.310547
1161.019, 6.691406
1162.108, 134.5664
1163.198, 29.50781
1164.287, 91.44531
1165.376, 196.3809
1166.465, 117.7656
1167.553, 30.69141
1168.642, 77.38672
1169.730, 99.55664
1170.818, 35.05078
1171.906, 111.1367
1172.994, 91.60742
1174.082, 184.3457
1175.170, 79.92188
1176.257, 273.0215
1177.344, 171.6973
1178.431, 207.4863
1179.518, 288.1504
1180.605, 10.80859
1181.691, 110.4570
1182.778, 84.90039
1183.864, 245.6797
1184.950, 69.35938
1186.036, 150.9277
1187.122, 36.49023
1188.207, 66.04688
1189.292, 170.5957
1190.378, 40.13477
1191.463, 104.6641
1192.548, 72.81445
1193.632, 226.0684
1194.717, 66.09766
1195.801, 283.7266
1196.886, 12.50781
1197.970, 253.1543
1199.054, 153.8438
1200.137, 332.2539
1201.221, 146.6543
1202.305, 53.04297
1203.388, 254.4258
1204.471, 104.7969
1205.554, 108.3145
1206.637, 465.0410
1207.719, 58.38281
1208.802, 94.28711
1209.884, 313.9688
1210.966, 142.2129
1212.048, 185.4473
1213.130, 561.6699
1214.212, 332.8828
1215.293, 68.08398
1216.374, 15.72852
1217.456, 40.30469
1218.536, 242.5586
1219.617, 356.6484
1220.698, 288.0723
1221.778, 181.1387
1222.859, 83.19922
1223.939, 190.8555
1225.019, 263.8887
1226.099, 208.9102
1227.178, 259.3027
1228.258, 123.3027
1229.337, 287.3223
1230.417, 233.6973
1231.496, 163.8828
1232.574, 238.5156
1233.653, 208.5078
1234.732, 239.5840
1235.810, 223.7578
1236.888, 317.7090
1237.966, 291.0508
1239.044, 343.9727
1240.122, 262.8828
1241.199, 294.7773
1242.277, 195.6562
1243.354, 324.5215
1244.431, 383.3730
1245.508, 278.4980
1246.585, 135.3203
1247.661, 74.69141
1248.738, 62.48438
1249.814, 118.6699
1250.890, 203.4277
1251.966, 164.1719
1253.042, 205.9004
1254.117, 119.0352
1255.193, 6.730469
1256.268, 78.39258
1257.343, 102.1836
1258.418, 179.8066
1259.493, 41.41602
1260.567, 194.5469
1261.642, 163.1191
1262.716, 267.5723
1263.790, 331.1113
1264.864, 314.0137
1265.938, 463.5195
1267.011, 225.0117
1268.085, 403.5020
1269.158, 267.0469
1270.231, 73.49023
1271.304, 238.3711
1272.377, 220.6074
1273.450, 139.1367
1274.522, 210.5156
1275.594, 199.4609
1276.666, 160.5371
1277.738, 89.74805
1278.810, 69.05859
1279.882, 167.3496
1280.953, 76.62500
1282.025, 312.7969
1283.096, 58.72461
1284.167, 199.9414
1285.238, 351.4277
1286.308, 83.61328
1287.379, 140.7793
1288.449, 259.9277
1289.519, 71.91992
1290.589, 293.9785
1291.659, 181.0762
1292.729, 369.1562
1293.798, 202.2227
1294.868, 58.27344
1295.937, 339.3008
1297.006, 423.3164
1298.075, 110.4512
1299.143, 41.14062
1300.212, 276.1133
1301.280, 187.9668
1302.348, 171.9102
1303.416, 212.8359
1304.484, 71.49609
1305.552, 301.3477
1306.620, 119.1719
1307.687, 284.9824
