##NAMES=Titanite
##RRUFFID=R040033
##IDEAL CHEMISTRY=CaTi^4+^SiO_5_
##LOCALITY=Brazil
##OWNER=RRUFF
##SOURCE=University of Arizona Mineral Museum
##DESCRIPTION=Green flattened wedge-shaped single crystals
##STATUS=The identification of this mineral has been confirmed by X-ray diffraction and chemical analysis
##URL=rruff.info/R040033
##MEASURED CHEMISTRY=(Ca_0.97_Fe^3+^_0.03_)_Σ=1_(Ti_0.97_Al_0.03_)_Σ=1_Si_1.00_O_5_; Fe^3+^ assigned for charge balance
##PIN_ID=L00395
##ORIENTATION=Laser parallel to [-1 0 -1]. Fiducial mark perpendicular to laser is parallel to -b* (0 -1 0)
51.466, 0.000
52.866, 99.454
54.266, 192.125
55.666, 253.440
57.065, 312.525
58.464, 341.238
59.863, 181.903
61.262, 40.132
62.661, 23.488
64.059, 107.907
65.458, 107.057
66.856, 74.782
68.253, 46.137
69.651, 231.981
71.048, 385.097
72.445, 684.894
73.842, 916.515
75.239, 1199.415
76.635, 1489.277
78.031, 1750.134
79.427, 1939.146
80.823, 2171.669
82.218, 2215.776
83.614, 2286.750
85.009, 2292.344
86.404, 2359.329
87.798, 2321.495
89.193, 2350.649
90.587, 2263.612
91.981, 2362.221
93.375, 2288.325
94.768, 2221.726
96.161, 2231.229
97.554, 2190.769
98.947, 2227.441
100.340, 2293.399
101.732, 2397.700
103.124, 2457.227
104.516, 2524.808
105.908, 2584.292
107.300, 2618.546
108.691, 2754.452
110.082, 2673.904
111.473, 2786.795
112.864, 2960.090
114.254, 2893.662
115.644, 2994.461
117.034, 3007.423
118.424, 3113.492
119.813, 3370.619
121.203, 3457.750
122.592, 3665.845
123.981, 4006.862
125.369, 4146.760
126.758, 4536.508
128.146, 4592.069
129.534, 5118.414
130.922, 4991.514
132.309, 5131.341
133.696, 5104.872
135.083, 5374.913
136.470, 5312.937
137.857, 5593.925
139.243, 5812.980
140.630, 6210.525
142.016, 6470.245
143.401, 6672.936
144.787, 6571.191
146.172, 6411.325
147.557, 6253.224
148.942, 6271.587
150.327, 6671.784
151.711, 7315.880
153.096, 8544.992
154.480, 9892.055
155.863, 11746.091
157.247, 14167.125
158.630, 15947.171
160.013, 17624.252
161.396, 18584.371
162.779, 18723.555
164.161, 18002.805
165.544, 17376.137
166.926, 15961.558
168.308, 14942.070
169.689, 14017.685
171.070, 13622.412
172.452, 13418.250
173.833, 13485.209
175.213, 13865.287
176.594, 13990.493
177.974, 14677.829
179.354, 14955.300
180.734, 15194.904
182.114, 15689.647
183.493, 15935.529
184.872, 15477.545
186.251, 15416.700
187.630, 14859.993
189.008, 14852.426
190.387, 14604.989
191.765, 14720.691
193.143, 15054.527
194.520, 15044.498
195.898, 15458.605
197.275, 15563.846
198.652, 16017.229
200.029, 16172.733
201.405, 16741.377
202.782, 17203.152
204.158, 17824.068
205.534, 18800.109
206.909, 18670.283
208.285, 19016.598
209.660, 19127.029
211.035, 18734.598
212.410, 18581.303
213.784, 18188.135
215.159, 18346.096
216.533, 18422.184
217.907, 18506.053
219.281, 18871.646
220.654, 18740.961
222.027, 19240.039
223.400, 19582.721
224.773, 19829.412
226.146, 20136.498
227.518, 20440.693
228.891, 20390.490
230.263, 20808.961
231.634, 20966.227
233.006, 20812.055
234.377, 20982.258
235.748, 21075.682
237.119, 20890.350
238.490, 21682.592
239.860, 22092.145
241.231, 23319.986
242.601, 24752.086
243.970, 26544.102
245.340, 28747.650
246.709, 30403.154
248.079, 32851.836
249.448, 34084.070
250.816, 35704.277
252.185, 36853.492
253.553, 37347.078
254.921, 37506.035
256.289, 36738.340
257.657, 35327.984
259.024, 33307.953
260.391, 30645.236
261.758, 27794.824
263.125, 25208.713
264.492, 22905.891
265.858, 20558.338
267.224, 18969.057
268.590, 17095.027
269.956, 16076.251
271.321, 15216.708
272.687, 14467.396
274.052, 13846.305
275.416, 13823.432
276.781, 13464.766
278.146, 13339.302
279.510, 13727.037
280.874, 13759.963
282.237, 14344.074
283.601, 14435.369
284.964, 14791.837
286.327, 15520.479
287.690, 15838.289
289.053, 15560.263
290.416, 15014.396
291.778, 13914.690
293.140, 14349.134
294.502, 10995.726
295.863, 10361.465
297.225, 10164.348
298.586, 10653.372
299.947, 11273.533
301.308, 11840.829
302.668, 12469.266
304.029, 12848.844
305.389, 12682.555
306.749, 12413.403
308.108, 12605.368
309.468, 12760.449
310.827, 12921.629
312.186, 13259.895
313.545, 14116.238
314.903, 14315.653
316.262, 14341.132
317.620, 14284.681
318.978, 13500.293
320.336, 13119.973
321.693, 12707.719
323.051, 12539.538
324.408, 12384.422
325.765, 12898.377
327.121, 13177.398
328.478, 13805.491
329.834, 14426.654
331.190, 15356.884
332.546, 15281.187
333.902, 15767.561
335.257, 15415.999
336.612, 14959.511
337.967, 14298.091
339.322, 13608.741
340.677, 12701.465
342.031, 11819.254
343.385, 11113.115
344.739, 10475.044
346.093, 9728.043
347.446, 9178.111
348.799, 8728.248
350.153, 8207.452
351.505, 7873.730
352.858, 7328.074
354.210, 6968.487
355.563, 6654.967
356.915, 6536.517
358.267, 6284.134
359.618, 6076.820
360.969, 5921.573
362.321, 5689.396
363.672, 5501.286
365.022, 5341.242
366.373, 5096.269
367.723, 4873.361
369.073, 4504.521
370.423, 4253.750
371.773, 3943.046
373.122, 3545.409
374.471, 3259.838
375.821, 2733.335
377.169, 2331.899
378.518, 1698.530
379.866, 1249.227
381.215, 860.076
382.563, 546.079
383.910, 329.236
385.258, 205.551
386.605, 162.023
387.952, 74.351
389.299, 126.668
390.646, 355.949
391.992, 563.304
393.339, 768.829
394.685, 954.803
396.031, 1182.831
397.376, 1291.533
398.722, 1418.803
400.067, 1552.705
401.412, 1529.311
402.757, 1523.610
404.101, 1398.604
405.446, 1405.232
406.790, 1252.499
408.134, 1022.332
409.478, 796.620
410.821, 505.253
412.165, 71.089
413.508, 468.070
414.851, 1102.332
416.193, 1845.697
417.536, 2841.163
418.878, 3971.729
420.220, 4824.396
421.562, 5469.160
422.904, 5853.802
424.245, 6099.981
425.586, 5871.034
426.927, 5400.183
428.268, 4725.427
429.609, 4187.764
430.949, 3698.194
432.289, 3525.716
433.629, 3101.330
434.969, 2975.035
436.309, 2721.832
437.648, 2813.719
438.987, 2762.695
440.326, 2620.761
441.665, 2547.917
443.003, 2689.161
444.342, 2611.494
445.680, 2702.915
447.018, 2810.425
448.355, 2887.021
449.693, 3297.707
451.030, 3654.478
452.367, 4255.337
453.704, 4654.284
455.041, 5711.317
456.377, 6500.435
457.713, 7820.641
459.049, 9065.933
460.385, 10848.316
461.721, 12771.783
463.056, 14504.339
464.391, 16106.981
465.726, 17438.711
467.061, 17696.533
468.395, 16775.453
469.730, 15322.463
471.064, 12714.588
472.398, 10576.812
473.731, 7992.144
475.065, 6243.591
476.398, 4700.146
477.731, 3629.822
479.064, 2682.623
480.397, 2043.546
481.729, 1594.604
483.062, 1384.784
484.394, 1213.103
485.725, 1119.555
487.057, 1064.143
488.389, 1070.863
489.720, 1100.725
491.051, 1144.727
492.382, 1198.868
493.712, 1318.159
495.043, 1396.584
496.373, 1420.141
497.703, 1459.847
499.032, 1492.814
500.362, 1600.685
501.691, 1557.812
503.020, 1689.080
504.349, 1776.486
505.678, 1937.015
507.007, 2058.688
508.335, 2212.444
509.663, 2473.412
510.991, 2578.467
512.319, 2766.644
513.646, 3037.950
514.973, 3152.397
516.300, 3351.978
517.627, 3730.684
518.954, 3935.513
520.280, 4258.478
521.607, 4613.577
522.933, 5075.814
524.259, 5464.200
525.584, 5894.721
526.910, 6565.382
528.235, 7252.193
529.560, 7987.135
530.885, 8693.211
532.209, 9449.422
533.534, 10500.746
534.858, 11338.194
536.182, 12308.753
537.506, 12967.422
538.829, 13895.196
540.152, 14086.070
541.476, 14643.037
542.799, 14573.092
544.121, 14953.239
545.444, 14842.473
546.766, 14689.795
548.088, 14648.640
549.410, 14317.805
550.732, 13541.578
552.053, 13099.001
553.375, 12056.434
554.696, 10964.898
556.017, 10319.950
557.337, 9422.597
558.658, 8466.774
559.978, 7564.117
561.298, 6816.371
562.618, 6060.025
563.938, 5436.593
565.257, 4748.894
566.576, 4163.284
567.895, 4005.324
569.214, 3878.771
570.533, 3980.230
571.851, 4312.284
573.170, 4920.862
574.488, 5528.583
575.805, 6244.451
577.123, 7148.459
578.440, 8083.612
579.758, 9210.909
581.075, 10149.344
582.391, 11725.925
583.708, 12939.646
585.024, 14474.510
586.341, 16368.510
587.657, 18074.654
588.972, 20159.939
590.288, 22166.363
591.603, 24524.158
592.918, 26739.629
594.233, 29304.625
595.548, 31975.443
596.863, 34786.570
598.177, 37787.820
599.491, 40923.203
600.805, 43610.742
602.119, 45996.410
603.432, 48696.211
604.746, 50712.137
606.059, 51706.207
607.372, 52486.414
608.685, 53505.758
609.997, 53266.234
611.309, 52145.840
612.621, 51415.570
613.933, 50466.445
615.245, 48709.445
616.557, 47076.641
617.868, 45180.906
619.179, 42912.477
620.490, 40858.332
621.801, 39337.020
623.111, 36844.133
624.421, 35572.578
625.731, 33105.695
627.041, 32228.756
628.351, 29852.346
629.660, 28508.762
630.970, 27610.947
632.279, 25646.908
633.588, 24422.861
634.896, 22749.520
636.205, 22072.422
637.513, 20514.998
638.821, 19584.354
640.129, 18884.660
641.437, 17966.533
642.744, 17039.922
644.051, 16301.942
645.358, 15785.546
646.665, 15087.943
647.972, 14553.483
649.278, 13902.607
650.584, 13306.771
651.890, 13212.970
653.196, 12464.826
654.502, 12299.761
655.807, 11514.130
657.113, 11221.962
658.418, 11104.182
659.722, 10402.622
661.027, 10162.648
662.331, 9980.877
663.636, 9515.470
664.940, 9067.359
666.244, 8824.975
667.547, 8383.306
668.851, 8290.072
670.154, 7886.417
671.457, 7574.593
672.760, 7514.029
674.062, 7125.603
675.365, 6961.138
676.667, 6619.709
677.969, 6551.500
679.271, 6288.516
680.572, 5894.712
681.874, 5917.194
683.175, 5633.544
684.476, 5519.333
685.777, 5372.359
687.077, 5031.082
688.378, 4961.189
689.678, 4845.630
690.978, 4676.640
692.278, 4318.901
693.577, 4414.393
694.877, 4128.771
696.176, 4039.667
697.475, 3955.076
698.774, 3714.508
700.072, 3608.609
701.371, 3523.783
702.669, 3162.733
703.967, 3201.759
705.265, 3212.035
706.562, 2968.380
707.860, 2746.731
709.157, 2765.301
710.454, 2589.144
711.751, 2570.302
713.047, 2397.833
714.344, 2351.762
715.640, 2168.121
716.936, 2086.941
718.232, 2114.218
719.527, 1937.949
720.823, 1913.102
722.118, 1769.676
723.413, 1726.634
724.708, 1555.918
726.002, 1597.472
727.297, 1406.223
728.591, 1493.069
729.885, 1384.956
731.179, 1233.884
732.472, 1165.851
733.766, 1180.855
735.059, 1105.899
736.352, 1017.980
737.645, 949.097
738.937, 868.250
740.230, 861.437
741.522, 721.657
742.814, 681.910
744.106, 637.196
745.397, 543.512
746.689, 467.857
747.980, 491.230
749.271, 453.764
750.562, 469.190
751.853, 436.518
753.143, 326.113
754.433, 366.607
755.723, 238.120
757.013, 185.653
758.303, 138.203
759.592, 189.770
760.881, 177.351
762.170, 109.945
763.459, 152.549
764.748, 91.164
766.036, 152.788
767.325, 45.420
768.613, 57.058
769.901, 87.700
771.188, 9.918
772.476, 48.596
773.763, 4.635
775.050, 15.744
776.337, 26.708
777.624, 13.610
778.910, 24.922
780.196, 47.799
781.482, 72.093
782.768, 140.527
784.054, 68.802
785.339, 119.438
786.625, 126.921
787.910, 101.757
789.195, 143.816
790.479, 158.026
791.764, 145.521
793.048, 186.199
794.332, 127.552
795.616, 198.907
796.900, 167.010
798.183, 171.381
799.467, 158.151
800.750, 182.496
802.033, 178.889
803.316, 165.786
804.598, 211.766
805.880, 138.213
807.163, 126.719
808.445, 190.625
809.726, 175.425
811.008, 126.619
812.289, 144.866
813.570, 143.321
814.851, 130.982
816.132, 60.952
817.413, 145.868
818.693, 45.021
819.973, 103.223
821.253, 59.723
822.533, 45.263
823.813, 66.852
825.092, 106.757
826.371, 73.834
827.650, 39.090
828.929, 33.442
830.208, 76.835
831.486, 59.522
832.764, 74.191
834.042, 120.121
835.320, 56.254
836.598, 81.427
837.875, 99.854
839.152, 35.448
840.429, 42.177
841.706, 44.021
842.983, 37.028
844.259, 13.908
845.536, 50.668
846.812, 72.325
848.088, 80.886
849.363, 165.352
850.639, 206.746
851.914, 215.073
853.189, 261.335
854.464, 265.532
855.739, 320.666
857.013, 323.737
858.288, 297.745
859.562, 314.688
860.836, 390.564
862.110, 411.375
863.383, 483.120
864.656, 458.796
865.930, 537.402
867.203, 662.936
868.475, 788.396
869.748, 877.780
871.020, 989.085
872.292, 1141.308
873.564, 1236.448
874.836, 1358.502
876.108, 1463.468
877.379, 1632.343
878.650, 1799.127
879.922, 1887.817
881.192, 2078.537
882.463, 2153.302
883.733, 2185.066
885.004, 2137.861
886.274, 1942.668
887.544, 1836.610
888.813, 1548.348
890.083, 1459.159
891.352, 1177.829
892.621, 1057.618
893.890, 910.244
895.159, 738.784
896.427, 692.463
897.695, 643.962
898.964, 570.232
900.232, 529.239
901.499, 509.292
902.767, 597.457
904.034, 635.326
905.301, 701.806
906.568, 841.231
907.835, 966.384
909.102, 1035.651
910.368, 1127.720
911.634, 1180.055
912.900, 1214.326
914.166, 1206.719
915.432, 1159.879
916.697, 1052.985
917.962, 885.956
919.227, 812.813
920.492, 722.479
921.757, 621.898
923.021, 541.109
924.285, 490.145
925.550, 405.271
926.813, 400.064
928.077, 368.680
929.341, 357.383
930.604, 309.768
931.867, 337.896
933.130, 310.408
934.393, 316.000
935.655, 303.073
936.918, 318.305
938.180, 305.857
939.442, 316.671
940.703, 322.688
941.965, 321.810
943.226, 325.829
944.488, 326.049
945.749, 352.433
947.009, 342.977
948.270, 376.050
949.530, 381.617
950.791, 396.451
952.051, 427.779
953.311, 411.257
954.570, 445.760
955.830, 432.497
957.089, 459.179
958.348, 444.898
959.607, 471.880
960.866, 430.702
962.124, 450.179
963.383, 434.176
964.641, 433.743
965.899, 432.827
967.156, 456.734
968.414, 421.461
969.671, 426.732
970.928, 411.664
972.185, 442.799
973.442, 420.094
974.699, 400.967
975.955, 441.216
977.211, 438.723
978.468, 442.917
979.723, 433.080
980.979, 410.137
982.234, 440.118
983.490, 394.972
984.745, 414.460
986.000, 416.808
987.254, 378.811
988.509, 406.926
989.763, 396.589
991.017, 382.966
992.271, 359.642
993.525, 341.865
994.779, 375.718
996.032, 399.969
997.285, 395.945
998.538, 402.696
999.791, 418.540
1001.044, 487.891
1002.296, 522.746
1003.548, 560.520
1004.800, 615.621
1006.052, 642.536
1007.304, 684.641
1008.555, 692.593
1009.807, 735.095
1011.058, 758.849
1012.309, 786.936
1013.559, 804.611
1014.810, 790.166
1016.060, 790.786
1017.310, 793.273
1018.560, 749.694
1019.810, 725.944
1021.060, 704.167
1022.309, 652.265
1023.558, 650.300
1024.807, 581.268
1026.056, 551.143
1027.305, 450.943
1028.553, 404.668
1029.801, 342.320
1031.049, 297.899
1032.297, 263.403
1033.545, 239.833
1034.793, 209.187
1036.040, 194.842
1037.287, 165.667
1038.534, 176.790
1039.781, 154.837
1041.027, 158.384
1042.274, 130.698
1043.520, 136.512
1044.766, 133.247
1046.012, 102.906
1047.257, 110.485
1048.503, 123.987
1049.748, 141.414
1050.993, 121.765
1052.238, 93.907
1053.483, 115.106
1054.727, 147.231
1055.971, 139.330
1057.216, 157.311
1058.459, 129.223
1059.703, 138.063
1060.947, 134.833
1062.190, 160.534
1063.433, 185.168
1064.676, 212.736
1065.919, 198.240
1067.162, 202.681
1068.404, 202.058
1069.646, 219.372
1070.888, 250.643
1072.130, 271.836
1073.372, 272.399
1074.613, 231.445
1075.855, 239.392
1077.096, 215.139
1078.337, 228.270
1079.578, 201.148
1080.818, 177.965
1082.059, 161.246
1083.299, 149.880
1084.539, 142.637
1085.779, 140.049
1087.018, 113.732
1088.258, 101.216
1089.497, 72.921
1090.736, 90.828
1091.975, 69.868
1093.213, 80.966
1094.452, 83.200
1095.690, 66.018
1096.928, 50.656
1098.166, 46.972
1099.404, 56.369
1100.642, 43.224
1101.879, 48.410
1103.116, 25.593
1104.353, 45.120
1105.590, 44.532
1106.827, 34.308
1108.063, 41.115
1109.299, 49.151
1110.536, 35.992
1111.771, 36.120
1113.007, 39.345
1114.243, 43.505
1115.478, 43.006
1116.713, 13.406
1117.948, 21.730
1119.183, 25.016
1120.418, 31.287
1121.652, 48.711
1122.886, 41.856
1124.120, 50.257
1125.354, 29.697
1126.588, 35.213
1127.821, 18.793
1129.055, 37.401
1130.288, 44.258
1131.521, 22.920
1132.753, 48.497
1133.986, 35.115
1135.218, 45.990
1136.450, 46.668
1137.682, 46.349
1138.914, 54.164
1140.146, 51.606
1141.377, 63.511
1142.609, 68.263
1143.840, 71.068
1145.071, 72.640
1146.301, 65.545
1147.532, 66.258
1148.762, 54.979
1149.992, 45.701
1151.222, 53.991
1152.452, 50.519
1153.682, 72.096
1154.911, 75.281
1156.140, 88.831
1157.369, 68.826
1158.598, 73.346
1159.827, 94.654
1161.055, 97.612
1162.284, 111.531
1163.512, 73.166
1164.740, 85.651
1165.967, 82.026
1167.195, 104.378
1168.422, 90.715
1169.650, 108.028
1170.877, 97.374
1172.103, 94.799
1173.330, 106.041
1174.557, 141.264
1175.783, 114.431
1177.009, 145.584
1178.235, 140.682
1179.461, 117.718
1180.686, 132.512
1181.912, 137.262
1183.137, 135.801
1184.362, 125.290
1185.587, 111.528
1186.811, 101.822
1188.036, 101.900
1189.260, 128.036
1190.484, 104.919
1191.708, 104.817
1192.932, 102.742
1194.155, 86.356
1195.378, 100.077
1196.602, 111.969
1197.825, 83.937
1199.047, 107.728
1200.270, 77.274
1201.492, 100.028
1202.715, 58.027
1203.937, 78.963
1205.159, 89.085
1206.380, 85.947
1207.602, 68.915
1208.823, 78.905
1210.044, 80.071
1211.265, 63.378
1212.486, 76.760
1213.707, 59.131
1214.927, 81.509
1216.147, 62.911
1217.367, 52.378
1218.587, 64.979
1219.807, 71.797
1221.027, 54.445
1222.246, 40.929
1223.465, 44.503
1224.684, 41.991
1225.903, 32.709
1227.121, 30.185
1228.340, 37.573
1229.558, 35.934
1230.776, 21.314
1231.994, 43.659
1233.212, 46.054
1234.429, 35.488
1235.646, 47.024
1236.864, 28.388
1238.081, 9.172
1239.297, 37.603
1240.514, 23.876
1241.730, 17.210
1242.947, 35.422
1244.163, 22.513
1245.378, 38.641
1246.594, 1.043
1247.810, 11.581
1249.025, 23.799
1250.240, 15.947
1251.455, 34.510
1252.670, 27.750
1253.885, 6.140
1255.099, 18.776
1256.313, 8.180
1257.527, 1.377
1258.741, 7.949
1259.955, 0.711
1261.168, 12.082
1262.382, 1.205
1263.595, 4.746
1264.808, 12.394
1266.021, 1.836
1267.233, 6.105
1268.446, 13.445
1269.658, 18.785
1270.870, 15.464
1272.082, 6.365
1273.294, 3.642
1274.505, 1.907
1275.716, 13.894
1276.928, 0.635
1278.139, 3.159
1279.349, 7.173
1280.560, 7.551
1281.770, 3.231
1282.981, 14.878
1284.191, 2.602
1285.401, 11.049
1286.610, 6.714
1287.820, 1.332
1289.029, 0.932
1290.239, 5.999
1291.448, 14.894
1292.656, 13.278
1293.865, 8.664
1295.073, 3.001
1296.282, 27.298
1297.490, 17.372
1298.698, 18.938
1299.906, 17.664
1301.113, 12.740
1302.320, 13.800
1303.528, 7.570
1304.735, 23.042
1305.942, 14.572
1307.148, 14.096
1308.355, 6.585
1309.561, 2.228
1310.767, 7.176
1311.973, 6.768
1313.179, 5.042
1314.384, 5.460
1315.590, 1.079
1316.795, 4.648
1318.000, 6.763
1319.205, 6.186
1320.410, 14.599
1321.614, 13.004
1322.819, 21.404
1324.023, 1.796
1325.227, 24.184
1326.431, 4.568
1327.634, 19.950
1328.838, 1.327
1330.041, 1.702
1331.244, 9.076
1332.447, 15.446
1333.650, 7.816
1334.852, 12.185
1336.055, 26.555
1337.257, 5.924
1338.459, 19.293
1339.661, 8.663
1340.862, 0.034
1342.064, 11.403
1343.265, 14.772
1344.466, 33.141
1345.667, 11.511
1346.868, 24.881
1348.068, 19.204
1349.269, 10.573
1350.469, 30.942
1351.669, 11.311
1352.869, 1.681
1354.069, 12.051
1355.268, 8.420
1356.468, 17.797
1357.667, 5.164
1358.866, 7.990
1360.065, 2.020
1361.263, 3.385
1362.462, 2.731
1363.660, 1.906
1364.858, 14.455
1366.056, 14.814
1367.254, 5.483
1368.451, 5.810
1369.649, 1.870
1370.846, 5.406
1372.043, 10.674
1373.240, 6.976
1374.436, 2.234
1375.633, 7.422
1376.829, 2.695
1378.025, 1.042
1379.221, 4.383
1380.417, 4.660
1381.613, 9.832
1382.808, 4.400
1384.003, 7.117
1385.199, 6.545
1386.393, 9.981
1387.588, 25.494
1388.783, 7.924
1389.977, 2.321
1391.171, 7.566
1392.365, 6.389
1393.559, 1.576
1394.753, 4.074
1395.946, 13.695
1397.140, 6.241
1398.333, 4.897
1399.526, 2.947
1400.719, 15.176
1401.911, 5.690
1403.104, 33.048
1404.296, 2.988
1405.488, 21.085
1406.680, 27.384
1407.872, 13.824
1409.063, 0.819
1410.255, 6.934
1411.446, 21.613
1412.637, 8.424
1413.828, 15.715
1415.018, 15.784
1416.209, 16.714
1417.399, 19.039
1418.589, 9.343
1419.779, 0.647
1420.969, 20.666
1422.159, 22.065
1423.348, 42.440
1424.537, 21.832
1425.726, 7.197
1426.915, 1.498
1428.104, 25.878
1429.293, 27.312
1430.481, 51.706
1431.669, 39.958
1432.857, 30.359
1434.045, 27.787
1435.233, 27.883
1436.420, 42.680
1437.608, 35.990
1438.795, 30.353
1439.982, 31.806
1441.169, 19.005
1442.355, 44.250
1443.542, 41.341
1444.728, 60.677
1445.914, 64.648
1447.100, 66.934
1448.286, 58.135
1449.472, 77.349
1450.657, 60.773
1451.842, 75.360
1453.027, 79.942
1454.212, 77.131
1455.397, 75.379
1456.581, 65.320
1457.766, 66.206
1458.950, 43.784
1460.134, 57.894
1461.318, 45.782
1462.501, 62.829
1463.685, 75.144
1464.868, 49.255
1466.051, 61.572
1467.234, 61.622
1468.417, 64.778
1469.600, 64.472
