##NAMES=Titanite
##RRUFFID=R040033
##IDEAL CHEMISTRY=CaTi^4+^SiO_5_
##LOCALITY=Brazil
##OWNER=RRUFF
##SOURCE=University of Arizona Mineral Museum
##DESCRIPTION=Green flattened wedge-shaped single crystals
##STATUS=The identification of this mineral has been confirmed by X-ray diffraction and chemical analysis
##URL=rruff.info/R040033
##MEASURED CHEMISTRY=(Ca_0.97_Fe^3+^_0.03_)_Σ=1_(Ti_0.97_Al_0.03_)_Σ=1_Si_1.00_O_5_; Fe^3+^ assigned for charge balance
##PIN_ID=L00086
##ORIENTATION=Laser parallel to a [1 0 0]. Fiducial mark perpendicular to laser is parallel to b* (0 1 0)
51.466, 0.000
52.866, 78.301
54.266, 157.114
55.666, 169.808
57.065, 265.794
58.464, 152.898
59.863, 46.300
61.262, 46.733
62.661, 52.846
64.059, 22.673
65.458, 21.191
66.856, 142.199
68.253, 278.875
69.651, 511.821
71.048, 714.693
72.445, 984.193
73.842, 1262.054
75.239, 1599.026
76.635, 1886.868
78.031, 2041.361
79.427, 2211.306
80.823, 2397.533
82.218, 2492.887
83.614, 2486.264
85.009, 2397.577
86.404, 2413.744
87.798, 2345.683
89.193, 2253.314
90.587, 2044.557
91.981, 1912.341
93.375, 1730.599
94.768, 1541.256
96.161, 1386.216
97.554, 1142.367
98.947, 1002.623
100.340, 818.915
101.732, 727.182
103.124, 580.373
104.516, 566.446
105.908, 613.361
107.300, 501.085
108.691, 524.588
110.082, 458.844
111.473, 454.850
112.864, 506.680
114.254, 461.419
115.644, 463.084
117.034, 431.640
118.424, 425.041
119.813, 461.249
121.203, 528.227
122.592, 485.943
123.981, 559.368
125.369, 560.471
126.758, 711.229
128.146, 813.614
129.534, 912.607
130.922, 1007.186
132.309, 1369.329
133.696, 1712.021
135.083, 2607.313
136.470, 3715.944
137.857, 5366.887
139.243, 7213.901
140.630, 9044.890
142.016, 10669.950
143.401, 11613.138
144.787, 11181.482
146.172, 8840.001
147.557, 6152.712
148.942, 4259.627
150.327, 3327.758
151.711, 2758.118
153.096, 2725.713
154.480, 2731.551
155.863, 2982.637
157.247, 3308.977
158.630, 3578.570
160.013, 3917.426
161.396, 3979.544
162.779, 4103.925
164.161, 4069.573
165.544, 3990.485
166.926, 3973.665
168.308, 3994.993
169.689, 3887.127
171.070, 4114.297
172.452, 4205.037
173.833, 4343.383
175.213, 4635.161
176.594, 4808.049
177.974, 5035.523
179.354, 5240.178
180.734, 5249.954
182.114, 5346.853
183.493, 5657.876
184.872, 5563.028
186.251, 5646.308
187.630, 5488.716
189.008, 5540.256
190.387, 5575.928
191.765, 5427.733
193.143, 5702.671
194.520, 5854.745
195.898, 6160.954
197.275, 6460.297
198.652, 6873.774
200.029, 7125.384
201.405, 7287.128
202.782, 7268.003
204.158, 7256.011
205.534, 7325.151
206.909, 6981.419
208.285, 7045.817
209.660, 7064.346
211.035, 6846.005
212.410, 7040.789
213.784, 6938.700
215.159, 7042.739
216.533, 7314.957
217.907, 7463.310
219.281, 7818.895
220.654, 7997.735
222.027, 8502.169
223.400, 9017.354
224.773, 9548.611
226.146, 10171.537
227.518, 10881.267
228.891, 11828.285
230.263, 12703.872
231.634, 13306.361
233.006, 13521.321
234.377, 13031.733
235.748, 11929.576
237.119, 10336.836
238.490, 9401.487
239.860, 8674.521
241.231, 8444.927
242.601, 8481.682
243.970, 8803.777
245.340, 9233.205
246.709, 9588.951
248.079, 10336.009
249.448, 10323.367
250.816, 10736.016
252.185, 10714.954
253.553, 10564.164
254.921, 10647.643
256.289, 10152.384
257.657, 9811.379
259.024, 9334.620
260.391, 8724.107
261.758, 8124.828
263.125, 7466.779
264.492, 6869.957
265.858, 6216.355
267.224, 5724.972
268.590, 5196.970
269.956, 4769.838
271.321, 4309.083
272.687, 4011.528
274.052, 3698.173
275.416, 3705.015
276.781, 3563.048
278.146, 3528.272
279.510, 3826.681
280.874, 4142.272
282.237, 4657.041
283.601, 5019.984
284.964, 5722.018
286.327, 6642.124
287.690, 7329.193
289.053, 7818.730
290.416, 8251.925
291.778, 8659.834
293.140, 8622.804
294.502, 8395.248
295.863, 8296.289
297.225, 8305.081
298.586, 8589.124
299.947, 9230.388
301.308, 9568.407
302.668, 10388.192
304.029, 11467.284
305.389, 12160.494
306.749, 13147.828
308.108, 14744.281
309.468, 16361.854
310.827, 19002.551
312.186, 21997.363
313.545, 25808.293
314.903, 29244.340
316.262, 31478.506
317.620, 32533.791
318.978, 30749.193
320.336, 28276.703
321.693, 25144.336
323.051, 22426.074
324.408, 19637.928
325.765, 18146.896
327.121, 16426.971
328.478, 15634.155
329.834, 14899.450
331.190, 14383.855
332.546, 13305.364
333.902, 12838.982
335.257, 11987.699
336.612, 11444.508
337.967, 10974.406
339.322, 10833.382
340.677, 11106.438
342.031, 11679.664
343.385, 12490.766
344.739, 13899.039
346.093, 15517.384
347.446, 17469.803
348.799, 19004.299
350.153, 19744.861
351.505, 18887.496
352.858, 17215.205
354.210, 14582.981
355.563, 11996.831
356.915, 9544.750
358.267, 7764.745
359.618, 6066.804
360.969, 5087.936
362.321, 4208.136
363.672, 3378.406
365.022, 2889.746
366.373, 2311.154
367.723, 1888.631
369.073, 1566.176
370.423, 1094.790
371.773, 765.471
373.122, 586.220
374.471, 405.037
375.821, 131.920
377.169, 86.871
378.518, 66.111
379.866, 234.067
381.215, 99.010
382.563, 148.883
383.910, 161.705
385.258, 102.482
386.605, 48.812
387.952, 29.231
389.299, 209.773
390.646, 81.455
391.992, 214.270
393.339, 409.204
394.685, 458.254
396.031, 625.419
397.376, 588.696
398.722, 932.084
400.067, 1117.582
401.412, 1307.186
402.757, 1854.897
404.101, 2032.714
405.446, 2397.636
406.790, 3152.657
408.134, 4002.782
409.478, 5036.008
410.821, 6274.331
412.165, 7780.753
413.508, 10023.272
414.851, 12396.889
416.193, 14775.597
417.536, 18018.400
418.878, 20846.303
420.220, 23325.293
421.562, 23933.375
422.904, 24785.547
424.245, 23508.816
425.586, 21072.166
426.927, 18521.607
428.268, 14978.144
429.609, 12229.763
430.949, 9826.469
432.289, 7908.261
433.629, 6029.141
434.969, 4795.104
436.309, 3560.158
437.648, 2858.297
438.987, 2095.531
440.326, 1389.853
441.665, 864.277
443.003, 558.813
444.342, 152.460
445.680, 92.753
447.018, 345.950
448.355, 590.222
449.693, 746.716
451.030, 935.505
452.367, 970.769
453.704, 962.203
455.041, 915.146
456.377, 887.465
457.713, 726.156
459.049, 693.136
460.385, 435.399
461.721, 225.816
463.056, 53.317
464.391, 243.177
465.726, 519.750
467.061, 621.400
468.395, 764.127
469.730, 1058.932
471.064, 1014.812
472.398, 1204.770
473.731, 1152.803
475.065, 1331.913
476.398, 1515.101
477.731, 1705.365
479.064, 1903.716
480.397, 2105.125
481.729, 2327.621
483.062, 2540.196
484.394, 2785.850
485.725, 2860.582
487.057, 3156.393
488.389, 3271.283
489.720, 3338.252
491.051, 3356.303
492.382, 3332.433
493.712, 3467.643
495.043, 3361.731
496.373, 3274.442
497.703, 3166.753
499.032, 2986.283
500.362, 2767.896
501.691, 2650.587
503.020, 2365.359
504.349, 2435.213
505.678, 2267.146
507.007, 2334.160
508.335, 2330.255
509.663, 2181.432
510.991, 2439.688
512.319, 2296.025
513.646, 2422.443
514.973, 2461.943
516.300, 2714.525
517.627, 2764.188
518.954, 2668.932
520.280, 2899.757
521.607, 2988.664
522.933, 3179.653
524.259, 3312.724
525.584, 3423.876
526.910, 3870.109
528.235, 4077.427
529.560, 4700.826
530.885, 4856.305
532.209, 5314.868
533.534, 5849.516
534.858, 6277.240
536.182, 6686.051
537.506, 7052.793
538.829, 7332.438
540.152, 7581.631
541.476, 7746.016
542.799, 7806.152
544.121, 7869.295
545.444, 7834.492
546.766, 7734.973
548.088, 7614.505
549.410, 7476.174
550.732, 7141.909
552.053, 6860.729
553.375, 6424.633
554.696, 5911.619
556.017, 5888.691
557.337, 5553.846
558.658, 5460.085
559.978, 5292.406
561.298, 5503.812
562.618, 5564.301
563.938, 5823.873
565.257, 6349.527
566.576, 6586.264
567.895, 7135.084
569.214, 7589.986
570.533, 7781.971
571.851, 7962.037
573.170, 8431.186
574.488, 8726.418
575.805, 9268.732
577.123, 9619.126
578.440, 10403.602
579.758, 11193.160
581.075, 11994.804
582.391, 13335.523
583.708, 13954.327
585.024, 15124.211
586.341, 16879.182
587.657, 18329.227
588.972, 20085.350
590.288, 21758.562
591.603, 23668.969
592.918, 25437.221
594.233, 27745.080
595.548, 29996.730
596.863, 32213.857
598.177, 34427.855
599.491, 37031.434
600.805, 38937.141
602.119, 40926.523
603.432, 43095.266
604.746, 44637.953
606.059, 45299.059
607.372, 45746.000
608.685, 46319.551
609.997, 45601.504
611.309, 45135.754
612.621, 43932.863
613.933, 42839.867
615.245, 41444.004
616.557, 40122.547
617.868, 38290.969
619.179, 36736.910
620.490, 34678.031
621.801, 33523.734
623.111, 31526.080
624.421, 30462.529
625.731, 28181.080
627.041, 27836.738
628.351, 25408.498
629.660, 24518.363
630.970, 23640.348
632.279, 22126.459
633.588, 20905.736
634.896, 19710.170
636.205, 18733.486
637.513, 17786.559
638.821, 17088.545
640.129, 16347.717
641.437, 15603.084
642.744, 14862.658
644.051, 14131.405
645.358, 13771.349
646.665, 12986.474
647.972, 12737.763
649.278, 11916.220
650.584, 11571.801
651.890, 11361.503
653.196, 10827.313
654.502, 10650.229
655.807, 10273.020
657.113, 9627.352
658.418, 9527.562
659.722, 9117.869
661.027, 8569.271
662.331, 8366.771
663.636, 8156.365
664.940, 7740.059
666.244, 7576.846
667.547, 7091.729
668.851, 7073.708
670.154, 6868.781
671.457, 6413.950
672.760, 6569.215
674.062, 6152.574
675.365, 5962.026
676.667, 5751.574
677.969, 5512.215
679.271, 5382.951
680.572, 5048.779
681.874, 5212.702
683.175, 5000.718
684.476, 4730.826
685.777, 4569.027
687.077, 4307.320
688.378, 4324.707
689.678, 4150.188
690.978, 3992.756
692.278, 3849.828
693.577, 3712.020
694.877, 3473.015
696.176, 3482.970
697.475, 3347.070
698.774, 3273.288
700.072, 2989.635
701.371, 2876.111
702.669, 2674.707
703.967, 2553.113
705.265, 2764.172
706.562, 2418.039
707.860, 2309.994
709.157, 2374.034
710.454, 2084.162
711.751, 2141.376
713.047, 1804.676
714.344, 1879.062
715.640, 1601.531
716.936, 1602.087
718.232, 1746.725
719.527, 1579.448
720.823, 1386.253
722.118, 1428.143
723.413, 1274.114
724.708, 1186.167
726.002, 1295.302
727.297, 948.518
728.591, 1149.814
729.885, 1071.192
731.179, 887.648
732.472, 854.187
733.766, 790.802
735.059, 768.496
736.352, 708.268
737.645, 659.118
738.937, 548.045
740.230, 484.929
741.522, 378.129
742.814, 341.285
744.106, 239.517
745.397, 218.823
746.689, 90.204
747.980, 73.659
749.271, 8.812
750.562, 7.781
751.853, 45.692
753.143, 3.849
754.433, 99.074
755.723, 141.270
757.013, 132.454
758.303, 289.625
759.592, 172.851
760.881, 289.029
762.170, 148.156
763.459, 184.109
764.748, 358.864
766.036, 101.455
767.325, 279.758
768.613, 207.855
769.901, 159.727
771.188, 195.356
772.476, 134.801
773.763, 164.046
775.050, 29.166
776.337, 32.156
777.624, 19.943
778.910, 32.102
780.196, 48.771
781.482, 58.117
782.768, 112.587
784.054, 167.334
785.339, 272.129
786.625, 164.037
787.910, 403.227
789.195, 346.512
790.479, 506.695
791.764, 751.234
793.048, 704.097
794.332, 1107.912
795.616, 1034.630
796.900, 1206.095
798.183, 1132.816
799.467, 1632.987
800.750, 1733.945
802.033, 1973.399
803.316, 2528.824
804.598, 2529.182
805.880, 3012.791
807.163, 3383.996
808.445, 3749.660
809.726, 4167.871
811.008, 4778.363
812.289, 5091.809
813.570, 5691.306
814.851, 6171.855
816.132, 6575.451
817.413, 6866.094
818.693, 7281.779
819.973, 7381.502
821.253, 7558.273
822.533, 7963.081
823.813, 7923.922
825.092, 8105.795
826.371, 8287.724
827.650, 8498.693
828.929, 8807.710
830.208, 8889.772
831.486, 8966.869
832.764, 9423.997
834.042, 9799.175
835.320, 10413.395
836.598, 11172.650
837.875, 11986.957
839.152, 12991.292
840.429, 14531.655
841.706, 15500.070
842.983, 17035.516
844.259, 19284.996
845.536, 20855.504
846.812, 23260.047
848.088, 25410.602
849.363, 28331.180
850.639, 30913.773
851.914, 32828.383
853.189, 34761.012
854.464, 36557.648
855.739, 37547.297
857.013, 37043.949
858.288, 36323.617
859.562, 35881.277
860.836, 35101.938
862.110, 33668.605
863.383, 33830.266
864.656, 33607.945
865.930, 34248.617
867.203, 35373.289
868.475, 35985.965
869.748, 36290.637
871.020, 35827.805
872.292, 35191.965
873.564, 33481.633
874.836, 31277.281
876.108, 28752.930
877.379, 27075.580
878.650, 25302.223
879.922, 23807.855
881.192, 22700.480
882.463, 21886.098
883.733, 21104.713
885.004, 20195.312
886.274, 19277.900
887.544, 18490.482
888.813, 16713.049
890.083, 15253.609
891.352, 14064.154
892.621, 12299.686
893.890, 11186.204
895.159, 9971.706
896.427, 9060.192
897.695, 8654.666
898.964, 8073.122
900.232, 7711.562
901.499, 7850.982
902.767, 8012.979
904.034, 8114.246
905.301, 8771.098
906.568, 9458.131
907.835, 10015.658
909.102, 10650.103
910.368, 10938.939
911.634, 11039.474
912.900, 10418.291
914.166, 9836.825
915.432, 8572.935
916.697, 7213.663
917.962, 6414.667
919.227, 4959.354
920.492, 4241.299
921.757, 3324.084
923.021, 2695.984
924.285, 2108.278
925.550, 1650.357
926.813, 1293.893
928.077, 1016.701
929.341, 743.344
930.604, 717.217
931.867, 492.059
933.130, 262.868
934.393, 315.639
935.655, 137.373
936.918, 140.050
938.180, 41.670
939.442, 139.799
940.703, 27.453
941.965, 103.231
943.226, 234.178
944.488, 221.362
945.749, 186.777
947.009, 183.407
948.270, 273.250
949.530, 132.355
950.791, 217.648
952.051, 149.176
953.311, 123.901
954.570, 90.320
955.830, 44.196
957.089, 89.540
958.348, 139.296
959.607, 332.153
960.866, 272.695
962.124, 392.798
963.383, 607.780
964.641, 643.631
965.899, 801.555
967.156, 919.670
968.414, 997.240
969.671, 1265.907
970.928, 1358.211
972.185, 1507.102
973.442, 1466.885
974.699, 1639.167
975.955, 1631.237
977.211, 1451.599
978.468, 1477.684
979.723, 1414.075
980.979, 1264.962
982.234, 1342.516
983.490, 1095.989
984.745, 1283.951
986.000, 1219.038
987.254, 1031.203
988.509, 1208.338
989.763, 1207.481
991.017, 1189.919
992.271, 1214.771
993.525, 1220.284
994.779, 1239.136
996.032, 1332.159
997.285, 1372.354
998.538, 1423.048
999.791, 1559.922
1001.044, 1527.906
1002.296, 1591.041
1003.548, 1649.908
1004.800, 1594.794
1006.052, 1709.354
1007.304, 1765.971
1008.555, 1813.526
1009.807, 1824.019
1011.058, 1913.448
1012.309, 1894.815
1013.559, 2023.119
1014.810, 1988.360
1016.060, 2027.537
1017.310, 2164.650
1018.560, 2189.700
1019.810, 2255.686
1021.060, 2338.607
1022.309, 2447.465
1023.558, 2527.258
1024.807, 2431.986
1026.056, 2549.650
1027.305, 2667.250
1028.553, 2705.784
1029.801, 2568.253
1031.049, 2656.657
1032.297, 2576.995
1033.545, 2752.269
1034.793, 2567.476
1036.040, 2596.618
1037.287, 2579.694
1038.534, 2550.705
1039.781, 2536.649
1041.027, 2402.272
1042.274, 2207.340
1043.520, 2099.086
1044.766, 1872.766
1046.012, 1691.379
1047.257, 1549.926
1048.503, 1566.407
1049.748, 1258.820
1050.993, 1253.167
1052.238, 1099.447
1053.483, 927.665
1054.727, 930.819
1055.971, 932.916
1057.216, 726.951
1058.459, 734.939
1059.703, 733.891
1060.947, 688.803
1062.190, 543.711
1063.433, 550.588
1064.676, 514.460
1065.919, 454.295
1067.162, 478.095
1068.404, 464.902
1069.646, 510.658
1070.888, 512.406
1072.130, 430.130
1073.372, 518.813
1074.613, 674.469
1075.855, 624.088
1077.096, 774.676
1078.337, 982.205
1079.578, 974.677
1080.818, 1182.084
1082.059, 1220.427
1083.299, 1535.186
1084.539, 1538.269
1085.779, 1741.069
1087.018, 1884.816
1088.258, 1941.447
1089.497, 1931.789
1090.736, 1928.033
1091.975, 1828.373
1093.213, 1854.353
1094.452, 1715.997
1095.690, 1374.688
1096.928, 1239.474
1098.166, 910.510
1099.404, 787.282
1100.642, 450.593
1101.879, 433.123
1103.116, 263.151
1104.353, 167.190
1105.590, 61.291
1106.827, 98.131
1108.063, 82.350
1109.299, 103.091
1110.536, 32.743
1111.771, 47.902
1113.007, 15.063
1114.243, 33.312
1115.478, 5.661
1116.713, 14.094
1117.948, 1.384
1119.183, 14.656
1120.418, 22.895
1121.652, 39.336
1122.886, 74.496
1124.120, 86.589
1125.354, 67.383
1126.588, 16.470
1127.821, 38.645
1129.055, 47.917
1130.288, 23.708
1131.521, 24.261
1132.753, 69.258
1133.986, 24.889
1135.218, 27.608
1136.450, 76.417
1137.682, 22.659
1138.914, 1.666
1140.146, 92.402
1141.377, 5.590
1142.609, 31.854
1143.840, 36.207
1145.071, 62.351
1146.301, 22.846
1147.532, 69.273
1148.762, 60.640
1149.992, 145.942
1151.222, 57.191
1152.452, 158.378
1153.682, 188.512
1154.911, 393.594
1156.140, 437.633
1157.369, 652.629
1158.598, 861.583
1159.827, 976.495
1161.055, 1119.365
1162.284, 1302.193
1163.512, 1389.980
1164.740, 1651.725
1165.967, 1710.430
1167.195, 2120.094
1168.422, 2330.717
1169.650, 2758.300
1170.877, 3208.841
1172.103, 4043.343
1173.330, 4776.804
1174.557, 5923.226
1175.783, 6842.607
1177.009, 7603.947
1178.235, 8455.251
1179.461, 8852.513
1180.686, 8894.734
1181.912, 8528.919
1183.137, 7924.065
1184.362, 6969.172
1185.587, 6150.242
1186.811, 5468.272
1188.036, 4791.265
1189.260, 4410.222
1190.484, 4199.141
1191.708, 3934.025
1192.932, 3939.871
1194.155, 4166.682
1195.378, 4274.457
1196.602, 4316.194
1197.825, 4476.897
1199.047, 4500.566
1200.270, 4269.200
1201.492, 4231.801
1202.715, 3890.365
1203.937, 3980.896
1205.159, 3885.394
1206.380, 3974.856
1207.602, 4083.286
1208.823, 4320.682
1210.044, 4503.949
1211.265, 4817.203
1212.486, 4880.265
1213.707, 5003.825
1214.927, 4928.545
1216.147, 4663.117
1217.367, 4366.001
1218.587, 4227.853
1219.807, 3894.019
1221.027, 3690.829
1222.246, 3483.878
1223.465, 3578.894
1224.684, 3555.912
1225.903, 3589.929
1227.121, 3676.019
1228.340, 3741.948
1229.558, 3960.492
1230.776, 3964.069
1231.994, 4023.410
1233.212, 4143.060
1234.429, 4165.722
1235.646, 4209.499
1236.864, 4373.594
1238.081, 4336.316
1239.297, 4517.516
1240.514, 4759.881
1241.730, 4792.942
1242.947, 4967.797
1244.163, 5054.103
1245.378, 5376.022
1246.594, 5539.458
1247.810, 5240.940
1249.025, 5336.542
1250.240, 5094.424
1251.455, 4876.335
1252.670, 4653.872
1253.885, 4211.586
1255.099, 3935.691
1256.313, 3476.338
1257.527, 3359.404
1258.741, 3066.545
1259.955, 2731.193
1261.168, 2532.331
1262.382, 2379.998
1263.595, 2350.189
1264.808, 2121.296
1266.021, 2001.522
1267.233, 1990.346
1268.446, 1886.096
1269.658, 1793.063
1270.870, 1701.539
1272.082, 1604.368
1273.294, 1531.478
1274.505, 1465.003
1275.716, 1401.068
1276.928, 1363.402
1278.139, 1330.750
1279.349, 1292.542
1280.560, 1306.141
1281.770, 1288.494
1282.981, 1287.151
1284.191, 1300.351
1285.401, 1321.327
1286.610, 1342.825
1287.820, 1405.591
1289.029, 1466.951
1290.239, 1618.072
1291.448, 1745.952
1292.656, 1759.345
1293.865, 1972.332
1295.073, 2045.221
1296.282, 2083.890
1297.490, 2299.759
1298.698, 2474.542
1299.906, 2466.584
1301.113, 2516.499
1302.320, 2549.411
1303.528, 2585.317
1304.735, 2492.219
1305.942, 2497.116
1307.148, 2564.004
1308.355, 2427.879
1309.561, 2485.738
1310.767, 2354.575
1311.973, 2325.390
1313.179, 2330.184
1314.384, 2347.430
1315.590, 2473.638
1316.795, 2493.290
1318.000, 2511.916
1319.205, 2594.454
1320.410, 2527.966
1321.614, 2448.469
1322.819, 2530.955
1324.023, 2342.432
1325.227, 2386.898
1326.431, 2167.355
1327.634, 1968.803
1328.838, 1820.243
1330.041, 1717.677
1331.244, 1684.105
1332.447, 1467.527
1333.650, 1342.942
1334.852, 1167.351
1336.055, 1053.754
1337.257, 1060.148
1338.459, 980.536
1339.661, 941.917
1340.862, 817.290
1342.064, 839.655
1343.265, 690.011
1344.466, 745.357
1345.667, 600.694
1346.868, 681.021
1348.068, 655.338
1349.269, 511.645
1350.469, 561.945
1351.669, 572.240
1352.869, 457.533
1354.069, 587.827
1355.268, 392.121
1356.468, 491.417
1357.667, 417.715
1358.866, 332.019
1360.065, 276.326
1361.263, 176.669
1362.462, 200.987
1363.660, 209.310
1364.858, 146.579
1366.056, 156.919
1367.254, 125.357
1368.451, 96.899
1369.649, 89.270
1370.846, 63.716
1372.043, 0.283
1373.240, 41.574
1374.436, 10.996
1375.633, 3.748
1376.829, 14.529
1378.025, 15.354
1379.221, 18.486
1380.417, 25.334
1381.613, 15.473
1382.808, 26.568
1384.003, 0.004
1385.199, 42.590
1386.393, 57.245
1387.588, 44.946
1388.783, 34.729
1389.977, 48.445
1391.171, 95.433
1392.365, 45.320
1393.559, 50.855
1394.753, 73.903
1395.946, 85.600
1397.140, 18.746
1398.333, 36.857
1399.526, 48.561
1400.719, 36.063
1401.911, 29.660
1403.104, 8.687
1404.296, 11.509
1405.488, 61.924
1406.680, 50.855
1407.872, 31.902
1409.063, 74.044
1410.255, 14.243
1411.446, 41.738
1412.637, 30.768
1413.828, 70.077
1415.018, 76.393
1416.209, 115.711
1417.399, 166.031
1418.589, 259.354
1419.779, 154.681
1420.969, 276.012
1422.159, 245.351
1423.348, 239.698
1424.537, 303.059
1425.726, 280.433
1426.915, 340.820
1428.104, 383.224
1429.293, 394.644
1430.481, 410.080
1431.669, 428.535
1432.857, 516.008
1434.045, 546.502
1435.233, 629.018
1436.420, 645.556
