##NAMES=Titanite
##RRUFFID=R050114
##IDEAL CHEMISTRY=CaTi^4+^SiO_5_
##LOCALITY=Isthak Valley Iskardu, Northern Areas Gilgit, Pakistan
##OWNER=RRUFF
##SOURCE=Syed Shah
##DESCRIPTION=Yellowish-brown fragment
##STATUS=The identification of this mineral has been confirmed by X-ray diffraction and chemical analysis
##URL=rruff.info/R050114
##MEASURED CHEMISTRY=(Ca_0.99_Na_0.01_)(Ti_0.96_Al_0.03_Fe^3+^_0.01_)Si_1.00_O_4_(O_0.95_F_0.05_)
##PIN_ID=L00085
##ORIENTATION=Laser parallel to a* (1 0 0). Fiducial mark perpendicular to laser is parallel to -b [0 -1 0]
93.868, 0.000
95.269, 127.474
96.670, 142.590
98.070, 172.979
99.471, 0.265
100.871, 47.804
102.271, 79.830
103.670, 52.172
105.070, 12.099
106.469, 98.192
107.868, 215.273
109.267, 1389.848
110.665, 856.212
112.063, 1260.142
113.461, 534.940
114.859, 696.450
116.256, 846.889
117.653, 907.461
119.050, 989.414
120.447, 1245.064
121.843, 1488.807
123.240, 1752.103
124.636, 1935.478
126.031, 2356.511
127.427, 2595.831
128.822, 2684.102
130.217, 2984.031
131.612, 3073.412
133.006, 3324.435
134.400, 3496.454
135.794, 3902.259
137.188, 4291.410
138.581, 4853.507
139.975, 5638.236
141.368, 6155.341
142.760, 6344.609
144.153, 6335.864
145.545, 6308.953
146.937, 6403.742
148.329, 6810.115
149.720, 7477.971
151.112, 8397.217
152.503, 9857.779
153.893, 11209.578
155.284, 13532.548
156.674, 15536.627
158.064, 17601.764
159.454, 19147.891
160.843, 20394.975
162.233, 20312.959
163.622, 19591.812
165.011, 18791.480
166.399, 17111.945
167.787, 15913.474
169.175, 14377.685
170.563, 13286.396
171.951, 12660.910
173.338, 12240.755
174.725, 12412.559
176.112, 12124.054
177.499, 12315.109
178.885, 12515.328
180.271, 12824.812
181.657, 12623.680
183.043, 12652.090
184.428, 12660.159
185.813, 12357.959
187.198, 12275.566
188.583, 12343.029
189.967, 12120.394
191.351, 12647.696
192.735, 12774.984
194.119, 13012.281
195.502, 13289.600
196.885, 13676.965
198.268, 14294.391
199.651, 14671.892
201.033, 15299.479
202.415, 15817.156
203.797, 16664.943
205.179, 16772.840
206.561, 17310.889
207.942, 17319.098
209.323, 17447.432
210.703, 17005.895
212.084, 16844.480
213.464, 16833.197
214.844, 16962.049
216.224, 16881.031
217.603, 16910.146
218.983, 17429.385
220.362, 17768.746
221.741, 18138.230
223.119, 18574.086
224.497, 18977.555
225.875, 19287.389
227.253, 19637.342
228.631, 19807.404
230.008, 20022.318
231.385, 20126.090
232.762, 20268.250
234.139, 20298.748
235.515, 20319.348
236.891, 20550.047
238.267, 20100.848
239.643, 21031.754
241.018, 22009.795
242.393, 22644.240
243.768, 24269.408
245.143, 25512.035
246.517, 26890.781
247.891, 28256.623
249.265, 29749.352
250.639, 30153.674
252.012, 30677.316
253.386, 30759.109
254.759, 30042.113
256.131, 29455.201
257.504, 28168.365
258.876, 26421.600
260.248, 24330.199
261.620, 22499.180
262.991, 20538.664
264.363, 18884.133
265.734, 17151.096
267.104, 15864.039
268.475, 14818.515
269.845, 13715.707
271.215, 13203.938
272.585, 13123.284
273.955, 12673.572
275.324, 12664.724
276.693, 12616.680
278.062, 12898.538
279.431, 13552.769
280.799, 13986.810
282.167, 14701.452
283.535, 15666.657
284.903, 16482.398
286.270, 17538.627
287.638, 18335.332
289.005, 18962.479
290.371, 18730.424
291.738, 17788.383
293.104, 16046.718
294.470, 14035.406
295.836, 12054.436
297.201, 10223.791
298.567, 9193.450
299.932, 8233.394
301.296, 7943.610
302.661, 7624.080
304.025, 7674.792
305.389, 8025.731
306.753, 8286.889
308.117, 9088.253
309.480, 9979.815
310.843, 11361.565
312.206, 12913.500
313.569, 14495.608
314.931, 16037.885
316.293, 17091.096
317.655, 17214.451
319.017, 16318.179
320.378, 15281.062
321.740, 13804.081
323.101, 12677.233
324.461, 11970.512
325.822, 11533.915
327.182, 11187.437
328.542, 11261.075
329.902, 11314.819
331.261, 11208.674
332.621, 11088.659
333.980, 10841.887
335.339, 10520.790
336.697, 10124.947
338.056, 9499.125
339.414, 8963.309
340.772, 8367.509
342.129, 7851.719
343.487, 7635.948
344.844, 7370.198
346.201, 7114.472
347.557, 7278.771
348.914, 7253.100
350.270, 7287.457
351.626, 6711.842
352.982, 6606.262
354.337, 6110.710
355.693, 5555.191
357.048, 5099.703
358.402, 4674.246
359.757, 4628.822
361.111, 4223.429
362.465, 4198.065
363.819, 4052.733
365.173, 3817.432
366.526, 3722.160
367.879, 3376.917
369.232, 3241.704
370.585, 2980.519
371.937, 2611.361
373.290, 2373.230
374.642, 2047.126
375.993, 1660.048
377.345, 1349.995
378.696, 1053.965
380.047, 673.960
381.398, 361.979
382.748, 206.021
384.099, 99.914
385.449, 149.883
386.799, 122.900
388.148, 384.960
389.497, 428.126
390.847, 565.410
392.196, 618.846
393.544, 808.450
394.893, 905.270
396.241, 947.329
397.589, 974.639
398.936, 1172.210
400.284, 1240.089
401.631, 1206.297
402.978, 1145.825
404.325, 1036.800
405.672, 944.265
407.018, 768.325
408.364, 527.055
409.710, 189.502
411.055, 258.344
412.401, 816.501
413.746, 1580.050
415.091, 2515.121
416.435, 3785.972
417.780, 5162.878
419.124, 6919.841
420.468, 8686.858
421.812, 10323.936
423.155, 11651.141
424.498, 11978.478
425.842, 11845.940
427.184, 10823.524
428.527, 9741.229
429.869, 8099.048
431.211, 6786.972
432.553, 5454.989
433.895, 4323.096
435.236, 3701.286
436.577, 2857.557
437.918, 2268.902
439.259, 1894.321
440.599, 1505.809
441.940, 1151.363
443.280, 842.980
444.619, 601.664
445.959, 550.413
447.298, 383.235
448.637, 295.128
449.976, 304.105
451.315, 206.167
452.653, 315.299
453.991, 362.526
455.329, 360.855
456.667, 608.269
458.004, 866.768
459.341, 1043.380
460.678, 1323.094
462.015, 1583.908
463.352, 1881.823
464.688, 2034.837
466.024, 2166.947
467.360, 2091.151
468.695, 1879.439
470.031, 1681.803
471.366, 1199.231
472.701, 745.716
474.035, 515.260
475.370, 324.853
476.704, 179.484
478.038, 180.137
479.372, 166.809
480.705, 435.498
482.038, 572.222
483.371, 844.983
484.704, 1105.685
486.037, 1472.613
487.369, 1692.482
488.701, 2033.388
490.033, 2377.330
491.365, 2537.308
492.696, 2654.322
494.027, 2754.372
495.358, 2844.459
496.689, 2937.583
498.019, 2928.741
499.350, 2861.938
500.680, 2932.170
502.009, 2926.441
503.339, 2998.748
504.668, 3073.094
505.997, 3093.852
507.326, 3186.897
508.655, 3229.358
509.983, 3260.855
511.311, 3442.392
512.639, 3593.967
513.967, 3845.582
515.295, 3927.234
516.622, 4108.927
517.949, 4290.659
519.276, 4612.430
520.602, 5054.240
521.929, 5146.093
523.255, 5217.982
524.581, 5829.913
525.906, 6021.887
527.232, 6423.897
528.557, 6865.950
529.882, 7508.042
531.207, 7850.178
532.531, 8412.354
533.855, 8794.568
535.179, 9596.829
536.503, 9809.130
537.827, 10351.473
539.150, 10423.854
540.473, 10716.279
541.796, 10528.748
543.119, 10791.263
544.441, 10433.233
545.764, 10062.316
547.086, 10042.707
548.407, 9398.423
549.729, 8881.415
551.050, 8086.177
552.371, 7477.627
553.692, 6967.800
555.013, 6362.139
556.333, 5563.863
557.653, 5423.848
558.973, 4862.129
560.293, 4706.320
561.612, 4742.390
562.932, 4971.913
564.251, 5427.752
565.569, 6238.962
566.888, 7220.448
568.206, 8726.062
569.524, 9471.388
570.842, 10935.221
572.160, 12199.153
573.477, 13663.188
574.795, 14707.326
576.112, 15871.568
577.428, 17555.916
578.745, 18560.371
580.061, 20274.928
581.377, 22029.598
582.693, 23894.367
584.009, 25509.240
585.324, 27714.219
586.639, 29029.299
587.954, 31754.482
589.269, 33629.781
590.583, 35875.160
591.897, 38340.664
593.212, 40486.262
594.525, 42631.723
595.839, 44767.762
597.152, 46683.664
598.465, 48809.664
599.778, 50695.770
601.091, 51011.977
602.403, 52389.059
603.716, 52656.184
605.028, 52555.781
606.339, 52525.285
607.651, 51958.465
608.962, 50721.852
610.273, 49524.910
611.584, 47571.477
612.895, 46300.496
614.205, 44275.859
615.515, 42451.758
616.825, 40404.434
618.135, 39054.820
619.444, 36545.609
620.754, 35956.289
622.063, 33577.254
623.372, 32117.473
624.680, 30787.496
625.989, 29075.705
627.297, 28082.016
628.605, 27035.928
629.912, 25568.236
631.220, 24581.465
632.527, 23262.205
633.834, 22330.238
635.141, 21450.318
636.447, 20609.152
637.754, 20007.926
639.060, 19287.869
640.366, 17977.990
641.671, 17598.270
642.977, 16838.721
644.282, 16079.320
645.587, 15660.066
646.892, 15160.956
648.196, 14441.969
649.501, 13813.100
650.805, 13574.336
652.109, 12815.678
653.412, 12587.119
654.716, 11988.654
656.019, 11550.276
657.322, 11351.982
658.625, 10793.775
659.927, 10335.650
661.230, 10257.605
662.532, 9729.648
663.834, 9521.771
665.135, 9183.979
666.437, 8786.268
667.738, 8528.638
669.039, 8191.092
670.340, 8063.628
671.640, 7476.242
672.940, 7708.941
674.241, 7051.719
675.540, 7064.579
676.840, 6727.519
678.139, 6540.540
679.439, 6353.642
680.738, 6106.823
682.036, 5810.083
683.335, 5613.423
684.633, 5346.843
685.931, 5250.342
687.229, 5103.918
688.527, 4967.574
689.824, 4691.309
691.121, 4535.121
692.418, 4369.011
693.715, 4242.978
695.012, 4147.022
696.308, 3981.144
697.604, 3725.341
698.900, 3699.614
700.195, 3447.964
701.491, 3502.445
702.786, 3246.070
704.081, 3060.834
705.376, 3072.800
706.670, 2697.977
707.964, 2897.400
709.259, 2683.084
710.552, 2593.076
711.846, 2456.397
713.139, 2363.062
714.433, 2347.075
715.726, 2108.485
717.018, 2121.313
718.311, 1883.548
719.603, 1880.174
720.895, 1719.166
722.187, 1660.500
723.479, 1585.133
724.770, 1521.005
726.061, 1376.032
727.352, 1337.128
728.643, 1262.288
729.934, 1301.512
731.224, 1130.799
732.514, 1208.148
733.804, 1096.559
735.094, 851.030
736.383, 895.562
737.672, 870.151
738.961, 762.800
740.250, 681.506
741.539, 770.269
742.827, 626.087
744.115, 589.961
745.403, 502.890
746.691, 478.873
747.978, 461.907
749.265, 386.942
750.552, 423.133
751.839, 251.321
753.126, 205.560
754.412, 95.850
755.698, 115.189
756.984, 38.420
758.270, 35.993
759.555, 117.527
760.840, 110.047
762.125, 194.550
763.410, 195.068
764.695, 191.606
765.979, 250.157
767.263, 290.753
768.547, 217.418
769.831, 224.120
771.114, 344.683
772.398, 298.373
773.681, 301.189
774.964, 294.513
776.246, 294.860
777.529, 275.888
778.811, 266.482
780.093, 225.903
781.375, 184.108
782.656, 129.729
783.937, 89.150
785.219, 98.307
786.499, 35.184
787.780, 9.735
789.060, 39.832
790.341, 114.085
791.621, 279.881
792.901, 266.967
794.180, 344.200
795.459, 473.960
796.739, 460.325
798.017, 463.917
799.296, 573.816
800.575, 574.585
801.853, 655.357
803.131, 641.506
804.409, 703.037
805.686, 762.541
806.964, 818.838
808.241, 844.623
809.518, 909.271
810.795, 946.592
812.071, 1048.591
813.347, 1032.162
814.623, 1129.730
815.899, 1173.293
817.175, 1303.854
818.450, 1197.412
819.726, 1342.964
821.001, 1388.522
822.275, 1527.074
823.550, 1582.628
824.824, 1649.179
826.098, 1694.725
827.372, 1781.261
828.646, 1894.790
829.920, 1856.312
831.193, 1977.828
832.466, 2065.339
833.739, 2045.844
835.011, 2143.342
836.284, 2125.831
837.556, 2298.310
838.828, 2525.777
840.100, 2647.230
841.371, 2838.672
842.642, 3080.099
843.914, 3342.506
845.184, 3615.894
846.455, 3959.259
847.726, 4459.602
848.996, 4678.923
850.266, 5247.218
851.536, 5766.486
852.805, 6203.727
854.075, 6587.936
855.344, 7048.115
856.613, 7598.263
857.881, 8258.378
859.150, 8718.459
860.418, 9208.505
861.686, 10058.512
862.954, 11258.483
864.222, 12328.412
865.489, 13688.300
866.756, 15418.145
868.023, 17087.943
869.290, 18807.691
870.557, 19947.391
871.823, 21457.043
873.089, 21916.635
874.355, 22466.168
875.621, 22275.650
876.886, 22525.072
878.152, 23044.428
879.417, 22663.725
880.682, 23302.955
881.946, 23022.127
883.211, 23451.232
884.475, 23010.268
885.739, 22469.246
887.003, 21148.156
888.266, 19836.998
889.530, 18315.771
890.793, 16474.477
892.056, 14483.116
893.318, 12621.683
894.581, 11070.181
895.843, 9658.608
897.105, 8236.967
898.367, 7325.253
899.629, 6513.466
900.890, 5663.609
902.152, 5254.676
903.413, 4728.671
904.673, 4221.807
905.934, 3904.983
907.194, 3598.271
908.454, 3234.637
909.714, 2986.118
910.974, 2642.820
912.234, 2399.042
913.493, 2047.712
914.752, 1713.979
916.011, 1411.677
917.270, 1220.381
918.528, 972.288
919.786, 824.064
921.044, 581.650
922.302, 526.449
923.560, 412.196
924.817, 270.045
926.074, 191.425
927.331, 117.912
928.588, 75.094
929.844, 36.999
931.101, 22.928
932.357, 16.086
933.613, 109.385
934.868, 83.351
936.124, 136.769
937.379, 159.181
938.634, 124.186
939.889, 141.993
941.144, 191.807
942.398, 149.895
943.652, 154.234
944.906, 139.828
946.160, 115.670
947.414, 108.748
948.667, 64.058
949.920, 52.577
951.173, 18.299
952.426, 31.794
953.678, 92.726
954.931, 147.523
956.183, 149.198
957.435, 263.944
958.686, 304.827
959.938, 410.659
961.189, 526.566
962.440, 630.376
963.691, 740.172
964.941, 836.663
966.192, 971.393
967.442, 1078.588
968.692, 1228.121
969.942, 1372.066
971.191, 1554.146
972.441, 1652.218
973.690, 1696.765
974.939, 1794.306
976.187, 1773.504
977.436, 1755.301
978.684, 1556.004
979.932, 1628.048
981.180, 1446.616
982.428, 1449.039
983.675, 1465.597
984.922, 1416.921
986.169, 1361.927
987.416, 1412.769
988.663, 1337.209
989.909, 1346.413
991.155, 1352.375
992.401, 1327.337
993.647, 1340.395
994.893, 1343.854
996.138, 1271.518
997.383, 1291.398
998.628, 1252.119
999.873, 1277.487
1001.117, 1201.596
1002.362, 1208.250
1003.606, 1252.769
1004.850, 1200.205
1006.093, 1293.557
1007.337, 1276.827
1008.580, 1290.014
1009.823, 1382.119
1011.066, 1382.140
1012.308, 1351.079
1013.551, 1447.936
1014.793, 1411.710
1016.035, 1494.402
1017.277, 1599.012
1018.518, 1547.539
1019.760, 1640.984
1021.001, 1622.347
1022.242, 1716.629
1023.483, 1691.829
1024.723, 1662.947
1025.964, 1739.984
1027.204, 1607.940
1028.444, 1628.815
1029.683, 1604.610
1030.923, 1584.323
1032.162, 1580.374
1033.401, 1554.613
1034.640, 1535.983
1035.879, 1504.377
1037.117, 1449.800
1038.355, 1395.926
1039.593, 1298.081
1040.831, 1251.158
1042.069, 1146.157
1043.306, 1054.077
1044.544, 1025.919
1045.781, 962.683
1047.017, 835.369
1048.254, 859.978
1049.490, 716.510
1050.726, 700.965
1051.962, 670.344
1053.198, 601.646
1054.434, 572.870
1055.669, 527.015
1056.904, 489.080
1058.139, 499.064
1059.374, 441.974
1060.608, 444.807
1061.843, 404.575
1063.077, 373.275
1064.311, 414.921
1065.544, 409.518
1066.778, 371.065
1068.011, 471.573
1069.244, 439.058
1070.477, 498.504
1071.710, 569.733
1072.942, 612.983
1074.174, 730.265
1075.406, 876.960
1076.638, 988.583
1077.870, 1171.789
1079.101, 1325.470
1080.332, 1501.886
1081.563, 1733.003
1082.794, 1973.462
1084.025, 2214.666
1085.255, 2383.557
1086.485, 2331.119
1087.715, 2416.846
1088.945, 2278.367
1090.175, 2244.666
1091.404, 2053.504
1092.633, 1822.991
1093.862, 1604.308
1095.091, 1344.070
1096.319, 1080.211
1097.548, 882.100
1098.776, 691.660
1100.004, 548.329
1101.231, 459.969
1102.459, 366.193
1103.686, 333.008
1104.913, 255.810
1106.140, 195.777
1107.367, 182.213
1108.593, 141.740
1109.819, 144.126
1111.046, 93.638
1112.271, 64.101
1113.497, 111.515
1114.722, 44.883
1115.948, 0.800
1117.173, 52.463
1118.398, 51.323
1119.622, 14.820
1120.847, 44.087
1122.071, 20.059
1123.295, 12.088
1124.519, 3.828
1125.742, 3.695
1126.966, 17.488
1128.189, 35.725
1129.412, 34.701
1130.635, 41.091
1131.857, 37.788
1133.080, 32.259
1134.302, 30.785
1135.524, 21.366
1136.746, 15.997
1137.967, 42.677
1139.188, 14.413
1140.410, 57.804
1141.631, 0.982
1142.851, 90.116
1144.072, 43.216
1145.292, 50.277
1146.512, 95.301
1147.732, 135.291
1148.952, 222.249
1150.172, 281.178
1151.391, 346.079
1152.610, 491.953
1153.829, 593.799
1155.048, 704.619
1156.266, 934.412
1157.484, 1144.179
1158.702, 1317.919
1159.920, 1548.632
1161.138, 1730.319
1162.356, 2008.979
1163.573, 2261.612
1164.790, 2665.219
1166.007, 3087.801
1167.224, 3625.356
1168.440, 4288.886
1169.656, 4993.391
1170.872, 5830.871
1172.088, 6774.328
1173.304, 7421.760
1174.519, 8132.167
1175.735, 8354.555
1176.950, 8395.913
1178.165, 8287.258
1179.379, 7623.574
1180.594, 6973.868
1181.808, 6381.142
1183.022, 5616.392
1184.236, 5224.624
1185.449, 4773.834
1186.663, 4410.023
1187.876, 4356.191
1189.089, 4192.340
1190.302, 4252.470
1191.515, 4371.578
1192.727, 4374.669
1193.939, 4577.741
1195.151, 4576.793
1196.363, 4530.828
1197.575, 4492.845
1198.786, 4350.844
1199.997, 4162.609
1201.208, 3967.242
1202.419, 3836.672
1203.630, 3839.932
1204.840, 3697.223
1206.051, 3767.232
1207.261, 3725.265
1208.470, 3684.962
1209.680, 3736.398
1210.889, 3626.185
1212.099, 3430.929
1213.308, 3340.353
1214.516, 3027.461
1215.725, 2910.426
1216.933, 2855.634
1218.142, 2582.136
1219.350, 2639.823
1220.557, 2607.587
1221.765, 2603.360
1222.972, 2693.188
1224.180, 2739.194
1225.387, 2773.369
1226.593, 2877.510
1227.800, 2904.787
1229.006, 3025.405
1230.213, 3034.418
1231.419, 3096.402
1232.624, 3045.927
1233.830, 3135.994
1235.035, 3014.257
1236.241, 3113.614
1237.446, 3071.655
1238.650, 3036.311
1239.855, 3105.577
1241.059, 3033.834
1242.264, 3017.877
1243.468, 3028.452
1244.671, 2884.741
1245.875, 2929.287
1247.078, 2624.762
1248.282, 2598.422
1249.485, 2394.420
1250.687, 2200.583
1251.890, 2128.927
1253.092, 1989.910
1254.295, 1833.192
1255.497, 1678.899
1256.699, 1634.121
1257.900, 1457.187
1259.102, 1412.548
1260.303, 1328.371
1261.504, 1229.767
1262.705, 1192.672
1263.905, 1149.360
1265.106, 1119.976
1266.306, 1091.037
1267.506, 1019.022
1268.706, 1023.271
1269.905, 940.841
1271.105, 881.426
1272.304, 921.590
1273.503, 862.149
1274.702, 912.776
1275.900, 934.186
1277.099, 862.753
1278.297, 926.558
1279.495, 950.449
1280.693, 906.664
1281.891, 1029.037
1283.088, 1030.573
1284.285, 1099.033
1285.482, 1184.320
1286.679, 1234.128
1287.876, 1362.655
1289.072, 1464.890
1290.268, 1550.208
1291.464, 1709.803
1292.660, 1780.582
1293.856, 1887.742
1295.051, 2041.960
1296.247, 2001.182
1297.442, 2176.386
1298.637, 2177.551
1299.831, 2123.665
1301.026, 2170.718
1302.220, 2153.692
1303.414, 2153.580
1304.608, 2057.378
1305.802, 2091.084
1306.995, 1982.735
1308.188, 1970.357
1309.381, 1883.964
1310.574, 1881.543
1311.767, 1852.117
1312.960, 1798.685
1314.152, 1757.247
1315.344, 1713.804
1316.536, 1666.354
1317.728, 1637.896
1318.919, 1558.586
1320.110, 1496.869
1321.301, 1395.472
1322.492, 1326.976
1323.683, 1229.469
1324.874, 1114.948
1326.064, 1105.412
1327.254, 1011.859
1328.444, 900.288
1329.634, 864.697
1330.823, 866.082
1332.013, 766.445
1333.202, 792.786
1334.391, 724.110
1335.580, 700.424
1336.768, 682.731
1337.956, 688.033
1339.145, 674.330
1340.333, 643.621
1341.520, 648.907
1342.708, 626.188
1343.895, 593.464
1345.083, 569.738
1346.270, 547.927
1347.456, 522.283
1348.643, 491.560
1349.829, 464.293
1351.016, 431.142
1352.202, 401.452
1353.387, 372.779
1354.573, 338.143
1355.759, 293.510
1356.944, 264.313
1358.129, 247.335
1359.314, 197.801
1360.498, 173.713
1361.683, 145.288
1362.867, 107.837
1364.051, 93.168
1365.235, 79.798
1366.419, 44.451
1367.602, 14.125
1368.785, 34.787
1369.968, 14.422
1371.151, 38.989
1372.334, 27.453
1373.517, 40.983
1374.699, 31.595
1375.881, 54.295
1377.063, 55.457
1378.245, 38.884
1379.426, 63.728
1380.608, 55.584
1381.789, 47.445
1382.970, 77.293
1384.150, 56.121
1385.331, 62.915
1386.511, 72.663
1387.691, 43.364
1388.871, 9.033
1390.051, 42.659
1391.231, 1.771
1392.410, 3.740
1393.589, 8.800
1394.768, 27.388
1395.947, 9.981
1397.126, 59.676
1398.304, 96.355
1399.483, 78.050
1400.661, 125.751
1401.838, 105.454
1403.016, 121.160
1404.194, 182.873
1405.371, 196.597
1406.548, 191.336
1407.725, 273.094
1408.901, 270.872
1410.078, 290.671
1411.254, 374.492
1412.430, 374.337
1413.606, 456.207
1414.782, 473.103
1415.958, 527.027
1417.133, 609.981
1418.308, 584.968
1419.483, 714.989
1420.658, 814.048
1421.832, 821.147
1423.007, 849.287
1424.181, 1006.470
1425.355, 978.700
1426.529, 1148.977
1427.702, 1212.303
1428.876, 1261.681
1430.049, 1395.111
1431.222, 1438.593
1432.395, 1472.129
1433.567, 1590.711
1434.740, 1661.347
1435.912, 1769.581
1437.084, 1836.140
1438.256, 1850.686
1439.428, 1986.101
1440.599, 1936.364
1441.770, 1879.580
1442.942, 1996.282
1444.112, 1944.052
1445.283, 1885.417
1446.454, 1935.926
1447.624, 1880.988
1448.794, 1887.649
1449.964, 1884.967
1451.134, 1704.420
1452.303, 1738.380
1453.473, 1707.580
1454.642, 1555.659
1455.811, 1551.588
1456.980, 1458.352
1458.148, 1353.936
1459.317, 1425.325
1460.485, 1281.499
