##NAMES=Titanite
##RRUFFID=R050114
##IDEAL CHEMISTRY=CaTi^4+^SiO_5_
##LOCALITY=Isthak Valley Iskardu, Northern Areas Gilgit, Pakistan
##OWNER=RRUFF
##SOURCE=Syed Shah
##DESCRIPTION=Yellowish-brown fragment
##STATUS=The identification of this mineral has been confirmed by X-ray diffraction and chemical analysis
##URL=rruff.info/R050114
##MEASURED CHEMISTRY=(Ca_0.99_Na_0.01_)(Ti_0.96_Al_0.03_Fe^3+^_0.01_)Si_1.00_O_4_(O_0.95_F_0.05_)
##PIN_ID=L00085
##ORIENTATION=Laser parallel to a* (1 0 0). Fiducial mark perpendicular to laser is parallel to -b [0 -1 0]
119.050, 0.000
120.447, 144.767
121.843, 137.936
123.240, 178.921
124.636, 29.344
126.031, 53.724
127.427, 63.700
128.822, 57.075
130.217, 71.425
131.612, 119.681
133.006, 190.908
134.400, 589.854
135.794, 1055.670
137.188, 1776.893
138.581, 2916.338
139.975, 3974.949
141.368, 5041.793
142.760, 5426.090
144.153, 5367.169
145.545, 4754.427
146.937, 3827.322
148.329, 3215.376
149.720, 3108.153
151.112, 3155.271
152.503, 3926.452
153.893, 4661.730
155.284, 6030.868
156.674, 7353.521
158.064, 8619.388
159.454, 9628.206
160.843, 10107.497
162.233, 10613.744
163.622, 10290.186
165.011, 9779.006
166.399, 9060.100
167.787, 8363.277
169.175, 7598.407
170.563, 7115.332
171.951, 6843.926
173.338, 6794.077
174.725, 7095.685
176.112, 7188.656
177.499, 7202.910
178.885, 7708.381
180.271, 7794.992
181.657, 7792.690
183.043, 7861.418
184.428, 7821.234
185.813, 7554.250
187.198, 7570.951
188.583, 7629.084
189.967, 7487.740
191.351, 7936.839
192.735, 8236.371
194.119, 8516.327
195.502, 8856.683
196.885, 9287.437
198.268, 9773.438
199.651, 10490.070
201.033, 10921.928
202.415, 11463.943
203.797, 12106.118
205.179, 12019.431
206.561, 12414.275
207.942, 12240.709
209.323, 12378.535
210.703, 11997.316
212.084, 11756.467
213.464, 11755.682
214.844, 11914.907
216.224, 11984.280
217.603, 12063.864
218.983, 12683.496
220.362, 12823.185
221.741, 13282.936
223.119, 13472.771
224.497, 13812.374
225.875, 14202.742
227.253, 14462.889
228.631, 14683.157
230.008, 14820.693
231.385, 14895.167
232.762, 14864.734
234.139, 14905.529
235.515, 14746.465
236.891, 14707.539
238.267, 14128.749
239.643, 14240.099
241.018, 14771.586
242.393, 14903.213
243.768, 16434.973
245.143, 17196.863
246.517, 18158.896
247.891, 19041.053
249.265, 20101.484
250.639, 20145.742
252.012, 20564.764
253.386, 20617.521
254.759, 20005.152
256.131, 19703.131
257.504, 18883.416
258.876, 17283.844
260.248, 15774.421
261.620, 14225.130
262.991, 12995.976
264.363, 11446.955
265.734, 10258.065
267.104, 9199.305
268.475, 8360.661
269.845, 7618.488
271.215, 6923.677
272.585, 6625.325
273.955, 6317.066
275.324, 6188.899
276.693, 6100.822
278.062, 6292.833
279.431, 6604.934
280.799, 6927.119
282.167, 7499.392
283.535, 8121.745
284.903, 8764.027
286.270, 9651.174
287.638, 10356.723
289.005, 10976.417
290.371, 11003.139
291.738, 10685.444
293.104, 9680.995
294.470, 8458.105
295.836, 7220.745
297.201, 6183.396
298.567, 5649.189
299.932, 5167.591
301.296, 5368.360
302.661, 5595.678
304.025, 5839.329
305.389, 6689.199
306.753, 7548.292
308.117, 9267.324
309.480, 10957.072
310.843, 13739.535
312.206, 17118.031
313.569, 20993.033
314.931, 25035.498
316.293, 27536.492
317.655, 28887.846
319.017, 27649.533
320.378, 25501.541
321.740, 23013.848
323.101, 20066.438
324.461, 18509.295
325.822, 17142.420
327.182, 15835.785
328.542, 15379.388
329.902, 15033.213
331.261, 14537.250
332.621, 14231.494
333.980, 13565.930
335.339, 12730.552
336.697, 11815.351
338.056, 10800.320
339.414, 9925.452
340.772, 9060.746
342.129, 8626.186
343.487, 8291.772
344.844, 8587.495
346.201, 8733.357
347.557, 9759.347
348.914, 10085.463
350.270, 10751.687
351.626, 10508.005
352.982, 10144.410
354.337, 9340.892
355.693, 7937.457
357.048, 6854.103
358.402, 5690.824
359.757, 4957.618
361.111, 4164.486
362.465, 3631.428
363.819, 3178.438
365.173, 2605.515
366.526, 2472.659
367.879, 1999.871
369.232, 1757.146
370.585, 1284.475
371.937, 991.852
373.290, 789.271
374.642, 316.729
375.993, 74.224
377.345, 144.246
378.696, 358.717
380.047, 466.236
381.398, 701.833
382.748, 630.562
384.099, 527.410
385.449, 575.350
386.799, 280.397
388.148, 294.484
389.497, 163.615
390.847, 92.762
392.196, 37.090
393.544, 176.966
394.893, 42.871
396.241, 250.801
397.589, 257.759
398.936, 414.745
400.284, 511.761
401.631, 758.803
402.978, 1085.872
404.325, 1402.970
405.672, 1680.094
407.018, 2157.241
408.364, 2734.415
409.710, 3561.613
411.055, 4468.836
412.401, 5836.036
413.746, 7593.018
415.091, 9409.630
416.435, 12255.943
417.780, 15022.111
419.124, 18538.217
420.468, 21574.352
421.812, 24030.504
423.155, 25856.695
424.498, 25572.916
425.842, 24879.170
427.184, 21745.453
428.527, 19281.777
429.869, 15888.120
431.211, 12954.500
432.553, 10440.908
433.895, 8337.350
435.236, 6813.818
436.577, 5130.318
437.918, 3876.847
439.259, 3193.404
440.599, 2109.992
441.940, 1476.607
443.280, 993.251
444.619, 459.927
445.959, 199.654
447.298, 140.467
448.637, 451.581
449.976, 650.807
451.315, 782.246
452.653, 834.970
453.991, 839.990
455.329, 854.347
456.667, 748.024
458.004, 729.997
459.341, 596.260
460.678, 454.756
462.015, 310.410
463.352, 61.163
464.688, 19.093
466.024, 119.367
467.360, 166.715
468.695, 200.134
470.031, 188.607
471.366, 109.117
472.701, 7.367
474.035, 69.104
475.370, 152.563
476.704, 504.039
478.038, 678.559
479.372, 883.120
480.705, 1397.724
482.038, 1682.367
483.371, 2027.053
484.704, 2791.777
486.037, 3106.541
487.369, 3471.345
488.701, 4026.187
490.033, 4081.065
491.365, 4365.984
492.696, 4630.938
494.027, 4675.931
495.358, 4630.957
496.689, 4846.020
498.019, 4671.117
499.350, 4596.248
500.680, 4561.413
502.009, 4326.611
503.339, 4371.842
504.668, 4357.104
505.997, 4102.400
507.326, 4317.726
508.655, 4313.083
509.983, 4308.470
511.311, 4443.890
512.639, 4759.336
513.967, 4904.814
515.295, 5050.321
516.622, 5235.859
517.949, 5311.428
519.276, 5697.023
520.602, 5846.418
521.929, 6148.305
523.255, 6323.988
524.581, 6779.704
525.906, 7045.444
527.232, 7321.216
528.557, 7757.018
529.882, 8202.846
531.207, 8468.703
532.531, 9144.590
533.855, 9280.504
535.179, 10176.449
536.503, 10462.421
537.827, 10871.988
539.150, 10970.311
540.473, 11262.581
541.796, 11111.551
543.119, 11324.456
544.441, 10842.814
545.764, 10548.385
547.086, 10639.820
548.407, 9930.319
549.729, 9527.583
551.050, 8588.277
552.371, 8314.665
553.692, 7651.095
555.013, 6997.563
556.333, 6174.073
557.653, 6000.622
558.973, 5427.212
560.293, 5193.843
561.612, 5320.513
562.932, 5427.225
564.251, 5913.977
565.569, 6620.770
566.888, 7457.604
568.206, 8804.478
569.524, 9451.394
570.842, 10938.352
572.160, 12185.352
573.477, 13322.394
574.795, 14769.479
576.112, 15876.611
577.428, 17373.797
578.745, 18761.021
580.061, 20198.297
581.377, 22235.621
582.693, 23962.994
584.009, 25690.410
585.324, 28367.877
586.639, 29575.395
587.954, 32592.955
589.269, 34480.570
590.583, 36628.234
591.897, 39495.938
593.212, 41583.695
594.525, 43905.156
595.839, 45919.355
597.152, 48167.262
598.465, 50585.211
599.778, 52423.211
601.091, 53451.254
602.403, 54579.445
603.716, 54881.602
605.028, 55345.316
606.339, 54983.141
607.651, 54451.250
608.962, 53109.641
610.273, 52078.047
611.584, 50159.113
612.895, 48314.758
614.205, 46535.512
615.515, 44728.133
616.825, 42712.086
618.135, 41153.336
619.444, 38334.746
620.754, 37823.570
622.063, 35193.336
623.372, 33412.523
624.680, 32508.986
625.989, 30564.240
627.297, 29634.951
628.605, 28203.387
629.912, 26789.684
631.220, 25790.537
632.527, 24580.432
633.834, 23863.457
635.141, 22623.504
636.447, 21823.738
637.754, 21034.182
639.060, 20214.840
640.366, 18995.689
641.671, 18426.752
642.977, 17518.004
644.282, 16819.451
645.587, 16211.068
646.892, 15952.837
648.196, 15054.731
649.501, 14526.753
650.805, 14258.851
652.109, 13311.019
653.412, 13223.254
654.716, 12605.548
656.019, 12257.904
657.322, 11940.316
658.625, 11292.787
659.927, 11005.318
661.230, 10627.909
662.532, 10270.555
663.834, 9903.265
665.135, 9556.027
666.437, 9348.850
667.738, 8981.736
669.039, 8584.670
670.340, 8547.669
671.640, 7910.723
672.940, 8183.836
674.241, 7427.006
675.540, 7420.230
676.840, 7163.516
678.139, 6916.855
679.439, 6590.254
680.738, 6392.947
682.036, 6087.219
683.335, 5980.787
684.633, 5784.411
685.931, 5628.094
687.229, 5511.830
688.527, 5215.626
689.824, 4899.479
691.121, 4793.386
692.418, 4597.350
693.715, 4541.372
695.012, 4295.484
696.308, 4249.740
697.604, 3934.160
698.900, 3958.805
700.195, 3653.653
701.491, 3728.686
702.786, 3533.912
704.081, 3199.264
705.376, 3234.747
706.670, 2960.332
707.964, 3006.003
709.259, 2981.734
710.552, 2757.519
711.846, 2643.362
713.139, 2509.258
714.433, 2525.205
715.726, 2151.205
717.018, 2297.255
718.311, 2113.355
719.603, 1939.507
720.895, 1925.707
722.187, 1861.958
723.479, 1708.258
724.770, 1634.606
726.061, 1548.870
727.352, 1485.449
728.643, 1394.941
729.934, 1320.481
731.224, 1246.068
732.514, 1279.702
733.804, 1207.381
735.094, 1054.106
736.383, 950.876
737.672, 1022.691
738.961, 803.550
740.250, 794.453
741.539, 780.400
742.827, 578.390
744.115, 758.421
745.403, 523.496
746.691, 459.611
747.978, 405.769
749.265, 328.967
750.552, 276.857
751.839, 246.482
753.126, 169.800
754.412, 123.156
755.698, 85.551
756.984, 13.984
758.270, 112.551
759.555, 140.098
760.840, 112.667
762.125, 258.180
763.410, 291.629
764.695, 252.986
765.979, 351.196
767.263, 263.299
768.547, 364.248
769.831, 289.091
771.114, 292.819
772.398, 282.438
773.681, 312.976
774.964, 293.484
776.246, 235.990
777.529, 149.527
778.811, 196.204
780.093, 149.717
781.375, 56.008
782.656, 121.669
783.937, 123.825
785.219, 159.182
786.499, 297.938
787.780, 344.152
789.060, 439.528
790.341, 716.281
791.621, 862.872
792.901, 984.612
794.180, 1057.120
795.459, 1212.333
796.739, 1388.959
798.017, 1467.392
799.296, 1700.212
800.575, 1816.785
801.853, 2024.439
803.131, 2066.194
804.409, 2206.911
805.686, 2355.890
806.964, 2483.484
808.241, 2796.121
809.518, 2954.750
810.795, 2969.370
812.071, 3463.981
813.347, 3282.587
814.623, 3661.184
815.899, 3789.772
817.175, 3908.356
818.450, 3946.932
819.726, 4085.502
821.001, 4224.079
822.275, 4532.647
823.550, 4651.216
824.824, 4939.792
826.098, 5008.361
827.372, 5246.941
828.646, 5475.514
829.920, 5484.076
831.193, 5722.662
832.466, 5851.245
833.739, 6089.832
835.011, 6278.428
836.284, 6517.052
837.556, 6935.702
838.828, 7574.365
840.100, 7763.047
841.371, 8581.769
842.642, 9020.504
843.914, 9829.257
845.184, 10538.040
846.455, 11346.820
847.726, 12475.598
848.996, 13044.354
850.266, 14263.093
851.536, 15301.805
852.805, 16160.486
854.075, 17269.133
855.344, 17877.756
856.613, 18696.348
857.881, 19844.896
859.150, 20323.424
860.418, 21061.912
861.686, 22020.359
862.954, 23458.771
864.222, 25117.152
865.489, 26795.488
866.756, 29713.797
868.023, 31892.053
869.290, 34030.285
870.557, 35168.473
871.823, 36676.613
873.089, 36314.719
874.355, 36232.781
875.621, 34990.801
876.886, 34448.785
878.152, 34796.715
879.417, 33784.613
880.682, 34732.469
881.946, 34390.266
883.211, 35518.035
884.475, 35285.746
885.739, 34913.418
887.003, 33981.043
888.266, 32358.617
889.530, 30436.148
890.793, 27743.629
892.056, 24441.061
893.318, 21888.449
894.581, 19025.785
895.843, 16793.068
897.105, 14740.305
898.367, 13157.491
899.629, 11994.625
900.890, 10751.705
902.152, 10618.737
903.413, 10225.712
904.673, 9722.635
905.934, 10019.507
907.194, 10066.324
908.454, 9923.088
909.714, 10209.703
910.974, 9912.340
912.234, 9513.368
913.493, 8755.769
914.752, 7749.796
916.011, 6751.728
917.270, 5855.786
918.528, 4903.949
919.786, 4001.116
921.044, 3102.224
922.302, 2634.584
923.560, 1971.573
924.817, 1588.015
926.074, 1310.511
927.331, 915.993
928.588, 766.687
929.844, 461.292
931.101, 337.000
932.357, 246.262
933.613, 45.643
934.868, 21.052
936.124, 91.700
937.379, 111.674
938.634, 148.882
939.889, 277.343
941.144, 282.128
942.398, 326.237
943.652, 327.697
944.906, 323.231
946.160, 316.963
947.414, 293.169
948.667, 241.007
949.920, 215.151
951.173, 115.588
952.426, 37.265
953.678, 7.140
954.931, 232.801
956.183, 350.643
957.435, 492.401
958.686, 800.089
959.938, 984.715
961.189, 1142.380
962.440, 1535.019
963.691, 1871.173
964.941, 2280.133
966.192, 2655.943
967.442, 3046.651
968.692, 3564.666
969.942, 3981.235
971.191, 4517.862
972.441, 4625.242
973.690, 5010.745
974.939, 5234.463
976.187, 5091.271
977.436, 5151.678
978.684, 4832.169
979.932, 4807.170
981.180, 4424.252
982.428, 4555.728
983.675, 4386.203
984.922, 4280.771
986.169, 4238.756
987.416, 4303.707
988.663, 4269.561
989.909, 4313.702
991.155, 4350.662
992.401, 4311.765
993.647, 4383.049
994.893, 4245.217
996.138, 4197.470
997.383, 4129.790
998.628, 4122.649
999.873, 4158.917
1001.117, 4025.600
1002.362, 3899.002
1003.606, 3906.333
1004.850, 3789.594
1006.093, 3842.783
1007.337, 3848.902
1008.580, 3750.950
1009.823, 3875.928
1011.066, 4042.833
1012.308, 4138.671
1013.551, 4416.437
1014.793, 4506.134
1016.035, 4910.758
1017.277, 5055.315
1018.518, 5187.800
1019.760, 5724.218
1021.001, 5871.564
1022.242, 6438.841
1023.483, 6506.050
1024.723, 6793.188
1025.964, 7240.258
1027.204, 7227.259
1028.444, 7534.193
1029.683, 7701.055
1030.923, 7717.853
1032.162, 7884.579
1033.401, 7971.237
1034.640, 7827.829
1035.879, 7914.352
1037.117, 7350.807
1038.355, 7567.197
1039.593, 7133.517
1040.831, 6669.770
1042.069, 6585.957
1043.306, 6062.078
1044.544, 5537.131
1045.781, 5309.119
1047.017, 4835.040
1048.254, 4679.896
1049.490, 4306.685
1050.726, 3868.409
1051.962, 3655.069
1053.198, 3267.663
1054.434, 3178.192
1055.669, 2815.656
1056.904, 2638.057
1058.139, 2549.394
1059.374, 2272.667
1060.608, 2132.903
1061.843, 1985.107
1063.077, 1754.272
1064.311, 1714.435
1065.544, 1605.604
1066.778, 1519.771
1068.011, 1478.959
1069.244, 1438.148
1070.477, 1355.364
1071.710, 1407.589
1072.942, 1517.824
1074.174, 1708.067
1075.406, 1869.327
1076.638, 2081.599
1077.870, 2466.869
1079.101, 2760.249
1080.332, 3137.403
1081.563, 3573.277
1082.794, 3957.141
1084.025, 4409.502
1085.255, 4630.652
1086.485, 4794.418
1087.715, 4759.722
1088.945, 4487.850
1090.175, 4460.586
1091.404, 3981.457
1092.633, 3503.176
1093.862, 3139.136
1095.091, 2537.431
1096.319, 2075.198
1097.548, 1660.226
1098.776, 1246.861
1100.004, 978.758
1101.231, 763.569
1102.459, 594.272
1103.686, 581.023
1104.913, 443.486
1106.140, 404.330
1107.367, 324.118
1108.593, 289.882
1109.819, 279.640
1111.046, 140.375
1112.271, 170.081
1113.497, 189.760
1114.722, 39.408
1115.948, 113.018
1117.173, 37.594
1118.398, 38.868
1119.622, 41.605
1120.847, 18.958
1122.071, 45.576
1123.295, 5.257
1124.519, 59.986
1125.742, 0.215
1126.966, 30.372
1128.189, 123.506
1129.412, 32.486
1130.635, 53.521
1131.857, 88.621
1133.080, 144.803
1134.302, 146.096
1135.524, 114.500
1136.746, 120.997
1137.967, 215.590
1139.188, 108.328
1140.410, 129.154
1141.631, 193.077
1142.851, 51.131
1144.072, 72.239
1145.292, 12.587
1146.512, 77.384
1147.732, 198.158
1148.952, 422.914
1150.172, 473.654
1151.391, 734.379
1152.610, 1033.089
1153.829, 1272.786
1155.048, 1768.469
1156.266, 2222.138
1157.484, 2677.795
1158.702, 3201.438
1159.920, 3670.068
1161.138, 4244.683
1162.356, 5093.287
1163.573, 5666.874
1164.790, 6962.447
1166.007, 8055.005
1167.224, 9667.548
1168.440, 11300.076
1169.656, 13372.592
1170.872, 15535.091
1172.088, 17737.580
1173.304, 19360.053
1174.519, 21422.512
1175.735, 21734.963
1176.950, 21607.396
1178.165, 21319.826
1179.379, 19592.242
1180.594, 17994.643
1181.808, 16677.033
1183.022, 14509.413
1184.236, 13831.785
1185.449, 12604.142
1186.663, 11996.492
1187.876, 11918.834
1189.089, 11881.164
1190.302, 12493.486
1191.515, 12855.797
1192.727, 13018.101
1193.939, 13910.396
1195.151, 13802.681
1196.363, 13514.958
1197.575, 13437.231
1198.786, 12849.492
1199.997, 12341.749
1201.208, 11813.999
1202.419, 11226.239
1203.630, 11098.479
1204.840, 10660.707
1206.051, 10512.934
1207.261, 10715.154
1208.470, 10407.369
1209.680, 10369.579
1210.889, 10131.785
1212.099, 9803.988
1213.308, 9886.187
1214.516, 9398.382
1215.725, 9110.576
1216.933, 9322.769
1218.142, 9104.958
1219.350, 9437.143
1220.557, 9639.323
1221.765, 9681.501
1222.972, 10493.678
1224.180, 10645.854
1225.387, 11018.042
1226.593, 11800.240
1227.800, 11942.454
1229.006, 12524.717
1230.213, 12717.033
1231.419, 12569.627
1232.624, 12962.114
1233.830, 13115.252
1235.035, 12722.416
1236.241, 13305.565
1237.446, 12905.420
1238.650, 13028.137
1239.855, 13184.241
1241.059, 12696.781
1242.264, 12929.232
1243.468, 12699.624
1244.671, 12274.355
1245.875, 12275.298
1247.078, 11265.257
1248.282, 10839.676
1249.485, 10485.591
1250.687, 9456.786
1251.890, 9265.911
1253.092, 8690.660
1254.295, 7819.463
1255.497, 7644.569
1256.699, 7148.491
1257.900, 6713.149
1259.102, 6406.773
1260.303, 5909.529
1261.504, 5839.940
1262.705, 5528.648
1263.905, 5215.245
1265.106, 5245.036
1266.306, 4987.652
1267.506, 4775.002
1268.706, 4791.212
1269.905, 4534.770
1271.105, 4557.193
1272.304, 4670.058
1273.503, 4307.790
1274.702, 4424.077
1275.900, 4450.315
1277.099, 4379.413
1278.297, 4539.043
1279.495, 4373.657
1280.693, 4621.321
1281.891, 4861.645
1283.088, 4823.106
1284.285, 5275.374
1285.482, 5570.415
1286.679, 5713.524
1287.876, 6352.501
1289.072, 6452.364
1290.268, 6915.643
1291.464, 7529.464
1292.660, 7603.828
1293.856, 8218.430
1295.051, 8483.053
1296.247, 8507.707
1297.442, 9222.388
1298.637, 9207.097
1299.831, 8901.827
1301.026, 9326.530
1302.220, 9021.097
1303.414, 8965.562
1304.608, 8759.890
1305.802, 8524.046
1306.995, 8618.041
1308.188, 8221.943
1309.381, 7955.786
1310.574, 7999.562
1311.767, 7643.317
1312.960, 7567.078
1314.152, 7360.843
1315.344, 6944.611
1316.536, 7058.382
1317.728, 6752.155
1318.919, 6265.929
1320.110, 6094.702
1321.301, 5695.473
1322.492, 5429.240
1323.683, 5127.000
1324.874, 4667.754
1326.064, 4445.498
1327.254, 4140.226
1328.444, 3728.941
1329.634, 3643.635
1330.823, 3305.306
1332.013, 3148.949
1333.202, 3181.562
1334.391, 2842.149
1335.580, 2712.721
1336.768, 2718.290
1337.956, 2458.860
1339.145, 2438.436
1340.333, 2370.016
1341.520, 2302.600
1342.708, 2239.189
1343.895, 2080.782
1345.083, 1959.379
1346.270, 1985.983
1347.456, 1751.596
1348.643, 1792.222
1349.829, 1708.867
1351.016, 1501.537
1352.202, 1466.235
1353.387, 1300.965
1354.573, 1190.731
1355.759, 1167.540
1356.944, 977.154
1358.129, 871.074
1359.314, 821.420
1360.498, 669.490
1361.683, 615.490
1362.867, 586.397
1364.051, 368.098
1365.235, 436.353
1366.419, 302.652
1367.602, 209.996
1368.785, 269.385
1369.968, 115.815
1371.151, 140.255
1372.334, 100.672
1373.517, 28.981
1374.699, 116.169
1375.881, 0.788
1377.063, 68.887
1378.245, 8.876
1379.426, 105.469
1380.608, 147.875
1381.789, 39.324
1382.970, 138.783
1384.150, 134.226
1385.331, 98.632
1386.511, 164.987
1387.691, 102.268
1388.871, 84.469
1390.051, 153.596
1391.231, 16.608
1392.410, 99.462
1393.589, 65.096
1394.768, 7.500
1395.947, 58.673
1397.126, 1.389
1398.304, 15.566
1399.483, 4.781
1400.661, 167.016
1401.838, 90.268
1403.016, 89.539
1404.194, 211.828
1405.371, 198.141
1406.548, 233.488
1407.725, 318.875
1408.901, 289.308
1410.078, 330.789
1411.254, 418.320
1412.430, 386.901
1413.606, 492.536
1414.782, 553.225
1415.958, 533.971
1417.133, 716.778
1418.308, 735.648
1419.483, 806.586
1420.658, 935.596
1421.832, 1022.681
1423.007, 1114.844
1424.181, 1238.088
1425.355, 1321.416
1426.529, 1478.832
1427.702, 1630.337
1428.876, 1625.935
1430.049, 1863.628
1431.222, 1901.410
1432.395, 1981.278
1433.567, 2177.239
1434.740, 2244.305
1435.912, 2399.451
1437.084, 2454.662
1438.256, 2461.940
1439.428, 2615.875
1440.599, 2737.098
1441.770, 2608.007
1442.942, 2774.018
1444.112, 2685.135
1445.283, 2636.593
1446.454, 2619.868
1447.624, 2488.304
1448.794, 2476.634
1449.964, 2512.334
1451.134, 2231.639
1452.303, 2259.645
1453.473, 2221.627
1454.642, 2076.361
1455.811, 2107.147
1456.980, 1948.697
1458.148, 1877.986
1459.317, 1768.989
1460.485, 1569.676
1461.653, 1489.013
1462.821, 1378.225
1463.989, 1197.481
1465.156, 1184.519
1466.323, 1122.020
1467.490, 979.919
1468.657, 978.146
1469.824, 811.616
