##NAMES=Titanite
##RRUFFID=R040033
##IDEAL CHEMISTRY=CaTi^4+^SiO_5_
##LOCALITY=Brazil
##OWNER=RRUFF
##SOURCE=University of Arizona Mineral Museum
##DESCRIPTION=Green flattened wedge-shaped single crystals
##STATUS=The identification of this mineral has been confirmed by X-ray diffraction and chemical analysis
##URL=rruff.info/R040033
##MEASURED CHEMISTRY=(Ca_0.97_Fe^3+^_0.03_)_Σ=1_(Ti_0.97_Al_0.03_)_Σ=1_Si_1.00_O_5_; Fe^3+^ assigned for charge balance
##PIN_ID=L00157
##ORIENTATION=Laser parallel to -b* (0 -1 0). Fiducial mark perpendicular to laser is parallel to c [0 0 1]
51.466, 0.000
52.866, 137.431
54.266, 289.397
55.666, 374.550
57.065, 455.350
58.464, 254.635
59.863, 36.797
61.262, 76.237
62.661, 134.259
64.059, 112.055
65.458, 17.781
66.856, 227.864
68.253, 452.964
69.651, 793.986
71.048, 1165.955
72.445, 1618.007
73.842, 2013.364
75.239, 2495.343
76.635, 3002.416
78.031, 3343.157
79.427, 3745.144
80.823, 3837.966
82.218, 3986.230
83.614, 3968.572
85.009, 3977.655
86.404, 4089.170
87.798, 4067.835
89.193, 4205.388
90.587, 4130.595
91.981, 4297.235
93.375, 4203.105
94.768, 4334.958
96.161, 4355.577
97.554, 4395.909
98.947, 4531.050
100.340, 4613.127
101.732, 4873.144
103.124, 4964.947
104.516, 5080.318
105.908, 5243.073
107.300, 5358.047
108.691, 5529.094
110.082, 5385.086
111.473, 5390.907
112.864, 5477.451
114.254, 5575.625
115.644, 5527.345
117.034, 5570.531
118.424, 5511.112
119.813, 5743.022
121.203, 5804.203
122.592, 6018.598
123.981, 6373.151
125.369, 6466.817
126.758, 6770.552
128.146, 6740.311
129.534, 6984.057
130.922, 6777.750
132.309, 6951.356
133.696, 6689.849
135.083, 6968.969
136.470, 6972.047
137.857, 7356.278
139.243, 7601.071
140.630, 7902.832
142.016, 8007.392
143.401, 8132.489
144.787, 8074.607
146.172, 7949.858
147.557, 7794.026
148.942, 8040.715
150.327, 8513.274
151.711, 9525.667
153.096, 10942.113
154.480, 12523.535
155.863, 14315.954
157.247, 16389.404
158.630, 17674.902
160.013, 18746.469
161.396, 19032.115
162.779, 18556.859
164.161, 17618.717
165.544, 16536.693
166.926, 15454.805
168.308, 14576.054
169.689, 14001.820
171.070, 13513.000
172.452, 13326.710
173.833, 13144.581
175.213, 13244.623
176.594, 13182.836
177.974, 13498.220
179.354, 13895.786
180.734, 13716.523
182.114, 13748.445
183.493, 13759.549
184.872, 13582.829
186.251, 13504.288
187.630, 13087.927
189.008, 13281.739
190.387, 13554.729
191.765, 13679.891
193.143, 14093.226
194.520, 14176.731
195.898, 14723.411
197.275, 15110.259
198.652, 15762.277
200.029, 16153.458
201.405, 16924.811
202.782, 17343.328
204.158, 17905.936
205.534, 18984.859
206.909, 18928.871
208.285, 19358.043
209.660, 19771.369
211.035, 19543.867
212.410, 19715.523
213.784, 19797.338
215.159, 20159.309
216.533, 20367.436
217.907, 20664.623
219.281, 21030.375
220.654, 21354.098
222.027, 21878.938
223.400, 22133.014
224.773, 22550.760
226.146, 22467.305
227.518, 22685.906
228.891, 22607.178
230.263, 22572.941
231.634, 22455.162
233.006, 22127.848
234.377, 22018.625
235.748, 21865.002
237.119, 21878.072
238.490, 22573.838
239.860, 23213.127
241.231, 24715.414
242.601, 26015.951
243.970, 27780.742
245.340, 29894.984
246.709, 31455.723
248.079, 33437.324
249.448, 34218.008
250.816, 35176.090
252.185, 35481.281
253.553, 35533.953
254.921, 34987.074
256.289, 33600.633
257.657, 31627.613
259.024, 29769.996
260.391, 27593.768
261.758, 24808.918
263.125, 22942.439
264.492, 20832.309
265.858, 18866.520
267.224, 17486.049
268.590, 15705.900
269.956, 14945.048
271.321, 14059.483
272.687, 13144.203
274.052, 12294.192
275.416, 12113.444
276.781, 11530.945
278.146, 11105.693
279.510, 11244.679
280.874, 11023.896
282.237, 11220.340
283.601, 10892.999
284.964, 11042.870
286.327, 11038.946
287.690, 10669.224
289.053, 10286.700
290.416, 9898.363
291.778, 9265.214
293.140, 9135.243
294.502, 9106.452
295.863, 9788.833
297.225, 10797.387
298.586, 11612.099
299.947, 12822.976
301.308, 13391.016
302.668, 14033.219
304.029, 14658.581
305.389, 14854.100
306.749, 15207.767
308.108, 15755.567
309.468, 16016.494
310.827, 16528.529
312.186, 16743.670
313.545, 17180.891
314.903, 17199.195
316.262, 16623.568
317.620, 16183.025
318.978, 15602.554
320.336, 15062.161
321.693, 14532.851
323.051, 14634.610
324.408, 14386.449
325.765, 14970.372
327.121, 15220.367
328.478, 15769.444
329.834, 16540.594
331.190, 16931.828
332.546, 16970.135
333.902, 16922.523
335.257, 16430.986
336.612, 15750.530
337.967, 14781.150
339.322, 13502.847
340.677, 12808.621
342.031, 11820.471
343.385, 10927.398
344.739, 10054.400
346.093, 9369.018
347.446, 8726.631
348.799, 8260.861
350.153, 7774.165
351.505, 7513.543
352.858, 7247.994
354.210, 6929.522
355.563, 6630.122
356.915, 6334.796
358.267, 6230.542
359.618, 5928.362
360.969, 5834.256
362.321, 5535.222
363.672, 5259.261
365.022, 5085.370
366.373, 4527.553
367.723, 4239.807
369.073, 3761.132
370.423, 3339.528
371.773, 2831.994
373.122, 2556.530
374.471, 2043.136
375.821, 1543.811
377.169, 1214.555
378.518, 712.368
379.866, 503.249
381.215, 334.312
382.563, 97.559
383.910, 34.959
385.258, 93.511
386.605, 234.907
387.952, 360.295
389.299, 481.728
390.646, 601.264
391.992, 906.969
393.339, 1079.011
394.685, 1270.493
396.031, 1371.513
397.376, 1602.127
398.722, 1596.456
400.067, 1677.499
401.412, 1654.302
402.757, 1554.856
404.101, 1512.119
405.446, 1402.071
406.790, 1193.912
408.134, 1089.791
409.478, 702.411
410.821, 388.334
412.165, 90.411
413.508, 611.493
414.851, 1224.507
416.193, 1951.630
417.536, 2768.862
418.878, 3735.200
420.220, 4368.644
421.562, 4875.190
422.904, 5309.839
424.245, 5314.589
425.586, 5206.439
426.927, 4827.389
428.268, 4672.438
429.609, 4260.583
430.949, 4112.825
432.289, 4067.162
433.629, 3891.593
434.969, 4051.119
436.309, 3940.739
437.648, 4099.451
438.987, 4116.254
440.326, 4196.149
441.665, 4385.136
443.003, 4575.212
444.342, 4637.377
445.680, 4911.635
447.018, 5262.982
448.355, 5561.416
449.693, 6102.940
451.030, 6972.554
452.367, 8056.260
453.704, 9160.055
455.041, 10653.939
456.377, 12428.917
457.713, 14800.981
459.049, 17378.135
460.385, 20075.385
461.721, 23541.748
463.056, 26325.195
464.391, 28513.748
465.726, 30386.404
467.061, 30025.158
468.395, 28113.014
469.730, 25486.986
471.064, 21487.086
472.398, 18094.312
473.731, 14257.654
475.065, 11592.124
476.398, 9142.720
477.731, 7284.454
479.064, 5747.313
480.397, 4580.316
481.729, 3846.467
483.062, 3059.752
484.394, 2725.185
485.725, 2410.733
487.057, 2175.432
488.389, 2099.260
489.720, 2055.232
491.051, 2015.350
492.382, 2048.606
493.712, 2067.021
495.043, 2113.578
496.373, 2049.282
497.703, 2254.141
499.032, 2288.166
500.362, 2249.329
501.691, 2488.624
503.020, 2404.065
504.349, 2632.638
505.678, 2662.346
507.007, 2820.203
508.335, 3066.199
509.663, 3305.341
510.991, 3618.620
512.319, 3913.045
513.646, 4117.617
514.973, 4213.331
516.300, 4608.195
517.627, 5021.205
518.954, 5271.359
520.280, 5746.657
521.607, 6191.100
522.933, 6643.689
524.259, 7315.432
525.584, 7681.294
526.910, 8517.256
528.235, 9259.313
529.560, 10447.468
530.885, 11299.715
532.209, 12138.074
533.534, 13465.558
534.858, 14333.156
536.182, 15501.866
537.506, 16370.682
538.829, 17394.598
540.152, 17905.604
541.476, 18893.703
542.799, 19246.137
544.121, 19550.639
545.444, 19791.428
546.766, 19875.873
548.088, 19856.352
549.410, 19682.080
550.732, 19141.168
552.053, 18433.535
553.375, 17417.672
554.696, 16433.461
556.017, 15602.224
557.337, 14626.394
558.658, 13490.838
559.978, 12376.512
561.298, 11274.496
562.618, 10230.438
563.938, 8985.896
565.257, 7977.886
566.576, 6819.188
567.895, 6083.722
569.214, 5616.106
570.533, 5215.093
571.851, 5097.333
573.170, 5442.106
574.488, 5870.032
575.805, 6490.105
577.123, 7096.327
578.440, 8067.702
579.758, 9247.218
581.075, 10189.887
582.391, 12032.695
583.708, 13013.660
585.024, 14468.762
586.341, 16487.016
587.657, 18264.408
588.972, 20522.953
590.288, 22669.637
591.603, 24900.096
592.918, 27080.438
594.233, 29687.555
595.548, 32421.812
596.863, 35053.215
598.177, 38135.746
599.491, 40835.430
600.805, 43009.254
602.119, 45406.211
603.432, 47277.312
604.746, 49267.555
606.059, 49973.934
607.372, 50408.504
608.685, 50778.184
609.997, 50124.953
611.309, 49212.887
612.621, 48221.352
613.933, 47138.879
615.245, 45588.293
616.557, 43938.543
617.868, 42095.355
619.179, 40362.398
620.490, 37918.473
621.801, 36979.215
623.111, 34804.512
624.421, 33647.555
625.731, 31165.951
627.041, 30461.805
628.351, 28462.615
629.660, 27233.537
630.970, 26321.113
632.279, 24391.059
633.588, 23383.887
634.896, 21841.443
636.205, 21334.895
637.513, 19723.580
638.821, 19146.162
640.129, 18279.852
641.437, 17347.908
642.744, 16481.227
644.051, 15698.938
645.358, 15382.161
646.665, 14720.915
647.972, 13922.169
649.278, 13577.980
650.584, 12969.072
651.890, 12747.312
653.196, 12090.160
654.502, 12000.942
655.807, 11083.167
657.113, 10828.941
658.418, 10673.924
659.722, 10145.452
661.027, 9661.301
662.331, 9515.193
663.636, 9089.709
664.940, 8667.895
666.244, 8615.406
667.547, 8145.927
668.851, 8090.600
670.154, 7545.763
671.457, 7273.708
672.760, 7206.979
674.062, 6857.228
675.365, 6816.315
676.667, 6422.867
677.969, 6266.479
679.271, 6131.731
680.572, 5682.875
681.874, 5754.289
683.175, 5528.709
684.476, 5207.842
685.777, 5179.396
687.077, 4870.496
688.378, 4831.347
689.678, 4627.235
690.978, 4445.789
692.278, 4122.304
693.577, 4226.285
694.877, 3946.246
696.176, 3869.559
697.475, 3714.069
698.774, 3576.691
700.072, 3445.888
701.371, 3332.913
702.669, 3008.141
703.967, 3067.510
705.265, 3062.196
706.562, 2802.962
707.860, 2576.712
709.157, 2610.985
710.454, 2386.422
711.751, 2428.323
713.047, 2186.425
714.344, 2052.000
715.640, 2095.042
716.936, 1824.574
718.232, 1925.587
719.527, 1791.057
720.823, 1740.974
722.118, 1647.308
723.413, 1517.008
724.708, 1450.046
726.002, 1387.310
727.297, 1255.776
728.591, 1264.321
729.885, 1255.896
731.179, 1118.500
732.472, 1016.133
733.766, 1023.794
735.059, 1012.480
736.352, 970.193
737.645, 867.931
738.937, 774.692
740.230, 740.477
741.522, 682.283
742.814, 649.109
744.106, 655.958
745.397, 465.824
746.689, 331.707
747.980, 391.605
749.271, 345.517
750.562, 395.442
751.853, 273.379
753.143, 294.327
754.433, 196.284
755.723, 173.250
757.013, 212.222
758.303, 33.199
759.592, 123.180
760.881, 40.163
762.170, 14.146
763.459, 19.128
764.748, 55.894
766.036, 28.067
767.325, 22.977
768.613, 15.035
769.901, 7.892
771.188, 40.192
772.476, 57.298
773.763, 113.433
775.050, 53.388
776.337, 67.846
777.624, 116.875
778.910, 63.782
780.196, 66.240
781.482, 157.636
782.768, 166.580
784.054, 161.018
785.339, 113.649
786.625, 163.935
787.910, 154.666
789.195, 176.926
790.479, 151.041
791.764, 199.110
793.048, 224.605
794.332, 151.279
795.616, 201.901
796.900, 80.281
798.183, 199.874
799.467, 116.837
800.750, 170.582
802.033, 171.695
803.316, 141.904
804.598, 203.371
805.880, 151.354
807.163, 154.523
808.445, 178.988
809.726, 227.505
811.008, 102.642
812.289, 83.935
813.570, 134.459
814.851, 69.863
816.132, 80.672
817.413, 132.663
818.693, 89.886
819.973, 105.381
821.253, 84.096
822.533, 97.073
823.813, 99.536
825.092, 90.829
826.371, 106.784
827.650, 85.473
828.929, 77.885
830.208, 80.377
831.486, 76.593
832.764, 81.989
834.042, 91.569
835.320, 20.659
836.598, 142.752
837.875, 162.376
839.152, 154.403
840.429, 233.498
841.706, 77.246
842.983, 23.872
844.259, 73.350
845.536, 79.700
846.812, 151.924
848.088, 160.043
849.363, 236.058
850.639, 293.984
851.914, 296.828
853.189, 343.689
854.464, 388.272
855.739, 372.878
857.013, 379.404
858.288, 373.850
859.562, 391.211
860.836, 449.488
862.110, 409.682
863.383, 451.790
864.656, 440.811
865.930, 514.743
867.203, 545.585
868.475, 563.335
869.748, 579.992
871.020, 620.551
872.292, 638.010
873.564, 652.923
874.836, 622.620
876.108, 671.766
877.379, 642.803
878.650, 641.729
879.922, 681.543
881.192, 654.244
882.463, 646.885
883.733, 666.605
885.004, 745.343
886.274, 659.041
887.544, 758.716
888.813, 659.308
890.083, 691.742
891.352, 652.417
892.621, 651.134
893.890, 705.290
895.159, 711.772
896.427, 687.387
897.695, 798.533
898.964, 832.319
900.232, 944.347
901.499, 1131.689
902.767, 1278.381
904.034, 1438.013
905.301, 1708.335
906.568, 1995.556
907.835, 2202.826
909.102, 2468.777
910.368, 2502.677
911.634, 2611.385
912.900, 2496.732
914.166, 2453.253
915.432, 2124.366
916.697, 1924.493
917.962, 1652.384
919.227, 1435.084
920.492, 1271.199
921.757, 1121.243
923.021, 985.388
924.285, 886.083
925.550, 787.554
926.813, 727.763
928.077, 655.126
929.341, 600.856
930.604, 577.966
931.867, 536.378
933.130, 528.410
934.393, 559.936
935.655, 434.504
936.918, 507.885
938.180, 470.700
939.442, 419.194
940.703, 438.757
941.965, 414.604
943.226, 398.560
944.488, 406.255
945.749, 396.601
947.009, 378.721
948.270, 409.952
949.530, 414.881
950.791, 420.648
952.051, 470.248
953.311, 485.881
954.570, 468.349
955.830, 472.953
957.089, 500.313
958.348, 493.433
959.607, 499.031
960.866, 471.471
962.124, 507.666
963.383, 502.674
964.641, 517.057
965.899, 457.024
967.156, 494.494
968.414, 495.128
969.671, 496.862
970.928, 515.094
972.185, 516.697
973.442, 531.078
974.699, 515.460
975.955, 493.226
977.211, 459.274
978.468, 489.092
979.723, 505.887
980.979, 475.009
982.234, 565.526
983.490, 497.692
984.745, 492.463
986.000, 550.175
987.254, 506.617
988.509, 511.135
989.763, 546.700
991.017, 564.866
992.271, 504.429
993.525, 550.114
994.779, 537.778
996.032, 553.849
997.285, 575.909
998.538, 575.365
999.791, 611.318
1001.044, 612.195
1002.296, 682.994
1003.548, 732.902
1004.800, 786.106
1006.052, 815.395
1007.304, 873.462
1008.555, 887.476
1009.807, 943.118
1011.058, 962.669
1012.309, 1002.499
1013.559, 959.116
1014.810, 956.761
1016.060, 971.281
1017.310, 932.108
1018.560, 925.282
1019.810, 869.684
1021.060, 877.955
1022.309, 818.045
1023.558, 771.090
1024.807, 671.017
1026.056, 664.870
1027.305, 552.644
1028.553, 526.339
1029.801, 445.957
1031.049, 379.497
1032.297, 340.959
1033.545, 292.672
1034.793, 259.677
1036.040, 239.878
1037.287, 217.026
1038.534, 211.094
1039.781, 214.082
1041.027, 168.992
1042.274, 147.822
1043.520, 198.569
1044.766, 143.239
1046.012, 110.829
1047.257, 150.337
1048.503, 176.766
1049.748, 131.122
1050.993, 200.399
1052.238, 137.602
1053.483, 127.728
1054.727, 147.777
1055.971, 142.751
1057.216, 119.651
1058.459, 140.475
1059.703, 129.225
1060.947, 134.902
1062.190, 160.507
1063.433, 122.042
1064.676, 147.507
1065.919, 130.903
1067.162, 147.231
1068.404, 149.499
1069.646, 153.700
1070.888, 160.840
1072.130, 159.918
1073.372, 162.933
1074.613, 168.621
1075.855, 188.820
1077.096, 181.453
1078.337, 174.506
1079.578, 184.143
1080.818, 169.461
1082.059, 173.240
1083.299, 176.872
1084.539, 172.936
1085.779, 183.380
1087.018, 156.893
1088.258, 137.955
1089.497, 141.338
1090.736, 132.128
1091.975, 121.656
1093.213, 120.528
1094.452, 107.693
1095.690, 113.357
1096.928, 117.840
1098.166, 119.005
1099.404, 67.197
1100.642, 20.609
1101.879, 68.761
1103.116, 24.050
1104.353, 56.287
1105.590, 47.647
1106.827, 54.365
1108.063, 40.249
1109.299, 66.157
1110.536, 34.960
1111.771, 4.749
1113.007, 33.640
1114.243, 14.076
1115.478, 31.224
1116.713, 2.712
1117.948, 31.245
1119.183, 6.905
1120.418, 39.762
1121.652, 84.571
1122.886, 41.481
1124.120, 65.415
1125.354, 43.189
1126.588, 23.920
1127.821, 24.918
1129.055, 1.946
1130.288, 14.002
1131.521, 60.113
1132.753, 11.204
1133.986, 28.354
1135.218, 22.460
1136.450, 8.577
1137.682, 43.727
1138.914, 30.835
1140.146, 36.945
1141.377, 60.779
1142.609, 48.747
1143.840, 23.913
1145.071, 26.906
1146.301, 52.094
1147.532, 46.125
1148.762, 1.661
1149.992, 57.282
1151.222, 3.233
1152.452, 23.018
1153.682, 41.875
1154.911, 50.724
1156.140, 42.488
1157.369, 74.227
1158.598, 102.944
1159.827, 72.640
1161.055, 49.338
1162.284, 64.110
1163.512, 55.980
1164.740, 83.746
1165.967, 76.416
1167.195, 73.495
1168.422, 84.059
1169.650, 106.607
1170.877, 97.219
1172.103, 127.724
1173.330, 139.640
1174.557, 153.038
1175.783, 176.520
1177.009, 176.161
1178.235, 197.575
1179.461, 178.942
1180.686, 211.313
1181.912, 191.436
1183.137, 204.419
1184.362, 168.290
1185.587, 154.017
1186.811, 138.694
1188.036, 146.538
1189.260, 119.951
1190.484, 122.199
1191.708, 130.827
1192.932, 115.030
1194.155, 165.313
1195.378, 140.506
1196.602, 108.642
1197.825, 137.743
1199.047, 105.418
1200.270, 104.532
1201.492, 162.662
1202.715, 131.886
1203.937, 146.162
1205.159, 110.165
1206.380, 164.353
1207.602, 123.458
1208.823, 153.623
1210.044, 135.030
1211.265, 164.326
1212.486, 175.663
1213.707, 178.922
1214.927, 159.260
1216.147, 130.632
1217.367, 130.045
1218.587, 107.506
1219.807, 105.954
1221.027, 101.898
1222.246, 55.470
1223.465, 68.121
1224.684, 76.682
1225.903, 34.903
1227.121, 76.498
1228.340, 73.125
1229.558, 70.872
1230.776, 56.521
1231.994, 54.137
1233.212, 89.856
1234.429, 100.125
1235.646, 90.938
1236.864, 62.514
1238.081, 58.184
1239.297, 65.788
1240.514, 32.388
1241.730, 85.678
1242.947, 72.319
1244.163, 32.995
1245.378, 62.679
1246.594, 57.112
1247.810, 27.627
1249.025, 105.162
1250.240, 60.629
1251.455, 91.099
1252.670, 67.490
1253.885, 16.538
1255.099, 58.562
1256.313, 55.177
1257.527, 36.835
1258.741, 15.805
1259.955, 26.189
1261.168, 29.433
1262.382, 11.807
1263.595, 9.977
1264.808, 0.497
1266.021, 5.297
1267.233, 32.757
1268.446, 11.910
1269.658, 5.398
1270.870, 37.023
1272.082, 28.564
1273.294, 11.956
1274.505, 11.165
1275.716, 8.363
1276.928, 0.673
1278.139, 12.318
1279.349, 3.607
1280.560, 21.030
1281.770, 18.089
1282.981, 4.696
1284.191, 9.492
1285.401, 3.921
1286.610, 24.596
1287.820, 29.947
1289.029, 3.563
1290.239, 24.816
1291.448, 4.795
1292.656, 11.697
1293.865, 6.838
1295.073, 23.340
1296.282, 15.713
1297.490, 24.904
1298.698, 25.450
1299.906, 20.882
1301.113, 46.351
1302.320, 50.828
1303.528, 44.093
1304.735, 40.020
1305.942, 27.569
1307.148, 4.010
1308.355, 4.487
1309.561, 1.028
1310.767, 11.545
1311.973, 12.913
1313.179, 25.606
1314.384, 24.168
1315.590, 3.820
1316.795, 24.430
1318.000, 30.939
1319.205, 1.669
1320.410, 15.268
1321.614, 4.139
1322.819, 22.447
1324.023, 29.026
1325.227, 10.589
1326.431, 19.146
1327.634, 16.698
1328.838, 21.236
1330.041, 29.771
1331.244, 34.289
1332.447, 0.196
1333.650, 8.311
1334.852, 5.815
1336.055, 17.317
1337.257, 8.816
1338.459, 8.688
1339.661, 41.806
1340.862, 15.702
1342.064, 13.783
1343.265, 8.266
1344.466, 31.745
1345.667, 5.220
1346.868, 24.694
1348.068, 4.164
1349.269, 36.632
1350.469, 34.098
1351.669, 25.561
1352.869, 32.023
1354.069, 21.622
1355.268, 2.061
1356.468, 18.393
1357.667, 6.845
1358.866, 28.296
1360.065, 47.928
1361.263, 52.377
1362.462, 20.823
1363.660, 40.268
1364.858, 8.182
1366.056, 5.258
1367.254, 7.676
1368.451, 27.114
1369.649, 12.448
1370.846, 27.888
1372.043, 4.312
1373.240, 22.265
1374.436, 15.145
1375.633, 24.553
1376.829, 14.953
1378.025, 11.642
1379.221, 2.238
1380.417, 29.173
1381.613, 2.606
1382.808, 9.397
1384.003, 16.106
1385.199, 12.182
1386.393, 11.602
1387.588, 14.297
1388.783, 19.079
1389.977, 21.722
1391.171, 4.508
1392.365, 14.089
1393.559, 1.285
1394.753, 15.802
1395.946, 27.481
1397.140, 7.170
1398.333, 8.604
1399.526, 9.958
1400.719, 0.402
1401.911, 25.828
1403.104, 18.300
1404.296, 15.768
1405.488, 36.188
1406.680, 14.801
1407.872, 5.193
1409.063, 30.485
1410.255, 14.229
1411.446, 24.202
1412.637, 28.795
1413.828, 12.518
1415.018, 11.241
1416.209, 17.767
1417.399, 9.054
1418.589, 50.840
1419.779, 46.464
1420.969, 13.033
1422.159, 47.679
1423.348, 48.921
1424.537, 47.537
1425.726, 47.025
1426.915, 1.563
1428.104, 38.229
1429.293, 12.559
1430.481, 45.010
1431.669, 58.892
1432.857, 30.426
1434.045, 62.853
1435.233, 47.346
1436.420, 73.822
1437.608, 67.454
1438.795, 46.087
1439.982, 60.336
1441.169, 80.794
1442.355, 74.422
1443.542, 75.026
1444.728, 84.330
1445.914, 83.529
1447.100, 88.505
1448.286, 88.954
1449.472, 76.260
1450.657, 70.760
1451.842, 104.459
1453.027, 43.782
1454.212, 104.138
1455.397, 77.004
1456.581, 98.364
1457.766, 106.849
1458.950, 76.489
1460.134, 89.583
1461.318, 95.100
1462.501, 76.569
1463.685, 78.799
1464.868, 67.987
