##NAMES=Titanite
##RRUFFID=R040033
##IDEAL CHEMISTRY=CaTi^4+^SiO_5_
##LOCALITY=Brazil
##OWNER=RRUFF
##SOURCE=University of Arizona Mineral Museum
##DESCRIPTION=Green flattened wedge-shaped single crystals
##STATUS=The identification of this mineral has been confirmed by X-ray diffraction and chemical analysis
##URL=rruff.info/R040033
##MEASURED CHEMISTRY=(Ca_0.97_Fe^3+^_0.03_)_Σ=1_(Ti_0.97_Al_0.03_)_Σ=1_Si_1.00_O_5_; Fe^3+^ assigned for charge balance
##PIN_ID=L00395
##ORIENTATION=Laser parallel to [-1 0 -1]. Fiducial mark perpendicular to laser is parallel to -b* (0 -1 0)
51.466, 0.000
52.866, 76.497
54.266, 128.627
55.666, 195.240
57.065, 111.892
58.464, 34.627
59.863, 35.422
61.262, 43.086
62.661, 3.830
64.059, 97.623
65.458, 157.683
66.856, 332.473
68.253, 566.527
69.651, 898.451
71.048, 1285.903
72.445, 1864.588
73.842, 2229.909
75.239, 2566.729
76.635, 3047.738
78.031, 3129.151
79.427, 3324.770
80.823, 3557.434
82.218, 3436.001
83.614, 3353.358
85.009, 3184.408
86.404, 2982.061
87.798, 2803.229
89.193, 2669.831
90.587, 2410.792
91.981, 2200.041
93.375, 1979.531
94.768, 1658.278
96.161, 1381.253
97.554, 1125.380
98.947, 935.563
100.340, 789.722
101.732, 607.787
103.124, 516.699
104.516, 496.407
105.908, 517.866
107.300, 477.038
108.691, 635.888
110.082, 993.386
111.473, 962.974
112.864, 940.778
114.254, 1035.836
115.644, 666.037
117.034, 452.893
118.424, 353.372
119.813, 377.447
121.203, 280.091
122.592, 237.280
123.981, 304.992
125.369, 301.209
126.758, 444.910
128.146, 367.078
129.534, 524.698
130.922, 493.754
132.309, 468.231
133.696, 461.206
135.083, 609.420
136.470, 627.470
137.857, 911.307
139.243, 1034.710
140.630, 1469.459
142.016, 1838.299
143.401, 2103.149
144.787, 2084.026
146.172, 1813.952
147.557, 1495.944
148.942, 1369.018
150.327, 1281.187
151.711, 1345.461
153.096, 1538.851
154.480, 1762.366
155.863, 2078.013
157.247, 2542.797
158.630, 2859.726
160.013, 3224.801
161.396, 3504.026
162.779, 3705.409
164.161, 3905.948
165.544, 4124.648
166.926, 4123.510
168.308, 4304.535
169.689, 4340.906
171.070, 4602.076
172.452, 5022.208
173.833, 5278.315
175.213, 5761.187
176.594, 5896.398
177.974, 6376.715
179.354, 6539.131
180.734, 6655.643
182.114, 6759.254
183.493, 7148.967
184.872, 6989.778
186.251, 7056.694
187.630, 6730.710
189.008, 6531.832
190.387, 6521.058
191.765, 6477.390
193.143, 6605.827
194.520, 6755.371
195.898, 7192.022
197.275, 7412.780
198.652, 7719.646
200.029, 7813.622
201.405, 7833.701
202.782, 7691.888
204.158, 7803.181
205.534, 7684.165
206.909, 7456.091
208.285, 7536.704
209.660, 7483.427
211.035, 7423.256
212.410, 7366.189
213.784, 7252.229
215.159, 7228.191
216.533, 7391.421
217.907, 7583.644
219.281, 7729.103
220.654, 7825.248
222.027, 8245.981
223.400, 8524.202
224.773, 8603.837
226.146, 8646.156
227.518, 8710.254
228.891, 8576.974
230.263, 8616.997
231.634, 8491.817
233.006, 8179.027
234.377, 7971.614
235.748, 7756.555
237.119, 7522.836
238.490, 7624.444
239.860, 7646.365
241.231, 8058.583
242.601, 8549.091
243.970, 9224.876
245.340, 9916.930
246.709, 10339.236
248.079, 11102.796
249.448, 11362.597
250.816, 11748.631
252.185, 11603.891
253.553, 11484.369
254.921, 11334.063
256.289, 10941.966
257.657, 10339.068
259.024, 9741.369
260.391, 9022.860
261.758, 8299.536
263.125, 7533.395
264.492, 6855.428
265.858, 6054.633
267.224, 5553.006
268.590, 4934.273
269.956, 4350.243
271.321, 3908.099
272.687, 3515.110
274.052, 3068.274
275.416, 2891.666
276.781, 2825.050
278.146, 2697.654
279.510, 2806.401
280.874, 2970.286
282.237, 3270.307
283.601, 3367.462
284.964, 3786.144
286.327, 4404.503
287.690, 4696.372
289.053, 4996.735
290.416, 5461.695
291.778, 5266.914
293.140, 5074.781
294.502, 4681.817
295.863, 4607.408
297.225, 4510.014
298.586, 4829.314
299.947, 5269.638
301.308, 5938.268
302.668, 6715.990
304.029, 7846.798
305.389, 9134.695
306.749, 10704.677
308.108, 13377.748
309.468, 16433.904
310.827, 20772.146
312.186, 25731.488
313.545, 31406.908
314.903, 36081.426
316.262, 37766.016
317.620, 37101.711
318.978, 32781.488
320.336, 28213.350
321.693, 23608.305
323.051, 19735.352
324.408, 16704.480
325.765, 14717.698
327.121, 12888.005
328.478, 11818.396
329.834, 10870.875
331.190, 10442.439
332.546, 9670.092
333.902, 9416.828
335.257, 8850.647
336.612, 8408.545
337.967, 7691.515
339.322, 7194.555
340.677, 6700.663
342.031, 6068.844
343.385, 5761.091
344.739, 5386.410
346.093, 4943.796
347.446, 4820.251
348.799, 4653.778
350.153, 4437.372
351.505, 4060.034
352.858, 3717.766
354.210, 3370.566
355.563, 3009.436
356.915, 2747.374
358.267, 2410.380
359.618, 2190.456
360.969, 1958.599
362.321, 1686.812
363.672, 1578.092
365.022, 1339.440
366.373, 1171.857
367.723, 1011.342
369.073, 721.896
370.423, 568.516
371.773, 318.206
373.122, 111.962
374.471, 122.786
375.821, 140.321
377.169, 190.405
378.518, 395.521
379.866, 457.829
381.215, 427.256
382.563, 423.785
383.910, 437.417
385.258, 430.154
386.605, 285.995
387.952, 319.873
389.299, 192.799
390.646, 68.723
391.992, 15.403
393.339, 67.610
394.685, 251.918
396.031, 522.333
397.376, 587.853
398.722, 963.477
400.067, 1310.204
401.412, 1582.032
402.757, 2164.962
404.101, 2579.992
405.446, 3225.121
406.790, 4143.349
408.134, 5251.674
409.478, 6788.095
410.821, 8576.613
412.165, 10909.227
413.508, 13938.937
414.851, 17057.736
416.193, 20678.639
417.536, 24764.625
418.878, 28870.709
420.220, 31469.885
421.562, 31911.150
422.904, 31364.508
424.245, 28628.957
425.586, 24308.502
426.927, 20263.135
428.268, 15978.854
429.609, 12650.667
430.949, 10105.569
432.289, 7966.557
433.629, 5946.637
434.969, 4735.805
436.309, 3528.062
437.648, 2758.406
438.987, 2057.846
440.326, 1437.373
441.665, 971.992
443.003, 662.707
444.342, 244.512
445.680, 33.576
447.018, 212.618
448.355, 439.695
449.693, 537.905
451.030, 581.301
452.367, 511.892
453.704, 643.662
455.041, 522.661
456.377, 475.839
457.713, 272.175
459.049, 99.558
460.385, 69.069
461.721, 473.805
463.056, 617.641
464.391, 913.566
465.726, 1330.589
467.061, 1447.713
468.395, 1597.946
469.730, 1734.306
471.064, 1624.776
472.398, 1729.360
473.731, 1579.060
475.065, 1748.889
476.398, 1735.836
477.731, 1975.916
479.064, 2108.099
480.397, 2352.393
481.729, 2526.807
483.062, 2630.317
484.394, 2927.929
485.725, 3064.631
487.057, 3328.431
488.389, 3422.320
489.720, 3433.301
491.051, 3488.373
492.382, 3501.535
493.712, 3438.789
495.043, 3435.134
496.373, 3357.572
497.703, 3196.102
499.032, 3073.724
500.362, 2929.438
501.691, 2750.245
503.020, 2607.146
504.349, 2642.138
505.678, 2486.224
507.007, 2505.404
508.335, 2449.678
509.663, 2521.043
510.991, 2704.504
512.319, 2652.059
513.646, 2829.707
514.973, 2760.450
516.300, 3123.286
517.627, 3049.218
518.954, 3138.243
520.280, 3348.364
521.607, 3429.579
522.933, 3711.890
524.259, 3853.295
525.584, 4069.795
526.910, 4475.390
528.235, 4792.080
529.560, 5201.296
530.885, 5561.749
532.209, 6092.726
533.534, 6652.798
534.858, 7133.967
536.182, 7641.491
537.506, 7977.447
538.829, 8315.261
540.152, 8465.698
541.476, 8719.826
542.799, 8626.175
544.121, 8776.817
545.444, 8845.905
546.766, 8547.883
548.088, 8449.077
549.410, 8414.244
550.732, 8059.881
552.053, 7668.762
553.375, 7061.373
554.696, 6537.097
556.017, 6183.930
557.337, 5762.870
558.658, 5396.920
559.978, 4950.080
561.298, 4815.347
562.618, 4473.724
563.938, 4448.207
565.257, 4653.800
566.576, 4538.500
567.895, 5082.307
569.214, 5468.224
570.533, 5646.248
571.851, 5990.380
573.170, 6390.778
574.488, 6974.965
575.805, 7393.418
577.123, 7862.979
578.440, 8713.646
579.758, 9764.423
581.075, 10465.304
582.391, 11625.295
583.708, 12747.391
585.024, 13873.594
586.341, 15500.901
587.657, 17148.320
588.972, 19014.838
590.288, 20461.469
591.603, 22282.199
592.918, 24449.039
594.233, 27060.984
595.548, 29449.037
596.863, 31728.988
598.177, 34237.258
599.491, 36529.262
600.805, 39042.594
602.119, 41074.664
603.432, 43445.156
604.746, 45419.707
606.059, 46255.559
607.372, 46718.199
608.685, 47484.887
609.997, 47126.684
611.309, 46282.930
612.621, 45192.871
613.933, 44441.234
615.245, 42581.848
616.557, 41445.766
617.868, 39872.941
619.179, 37810.695
620.490, 35896.137
621.801, 34628.527
623.111, 32704.527
624.421, 31477.498
625.731, 29232.375
627.041, 28658.830
628.351, 26522.105
629.660, 25399.154
630.970, 24638.240
632.279, 22893.529
633.588, 21941.043
634.896, 20479.939
636.205, 19951.379
637.513, 18432.502
638.821, 17688.242
640.129, 17088.061
641.437, 16174.248
642.744, 15257.604
644.051, 14659.128
645.358, 14093.791
646.665, 13452.618
647.972, 12856.610
649.278, 12488.743
650.584, 11998.017
651.890, 11811.423
653.196, 11297.949
654.502, 11103.604
655.807, 10347.380
657.113, 10024.282
658.418, 9795.291
659.722, 9492.416
661.027, 9105.657
662.331, 8841.018
663.636, 8605.481
664.940, 8096.053
666.244, 8093.728
667.547, 7615.504
668.851, 7473.385
670.154, 7281.366
671.457, 6815.450
672.760, 6921.633
674.062, 6425.916
675.365, 6312.299
676.667, 6013.781
677.969, 5822.363
679.271, 5615.044
680.572, 5253.820
681.874, 5409.697
683.175, 5191.672
684.476, 4943.741
685.777, 4898.906
687.077, 4471.171
688.378, 4546.529
689.678, 4368.984
690.978, 4074.532
692.278, 3830.177
693.577, 3984.957
694.877, 3734.889
696.176, 3722.015
697.475, 3487.351
698.774, 3436.890
700.072, 3271.631
701.371, 3065.576
702.669, 2867.724
703.967, 2937.041
705.265, 2894.535
706.562, 2687.178
707.860, 2475.940
709.157, 2519.805
710.454, 2219.760
711.751, 2348.801
713.047, 2075.930
714.344, 2044.145
715.640, 1992.443
716.936, 1834.828
718.232, 1966.297
719.527, 1822.849
720.823, 1718.483
722.118, 1636.201
723.413, 1582.000
724.708, 1469.880
726.002, 1415.841
727.297, 1264.882
728.591, 1309.002
729.885, 1302.201
731.179, 1147.478
732.472, 1058.832
733.766, 1061.263
735.059, 874.771
736.352, 851.354
737.645, 765.013
738.937, 720.748
740.230, 640.558
741.522, 564.444
742.814, 547.406
744.106, 524.446
745.397, 304.566
746.689, 219.763
747.980, 207.044
749.271, 176.405
750.562, 159.850
751.853, 29.627
753.143, 39.965
754.433, 21.367
755.723, 31.627
757.013, 16.802
758.303, 100.906
759.592, 85.973
760.881, 100.965
762.170, 121.852
763.459, 85.590
764.748, 155.142
766.036, 60.532
767.325, 124.734
768.613, 90.744
769.901, 80.588
771.188, 161.270
772.476, 52.871
773.763, 179.386
775.050, 53.906
776.337, 4.609
777.624, 36.819
778.910, 54.209
780.196, 89.568
781.482, 173.912
782.768, 90.282
784.054, 102.145
785.339, 119.225
786.625, 174.717
787.910, 118.813
789.195, 177.219
790.479, 47.029
791.764, 74.534
793.048, 116.343
794.332, 4.965
795.616, 16.712
796.900, 53.383
798.183, 10.560
799.467, 131.664
800.750, 170.345
802.033, 134.731
803.316, 326.820
804.598, 125.566
805.880, 494.469
807.163, 476.294
808.445, 582.623
809.726, 792.533
811.008, 916.278
812.289, 1034.957
813.570, 1217.882
814.851, 1388.229
816.132, 1532.333
817.413, 1706.161
818.693, 1936.052
819.973, 2126.906
821.253, 2273.301
822.533, 2655.864
823.813, 2804.178
825.092, 3086.491
826.371, 3387.831
827.650, 3597.191
828.929, 3850.566
830.208, 4103.816
831.486, 4298.432
832.764, 4589.875
834.042, 4838.334
835.320, 5075.811
836.598, 5472.302
837.875, 5793.809
839.152, 6138.327
840.429, 6671.860
841.706, 7052.407
842.983, 7382.965
844.259, 8089.534
845.536, 8338.112
846.812, 8880.699
848.088, 9376.290
849.363, 9807.892
850.639, 10440.500
851.914, 10810.113
853.189, 11118.729
854.464, 11827.347
855.739, 12290.964
857.013, 12517.581
858.288, 13006.191
859.562, 13649.799
860.836, 14368.399
862.110, 15282.214
863.383, 16309.575
864.656, 17419.152
865.930, 18852.719
867.203, 20131.268
868.475, 21344.811
869.748, 21441.340
871.020, 21415.852
872.292, 20127.354
873.564, 18131.844
874.836, 16122.312
876.108, 13541.769
877.379, 11975.207
878.650, 10016.626
879.922, 8655.028
881.192, 7456.413
882.463, 6570.775
883.733, 5762.119
885.004, 5050.442
886.274, 4501.742
887.544, 4170.021
888.813, 3604.317
890.083, 3357.550
891.352, 3075.808
892.621, 2836.521
893.890, 2882.266
895.159, 2834.043
896.427, 2894.733
897.695, 3318.651
898.964, 3459.032
900.232, 3957.576
901.499, 4325.871
902.767, 5076.942
904.034, 5890.702
905.301, 6651.659
906.568, 7934.765
907.835, 8660.019
909.102, 10171.956
910.368, 10017.722
911.634, 10155.307
912.900, 9826.479
914.166, 9201.139
915.432, 8024.866
916.697, 6725.666
917.962, 5789.327
919.227, 4670.771
920.492, 3930.879
921.757, 3079.604
923.021, 2533.763
924.285, 1992.860
925.550, 1649.206
926.813, 1350.989
928.077, 1077.698
929.341, 881.462
930.604, 735.100
931.867, 562.906
933.130, 352.181
934.393, 374.280
935.655, 206.671
936.918, 229.953
938.180, 110.478
939.442, 8.593
940.703, 57.646
941.965, 100.863
943.226, 58.318
944.488, 70.959
945.749, 76.073
947.009, 59.391
948.270, 119.459
949.530, 71.520
950.791, 85.555
952.051, 141.149
953.311, 119.229
954.570, 49.572
955.830, 27.034
957.089, 28.439
958.348, 47.708
959.607, 15.522
960.866, 24.944
962.124, 29.827
963.383, 101.084
964.641, 54.088
965.899, 75.343
967.156, 52.435
968.414, 177.551
969.671, 173.958
970.928, 182.815
972.185, 250.761
973.442, 224.405
974.699, 282.649
975.955, 411.154
977.211, 367.042
978.468, 365.987
979.723, 362.757
980.979, 288.900
982.234, 480.525
983.490, 374.123
984.745, 485.553
986.000, 470.047
987.254, 450.164
988.509, 616.732
989.763, 617.346
991.017, 666.890
992.271, 617.229
993.525, 635.131
994.779, 674.900
996.032, 688.736
997.285, 702.904
998.538, 601.289
999.791, 741.217
1001.044, 649.945
1002.296, 795.339
1003.548, 752.742
1004.800, 749.625
1006.052, 867.537
1007.304, 814.195
1008.555, 922.834
1009.807, 990.358
1011.058, 1033.609
1012.309, 1031.741
1013.559, 1051.749
1014.810, 1020.481
1016.060, 1101.146
1017.310, 1060.830
1018.560, 1042.386
1019.810, 1126.847
1021.060, 1145.239
1022.309, 1110.563
1023.558, 1043.818
1024.807, 957.005
1026.056, 901.123
1027.305, 815.480
1028.553, 735.152
1029.801, 656.062
1031.049, 587.903
1032.297, 513.675
1033.545, 492.378
1034.793, 429.011
1036.040, 360.575
1037.287, 383.069
1038.534, 326.494
1039.781, 361.847
1041.027, 329.631
1042.274, 265.344
1043.520, 259.481
1044.766, 253.544
1046.012, 161.532
1047.257, 141.435
1048.503, 182.252
1049.748, 42.990
1050.993, 107.627
1052.238, 61.173
1053.483, 75.625
1054.727, 73.983
1055.971, 110.254
1057.216, 38.435
1058.459, 40.479
1059.703, 39.477
1060.947, 83.338
1062.190, 32.125
1063.433, 67.829
1064.676, 57.459
1065.919, 36.020
1067.162, 137.498
1068.404, 49.922
1069.646, 59.263
1070.888, 218.536
1072.130, 118.757
1073.372, 112.910
1074.613, 109.018
1075.855, 120.051
1077.096, 139.038
1078.337, 144.021
1079.578, 201.803
1080.818, 194.579
1082.059, 159.290
1083.299, 236.940
1084.539, 231.556
1085.779, 278.630
1087.018, 252.875
1088.258, 282.485
1089.497, 263.638
1090.736, 298.046
1091.975, 207.804
1093.213, 264.215
1094.452, 238.884
1095.690, 191.376
1096.928, 222.823
1098.166, 135.458
1099.404, 105.983
1100.642, 47.542
1101.879, 60.490
1103.116, 57.709
1104.353, 50.191
1105.590, 30.703
1106.827, 53.581
1108.063, 5.776
1109.299, 9.322
1110.536, 43.801
1111.771, 2.410
1113.007, 15.044
1114.243, 7.606
1115.478, 4.720
1116.713, 10.632
1117.948, 32.688
1119.183, 6.094
1120.418, 71.120
1121.652, 99.751
1122.886, 147.290
1124.120, 101.010
1125.354, 20.391
1126.588, 33.486
1127.821, 21.038
1129.055, 2.448
1130.288, 48.742
1131.521, 44.260
1132.753, 56.454
1133.986, 40.857
1135.218, 78.100
1136.450, 16.475
1137.682, 125.685
1138.914, 4.727
1140.146, 19.663
1141.377, 63.427
1142.609, 71.119
1143.840, 54.888
1145.071, 140.458
1146.301, 91.974
1147.532, 18.432
1148.762, 33.828
1149.992, 65.162
1151.222, 55.438
1152.452, 112.655
1153.682, 96.817
1154.911, 133.924
1156.140, 121.977
1157.369, 132.976
1158.598, 181.921
1159.827, 193.815
1161.055, 206.659
1162.284, 315.453
1163.512, 322.197
1164.740, 233.895
1165.967, 247.543
1167.195, 342.145
1168.422, 324.698
1169.650, 423.205
1170.877, 424.665
1172.103, 513.078
1173.330, 570.444
1174.557, 782.765
1175.783, 830.039
1177.009, 951.268
1178.235, 1066.452
1179.461, 1057.591
1180.686, 1113.684
1181.912, 969.732
1183.137, 928.736
1184.362, 866.696
1185.587, 817.612
1186.811, 757.444
1188.036, 581.273
1189.260, 553.010
1190.484, 527.224
1191.708, 572.336
1192.932, 544.462
1194.155, 544.585
1195.378, 561.545
1196.602, 605.990
1197.825, 553.027
1199.047, 575.346
1200.270, 610.908
1201.492, 587.948
1202.715, 478.712
1203.937, 547.783
1205.159, 465.634
1206.380, 487.383
1207.602, 416.188
1208.823, 448.666
1210.044, 427.009
1211.265, 422.389
1212.486, 430.215
1213.707, 442.003
1214.927, 490.235
1216.147, 526.185
1217.367, 486.267
1218.587, 435.169
1219.807, 433.032
1221.027, 408.854
1222.246, 358.670
1223.465, 369.482
1224.684, 442.062
1225.903, 490.974
1227.121, 473.675
1228.340, 517.250
1229.558, 522.515
1230.776, 497.423
1231.994, 535.276
1233.212, 573.472
1234.429, 541.161
1235.646, 565.813
1236.864, 576.870
1238.081, 563.251
1239.297, 612.790
1240.514, 616.925
1241.730, 640.032
1242.947, 575.858
1244.163, 642.829
1245.378, 683.611
1246.594, 744.753
1247.810, 693.673
1249.025, 698.106
1250.240, 672.153
1251.455, 631.140
1252.670, 606.587
1253.885, 541.920
1255.099, 446.373
1256.313, 375.425
1257.527, 366.646
1258.741, 310.547
1259.955, 282.545
1261.168, 313.285
1262.382, 233.979
1263.595, 302.630
1264.808, 282.915
1266.021, 235.828
1267.233, 148.368
1268.446, 105.204
1269.658, 112.973
1270.870, 158.824
1272.082, 45.989
1273.294, 124.996
1274.505, 103.207
1275.716, 148.855
1276.928, 62.099
1278.139, 123.132
1279.349, 57.254
1280.560, 79.230
1281.770, 32.504
1282.981, 55.249
1284.191, 80.864
1285.401, 89.471
1286.610, 114.203
1287.820, 120.325
1289.029, 82.463
1290.239, 164.452
1291.448, 193.026
1292.656, 176.298
1293.865, 252.944
1295.073, 292.710
1296.282, 299.363
1297.490, 326.955
1298.698, 311.010
1299.906, 324.258
1301.113, 288.662
1302.320, 270.985
1303.528, 217.327
1304.735, 303.853
1305.942, 301.412
1307.148, 312.992
1308.355, 181.756
1309.561, 311.497
1310.767, 183.117
1311.973, 304.779
1313.179, 237.452
1314.384, 337.106
1315.590, 270.720
1316.795, 280.315
1318.000, 222.896
1319.205, 328.459
1320.410, 328.007
1321.614, 279.538
1322.819, 330.053
1324.023, 270.550
1325.227, 332.030
1326.431, 216.483
1327.634, 157.923
1328.838, 169.348
1330.041, 244.757
1331.244, 170.152
1332.447, 142.534
1333.650, 116.900
1334.852, 122.253
1336.055, 111.594
1337.257, 58.923
1338.459, 63.239
1339.661, 30.548
1340.862, 25.848
1342.064, 67.139
1343.265, 41.431
1344.466, 19.719
1345.667, 7.993
1346.868, 12.212
1348.068, 75.577
1349.269, 43.860
1350.469, 70.148
1351.669, 48.457
1352.869, 77.771
1354.069, 46.086
1355.268, 11.593
1356.468, 16.730
1357.667, 5.058
1358.866, 39.740
1360.065, 25.070
1361.263, 27.407
1362.462, 48.252
1363.660, 40.079
1364.858, 50.587
1366.056, 6.751
1367.254, 34.727
1368.451, 39.591
1369.649, 23.257
1370.846, 10.056
1372.043, 17.368
1373.240, 8.787
1374.436, 6.040
1375.633, 50.762
1376.829, 5.491
1378.025, 22.420
1379.221, 15.417
1380.417, 4.505
1381.613, 51.796
1382.808, 42.888
1384.003, 25.563
1385.199, 7.231
1386.393, 0.904
1387.588, 45.564
1388.783, 7.771
1389.977, 57.902
1391.171, 2.414
1392.365, 51.720
1393.559, 61.988
1394.753, 5.290
1395.946, 47.440
1397.140, 33.940
1398.333, 83.255
1399.526, 0.146
1400.719, 53.297
1401.911, 16.725
1403.104, 32.833
1404.296, 11.080
1405.488, 39.694
1406.680, 21.310
1407.872, 19.102
1409.063, 0.097
1410.255, 28.722
1411.446, 11.306
1412.637, 12.608
1413.828, 4.237
1415.018, 55.086
1416.209, 62.937
1417.399, 33.787
1418.589, 141.637
1419.779, 22.489
1420.969, 106.341
1422.159, 63.197
1423.348, 62.057
1424.537, 85.920
1425.726, 59.790
1426.915, 79.666
1428.104, 145.550
1429.293, 84.443
1430.481, 51.172
1431.669, 129.586
1432.857, 90.012
1434.045, 141.240
1435.233, 143.887
1436.420, 216.533
1437.608, 196.194
1438.795, 143.913
1439.982, 208.423
1441.169, 188.586
1442.355, 193.807
1443.542, 169.760
1444.728, 133.131
1445.914, 242.474
1447.100, 252.849
1448.286, 206.661
1449.472, 108.415
1450.657, 268.558
1451.842, 199.185
1453.027, 194.705
1454.212, 244.332
1455.397, 176.040
1456.581, 264.331
1457.766, 252.426
1458.950, 160.682
1460.134, 269.485
1461.318, 201.977
