##NAMES=Titanite
##RRUFFID=R040033
##IDEAL CHEMISTRY=CaTi^4+^SiO_5_
##LOCALITY=Brazil
##OWNER=RRUFF
##SOURCE=University of Arizona Mineral Museum
##DESCRIPTION=Green flattened wedge-shaped single crystals
##STATUS=The identification of this mineral has been confirmed by X-ray diffraction and chemical analysis
##URL=rruff.info/R040033
##MEASURED CHEMISTRY=(Ca_0.97_Fe^3+^_0.03_)_Σ=1_(Ti_0.97_Al_0.03_)_Σ=1_Si_1.00_O_5_; Fe^3+^ assigned for charge balance
##PIN_ID=L00395
##ORIENTATION=Laser parallel to [-1 0 -1]. Fiducial mark perpendicular to laser is parallel to -b* (0 -1 0)
51.466, 0.000
52.866, 86.797
54.266, 159.968
55.666, 263.441
57.065, 322.006
58.464, 280.582
59.863, 108.403
61.262, 7.270
62.661, 48.134
64.059, 103.797
65.458, 97.655
66.856, 7.545
68.253, 80.766
69.651, 328.581
71.048, 465.268
72.445, 823.257
73.842, 1033.989
75.239, 1248.481
76.635, 1560.208
78.031, 1661.992
79.427, 1907.203
80.823, 2081.561
82.218, 2106.797
83.614, 2075.661
85.009, 2075.917
86.404, 2093.348
87.798, 2066.757
89.193, 2061.961
90.587, 2054.792
91.981, 2024.097
93.375, 1985.734
94.768, 1904.516
96.161, 1866.280
97.554, 1869.989
98.947, 1913.745
100.340, 1928.676
101.732, 2062.808
103.124, 2116.009
104.516, 2221.114
105.908, 2235.983
107.300, 2273.495
108.691, 2445.540
110.082, 2511.019
111.473, 2528.343
112.864, 2583.955
114.254, 2557.254
115.644, 2584.697
117.034, 2650.220
118.424, 2653.771
119.813, 2884.303
121.203, 2976.770
122.592, 3173.131
123.981, 3521.349
125.369, 3667.388
126.758, 4027.215
128.146, 4164.800
129.534, 4422.115
130.922, 4494.132
132.309, 4483.827
133.696, 4454.177
135.083, 4720.999
136.470, 4785.793
137.857, 5220.576
139.243, 5389.586
140.630, 5722.284
142.016, 5959.319
143.401, 6091.383
144.787, 6052.922
146.172, 5894.118
147.557, 5612.790
148.942, 5650.621
150.327, 6072.899
151.711, 6681.619
153.096, 7852.270
154.480, 9058.881
155.863, 10928.472
157.247, 12868.059
158.630, 14694.665
160.013, 15681.299
161.396, 16579.986
162.779, 16445.723
164.161, 15577.529
165.544, 14966.410
166.926, 13844.377
168.308, 12941.437
169.689, 12218.593
171.070, 11986.854
172.452, 12043.223
173.833, 11995.704
175.213, 12330.303
176.594, 12403.021
177.974, 13054.863
179.354, 13371.832
180.734, 13555.932
182.114, 14024.158
183.493, 14153.517
184.872, 13754.006
186.251, 13807.629
187.630, 13124.376
189.008, 13141.259
190.387, 13195.270
191.765, 13178.409
193.143, 13343.810
194.520, 13586.074
195.898, 13730.603
197.275, 14033.261
198.652, 14357.045
200.029, 14618.960
201.405, 15082.005
202.782, 15546.175
204.158, 16306.472
205.534, 16962.900
206.909, 16946.457
208.285, 17083.135
209.660, 17155.945
211.035, 16621.881
212.410, 16680.941
213.784, 16427.125
215.159, 16476.441
216.533, 16462.881
217.907, 16507.838
219.281, 16820.516
220.654, 16946.939
222.027, 17444.211
223.400, 17849.369
224.773, 17793.705
226.146, 18073.857
227.518, 18345.328
228.891, 18400.703
230.263, 18603.553
231.634, 18879.295
233.006, 18773.471
234.377, 18644.387
235.748, 18737.346
237.119, 18684.881
238.490, 19521.088
239.860, 20033.506
241.231, 21118.557
242.601, 22559.324
243.970, 24256.580
245.340, 26201.883
246.709, 27675.676
248.079, 29727.512
249.448, 30934.621
250.816, 32218.160
252.185, 33106.062
253.553, 33447.320
254.921, 33186.719
256.289, 32658.846
257.657, 31156.088
259.024, 29130.641
260.391, 26828.488
261.758, 24344.623
263.125, 22179.027
264.492, 19938.711
265.858, 18048.650
267.224, 16593.838
268.590, 14825.266
269.956, 14178.925
271.321, 13351.806
272.687, 12588.902
274.052, 12247.207
275.416, 12210.716
276.781, 11760.417
278.146, 11679.313
279.510, 12102.392
280.874, 12061.650
282.237, 12721.087
283.601, 12815.691
284.964, 13215.462
286.327, 13912.396
287.690, 13908.489
289.053, 13533.733
290.416, 13086.131
291.778, 11847.679
293.140, 10585.369
294.502, 9676.200
295.863, 9231.171
297.225, 9127.275
298.586, 9718.516
299.947, 10340.884
301.308, 10917.386
302.668, 11411.017
304.029, 11841.784
305.389, 11634.678
306.749, 11476.693
308.108, 11966.822
309.468, 12024.057
310.827, 12538.382
312.186, 13009.791
313.545, 13856.271
314.903, 14315.819
316.262, 14364.433
317.620, 14065.109
318.978, 13344.858
320.336, 12864.673
321.693, 12287.556
323.051, 12087.505
324.408, 11838.526
325.765, 12365.615
327.121, 12489.776
328.478, 13305.007
329.834, 13771.307
331.190, 14705.680
332.546, 14326.116
333.902, 14791.629
335.257, 14200.212
336.612, 14034.867
337.967, 13127.591
339.322, 12339.387
340.677, 11608.252
342.031, 10835.318
343.385, 10167.195
344.739, 9474.273
346.093, 8878.420
347.446, 8334.635
348.799, 7935.922
350.153, 7710.277
351.505, 7124.701
352.858, 6885.193
354.210, 6420.754
355.563, 6221.383
356.915, 5976.080
358.267, 5604.845
359.618, 5376.676
360.969, 5216.576
362.321, 5124.542
363.672, 4934.577
365.022, 4640.675
366.373, 4478.842
367.723, 4320.075
369.073, 3923.374
370.423, 3600.737
371.773, 3241.167
373.122, 3095.662
374.471, 2683.221
375.821, 2147.846
377.169, 1831.534
378.518, 1271.287
379.866, 895.103
381.215, 590.065
382.563, 377.173
383.910, 135.430
385.258, 114.827
386.605, 21.356
387.952, 217.021
389.299, 255.406
390.646, 471.820
391.992, 648.367
393.339, 861.136
394.685, 1007.243
396.031, 1123.771
397.376, 1298.786
398.722, 1347.375
400.067, 1432.565
401.412, 1425.402
402.757, 1323.885
404.101, 1309.966
405.446, 1224.642
406.790, 1029.871
408.134, 843.559
409.478, 494.617
410.821, 198.875
412.165, 357.803
413.508, 932.581
414.851, 1796.458
416.193, 2541.433
417.536, 3607.505
418.878, 4863.672
420.220, 5796.934
421.562, 6349.290
422.904, 6757.737
424.245, 6627.279
425.586, 6030.912
426.927, 5503.635
428.268, 4741.449
429.609, 4106.352
430.949, 3638.344
432.289, 3394.425
433.629, 2991.593
434.969, 2726.849
436.309, 2458.192
437.648, 2560.622
438.987, 2510.138
440.326, 2366.740
441.665, 2281.429
443.003, 2458.201
444.342, 2340.060
445.680, 2436.004
447.018, 2602.034
448.355, 2747.152
449.693, 2991.354
451.030, 3358.645
452.367, 3965.029
453.704, 4365.499
455.041, 5312.068
456.377, 6261.729
457.713, 7470.483
459.049, 8846.336
460.385, 10366.288
461.721, 12425.350
463.056, 14067.516
464.391, 15484.785
465.726, 16707.178
467.061, 16632.680
468.395, 15571.299
469.730, 13935.044
471.064, 11423.921
472.398, 9571.929
473.731, 7283.064
475.065, 5652.345
476.398, 4186.750
477.731, 3253.292
479.064, 2550.980
480.397, 2022.807
481.729, 1646.792
483.062, 1385.923
484.394, 1296.200
485.725, 1228.627
487.057, 1234.215
488.389, 1293.943
489.720, 1348.813
491.051, 1330.832
492.382, 1449.981
493.712, 1523.294
495.043, 1441.743
496.373, 1612.333
497.703, 1705.052
499.032, 1694.897
500.362, 1718.854
501.691, 1712.922
503.020, 1797.092
504.349, 1871.357
505.678, 1939.719
507.007, 2160.172
508.335, 2202.712
509.663, 2548.345
510.991, 2683.073
512.319, 2896.895
513.646, 3130.829
514.973, 3254.857
516.300, 3639.986
517.627, 3842.217
518.954, 4038.536
520.280, 4481.953
521.607, 4820.479
522.933, 5182.106
524.259, 5529.831
525.584, 5916.647
526.910, 6634.558
528.235, 7244.560
529.560, 8027.650
530.885, 8575.826
532.209, 9216.092
533.534, 10421.443
534.858, 11081.882
536.182, 11999.404
537.506, 12582.013
538.829, 13418.707
540.152, 13779.486
541.476, 14321.354
542.799, 14134.302
544.121, 14550.334
545.444, 14360.434
546.766, 14188.258
548.088, 14065.757
549.410, 13835.090
550.732, 12973.575
552.053, 12436.979
553.375, 11523.839
554.696, 10555.074
556.017, 9858.438
557.337, 8920.524
558.658, 7919.761
559.978, 7236.026
561.298, 6681.760
562.618, 5780.511
563.938, 5171.173
565.257, 4521.954
566.576, 4166.623
567.895, 3870.688
569.214, 3883.603
570.533, 4000.785
571.851, 4280.056
573.170, 4773.916
574.488, 5460.013
575.805, 6174.697
577.123, 7010.518
578.440, 8060.475
579.758, 9194.571
581.075, 10285.801
582.391, 11787.167
583.708, 12906.668
585.024, 14493.306
586.341, 16151.075
587.657, 17867.979
588.972, 20062.020
590.288, 21859.189
591.603, 23855.500
592.918, 26543.941
594.233, 29307.514
595.548, 31893.219
596.863, 34539.055
598.177, 37691.031
599.491, 40625.129
600.805, 42945.363
602.119, 45417.715
603.432, 47918.219
604.746, 50230.094
606.059, 51258.141
607.372, 51793.023
608.685, 52490.320
609.997, 51890.410
611.309, 51456.730
612.621, 50015.617
613.933, 49249.742
615.245, 47415.625
616.557, 45763.312
617.868, 43754.086
619.179, 41839.270
620.490, 39604.250
621.801, 38276.086
623.111, 36218.574
624.421, 34687.801
625.731, 32036.961
627.041, 31559.414
628.351, 29313.395
629.660, 27689.178
630.970, 26875.602
632.279, 25034.605
633.588, 24003.959
634.896, 22294.250
636.205, 21588.545
637.513, 20112.293
638.821, 19425.900
640.129, 18684.531
641.437, 17801.223
642.744, 16790.189
644.051, 16142.507
645.358, 15512.354
646.665, 15030.633
647.972, 14329.236
649.278, 13844.285
650.584, 13171.844
651.890, 13046.878
653.196, 12255.497
654.502, 12125.904
655.807, 11449.438
657.113, 11262.830
658.418, 11035.008
659.722, 10293.341
661.027, 9871.646
662.331, 9732.347
663.636, 9473.105
664.940, 8917.385
666.244, 8775.658
667.547, 8246.489
668.851, 8201.979
670.154, 7689.044
671.457, 7493.332
672.760, 7419.511
674.062, 6988.851
675.365, 6756.395
676.667, 6556.392
677.969, 6434.378
679.271, 6149.142
680.572, 5864.360
681.874, 5803.000
683.175, 5658.370
684.476, 5351.085
685.777, 5192.950
687.077, 4884.491
688.378, 4850.568
689.678, 4793.380
690.978, 4524.123
692.278, 4262.935
693.577, 4359.816
694.877, 4008.764
696.176, 3905.779
697.475, 3773.860
698.774, 3650.007
700.072, 3489.219
701.371, 3394.500
702.669, 3105.852
703.967, 3013.297
705.265, 3061.884
706.562, 2874.625
707.860, 2546.569
709.157, 2600.759
710.454, 2486.245
711.751, 2464.065
713.047, 2250.247
714.344, 2268.833
715.640, 2063.835
716.936, 1885.274
718.232, 2045.146
719.527, 1827.428
720.823, 1762.112
722.118, 1657.179
723.413, 1649.580
724.708, 1556.268
726.002, 1559.154
727.297, 1393.171
728.591, 1390.236
729.885, 1344.348
731.179, 1211.506
732.472, 1034.710
733.766, 1042.960
735.059, 946.256
736.352, 947.596
737.645, 831.980
738.937, 796.408
740.230, 696.877
741.522, 681.388
742.814, 582.938
744.106, 548.527
745.397, 510.154
746.689, 408.817
747.980, 386.516
749.271, 314.248
750.562, 276.013
751.853, 229.811
753.143, 222.640
754.433, 193.501
755.723, 187.390
757.013, 142.307
758.303, 22.251
759.592, 8.781
760.881, 12.796
762.170, 47.204
763.459, 10.776
764.748, 75.743
766.036, 11.283
767.325, 86.677
768.613, 59.651
769.901, 46.633
771.188, 89.619
772.476, 86.255
773.763, 130.594
775.050, 100.770
776.337, 91.922
777.624, 192.419
778.910, 107.973
780.196, 155.934
781.482, 173.312
782.768, 210.153
784.054, 182.621
785.339, 186.513
786.625, 223.795
787.910, 154.848
789.195, 198.488
790.479, 226.146
791.764, 193.161
793.048, 270.084
794.332, 213.411
795.616, 208.610
796.900, 224.794
798.183, 259.612
799.467, 178.138
800.750, 180.609
802.033, 198.369
803.316, 132.996
804.598, 256.570
805.880, 140.798
807.163, 163.420
808.445, 104.363
809.726, 102.277
811.008, 27.508
812.289, 36.722
813.570, 15.821
814.851, 41.280
816.132, 37.522
817.413, 70.326
818.693, 110.340
819.973, 66.081
821.253, 55.839
822.533, 72.380
823.813, 16.866
825.092, 60.571
826.371, 43.892
827.650, 45.111
828.929, 109.269
830.208, 63.385
831.486, 6.445
832.764, 54.422
834.042, 73.337
835.320, 98.194
836.598, 116.999
837.875, 108.754
839.152, 168.457
840.429, 224.115
841.706, 172.731
842.983, 214.301
844.259, 323.826
845.536, 390.309
846.812, 436.748
848.088, 505.738
849.363, 505.493
850.639, 612.798
851.914, 637.056
853.189, 714.268
854.464, 765.431
855.739, 837.546
857.013, 816.613
858.288, 834.630
859.562, 894.595
860.836, 955.508
862.110, 949.366
863.383, 1126.169
864.656, 1203.915
865.930, 1355.602
867.203, 1559.229
868.475, 1683.791
869.748, 1841.289
871.020, 1899.718
872.292, 1954.078
873.564, 1939.365
874.836, 1976.578
876.108, 1958.714
877.379, 2019.636
878.650, 2134.751
879.922, 2148.648
881.192, 2180.704
882.463, 2258.732
883.733, 2164.760
885.004, 2170.989
886.274, 1972.264
887.544, 1786.794
888.813, 1563.960
890.083, 1380.306
891.352, 1170.688
892.621, 984.814
893.890, 877.960
895.159, 692.958
896.427, 663.052
897.695, 620.930
898.964, 600.468
900.232, 572.284
901.499, 686.525
902.767, 785.811
904.034, 766.383
905.301, 977.847
906.568, 1139.289
907.835, 1376.222
909.102, 1535.124
910.368, 1646.144
911.634, 1699.798
912.900, 1739.710
914.166, 1620.506
915.432, 1458.450
916.697, 1251.857
917.962, 1116.461
919.227, 882.840
920.492, 769.803
921.757, 621.177
923.021, 580.216
924.285, 478.249
925.550, 356.223
926.813, 277.916
928.077, 273.639
929.341, 239.500
930.604, 232.025
931.867, 203.185
933.130, 142.576
934.393, 148.147
935.655, 100.424
936.918, 78.758
938.180, 103.287
939.442, 86.376
940.703, 93.110
941.965, 83.163
943.226, 56.964
944.488, 93.378
945.749, 89.110
947.009, 72.702
948.270, 88.574
949.530, 94.751
950.791, 103.555
952.051, 135.256
953.311, 134.889
954.570, 172.736
955.830, 151.927
957.089, 175.644
958.348, 189.208
959.607, 197.972
960.866, 177.170
962.124, 193.770
963.383, 180.905
964.641, 197.135
965.899, 200.145
967.156, 221.214
968.414, 268.672
969.671, 239.413
970.928, 272.688
972.185, 263.541
973.442, 300.535
974.699, 253.074
975.955, 292.046
977.211, 310.208
978.468, 367.085
979.723, 364.847
980.979, 365.391
982.234, 395.617
983.490, 391.996
984.745, 406.744
986.000, 393.549
987.254, 414.020
988.509, 446.953
989.763, 421.167
991.017, 477.362
992.271, 425.793
993.525, 453.629
994.779, 477.759
996.032, 543.940
997.285, 551.948
998.538, 450.967
999.791, 579.797
1001.044, 548.498
1002.296, 645.265
1003.548, 679.988
1004.800, 676.430
1006.052, 789.844
1007.304, 767.325
1008.555, 803.605
1009.807, 876.771
1011.058, 834.731
1012.309, 946.543
1013.559, 942.446
1014.810, 858.106
1016.060, 887.973
1017.310, 838.549
1018.560, 843.990
1019.810, 813.357
1021.060, 806.648
1022.309, 733.865
1023.558, 752.007
1024.807, 623.075
1026.056, 584.069
1027.305, 486.990
1028.553, 432.837
1029.801, 397.611
1031.049, 270.313
1032.297, 256.940
1033.545, 236.492
1034.793, 188.969
1036.040, 172.369
1037.287, 130.690
1038.534, 162.931
1039.781, 130.094
1041.027, 114.177
1042.274, 133.180
1043.520, 119.105
1044.766, 124.951
1046.012, 101.718
1047.257, 115.406
1048.503, 144.015
1049.748, 98.549
1050.993, 155.006
1052.238, 137.389
1053.483, 90.698
1054.727, 90.929
1055.971, 81.083
1057.216, 129.163
1058.459, 120.169
1059.703, 93.101
1060.947, 144.958
1062.190, 148.745
1063.433, 164.465
1064.676, 173.120
1065.919, 208.708
1067.162, 218.233
1068.404, 222.705
1069.646, 191.115
1070.888, 282.474
1072.130, 185.782
1073.372, 239.034
1074.613, 235.871
1075.855, 209.343
1077.096, 250.631
1078.337, 253.816
1079.578, 173.284
1080.818, 199.720
1082.059, 161.419
1083.299, 159.449
1084.539, 108.845
1085.779, 123.789
1087.018, 151.047
1088.258, 110.567
1089.497, 101.742
1090.736, 62.410
1091.975, 85.977
1093.213, 69.780
1094.452, 43.374
1095.690, 52.235
1096.928, 5.893
1098.166, 38.363
1099.404, 65.337
1100.642, 1.120
1101.879, 82.247
1103.116, 3.783
1104.353, 28.056
1105.590, 22.272
1106.827, 8.111
1108.063, 7.781
1109.299, 8.891
1110.536, 36.274
1111.771, 5.569
1113.007, 2.531
1114.243, 8.950
1115.478, 4.222
1116.713, 30.064
1117.948, 5.109
1119.183, 8.361
1120.418, 32.422
1121.652, 97.132
1122.886, 47.811
1124.120, 44.317
1125.354, 40.742
1126.588, 38.954
1127.821, 30.763
1129.055, 32.396
1130.288, 15.082
1131.521, 1.207
1132.753, 9.562
1133.986, 42.211
1135.218, 24.079
1136.450, 1.095
1137.682, 61.654
1138.914, 29.229
1140.146, 47.990
1141.377, 60.864
1142.609, 51.156
1143.840, 52.562
1145.071, 74.929
1146.301, 53.921
1147.532, 80.135
1148.762, 91.370
1149.992, 56.461
1151.222, 47.684
1152.452, 95.737
1153.682, 82.796
1154.911, 47.846
1156.140, 76.874
1157.369, 84.873
1158.598, 114.775
1159.827, 153.015
1161.055, 90.858
1162.284, 131.569
1163.512, 63.550
1164.740, 114.419
1165.967, 128.447
1167.195, 169.044
1168.422, 143.627
1169.650, 171.171
1170.877, 132.688
1172.103, 140.179
1173.330, 174.740
1174.557, 159.179
1175.783, 182.594
1177.009, 194.204
1178.235, 206.569
1179.461, 234.669
1180.686, 205.691
1181.912, 200.606
1183.137, 196.279
1184.362, 207.742
1185.587, 232.887
1186.811, 173.321
1188.036, 178.474
1189.260, 128.401
1190.484, 135.550
1191.708, 128.631
1192.932, 142.605
1194.155, 145.498
1195.378, 124.383
1196.602, 134.536
1197.825, 108.783
1199.047, 114.969
1200.270, 128.117
1201.492, 173.776
1202.715, 102.473
1203.937, 140.606
1205.159, 116.552
1206.380, 108.424
1207.602, 103.155
1208.823, 135.241
1210.044, 110.394
1211.265, 111.726
1212.486, 86.001
1213.707, 98.488
1214.927, 104.072
1216.147, 100.587
1217.367, 98.901
1218.587, 99.511
1219.807, 93.986
1221.027, 90.614
1222.246, 79.815
1223.465, 61.581
1224.684, 62.263
1225.903, 59.061
1227.121, 56.424
1228.340, 88.726
1229.558, 74.470
1230.776, 76.902
1231.994, 64.036
1233.212, 65.540
1234.429, 76.081
1235.646, 87.437
1236.864, 68.671
1238.081, 90.755
1239.297, 74.047
1240.514, 84.275
1241.730, 101.432
1242.947, 54.676
1244.163, 73.560
1245.378, 66.755
1246.594, 94.196
1247.810, 72.183
1249.025, 86.758
1250.240, 65.725
1251.455, 35.939
1252.670, 72.079
1253.885, 69.005
1255.099, 3.158
1256.313, 8.310
1257.527, 65.949
1258.741, 45.810
1259.955, 3.868
1261.168, 37.894
1262.382, 12.123
1263.595, 23.973
1264.808, 4.964
1266.021, 13.838
1267.233, 10.037
1268.446, 49.527
1269.658, 20.908
1270.870, 5.794
1272.082, 32.180
1273.294, 8.433
1274.505, 27.415
1275.716, 21.736
1276.928, 7.740
1278.139, 18.588
1279.349, 3.718
1280.560, 8.552
1281.770, 14.488
1282.981, 30.630
1284.191, 0.415
1285.401, 9.342
1286.610, 14.200
1287.820, 37.001
1289.029, 1.140
1290.239, 1.280
1291.448, 21.496
1292.656, 20.629
1293.865, 6.855
1295.073, 33.123
1296.282, 0.760
1297.490, 25.315
1298.698, 15.587
1299.906, 9.799
1301.113, 6.861
1302.320, 6.039
1303.528, 21.247
1304.735, 9.427
1305.942, 20.958
1307.148, 63.155
1308.355, 31.490
1309.561, 0.427
1310.767, 7.163
1311.973, 47.152
1313.179, 40.459
1314.384, 62.759
1315.590, 43.050
1316.795, 57.335
1318.000, 19.613
1319.205, 59.881
1320.410, 55.136
1321.614, 0.617
1322.819, 51.624
1324.023, 48.836
1325.227, 75.031
1326.431, 47.221
1327.634, 24.403
1328.838, 37.582
1330.041, 26.758
1331.244, 18.932
1332.447, 17.104
1333.650, 36.274
1334.852, 18.443
1336.055, 3.619
1337.257, 58.784
1338.459, 8.948
1339.661, 36.111
1340.862, 27.272
1342.064, 9.568
1343.265, 52.588
1344.466, 9.742
1345.667, 31.894
1346.868, 22.046
1348.068, 10.802
1349.269, 48.437
1350.469, 35.585
1351.669, 14.734
1352.869, 32.882
1354.069, 24.029
1355.268, 12.204
1356.468, 52.350
1357.667, 18.531
1358.866, 3.676
1360.065, 21.818
1361.263, 9.960
1362.462, 44.100
1363.660, 49.240
1364.858, 4.380
1366.056, 9.517
1367.254, 34.653
1368.451, 6.734
1369.649, 0.821
1370.846, 13.896
1372.043, 17.034
1373.240, 28.976
1374.436, 5.161
1375.633, 23.343
1376.829, 0.463
1378.025, 4.540
1379.221, 16.596
1380.417, 17.513
1381.613, 23.183
1382.808, 45.620
1384.003, 43.058
1385.199, 12.450
1386.393, 20.892
1387.588, 26.336
1388.783, 26.667
1389.977, 27.713
1391.171, 8.083
1392.365, 19.473
1393.559, 36.589
1394.753, 27.319
1395.946, 58.172
1397.140, 8.339
1398.333, 7.173
1399.526, 0.729
1400.719, 1.665
1401.911, 42.364
1403.104, 15.934
1404.296, 40.230
1405.488, 53.816
1406.680, 14.580
1407.872, 20.681
1409.063, 26.499
1410.255, 16.418
1411.446, 49.554
1412.637, 7.562
1413.828, 22.504
1415.018, 5.124
1416.209, 23.345
1417.399, 39.679
1418.589, 92.466
1419.779, 46.771
1420.969, 89.091
1422.159, 52.276
1423.348, 38.279
1424.537, 79.589
1425.726, 61.898
1426.915, 45.095
1428.104, 46.194
1429.293, 79.342
1430.481, 29.292
1431.669, 55.403
1432.857, 51.618
1434.045, 44.082
1435.233, 102.147
1436.420, 113.377
1437.608, 103.639
1438.795, 80.731
1439.982, 92.741
1441.169, 75.878
1442.355, 88.798
1443.542, 80.863
1444.728, 111.882
1445.914, 73.927
1447.100, 91.564
1448.286, 84.942
1449.472, 124.074
1450.657, 121.591
1451.842, 131.286
1453.027, 122.392
1454.212, 123.417
1455.397, 123.208
1456.581, 112.087
1457.766, 123.790
1458.950, 106.647
1460.134, 136.576
1461.318, 100.029
1462.501, 94.336
1463.685, 126.119
1464.868, 62.125
1466.051, 109.915
