##NAMES=Titanite
##RRUFFID=R050124
##IDEAL CHEMISTRY=CaTi^4+^SiO_5_
##LOCALITY=Capelinha, Minas Gerais, Brazil
##OWNER=RRUFF
##SOURCE=Carlos and Paulo Vasconcelos
##DESCRIPTION=Yellow tabular crystal
##STATUS=The identification of this mineral has been confirmed by X-ray diffraction and chemical analysis
##URL=rruff.info/R050124
##MEASURED CHEMISTRY=Ca_1.00_(Ti_0.93_Al_0.05_Fe^3+^_0.02_)Si_1.00_O_4_(O)_1.00_
##PIN_ID=M00070
##ORIENTATION=Laser parallel to (-1 0 -1). Fiducial mark perpendicular to laser is parallel to b [0 1 0]
122.032, 0.000
123.422, 63.314
124.811, 56.479
126.201, 127.685
127.590, 92.961
128.979, 32.660
130.367, 46.089
131.756, 63.987
133.144, 31.521
134.532, 76.232
135.920, 183.150
137.307, 459.436
138.695, 1150.372
140.082, 2253.380
141.469, 3832.980
142.856, 5682.731
144.242, 6638.242
145.628, 6927.206
147.014, 6209.362
148.400, 4548.455
149.786, 2909.248
151.171, 1793.518
152.556, 1039.067
153.941, 548.715
155.325, 381.329
156.710, 463.923
158.094, 508.381
159.478, 806.536
160.862, 1006.245
162.245, 1344.378
163.629, 1530.823
165.012, 1615.517
166.395, 1815.501
167.777, 1899.812
169.160, 2073.398
170.542, 2082.149
171.924, 2395.957
173.306, 2536.732
174.687, 2718.396
176.068, 3053.879
177.449, 3331.125
178.830, 3614.078
180.211, 3875.692
181.591, 4133.924
182.972, 4266.735
184.351, 4541.094
185.731, 4658.966
187.111, 4740.381
188.490, 4553.304
189.869, 4627.829
191.248, 4573.042
192.626, 4478.511
194.005, 4412.210
195.383, 4590.131
196.761, 4826.266
198.139, 5232.605
199.516, 5379.142
200.893, 5855.870
202.271, 5962.781
203.647, 6039.868
205.024, 5967.117
206.400, 6184.951
207.777, 6073.960
209.152, 5734.358
210.528, 5776.177
211.904, 5629.130
213.279, 5482.839
214.654, 5496.779
216.029, 5360.615
217.403, 5474.331
218.778, 5517.945
220.152, 5711.477
221.526, 5984.941
222.900, 6278.352
224.273, 6581.721
225.646, 6875.059
227.019, 7368.375
228.392, 7711.679
229.765, 8274.973
231.137, 9058.271
232.509, 9741.571
233.881, 10144.881
235.253, 9768.206
236.625, 9341.542
237.996, 8364.903
239.367, 7598.287
240.738, 7011.694
242.108, 6605.127
243.479, 6788.589
244.849, 6762.078
246.219, 7365.597
247.589, 7849.148
248.958, 8322.729
250.328, 8756.344
251.697, 9093.220
253.065, 9471.155
254.434, 9568.851
255.803, 9639.341
257.171, 9307.697
258.539, 9216.688
259.906, 8889.990
261.274, 8302.746
262.641, 8015.543
264.008, 7228.382
265.375, 6651.261
266.742, 5964.180
268.108, 5367.142
269.475, 4900.143
270.840, 4263.181
272.206, 3700.250
273.572, 3387.348
274.937, 3076.473
276.302, 2870.627
277.667, 2601.811
279.032, 2623.023
280.396, 2478.266
281.760, 2680.540
283.125, 2869.843
284.488, 3054.179
285.852, 3632.656
287.215, 3959.609
288.578, 4719.374
289.941, 5221.739
291.304, 5787.784
292.666, 6092.796
294.029, 6144.347
295.391, 6219.885
296.753, 5888.572
298.114, 5951.292
299.476, 5892.265
300.837, 6322.498
302.198, 6714.268
303.558, 7181.619
304.919, 8103.858
306.279, 8757.101
307.639, 9837.558
308.999, 10968.413
310.359, 12599.413
311.718, 15230.663
313.077, 18232.148
314.436, 22683.852
315.795, 27205.764
317.154, 30827.871
318.512, 33440.164
319.870, 32742.650
321.228, 31535.307
322.586, 28148.117
323.943, 25051.080
325.300, 21784.193
326.657, 19037.445
328.014, 17180.828
329.371, 15544.340
330.727, 14617.972
332.083, 13801.716
333.439, 12895.576
334.795, 12379.538
336.150, 11593.596
337.506, 11077.752
338.861, 10302.000
340.215, 10006.336
341.570, 9440.749
342.924, 9415.249
344.279, 9519.823
345.633, 9874.474
346.986, 10799.197
348.340, 11763.991
349.693, 12958.851
351.046, 13683.776
352.399, 13708.759
353.752, 13003.795
355.104, 11508.874
356.457, 10004.002
357.809, 8519.175
359.160, 6834.390
360.512, 5689.650
361.863, 4654.952
363.214, 3899.297
364.565, 3260.682
365.916, 2653.107
367.267, 2326.573
368.617, 1919.080
369.967, 1614.622
371.317, 1282.196
372.666, 1012.797
374.016, 765.160
375.365, 517.669
376.714, 345.705
378.063, 145.366
379.411, 5.961
380.760, 60.293
382.108, 207.642
383.456, 174.044
384.803, 235.489
386.151, 120.993
387.498, 186.528
388.845, 100.109
390.192, 24.717
391.539, 13.334
392.885, 37.042
394.231, 74.422
395.577, 190.814
396.923, 280.224
398.269, 444.389
399.614, 677.096
400.959, 844.558
402.304, 1132.039
403.649, 1398.537
404.993, 1771.054
406.337, 2108.590
407.681, 2797.145
409.025, 3500.718
410.369, 4403.309
411.712, 5628.919
413.055, 7254.550
414.398, 8950.175
415.741, 11265.699
417.084, 13941.082
418.426, 17396.355
419.768, 20541.566
421.110, 23656.760
422.452, 25831.969
423.793, 26847.211
425.134, 26492.473
426.475, 24097.760
427.816, 21653.080
429.157, 18258.428
430.497, 15003.795
431.837, 12149.190
433.177, 9711.096
434.517, 7640.063
435.857, 5865.540
437.196, 4481.043
438.535, 3552.575
439.874, 2655.134
441.213, 1962.721
442.551, 1429.359
443.889, 946.028
445.227, 572.748
446.565, 192.508
447.903, 2.305
449.240, 327.851
450.577, 373.144
451.914, 597.586
453.251, 746.286
454.588, 676.320
455.924, 766.646
457.260, 804.303
458.596, 662.327
459.932, 624.665
461.267, 434.314
462.602, 454.161
463.938, 202.230
465.272, 109.406
466.607, 68.374
467.941, 218.171
469.276, 195.021
470.610, 549.915
471.943, 569.856
473.277, 765.845
474.610, 928.881
475.944, 1045.962
477.276, 1392.089
478.609, 1560.260
479.942, 1845.477
481.274, 2092.735
482.606, 2450.040
483.938, 2666.388
485.270, 2878.779
486.601, 3312.215
487.932, 3369.695
489.263, 3477.219
490.594, 3752.787
491.925, 3746.399
493.255, 4050.058
494.585, 3793.759
495.915, 3907.506
497.245, 3791.297
498.575, 3565.135
499.904, 3559.016
501.233, 3307.943
502.562, 3193.915
503.891, 3018.933
505.219, 2846.997
506.548, 2855.106
507.876, 2660.262
509.203, 2714.464
510.531, 2699.711
511.859, 2769.005
513.186, 2941.346
514.513, 2813.733
515.840, 3033.168
517.166, 3036.649
518.493, 3173.178
519.819, 3194.755
521.145, 3313.380
522.470, 3572.053
523.796, 3441.774
525.121, 3721.544
526.446, 3896.364
527.771, 3991.232
529.096, 4256.149
530.421, 4441.117
531.745, 4876.135
533.069, 5131.204
534.393, 5496.323
535.716, 6171.494
537.040, 6346.715
538.363, 6781.989
539.686, 7294.762
541.009, 7384.523
542.331, 7776.157
543.654, 7559.630
544.976, 8139.511
546.298, 8135.778
547.620, 8018.419
548.941, 7835.745
550.263, 7657.137
551.584, 7659.116
552.905, 7383.662
554.225, 6999.129
555.546, 6605.147
556.866, 6011.227
558.186, 5747.372
559.506, 5533.575
560.826, 5099.844
562.145, 5096.176
563.465, 4642.571
564.784, 5089.030
566.103, 4905.554
567.421, 5022.143
568.740, 5568.796
570.058, 5535.515
571.376, 6122.300
572.694, 6229.150
574.011, 6776.068
575.329, 7073.052
576.646, 7280.104
577.963, 8067.227
579.279, 8374.420
580.596, 9131.686
581.912, 9809.021
583.228, 10566.428
584.544, 11643.903
585.860, 12431.455
587.175, 13859.077
588.491, 14836.772
589.806, 16094.541
591.121, 18122.383
592.435, 19420.297
593.750, 20998.287
595.064, 22936.348
596.378, 24934.492
597.692, 27662.705
599.006, 29060.992
600.319, 31564.006
601.632, 33742.770
602.945, 35835.906
604.258, 38506.613
605.571, 39677.180
606.883, 41349.508
608.195, 42426.438
609.507, 43013.656
610.819, 43441.258
612.131, 43633.902
613.442, 43115.727
614.753, 42142.859
616.064, 41327.434
617.375, 40183.660
618.685, 39010.234
619.995, 37534.414
621.306, 35904.016
622.615, 34237.129
623.925, 33659.754
625.235, 31447.752
626.544, 30478.457
627.853, 29018.547
629.162, 27518.857
630.471, 26129.268
631.779, 24699.887
633.087, 23810.502
634.395, 22371.266
635.703, 21452.150
637.011, 20143.180
638.318, 19294.354
639.625, 18765.691
640.932, 17267.195
642.239, 16748.861
643.546, 15840.708
644.852, 15322.716
646.158, 14934.889
647.464, 13967.221
648.770, 13569.717
650.076, 13042.364
651.381, 12535.154
652.686, 12238.081
653.991, 11601.134
655.296, 11304.332
656.600, 11217.650
657.905, 10251.099
659.209, 10304.660
660.513, 9748.329
661.817, 9232.120
663.120, 8996.018
664.423, 8810.022
665.726, 8674.133
667.029, 8138.352
668.332, 7972.671
669.635, 7757.094
670.937, 7461.623
672.239, 7336.256
673.541, 6910.993
674.842, 6605.833
676.144, 6520.780
677.445, 6315.829
678.746, 6290.983
680.047, 5896.242
681.348, 5671.603
682.648, 5627.069
683.948, 5332.640
685.248, 5088.314
686.548, 5174.092
687.848, 4759.973
689.147, 4665.958
690.447, 4512.047
691.746, 4448.240
693.044, 4244.536
694.343, 4150.936
695.641, 3907.439
696.940, 3834.063
698.238, 3800.821
699.535, 3487.748
700.833, 3544.836
702.130, 3372.102
703.427, 3139.515
704.724, 3057.093
706.021, 2892.816
707.318, 2759.667
708.614, 2664.346
709.910, 2519.723
711.206, 2443.931
712.502, 2331.229
713.798, 2186.628
715.093, 2208.129
716.388, 1865.729
717.683, 1980.430
718.978, 1793.230
720.272, 1879.130
721.567, 1756.130
722.861, 1658.229
724.155, 1703.427
725.448, 1464.725
726.742, 1364.120
728.035, 1477.613
729.328, 1230.205
730.621, 1354.894
731.914, 1200.680
733.206, 1096.563
734.499, 1000.544
735.791, 911.620
737.083, 940.792
738.374, 869.061
739.666, 750.428
740.957, 679.892
742.248, 448.457
743.539, 517.125
744.830, 344.893
746.120, 367.765
747.410, 332.743
748.701, 230.829
749.990, 291.027
751.280, 25.333
752.570, 35.753
753.859, 34.291
755.148, 155.062
756.437, 10.331
757.725, 153.495
759.014, 81.583
760.302, 77.577
761.590, 273.475
762.878, 111.309
764.166, 187.951
765.453, 206.421
766.740, 185.653
768.027, 240.625
769.314, 252.367
770.601, 155.865
771.887, 142.081
773.174, 22.046
774.460, 183.742
775.745, 89.264
777.031, 44.579
778.316, 158.737
779.602, 40.798
780.887, 21.770
782.172, 59.333
783.456, 41.519
784.741, 18.784
786.025, 5.163
787.309, 80.579
788.593, 163.259
789.876, 119.108
791.160, 107.853
792.443, 325.337
793.726, 373.469
795.009, 445.362
796.291, 497.964
797.574, 618.630
798.856, 776.187
800.138, 931.763
801.420, 1041.335
802.702, 1184.757
803.983, 1465.934
805.264, 1717.677
806.545, 1914.354
807.826, 2273.410
809.107, 2556.521
810.387, 2954.797
811.667, 3285.143
812.947, 3696.439
814.227, 4124.116
815.507, 4611.560
816.786, 4718.532
818.065, 5186.795
819.344, 5503.886
820.623, 5721.035
821.902, 6078.236
823.180, 6261.722
824.459, 6412.802
825.737, 6650.163
827.014, 6827.576
828.292, 7005.038
829.569, 6992.551
830.847, 7240.114
832.124, 7557.723
833.401, 7615.381
834.677, 8183.084
835.954, 8270.832
837.230, 8928.623
838.506, 9686.456
839.782, 10104.339
841.057, 11372.258
842.333, 12160.220
843.608, 13008.220
844.883, 14626.263
846.158, 15464.342
847.433, 17062.457
848.707, 19210.617
849.981, 20358.799
851.255, 22347.018
852.529, 23385.273
853.803, 25213.557
855.076, 26401.871
856.350, 26920.219
857.623, 27548.582
858.895, 26756.975
860.168, 26985.396
861.441, 26433.840
862.713, 25852.303
863.985, 25860.791
865.257, 25709.299
866.528, 26037.820
867.800, 26946.369
869.071, 26904.930
870.342, 27993.508
871.613, 27272.105
872.884, 26690.717
874.154, 25209.342
875.425, 22567.980
876.695, 21036.633
877.965, 18465.299
879.234, 16533.979
880.504, 15172.668
881.773, 13331.367
883.042, 12100.078
884.311, 11068.798
885.580, 9917.521
886.848, 9136.255
888.117, 8304.994
889.385, 7763.741
890.653, 6832.557
891.920, 6291.862
893.188, 5920.942
894.455, 5327.268
895.722, 5193.912
896.989, 4961.676
898.256, 4948.276
899.523, 4964.554
900.789, 5105.744
902.055, 5357.954
903.321, 5722.336
904.587, 6262.614
905.852, 7151.101
907.118, 7723.931
908.383, 8577.407
909.648, 9650.478
910.913, 9871.763
912.177, 10564.662
913.442, 9977.793
914.706, 9444.156
915.970, 8785.032
917.233, 7691.779
918.497, 6571.982
919.760, 5439.069
921.024, 4440.368
922.287, 3582.479
923.550, 2915.368
924.812, 2337.566
926.075, 2030.141
927.337, 1416.391
928.599, 1227.046
929.861, 963.441
931.122, 819.875
932.384, 650.110
933.645, 461.212
934.906, 364.818
936.167, 296.109
937.428, 110.369
938.688, 151.488
939.948, 89.319
941.208, 4.244
942.468, 85.244
943.728, 95.362
944.987, 152.554
946.247, 145.951
947.506, 186.415
948.765, 168.875
950.023, 164.619
951.282, 146.471
952.540, 144.019
953.798, 139.291
955.056, 101.191
956.314, 44.232
957.572, 56.842
958.829, 5.007
960.086, 59.563
961.343, 23.209
962.600, 11.444
963.856, 82.242
965.113, 111.943
966.369, 27.609
967.625, 186.356
968.881, 98.142
970.136, 183.535
971.392, 276.732
972.647, 310.445
973.902, 317.351
975.157, 337.336
976.411, 287.675
977.666, 434.659
978.920, 343.840
980.174, 308.596
981.428, 447.207
982.682, 324.395
983.935, 375.512
985.188, 420.642
986.441, 387.190
987.694, 491.416
988.947, 427.166
990.199, 492.069
991.452, 417.834
992.704, 424.185
993.956, 516.798
995.207, 499.573
996.459, 481.700
997.710, 589.173
998.961, 528.737
1000.212, 650.475
1001.463, 710.287
1002.714, 731.836
1003.964, 853.357
1005.214, 748.583
1006.464, 838.629
1007.714, 880.885
1008.964, 905.886
1010.213, 1063.486
1011.462, 1082.173
1012.711, 1065.634
1013.960, 1109.031
1015.209, 1063.363
1016.457, 1147.630
1017.705, 1094.831
1018.954, 1131.967
1020.201, 1211.036
1021.449, 1154.040
1022.697, 1211.975
1023.944, 1107.845
1025.191, 1022.646
1026.438, 1029.381
1027.685, 873.048
1028.931, 793.646
1030.177, 722.176
1031.423, 618.638
1032.669, 588.030
1033.915, 500.354
1035.161, 470.607
1036.406, 390.792
1037.651, 383.906
1038.896, 358.950
1040.141, 339.924
1041.386, 274.826
1042.630, 304.651
1043.874, 189.402
1045.118, 172.068
1046.362, 237.645
1047.606, 123.141
1048.849, 139.540
1050.092, 98.844
1051.336, 62.047
1052.578, 92.137
1053.821, 32.123
1055.064, 25.988
1056.306, 75.729
1057.548, 36.638
1058.790, 56.863
1060.032, 1.748
1061.273, 13.528
1062.515, 10.687
1063.756, 4.273
1064.997, 36.675
1066.237, 75.522
1067.478, 21.708
1068.718, 103.948
1069.959, 46.531
1071.199, 68.038
1072.438, 117.475
1073.678, 125.843
1074.918, 217.133
1076.157, 202.343
1077.396, 211.500
1078.635, 266.582
1079.873, 264.590
1081.112, 291.542
1082.350, 373.419
1083.588, 392.238
1084.826, 501.984
1086.064, 474.658
1087.301, 469.229
1088.539, 547.765
1089.776, 506.045
1091.013, 482.162
1092.250, 513.385
1093.486, 430.875
1094.723, 443.718
1095.959, 399.802
1097.195, 343.177
1098.431, 358.490
1099.666, 175.910
1100.902, 228.304
1102.137, 164.697
1103.372, 102.232
1104.607, 93.003
1105.842, 46.196
1107.076, 70.444
1108.311, 93.299
1109.545, 49.085
1110.779, 73.693
1112.012, 34.217
1113.246, 27.774
1114.479, 25.932
1115.712, 13.453
1116.945, 8.129
1118.178, 27.647
1119.411, 39.315
1120.643, 73.906
1121.875, 54.425
1123.108, 43.870
1124.339, 99.240
1125.571, 35.539
1126.802, 105.763
1128.034, 44.917
1129.265, 51.997
1130.496, 86.003
1131.727, 87.938
1132.957, 79.804
1134.187, 142.599
1135.418, 59.328
1136.648, 104.986
1137.877, 79.575
1139.107, 89.095
1140.336, 131.546
1141.566, 92.931
1142.795, 66.249
1144.023, 136.496
1145.252, 87.679
1146.480, 216.795
1147.709, 160.849
1148.937, 143.842
1150.165, 176.772
1151.392, 168.640
1152.620, 224.448
1153.847, 252.196
1155.074, 186.886
1156.301, 232.516
1157.528, 313.087
1158.755, 276.604
1159.981, 402.064
1161.207, 346.469
1162.433, 407.820
1163.659, 446.115
1164.885, 428.357
1166.110, 578.544
1167.336, 596.678
1168.561, 570.758
1169.786, 779.784
1171.010, 803.757
1172.235, 972.677
1173.459, 1113.544
1174.683, 1203.358
1175.907, 1496.120
1177.131, 1672.831
1178.355, 1786.489
1179.578, 1875.095
1180.801, 1847.650
1182.024, 1891.154
1183.247, 1722.607
1184.470, 1619.009
1185.692, 1465.361
1186.915, 1332.663
1188.137, 1170.849
1189.359, 1149.504
1190.580, 989.335
1191.802, 1030.873
1193.023, 982.050
1194.244, 952.058
1195.465, 1011.181
1196.686, 1017.620
1197.907, 998.058
1199.127, 1087.427
1200.347, 980.574
1201.567, 984.794
1202.787, 940.716
1204.007, 817.383
1205.226, 895.578
1206.446, 898.530
1207.665, 819.968
1208.884, 938.304
1210.102, 919.557
1211.321, 956.767
1212.539, 994.590
1213.758, 970.657
1214.976, 1016.677
1216.193, 881.089
1217.411, 882.971
1218.628, 827.924
1219.846, 798.090
1221.063, 760.338
1222.280, 774.632
1223.496, 689.734
1224.713, 755.314
1225.929, 703.778
1227.145, 734.384
1228.361, 844.448
1229.577, 752.380
1230.793, 848.906
1232.008, 830.449
1233.223, 710.481
1234.438, 845.734
1235.653, 795.179
1236.868, 847.913
1238.082, 928.781
1239.297, 870.344
1240.511, 857.584
1241.725, 945.377
1242.938, 907.478
1244.152, 1013.093
1245.365, 1019.992
1246.578, 999.958
1247.791, 1078.216
1249.004, 999.365
1250.217, 976.131
1251.429, 1016.541
1252.642, 834.104
1253.854, 876.494
1255.066, 751.097
1256.277, 628.323
1257.489, 693.989
1258.700, 558.106
1259.911, 480.177
1261.122, 546.208
1262.333, 561.050
1263.544, 472.185
1264.754, 493.518
1265.964, 328.363
1267.174, 397.957
1268.384, 372.126
1269.594, 261.254
1270.803, 363.846
1272.013, 223.719
1273.222, 317.361
1274.431, 264.316
1275.640, 241.342
1276.848, 304.719
1278.057, 270.092
1279.265, 170.378
1280.473, 257.172
1281.681, 184.214
1282.888, 197.717
1284.096, 194.933
1285.303, 161.214
1286.510, 179.834
1287.717, 228.116
1288.924, 231.161
1290.131, 329.781
1291.337, 291.980
1292.543, 306.011
1293.749, 391.793
1294.955, 368.421
1296.161, 419.230
1297.366, 410.983
1298.571, 462.946
1299.777, 525.992
1300.981, 448.744
1302.186, 429.655
1303.391, 475.879
1304.595, 405.907
1305.799, 409.069
1307.003, 475.200
1308.207, 404.302
1309.411, 507.380
1310.614, 469.438
1311.818, 418.468
1313.021, 467.478
1314.224, 453.471
1315.426, 455.445
1316.629, 494.397
1317.831, 478.334
1319.033, 453.253
1320.235, 475.156
1321.437, 439.036
1322.639, 523.902
1323.840, 409.754
1325.042, 381.590
1326.243, 430.413
1327.444, 330.223
1328.644, 316.020
1329.845, 217.803
1331.045, 237.572
1332.245, 260.327
1333.445, 227.069
1334.645, 158.800
1335.845, 192.518
1337.044, 112.229
1338.244, 98.934
1339.443, 161.630
1340.642, 71.324
1341.840, 96.018
1343.039, 112.715
1344.237, 88.421
1345.435, 104.134
1346.633, 105.576
1347.831, 46.605
1349.029, 110.358
1350.226, 59.144
1351.424, 41.943
1352.621, 29.767
1353.818, 6.611
1355.014, 31.475
1356.211, 21.634
1357.407, 23.729
1358.604, 29.186
1359.800, 15.867
1360.995, 17.910
1362.191, 26.064
1363.387, 53.697
1364.582, 16.298
1365.777, 22.689
1366.972, 46.675
1368.167, 3.659
1369.361, 15.584
1370.556, 21.548
1371.750, 30.474
1372.944, 72.466
1374.138, 25.448
1375.331, 19.429
1376.525, 32.123
1377.718, 12.398
1378.911, 19.126
1380.104, 25.877
1381.297, 7.348
1382.490, 21.444
1383.682, 13.260
1384.874, 35.919
1386.066, 7.905
1387.258, 25.721
1388.450, 0.472
1389.641, 3.325
1390.833, 39.892
1392.024, 3.871
1393.215, 7.617
1394.406, 30.653
1395.596, 16.061
1396.787, 10.240
1397.977, 37.557
1399.167, 19.238
1400.357, 1.246
1401.547, 20.611
1402.736, 8.994
1403.925, 8.393
1405.115, 12.810
1406.304, 12.756
1407.492, 49.688
1408.681, 29.143
1409.870, 8.607
1411.058, 64.077
1412.246, 19.554
1413.434, 56.035
1414.622, 101.518
1415.809, 36.005
1416.997, 98.498
1418.184, 74.997
1419.371, 72.505
1420.558, 114.021
1421.744, 81.548
1422.931, 75.087
1424.117, 134.638
1425.303, 30.203
1426.489, 134.783
1427.675, 119.379
1428.861, 113.994
1430.046, 192.627
1431.231, 162.217
1432.416, 204.890
1433.601, 238.583
1434.786, 194.099
1435.970, 222.518
1437.155, 240.505
1438.339, 245.541
1439.523, 288.320
1440.707, 348.716
1441.890, 343.023
1443.074, 382.672
1444.257, 369.062
1445.440, 341.787
1446.623, 472.365
1447.806, 373.251
1448.989, 427.889
1450.171, 462.438
1451.353, 397.397
1452.535, 448.139
1453.717, 452.962
1454.899, 429.818
1456.080, 473.978
1457.262, 449.750
1458.443, 409.547
1459.624, 468.040
1460.805, 385.079
1461.985, 407.095
1463.166, 416.666
1464.346, 303.176
1465.526, 382.411
1466.706, 336.708
1467.886, 273.139
1469.065, 366.619
1470.245, 267.039
1471.424, 271.392
1472.603, 332.496
1473.782, 223.690
1474.960, 239.795
1476.139, 222.803
1477.317, 159.704
1478.495, 206.507
1479.673, 200.274
1480.851, 138.086
1482.029, 196.975
1483.206, 164.029
1484.383, 115.290
1485.560, 174.713
1486.737, 126.229
1487.914, 93.821
1489.091, 140.480
1490.267, 100.183
1491.443, 71.961
1492.619, 110.797
1493.795, 26.664
1494.971, 98.553
1496.146, 109.482
1497.322, 19.477
1498.497, 83.567
1499.672, 34.792
1500.846, 21.178
1502.021, 91.724
1503.196, 36.410
1504.370, 5.762
1505.544, 88.221
1506.718, 9.379
1507.892, 62.753
1509.065, 91.391
1510.238, 5.329
1511.412, 94.602
1512.585, 58.866
1513.758, 13.707
1514.930, 76.958
