##NAMES=Titanite
##RRUFFID=R050124
##IDEAL CHEMISTRY=CaTi^4+^SiO_5_
##LOCALITY=Capelinha, Minas Gerais, Brazil
##OWNER=RRUFF
##SOURCE=Carlos and Paulo Vasconcelos
##DESCRIPTION=Yellow tabular crystal
##STATUS=The identification of this mineral has been confirmed by X-ray diffraction and chemical analysis
##URL=rruff.info/R050124
##MEASURED CHEMISTRY=Ca_1.00_(Ti_0.93_Al_0.05_Fe^3+^_0.02_)Si_1.00_O_4_(O)_1.00_
##PIN_ID=M00222
##ORIENTATION=Laser parallel to -b* (0 -1 0). Fiducial mark perpendicular to laser is parallel to -c [0 0 -1]
123.422, 0.000
124.811, 4.589
126.201, 232.128
127.590, 142.440
128.979, 304.727
130.367, 615.266
131.756, 240.716
133.144, 403.660
134.532, 3.409
135.920, 89.298
137.307, 157.716
138.695, 48.298
140.082, 58.556
141.469, 22.669
142.856, 580.529
144.242, 411.935
145.628, 726.580
147.014, 434.131
148.400, 344.266
149.786, 116.685
151.171, 18.873
152.556, 547.356
153.941, 765.168
155.325, 2234.382
156.710, 2944.958
158.094, 4427.254
159.478, 5851.827
160.862, 7188.774
162.245, 8637.699
163.629, 9038.235
165.012, 9020.080
166.395, 7562.998
167.777, 6626.809
169.160, 5841.354
170.542, 4386.510
171.924, 4092.180
173.306, 3378.273
174.687, 3624.726
176.068, 3141.472
177.449, 3258.462
178.830, 3575.652
180.211, 3383.001
181.591, 4010.478
182.972, 3798.048
184.351, 4335.688
185.731, 4063.371
187.111, 4041.237
188.490, 3519.818
189.869, 3231.027
191.248, 3685.938
192.626, 3325.424
194.005, 3650.248
195.383, 3809.135
196.761, 3978.553
198.139, 4406.689
199.516, 4013.546
200.893, 4829.174
202.271, 4483.631
203.647, 5146.965
205.024, 5279.223
206.400, 5770.525
207.777, 6401.137
209.152, 5781.093
210.528, 6680.416
211.904, 6159.143
213.279, 6387.259
214.654, 6344.813
216.029, 5991.900
217.403, 6528.548
218.778, 5914.779
220.152, 6870.617
221.526, 6326.082
222.900, 7111.190
224.273, 7135.959
225.646, 7090.399
227.019, 7954.527
228.392, 7298.350
229.765, 8131.875
231.137, 7845.115
232.509, 8098.077
233.881, 8280.767
235.253, 7773.187
236.625, 8515.348
237.996, 7827.258
239.367, 8578.917
240.738, 8400.327
242.108, 8891.498
243.479, 9842.423
244.849, 9833.104
246.219, 12003.545
247.589, 12083.738
248.958, 13657.436
250.328, 14403.675
251.697, 14986.881
253.065, 16565.229
254.434, 15766.859
255.803, 17299.941
257.171, 15995.559
258.539, 15986.179
259.906, 15560.349
261.274, 14037.356
262.641, 13614.707
264.008, 11505.715
265.375, 11276.078
266.742, 9865.979
268.108, 8797.913
269.475, 8370.378
270.840, 7195.168
272.206, 7089.865
273.572, 6234.448
274.937, 6118.903
276.302, 5953.205
277.667, 5697.332
279.032, 6251.275
280.396, 5685.042
281.760, 6528.631
283.125, 6292.047
284.488, 7145.293
285.852, 7818.373
287.215, 8201.290
288.578, 9854.375
289.941, 9946.653
291.304, 11249.396
292.666, 10612.060
294.029, 9834.709
295.391, 9426.842
296.753, 8019.282
298.114, 8101.994
299.476, 7004.079
300.837, 7707.237
302.198, 7883.275
303.558, 7646.769
304.919, 8550.402
306.279, 8154.162
307.639, 8558.023
308.999, 8351.973
310.359, 8975.993
311.718, 9860.074
313.077, 10314.197
314.436, 12348.354
315.795, 12572.393
317.154, 13676.589
318.512, 13150.791
319.870, 11814.995
321.228, 11079.194
322.586, 9183.376
323.943, 8867.531
325.300, 7591.650
326.657, 7325.721
328.014, 7169.740
329.371, 6923.696
330.727, 7587.586
332.083, 7221.404
333.439, 7665.148
334.795, 7568.812
336.150, 7332.397
337.506, 7315.900
338.861, 6469.318
340.215, 6682.647
341.570, 5605.888
342.924, 5729.038
344.279, 5192.098
345.633, 4575.065
346.986, 4747.939
348.340, 4020.718
349.693, 4113.402
351.046, 3565.990
352.399, 3318.478
353.752, 3330.854
355.104, 2733.099
356.457, 2925.194
357.809, 2597.116
359.160, 2449.846
360.512, 2436.381
361.863, 2120.726
363.214, 2349.887
364.565, 1900.866
365.916, 1908.672
367.267, 1886.307
368.617, 1591.775
369.967, 1640.082
371.317, 1192.229
372.666, 1212.214
374.016, 986.038
375.365, 904.699
376.714, 728.200
378.063, 427.536
379.411, 497.697
380.760, 22.686
382.108, 33.547
383.456, 176.020
384.803, 344.764
386.151, 157.826
387.498, 353.154
388.845, 205.799
390.192, 368.721
391.539, 411.963
392.885, 366.533
394.231, 623.421
395.577, 578.691
396.923, 751.331
398.269, 777.386
399.614, 733.861
400.959, 827.744
402.304, 642.060
403.649, 711.757
404.993, 517.854
406.337, 584.296
407.681, 261.103
409.025, 25.186
410.369, 146.516
411.712, 736.028
413.055, 948.376
414.398, 1679.536
415.741, 2426.444
417.084, 3211.952
418.426, 4715.968
419.768, 5385.484
421.110, 7304.438
422.452, 7742.771
423.793, 8430.390
425.134, 8447.255
426.475, 7243.386
427.816, 6938.875
429.157, 5673.851
430.497, 4868.600
431.837, 4293.264
433.177, 3380.879
434.517, 3342.442
435.857, 2710.956
437.196, 2733.420
438.535, 2502.845
439.874, 2322.222
441.213, 2298.557
442.551, 2039.850
443.889, 2154.099
445.227, 2062.325
446.565, 2059.509
447.903, 2198.656
449.240, 2099.772
450.577, 2552.812
451.914, 2410.814
453.251, 2879.742
454.588, 3453.598
455.924, 3779.395
457.260, 4703.124
458.596, 5316.781
459.932, 6530.368
461.267, 7763.907
462.602, 8817.387
463.938, 11330.842
465.272, 12024.252
466.607, 14617.609
467.941, 15110.921
469.276, 14914.190
470.610, 14737.390
471.943, 12080.558
473.277, 11383.658
474.610, 8916.724
475.944, 7599.761
477.276, 6362.732
478.609, 5115.670
479.942, 4718.552
481.274, 3741.372
482.606, 3704.130
483.938, 3251.814
485.270, 2964.462
486.601, 3049.041
487.932, 2600.567
489.263, 2760.046
490.594, 2412.453
491.925, 2394.819
493.255, 2526.131
494.585, 2300.381
495.915, 2610.600
497.245, 2213.738
498.575, 2320.835
499.904, 2412.851
501.233, 2145.789
502.562, 2396.650
503.891, 2063.433
505.219, 2322.136
506.548, 2311.762
507.876, 2199.310
509.203, 2447.780
510.531, 2324.174
511.859, 2693.494
513.186, 2633.737
514.513, 2601.905
515.840, 3071.000
517.166, 2820.022
518.493, 3296.973
519.819, 3137.851
521.145, 3382.659
522.470, 3887.398
523.796, 3566.069
525.121, 4278.673
526.446, 4279.211
527.771, 4849.684
529.096, 5020.093
530.421, 5140.437
531.745, 6209.253
533.069, 6168.076
534.393, 6895.874
535.716, 7473.254
537.040, 7569.362
538.363, 8862.445
539.686, 8526.322
541.009, 9329.021
542.331, 9328.085
543.654, 9048.105
544.976, 10147.438
546.298, 9148.416
547.620, 9847.049
548.941, 9324.858
550.263, 9222.367
551.584, 9567.103
552.905, 8664.631
554.225, 8905.988
555.546, 8280.113
556.866, 7883.373
558.186, 8034.981
559.506, 7389.310
560.826, 8037.749
562.145, 7767.860
563.465, 7943.619
564.784, 8561.582
566.103, 8125.417
567.421, 8649.588
568.740, 8218.624
570.058, 8385.765
571.376, 8430.969
572.694, 7827.512
574.011, 8546.736
575.329, 7815.964
576.646, 8385.199
577.963, 8794.437
579.279, 8623.688
580.596, 9782.949
581.912, 9632.226
583.228, 11041.521
584.544, 11770.839
585.860, 12270.180
587.175, 14259.550
588.491, 13898.953
589.806, 16258.383
591.121, 17497.850
592.435, 18337.352
593.750, 20896.883
595.064, 20916.447
596.378, 24257.580
597.692, 25727.211
599.006, 26997.539
600.319, 29947.654
601.632, 30327.389
602.945, 33661.672
604.258, 34141.484
605.571, 35182.336
606.883, 37673.957
608.195, 35514.242
609.507, 38462.902
610.819, 36903.461
612.131, 36684.652
613.442, 36818.195
614.753, 33619.992
616.064, 35681.148
617.375, 31812.510
618.685, 31778.186
619.995, 30802.832
621.306, 27998.789
622.615, 28466.279
623.925, 26203.121
625.235, 25392.205
626.544, 24790.650
627.853, 22224.090
629.162, 22516.025
630.471, 19820.402
631.779, 19511.393
633.087, 18454.750
634.395, 16488.824
635.703, 17000.895
637.011, 15057.646
638.318, 14733.171
639.625, 14638.742
640.932, 13001.277
642.239, 13732.708
643.546, 12076.721
644.852, 12403.861
646.158, 12043.033
647.464, 10986.119
648.770, 11396.108
650.076, 9983.091
651.381, 10398.568
652.686, 9890.510
653.991, 9011.739
655.296, 9501.613
656.600, 8552.914
657.905, 8194.354
659.209, 8015.842
660.513, 7237.254
661.817, 7618.709
663.120, 6680.202
664.423, 6981.738
665.726, 6503.317
667.029, 6024.936
668.332, 6356.599
669.635, 5448.302
670.937, 5890.062
672.239, 5401.871
673.541, 5023.724
674.842, 5285.636
676.144, 4477.609
677.445, 4589.632
678.746, 4581.712
680.047, 4063.836
681.348, 4386.002
682.648, 3748.213
683.948, 3980.468
685.248, 3592.777
686.548, 3495.132
687.848, 3607.550
689.147, 3040.021
690.447, 3152.541
691.746, 3085.118
693.044, 2762.750
694.343, 3050.443
695.641, 2437.211
696.940, 2737.049
698.238, 2621.015
699.535, 2306.121
700.833, 2422.406
702.130, 1960.916
703.427, 2154.599
704.724, 1961.509
706.021, 1717.608
707.318, 1970.937
708.614, 1635.511
709.910, 1565.313
711.206, 1499.415
712.502, 1333.804
713.798, 1584.524
715.093, 1164.583
716.388, 1234.970
717.683, 1231.708
718.978, 963.750
720.272, 1378.112
721.567, 940.745
722.861, 1031.663
724.155, 990.784
725.448, 903.043
726.742, 1017.402
728.035, 803.824
729.328, 843.301
730.621, 929.823
731.914, 619.397
733.206, 801.017
734.499, 540.684
735.791, 684.402
737.083, 581.166
738.374, 369.001
739.666, 570.902
740.957, 249.864
742.248, 355.894
743.539, 337.972
744.830, 144.116
746.120, 341.312
747.410, 167.551
748.701, 172.864
749.990, 173.233
751.280, 68.353
752.570, 139.109
753.859, 32.384
755.148, 19.825
756.437, 53.790
757.725, 140.521
759.014, 35.167
760.302, 41.103
761.590, 63.336
762.878, 13.536
764.166, 217.706
765.453, 19.919
766.740, 40.106
768.027, 99.998
769.314, 52.811
770.601, 31.604
771.887, 34.955
773.174, 136.568
774.460, 111.304
775.745, 136.883
777.031, 164.590
778.316, 149.526
779.602, 187.776
780.887, 173.079
782.172, 67.429
783.456, 229.783
784.741, 83.213
786.025, 207.656
787.309, 245.144
788.593, 68.752
789.876, 217.363
791.160, 119.188
792.443, 92.767
793.726, 91.358
795.009, 21.346
796.291, 192.556
797.574, 50.210
798.856, 110.743
800.138, 145.626
801.420, 23.129
802.702, 155.067
803.983, 98.067
805.264, 67.913
806.545, 180.970
807.826, 42.959
809.107, 140.954
810.387, 67.868
811.667, 40.161
812.947, 41.018
814.227, 167.092
815.507, 191.029
816.786, 138.034
818.065, 431.356
819.344, 238.680
820.623, 414.345
821.902, 426.396
823.180, 472.846
824.459, 731.585
825.737, 558.392
827.014, 881.559
828.292, 803.307
829.569, 791.387
830.847, 1120.020
832.124, 943.097
833.401, 1155.462
834.677, 1200.033
835.954, 1154.584
837.230, 1477.978
838.506, 1425.317
839.782, 1647.815
841.057, 1933.768
842.333, 1855.478
843.608, 2371.010
844.883, 2293.709
846.158, 2537.913
847.433, 2914.125
848.707, 2993.344
849.981, 3643.570
851.255, 3779.801
852.529, 4142.037
853.803, 4891.282
855.076, 5020.528
856.350, 5899.776
857.623, 6209.028
858.895, 6488.280
860.168, 7827.527
861.441, 7886.772
862.713, 9126.014
863.985, 9995.250
865.257, 10734.480
866.528, 12943.704
867.800, 13172.917
869.071, 15052.118
870.342, 16781.303
871.613, 16190.479
872.884, 17869.637
874.154, 16098.768
875.425, 15727.883
876.695, 15786.978
877.965, 13596.048
879.234, 14265.094
880.504, 13064.115
881.773, 12653.197
883.042, 12902.364
884.311, 11193.457
885.580, 11362.975
886.848, 10052.913
888.117, 9073.362
889.385, 8843.318
890.653, 7148.702
891.920, 6783.001
893.188, 6046.077
894.455, 5160.962
895.722, 5261.435
896.989, 4405.967
898.256, 4477.061
899.523, 4252.502
900.789, 3975.277
902.055, 4260.599
903.321, 4039.592
904.587, 4220.219
905.852, 4699.189
907.118, 4347.518
908.383, 5096.667
909.648, 5223.450
910.913, 5019.336
912.177, 5339.258
913.442, 4375.682
914.706, 4235.393
915.970, 3737.843
917.233, 2931.274
918.497, 2649.378
919.760, 1924.701
921.024, 1672.488
922.287, 1387.803
923.550, 1031.985
924.812, 1066.851
926.075, 839.172
927.337, 702.518
928.599, 670.549
929.861, 473.041
931.122, 536.183
932.384, 455.076
933.645, 308.604
934.906, 417.136
936.167, 275.167
937.428, 348.753
938.688, 251.726
939.948, 119.331
941.208, 251.208
942.468, 114.088
943.728, 200.282
944.987, 195.696
946.247, 107.060
947.506, 118.456
948.765, 178.951
950.023, 146.860
951.282, 293.641
952.540, 108.387
953.798, 276.461
955.056, 237.382
956.314, 157.335
957.572, 223.812
958.829, 176.780
960.086, 145.497
961.343, 245.565
962.600, 82.167
963.856, 223.736
965.113, 145.271
966.369, 50.880
967.625, 174.439
968.881, 41.999
970.136, 110.654
971.392, 69.351
972.647, 54.608
973.902, 98.407
975.157, 2.418
976.411, 35.714
977.666, 56.117
978.920, 0.899
980.174, 21.617
981.428, 44.512
982.682, 4.718
983.935, 158.099
985.188, 112.786
986.441, 121.521
987.694, 163.438
988.947, 9.152
990.199, 146.013
991.452, 16.141
992.704, 102.260
993.956, 150.469
995.207, 114.091
996.459, 318.497
997.710, 401.174
998.961, 609.457
1000.212, 1191.264
1001.463, 1356.709
1002.714, 1469.006
1003.964, 1050.298
1005.214, 814.396
1006.464, 711.741
1007.714, 584.367
1008.964, 603.555
1010.213, 655.555
1011.462, 535.465
1012.711, 712.708
1013.960, 545.712
1015.209, 683.713
1016.457, 743.720
1017.705, 646.454
1018.954, 899.460
1020.201, 843.165
1021.449, 850.805
1022.697, 900.287
1023.944, 622.811
1025.191, 728.317
1026.438, 602.602
1027.685, 455.779
1028.931, 482.021
1030.177, 297.101
1031.423, 240.429
1032.669, 214.643
1033.915, 34.588
1035.161, 119.575
1036.406, 81.392
1037.651, 55.122
1038.896, 77.148
1040.141, 47.200
1041.386, 30.676
1042.630, 11.970
1043.874, 41.644
1045.118, 45.819
1046.362, 37.737
1047.606, 21.516
1048.849, 93.751
1050.092, 76.248
1051.336, 6.319
1052.578, 55.593
1053.821, 53.577
1055.064, 52.383
1056.306, 36.949
1057.548, 47.291
1058.790, 83.805
1060.032, 26.452
1061.273, 42.826
1062.515, 1.989
1063.756, 19.555
1064.997, 100.753
1066.237, 72.996
1067.478, 109.971
1068.718, 141.215
1069.959, 56.370
1071.199, 235.290
1072.438, 177.189
1073.678, 203.973
1074.918, 333.908
1076.157, 265.765
1077.396, 387.609
1078.635, 456.300
1079.873, 426.985
1081.112, 678.705
1082.350, 581.604
1083.588, 606.278
1084.826, 596.061
1086.064, 498.794
1087.301, 554.672
1088.539, 497.504
1089.776, 440.357
1091.013, 488.055
1092.250, 362.079
1093.486, 402.595
1094.723, 500.098
1095.959, 303.938
1097.195, 405.976
1098.431, 305.566
1099.666, 249.010
1100.902, 330.583
1102.137, 188.739
1103.372, 343.389
1104.607, 242.047
1105.842, 235.397
1107.076, 350.922
1108.311, 236.509
1109.545, 236.805
1110.779, 253.309
1112.012, 220.323
1113.246, 215.756
1114.479, 215.748
1115.712, 215.330
1116.945, 205.571
1118.178, 169.461
1119.411, 149.328
1120.643, 261.839
1121.875, 100.945
1123.108, 239.652
1124.339, 229.033
1125.571, 149.326
1126.802, 237.293
1128.034, 144.604
1129.265, 156.559
1130.496, 244.971
1131.727, 194.900
1132.957, 215.543
1134.187, 192.919
1135.418, 138.292
1136.648, 175.847
1137.877, 121.381
1139.107, 113.732
1140.336, 195.596
1141.566, 8.321
1142.795, 119.961
1144.023, 160.000
1145.252, 84.789
1146.480, 167.966
1147.709, 54.396
1148.937, 107.789
1150.165, 132.146
1151.392, 10.468
1152.620, 157.750
1153.847, 87.997
1155.074, 45.323
1156.301, 103.406
1157.528, 136.986
1158.755, 147.378
1159.981, 65.225
1161.207, 102.496
1162.433, 91.861
1163.659, 79.231
1164.885, 133.218
1166.110, 64.356
1167.336, 117.222
1168.561, 121.452
1169.786, 147.898
1171.010, 126.144
1172.235, 119.240
1173.459, 160.492
1174.683, 175.036
1175.907, 147.625
1177.131, 175.316
1178.355, 104.487
1179.578, 119.972
1180.801, 172.613
1182.024, 145.346
1183.247, 173.190
1184.470, 180.153
1185.692, 93.808
1186.915, 169.194
1188.137, 169.344
1189.359, 98.903
1190.580, 165.484
1191.802, 104.224
1193.023, 92.290
1194.244, 110.081
1195.465, 95.979
1196.686, 139.149
1197.907, 121.296
1199.127, 103.051
1200.347, 107.975
1201.567, 48.474
1202.787, 104.929
1204.007, 81.303
1205.226, 94.333
1206.446, 113.543
1207.665, 74.354
1208.884, 104.108
1210.102, 26.042
1211.321, 35.804
1212.539, 39.559
1213.758, 99.811
1214.976, 24.800
1216.193, 35.965
1217.411, 82.747
1218.628, 80.333
1219.846, 98.275
1221.063, 52.955
1222.280, 67.816
1223.496, 65.881
1224.713, 120.562
1225.929, 130.468
1227.145, 86.385
1228.361, 42.518
1229.577, 101.228
1230.793, 62.690
1232.008, 76.597
1233.223, 36.314
1234.438, 42.798
1235.653, 48.527
1236.868, 78.230
1238.082, 35.208
1239.297, 86.500
1240.511, 83.264
1241.725, 96.079
1242.938, 107.104
1244.152, 44.949
1245.365, 42.751
1246.578, 126.353
1247.791, 79.083
1249.004, 57.970
1250.217, 55.869
1251.429, 142.332
1252.642, 146.396
1253.854, 52.039
1255.066, 134.540
1256.277, 108.267
1257.489, 114.299
1258.700, 108.600
1259.911, 106.182
1261.122, 59.327
1262.333, 71.022
1263.544, 130.279
1264.754, 108.222
1265.964, 142.470
1267.174, 75.358
1268.384, 67.319
1269.594, 76.817
1270.803, 90.950
1272.013, 58.608
1273.222, 118.928
1274.431, 117.444
1275.640, 62.703
1276.848, 65.921
1278.057, 59.400
1279.265, 152.749
1280.473, 108.667
1281.681, 54.586
1282.888, 109.473
1284.096, 129.331
1285.303, 100.841
1286.510, 98.781
1287.717, 49.025
1288.924, 71.644
1290.131, 68.597
1291.337, 107.827
1292.543, 57.467
1293.749, 110.243
1294.955, 62.393
1296.161, 118.722
1297.366, 68.813
1298.571, 113.769
1299.777, 45.852
1300.981, 59.722
1302.186, 80.255
1303.391, 121.493
1304.595, 82.255
1305.799, 128.635
1307.003, 99.783
1308.207, 120.146
1309.411, 113.240
1310.614, 72.245
1311.818, 127.000
1313.021, 94.964
1314.224, 121.677
1315.426, 52.876
1316.629, 100.252
1317.831, 122.989
1319.033, 140.340
1320.235, 135.880
1321.437, 122.082
1322.639, 123.381
1323.840, 99.793
1325.042, 39.032
1326.243, 54.961
1327.444, 94.140
1328.644, 121.578
1329.845, 71.424
1331.045, 104.412
1332.245, 100.093
1333.445, 131.327
1334.645, 94.671
1335.845, 138.975
1337.044, 74.061
1338.244, 94.891
1339.443, 58.192
1340.642, 16.471
1341.840, 134.934
1343.039, 96.388
1344.237, 40.718
1345.435, 123.133
1346.633, 33.432
1347.831, 53.952
1349.029, 95.354
1350.226, 26.650
1351.424, 122.987
1352.621, 34.278
1353.818, 56.667
1355.014, 111.966
1356.211, 48.386
1357.407, 17.727
1358.604, 91.203
1359.800, 2.283
1360.995, 62.266
1362.191, 26.141
1363.387, 36.455
1364.582, 139.122
1365.777, 16.174
1366.972, 9.571
1368.167, 79.353
1369.361, 37.180
1370.556, 50.041
1371.750, 108.941
1372.944, 75.865
1374.138, 194.825
1375.331, 53.810
1376.525, 124.819
1377.718, 198.847
1378.911, 146.909
1380.104, 207.012
1381.297, 225.145
1382.490, 218.317
1383.682, 245.347
1384.874, 270.590
1386.066, 31.874
1387.258, 209.560
1388.450, 132.807
1389.641, 59.116
1390.833, 210.479
1392.024, 141.750
1393.215, 187.631
1394.406, 163.556
1395.596, 42.973
1396.787, 108.929
1397.977, 97.319
1399.167, 18.737
1400.357, 81.180
1401.547, 3.645
1402.736, 86.131
1403.925, 63.633
1405.115, 65.149
1406.304, 120.637
1407.492, 151.404
1408.681, 11.802
1409.870, 95.041
1411.058, 116.228
1412.246, 6.271
1413.434, 161.554
1414.622, 71.975
1415.809, 81.673
1416.997, 208.588
1418.184, 51.958
1419.371, 52.833
1420.558, 53.363
1421.744, 49.092
1422.931, 86.413
1424.117, 34.537
1425.303, 0.000
##END=



