##NAMES=Titanite
##RRUFFID=R050124
##IDEAL CHEMISTRY=CaTi^4+^SiO_5_
##LOCALITY=Capelinha, Minas Gerais, Brazil
##OWNER=RRUFF
##SOURCE=Carlos and Paulo Vasconcelos
##DESCRIPTION=Yellow tabular crystal
##STATUS=The identification of this mineral has been confirmed by X-ray diffraction and chemical analysis
##URL=rruff.info/R050124
##MEASURED CHEMISTRY=Ca_1.00_(Ti_0.93_Al_0.05_Fe^3+^_0.02_)Si_1.00_O_4_(O)_1.00_
##PIN_ID=M00259
##ORIENTATION=Laser parallel to c* (0 0 1). Fiducial mark perpendicular to laser is parallel to a [1 0 0]
151.469, 0.000
152.858, 2.465
154.247, 368.997
155.635, 57.860
157.024, 104.315
158.411, 371.271
159.799, 177.071
161.187, 917.020
162.574, 461.300
163.961, 1053.299
165.348, 895.192
166.734, 1199.817
168.121, 1325.649
169.507, 1131.355
170.893, 1965.730
172.278, 1597.794
173.664, 2546.715
175.049, 2661.738
176.434, 2902.190
177.819, 3597.477
179.203, 3227.096
180.587, 4160.840
181.971, 3719.040
183.355, 4451.438
184.739, 4287.486
186.122, 4316.720
187.505, 4628.750
188.888, 3543.244
190.271, 4440.055
191.653, 3529.283
193.035, 4030.753
194.417, 3904.160
195.799, 4089.255
197.180, 4825.833
198.562, 4423.742
199.943, 5522.850
201.324, 4983.045
202.704, 5524.233
204.084, 5226.332
205.465, 4699.272
206.844, 5313.249
208.224, 4489.283
209.603, 5080.020
210.983, 4276.777
212.362, 4875.596
213.740, 4724.697
215.119, 4263.496
216.497, 5032.016
217.875, 4260.283
219.253, 5348.319
220.631, 4846.143
222.008, 5283.772
223.385, 5731.221
224.762, 5598.502
226.139, 6375.621
227.515, 5503.970
228.891, 6284.906
230.267, 6018.684
231.643, 5783.309
233.018, 6127.405
234.394, 5080.938
235.769, 5663.680
237.144, 4665.807
238.518, 4947.453
239.893, 4948.714
241.267, 4969.654
242.641, 6010.335
244.014, 5850.798
245.388, 7291.082
246.761, 7351.219
248.134, 8331.234
249.507, 8901.147
250.879, 8600.978
252.252, 9760.740
253.624, 8610.447
254.996, 9520.108
256.367, 8869.730
257.739, 8319.323
259.110, 8028.895
260.481, 6918.444
261.852, 7095.375
263.222, 5583.303
264.592, 5433.781
265.962, 4669.969
267.332, 3975.900
268.702, 3734.961
270.071, 2442.438
271.440, 2739.349
272.809, 1751.400
274.178, 2002.100
275.546, 1495.333
276.915, 1108.644
278.283, 1642.029
279.650, 785.485
281.018, 1489.010
282.385, 1202.601
283.752, 1626.255
285.119, 2269.970
286.486, 2243.743
287.852, 3467.572
289.218, 3261.455
290.584, 4255.385
291.950, 3969.350
293.316, 3783.323
294.681, 3927.296
296.046, 3021.266
297.411, 3765.233
298.775, 3009.197
300.140, 3823.162
301.504, 4559.945
302.868, 4750.920
304.231, 6619.559
305.595, 6840.231
306.958, 9205.175
308.321, 10886.503
309.684, 13723.663
311.047, 18153.652
312.409, 22543.652
313.771, 30373.664
315.133, 35403.703
316.495, 40788.469
317.856, 41787.820
319.217, 39152.629
320.578, 35928.211
321.939, 29526.029
323.299, 25955.027
324.660, 21255.027
326.020, 18145.916
327.380, 16047.595
328.739, 13179.970
330.099, 12932.976
331.458, 10916.553
332.817, 11000.646
334.176, 9935.207
335.534, 9090.197
336.892, 9135.579
338.251, 7741.320
339.608, 7957.393
340.966, 6753.770
342.323, 6300.430
343.681, 6157.349
345.037, 5104.510
346.394, 5581.893
347.751, 4319.475
349.107, 4597.242
350.463, 4125.177
351.819, 3613.269
353.174, 3711.503
354.530, 2589.869
355.885, 2928.358
357.240, 1946.959
358.594, 2115.660
359.949, 1854.456
361.303, 1253.338
362.657, 1842.301
364.011, 751.339
365.365, 1320.447
366.718, 739.621
368.071, 528.855
369.424, 748.148
370.777, 172.508
372.129, 526.820
373.481, 303.832
374.833, 14.582
376.185, 145.372
377.537, 840.236
378.888, 107.346
380.239, 974.518
381.590, 459.970
382.941, 671.570
384.291, 832.371
385.642, 115.415
386.992, 773.522
388.341, 70.144
389.691, 442.211
391.040, 24.717
392.389, 372.717
393.738, 139.886
395.087, 737.404
396.435, 234.654
397.784, 941.869
399.132, 1089.053
400.479, 1176.208
401.827, 2343.334
403.174, 1850.438
404.521, 3327.519
405.868, 3334.578
407.215, 4361.615
408.561, 6068.635
409.908, 6565.635
411.254, 9762.619
412.599, 10809.585
413.945, 14236.534
415.290, 17723.467
416.636, 21060.383
417.980, 27407.295
419.325, 30404.182
420.670, 35661.062
422.014, 37597.914
423.358, 37294.762
424.702, 37111.516
426.045, 31418.111
427.389, 28404.582
428.732, 22490.650
430.075, 18366.146
431.417, 14981.059
432.760, 11015.605
434.102, 9559.961
435.444, 6644.283
436.786, 5738.537
438.127, 4362.819
439.469, 3057.118
440.810, 3171.436
442.151, 1505.771
443.492, 1850.127
444.832, 754.565
446.172, 419.022
447.512, 563.497
448.852, 512.010
450.192, 182.327
451.531, 713.251
452.870, 559.039
454.209, 324.983
455.548, 969.018
456.887, 107.328
458.225, 913.569
459.563, 260.070
460.901, 416.655
462.238, 413.345
463.576, 189.646
464.913, 417.516
466.250, 544.858
467.587, 296.884
468.923, 518.564
470.259, 1199.965
471.596, 531.341
472.931, 1652.758
474.267, 1334.218
475.603, 1875.816
476.938, 2357.460
478.273, 2119.259
479.608, 3461.156
480.942, 2793.128
482.276, 3855.253
483.611, 4157.438
484.944, 3909.750
486.278, 5002.113
487.612, 4354.525
488.945, 5397.062
490.278, 5129.643
491.611, 5122.268
492.943, 5834.933
494.276, 4777.630
495.608, 5670.432
496.940, 4973.264
498.271, 4886.129
499.603, 5209.023
500.934, 4011.946
502.265, 4904.898
503.596, 3717.877
504.927, 4050.883
506.257, 3973.914
507.587, 3346.971
508.917, 4310.054
510.247, 3253.158
511.577, 4056.290
512.906, 4069.443
514.235, 3682.620
515.564, 4465.820
516.892, 3589.045
518.221, 4572.292
519.549, 4225.562
520.877, 4038.855
522.205, 4892.172
523.533, 4095.510
524.860, 5148.873
526.187, 4722.256
527.514, 5115.665
528.841, 5879.098
530.167, 5122.552
531.493, 6704.312
532.820, 6257.816
534.145, 7201.830
535.471, 7791.604
536.796, 7594.109
538.122, 9015.986
539.447, 8260.223
540.771, 9363.233
542.096, 9516.896
543.420, 8897.993
544.744, 10029.338
546.068, 8872.423
547.392, 9727.077
548.715, 9269.567
550.039, 8443.355
551.362, 9360.922
552.684, 7794.972
554.007, 8286.072
555.329, 7240.222
556.652, 6604.418
557.973, 6818.666
559.295, 5332.966
560.617, 6327.318
561.938, 5071.723
563.259, 4986.180
564.580, 5480.689
565.901, 4465.255
567.221, 6009.875
568.541, 5304.548
569.861, 6039.278
571.181, 6964.064
572.501, 6188.908
573.820, 7993.809
575.139, 7488.765
576.458, 8633.780
577.777, 9418.857
579.095, 9423.989
580.414, 11279.183
581.732, 11054.437
583.049, 12919.748
584.367, 14355.122
585.685, 14760.560
587.002, 17576.062
588.319, 17781.629
589.636, 20257.264
590.952, 22022.975
592.268, 23298.762
593.585, 27344.613
594.900, 27370.553
596.216, 31427.799
597.532, 33043.887
598.847, 35590.059
600.162, 39426.301
601.477, 39632.625
602.792, 44102.910
604.106, 45559.391
605.420, 46715.961
606.734, 50202.602
608.048, 48100.086
609.361, 51121.977
610.675, 50147.594
611.988, 49824.008
613.301, 50906.102
614.614, 46545.844
615.926, 48125.430
617.238, 45698.809
618.550, 42842.562
619.862, 44031.707
621.174, 39235.637
622.485, 39872.738
623.797, 36756.629
625.108, 35667.258
626.418, 34702.906
627.729, 31401.002
629.039, 31822.580
630.349, 28770.928
631.659, 27549.365
632.969, 27379.029
634.279, 24297.744
635.588, 25084.709
636.897, 22493.695
638.206, 21682.779
639.515, 21250.352
640.823, 19189.783
642.131, 19644.670
643.439, 17684.354
644.747, 17394.209
646.055, 17381.902
647.362, 15432.097
648.669, 16413.043
649.976, 14323.441
651.283, 14474.025
652.589, 14289.331
653.896, 12710.213
655.202, 13781.189
656.508, 11862.266
657.814, 12673.563
659.119, 12004.960
660.424, 10676.482
661.729, 11968.107
663.034, 10069.831
664.339, 10631.687
665.643, 10273.642
666.947, 9185.695
668.251, 10127.852
669.555, 8440.106
670.859, 8992.467
672.162, 8894.925
673.465, 7747.483
674.768, 8800.146
676.071, 7282.906
677.373, 7715.770
678.676, 7438.735
679.978, 6341.802
681.280, 7444.970
682.581, 5898.240
683.883, 6601.611
685.184, 6295.086
686.485, 5278.662
687.786, 6542.339
689.087, 4946.179
690.387, 5950.120
691.687, 5404.254
692.987, 4638.519
694.287, 5752.938
695.586, 4297.691
696.886, 4882.594
698.185, 4787.864
699.484, 3853.373
700.783, 5019.174
702.081, 3565.307
703.379, 4121.596
704.677, 4008.207
705.975, 3134.931
707.273, 4171.892
708.570, 2748.992
709.868, 3526.195
711.165, 3283.562
712.462, 2451.029
713.758, 3628.598
715.055, 2256.268
716.351, 2954.037
717.647, 2731.905
718.943, 1999.874
720.238, 3037.941
721.533, 1996.110
722.829, 2544.377
724.124, 2452.743
725.418, 1651.207
726.713, 2689.770
728.007, 1368.430
729.301, 2107.188
730.595, 1996.044
731.889, 1345.007
733.182, 2254.067
734.476, 993.223
735.769, 1642.482
737.061, 1591.836
738.354, 831.294
739.647, 1940.848
740.939, 650.496
742.231, 1050.293
743.523, 1390.183
744.814, 250.174
746.106, 1480.267
747.397, 350.450
748.688, 670.762
749.978, 1091.164
751.269, 58.341
752.559, 1072.299
753.849, 143.028
755.139, 253.951
756.429, 794.970
757.719, 363.923
759.008, 777.275
760.297, 78.560
761.586, 119.937
762.875, 591.416
764.163, 416.842
765.451, 564.880
766.739, 63.085
768.027, 120.799
769.315, 471.703
770.602, 615.416
771.890, 597.378
773.177, 39.460
774.463, 166.119
775.750, 607.428
777.036, 478.793
778.323, 624.887
779.609, 91.190
780.894, 207.222
782.180, 676.769
783.465, 509.164
784.750, 331.802
786.035, 65.831
787.320, 460.064
788.605, 698.646
789.889, 397.283
791.173, 249.446
792.457, 223.506
793.741, 392.364
795.024, 984.512
796.307, 321.380
797.591, 343.395
798.873, 654.172
800.156, 351.663
801.439, 1084.299
802.721, 8.462
804.003, 282.670
805.285, 737.862
806.566, 267.800
807.848, 1067.859
809.129, 312.189
810.410, 666.576
811.691, 1478.527
812.971, 443.172
814.252, 1903.561
815.532, 1358.310
816.812, 1633.159
818.092, 2314.263
819.371, 1369.242
820.651, 2764.269
821.930, 2369.342
823.209, 2524.540
824.488, 3759.788
825.766, 2805.078
827.045, 4350.424
828.323, 4235.814
829.601, 3881.308
830.878, 5516.840
832.156, 4302.412
833.433, 5638.051
834.710, 5943.728
835.987, 5159.451
837.264, 6885.215
838.540, 6311.014
839.817, 7346.877
841.093, 7992.774
842.369, 7418.703
843.644, 9374.716
844.920, 8880.760
846.195, 9556.839
847.470, 10772.947
848.745, 9879.087
850.020, 12275.266
851.294, 11861.472
852.568, 12367.698
853.842, 13873.965
855.116, 12940.252
856.390, 14806.562
857.663, 14902.886
858.936, 14769.228
860.209, 16925.596
861.482, 16201.974
862.755, 18248.367
864.027, 19464.783
865.299, 19451.203
866.571, 23437.646
867.843, 22964.096
869.115, 25020.555
870.386, 25997.035
871.657, 24323.520
872.928, 24960.012
874.199, 22026.510
875.470, 19343.010
876.740, 17959.510
878.010, 14396.019
879.280, 13472.528
880.550, 10929.037
881.820, 9185.550
883.089, 9372.062
884.358, 6850.951
885.627, 7157.460
886.896, 6153.967
888.164, 4951.519
889.433, 5758.016
890.701, 4076.424
891.969, 4432.910
893.236, 4089.391
894.504, 3237.807
895.771, 4544.269
897.038, 3412.235
898.305, 4220.033
899.572, 4926.463
900.838, 4220.305
902.105, 6156.708
903.371, 5743.349
904.637, 6014.437
905.902, 7940.795
907.168, 7450.795
908.433, 9998.214
909.698, 10834.517
910.963, 11377.337
912.228, 13303.598
913.492, 11540.544
914.757, 11500.395
916.021, 10286.578
917.285, 8064.285
918.548, 8150.418
919.812, 5804.976
921.075, 5196.568
922.338, 4672.611
923.601, 2771.701
924.864, 3408.473
926.126, 2023.392
927.388, 1860.055
928.650, 2135.923
929.912, 770.578
931.174, 1698.706
932.435, 1041.713
933.697, 512.389
934.958, 1349.059
936.218, 25.301
937.479, 811.139
938.739, 816.614
940.000, 104.064
941.260, 1078.208
942.520, 79.726
943.779, 288.223
945.039, 748.234
946.298, 405.180
947.557, 792.007
948.816, 58.751
950.074, 151.720
951.333, 699.140
952.591, 401.380
953.849, 616.500
955.107, 262.694
956.365, 221.506
957.622, 803.291
958.879, 234.808
960.136, 507.048
961.393, 621.142
962.650, 328.669
963.906, 875.112
965.162, 37.960
966.418, 420.683
967.674, 896.315
968.930, 35.951
970.185, 1189.118
971.441, 802.764
972.696, 467.180
973.950, 1635.701
975.205, 314.010
976.459, 1371.283
977.714, 1407.033
978.968, 568.167
980.222, 1875.191
981.475, 979.205
982.729, 1289.157
983.982, 1897.193
985.235, 967.025
986.488, 2032.900
987.740, 1535.605
988.993, 1407.250
990.245, 2454.873
991.497, 1236.393
992.749, 2327.846
994.000, 2080.215
995.252, 1441.552
996.503, 2563.667
997.754, 1355.601
999.005, 1956.740
1000.256, 2331.110
1001.506, 1112.112
1002.756, 2363.044
1004.006, 1647.483
1005.256, 1289.274
1006.506, 2479.633
1007.755, 1108.282
1009.005, 2050.860
1010.254, 2083.543
1011.502, 1290.978
1012.751, 2544.340
1014.000, 1636.262
1015.248, 1866.477
1016.496, 2448.819
1017.744, 1334.888
1018.991, 2418.884
1020.239, 1861.209
1021.486, 1591.055
1022.733, 2560.830
1023.980, 1167.531
1025.227, 1890.156
1026.473, 1789.705
1027.719, 775.177
1028.965, 2088.577
1030.211, 758.901
1031.457, 991.147
1032.702, 1636.322
1033.948, 269.419
1035.193, 1418.413
1036.438, 1018.331
1037.682, 400.170
1038.927, 1660.925
1040.171, 315.601
1041.415, 866.179
1042.659, 1058.687
1043.903, 10.884
1045.146, 1238.357
1046.390, 362.522
1047.633, 383.594
1048.876, 1295.572
1050.118, 73.470
1051.361, 1085.221
1052.603, 590.895
1053.845, 75.517
1055.087, 1092.860
1056.329, 198.839
1057.571, 430.175
1058.812, 791.098
1060.053, 307.650
1061.294, 1084.914
1062.535, 503.399
1063.775, 213.797
1065.016, 1345.079
1066.256, 45.318
1067.496, 786.478
1068.736, 931.554
1069.975, 33.009
1071.214, 1168.896
1072.454, 439.701
1073.693, 504.543
1074.931, 1321.295
1076.170, 97.978
1077.408, 1227.552
1078.647, 738.044
1079.885, 309.564
1081.122, 1470.979
1082.360, 214.330
1083.597, 922.610
1084.835, 1375.807
1086.072, 168.996
1087.308, 1471.099
1088.545, 790.119
1089.781, 329.437
1091.018, 1657.380
1092.254, 239.568
1093.490, 1052.474
1094.725, 1313.299
1095.961, 240.285
1097.196, 1403.021
1098.431, 523.006
1099.666, 503.978
1100.900, 1159.544
1102.135, 13.777
1103.369, 966.654
1104.603, 653.021
1105.837, 121.390
1107.071, 1242.586
1108.304, 83.378
1109.538, 388.467
1110.771, 942.478
1112.004, 489.094
1113.236, 718.621
1114.469, 334.431
1115.701, 110.142
1116.933, 1219.156
1118.165, 43.820
1119.397, 526.285
1120.629, 890.314
1121.860, 228.726
1123.091, 866.073
1124.322, 326.728
1125.553, 49.311
1126.783, 1059.135
1128.014, 148.445
1129.244, 737.784
1130.474, 738.952
1131.704, 25.946
1132.933, 1318.593
1134.163, 170.516
1135.392, 337.353
1136.621, 1241.802
1137.850, 27.500
1139.079, 820.828
1140.307, 897.342
1141.535, 108.209
1142.763, 1237.882
1143.991, 377.110
1145.219, 404.267
1146.446, 1158.553
1147.674, 52.576
1148.901, 1012.509
1150.128, 856.376
1151.354, 29.180
1152.581, 1341.912
1153.807, 425.566
1155.033, 795.152
1156.259, 1496.697
1157.485, 151.178
1158.710, 1396.577
1159.936, 822.915
1161.161, 213.195
1162.386, 1425.400
1163.611, 143.542
1164.835, 602.604
1166.060, 1281.458
1167.284, 116.400
1168.508, 1559.260
1169.732, 1305.112
1170.955, 728.857
1172.179, 2237.700
1173.402, 1129.324
1174.625, 1546.892
1175.848, 2287.712
1177.070, 1236.160
1178.293, 2356.550
1179.515, 1809.874
1180.737, 1308.146
1181.959, 2422.978
1183.181, 1107.133
1184.402, 1699.233
1185.624, 2100.078
1186.845, 782.062
1188.066, 2176.077
1189.286, 1278.991
1190.507, 905.808
1191.727, 2222.622
1192.947, 826.186
1194.167, 1304.320
1195.387, 2076.558
1196.607, 656.096
1197.826, 1846.162
1199.045, 1271.535
1200.264, 765.668
1201.483, 1749.057
1202.702, 672.625
1203.920, 1062.198
1205.138, 1486.282
1206.356, 399.741
1207.574, 1656.393
1208.792, 1114.075
1210.009, 666.347
1211.227, 1963.650
1212.444, 492.229
1213.661, 1140.631
1214.877, 1877.467
1216.094, 364.001
1217.310, 1759.769
1218.526, 1305.470
1219.742, 478.557
1220.958, 1941.370
1222.173, 712.302
1223.389, 996.558
1224.604, 1909.028
1225.819, 631.518
1227.034, 1694.522
1228.248, 1389.827
1229.463, 769.708
1230.677, 2153.938
1231.891, 869.634
1233.105, 1366.503
1234.318, 1961.654
1235.532, 687.217
1236.745, 1835.347
1237.958, 1556.453
1239.171, 815.857
1240.384, 2228.950
1241.596, 1041.006
1242.809, 1314.665
1244.021, 2288.792
1245.233, 893.795
1246.444, 1822.373
1247.656, 2079.519
1248.867, 737.771
1250.079, 2197.984
1251.290, 1216.166
1252.500, 981.381
1253.711, 2097.591
1254.921, 656.289
1256.132, 1369.687
1257.342, 1385.895
1258.552, 355.763
1259.761, 1806.008
1260.971, 697.272
1262.180, 635.245
1263.389, 1735.440
1264.598, 138.994
1265.807, 1041.577
1267.015, 1550.725
1268.223, 107.686
1269.432, 1585.777
1270.640, 893.823
1271.847, 280.899
1273.055, 1682.918
1274.262, 508.956
1275.470, 639.166
1276.677, 1369.108
1277.883, 210.886
1279.090, 1202.244
1280.296, 851.018
1281.503, 180.866
1282.709, 1402.688
1283.915, 160.451
1285.120, 415.847
1286.326, 1132.609
1287.531, 88.635
1288.736, 1236.628
1289.941, 1202.473
1291.146, 43.415
1292.350, 1666.639
1293.555, 591.910
1294.759, 483.419
1295.963, 1612.911
1297.167, 320.801
1298.370, 950.043
1299.574, 1459.822
1300.777, 320.215
1301.980, 1517.282
1303.183, 970.472
1304.386, 527.814
1305.588, 1655.175
1306.790, 333.717
1307.993, 1164.871
1309.195, 1519.808
1310.396, 120.912
1311.598, 1342.548
1312.799, 836.209
1314.000, 72.264
1315.201, 1659.514
1316.402, 285.513
1317.603, 427.376
1318.803, 1568.127
1320.003, 8.943
1321.203, 1051.740
1322.403, 1217.803
1323.603, 84.548
1324.802, 1497.273
1326.002, 741.949
1327.201, 372.620
1328.400, 1219.828
1329.599, 116.456
1330.797, 646.045
1331.995, 1165.211
1333.194, 35.234
1334.392, 1303.295
1335.589, 781.841
1336.787, 115.272
1337.985, 1699.680
1339.182, 391.056
1340.379, 498.419
1341.576, 1747.087
1342.772, 96.437
1343.969, 1090.736
1345.165, 1285.198
1346.361, 14.518
1347.557, 1415.808
1348.753, 774.386
1349.949, 244.737
1351.144, 1421.662
1352.339, 168.095
1353.534, 642.506
1354.729, 1219.216
1355.924, 178.366
1357.118, 1219.951
1358.312, 814.287
1359.506, 124.479
1360.700, 1433.283
1361.894, 337.201
1363.088, 199.304
1364.281, 1530.379
1365.474, 11.505
1366.667, 676.127
1367.860, 1195.159
1369.052, 58.078
1370.245, 1113.880
1371.437, 622.449
1372.629, 43.023
1373.821, 1525.595
1375.013, 220.165
1376.204, 718.729
1377.395, 1535.166
1378.586, 1.592
1379.777, 1178.005
1380.968, 1134.404
1382.159, 268.158
1383.349, 1477.270
1384.539, 603.701
1385.729, 95.135
1386.919, 1606.711
1388.109, 241.443
1389.298, 487.037
1390.487, 1415.801
1391.676, 19.517
1392.865, 1118.029
1394.054, 974.054
1395.242, 66.133
1396.431, 1398.577
1397.619, 374.865
1398.807, 353.090
1399.995, 1618.273
1401.182, 31.288
1402.370, 737.420
1403.557, 1503.682
1404.744, 183.030
1405.931, 1288.269
1407.118, 1015.574
1408.304, 10.880
1409.490, 1590.204
1410.676, 590.558
1411.862, 581.749
1413.048, 1541.165
1414.234, 236.086
1415.419, 944.300
1416.604, 1309.812
1417.789, 88.278
1418.974, 1463.264
1420.159, 990.777
1421.343, 17.015
1422.528, 1794.548
1423.712, 520.874
1424.896, 470.079
1426.079, 1792.709
1427.263, 257.382
1428.446, 876.509
1429.629, 1532.020
1430.812, 58.760
1431.995, 1336.983
1433.178, 973.666
1434.360, 255.696
1435.543, 1703.322
1436.725, 427.134
1437.907, 765.520
1439.088, 1771.389
1440.270, 35.950
1441.451, 980.495
1442.632, 1705.660
1443.813, 54.707
1444.994, 1409.983
1446.175, 1304.580
1447.355, 123.010
1448.535, 1756.108
1449.715, 860.837
1450.895, 526.885
1452.075, 1739.225
1453.255, 286.193
1454.434, 1080.186
1455.613, 1527.033
1456.792, 127.604
1457.971, 1634.436
1459.149, 1222.492
1460.328, 190.207
1461.506, 1940.093
1462.684, 728.905
1463.862, 349.893
1465.040, 1911.775
1466.217, 642.222
1467.395, 944.720
1468.572, 1969.800
1469.749, 295.662
1470.925, 1477.400
1472.102, 1446.413
1473.278, 293.508
1474.455, 1743.078
1475.631, 927.679
1476.807, 430.948
1477.982, 1949.490
1479.158, 444.759
1480.333, 811.720
1481.508, 1955.591
1482.683, 137.713
1483.858, 1310.179
1485.033, 1626.994
1486.207, 48.086
1487.381, 1599.913
1488.555, 1231.894
1489.729, 433.599
1490.903, 1775.512
1492.076, 619.052
1493.250, 768.038
1494.423, 1740.834
1495.596, 207.707
1496.769, 1281.013
1497.941, 1632.809
1499.114, 50.801
1500.286, 1616.402
1501.458, 1386.739
1502.630, 225.585
1503.802, 1888.185
1504.973, 976.021
1506.145, 242.150
1507.316, 1531.879
1508.487, 2.962
1509.657, 225.735
1510.828, 0.000
##END=



