##NAMES=Titanite
##RRUFFID=R050124
##IDEAL CHEMISTRY=CaTi^4+^SiO_5_
##LOCALITY=Capelinha, Minas Gerais, Brazil
##OWNER=RRUFF
##SOURCE=Carlos and Paulo Vasconcelos
##DESCRIPTION=Yellow tabular crystal
##STATUS=The identification of this mineral has been confirmed by X-ray diffraction and chemical analysis
##URL=rruff.info/R050124
##MEASURED CHEMISTRY=Ca_1.00_(Ti_0.93_Al_0.05_Fe^3+^_0.02_)Si_1.00_O_4_(O)_1.00_
##PIN_ID=M00222
##ORIENTATION=Laser parallel to -b* (0 -1 0). Fiducial mark perpendicular to laser is parallel to -c [0 0 -1]
126.201, 0.000
127.590, 20.217
128.979, 488.766
130.367, 299.276
131.756, 10.183
133.144, 362.422
134.532, 13.911
135.920, 229.120
137.307, 29.138
138.695, 263.362
140.082, 151.233
141.469, 87.750
142.856, 606.009
144.242, 172.305
145.628, 731.034
147.014, 302.005
148.400, 564.979
149.786, 319.717
151.171, 316.001
152.556, 1053.631
153.941, 962.433
155.325, 2182.258
156.710, 2382.996
158.094, 3554.618
159.478, 4297.306
160.862, 5231.347
162.245, 6136.895
163.629, 5763.769
165.012, 6051.697
166.395, 4930.460
167.777, 4389.877
169.160, 3649.818
170.542, 2410.182
171.924, 2520.877
173.306, 1641.841
174.687, 1923.012
176.068, 1494.346
177.449, 1665.804
178.830, 1537.350
180.211, 1368.958
181.591, 1870.601
182.972, 1192.258
184.351, 1983.957
185.731, 1425.815
187.111, 1777.938
188.490, 1440.571
189.869, 1194.282
191.248, 1590.412
192.626, 1158.793
194.005, 1429.690
195.383, 1233.604
196.761, 1378.735
198.139, 1724.283
199.516, 1388.886
200.893, 2022.557
202.271, 1375.336
203.647, 2127.266
205.024, 1918.379
206.400, 2168.716
207.777, 2558.356
209.152, 1887.472
210.528, 2656.135
211.904, 2034.337
213.279, 2412.107
214.654, 2279.487
216.029, 2156.506
217.403, 2613.151
218.778, 1969.479
220.152, 2795.505
221.526, 2071.244
222.900, 2776.708
224.273, 2721.910
225.646, 2626.857
227.019, 3311.564
228.392, 2616.032
229.765, 3410.271
231.137, 2914.286
232.509, 3288.082
233.881, 3561.666
235.253, 2975.040
236.625, 3798.209
237.996, 3011.176
239.367, 3703.946
240.738, 3546.521
242.108, 3992.797
243.479, 4608.381
244.849, 4115.086
246.219, 5735.071
247.589, 5151.986
248.958, 6352.939
250.328, 6419.529
251.697, 6709.346
253.065, 7899.738
254.434, 7218.491
255.803, 8589.737
257.171, 7506.634
258.539, 7926.429
259.906, 7718.318
261.274, 6789.759
262.641, 6973.576
264.008, 5563.986
265.375, 5750.081
266.742, 4823.559
268.108, 4545.964
269.475, 4480.275
270.840, 3710.926
272.206, 3911.491
273.572, 3231.963
274.937, 3532.332
276.302, 3242.586
277.667, 3412.709
279.032, 4122.697
280.396, 3552.544
281.760, 4782.250
283.125, 4411.818
284.488, 5661.253
285.852, 6601.337
287.215, 6991.932
288.578, 9033.780
289.941, 9156.923
291.304, 11277.771
292.666, 10662.894
294.029, 10018.818
295.391, 9594.908
296.753, 7309.795
298.114, 7076.222
299.476, 5192.521
300.837, 5219.078
302.198, 4525.763
303.558, 3902.550
304.919, 4619.424
306.279, 3934.446
307.639, 4571.451
308.999, 4378.498
310.359, 5135.580
311.718, 6202.684
313.077, 6519.800
314.436, 8816.922
315.795, 9054.042
317.154, 10371.147
318.512, 10038.240
319.870, 8705.310
321.228, 7902.352
322.586, 5759.364
323.943, 5496.343
325.300, 3693.276
326.657, 3650.162
328.014, 3226.990
329.371, 2453.758
330.727, 3210.460
332.083, 2447.094
333.439, 2943.656
334.795, 2650.144
336.150, 2496.557
337.506, 2532.893
338.861, 1829.149
340.215, 2525.326
341.570, 1391.423
342.924, 1887.439
344.279, 1653.374
345.633, 1329.225
346.986, 1874.993
348.340, 1280.679
349.693, 1796.279
351.046, 1081.793
352.399, 1187.220
353.752, 1272.552
355.104, 387.778
356.457, 1012.879
357.809, 577.854
359.160, 762.681
360.512, 557.358
361.863, 551.881
363.214, 1016.254
364.565, 140.484
365.916, 604.553
367.267, 428.481
368.617, 172.270
369.967, 535.905
371.317, 100.589
372.666, 622.714
374.016, 25.891
375.365, 218.901
376.714, 151.775
378.063, 215.492
379.411, 317.015
380.760, 620.604
382.108, 98.553
383.456, 316.690
384.803, 285.074
386.151, 93.695
387.498, 542.502
388.845, 208.389
390.192, 340.847
391.539, 140.330
392.885, 320.007
394.231, 569.925
395.577, 240.146
396.923, 710.585
398.269, 121.364
399.614, 412.328
400.959, 303.552
402.304, 114.995
403.649, 426.583
404.993, 131.561
406.337, 300.432
407.681, 157.330
409.025, 584.938
410.369, 622.425
411.712, 1549.771
413.055, 1536.913
414.398, 2663.880
415.741, 3350.584
417.084, 4126.906
418.426, 6132.875
419.768, 6278.508
421.110, 8643.796
422.452, 8738.729
423.793, 9633.182
425.134, 9547.142
426.475, 7680.756
427.816, 7784.142
429.157, 5597.250
430.497, 5060.133
431.837, 4132.962
433.177, 2835.749
434.517, 2988.493
435.857, 1681.194
437.196, 1973.855
438.535, 1446.522
439.874, 1289.148
441.213, 1371.781
442.551, 684.378
443.889, 1046.930
445.227, 519.524
446.565, 532.076
447.903, 494.583
449.240, 117.042
450.577, 869.436
451.914, 181.855
453.251, 844.176
454.588, 916.480
455.924, 828.734
457.260, 1530.925
458.596, 1103.121
459.932, 2035.254
461.267, 2157.323
462.602, 2569.328
463.938, 4181.270
465.272, 3873.232
466.607, 5805.131
467.941, 5596.986
469.276, 5928.793
470.610, 6440.532
471.943, 5182.302
473.277, 5714.006
474.610, 4175.643
475.944, 4117.217
477.276, 3798.727
478.609, 3080.241
479.942, 3601.692
481.274, 2443.076
482.606, 3274.401
483.938, 2595.661
485.270, 2286.924
486.601, 2908.121
487.932, 2009.254
489.263, 2640.324
490.594, 2181.330
491.925, 2212.318
493.255, 2603.242
494.585, 1854.104
495.915, 2724.961
497.245, 1755.758
498.575, 2116.513
499.904, 1947.207
501.233, 1367.842
502.562, 1928.417
503.891, 1198.934
505.219, 1799.392
506.548, 1799.792
507.876, 1410.135
509.203, 1900.421
510.531, 1130.651
511.859, 1930.826
513.186, 1450.945
514.513, 1271.010
515.840, 1908.269
517.166, 1198.229
518.493, 2256.522
519.819, 1425.529
521.145, 1913.617
522.470, 2231.623
523.796, 1411.332
525.121, 2514.904
526.446, 1762.964
527.771, 2239.993
529.096, 2484.029
530.421, 2071.644
531.745, 3113.099
533.069, 2550.979
534.393, 3260.220
535.716, 3384.766
537.040, 3078.051
538.363, 3972.008
539.686, 3227.664
541.009, 3806.100
542.331, 3627.264
543.654, 3264.705
544.976, 4144.103
546.298, 3015.488
547.620, 3598.689
548.941, 2962.715
550.263, 2888.552
551.584, 3336.972
552.905, 2374.115
554.225, 3215.580
555.546, 2897.760
556.866, 2950.434
558.186, 3630.116
559.506, 3391.572
560.826, 4909.896
562.145, 4742.121
563.465, 5672.814
564.784, 6865.504
566.103, 6914.227
567.421, 8387.528
568.740, 8084.730
570.058, 9052.103
571.376, 9190.944
572.694, 8159.787
574.011, 9628.636
575.329, 8077.490
576.646, 8846.350
577.963, 8895.218
579.279, 8364.099
580.596, 9382.992
581.912, 8591.901
583.228, 10220.833
584.544, 10379.774
585.860, 10671.308
587.175, 12520.291
588.491, 11249.300
589.806, 13799.187
591.121, 13998.242
592.435, 14727.325
593.750, 16696.434
595.064, 15835.559
596.378, 19004.766
597.692, 19653.949
599.006, 20353.156
600.319, 22702.393
601.632, 22290.896
602.945, 25467.494
604.258, 24765.402
605.571, 25673.520
606.883, 27491.422
608.195, 25466.559
609.507, 28193.465
610.819, 26379.588
612.131, 26398.248
613.442, 26489.389
614.753, 23478.926
616.064, 25892.006
617.375, 21951.602
618.685, 22731.217
619.995, 21820.865
621.306, 19230.537
622.615, 20399.824
623.925, 18209.553
625.235, 18042.186
626.544, 17765.008
627.853, 15504.830
629.162, 16206.285
630.471, 13556.167
631.779, 13606.079
633.087, 12986.471
634.395, 11256.463
635.703, 12162.450
637.011, 10202.503
638.318, 10682.590
639.625, 10363.550
640.932, 9013.697
642.239, 10068.707
643.546, 8138.916
644.852, 8979.152
646.158, 8459.419
647.464, 7389.760
648.770, 8359.537
650.076, 6699.938
651.381, 7550.370
652.686, 7013.217
653.991, 6363.715
655.296, 7098.212
656.600, 5708.775
657.905, 5709.381
659.209, 5530.016
660.513, 4860.689
661.817, 5521.398
663.120, 4222.141
664.423, 5202.970
665.726, 4723.834
667.029, 4024.734
668.332, 4915.668
669.635, 3456.641
670.937, 4447.741
672.239, 3738.873
673.541, 3170.059
674.842, 4081.343
676.144, 2722.673
677.445, 3864.058
678.746, 3365.489
680.047, 2596.968
681.348, 3638.513
682.648, 2230.126
683.948, 3111.784
685.248, 2343.496
686.548, 2255.273
687.848, 2777.212
689.147, 1619.272
690.447, 2651.380
691.746, 2193.607
693.044, 1935.898
694.343, 2648.257
695.641, 1430.768
696.940, 2353.336
698.238, 1676.164
699.535, 1369.115
700.833, 2122.248
702.130, 825.552
703.427, 1788.979
704.724, 1322.649
706.021, 1046.384
707.318, 1870.307
708.614, 844.363
709.910, 1198.603
711.206, 933.089
712.502, 627.736
713.798, 1442.667
715.093, 457.732
716.388, 1083.004
717.683, 1068.451
718.978, 583.972
720.272, 1649.701
721.567, 355.502
722.861, 1041.479
724.155, 807.521
725.448, 393.613
726.742, 1099.755
728.035, 225.944
729.328, 852.177
730.621, 1108.451
731.914, 384.805
733.206, 1311.199
734.499, 267.637
735.791, 824.115
737.083, 590.636
738.374, 17.207
739.666, 933.817
740.957, 99.531
742.248, 487.193
743.539, 463.960
744.830, 39.191
746.120, 977.688
747.410, 74.605
748.701, 421.586
749.990, 508.605
751.280, 264.335
752.570, 542.676
753.859, 260.274
755.148, 26.805
756.437, 443.922
757.725, 388.920
759.014, 788.192
760.302, 5.349
761.590, 172.543
762.878, 479.781
764.166, 382.925
765.453, 464.256
766.740, 228.513
768.027, 51.331
769.314, 375.883
770.601, 306.867
771.887, 670.297
773.174, 57.496
774.460, 74.729
775.745, 602.002
777.031, 400.693
778.316, 436.471
779.602, 76.330
780.887, 79.130
782.172, 678.071
783.456, 424.695
784.741, 702.896
786.025, 90.004
787.309, 2.856
788.593, 848.562
789.876, 324.243
791.160, 413.438
792.443, 120.550
793.726, 12.309
795.009, 684.851
796.291, 297.957
797.574, 549.130
798.856, 376.246
800.138, 103.392
801.420, 948.775
802.702, 194.010
803.983, 413.146
805.264, 310.326
806.545, 242.461
807.826, 934.665
809.107, 78.153
810.387, 669.015
811.667, 757.663
812.947, 154.944
814.227, 1372.577
815.507, 529.907
816.786, 387.263
818.065, 966.517
819.344, 233.922
820.623, 1141.350
821.902, 768.801
823.180, 886.281
824.459, 1864.470
825.737, 881.991
827.014, 2039.542
828.292, 1571.696
829.569, 1299.330
830.847, 2119.551
832.124, 1117.585
833.401, 1965.273
834.677, 1819.236
835.954, 1526.957
837.230, 2784.693
838.506, 1753.161
839.782, 2610.988
841.057, 2855.605
842.333, 2323.459
843.608, 3581.387
844.883, 2775.850
846.158, 3483.798
847.433, 3961.756
848.707, 3759.723
849.981, 5427.721
851.255, 4865.729
852.529, 5553.740
853.803, 6941.817
855.076, 6079.901
856.350, 8177.990
857.623, 7986.832
858.895, 8144.929
860.168, 10643.027
861.441, 10001.124
862.713, 12619.223
863.985, 13427.319
865.257, 14545.417
866.528, 18263.535
867.800, 18032.693
869.071, 20870.807
870.342, 23058.906
871.613, 21767.008
872.884, 24955.096
874.154, 21553.180
875.425, 21441.252
876.695, 21919.312
877.965, 18267.363
879.234, 20125.404
880.504, 17694.604
881.773, 17362.615
883.042, 17820.625
884.311, 14766.720
885.580, 15764.694
886.848, 13632.656
888.117, 11850.599
889.385, 12428.531
890.653, 9128.386
891.920, 9666.279
893.188, 8344.166
894.455, 6733.358
895.722, 7531.209
896.989, 5588.715
898.256, 6005.830
899.523, 5703.630
900.789, 4856.267
902.055, 6004.027
903.321, 4891.768
904.587, 5440.752
905.852, 6158.449
907.118, 4895.646
908.383, 6543.302
909.648, 5890.935
910.913, 5537.701
912.177, 6235.294
913.442, 4322.763
914.706, 4890.309
915.970, 4207.830
917.233, 3089.268
918.497, 3766.742
919.760, 1855.013
921.024, 2404.409
922.287, 1961.815
923.550, 896.420
924.812, 1863.777
926.075, 901.110
927.337, 849.185
928.599, 1416.469
929.861, 424.150
931.122, 1511.387
932.384, 705.729
933.645, 779.883
934.906, 1347.046
936.167, 92.577
937.428, 1030.024
938.688, 597.106
939.948, 3.711
941.208, 1270.702
942.468, 81.704
943.728, 788.639
944.987, 975.548
946.247, 281.584
947.506, 1239.247
948.765, 281.245
950.023, 518.094
951.282, 914.881
952.540, 68.359
953.798, 1081.270
955.056, 438.497
956.314, 365.104
957.572, 1192.492
958.829, 306.666
960.086, 789.657
961.343, 742.193
962.600, 38.667
963.856, 1049.538
965.113, 165.941
966.369, 262.312
967.625, 928.654
968.881, 125.033
970.136, 1051.882
971.392, 438.028
972.647, 294.145
973.902, 1081.970
975.157, 261.974
976.411, 643.892
977.666, 411.212
978.920, 163.005
980.174, 773.055
981.428, 38.644
982.682, 204.174
983.935, 910.146
985.188, 24.395
986.441, 870.975
987.694, 326.308
988.947, 131.607
990.199, 850.693
991.452, 344.081
992.704, 640.877
993.956, 509.911
995.207, 15.201
996.459, 1129.590
997.710, 594.344
998.961, 1209.060
1000.212, 1848.717
1001.463, 923.357
1002.714, 1967.960
1003.964, 975.695
1005.214, 600.245
1006.464, 1355.564
1007.714, 190.037
1008.964, 1094.469
1010.213, 1098.917
1011.462, 453.269
1012.711, 1617.582
1013.960, 532.370
1015.209, 946.603
1016.457, 1436.479
1017.705, 160.631
1018.954, 1534.730
1020.201, 849.863
1021.449, 823.882
1022.697, 1837.858
1023.944, 481.795
1025.191, 1495.689
1026.438, 1239.543
1027.685, 463.355
1028.931, 1447.125
1030.177, 160.854
1031.423, 474.531
1032.669, 878.185
1033.915, 28.204
1035.161, 1025.291
1036.406, 518.746
1037.651, 462.158
1038.896, 1345.528
1040.141, 119.610
1041.386, 782.879
1042.630, 646.123
1043.874, 120.502
1045.118, 1082.551
1046.362, 53.286
1047.606, 379.632
1048.849, 1122.511
1050.092, 25.348
1051.336, 818.100
1052.578, 530.807
1053.821, 163.474
1055.064, 896.133
1056.306, 211.214
1057.548, 521.277
1058.790, 683.725
1060.032, 163.024
1061.273, 1179.276
1062.515, 561.562
1063.756, 523.809
1064.997, 1466.013
1066.237, 158.175
1067.478, 1200.362
1068.718, 922.507
1069.959, 55.346
1071.199, 1257.427
1072.438, 249.468
1073.678, 621.521
1074.918, 1323.534
1076.157, 245.549
1077.396, 1427.516
1078.635, 1159.440
1079.873, 791.729
1081.112, 1743.666
1082.350, 485.578
1083.588, 1117.466
1084.826, 1499.311
1086.064, 350.695
1087.301, 1592.551
1088.539, 874.368
1089.776, 962.446
1091.013, 1804.191
1092.250, 475.365
1093.486, 1227.102
1094.723, 1278.797
1095.959, 240.460
1097.195, 1462.074
1098.431, 423.714
1099.666, 506.404
1100.902, 1367.964
1102.137, 71.271
1103.372, 1342.745
1104.607, 914.222
1105.842, 235.658
1107.076, 1297.047
1108.311, 11.548
1109.545, 610.156
1110.779, 841.443
1112.012, 138.768
1113.246, 942.485
1114.479, 563.197
1115.712, 444.194
1116.945, 1555.151
1118.178, 244.194
1119.411, 1055.063
1120.643, 1155.894
1121.875, 126.685
1123.108, 1037.420
1124.339, 397.428
1125.571, 128.083
1126.802, 1238.688
1128.034, 95.334
1129.265, 895.102
1130.496, 1102.960
1131.727, 272.987
1132.957, 1463.338
1134.187, 567.394
1135.418, 457.672
1136.648, 1197.915
1137.877, 152.597
1139.107, 827.795
1140.336, 811.029
1141.566, 168.996
1142.795, 1491.071
1144.023, 494.331
1145.252, 474.088
1146.480, 1283.794
1147.709, 26.527
1148.937, 1043.040
1150.165, 662.575
1151.392, 157.918
1152.620, 1337.062
1153.847, 156.450
1155.074, 685.779
1156.301, 1195.723
1157.528, 334.988
1158.755, 1184.227
1159.981, 943.435
1161.207, 222.613
1162.433, 1311.763
1163.659, 39.117
1164.885, 649.951
1166.110, 1207.945
1167.336, 116.952
1168.561, 1275.927
1169.786, 1184.867
1171.010, 533.782
1172.235, 1832.670
1173.459, 491.532
1174.683, 1160.368
1175.907, 1629.174
1177.131, 397.955
1178.355, 1635.538
1179.578, 1048.064
1180.801, 666.767
1182.024, 2027.333
1183.247, 595.988
1184.470, 1334.619
1185.692, 1493.226
1186.915, 141.808
1188.137, 1278.425
1189.359, 690.194
1190.580, 278.700
1191.802, 1413.287
1193.023, 89.918
1194.244, 968.683
1195.465, 1446.936
1196.686, 405.316
1197.907, 1648.819
1199.127, 1217.158
1200.347, 635.476
1201.567, 1552.461
1202.787, 479.147
1204.007, 887.885
1205.226, 1266.125
1206.446, 94.747
1207.665, 1296.486
1208.884, 880.720
1210.102, 588.885
1211.321, 1847.034
1212.539, 525.171
1213.758, 1271.869
1214.976, 1439.971
1216.193, 98.059
1217.411, 1372.525
1218.628, 620.583
1219.846, 257.887
1221.063, 1835.926
1222.280, 323.797
1223.496, 1020.979
1224.713, 1608.918
1225.929, 188.428
1227.145, 1376.346
1228.361, 954.256
1229.577, 452.160
1230.793, 1540.055
1232.008, 337.945
1233.223, 775.488
1234.438, 1653.367
1235.653, 122.152
1236.868, 1429.994
1238.082, 1297.830
1239.297, 435.664
1240.511, 1743.449
1241.725, 471.121
1242.938, 677.982
1244.152, 1565.643
1245.365, 43.258
1246.578, 1330.779
1247.791, 1308.293
1249.004, 347.814
1250.217, 1885.248
1251.429, 632.672
1252.642, 829.277
1253.854, 1696.682
1255.066, 137.615
1256.277, 1094.812
1257.489, 1172.000
1258.700, 174.701
1259.911, 1301.828
1261.122, 808.939
1262.333, 616.033
1263.544, 1773.078
1264.754, 219.422
1265.964, 1356.486
1267.174, 1553.535
1268.384, 348.832
1269.594, 1575.699
1270.803, 842.619
1272.013, 278.039
1273.222, 1994.957
1274.431, 311.496
1275.640, 1045.455
1276.848, 1882.461
1278.057, 219.004
1279.265, 1486.049
1280.473, 883.176
1281.681, 220.371
1282.888, 1636.998
1284.096, 89.777
1285.303, 466.332
1286.510, 1382.975
1287.717, 95.637
1288.924, 1572.893
1290.131, 1171.242
1291.337, 254.502
1292.543, 1882.754
1293.749, 877.328
1294.955, 494.514
1296.161, 1612.443
1297.366, 89.596
1298.571, 977.787
1299.777, 1279.543
1300.981, 23.793
1302.186, 1574.008
1303.391, 791.779
1304.595, 489.531
1305.799, 1717.256
1307.003, 694.951
1308.207, 982.643
1309.411, 1390.355
1310.614, 147.160
1311.818, 1284.824
1313.021, 982.311
1314.224, 488.670
1315.426, 1766.406
1316.629, 694.186
1317.831, 971.951
1319.033, 1879.727
1320.235, 286.514
1321.437, 1294.504
1322.639, 1262.449
1323.840, 59.605
1325.042, 1287.418
1326.243, 535.391
1327.444, 213.365
1328.644, 1601.221
1329.845, 178.631
1331.045, 866.449
1332.245, 1544.262
1333.445, 47.932
1334.645, 1409.059
1335.845, 716.830
1337.044, 125.408
1338.244, 1552.361
1339.443, 328.447
1340.642, 486.197
1341.840, 1673.918
1343.039, 261.645
1344.237, 1178.785
1345.435, 1316.621
1346.633, 125.611
1347.831, 1492.463
1349.029, 460.570
1350.226, 18.705
1351.424, 1596.896
1352.621, 84.869
1353.818, 873.494
1355.014, 1401.867
1356.211, 110.281
1357.407, 1438.729
1358.604, 1226.670
1359.800, 215.443
1360.995, 2494.012
1362.191, 463.143
1363.387, 622.469
1364.582, 1741.969
1365.777, 140.447
1366.972, 916.012
1368.167, 1465.547
1369.361, 4.861
1370.556, 1284.797
1371.750, 714.527
1372.944, 324.346
1374.138, 1924.270
1375.331, 484.271
1376.525, 654.369
1377.718, 1564.562
1378.911, 14.660
1380.104, 1394.820
1381.297, 1425.074
1382.490, 485.439
1383.682, 1926.369
1384.874, 1052.021
1386.066, 551.893
1387.258, 2031.885
1388.450, 291.990
1389.641, 833.906
1390.833, 1763.416
1392.024, 58.459
1393.215, 1328.867
1394.406, 1257.791
1395.596, 106.725
1396.787, 1885.658
1397.977, 804.551
1399.167, 600.590
1400.357, 1868.336
1401.547, 128.486
1402.736, 895.525
1403.925, 1452.270
1405.115, 38.660
1406.304, 1309.848
1407.492, 1245.666
1408.681, 172.176
1409.870, 1958.938
1411.058, 1006.092
1412.246, 487.932
1413.434, 2084.615
1414.622, 270.900
1415.809, 928.348
1416.997, 1487.746
1418.184, 112.170
1419.371, 1458.799
1420.558, 1001.002
1421.744, 364.275
1422.931, 2134.031
1424.117, 857.500
1425.303, 504.176
1426.489, 2075.520
1427.675, 327.789
1428.861, 1143.480
1430.046, 1672.350
1431.231, 0.000
##END=



