##NAMES=Titanite
##RRUFFID=R050039
##IDEAL CHEMISTRY=CaTi^4+^SiO_5_
##LOCALITY=Kingman, Arizona, USA
##OWNER=RRUFF
##SOURCE=University of Arizona Mineral Museum
##DESCRIPTION=Black fragment from a single crystal
##STATUS=The identification of this mineral has been confirmed by X-ray diffraction and chemical analysis
##URL=rruff.info/R050039
##MEASURED CHEMISTRY=(Ca_0.95_Y_0.05_)(Ti_0.85_Al_0.10_Fe^3+^_0.06_)Si_1.00_O_4_(O_0.93_F_0.07_)
##PIN_ID=L00126
##ORIENTATION=Laser parallel to a* (1 0 0). Fiducial mark perpendicular to laser is parallel to b [0 1 0]
127.882, 0.000
129.268, 24.077
130.655, 257.717
132.041, 14.272
133.427, 95.610
134.813, 107.672
136.199, 132.586
137.584, 180.086
138.970, 167.504
140.355, 200.948
141.740, 209.245
143.124, 228.783
144.509, 245.023
145.893, 223.118
147.277, 293.794
148.660, 186.819
150.044, 41.997
151.427, 239.136
152.810, 78.062
154.193, 77.373
155.576, 110.694
156.958, 5.854
158.341, 108.883
159.723, 24.820
161.105, 81.897
162.486, 20.063
163.867, 149.273
165.249, 129.482
166.630, 70.646
168.010, 212.715
169.391, 55.646
170.771, 199.371
172.151, 263.814
173.531, 270.562
174.911, 304.644
176.290, 320.941
177.669, 407.781
179.049, 420.993
180.427, 468.173
181.806, 461.278
183.184, 540.027
184.562, 509.204
185.940, 528.790
187.318, 648.781
188.696, 589.187
190.073, 740.025
191.450, 821.314
192.827, 703.066
194.204, 925.295
195.580, 868.009
196.956, 1071.203
198.332, 904.854
199.708, 1038.935
201.084, 1113.423
202.459, 1128.295
203.834, 1233.529
205.209, 1259.105
206.584, 1316.487
207.958, 1261.214
209.333, 1417.711
210.707, 1494.410
212.081, 1541.075
213.454, 1667.707
214.828, 1734.359
216.201, 2021.055
217.574, 1967.810
218.947, 2154.639
220.320, 2301.551
221.692, 2318.559
223.064, 2435.666
224.436, 2342.869
225.808, 2190.185
227.179, 2257.616
228.551, 2175.168
229.922, 2092.842
231.293, 1880.639
232.663, 1788.561
234.034, 1626.607
235.404, 1464.779
236.774, 1453.075
238.144, 1401.496
239.514, 1490.040
240.883, 1348.707
242.252, 1447.502
243.621, 1526.452
244.990, 1575.617
246.359, 1545.104
247.727, 1605.057
249.095, 1625.515
250.463, 1726.464
251.831, 1687.807
253.198, 1649.636
254.566, 1691.969
255.933, 1864.780
257.299, 1748.072
258.666, 1791.812
260.033, 1745.957
261.399, 1680.483
262.765, 1715.409
264.131, 1640.582
265.496, 1725.797
266.862, 1721.003
268.227, 1556.199
269.592, 1661.383
270.957, 1616.556
272.321, 1451.717
273.685, 1456.865
275.050, 1512.001
276.413, 1227.123
277.777, 1572.230
279.141, 1417.322
280.504, 1462.398
281.867, 1487.455
283.230, 1592.493
284.592, 1677.512
285.955, 1752.510
287.317, 1842.116
288.679, 1812.442
290.041, 2047.373
291.403, 2062.283
292.764, 2249.375
294.125, 2326.091
295.486, 2563.084
296.847, 2689.120
298.207, 2667.017
299.568, 3095.293
300.928, 3133.910
302.288, 3242.844
303.647, 3482.070
305.007, 3881.570
306.366, 3921.273
307.725, 4261.223
309.084, 4471.396
310.443, 4811.785
311.801, 4762.379
313.159, 5063.162
314.517, 5214.129
315.875, 5375.266
317.233, 5526.566
318.590, 5507.110
319.947, 5548.715
321.304, 5410.421
322.661, 5472.303
324.018, 5184.316
325.374, 4966.452
326.730, 4868.708
328.086, 4631.076
329.442, 4543.557
330.797, 4196.141
332.153, 3998.824
333.508, 3901.604
334.863, 3674.475
336.217, 3637.434
337.572, 3280.479
338.926, 3353.605
340.280, 3196.812
341.634, 2840.095
342.988, 3023.451
344.341, 3066.879
345.694, 2890.376
347.047, 3063.939
348.400, 3007.567
349.753, 3041.258
351.105, 3065.010
352.457, 3008.816
353.809, 2942.743
355.161, 3057.137
356.512, 3102.002
357.864, 3038.023
359.215, 3125.207
360.566, 3114.261
361.916, 3267.841
363.267, 3079.585
364.617, 3120.732
365.967, 3302.377
367.317, 3293.833
368.667, 3434.103
370.016, 3226.893
371.366, 3526.248
372.715, 3390.479
374.064, 3483.335
375.412, 3653.148
376.761, 3620.473
378.109, 3980.439
379.457, 3869.373
380.805, 4061.029
382.152, 4113.005
383.500, 4302.906
384.847, 4548.707
386.194, 4577.467
387.541, 4917.729
388.887, 4891.862
390.233, 5122.219
391.580, 5284.138
392.926, 5315.994
394.271, 5589.177
395.617, 5533.064
396.962, 5659.190
398.307, 5927.352
399.652, 5914.068
400.997, 6138.991
402.341, 6193.520
403.686, 6498.039
405.030, 6722.549
406.374, 6797.050
407.717, 6971.539
409.061, 7166.016
410.404, 7350.479
411.747, 7754.923
413.090, 7769.346
414.433, 8043.748
415.775, 7998.125
417.117, 8232.477
418.459, 7896.797
419.801, 7841.086
421.143, 7765.344
422.484, 7479.562
423.825, 7493.743
425.166, 6967.885
426.507, 6571.984
427.848, 6356.044
429.188, 5880.061
430.528, 5604.034
431.868, 5247.967
433.208, 4921.857
434.547, 4601.975
435.887, 4389.511
437.226, 3973.274
438.565, 3727.002
439.904, 3490.688
441.242, 3154.333
442.580, 2937.938
443.918, 2751.507
445.256, 2325.033
446.594, 2418.520
447.932, 2061.963
449.269, 1985.364
450.606, 1688.724
451.943, 1622.039
453.280, 1515.318
454.616, 1558.593
455.952, 1321.860
457.288, 1395.122
458.624, 1258.378
459.960, 1221.623
461.295, 1154.854
462.631, 1258.068
463.966, 1071.266
465.300, 1264.442
466.635, 1097.601
467.969, 1350.735
469.304, 1363.849
470.638, 1436.937
471.972, 1520.000
473.305, 1353.036
474.639, 1576.047
475.972, 1559.030
477.305, 1721.984
478.638, 1894.910
479.970, 1817.812
481.303, 1890.684
482.635, 1903.527
483.967, 1716.340
485.298, 1749.121
486.630, 1871.872
487.961, 1624.590
489.293, 1677.276
490.624, 1579.930
491.954, 1502.548
493.285, 1435.132
494.615, 1337.682
495.945, 1259.556
497.275, 1122.671
498.605, 1085.110
499.935, 997.513
501.264, 910.548
502.593, 762.203
503.922, 674.488
505.251, 636.735
506.579, 468.942
507.908, 481.109
509.236, 376.235
510.564, 333.321
511.891, 255.364
513.219, 209.967
514.546, 165.938
515.873, 137.228
517.200, 88.080
518.527, 57.866
519.853, 21.576
521.180, 48.851
522.506, 17.326
523.832, 164.961
525.157, 170.793
526.483, 165.824
527.808, 145.055
529.133, 183.473
530.458, 127.102
531.783, 43.910
533.107, 179.857
534.431, 130.016
535.756, 248.358
537.079, 129.947
538.403, 271.724
539.727, 154.761
541.050, 158.998
542.373, 284.437
543.696, 59.146
545.018, 265.005
546.341, 129.122
547.663, 190.429
548.985, 129.957
550.307, 154.674
551.629, 153.592
552.950, 174.712
554.271, 186.045
555.592, 62.595
556.913, 78.700
558.234, 121.913
559.554, 222.054
560.875, 339.556
562.195, 368.186
563.514, 662.181
564.834, 748.131
566.154, 1104.032
567.473, 1099.889
568.792, 1395.699
570.111, 1691.463
571.429, 1547.182
572.748, 1982.853
574.066, 2028.479
575.384, 2094.061
576.702, 2099.597
578.019, 2145.088
579.337, 2170.535
580.654, 2115.936
581.971, 2271.293
583.288, 2246.607
584.605, 2131.877
585.921, 2287.104
587.237, 2232.286
588.553, 2157.427
589.869, 2272.523
591.185, 2307.580
592.500, 2032.698
593.815, 2067.671
595.130, 2062.602
596.445, 2299.014
597.760, 2113.862
599.074, 2139.291
600.389, 2134.438
601.703, 2280.725
603.016, 2125.411
604.330, 2110.708
605.644, 2165.316
606.957, 2120.755
608.270, 2225.285
609.583, 2229.776
610.895, 2255.963
612.208, 2260.593
613.520, 2124.970
614.832, 2389.310
616.144, 2323.613
617.455, 2007.877
618.767, 2122.105
620.078, 2206.296
621.389, 2060.449
622.700, 2254.566
624.011, 2038.646
625.321, 2142.690
626.631, 2086.698
627.941, 2250.705
629.251, 2124.693
630.561, 2038.724
631.870, 2102.782
633.180, 1996.867
634.489, 2001.042
635.798, 2165.288
637.106, 1939.604
638.415, 2274.016
639.723, 2188.445
641.031, 1932.949
642.339, 2037.461
643.647, 2041.976
644.954, 2026.467
646.261, 1930.925
647.568, 1815.352
648.875, 2019.746
650.182, 1834.109
651.488, 2008.441
652.795, 1842.741
654.101, 1837.012
655.407, 1851.252
656.712, 1705.464
658.018, 1859.646
659.323, 1683.799
660.628, 1787.925
661.933, 1532.023
663.238, 1636.097
664.542, 1740.143
665.847, 1674.165
667.151, 1668.163
668.455, 1662.137
669.758, 1596.087
671.062, 1689.954
672.365, 1373.385
673.668, 1576.372
674.971, 1638.231
676.274, 1428.958
677.577, 1507.835
678.879, 1422.209
680.181, 1448.440
681.483, 1355.287
682.785, 1401.653
684.086, 1388.225
685.388, 1305.997
686.689, 1301.264
687.990, 1309.979
689.290, 1003.829
690.591, 1419.067
691.891, 907.358
693.192, 1208.153
694.491, 1096.319
695.791, 1025.532
697.091, 1042.037
698.390, 1028.234
699.689, 856.523
700.988, 1148.924
702.287, 878.382
703.586, 796.352
704.884, 810.464
706.182, 638.368
707.480, 844.725
708.778, 811.156
710.076, 666.277
711.373, 580.708
712.670, 561.173
713.968, 483.098
715.264, 544.741
716.561, 538.188
717.857, 542.046
719.154, 535.924
720.450, 524.171
721.746, 443.739
723.041, 477.680
724.337, 421.641
725.632, 355.625
726.927, 349.630
728.222, 323.658
729.517, 567.710
730.811, 161.785
732.105, 375.883
733.400, 180.006
734.693, 244.151
735.987, 228.322
737.281, 192.519
738.574, 256.741
739.867, 130.988
741.160, 275.263
742.453, 149.563
743.745, 103.890
745.038, 148.243
746.330, 252.624
747.622, 2.967
748.913, 131.470
750.205, 75.933
751.496, 79.575
752.788, 154.930
754.079, 40.536
755.369, 25.979
756.660, 81.399
757.950, 73.193
759.241, 42.184
760.531, 62.465
761.820, 52.857
763.110, 131.842
764.399, 66.573
765.689, 88.662
766.978, 13.884
768.267, 80.923
769.555, 35.764
770.844, 100.639
772.132, 75.548
773.420, 60.491
774.708, 185.469
775.996, 80.481
777.283, 45.529
778.570, 190.613
779.857, 155.732
781.144, 150.890
782.431, 253.079
783.718, 260.931
785.004, 413.522
786.290, 202.564
787.576, 420.992
788.862, 434.389
790.147, 313.367
791.433, 512.326
792.718, 516.918
794.003, 583.482
795.288, 513.032
796.572, 677.234
797.857, 879.692
799.141, 676.311
800.425, 761.948
801.709, 927.613
802.992, 883.308
804.276, 949.031
805.559, 884.782
806.842, 1070.581
808.125, 1216.413
809.407, 972.336
810.690, 1168.334
811.972, 1174.418
813.254, 1330.620
814.536, 1413.047
815.818, 1453.321
817.099, 1559.842
818.381, 1646.477
819.662, 1673.220
820.943, 1950.058
822.223, 1887.008
823.504, 1944.048
824.784, 2041.170
826.065, 2348.379
827.345, 2465.678
828.624, 2593.034
829.904, 2790.450
831.183, 2647.941
832.462, 2865.488
833.741, 3063.116
835.020, 3140.812
836.299, 3428.620
837.577, 3756.538
838.856, 3824.568
840.134, 4062.704
841.412, 4390.958
842.689, 4599.312
843.967, 4627.750
845.244, 5006.305
846.521, 5474.961
847.798, 5303.757
849.075, 6032.656
850.351, 6201.699
851.628, 6510.854
852.904, 7290.123
854.180, 7359.537
855.455, 7919.039
856.731, 8398.684
858.006, 8768.435
859.281, 9538.309
860.556, 9848.287
861.831, 10448.382
863.106, 11138.588
864.380, 11928.914
865.655, 12569.359
866.929, 13309.897
868.202, 13540.487
869.476, 14911.127
870.750, 15141.801
872.023, 16082.514
873.296, 16193.260
874.569, 16794.043
875.842, 17014.861
877.114, 17685.717
878.386, 17626.607
879.658, 17987.537
880.930, 18358.492
882.202, 18409.490
883.474, 18574.760
884.745, 17941.590
886.016, 18472.688
887.287, 18073.828
888.558, 17665.004
889.829, 18056.211
891.099, 16807.453
892.369, 16888.730
893.639, 16090.038
894.909, 15091.386
896.179, 14542.765
897.448, 13474.181
898.718, 12875.630
899.987, 12037.116
901.256, 11458.527
902.524, 10450.083
903.793, 9761.668
905.061, 9081.765
906.329, 8313.423
907.597, 7394.486
908.865, 7435.833
910.133, 6286.031
911.400, 5927.822
912.667, 5118.998
913.934, 4840.857
915.201, 4401.881
916.468, 3763.807
917.734, 3425.767
919.001, 2856.029
920.267, 2707.842
921.532, 2339.902
922.798, 1911.997
924.064, 1504.125
925.329, 1386.285
926.594, 848.479
927.859, 950.707
929.124, 772.968
930.388, 445.260
931.653, 217.586
932.917, 239.944
934.181, 97.665
935.445, 15.312
936.708, 272.959
937.972, 210.730
939.235, 198.596
940.498, 446.551
941.761, 374.721
943.024, 373.070
944.286, 461.597
945.548, 160.348
946.811, 379.171
948.072, 118.176
949.334, 87.231
950.596, 23.677
951.857, 274.599
953.118, 255.554
954.379, 536.543
955.640, 687.565
956.901, 968.621
958.161, 1562.701
959.421, 1513.962
960.681, 1968.308
961.941, 2019.003
963.201, 2511.905
964.460, 2972.711
965.720, 3027.729
966.979, 3595.751
968.238, 3815.523
969.496, 4115.166
970.755, 4523.428
972.013, 4948.430
973.272, 4967.078
974.529, 5241.229
975.787, 5372.344
977.045, 5625.695
978.302, 5538.355
979.560, 5522.713
980.817, 5496.968
982.073, 5392.291
983.330, 5373.883
984.587, 5265.494
985.843, 5212.462
987.099, 4948.767
988.355, 5070.428
989.611, 4972.107
990.866, 4853.801
992.122, 4535.510
993.377, 4747.234
994.632, 4428.974
995.887, 4370.729
997.141, 4472.496
998.396, 4164.279
999.650, 4206.074
1000.904, 3927.884
1002.158, 3879.705
1003.412, 3811.538
1004.665, 3673.384
1005.918, 3455.239
1007.172, 3497.106
1008.425, 3398.985
1009.677, 3550.872
1010.930, 3412.771
1012.182, 3574.678
1013.434, 3746.594
1014.687, 3818.518
1015.938, 3810.450
1017.190, 4302.389
1018.441, 4134.336
1019.693, 4656.289
1020.944, 4578.252
1022.195, 4810.219
1023.445, 5272.193
1024.696, 5164.176
1025.946, 5986.164
1027.197, 5938.159
1028.446, 5950.162
1029.696, 6602.169
1030.946, 6534.185
1032.195, 6826.206
1033.445, 7028.233
1034.694, 7010.268
1035.942, 7232.309
1037.191, 7224.356
1038.440, 7446.408
1039.688, 7678.470
1040.936, 7330.534
1042.184, 7612.605
1043.432, 7244.684
1044.679, 7236.768
1045.927, 7198.857
1047.174, 6840.951
1048.421, 6953.053
1049.668, 6505.159
1050.914, 6067.271
1052.161, 6279.391
1053.407, 5961.516
1054.653, 5323.646
1055.899, 5465.791
1057.145, 4737.940
1058.391, 4810.100
1059.636, 4372.268
1060.881, 4204.449
1062.126, 4016.637
1063.371, 3728.835
1064.615, 3781.037
1065.860, 3573.251
1067.104, 3315.470
1068.348, 3167.692
1069.592, 3219.932
1070.836, 3052.176
1072.079, 3004.427
1073.323, 3076.682
1074.566, 2948.943
1075.809, 3271.209
1077.052, 3123.479
1078.294, 3475.755
1079.537, 3218.035
1080.779, 3250.322
1082.021, 3462.613
1083.263, 3344.908
1084.504, 3440.213
1085.746, 3429.896
1086.987, 3074.896
1088.228, 3223.488
1089.469, 2822.748
1090.710, 2877.122
1091.951, 2565.995
1093.191, 2224.964
1094.431, 2118.396
1095.671, 1679.899
1096.911, 1328.504
1098.151, 1172.521
1099.390, 938.338
1100.630, 700.085
1101.869, 602.909
1103.108, 435.778
1104.346, 228.726
1105.585, 181.723
1106.823, 5.264
1108.062, 67.775
1109.300, 179.173
1110.537, 116.218
1111.775, 153.336
1113.013, 280.544
1114.250, 187.910
1115.487, 235.385
1116.724, 262.994
1117.961, 260.752
1119.197, 238.658
1120.434, 186.698
1121.670, 244.847
1122.906, 173.132
1124.142, 121.519
1125.377, 159.977
1126.613, 148.528
1127.848, 7.166
1129.083, 5.818
1130.318, 24.485
1131.553, 166.825
1132.787, 168.155
1134.022, 249.506
1135.256, 430.877
1136.490, 532.270
1137.724, 663.683
1138.957, 855.117
1140.191, 996.571
1141.424, 1158.049
1142.657, 1459.547
1143.890, 1701.067
1145.123, 1922.610
1146.355, 2244.176
1147.588, 2855.762
1148.820, 2957.372
1150.052, 3269.002
1151.284, 3990.654
1152.516, 4302.326
1153.747, 4934.018
1154.978, 5355.727
1156.209, 6037.455
1157.440, 6829.201
1158.671, 7200.965
1159.902, 8252.745
1161.132, 8824.543
1162.362, 9536.359
1163.592, 10298.192
1164.822, 11090.045
1166.052, 11843.424
1167.281, 12993.801
1168.511, 13465.704
1169.740, 14337.625
1170.969, 15289.566
1172.197, 15601.525
1173.426, 16373.495
1174.654, 16575.490
1175.883, 17047.504
1177.111, 17089.527
1178.338, 16891.574
1179.566, 17023.635
1180.794, 16585.711
1182.021, 16177.805
1183.248, 16429.918
1184.475, 15772.051
1185.702, 15404.200
1186.928, 15346.364
1188.155, 14848.545
1189.381, 14640.747
1190.607, 14392.962
1191.833, 14212.988
1193.059, 14337.450
1194.284, 14069.725
1195.509, 14042.015
1196.735, 14074.318
1197.960, 13596.649
1199.184, 14108.995
1200.409, 13451.359
1201.633, 13483.747
1202.858, 13216.153
1204.082, 13198.585
1205.306, 12781.036
1206.529, 12513.508
1207.753, 12266.002
1208.976, 12198.517
1210.199, 11981.051
1211.422, 11573.612
1212.645, 11766.195
1213.868, 11428.798
1215.090, 11461.424
1216.313, 11324.075
1217.535, 11096.749
1218.757, 11659.445
1219.978, 11222.165
1221.200, 11444.910
1222.421, 12097.678
1223.643, 11760.470
1224.864, 12343.280
1226.084, 12586.115
1227.305, 12478.969
1228.526, 13771.848
1229.746, 13704.741
1230.966, 13527.654
1232.186, 14460.625
1233.406, 14205.752
1234.625, 14859.357
1235.845, 15173.588
1237.064, 14895.844
1238.283, 15487.927
1239.502, 15498.358
1240.721, 15033.604
1241.939, 15597.474
1243.157, 15480.744
1244.376, 15259.340
1245.594, 15054.854
1246.811, 14449.082
1248.029, 14505.118
1249.247, 14074.858
1250.464, 13613.241
1251.681, 13614.317
1252.898, 12758.726
1254.115, 12359.768
1255.331, 12444.100
1256.548, 11486.466
1257.764, 11541.622
1258.980, 10974.516
1260.196, 10179.733
1261.411, 9940.640
1262.627, 9688.613
1263.842, 9374.897
1265.057, 8881.378
1266.272, 8519.306
1267.487, 8260.563
1268.702, 8198.241
1269.916, 7610.480
1271.130, 7665.826
1272.344, 7249.000
1273.558, 7122.931
1274.772, 7235.234
1275.986, 6817.707
1277.199, 6839.180
1278.412, 7104.453
1279.625, 6639.774
1280.838, 6755.150
1282.051, 7220.578
1283.263, 6686.060
1284.475, 7201.595
1285.687, 6967.184
1286.899, 7212.826
1288.111, 7328.527
1289.323, 7234.283
1290.534, 7420.100
1291.745, 7685.973
1292.957, 7871.862
1294.167, 8117.690
1295.378, 7953.389
1296.589, 8199.004
1297.799, 8744.494
1299.009, 8279.885
1300.219, 8595.092
1301.429, 8830.067
1302.639, 8504.943
1303.848, 9009.826
1305.057, 9084.727
1306.267, 8879.643
1307.476, 9284.582
1308.684, 9099.538
1309.893, 9024.512
1311.101, 8979.499
1312.310, 8834.501
1313.518, 8989.510
1314.725, 8714.521
1315.933, 8619.536
1317.141, 8654.547
1318.348, 8209.550
1319.555, 8254.537
1320.762, 8199.507
1321.969, 7594.445
1323.176, 7589.363
1324.382, 7434.265
1325.589, 7079.162
1326.795, 6934.074
1328.001, 6459.006
1329.206, 6303.957
1330.412, 6208.926
1331.617, 5793.908
1332.823, 5698.912
1334.028, 5433.934
1335.233, 4988.979
1336.437, 4934.053
1337.642, 4599.214
1338.846, 4204.375
1340.051, 4239.588
1341.255, 3774.859
1342.458, 3600.202
1343.662, 3625.627
1344.866, 3211.143
1346.069, 3086.771
1347.272, 2753.088
1348.475, 2579.018
1349.678, 2604.568
1350.880, 2220.648
1352.083, 2286.781
1353.285, 2512.964
1354.487, 1779.200
1355.689, 1655.487
1356.891, 1671.830
1358.093, 1308.226
1359.294, 1324.675
1360.495, 1081.178
1361.696, 977.734
1362.897, 1074.348
1364.098, 881.002
1365.298, 677.678
1366.499, 724.258
1367.699, 400.705
1368.899, 517.078
1370.099, 323.372
1371.298, 33.511
1372.498, 295.475
1373.697, 191.305
1374.896, 65.088
1376.095, 233.069
1377.294, 42.642
1378.493, 12.975
1379.691, 21.874
1380.889, 151.361
1382.087, 144.454
1383.285, 114.233
1384.483, 186.730
1385.681, 39.919
1386.878, 147.352
1388.075, 68.570
1389.272, 13.740
1390.469, 151.859
1391.666, 177.933
1392.862, 74.960
1394.059, 209.942
1395.255, 90.873
1396.451, 43.256
1397.647, 132.546
1398.842, 63.730
1400.038, 9.092
1401.233, 37.537
1402.428, 165.069
1403.623, 42.690
1404.818, 175.403
1406.013, 271.214
1407.207, 129.123
1408.401, 390.139
1409.595, 237.267
1410.789, 342.510
1411.983, 480.873
1413.177, 406.358
1414.370, 431.973
1415.563, 612.716
1416.756, 633.596
1417.949, 664.609
1419.142, 885.762
1420.335, 687.045
1421.527, 988.459
1422.719, 930.013
1423.911, 791.710
1425.103, 1103.551
1426.295, 1055.539
1427.486, 1117.679
1428.677, 1349.973
1429.869, 1122.428
1431.060, 1205.063
1432.250, 1457.896
1433.441, 1230.948
1434.632, 1464.243
1435.822, 1501.190
1437.012, 1409.092
1438.202, 1521.594
1439.392, 1523.060
1440.581, 1386.920
1441.771, 1516.021
1442.960, 1446.734
1444.149, 1474.497
1445.338, 1372.771
1446.527, 1225.856
1447.715, 1391.461
1448.904, 1386.598
1450.092, 1171.917
1451.280, 1436.848
1452.468, 1111.340
1453.656, 1175.334
1454.843, 1128.766
1456.031, 1091.560
1457.218, 1093.629
1458.405, 1104.878
1459.592, 855.190
1460.778, 924.435
1461.965, 922.456
1463.151, 719.069
1464.337, 904.263
1465.523, 660.131
1466.709, 647.777
1467.895, 677.962
1469.080, 434.545
1470.266, 527.853
1471.451, 513.016
1472.636, 314.004
1473.821, 389.917
1475.005, 408.924
1476.190, 205.299
1477.374, 361.488
1478.558, 266.204
1479.742, 6.043
1480.926, 315.355
1482.109, 49.835
1483.293, 161.830
1484.476, 202.016
1485.659, 20.057
1486.842, 27.931
1488.025, 102.609
1489.207, 2.863
1490.390, 200.605
1491.572, 0.000
##END=



