##NAMES=Titanite
##RRUFFID=R050124
##IDEAL CHEMISTRY=CaTi^4+^SiO_5_
##LOCALITY=Capelinha, Minas Gerais, Brazil
##OWNER=RRUFF
##SOURCE=Carlos and Paulo Vasconcelos
##DESCRIPTION=Yellow tabular crystal
##STATUS=The identification of this mineral has been confirmed by X-ray diffraction and chemical analysis
##URL=rruff.info/R050124
##MEASURED CHEMISTRY=Ca_1.00_(Ti_0.93_Al_0.05_Fe^3+^_0.02_)Si_1.00_O_4_(O)_1.00_
##PIN_ID=M00259
##ORIENTATION=Laser parallel to c* (0 0 1). Fiducial mark perpendicular to laser is parallel to a [1 0 0]
148.691, 0.000
150.080, 44.517
151.469, 6.235
152.858, 212.801
154.247, 1304.816
155.635, 2760.520
157.024, 4864.875
158.411, 6891.305
159.799, 8378.357
161.187, 9817.293
162.574, 9441.195
163.961, 9214.570
165.348, 7763.498
166.734, 6575.545
168.121, 4938.344
169.507, 3649.484
170.893, 2796.703
172.278, 2217.982
173.664, 2281.568
175.049, 2195.963
176.434, 2239.889
177.819, 2602.254
179.203, 2652.600
180.587, 3021.818
181.971, 3211.318
183.355, 3340.820
184.739, 3308.750
186.122, 3173.721
187.505, 3014.590
188.888, 2600.402
190.271, 3310.355
191.653, 3063.768
193.035, 3810.104
194.417, 3928.951
195.799, 4539.979
197.180, 5092.924
198.562, 5657.555
199.943, 6423.682
201.324, 7061.141
202.704, 8159.785
204.084, 8759.488
205.465, 9470.141
206.844, 10571.797
208.224, 11057.691
209.603, 11272.191
210.983, 11298.754
212.362, 11761.305
213.740, 11919.320
215.119, 12017.180
216.497, 12505.723
217.875, 12730.750
219.253, 13512.361
220.631, 13700.766
222.008, 14516.129
223.385, 15078.613
224.762, 15798.336
226.139, 16425.447
227.515, 16510.049
228.891, 16982.248
230.267, 16882.162
231.643, 16779.840
233.018, 16925.309
234.394, 16119.008
235.769, 16471.221
237.144, 16032.164
238.518, 16291.992
239.893, 16840.836
241.267, 17858.803
242.641, 19265.969
244.014, 21352.422
245.388, 23518.203
246.761, 25523.375
248.134, 27667.969
249.507, 29702.018
250.879, 30755.559
252.252, 32368.613
253.624, 32381.188
254.996, 32853.301
256.367, 31954.973
257.739, 30166.211
259.110, 28307.029
260.481, 25887.436
261.852, 23317.432
263.222, 20467.025
264.592, 17996.494
265.962, 15840.354
267.332, 13873.954
268.702, 12153.012
270.071, 10729.157
271.440, 9959.032
272.809, 8990.313
274.178, 9071.159
275.546, 8555.665
276.915, 8608.545
278.283, 8813.624
279.650, 8873.077
281.018, 8904.844
282.385, 8929.675
283.752, 8817.793
285.119, 9187.317
286.486, 9156.837
287.852, 9166.348
289.218, 8695.830
290.584, 8135.273
291.950, 7284.641
293.316, 6463.881
294.681, 6152.925
296.046, 6451.709
297.411, 7160.179
298.775, 7958.314
300.140, 9366.117
301.504, 10833.593
302.868, 11440.752
304.231, 12077.594
305.595, 12254.127
306.958, 12650.359
308.321, 12776.294
309.684, 13251.937
311.047, 13717.291
312.409, 14082.367
313.771, 14767.873
315.133, 14879.918
316.495, 15051.060
317.856, 14705.864
319.217, 14343.607
320.578, 13653.795
321.939, 13226.048
323.299, 13150.079
324.660, 13215.642
326.020, 13592.538
327.380, 14190.601
328.739, 15009.692
330.099, 15929.683
331.458, 16480.467
332.817, 17181.945
334.176, 17104.029
335.534, 17026.641
336.892, 16559.719
338.251, 15713.196
339.608, 14597.025
340.966, 13641.155
342.323, 12205.548
343.681, 11480.164
345.037, 10174.962
346.394, 9609.890
347.751, 8664.902
349.107, 8209.959
350.463, 7635.027
351.819, 7240.076
353.174, 6975.083
354.530, 6710.027
355.885, 6534.889
357.240, 6369.656
358.594, 6264.316
359.949, 5928.859
361.303, 5813.270
362.657, 5587.542
364.011, 5271.668
365.365, 5145.641
366.718, 4679.453
368.071, 4543.099
369.424, 4026.574
370.777, 3609.872
372.129, 3302.968
373.481, 2675.826
374.833, 2318.390
376.185, 1686.589
377.537, 1214.353
378.888, 751.627
380.239, 251.395
381.590, 103.607
382.941, 231.757
384.291, 346.777
385.642, 395.471
386.992, 478.844
388.341, 578.909
389.691, 740.684
391.040, 874.204
392.389, 1106.498
393.738, 1335.617
395.087, 1543.616
396.435, 1692.541
397.784, 1850.428
399.132, 1923.310
400.479, 1987.207
401.827, 1972.092
403.174, 1879.077
404.521, 1788.016
405.868, 1672.924
407.215, 1429.771
408.561, 1147.489
409.908, 916.004
411.254, 466.254
412.599, 179.120
413.945, 561.473
415.290, 1191.694
416.636, 2010.597
417.980, 3022.204
419.325, 4000.523
420.670, 5189.559
422.014, 6038.312
423.358, 6456.781
424.702, 6844.971
426.045, 6912.879
427.389, 6700.457
428.732, 6337.468
430.075, 6013.570
431.417, 5798.657
432.760, 5638.028
434.102, 5585.106
435.444, 5545.946
436.786, 5674.893
438.127, 5821.846
439.469, 5906.857
440.810, 6140.086
442.151, 6201.852
443.492, 6552.563
444.832, 6622.767
446.172, 6962.824
447.512, 7152.780
448.852, 7582.633
450.192, 8262.385
451.531, 9222.033
452.870, 9951.582
454.209, 11301.028
455.548, 12930.371
456.887, 14709.620
458.225, 16928.770
459.563, 19807.816
460.901, 22856.775
462.238, 26575.639
463.576, 29874.402
464.913, 33623.090
466.250, 36191.680
467.587, 37390.188
468.923, 36488.605
470.259, 33716.934
471.596, 29515.195
472.931, 25543.361
474.267, 21241.455
475.603, 17219.479
476.938, 14187.466
478.273, 11495.365
479.608, 9543.161
480.942, 7890.842
482.276, 6728.397
483.611, 5965.812
484.944, 5193.083
486.278, 4840.204
487.612, 4539.166
488.945, 4439.982
490.278, 4240.633
491.611, 4232.127
492.943, 4312.458
494.276, 4204.619
495.608, 4343.611
496.940, 4328.427
498.271, 4320.071
499.603, 4522.542
500.934, 4493.832
502.265, 4695.956
503.596, 4727.901
504.927, 4893.667
506.257, 4994.253
507.587, 5181.655
508.917, 5455.881
510.247, 5589.937
511.577, 5993.823
512.906, 6277.536
514.235, 6531.091
515.564, 6724.487
516.892, 7077.729
518.221, 7414.172
519.549, 7793.754
520.877, 8256.558
522.205, 8809.228
523.533, 9361.765
524.860, 9924.162
526.187, 10746.428
527.514, 11468.562
528.841, 12550.573
530.167, 13222.461
531.493, 14484.235
532.820, 15485.907
534.145, 16847.451
535.471, 17888.869
536.796, 19220.176
538.122, 20439.344
539.447, 21275.209
540.771, 22510.355
542.096, 23447.562
543.420, 23843.064
544.744, 24430.557
546.068, 24824.238
547.392, 25231.932
548.715, 25032.613
550.039, 24572.420
551.362, 24333.150
552.684, 23528.625
554.007, 22459.070
555.329, 21325.842
556.652, 20282.666
557.973, 18879.002
559.295, 17710.225
560.617, 16856.934
561.938, 15294.091
563.259, 14056.635
564.580, 12634.476
565.901, 11059.138
567.221, 9818.694
568.541, 8425.629
569.861, 7656.757
571.181, 7155.801
572.501, 6922.567
573.820, 7145.957
575.139, 7579.627
576.458, 8357.875
577.777, 9027.313
579.095, 10196.736
580.414, 11396.139
581.732, 12485.519
583.049, 14094.875
584.367, 15654.220
585.685, 17393.543
587.002, 19402.842
588.319, 21272.131
589.636, 23521.410
590.952, 25920.672
592.268, 28569.939
593.585, 31639.197
594.900, 33758.473
596.216, 37087.766
597.532, 40107.078
598.847, 43736.430
600.162, 46455.816
601.477, 49005.266
602.792, 52254.773
604.106, 54234.332
605.420, 56023.934
606.734, 57484.590
608.048, 58383.316
609.361, 58883.113
610.675, 58672.949
611.988, 58412.848
613.301, 57962.816
614.614, 54912.840
615.926, 54222.918
617.238, 52813.055
618.550, 49833.254
619.862, 49203.520
621.174, 46133.840
622.485, 44894.230
623.797, 42194.680
625.108, 41085.199
626.418, 38985.785
627.729, 36986.434
629.039, 36017.148
630.349, 33517.930
631.659, 31878.785
632.969, 30890.084
634.279, 28941.180
635.588, 27962.523
636.897, 26354.766
638.206, 25336.535
639.515, 24069.227
640.823, 23020.564
642.131, 22153.393
643.439, 21105.555
644.747, 20018.045
646.055, 19643.615
647.362, 18667.068
648.669, 18332.701
649.976, 17438.264
651.283, 16712.346
652.589, 16357.887
653.896, 15572.586
655.202, 15318.119
656.508, 14474.277
657.814, 14179.251
659.119, 13567.215
660.424, 13033.313
661.729, 12889.533
663.034, 12265.632
664.339, 11790.941
665.643, 11738.615
666.947, 11166.775
668.251, 10745.846
669.555, 10453.936
670.859, 10195.400
672.162, 9896.423
673.465, 9388.445
674.768, 9160.412
676.071, 8855.152
677.373, 8541.034
678.676, 8298.061
679.978, 8044.613
681.280, 7830.693
682.581, 7407.641
683.883, 7324.802
685.184, 7023.267
686.485, 6592.352
687.786, 6813.316
689.087, 6236.043
690.387, 6283.825
691.687, 5971.938
692.987, 5721.582
694.287, 5833.143
695.586, 5434.877
696.886, 5152.795
698.185, 5213.549
699.484, 4843.231
700.783, 4851.061
702.081, 4585.606
703.379, 4338.412
704.677, 4291.225
705.975, 4072.940
707.273, 3927.125
708.570, 3835.875
709.868, 3683.076
711.165, 3473.493
712.462, 3320.687
713.758, 3370.565
715.055, 3146.009
716.351, 3067.668
717.647, 2942.573
718.943, 2802.477
720.238, 2748.660
721.533, 2647.411
722.829, 2634.534
724.124, 2513.762
725.418, 2358.518
726.713, 2409.513
728.007, 2111.479
729.301, 2188.896
730.595, 2072.111
731.889, 1976.467
733.182, 1889.548
734.476, 1796.868
735.769, 1684.981
737.061, 1641.715
738.354, 1538.445
739.647, 1479.246
740.939, 1389.941
742.231, 1316.606
743.523, 1276.877
744.814, 1117.058
746.106, 1162.861
747.397, 967.706
748.688, 922.591
749.978, 923.518
751.269, 850.482
752.559, 799.486
753.849, 744.528
755.139, 675.606
756.429, 704.720
757.719, 564.869
759.008, 613.051
760.297, 576.266
761.586, 496.513
762.875, 438.790
764.163, 403.993
765.451, 429.432
766.739, 334.794
768.027, 336.182
769.315, 307.595
770.602, 251.032
771.890, 250.491
773.177, 215.972
774.463, 235.473
775.750, 249.995
777.036, 146.712
778.323, 99.657
779.609, 119.823
780.894, 93.981
782.180, 128.410
783.465, 44.811
784.750, 37.401
786.035, 65.100
787.320, 28.168
788.605, 3.568
789.889, 17.668
791.173, 75.816
792.457, 41.116
793.741, 87.355
795.024, 34.411
796.307, 84.055
797.591, 44.585
798.873, 58.100
800.156, 151.918
801.439, 82.694
802.721, 141.737
804.003, 133.873
805.285, 86.050
806.566, 121.446
807.848, 92.809
809.129, 109.489
810.410, 119.063
811.691, 82.748
812.971, 147.572
814.252, 99.466
815.532, 96.414
816.812, 87.418
818.092, 62.477
819.371, 109.584
820.651, 112.761
821.930, 124.014
823.209, 98.350
824.488, 152.761
825.766, 138.279
827.045, 146.900
828.323, 138.633
829.601, 175.478
830.878, 186.458
832.156, 197.583
833.433, 182.862
834.710, 168.293
835.987, 175.132
837.264, 171.575
838.540, 185.493
839.817, 188.550
841.093, 211.781
842.369, 233.201
843.644, 147.825
844.920, 146.613
846.195, 164.567
847.470, 188.701
848.745, 185.030
850.020, 117.556
851.294, 155.247
852.568, 130.127
853.842, 91.187
855.116, 156.411
856.390, 70.837
857.663, 92.426
858.936, 48.192
860.209, 76.118
861.482, 41.223
862.755, 35.494
864.027, 56.932
865.299, 54.556
866.571, 2.367
867.843, 11.346
869.115, 14.503
870.386, 49.155
871.657, 31.654
872.928, 9.980
874.199, 71.116
875.470, 44.085
876.740, 39.870
878.010, 126.462
879.280, 137.895
880.550, 153.169
881.820, 181.284
883.089, 197.103
884.358, 233.121
885.627, 250.893
886.896, 280.655
888.164, 329.510
889.433, 378.203
890.701, 396.826
891.969, 397.493
893.236, 440.010
894.504, 464.508
895.771, 575.764
897.038, 613.956
898.305, 750.196
899.572, 858.162
900.838, 971.083
902.105, 1175.913
903.371, 1378.578
904.637, 1502.133
905.902, 1945.421
907.168, 2187.630
908.433, 2516.729
909.698, 2727.647
910.963, 2967.534
912.228, 3086.177
913.492, 3023.634
914.757, 2852.043
916.021, 2623.264
917.285, 2289.312
918.548, 2034.209
919.812, 1743.798
921.075, 1540.407
922.338, 1331.753
923.601, 1158.885
924.864, 1019.021
926.126, 939.005
927.388, 886.922
928.650, 812.677
929.912, 767.272
931.174, 722.872
932.435, 733.224
933.697, 676.488
934.958, 690.587
936.218, 652.563
937.479, 633.418
938.739, 632.070
940.000, 635.280
941.260, 633.587
942.520, 616.548
943.779, 653.572
945.039, 641.008
946.298, 638.434
947.557, 698.100
948.816, 711.230
950.074, 707.984
951.333, 779.287
952.591, 758.481
953.849, 817.677
955.107, 828.689
956.365, 827.716
957.622, 873.176
958.879, 854.127
960.136, 928.822
961.393, 884.628
962.650, 897.687
963.906, 953.815
965.162, 959.001
966.418, 988.886
967.674, 985.578
968.930, 1013.331
970.185, 1009.761
971.441, 1019.867
972.696, 1035.425
973.950, 1035.032
975.205, 1059.468
976.459, 1043.514
977.714, 1067.920
978.968, 1067.264
980.222, 1084.550
981.475, 1112.029
982.729, 1112.246
983.982, 1115.745
985.235, 1123.765
986.488, 1098.646
987.740, 1085.609
988.993, 1055.290
990.245, 1089.618
991.497, 1088.220
992.749, 1093.857
994.000, 1073.728
995.252, 1075.443
996.503, 1068.694
997.754, 1072.453
999.005, 1074.111
1000.256, 1096.716
1001.506, 1140.102
1002.756, 1115.598
1004.006, 1202.193
1005.256, 1215.848
1006.506, 1297.979
1007.755, 1311.017
1009.005, 1344.280
1010.254, 1413.920
1011.502, 1413.390
1012.751, 1444.618
1014.000, 1433.768
1015.248, 1360.152
1016.496, 1345.408
1017.744, 1286.498
1018.991, 1276.647
1020.239, 1274.145
1021.486, 1157.034
1022.733, 1159.600
1023.980, 1064.500
1025.227, 949.478
1026.473, 904.593
1027.719, 771.115
1028.965, 715.559
1030.211, 598.158
1031.457, 555.062
1032.702, 476.715
1033.948, 434.606
1035.193, 422.341
1036.438, 388.312
1037.682, 331.771
1038.927, 337.848
1040.171, 323.028
1041.415, 280.165
1042.659, 284.184
1043.903, 256.261
1045.146, 282.320
1046.390, 265.726
1047.633, 223.174
1048.876, 257.951
1050.118, 237.638
1051.361, 228.236
1052.603, 236.757
1053.845, 231.176
1055.087, 263.507
1056.329, 250.752
1057.571, 244.911
1058.812, 255.984
1060.053, 231.008
1061.294, 256.911
1062.535, 268.731
1063.775, 247.469
1065.016, 259.125
1066.256, 267.699
1067.496, 270.194
1068.736, 310.608
1069.975, 271.946
1071.214, 301.206
1072.454, 318.389
1073.693, 283.498
1074.931, 285.532
1076.170, 267.492
1077.408, 271.390
1078.647, 275.039
1079.885, 238.393
1081.122, 261.470
1082.360, 246.500
1083.597, 249.273
1084.835, 241.952
1086.072, 233.665
1087.308, 244.660
1088.545, 221.839
1089.781, 226.953
1091.018, 228.980
1092.254, 214.857
1093.490, 208.822
1094.725, 209.661
1095.961, 214.429
1097.196, 203.372
1098.431, 192.308
1099.666, 201.162
1100.900, 188.251
1102.135, 193.214
1103.369, 174.371
1104.603, 167.536
1105.837, 157.660
1107.071, 150.608
1108.304, 153.078
1109.538, 146.468
1110.771, 156.692
1112.004, 164.948
1113.236, 133.259
1114.469, 154.607
1115.701, 151.919
1116.933, 148.182
1118.165, 155.468
1119.397, 127.697
1120.629, 123.885
1121.860, 125.045
1123.091, 123.147
1124.322, 118.317
1125.553, 120.414
1126.783, 116.601
1128.014, 126.757
1129.244, 117.922
1130.474, 129.123
1131.704, 120.321
1132.933, 109.560
1134.163, 110.815
1135.392, 106.080
1136.621, 106.387
1137.850, 101.677
1139.079, 111.032
1140.307, 115.418
1141.535, 100.813
1142.763, 109.294
1143.991, 125.765
1145.219, 101.260
1146.446, 130.751
1147.674, 89.231
1148.901, 89.775
1150.128, 108.401
1151.354, 117.021
1152.581, 104.730
1153.807, 104.461
1155.033, 113.142
1156.259, 112.897
1157.485, 108.644
1158.710, 109.446
1159.936, 115.297
1161.161, 123.168
1162.386, 128.038
1163.611, 99.986
1164.835, 111.866
1166.060, 109.792
1167.284, 126.735
1168.508, 130.687
1169.732, 125.661
1170.955, 129.655
1172.179, 120.673
1173.402, 137.713
1174.625, 152.756
1175.848, 152.822
1177.070, 172.894
1178.293, 173.972
1179.515, 186.073
1180.737, 183.996
1181.959, 184.207
1183.181, 176.214
1184.402, 160.051
1185.624, 158.653
1186.845, 145.643
1188.066, 131.872
1189.286, 130.327
1190.507, 128.710
1191.727, 130.906
1192.947, 134.408
1194.167, 127.706
1195.387, 142.817
1196.607, 132.092
1197.826, 121.257
1199.045, 106.371
1200.264, 117.524
1201.483, 119.642
1202.702, 105.892
1203.920, 107.115
1205.138, 111.283
1206.356, 92.500
1207.574, 125.617
1208.792, 115.905
1210.009, 124.176
1211.227, 120.372
1212.444, 113.598
1213.661, 118.904
1214.877, 111.207
1216.094, 101.703
1217.310, 93.042
1218.526, 110.529
1219.742, 89.110
1220.958, 103.521
1222.173, 93.174
1223.389, 79.579
1224.604, 77.990
1225.819, 85.509
1227.034, 78.803
1228.248, 81.520
1229.463, 61.506
1230.677, 83.193
1231.891, 73.541
1233.105, 87.423
1234.318, 76.978
1235.532, 81.796
1236.745, 74.211
1237.958, 85.583
1239.171, 71.306
1240.384, 88.618
1241.596, 97.914
1242.809, 80.880
1244.021, 80.328
1245.233, 78.644
1246.444, 81.013
1247.656, 92.311
1248.867, 78.728
1250.079, 87.092
1251.290, 65.643
1252.500, 69.286
1253.711, 61.660
1254.921, 84.416
1256.132, 53.033
1257.342, 50.380
1258.552, 51.272
1259.761, 35.721
1260.971, 36.560
1262.180, 40.003
1263.389, 26.464
1264.598, 30.949
1265.807, 34.266
1267.015, 36.145
1268.223, 46.069
1269.432, 24.650
1270.640, 40.061
1271.847, 16.607
1273.055, 22.993
1274.262, 19.436
1275.470, 12.850
1276.677, 16.322
1277.883, 10.774
1279.090, 10.719
1280.296, 11.632
1281.503, 6.064
1282.709, 14.530
1283.915, 4.964
1285.120, 4.448
1286.326, 10.988
1287.531, 1.457
1288.736, 8.960
1289.941, 9.538
1291.146, 18.037
1292.350, 30.648
1293.555, 25.094
1294.759, 11.555
1295.963, 22.147
1297.167, 8.745
1298.370, 9.303
1299.574, 31.870
1300.777, 19.483
1301.980, 29.103
1303.183, 20.762
1304.386, 16.380
1305.588, 17.023
1306.790, 22.700
1307.993, 11.400
1309.195, 47.987
1310.396, 28.628
1311.598, 30.251
1312.799, 39.950
1314.000, 31.671
1315.201, 31.375
1316.402, 31.094
1317.603, 28.773
1318.803, 45.533
1320.003, 37.299
1321.203, 45.043
1322.403, 31.781
1323.603, 26.509
1324.802, 34.224
1326.002, 22.930
1327.201, 22.631
1328.400, 34.328
1329.599, 30.021
1330.797, 21.711
1331.995, 27.397
1333.194, 9.079
1334.392, 31.759
1335.589, 35.436
1336.787, 12.112
1337.985, 26.784
1339.182, 31.454
1340.379, 21.122
1341.576, 25.787
1342.772, 33.449
1343.969, 25.097
1345.165, 30.754
1346.361, 27.410
1347.557, 19.063
1348.753, 32.714
1349.949, 24.363
1351.144, 22.976
1352.339, 7.623
1353.534, 23.281
1354.729, 19.923
1355.924, 28.565
1357.118, 14.205
1358.312, 17.843
1359.506, 12.480
1360.700, 12.115
1361.894, 6.748
1363.088, 2.379
1364.281, 9.009
1365.474, 8.362
1366.667, 0.709
1367.860, 0.904
1369.052, 4.485
1370.245, 0.176
1371.437, 11.199
1372.629, 17.574
1373.821, 11.020
1375.013, 0.811
1376.204, 15.580
1377.395, 7.038
1378.586, 14.567
1379.777, 3.652
1380.968, 0.268
1382.159, 11.811
1383.349, 2.106
1384.539, 21.971
1385.729, 15.041
1386.919, 4.106
1388.109, 1.832
1389.298, 2.461
1390.487, 10.626
1391.676, 1.619
1392.865, 1.878
1394.054, 7.127
1395.242, 9.291
1396.431, 3.530
1397.619, 10.877
1398.807, 8.245
1399.995, 0.374
1401.182, 11.019
1402.370, 4.408
1403.557, 9.844
1404.744, 1.258
1405.931, 1.630
1407.118, 0.837
1408.304, 4.906
1409.490, 10.373
1410.676, 10.588
1411.862, 3.755
1413.048, 0.024
1414.234, 2.175
1415.419, 2.641
1416.604, 3.446
1417.789, 5.572
1418.974, 7.536
1420.159, 7.503
1421.343, 10.496
1422.528, 7.461
1423.712, 10.410
1424.896, 6.360
1426.079, 13.313
1427.263, 14.179
1428.446, 9.185
1429.629, 15.083
1430.812, 19.055
1431.995, 21.064
1433.178, 19.075
1434.360, 25.056
1435.543, 32.080
1436.725, 30.979
1437.907, 16.976
1439.088, 30.951
1440.270, 31.875
1441.451, 27.721
1442.632, 47.516
1443.813, 43.848
1444.994, 16.406
1446.175, 32.496
1447.355, 30.326
1448.535, 42.901
1449.715, 30.184
1450.895, 35.651
1452.075, 45.445
1453.255, 31.755
1454.434, 29.056
1455.613, 40.642
1456.792, 33.911
1457.971, 33.966
1459.149, 35.042
1460.328, 18.587
1461.506, 16.275
1462.684, 36.266
1463.862, 26.152
1465.040, 30.966
1466.217, 21.014
1467.395, 16.482
1468.572, 26.472
1469.749, 28.484
1470.925, 20.491
1472.102, 24.432
1473.278, 27.326
1474.455, 26.194
1475.631, 32.126
1476.807, 30.059
1477.982, 35.066
1479.158, 24.878
1480.333, 19.757
1481.508, 23.565
1482.683, 19.132
1483.858, 23.869
1485.033, 20.632
1486.207, 18.373
1487.381, 17.188
1488.555, 12.947
1489.729, 15.736
1490.903, 11.635
1492.076, 11.356
1493.250, 11.332
1494.423, 8.375
1495.596, 17.411
1496.769, 15.446
1497.941, 29.486
1499.114, 23.525
1500.286, 23.576
1501.458, 19.655
1502.630, 22.778
1503.802, 15.945
1504.973, 20.165
1506.145, 19.426
1507.316, 6.577
1508.487, 22.929
1509.657, 32.336
1510.828, 5.816
1511.999, 16.381
1513.169, 19.037
1514.339, 19.113
1515.509, 0.366
1516.678, 28.927
1517.848, 14.113
1519.017, 0.000
##END=



