##NAMES=Titanite
##RRUFFID=R050039
##IDEAL CHEMISTRY=CaTi^4+^SiO_5_
##LOCALITY=Kingman, Arizona, USA
##OWNER=RRUFF
##SOURCE=University of Arizona Mineral Museum
##DESCRIPTION=Black fragment from a single crystal
##STATUS=The identification of this mineral has been confirmed by X-ray diffraction and chemical analysis
##URL=rruff.info/R050039
##MEASURED CHEMISTRY=(Ca_0.95_Y_0.05_)(Ti_0.85_Al_0.10_Fe^3+^_0.06_)Si_1.00_O_4_(O_0.93_F_0.07_)
##PIN_ID=L00107
##ORIENTATION=Laser parallel to (-1 0 -1). Fiducial mark perpendicular to laser is parallel to b [0 1 0]
119.556, 0.000
120.944, 37.432
122.332, 168.181
123.720, 292.960
125.107, 140.136
126.495, 256.098
127.882, 71.538
129.268, 102.282
130.655, 66.031
132.041, 81.562
133.427, 78.436
134.813, 135.127
136.199, 397.773
137.584, 505.773
138.970, 718.617
140.355, 755.873
141.740, 837.154
143.124, 1152.102
144.509, 1120.387
145.893, 1241.719
147.277, 1365.850
148.660, 1472.564
150.044, 1331.695
151.427, 1593.105
152.810, 1576.684
154.193, 1342.309
155.576, 1699.875
156.958, 1479.281
158.341, 1610.426
159.723, 1623.217
161.105, 1620.535
162.486, 1883.344
163.867, 1600.424
165.249, 1918.686
166.630, 1658.051
168.010, 1898.447
169.391, 1839.814
170.771, 1962.102
172.151, 2225.270
173.531, 2149.273
174.911, 2194.090
176.290, 2319.725
177.669, 2391.980
179.049, 2473.584
180.427, 2578.986
181.806, 2731.057
183.184, 2761.129
184.562, 2842.051
185.940, 2913.773
187.318, 3126.262
188.696, 3159.473
190.073, 3623.381
191.450, 3777.949
192.827, 3423.148
194.204, 4028.947
195.580, 4035.320
196.956, 4422.236
198.332, 4309.674
199.708, 4727.609
201.084, 5106.018
202.459, 5174.762
203.834, 5373.477
205.209, 5582.162
206.584, 5740.811
207.958, 5899.465
209.333, 5998.184
210.707, 6267.520
212.081, 6716.020
213.454, 6865.178
214.828, 7004.520
216.201, 7454.057
217.574, 7483.799
218.947, 7643.754
220.320, 7993.930
221.692, 7904.324
223.064, 8114.949
224.436, 8065.809
225.808, 7936.898
227.179, 8068.244
228.551, 7869.898
229.922, 7822.035
231.293, 7424.910
232.663, 7428.703
234.034, 7283.396
235.404, 7058.961
236.774, 7161.953
238.144, 6892.996
239.514, 7351.289
240.883, 7260.264
242.252, 7509.676
243.621, 7749.516
244.990, 7549.672
246.359, 8010.045
247.727, 7900.559
249.095, 8141.148
250.463, 8351.797
251.831, 8252.512
253.198, 8233.305
254.566, 8014.156
255.933, 8275.070
257.299, 7966.070
258.666, 7987.211
260.033, 7638.428
261.399, 7319.697
262.765, 7201.020
264.131, 6972.395
265.496, 6723.820
266.862, 6315.293
268.227, 6216.811
269.592, 5748.375
270.957, 5649.980
272.321, 5401.625
273.685, 5173.311
275.050, 5145.033
276.413, 4676.791
277.777, 4778.580
279.141, 4360.402
280.504, 4332.256
281.867, 4344.137
283.230, 4126.043
284.592, 4005.613
285.955, 3985.273
287.317, 3784.955
288.679, 3834.195
290.041, 3954.078
291.403, 4054.580
292.764, 3970.037
294.125, 4091.834
295.486, 4194.211
296.847, 4385.355
298.207, 4378.762
299.568, 4702.635
300.928, 4796.945
302.288, 4861.668
303.647, 5226.779
305.007, 5542.258
306.366, 5458.082
307.725, 5674.238
309.084, 5940.707
310.443, 6157.477
311.801, 6094.533
313.159, 6371.861
314.517, 6629.451
315.875, 6487.293
317.233, 6785.375
318.590, 6763.688
319.947, 6912.219
321.304, 6970.965
322.661, 6899.916
324.018, 6913.969
325.374, 6738.395
326.730, 6687.910
328.086, 6487.600
329.442, 6177.461
330.797, 6117.484
332.153, 5847.664
333.508, 5839.516
334.863, 5400.002
336.217, 5548.182
337.572, 5006.469
338.926, 4950.398
340.280, 4970.396
341.634, 4617.418
342.988, 4655.189
344.341, 4608.730
345.694, 4394.871
347.047, 4726.158
348.400, 4365.699
349.753, 4624.746
351.105, 4462.094
352.457, 4553.938
353.809, 4508.484
355.161, 4381.262
356.512, 4569.180
357.864, 4487.266
359.215, 4756.773
360.566, 4525.160
361.916, 4818.699
363.267, 4609.949
364.617, 4556.355
365.967, 4558.605
367.317, 4451.613
368.667, 4413.037
370.016, 3980.535
371.366, 4237.039
372.715, 4022.549
374.064, 3705.856
375.412, 3778.793
376.761, 3391.765
378.109, 3424.776
379.457, 3147.828
380.805, 3000.919
382.152, 2954.048
383.500, 2877.855
384.847, 2857.688
386.194, 2904.291
387.541, 2867.560
388.887, 2880.859
390.233, 2884.207
391.580, 2867.564
392.926, 2752.789
394.271, 2921.669
395.617, 2855.094
396.962, 2788.931
398.307, 2932.378
399.652, 2815.830
400.997, 2989.281
402.341, 2872.730
403.686, 3116.172
405.030, 3349.604
406.374, 3363.026
407.717, 3706.436
409.061, 3639.831
410.404, 3823.209
411.747, 4126.574
413.090, 4149.923
414.433, 4693.256
415.775, 4716.570
417.117, 5129.867
418.459, 4803.146
419.801, 4846.408
421.143, 5249.648
422.484, 4882.869
423.825, 4766.071
425.166, 4709.252
426.507, 4432.408
427.848, 4435.546
429.188, 3998.660
430.528, 3801.753
431.868, 3574.822
433.208, 3327.868
434.547, 3180.893
435.887, 2763.891
437.226, 2586.867
438.565, 2419.818
439.904, 2292.745
441.242, 2005.646
442.580, 1898.524
443.918, 1871.375
445.256, 1454.201
446.594, 1577.062
447.932, 1339.956
449.269, 1332.885
450.606, 1235.848
451.943, 1148.845
453.280, 1211.869
454.616, 1156.864
455.952, 978.043
457.288, 1191.160
458.624, 1274.305
459.960, 1337.463
461.295, 1180.633
462.631, 1293.812
463.966, 1107.003
465.300, 1190.196
466.635, 1223.396
467.969, 1206.599
469.304, 1049.803
470.638, 963.010
471.972, 874.826
473.305, 649.424
474.639, 672.630
475.972, 665.836
477.305, 569.040
478.638, 652.241
479.970, 555.440
481.303, 438.638
482.635, 481.830
483.967, 605.019
485.298, 238.201
486.630, 371.379
487.961, 34.550
489.293, 167.710
490.624, 170.861
491.954, 44.004
493.285, 2.868
494.615, 90.227
495.945, 106.691
497.275, 103.698
498.605, 195.334
499.935, 288.025
501.264, 395.444
502.593, 403.108
503.922, 491.025
505.251, 369.240
506.579, 447.693
507.908, 416.426
509.236, 405.424
510.564, 534.682
511.891, 444.270
513.219, 644.140
514.546, 454.399
515.873, 374.949
517.200, 375.748
518.527, 396.799
519.853, 218.109
521.180, 139.592
522.506, 261.199
523.832, 183.000
525.157, 114.952
526.483, 127.020
527.808, 99.210
529.133, 31.508
530.458, 13.880
531.783, 3.683
533.107, 52.737
534.431, 75.328
535.756, 126.103
537.079, 153.522
538.403, 190.920
539.727, 248.295
541.050, 175.647
542.373, 42.976
543.696, 360.266
545.018, 227.532
546.341, 134.775
547.663, 201.997
548.985, 69.193
550.307, 76.361
551.629, 13.505
552.950, 49.404
554.271, 77.606
555.592, 44.592
556.913, 81.541
558.234, 198.466
559.554, 315.367
560.875, 252.246
562.195, 329.103
563.514, 542.875
564.834, 722.745
566.154, 1079.532
567.473, 1316.298
568.792, 1703.042
570.111, 1999.895
571.429, 2296.463
572.748, 2653.142
574.066, 2989.798
575.384, 3346.434
576.702, 3373.048
578.019, 3869.641
579.337, 3926.215
580.654, 4072.767
581.971, 4459.302
583.288, 4725.814
584.605, 4602.308
585.921, 4848.781
587.237, 5135.236
588.553, 5201.673
589.869, 5468.092
591.185, 5464.490
592.500, 5310.873
593.815, 5687.236
595.130, 6003.582
596.445, 6149.910
597.760, 6036.223
599.074, 6202.518
600.389, 6388.797
601.703, 6665.058
603.016, 6761.303
604.330, 6637.533
605.644, 6923.749
606.957, 6939.947
608.270, 7176.129
609.583, 7212.295
610.895, 7178.445
612.208, 7444.581
613.520, 7250.699
614.832, 7646.801
616.144, 7742.889
617.455, 7318.960
618.767, 7655.018
620.078, 7691.066
621.389, 7397.105
622.700, 7943.172
624.011, 7669.268
625.321, 7835.494
626.631, 7531.811
627.941, 7938.313
629.251, 7764.916
630.561, 7771.709
631.870, 8038.676
633.180, 7785.776
634.489, 7673.113
635.798, 7890.585
637.106, 7648.205
638.415, 7965.997
639.723, 7743.872
641.031, 7631.877
642.339, 7629.934
643.647, 7618.006
644.954, 7736.074
646.261, 7554.130
647.568, 7242.170
648.875, 7770.198
650.182, 7378.211
651.488, 7374.693
652.795, 7422.680
654.101, 7273.102
655.407, 7253.545
656.712, 6908.471
658.018, 7147.447
659.323, 6729.518
660.628, 7060.953
661.933, 6616.725
663.238, 6560.006
664.542, 6618.239
665.847, 6338.322
667.151, 6308.992
668.455, 6151.456
669.758, 6049.518
671.062, 6074.961
672.365, 5910.641
673.668, 5794.503
674.971, 5716.661
676.274, 5517.475
677.577, 5429.488
678.879, 5366.425
680.181, 5125.727
681.483, 5089.941
682.785, 5208.382
684.086, 4896.137
685.388, 4815.549
686.689, 4898.959
687.990, 4693.432
689.290, 4198.973
690.591, 4866.786
691.891, 4265.040
693.192, 4623.330
694.491, 4321.649
695.791, 4039.996
697.091, 4488.369
698.390, 4216.771
699.689, 3904.559
700.988, 4223.015
702.287, 4001.499
703.586, 3850.014
704.884, 3978.555
706.182, 3617.107
707.480, 3735.706
708.778, 3542.494
710.076, 3425.679
711.373, 3284.365
712.670, 3442.682
713.968, 3061.428
715.264, 3150.205
716.561, 2949.011
717.857, 3017.849
719.154, 2916.715
720.450, 2935.614
721.746, 2724.542
723.041, 2713.501
724.337, 2592.489
725.632, 2601.510
726.927, 2450.562
728.222, 2259.644
729.517, 2558.756
730.811, 1817.899
732.105, 2197.074
733.400, 1926.280
734.693, 2015.518
735.987, 1824.784
737.281, 1684.083
738.574, 1763.413
739.867, 1712.775
741.160, 1592.167
742.453, 1571.591
743.745, 1511.047
745.038, 1480.532
746.330, 1490.050
747.622, 1149.599
748.913, 1189.178
750.205, 1168.790
751.496, 1028.434
752.788, 1138.107
754.079, 967.813
755.369, 987.551
756.660, 937.319
757.950, 887.120
759.241, 796.949
760.531, 746.812
761.820, 636.706
763.110, 575.202
764.399, 726.589
765.689, 496.576
766.978, 546.595
768.267, 656.646
769.555, 566.728
770.844, 696.840
772.132, 696.984
773.420, 447.572
774.708, 509.187
775.996, 470.854
777.283, 519.821
778.570, 448.199
779.857, 472.354
781.144, 465.894
782.431, 632.718
783.718, 588.907
785.004, 706.520
786.290, 570.467
787.576, 654.485
788.862, 893.102
790.147, 468.010
791.433, 745.578
792.718, 798.328
794.003, 451.171
795.288, 724.238
796.572, 678.044
797.857, 745.286
799.141, 617.481
800.425, 658.193
801.709, 748.708
802.992, 519.221
804.276, 679.734
805.559, 660.247
806.842, 590.772
808.125, 721.297
809.407, 301.860
810.690, 462.464
811.972, 463.129
813.254, 573.910
814.536, 544.849
815.818, 655.936
817.099, 587.191
818.381, 608.610
819.662, 520.188
820.943, 551.389
822.223, 583.795
823.504, 625.876
824.784, 638.122
826.065, 740.619
827.345, 743.323
828.624, 846.189
829.904, 1039.204
831.183, 1062.377
832.462, 1055.632
833.741, 1208.998
835.020, 1192.460
836.299, 1255.985
837.577, 1599.553
838.856, 1463.165
840.134, 1726.816
841.412, 2010.486
842.689, 2104.172
843.967, 2167.870
845.244, 2391.565
846.521, 2845.257
847.798, 2748.940
849.075, 3162.616
850.351, 3356.283
851.628, 3599.941
852.904, 4243.592
854.180, 4277.238
855.455, 4870.877
856.731, 5234.507
858.006, 5568.125
859.281, 6121.733
860.556, 6425.332
861.831, 7198.922
863.106, 7822.512
864.380, 8566.118
865.655, 9019.719
866.929, 9583.307
868.202, 9936.884
869.476, 10910.449
870.750, 11283.997
872.023, 11927.533
873.296, 12211.054
874.569, 12844.562
875.842, 13038.055
877.114, 13891.528
878.386, 13874.988
879.658, 14068.430
880.930, 14521.856
882.202, 14415.266
883.474, 14428.659
884.745, 14162.032
886.016, 14475.388
887.287, 14358.729
888.558, 13892.047
889.829, 14365.347
891.099, 13328.626
892.369, 13311.886
893.639, 12445.126
894.909, 11988.343
896.179, 11511.542
897.448, 10474.716
898.718, 10107.874
899.987, 9361.005
901.256, 8634.116
902.524, 8177.203
903.793, 7350.268
905.061, 6583.308
906.329, 6216.323
907.597, 5159.314
908.865, 5302.281
910.133, 4425.224
911.400, 4148.141
912.667, 3621.031
913.934, 3303.896
915.201, 2976.733
916.468, 2369.545
917.734, 2062.328
919.001, 1545.084
920.267, 1477.812
921.532, 1190.513
922.798, 923.184
924.064, 655.826
925.329, 388.438
926.594, 211.018
927.859, 213.553
929.124, 13.956
930.388, 1.584
931.653, 409.326
932.917, 237.396
934.181, 605.708
935.445, 274.454
936.708, 613.464
937.972, 552.916
939.235, 392.778
940.498, 782.969
941.761, 403.694
943.024, 444.755
944.286, 526.173
945.548, 207.992
946.811, 370.047
948.072, 62.419
949.334, 45.048
950.596, 242.414
951.857, 519.729
953.118, 692.359
954.379, 874.259
955.640, 1161.475
956.901, 1498.659
958.161, 1765.812
959.421, 1892.932
960.681, 2370.543
961.941, 2678.189
963.201, 3155.707
964.460, 3528.160
965.720, 3684.172
966.979, 4087.469
968.238, 4619.309
969.496, 4787.846
970.755, 5309.909
972.013, 5743.031
973.272, 5764.701
974.529, 6061.824
975.787, 6305.617
977.045, 6367.381
978.302, 6380.213
979.560, 6267.215
980.817, 6580.896
982.073, 6295.658
983.330, 6494.080
984.587, 6333.512
985.843, 6412.527
987.099, 6138.813
988.355, 6095.410
989.611, 5931.520
990.866, 5917.574
992.122, 5663.578
993.377, 5709.525
994.632, 5645.420
995.887, 5311.261
997.141, 5307.047
998.396, 5202.781
999.650, 4918.461
1000.904, 4934.084
1002.158, 4829.655
1003.412, 4755.174
1004.665, 4790.636
1005.918, 4486.044
1007.172, 4621.399
1008.425, 4506.701
1009.677, 4631.948
1010.930, 4507.143
1012.182, 4492.281
1013.434, 4647.367
1014.687, 4662.399
1015.938, 4497.378
1017.190, 5222.301
1018.441, 4777.172
1019.693, 5331.988
1020.944, 5116.749
1022.195, 5301.456
1023.445, 5586.111
1024.696, 5650.710
1025.946, 6035.257
1027.197, 6099.746
1028.446, 5854.186
1029.696, 6648.570
1030.946, 6242.898
1032.195, 6687.176
1033.445, 6931.398
1034.694, 6705.566
1035.942, 6849.682
1037.191, 6833.744
1038.440, 7077.751
1039.688, 7271.705
1040.936, 6795.606
1042.184, 7209.453
1043.432, 6993.248
1044.679, 6806.987
1045.927, 6790.675
1047.174, 6334.310
1048.421, 6557.891
1049.668, 6001.418
1050.914, 5734.893
1052.161, 5888.315
1053.407, 5491.686
1054.653, 4825.002
1055.899, 4998.264
1057.145, 4401.476
1058.391, 4434.633
1059.636, 4167.740
1060.881, 3880.795
1062.126, 3723.797
1063.371, 3346.748
1064.615, 3269.646
1065.860, 3312.494
1067.104, 3035.290
1068.348, 2808.037
1069.592, 2970.730
1070.836, 2673.375
1072.079, 2745.969
1073.323, 2638.512
1074.566, 2661.005
1075.809, 3113.037
1077.052, 2744.023
1078.294, 3074.938
1079.537, 2968.535
1080.779, 2972.703
1082.021, 3171.076
1083.263, 3130.049
1084.504, 3125.720
1085.746, 3072.008
1086.987, 2952.300
1088.228, 2845.410
1089.469, 2653.858
1090.710, 2487.737
1091.951, 2265.360
1093.191, 1980.316
1094.431, 1930.117
1095.671, 1679.816
1096.911, 1319.284
1098.151, 1168.044
1099.390, 1073.373
1100.630, 653.769
1101.869, 765.701
1103.108, 527.856
1104.346, 370.055
1105.585, 482.281
1106.823, 244.501
1108.062, 256.765
1109.300, 89.049
1110.537, 71.329
1111.775, 93.646
1113.013, 84.041
1114.250, 141.770
1115.487, 99.576
1116.724, 77.453
1117.961, 185.381
1119.197, 83.428
1120.434, 101.540
1121.670, 79.723
1122.906, 167.968
1124.142, 116.320
1125.377, 244.753
1126.613, 263.333
1127.848, 172.069
1129.083, 120.914
1130.318, 139.839
1131.553, 28.854
1132.787, 217.901
1134.022, 47.077
1135.256, 163.709
1136.490, 74.487
1137.724, 305.257
1138.957, 276.022
1140.191, 406.783
1141.424, 557.540
1142.657, 748.294
1143.890, 979.046
1145.123, 1179.793
1146.355, 1390.539
1147.588, 1891.282
1148.820, 1972.021
1150.052, 2222.759
1151.284, 2983.492
1152.516, 3034.221
1153.747, 3684.943
1154.978, 4145.662
1156.209, 4586.371
1157.440, 5187.075
1158.671, 5677.770
1159.902, 6264.777
1161.132, 7029.137
1162.362, 7519.807
1163.592, 8310.471
1164.822, 9081.123
1166.052, 9481.771
1167.281, 10662.409
1168.511, 11203.041
1169.740, 11693.666
1170.969, 12754.281
1172.197, 13004.887
1173.426, 13575.486
1174.654, 13966.076
1175.883, 14136.659
1177.111, 14337.232
1178.338, 14227.797
1179.566, 14518.353
1180.794, 14278.896
1182.021, 13329.435
1183.248, 13779.964
1184.475, 13380.483
1185.702, 12520.992
1186.928, 12911.493
1188.155, 12421.984
1189.381, 12002.467
1190.607, 11882.941
1191.833, 11632.140
1193.059, 11703.870
1194.284, 11534.323
1195.509, 11574.769
1196.735, 11735.203
1197.960, 11105.633
1199.184, 11606.055
1200.409, 11196.470
1201.633, 10886.873
1202.858, 10957.287
1204.082, 11017.709
1205.306, 10538.145
1206.529, 10478.594
1207.753, 10109.050
1208.976, 10009.521
1210.199, 9960.006
1211.422, 9440.506
1212.645, 9701.017
1213.868, 9371.544
1215.090, 9202.087
1216.313, 9322.646
1217.535, 9023.222
1218.757, 9323.816
1219.978, 9214.425
1221.200, 9255.051
1222.421, 9845.694
1223.643, 9606.354
1224.864, 9887.038
1226.084, 10387.744
1227.305, 10198.580
1228.526, 11259.401
1229.746, 11400.384
1230.966, 11161.879
1232.186, 12043.195
1233.406, 11775.618
1234.625, 12485.945
1235.845, 12839.113
1237.064, 12799.421
1238.283, 12982.929
1239.502, 13317.600
1240.721, 12939.769
1241.939, 13544.170
1243.157, 13539.100
1244.376, 13152.326
1245.594, 13240.382
1246.811, 12761.404
1248.029, 12820.386
1249.247, 12392.260
1250.464, 12008.316
1251.681, 11971.650
1252.898, 11696.252
1254.115, 10932.932
1255.331, 11053.748
1256.548, 10379.753
1257.764, 10405.192
1258.980, 9971.108
1260.196, 9095.581
1261.411, 8924.980
1262.627, 8803.763
1263.842, 8465.671
1265.057, 8178.015
1266.272, 7846.942
1267.487, 7395.321
1268.702, 7664.703
1269.916, 6898.070
1271.130, 7105.428
1272.344, 6944.140
1273.558, 6651.776
1274.772, 6775.232
1275.986, 6462.000
1277.199, 6317.680
1278.412, 6859.691
1279.625, 6160.682
1280.838, 6242.082
1282.051, 6936.203
1283.263, 6370.004
1284.475, 6664.283
1285.687, 6728.607
1286.899, 6932.980
1288.111, 7137.396
1289.323, 7091.857
1290.534, 7126.354
1291.745, 7630.783
1292.957, 7665.025
1294.167, 8059.164
1295.378, 7923.295
1296.589, 8027.271
1297.799, 8700.979
1299.009, 8504.430
1300.219, 8587.744
1301.429, 9180.784
1302.639, 8883.605
1303.848, 9146.279
1305.057, 9518.841
1306.267, 8991.327
1307.476, 9443.768
1308.684, 9656.167
1309.893, 9258.526
1311.101, 9520.843
1312.310, 9293.112
1313.518, 9345.326
1314.725, 9497.480
1315.933, 9139.560
1317.141, 9321.561
1318.348, 9163.465
1319.555, 8985.268
1320.762, 9006.971
1321.969, 8756.559
1323.176, 8630.076
1324.382, 8321.512
1325.589, 8092.881
1326.795, 7764.199
1328.001, 7505.461
1329.206, 7376.666
1330.412, 7247.809
1331.617, 6848.891
1332.823, 6509.915
1334.028, 6540.887
1335.233, 6071.822
1336.437, 5882.719
1337.642, 5684.688
1338.846, 5295.531
1340.051, 5226.363
1341.255, 4857.192
1342.458, 4517.867
1343.662, 4529.123
1344.866, 4139.874
1346.069, 3839.598
1347.272, 3824.506
1348.475, 3369.481
1349.678, 3414.523
1350.880, 3099.633
1352.083, 2774.812
1353.285, 2810.061
1354.487, 2565.381
1355.689, 2330.773
1356.891, 2316.240
1358.093, 1861.781
1359.294, 1927.397
1360.495, 1743.087
1361.696, 1478.846
1362.897, 1524.615
1364.098, 1400.346
1365.298, 985.954
1366.499, 1181.482
1367.699, 836.961
1368.899, 782.318
1370.099, 747.446
1371.298, 262.355
1372.498, 497.139
1373.697, 491.762
1374.896, 196.229
1376.095, 310.712
1377.294, 75.301
1378.493, 109.926
1379.691, 44.987
1380.889, 99.890
1382.087, 144.435
1383.285, 1.313
1384.483, 112.744
1385.681, 43.422
1386.878, 19.634
1388.075, 114.132
1389.272, 27.883
1390.469, 71.620
1391.666, 195.342
1392.862, 79.040
1394.059, 142.711
1395.255, 96.339
1396.451, 130.088
1397.647, 143.419
1398.842, 46.850
1400.038, 29.799
1401.233, 123.467
1402.428, 43.359
1403.623, 19.715
1404.818, 7.318
1406.013, 134.472
1407.207, 51.754
1408.401, 349.174
1409.595, 326.743
1410.789, 224.472
1411.983, 322.369
1413.177, 500.446
1414.370, 308.693
1415.563, 587.141
1416.756, 595.795
1417.949, 574.673
1419.142, 873.688
1420.335, 612.794
1421.527, 901.995
1422.719, 1091.287
1423.911, 790.671
1425.103, 1160.144
1426.295, 1209.706
1427.486, 1149.365
1428.677, 1579.132
1429.869, 1329.024
1431.060, 1308.888
1432.250, 1678.107
1433.441, 1375.964
1434.632, 1580.309
1435.822, 1728.100
1437.012, 1384.958
1438.202, 1653.492
1439.392, 1618.722
1440.581, 1466.784
1441.771, 1617.891
1442.960, 1526.809
1444.149, 1463.455
1445.338, 1582.644
1446.527, 1319.724
1447.715, 1334.199
1448.904, 1496.707
1450.092, 1165.279
1451.280, 1485.979
1452.468, 1274.941
1453.656, 1195.135
1454.843, 1243.863
1456.031, 1230.947
1457.218, 1096.185
1458.405, 1119.341
1459.592, 820.139
1460.778, 968.283
1461.965, 924.120
1463.151, 580.636
1464.337, 786.329
1465.523, 805.229
1466.709, 546.890
1467.895, 672.213
1469.080, 358.843
1470.266, 335.195
1471.451, 470.898
1472.636, 205.977
1473.821, 180.871
1475.005, 466.357
1476.190, 103.438
1477.374, 312.553
1478.558, 293.116
1479.742, 15.557
1480.926, 357.034
1482.109, 91.778
1483.293, 199.030
1484.476, 171.342
1485.659, 0.489
1486.842, 34.269
1488.025, 0.000
##END=



