##NAMES=Titanite
##RRUFFID=R050114
##IDEAL CHEMISTRY=CaTi^4+^SiO_5_
##LOCALITY=Isthak Valley Iskardu, Northern Areas Gilgit, Pakistan
##OWNER=RRUFF
##SOURCE=Syed Shah
##DESCRIPTION=Yellowish-brown fragment
##STATUS=The identification of this mineral has been confirmed by X-ray diffraction and chemical analysis
##URL=rruff.info/R050114
##MEASURED CHEMISTRY=(Ca_0.99_Na_0.01_)(Ti_0.96_Al_0.03_Fe^3+^_0.01_)Si_1.00_O_4_(O_0.95_F_0.05_)
##PIN_ID=L00193
##ORIENTATION=Laser parallel to c* (0 0 1). Fiducial mark perpendicular to laser is parallel to -a [-1 0 0]
49.365, 0.000
50.765, 27.314
52.166, 59.724
53.566, 153.900
54.966, 149.490
56.365, 165.210
57.765, 234.287
59.164, 277.587
60.563, 310.075
61.962, 318.157
63.360, 369.425
64.758, 453.824
66.157, 557.698
67.554, 577.532
68.952, 497.331
70.349, 421.082
71.747, 295.360
73.144, 229.084
74.540, 158.199
75.937, 66.698
77.333, 7.547
78.729, 56.318
80.125, 111.982
81.521, 148.538
82.916, 139.081
84.311, 170.705
85.706, 125.500
87.101, 61.551
88.496, 35.061
89.890, 89.259
91.284, 165.974
92.678, 402.113
94.071, 651.576
95.465, 931.298
96.858, 1337.314
98.251, 1683.748
99.644, 2153.720
101.036, 2565.256
102.428, 2916.267
103.820, 3561.639
105.212, 3837.274
106.604, 4388.088
107.995, 4747.004
109.387, 5236.955
110.777, 5680.881
112.168, 5866.730
113.559, 6495.456
114.949, 6453.016
116.339, 6949.372
117.729, 7129.490
119.119, 7339.337
120.508, 7533.888
121.897, 7979.114
123.286, 8234.989
124.675, 8491.493
126.063, 8978.607
127.452, 9276.311
128.840, 9774.593
130.228, 9803.427
131.615, 10192.803
133.003, 10282.643
134.390, 10102.723
135.777, 10113.026
137.164, 9923.530
138.550, 10094.220
139.937, 10015.317
141.323, 10127.234
142.709, 10410.502
144.094, 10375.533
145.480, 10852.721
146.865, 10932.117
148.250, 11283.445
149.635, 11456.321
151.019, 11890.225
152.403, 12474.494
153.788, 13398.724
155.171, 14622.912
156.555, 16067.074
157.939, 18021.219
159.322, 19655.379
160.705, 21299.547
162.088, 22743.752
163.470, 23347.990
164.853, 23692.289
166.235, 23206.645
167.617, 22391.076
168.998, 21275.576
170.380, 19800.168
171.761, 18944.848
173.142, 17799.627
174.523, 17444.512
175.904, 17109.498
177.284, 16794.605
178.664, 16799.832
180.044, 16855.176
181.424, 16870.648
182.803, 16876.252
184.183, 17091.984
185.562, 17107.850
186.940, 17063.848
188.319, 16949.984
189.698, 16896.258
191.076, 17002.672
192.454, 17249.219
193.831, 17497.885
195.209, 17962.758
196.586, 18399.738
197.963, 18746.869
199.340, 19534.150
200.717, 20121.578
202.093, 20659.158
203.470, 21496.891
204.846, 21924.779
206.221, 22702.826
207.597, 23501.027
208.972, 23789.383
210.347, 24647.906
211.722, 24346.584
213.097, 24695.420
214.472, 24714.426
215.846, 24896.928
217.220, 24899.383
218.594, 24761.719
219.967, 25673.934
221.341, 25366.000
222.714, 26187.936
224.087, 26139.648
225.460, 26911.166
226.832, 27062.584
228.204, 27249.297
229.577, 27701.094
230.948, 27390.689
232.320, 27789.094
233.692, 27376.494
235.063, 27057.512
236.434, 27018.586
237.805, 26713.396
239.175, 26695.432
240.545, 26608.908
241.916, 27377.150
243.286, 27529.527
244.655, 28901.305
246.025, 30082.625
247.394, 31282.531
248.763, 32763.963
250.132, 33845.004
251.501, 34299.082
252.869, 34745.711
254.237, 34482.617
255.605, 34028.562
256.973, 33154.785
258.340, 32411.295
259.708, 30498.070
261.075, 28655.105
262.442, 26912.400
263.808, 24949.955
265.175, 22917.754
266.541, 21145.793
267.907, 19624.064
269.273, 18372.562
270.639, 17042.193
272.004, 15940.225
273.369, 14949.381
274.734, 14288.744
276.099, 13608.313
277.463, 13138.086
278.828, 12748.054
280.192, 12508.219
281.556, 12208.575
282.919, 11929.120
284.283, 11919.854
285.646, 11560.771
287.009, 11381.867
288.372, 11403.143
289.734, 10904.597
291.097, 10606.224
292.459, 10018.024
293.821, 9599.993
295.183, 9252.131
296.544, 9324.436
297.905, 9666.904
299.266, 10349.538
300.627, 11302.337
301.988, 11945.300
303.348, 12738.429
304.709, 13101.719
306.069, 13295.168
307.428, 13548.775
308.788, 13622.524
310.147, 13876.415
311.507, 13950.434
312.865, 14224.573
314.224, 14638.833
315.583, 14553.198
316.941, 15067.678
318.299, 14682.268
319.657, 14666.968
321.015, 14551.785
322.372, 13936.714
323.729, 13951.757
325.086, 13726.920
326.443, 14182.195
327.800, 14207.591
329.156, 14643.102
330.512, 15358.730
331.868, 15554.480
333.224, 16170.349
334.579, 16296.338
335.935, 16062.441
337.290, 15898.670
338.645, 15285.023
339.999, 15031.492
341.354, 13878.084
342.708, 13364.800
344.062, 12271.639
345.416, 11448.598
346.769, 10565.683
348.123, 9942.890
349.476, 9300.224
350.829, 8647.680
352.182, 8295.262
353.534, 8102.970
354.887, 7800.803
356.239, 7718.764
357.591, 7426.848
358.942, 7375.062
360.294, 7273.401
361.645, 6961.869
362.996, 6770.463
364.347, 6549.186
365.698, 6278.034
367.048, 5997.014
368.398, 5696.121
369.748, 5225.358
371.098, 4814.723
372.448, 4424.217
373.797, 3813.843
375.146, 3383.598
376.495, 2907.481
377.844, 2516.496
379.192, 2105.676
380.540, 1612.022
381.889, 1235.537
383.236, 892.220
384.584, 684.074
385.932, 450.102
387.279, 350.303
388.626, 171.680
389.973, 37.766
391.319, 151.106
392.666, 316.386
394.012, 493.672
395.358, 663.042
396.704, 908.571
398.049, 902.372
399.394, 1152.442
400.740, 1271.902
402.084, 1297.810
403.429, 1401.176
404.774, 1320.045
406.118, 1346.371
407.462, 1197.155
408.806, 1183.316
410.150, 995.845
411.493, 813.655
412.836, 613.660
414.179, 206.782
415.522, 40.141
416.865, 586.201
418.207, 1178.434
419.549, 1824.838
420.891, 2785.416
422.233, 3419.163
423.575, 4306.081
424.916, 4834.171
426.257, 5202.428
427.598, 5340.858
428.939, 5099.456
430.279, 4828.224
431.619, 4427.159
432.959, 4026.264
434.299, 3825.538
435.639, 3694.980
436.978, 3584.590
438.318, 3454.369
439.657, 3734.315
440.996, 3844.430
442.334, 3824.712
443.673, 4095.163
445.011, 4185.780
446.349, 4526.564
447.687, 4777.516
449.024, 5008.636
450.361, 5529.923
451.699, 5841.378
453.036, 6633.001
454.372, 7254.792
455.709, 8196.751
457.045, 9478.881
458.381, 10711.179
459.717, 12443.650
461.053, 14236.299
462.388, 16399.125
463.724, 18662.123
465.059, 20735.309
466.394, 23128.672
467.728, 24802.219
469.063, 25995.949
470.397, 26029.863
471.731, 24753.953
473.065, 22428.223
474.398, 19562.684
475.732, 16707.338
477.065, 13742.170
478.398, 10877.195
479.731, 8662.411
481.063, 6617.815
482.396, 5193.411
483.728, 3819.189
485.060, 3275.161
486.391, 2378.316
487.723, 2008.674
489.054, 1766.225
490.385, 1371.963
491.716, 1369.896
493.047, 1409.022
494.377, 1288.351
495.708, 1359.882
497.038, 1381.625
498.368, 1544.589
499.697, 1525.776
501.027, 1682.188
502.356, 1810.827
503.685, 1795.696
505.014, 2055.797
506.342, 2000.122
507.671, 2257.672
508.999, 2541.471
510.327, 2476.503
511.655, 2944.776
512.982, 3082.286
514.310, 3299.018
515.637, 3679.982
516.964, 3841.166
518.291, 4222.574
519.617, 4254.210
520.944, 4866.078
522.270, 4958.170
523.596, 5430.480
524.921, 6243.018
526.247, 6525.789
527.572, 7288.789
528.897, 7832.022
530.222, 8685.489
531.547, 9449.188
532.871, 10433.118
534.196, 11237.276
535.520, 12231.664
536.844, 13086.276
538.167, 14341.109
539.491, 14686.161
540.814, 15851.432
542.137, 16056.900
543.460, 17062.578
544.783, 17598.457
546.105, 17534.543
547.427, 18600.812
548.749, 18497.273
550.071, 18838.562
551.393, 18354.727
552.714, 17992.752
554.035, 17771.746
555.356, 16801.691
556.677, 15628.461
557.998, 15305.755
559.318, 13639.153
560.638, 13035.776
561.958, 11831.124
563.278, 10860.677
564.597, 9865.267
565.917, 8598.621
567.236, 7801.047
568.555, 6604.629
569.874, 5739.243
571.192, 5354.124
572.511, 5060.243
573.829, 5167.742
575.147, 5476.663
576.464, 6047.033
577.782, 6967.606
579.099, 7758.377
580.416, 8929.350
581.733, 10060.521
583.050, 11661.889
584.366, 12893.454
585.683, 14805.216
586.999, 16267.178
588.315, 17809.328
589.630, 19891.670
590.946, 21554.215
592.261, 23806.941
593.576, 26279.863
594.891, 28152.984
596.206, 30116.289
597.520, 31579.779
598.834, 33693.461
600.148, 35827.340
601.462, 36571.395
602.776, 38565.633
604.089, 38570.062
605.402, 40224.680
606.715, 40369.461
608.028, 40134.445
609.341, 40329.691
610.653, 39385.043
611.965, 38450.602
613.277, 37506.438
614.589, 36092.312
615.901, 35259.180
617.212, 33526.145
618.523, 32883.902
619.834, 30772.393
621.145, 29949.387
622.456, 28651.094
623.766, 26809.336
625.076, 26289.332
626.386, 24860.754
627.696, 23889.686
629.006, 22979.646
630.315, 21459.182
631.624, 20872.295
632.933, 19705.123
634.242, 19134.996
635.551, 18508.844
636.859, 17310.580
638.167, 17123.486
639.475, 16296.371
640.783, 15337.832
642.090, 14932.007
643.398, 14113.410
644.705, 13800.039
646.012, 13164.459
647.318, 12517.369
648.625, 12382.428
649.931, 11446.989
651.237, 11434.409
652.543, 10721.735
653.849, 10461.411
655.155, 10223.188
656.460, 9675.676
657.765, 9568.758
659.070, 9132.463
660.375, 8817.165
661.679, 8672.324
662.984, 8165.753
664.288, 8079.647
665.592, 7739.615
666.895, 7535.802
668.199, 7363.879
669.502, 6910.963
670.805, 6865.365
672.108, 6451.488
673.411, 6605.451
674.713, 6180.333
676.016, 5856.770
677.318, 5873.322
678.620, 5609.118
679.921, 5393.350
681.223, 5299.849
682.524, 5067.744
683.825, 4935.036
685.126, 4743.698
686.427, 4552.437
687.727, 4450.473
689.028, 4260.224
690.328, 4220.900
691.628, 3997.855
692.927, 3854.750
694.227, 3833.347
695.526, 3603.156
696.825, 3632.365
698.124, 3336.462
699.423, 3314.769
700.721, 3195.210
702.020, 3138.342
703.318, 3068.988
704.616, 2857.735
705.913, 2731.580
707.211, 2607.948
708.508, 2599.811
709.805, 2566.625
711.102, 2359.707
712.399, 2203.121
713.695, 2255.095
714.992, 2030.076
716.288, 1946.337
717.584, 1949.318
718.879, 1778.581
720.175, 1888.146
721.470, 1596.080
722.765, 1692.390
724.060, 1499.037
725.355, 1465.016
726.649, 1403.277
727.944, 1217.777
729.238, 1214.468
730.532, 1276.258
731.825, 1083.097
733.119, 1235.963
734.412, 990.856
735.705, 943.775
736.998, 969.718
738.291, 894.682
739.584, 832.668
740.876, 808.673
742.168, 830.697
743.460, 750.739
744.752, 770.796
746.043, 699.868
747.334, 590.953
748.626, 606.051
749.916, 489.158
751.207, 501.275
752.498, 505.400
753.788, 330.531
755.078, 391.667
756.368, 302.807
757.658, 272.949
758.947, 236.092
760.237, 167.234
761.526, 93.374
762.815, 85.510
764.104, 2.640
765.392, 94.762
766.680, 11.874
767.969, 4.027
769.257, 59.058
770.544, 54.871
771.832, 49.827
773.119, 77.810
774.406, 97.828
775.693, 13.890
776.980, 169.978
778.267, 63.067
779.553, 113.233
780.839, 141.076
782.125, 64.569
783.411, 89.796
784.697, 69.592
785.982, 141.462
787.267, 128.231
788.552, 57.071
789.837, 130.779
791.122, 84.389
792.406, 97.795
793.690, 89.309
794.974, 55.889
796.258, 94.852
797.542, 39.426
798.825, 120.542
800.108, 74.863
801.391, 41.132
802.674, 70.019
803.957, 53.668
805.239, 94.834
806.522, 85.542
807.804, 118.141
809.085, 146.271
810.367, 149.488
811.649, 150.972
812.930, 153.070
814.211, 161.126
815.492, 160.747
816.772, 125.656
818.053, 125.650
819.333, 215.046
820.613, 147.604
821.893, 170.611
823.173, 147.828
824.452, 98.174
825.732, 118.846
827.011, 77.737
828.290, 85.808
829.568, 104.067
830.847, 99.526
832.125, 81.186
833.403, 50.041
834.681, 80.077
835.959, 96.315
837.236, 80.765
838.514, 96.826
839.791, 92.297
841.068, 78.391
842.345, 76.700
843.621, 60.738
844.898, 73.964
846.174, 35.923
847.450, 26.087
848.726, 24.453
850.001, 5.979
851.277, 48.220
852.552, 14.288
853.827, 73.166
855.102, 64.877
856.376, 103.417
857.651, 132.798
858.925, 166.026
860.199, 191.110
861.473, 220.785
862.746, 234.863
864.020, 284.535
865.293, 286.079
866.566, 334.492
867.839, 357.778
869.112, 446.939
870.384, 525.980
871.656, 549.906
872.928, 630.716
874.200, 619.410
875.472, 706.986
876.744, 718.441
878.015, 744.774
879.286, 883.982
880.557, 926.065
881.828, 977.021
883.098, 1053.847
884.369, 1188.545
885.639, 1258.112
886.909, 1344.550
888.178, 1405.855
889.448, 1480.030
890.717, 1493.083
891.987, 1518.093
893.256, 1435.980
894.524, 1368.906
895.793, 1331.729
897.061, 1236.495
898.330, 1253.078
899.598, 1254.712
900.865, 1260.293
902.133, 1329.651
903.401, 1440.926
904.668, 1527.107
905.935, 1712.172
907.202, 1857.162
908.468, 2133.111
909.735, 2336.910
911.001, 2655.626
912.267, 2896.067
913.533, 3010.516
914.799, 3035.874
916.064, 2965.766
917.330, 2712.744
918.595, 2558.485
919.860, 2212.904
921.124, 2008.263
922.389, 1737.514
923.653, 1546.704
924.918, 1388.868
926.182, 1167.164
927.445, 1057.839
928.709, 999.854
929.972, 873.235
931.236, 885.979
932.499, 796.951
933.761, 745.403
935.024, 710.280
936.286, 653.146
937.549, 657.449
938.811, 633.197
940.073, 630.243
941.334, 616.253
942.596, 598.299
943.857, 575.469
945.118, 575.484
946.379, 572.517
947.640, 596.982
948.900, 555.740
950.161, 593.269
951.421, 595.578
952.681, 581.098
953.940, 630.231
955.200, 588.214
956.459, 640.659
957.719, 679.355
958.978, 647.111
960.236, 686.564
961.495, 668.942
962.753, 671.547
964.012, 714.651
965.270, 678.101
966.527, 724.553
967.785, 736.657
969.043, 705.330
970.300, 748.717
971.557, 716.963
972.814, 765.086
974.071, 750.360
975.327, 719.532
976.583, 743.564
977.840, 751.738
979.095, 770.136
980.351, 759.790
981.607, 744.707
982.862, 735.572
984.117, 744.291
985.372, 748.497
986.627, 763.320
987.882, 732.945
989.136, 720.060
990.390, 745.118
991.644, 713.635
992.898, 707.998
994.152, 702.887
995.405, 662.320
996.659, 696.764
997.912, 667.058
999.165, 711.628
1000.417, 682.392
1001.670, 711.259
1002.922, 752.290
1004.174, 766.160
1005.426, 800.682
1006.678, 849.930
1007.930, 869.212
1009.181, 969.310
1010.432, 983.243
1011.683, 1012.559
1012.934, 1110.427
1014.185, 1079.241
1015.435, 1103.900
1016.685, 1108.316
1017.935, 1140.351
1019.185, 1113.456
1020.435, 1101.531
1021.684, 1110.166
1022.934, 1099.802
1024.183, 1038.445
1025.432, 1061.004
1026.680, 980.480
1027.929, 936.873
1029.177, 875.183
1030.425, 792.412
1031.673, 726.559
1032.921, 679.626
1034.169, 579.613
1035.416, 567.519
1036.663, 465.347
1037.911, 443.097
1039.157, 454.769
1040.404, 414.363
1041.650, 390.881
1042.897, 386.322
1044.143, 342.687
1045.389, 332.974
1046.634, 312.185
1047.880, 321.319
1049.125, 274.377
1050.371, 256.358
1051.615, 270.263
1052.860, 255.092
1054.105, 246.846
1055.349, 241.524
1056.593, 231.128
1057.837, 216.658
1059.081, 215.114
1060.325, 205.495
1061.568, 218.803
1062.812, 198.039
1064.055, 189.203
1065.298, 227.295
1066.540, 184.318
1067.783, 203.271
1069.025, 219.157
1070.267, 191.976
1071.509, 201.730
1072.751, 220.419
1073.993, 206.048
1075.234, 231.619
1076.475, 206.136
1077.716, 248.603
1078.957, 235.012
1080.198, 261.312
1081.438, 271.599
1082.679, 293.463
1083.919, 343.871
1085.159, 359.920
1086.398, 385.440
1087.638, 417.939
1088.877, 432.223
1090.116, 454.466
1091.355, 437.480
1092.594, 456.280
1093.833, 443.770
1095.071, 407.255
1096.309, 414.698
1097.547, 397.419
1098.785, 355.634
1100.023, 317.290
1101.260, 311.024
1102.498, 224.593
1103.735, 220.672
1104.972, 225.342
1106.208, 194.521
1107.445, 200.062
1108.681, 184.367
1109.918, 175.066
1111.154, 185.708
1112.389, 159.470
1113.625, 162.699
1114.860, 159.733
1116.096, 130.174
1117.331, 164.745
1118.566, 117.249
1119.800, 129.999
1121.035, 102.735
1122.269, 88.759
1123.503, 106.821
1124.737, 61.842
1125.971, 88.027
1127.205, 68.266
1128.438, 38.525
1129.671, 59.807
1130.904, 45.122
1132.137, 29.467
1133.370, 34.839
1134.602, 45.233
1135.834, 16.657
1137.066, 26.117
1138.298, 7.389
1139.530, 36.141
1140.762, 3.289
1141.993, 16.317
1143.224, 25.962
1144.455, 1.642
1145.686, 21.362
1146.917, 19.115
1148.147, 15.100
1149.377, 20.713
1150.607, 9.552
1151.837, 0.408
1153.067, 23.289
1154.296, 15.815
1155.526, 14.095
1156.755, 25.016
1157.984, 31.945
1159.213, 53.878
1160.441, 47.815
1161.670, 84.751
1162.898, 80.689
1164.126, 90.624
1165.354, 92.558
1166.581, 130.488
1167.809, 141.414
1169.036, 172.333
1170.263, 179.240
1171.490, 199.137
1172.717, 284.023
1173.943, 304.898
1175.170, 354.762
1176.396, 431.615
1177.622, 480.459
1178.848, 532.292
1180.073, 563.117
1181.299, 561.931
1182.524, 536.737
1183.749, 499.533
1184.974, 473.212
1186.199, 422.101
1187.423, 395.873
1188.648, 361.627
1189.872, 340.619
1191.096, 330.926
1192.320, 317.389
1193.543, 317.731
1194.767, 322.157
1195.990, 334.544
1197.213, 352.739
1198.436, 368.848
1199.659, 381.039
1200.881, 371.174
1202.104, 398.262
1203.326, 352.328
1204.548, 385.327
1205.770, 401.228
1206.991, 365.139
1208.213, 340.992
1209.434, 380.982
1210.655, 369.823
1211.876, 396.616
1213.096, 391.735
1214.317, 374.540
1215.537, 358.531
1216.757, 322.656
1217.977, 310.607
1219.197, 294.668
1220.417, 285.841
1221.636, 269.970
1222.855, 250.221
1224.074, 269.380
1225.293, 241.734
1226.512, 237.046
1227.731, 276.484
1228.949, 253.018
1230.167, 250.739
1231.385, 277.474
1232.603, 298.269
1233.820, 293.085
1235.038, 290.945
1236.255, 289.876
1237.472, 314.787
1238.689, 332.744
1239.906, 312.766
1241.122, 315.848
1242.338, 295.066
1243.555, 303.219
1244.771, 329.880
1245.986, 316.911
1247.202, 332.026
1248.417, 338.204
1249.633, 299.995
1250.848, 320.655
1252.063, 290.014
1253.277, 237.897
1254.492, 272.536
1255.706, 245.402
1256.920, 222.671
1258.134, 179.904
1259.348, 174.700
1260.562, 203.985
1261.775, 174.934
1262.988, 153.290
1264.201, 166.326
1265.414, 120.765
1266.627, 132.797
1267.839, 130.997
1269.052, 129.486
1270.264, 144.435
1271.476, 115.426
1272.688, 94.738
1273.899, 102.530
1275.111, 93.198
1276.322, 106.208
1277.533, 90.993
1278.744, 90.673
1279.955, 99.422
1281.165, 93.196
1282.376, 87.811
1283.586, 88.438
1284.796, 86.701
1286.006, 94.489
1287.215, 98.697
1288.425, 103.985
1289.634, 111.027
1290.843, 115.456
1292.052, 114.076
1293.261, 114.697
1294.469, 122.891
1295.678, 146.560
1296.886, 183.154
1298.094, 145.674
1299.302, 184.384
1300.509, 180.651
1301.717, 202.342
1302.924, 184.088
1304.131, 198.873
1305.338, 192.758
1306.545, 182.628
1307.752, 182.661
1308.958, 166.685
1310.164, 185.759
1311.370, 190.847
1312.576, 206.048
1313.782, 189.246
1314.987, 158.437
1316.193, 206.618
1317.398, 197.781
1318.603, 157.923
1319.807, 178.050
1321.012, 176.152
1322.216, 175.222
1323.421, 182.266
1324.625, 182.280
1325.829, 192.262
1327.032, 183.992
1328.236, 184.461
1329.439, 168.063
1330.642, 170.976
1331.845, 163.879
1333.048, 145.775
1334.251, 157.662
1335.453, 169.606
1336.656, 183.508
1337.858, 174.378
1339.060, 185.319
1340.261, 174.179
1341.463, 205.033
1342.664, 200.928
1343.866, 207.904
1345.067, 214.832
1346.267, 210.755
1347.468, 230.618
1348.669, 219.521
1349.869, 205.358
1351.069, 238.268
1352.269, 246.135
1353.469, 203.148
1354.668, 218.070
1355.868, 203.946
1357.067, 165.924
1358.266, 170.939
1359.465, 175.758
1360.664, 141.574
1361.862, 157.349
1363.061, 130.166
1364.259, 131.016
1365.457, 110.848
1366.655, 96.616
1367.852, 109.301
1369.050, 70.062
1370.247, 61.710
1371.444, 74.345
1372.641, 46.978
1373.838, 28.576
1375.035, 50.065
1376.231, 37.583
1377.427, 34.984
1378.623, 26.445
1379.819, 11.928
1381.015, 19.159
1382.211, 10.269
1383.406, 0.138
1384.601, 1.428
1385.796, 4.997
1386.991, 16.570
1388.185, 2.849
1389.380, 20.745
1390.574, 2.646
1391.768, 21.976
1392.962, 15.616
1394.156, 12.283
1395.350, 23.970
1396.543, 16.674
1397.736, 10.404
1398.929, 15.154
1400.122, 21.905
1401.315, 19.653
1402.507, 29.399
1403.700, 20.139
1404.892, 13.872
1406.084, 21.596
1407.276, 13.308
1408.467, 5.010
1409.659, 29.701
1410.850, 17.379
1412.041, 22.046
1413.232, 18.299
1414.423, 3.658
1415.614, 0.025
1416.804, 31.398
1417.994, 18.775
1419.184, 7.153
1420.374, 17.530
1421.564, 17.906
1422.753, 18.764
1423.943, 38.657
1425.132, 27.035
1426.321, 49.416
1427.510, 58.802
1428.698, 42.193
1429.887, 67.591
1431.075, 65.996
1432.263, 90.408
1433.451, 93.827
1434.639, 101.254
1435.827, 90.689
1437.014, 119.132
1438.201, 107.584
1439.388, 108.045
1440.575, 152.515
1441.762, 121.994
1442.949, 144.481
1444.135, 128.982
1445.321, 143.497
1446.507, 149.026
1447.693, 142.573
1448.879, 154.140
1450.064, 178.449
1451.250, 159.870
1452.435, 183.099
