##NAMES=Titanite
##RRUFFID=R040033
##IDEAL CHEMISTRY=CaTi^4+^SiO_5_
##LOCALITY=Brazil
##OWNER=RRUFF
##SOURCE=University of Arizona Mineral Museum
##DESCRIPTION=Green flattened wedge-shaped single crystals
##STATUS=The identification of this mineral has been confirmed by X-ray diffraction and chemical analysis
##URL=rruff.info/R040033
##MEASURED CHEMISTRY=(Ca_0.97_Fe^3+^_0.03_)_Σ=1_(Ti_0.97_Al_0.03_)_Σ=1_Si_1.00_O_5_; Fe^3+^ assigned for charge balance
##PIN_ID=L00086
##ORIENTATION=Laser parallel to a [1 0 0]. Fiducial mark perpendicular to laser is parallel to b* (0 1 0)
51.466, 0.000
52.866, 78.275
54.266, 136.786
55.666, 193.996
57.065, 224.440
58.464, 99.681
59.863, 21.389
61.262, 48.492
62.661, 56.708
64.059, 20.983
65.458, 136.007
66.856, 278.651
68.253, 444.418
69.651, 811.863
71.048, 1129.608
72.445, 1432.320
73.842, 1900.703
75.239, 2211.473
76.635, 2703.370
78.031, 2794.147
79.427, 3065.590
80.823, 3192.504
82.218, 3133.728
83.614, 3092.147
85.009, 3028.674
86.404, 2977.215
87.798, 2794.494
89.193, 2646.481
90.587, 2366.028
91.981, 2189.742
93.375, 1920.043
94.768, 1585.843
96.161, 1318.036
97.554, 1077.802
98.947, 838.164
100.340, 660.929
101.732, 534.737
103.124, 407.533
104.516, 374.268
105.908, 350.901
107.300, 324.394
108.691, 369.715
110.082, 345.835
111.473, 295.779
112.864, 306.641
114.254, 386.509
115.644, 444.396
117.034, 453.253
118.424, 370.029
119.813, 451.679
121.203, 508.159
122.592, 602.432
123.981, 711.461
125.369, 681.215
126.758, 781.662
128.146, 960.772
129.534, 1209.522
130.922, 1343.884
132.309, 1779.835
133.696, 2435.355
135.083, 3868.377
136.470, 5789.679
137.857, 8507.364
139.243, 11810.110
140.630, 14449.844
142.016, 15297.663
143.401, 15793.610
144.787, 14253.717
146.172, 11126.996
147.557, 7852.478
148.942, 5459.166
150.327, 4173.079
151.711, 3275.224
153.096, 3108.611
154.480, 2954.248
155.863, 3245.139
157.247, 3566.289
158.630, 3827.701
160.013, 4109.381
161.396, 4206.328
162.779, 4303.545
164.161, 4289.031
165.544, 4326.789
166.926, 4139.817
168.308, 4099.270
169.689, 4128.757
171.070, 4308.812
172.452, 4421.584
173.833, 4606.095
175.213, 4944.186
176.594, 5049.397
177.974, 5358.104
179.354, 5577.928
180.734, 5683.845
182.114, 5731.857
183.493, 5889.965
184.872, 6014.171
186.251, 5998.479
187.630, 5782.887
189.008, 5850.400
190.387, 5942.019
191.765, 5984.740
193.143, 6354.569
194.520, 6526.505
195.898, 7027.553
197.275, 7323.706
198.652, 7811.965
200.029, 8025.333
201.405, 8081.805
202.782, 8079.380
204.158, 8222.061
205.534, 8353.849
206.909, 7854.736
208.285, 7809.728
209.660, 8104.818
211.035, 7856.013
212.410, 7929.306
213.784, 8042.701
215.159, 8291.195
216.533, 8481.786
217.907, 8688.327
219.281, 9305.959
220.654, 9464.235
222.027, 10205.844
223.400, 10790.396
224.773, 11566.692
226.146, 12654.161
227.518, 14073.611
228.891, 15421.958
230.263, 16592.523
231.634, 17343.893
233.006, 17276.764
234.377, 16243.107
235.748, 14695.906
237.119, 12535.139
238.490, 11392.782
239.860, 10444.825
241.231, 10060.248
242.601, 10122.041
243.970, 10686.184
245.340, 11073.669
246.709, 11349.483
248.079, 12105.617
249.448, 12313.062
250.816, 12748.806
252.185, 12736.839
253.553, 12431.155
254.921, 12541.742
256.289, 11898.595
257.657, 11603.708
259.024, 10828.070
260.391, 10327.678
261.758, 9594.520
263.125, 8970.596
264.492, 8263.896
265.858, 7465.420
267.224, 7023.161
268.590, 6258.114
269.956, 5971.275
271.321, 5493.640
272.687, 5124.206
274.052, 4817.970
275.416, 4927.927
276.781, 4818.075
278.146, 4829.409
279.510, 5275.924
280.874, 5574.616
282.237, 6359.996
283.601, 7032.760
284.964, 7916.789
286.327, 9160.737
287.690, 10037.598
289.053, 10771.695
290.416, 11259.854
291.778, 11618.909
293.140, 11596.170
294.502, 11256.474
295.863, 10994.414
297.225, 10924.800
298.586, 11207.531
299.947, 11802.272
301.308, 12199.543
302.668, 13142.711
304.029, 14308.730
305.389, 15313.859
306.749, 16076.096
308.108, 18062.438
309.468, 20048.891
310.827, 23040.443
312.186, 26503.104
313.545, 31077.873
314.903, 34732.730
316.262, 36491.715
317.620, 36954.789
318.978, 34789.977
320.336, 31907.258
321.693, 28342.633
323.051, 25424.113
324.408, 22513.686
325.765, 21258.361
327.121, 19525.133
328.478, 18698.996
329.834, 17946.961
331.190, 17387.014
332.546, 16170.164
333.902, 15813.398
335.257, 14644.713
336.612, 14274.104
337.967, 13583.559
339.322, 13695.073
340.677, 14213.643
342.031, 15270.268
343.385, 17148.941
344.739, 19386.670
346.093, 21824.449
347.446, 24575.285
348.799, 26672.168
350.153, 27443.104
351.505, 26087.096
352.858, 23031.133
354.210, 19501.227
355.563, 15862.371
356.915, 12848.567
358.267, 10201.812
359.618, 8213.111
360.969, 6833.457
362.321, 5595.855
363.672, 4600.303
365.022, 3804.802
366.373, 3145.352
367.723, 2689.949
369.073, 2142.599
370.423, 1733.298
371.773, 1222.046
373.122, 864.843
374.471, 685.690
375.821, 321.586
377.169, 240.531
378.518, 42.525
379.866, 76.441
381.215, 60.355
382.563, 135.211
383.910, 198.042
385.258, 86.875
386.605, 167.341
387.952, 50.676
389.299, 108.115
390.646, 81.678
391.992, 101.351
393.339, 155.130
394.685, 255.010
396.031, 319.525
397.376, 373.065
398.722, 549.237
400.067, 684.503
401.412, 890.862
402.757, 1179.312
404.101, 1451.851
405.446, 1669.478
406.790, 2295.192
408.134, 2876.992
409.478, 3734.877
410.821, 4755.847
412.165, 6177.337
413.508, 7940.029
414.851, 9794.243
416.193, 11803.535
417.536, 14341.905
418.878, 16819.350
420.220, 18682.883
421.562, 19472.480
422.904, 19849.160
424.245, 19173.914
425.586, 16993.734
426.927, 14829.638
428.268, 11989.610
429.609, 9664.659
430.949, 7827.773
432.289, 6317.961
433.629, 4584.220
434.969, 3639.549
436.309, 2672.954
437.648, 2046.429
438.987, 1364.995
440.326, 797.639
441.665, 391.374
443.003, 129.207
444.342, 193.894
445.680, 425.024
447.018, 606.330
448.355, 855.883
449.693, 974.798
451.030, 982.148
452.367, 920.941
453.704, 1102.176
455.041, 945.929
456.377, 1022.143
457.713, 736.843
459.049, 637.887
460.385, 448.254
461.721, 98.835
463.056, 99.520
464.391, 346.895
465.726, 817.335
467.061, 1070.839
468.395, 1407.408
469.730, 1724.041
471.064, 1767.738
472.398, 2067.502
473.731, 2014.329
475.065, 2187.223
476.398, 2249.182
477.731, 2571.209
479.064, 2789.302
480.397, 2903.463
481.729, 3327.691
483.062, 3478.989
484.394, 3828.357
485.725, 3801.795
487.057, 4095.303
488.389, 4180.882
489.720, 4148.534
491.051, 4177.258
492.382, 4125.935
493.712, 4046.642
495.043, 3958.865
496.373, 3813.880
497.703, 3667.959
499.032, 3487.272
500.362, 3363.371
501.691, 3199.683
503.020, 3082.070
504.349, 3064.533
505.678, 2856.071
507.007, 2841.684
508.335, 2854.373
509.663, 2773.139
510.991, 3017.980
512.319, 2878.899
513.646, 3030.896
514.973, 3024.970
516.300, 3242.121
517.627, 3377.351
518.954, 3460.178
520.280, 3677.044
521.607, 3706.509
522.933, 3846.053
524.259, 4028.677
525.584, 4335.381
526.910, 4734.164
528.235, 4976.026
529.560, 5562.973
530.885, 5734.996
532.209, 6380.104
533.534, 6960.291
534.858, 7396.561
536.182, 7886.913
537.506, 8140.346
538.829, 8473.864
540.152, 8741.396
541.476, 9039.691
542.799, 8742.194
544.121, 8975.258
545.444, 8867.117
546.766, 8615.142
548.088, 8550.246
549.410, 8248.442
550.732, 7723.726
552.053, 7510.094
553.375, 6840.549
554.696, 6416.091
556.017, 6136.719
557.337, 5998.432
558.658, 5836.232
559.978, 5823.119
561.298, 6215.094
562.618, 6445.154
563.938, 7052.301
565.257, 7790.535
566.576, 8105.856
567.895, 9066.265
569.214, 9727.759
570.533, 10189.339
571.851, 10515.011
573.170, 11158.769
574.488, 11415.612
575.805, 12016.542
577.123, 12235.561
578.440, 13032.664
579.758, 14147.858
581.075, 14888.142
582.391, 16483.512
583.708, 17294.973
585.024, 18705.516
586.341, 20794.150
587.657, 22343.875
588.972, 24311.680
590.288, 26301.584
591.603, 28051.570
592.918, 30505.648
594.233, 33417.918
595.548, 35886.172
596.863, 38463.723
598.177, 41140.555
599.491, 44066.594
600.805, 46160.184
602.119, 48481.609
603.432, 50497.332
604.746, 52700.496
606.059, 52909.832
607.372, 53857.723
608.685, 53999.594
609.997, 53397.395
611.309, 52214.465
612.621, 50878.746
613.933, 49981.027
615.245, 48147.781
616.557, 46771.117
617.868, 44304.109
619.179, 42270.109
620.490, 40040.973
621.801, 38768.988
623.111, 36565.371
624.421, 35085.867
625.731, 32544.496
627.041, 32172.254
628.351, 29500.150
629.660, 28360.230
630.970, 27401.469
632.279, 25535.924
633.588, 24411.584
634.896, 22751.475
636.205, 22187.596
637.513, 20634.936
638.821, 19882.529
640.129, 19091.350
641.437, 18266.402
642.744, 17490.535
644.051, 16724.455
645.358, 15880.986
646.665, 15332.964
647.972, 14526.166
649.278, 14065.532
650.584, 13435.065
651.890, 13269.749
653.196, 12590.583
654.502, 12495.552
655.807, 11520.646
657.113, 11157.863
658.418, 11136.204
659.722, 10541.664
661.027, 10117.250
662.331, 9930.951
663.636, 9619.777
664.940, 8947.722
666.244, 8800.789
667.547, 8364.978
668.851, 8424.286
670.154, 7869.713
671.457, 7677.260
672.760, 7539.929
674.062, 7185.717
675.365, 6952.626
676.667, 6739.655
677.969, 6569.804
679.271, 6373.801
680.572, 6164.276
681.874, 6011.961
683.175, 5737.586
684.476, 5506.330
685.777, 5276.191
687.077, 5131.293
688.378, 4964.270
689.678, 4894.487
690.978, 4713.821
692.278, 4593.644
693.577, 4540.842
694.877, 4198.527
696.176, 4162.336
697.475, 3949.291
698.774, 3789.389
700.072, 3609.646
701.371, 3531.078
702.669, 3156.660
703.967, 3143.356
705.265, 3272.174
706.562, 2915.105
707.860, 2600.152
709.157, 2676.313
710.454, 2421.586
711.751, 2429.973
713.047, 2246.472
714.344, 2213.081
715.640, 1972.804
716.936, 1755.637
718.232, 1960.580
719.527, 1792.635
720.823, 1766.798
722.118, 1567.072
723.413, 1571.454
724.708, 1462.946
726.002, 1556.545
727.297, 1451.823
728.591, 1357.067
729.885, 1271.989
731.179, 1164.227
732.472, 1066.461
733.766, 963.392
735.059, 871.736
736.352, 781.186
737.645, 715.740
738.937, 598.957
740.230, 474.159
741.522, 399.022
742.814, 432.989
744.106, 390.058
745.397, 262.227
746.689, 139.498
747.980, 146.868
749.271, 45.660
750.562, 107.894
751.853, 142.453
753.143, 56.747
754.433, 149.962
755.723, 186.128
757.013, 141.257
758.303, 391.321
759.592, 234.351
760.881, 316.220
762.170, 359.919
763.459, 298.406
764.748, 284.622
766.036, 137.565
767.325, 206.187
768.613, 98.472
769.901, 173.426
771.188, 191.052
772.476, 0.432
773.763, 129.532
775.050, 1.561
776.337, 130.803
777.624, 37.152
778.910, 125.589
780.196, 235.110
781.482, 114.303
782.768, 277.429
784.054, 337.378
785.339, 348.674
786.625, 407.505
787.910, 572.020
789.195, 631.481
790.479, 785.528
791.764, 934.700
793.048, 979.691
794.332, 1267.812
795.616, 1442.111
796.900, 1625.904
798.183, 1693.687
799.467, 2084.596
800.750, 2328.636
802.033, 2560.389
803.316, 3157.818
804.598, 3344.120
805.880, 4031.232
807.163, 4420.631
808.445, 4847.549
809.726, 5483.032
811.008, 6229.832
812.289, 6701.020
813.570, 7333.260
814.851, 7849.555
816.132, 8334.923
817.413, 8646.355
818.693, 9062.853
819.973, 9441.424
821.253, 9511.045
822.533, 9752.716
823.813, 9719.431
825.092, 9975.189
826.371, 9935.016
827.650, 10095.891
828.929, 10412.831
830.208, 10457.817
831.486, 10536.848
832.764, 10946.933
834.042, 11306.063
835.320, 11919.247
836.598, 12968.475
837.875, 13916.751
839.152, 15042.066
840.429, 16695.426
841.706, 17913.826
842.983, 20049.262
844.259, 22434.746
845.536, 24574.266
846.812, 27346.811
848.088, 30074.391
849.363, 33477.996
850.639, 36711.633
851.914, 38957.305
853.189, 41271.984
854.464, 43048.699
855.739, 43846.414
857.013, 42992.145
858.288, 41339.883
859.562, 40139.652
860.836, 38539.426
862.110, 36115.203
863.383, 35708.996
864.656, 34775.801
865.930, 34408.598
867.203, 34763.418
868.475, 34894.234
869.748, 34848.066
871.020, 34712.898
872.292, 33681.738
873.564, 32127.572
874.836, 30204.412
876.108, 28279.252
877.379, 26715.098
878.650, 25230.938
879.922, 24134.777
881.192, 23133.615
882.463, 22594.447
883.733, 21847.279
885.004, 21223.111
886.274, 20245.928
887.544, 19064.877
888.813, 17786.551
890.083, 16272.354
891.352, 14634.146
892.621, 12976.927
893.890, 11540.697
895.159, 10271.458
896.427, 9248.205
897.695, 8602.941
898.964, 7981.665
900.232, 7562.372
901.499, 7318.064
902.767, 7328.638
904.034, 7482.298
905.301, 8120.735
906.568, 8496.961
907.835, 8961.047
909.102, 9343.646
910.368, 9748.330
911.634, 9665.439
912.900, 9213.485
914.166, 8597.739
915.432, 7535.848
916.697, 6434.454
917.962, 5434.922
919.227, 4461.340
920.492, 3610.676
921.757, 2903.676
923.021, 2391.522
924.285, 1819.569
925.550, 1430.598
926.813, 1058.796
928.077, 826.779
929.341, 623.933
930.604, 466.050
931.867, 363.128
933.130, 219.166
934.393, 138.147
935.655, 57.946
936.918, 37.798
938.180, 176.571
939.442, 168.169
940.703, 195.993
941.965, 234.057
943.226, 193.385
944.488, 298.957
945.749, 210.829
947.009, 242.956
948.270, 264.356
949.530, 230.043
950.791, 213.999
952.051, 182.216
953.311, 191.679
954.570, 40.965
955.830, 10.270
957.089, 122.708
958.348, 92.104
959.607, 256.104
960.866, 291.445
962.124, 360.675
963.383, 615.584
964.641, 653.171
965.899, 832.636
967.156, 967.442
968.414, 1052.257
969.671, 1269.961
970.928, 1322.256
972.185, 1443.472
973.442, 1519.630
974.699, 1591.882
975.955, 1592.441
977.211, 1470.589
978.468, 1533.396
979.723, 1362.960
980.979, 1198.304
982.234, 1327.672
983.490, 946.467
984.745, 1097.696
986.000, 1160.942
987.254, 1073.741
988.509, 1107.799
989.763, 1107.731
991.017, 1103.491
992.271, 1122.164
993.525, 1175.963
994.779, 1240.152
996.032, 1283.480
997.285, 1253.153
998.538, 1312.636
999.791, 1488.000
1001.044, 1424.204
1002.296, 1560.331
1003.548, 1559.250
1004.800, 1613.260
1006.052, 1717.993
1007.304, 1745.341
1008.555, 1905.616
1009.807, 1954.817
1011.058, 1966.945
1012.309, 2008.999
1013.559, 2004.979
1014.810, 2046.884
1016.060, 2169.715
1017.310, 2254.471
1018.560, 2294.152
1019.810, 2394.758
1021.060, 2423.289
1022.309, 2467.744
1023.558, 2535.123
1024.807, 2570.425
1026.056, 2568.652
1027.305, 2527.804
1028.553, 2539.239
1029.801, 2612.874
1031.049, 2504.794
1032.297, 2500.637
1033.545, 2469.203
1034.793, 2550.090
1036.040, 2452.701
1037.287, 2440.233
1038.534, 2453.688
1039.781, 2355.065
1041.027, 2152.364
1042.274, 2117.585
1043.520, 1945.728
1044.766, 1808.791
1046.012, 1593.775
1047.257, 1509.682
1048.503, 1372.509
1049.748, 1178.257
1050.993, 1116.927
1052.238, 998.518
1053.483, 870.037
1054.727, 782.477
1055.971, 796.859
1057.216, 692.172
1058.459, 694.431
1059.703, 583.640
1060.947, 598.788
1062.190, 549.926
1063.433, 543.018
1064.676, 531.080
1065.919, 475.121
1067.162, 562.123
1068.404, 389.090
1069.646, 516.980
1070.888, 579.817
1072.130, 487.585
1073.372, 622.292
1074.613, 688.948
1075.855, 778.528
1077.096, 898.050
1078.337, 1053.496
1079.578, 1145.864
1080.818, 1319.084
1082.059, 1500.366
1083.299, 1664.924
1084.539, 1862.555
1085.779, 2067.388
1087.018, 2253.895
1088.258, 2253.883
1089.497, 2269.198
1090.736, 2287.569
1091.975, 2222.361
1093.213, 2076.524
1094.452, 2038.885
1095.690, 1646.630
1096.928, 1450.201
1098.166, 1070.287
1099.404, 880.397
1100.642, 601.381
1101.879, 512.246
1103.116, 307.411
1104.353, 200.899
1105.590, 158.512
1106.827, 147.312
1108.063, 16.817
1109.299, 49.786
1110.536, 51.168
1111.771, 8.216
1113.007, 90.850
1114.243, 24.412
1115.478, 50.106
1116.713, 35.737
1117.948, 35.473
1119.183, 62.312
1120.418, 17.730
1121.652, 87.693
1122.886, 74.584
1124.120, 44.403
1125.354, 51.854
1126.588, 18.780
1127.821, 77.665
1129.055, 37.768
1130.288, 30.126
1131.521, 38.591
1132.753, 13.409
1133.986, 33.312
1135.218, 7.311
1136.450, 16.217
1137.682, 15.558
1138.914, 13.809
1140.146, 14.143
1141.377, 16.440
1142.609, 45.050
1143.840, 39.363
1145.071, 84.706
1146.301, 12.985
1147.532, 15.191
1148.762, 111.327
1149.992, 110.401
1151.222, 125.415
1152.452, 234.369
1153.682, 282.475
1154.911, 438.123
1156.140, 489.929
1157.369, 669.688
1158.598, 829.401
1159.827, 1053.068
1161.055, 1254.690
1162.284, 1357.267
1163.512, 1583.797
1164.740, 1729.284
1165.967, 1812.725
1167.195, 2216.121
1168.422, 2531.473
1169.650, 3057.780
1170.877, 3588.042
1172.103, 4205.261
1173.330, 5237.434
1174.557, 6191.564
1175.783, 7243.650
1177.009, 8100.692
1178.235, 9093.690
1179.461, 9311.647
1180.686, 9355.562
1181.912, 8984.432
1183.137, 8202.263
1184.362, 7326.050
1185.587, 6540.797
1186.811, 5747.503
1188.036, 4989.167
1189.260, 4542.790
1190.484, 4380.375
1191.708, 4344.920
1192.932, 4227.425
1194.155, 4368.892
1195.378, 4566.317
1196.602, 4617.705
1197.825, 4669.056
1199.047, 4658.368
1200.270, 4485.642
1201.492, 4445.878
1202.715, 4184.078
1203.937, 4228.240
1205.159, 4140.365
1206.380, 4291.456
1207.602, 4288.168
1208.823, 4639.955
1210.044, 4892.298
1211.265, 5127.539
1212.486, 5248.638
1213.707, 5187.226
1214.927, 5166.497
1216.147, 4884.111
1217.367, 4659.920
1218.587, 4306.214
1219.807, 3961.693
1221.027, 3846.137
1222.246, 3695.768
1223.465, 3739.437
1224.684, 3786.155
1225.903, 3732.101
1227.121, 3799.037
1228.340, 3908.935
1229.558, 4041.758
1230.776, 4036.529
1231.994, 4102.086
1233.212, 4285.424
1234.429, 4207.130
1235.646, 4364.192
1236.864, 4350.451
1238.081, 4391.831
1239.297, 4521.499
1240.514, 4641.097
1241.730, 4789.082
1242.947, 4972.473
1244.163, 5092.135
1245.378, 5282.054
1246.594, 5534.300
1247.810, 5400.580
1249.025, 5378.933
1250.240, 5104.104
1251.455, 4808.291
1252.670, 4579.891
1253.885, 4155.305
1255.099, 3850.822
1256.313, 3426.017
1257.527, 3277.220
1258.741, 3005.694
1259.955, 2740.180
1261.168, 2508.910
1262.382, 2459.196
1263.595, 2255.195
1264.808, 2147.165
1266.021, 2048.557
1267.233, 1946.062
1268.446, 1838.354
1269.658, 1735.478
1270.870, 1672.219
1272.082, 1639.296
1273.294, 1552.638
1274.505, 1401.146
1275.716, 1402.798
1276.928, 1323.350
1278.139, 1343.398
1279.349, 1219.935
1280.560, 1320.377
1281.770, 1193.190
1282.981, 1202.667
1284.191, 1226.193
1285.401, 1345.813
1286.610, 1303.443
1287.820, 1410.869
1289.029, 1422.827
1290.239, 1569.568
1291.448, 1745.887
1292.656, 1796.319
1293.865, 1932.791
1295.073, 2041.346
1296.282, 2107.899
1297.490, 2283.585
1298.698, 2477.099
1299.906, 2456.812
1301.113, 2523.836
1302.320, 2433.854
1303.528, 2529.868
1304.735, 2532.871
1305.942, 2479.846
1307.148, 2459.771
1308.355, 2427.630
1309.561, 2443.462
1310.767, 2358.273
1311.973, 2359.026
1313.179, 2281.734
1314.384, 2433.391
1315.590, 2432.964
1316.795, 2548.490
1318.000, 2511.969
1319.205, 2568.420
1320.410, 2518.857
1321.614, 2462.281
1322.819, 2469.692
1324.023, 2352.094
1325.227, 2353.483
1326.431, 2121.863
1327.634, 1964.233
1328.838, 1911.593
1330.041, 1699.941
1331.244, 1596.280
1332.447, 1339.607
1333.650, 1405.922
1334.852, 1124.225
1336.055, 1064.515
1337.257, 1096.792
1338.459, 912.055
1339.661, 925.302
1340.862, 878.534
1342.064, 719.749
1343.265, 667.946
1344.466, 702.125
1345.667, 649.289
1346.868, 674.438
1348.068, 631.576
1349.269, 533.705
1350.469, 510.830
1351.669, 446.949
1352.869, 416.663
1354.069, 427.180
1355.268, 375.294
1356.468, 374.407
1357.667, 358.520
1358.866, 271.637
1360.065, 271.754
1361.263, 240.881
1362.462, 207.012
1363.660, 203.149
1364.858, 157.298
1366.056, 148.455
1367.254, 98.775
1368.451, 79.573
1369.649, 16.759
1370.846, 10.959
1372.043, 12.174
1373.240, 45.314
1374.436, 28.935
1375.633, 90.880
1376.829, 70.710
1378.025, 60.205
1379.221, 27.117
1380.417, 5.595
1381.613, 6.916
1382.808, 12.262
1384.003, 8.291
1385.199, 87.149
1386.393, 22.690
1387.588, 46.317
1388.783, 64.993
1389.977, 12.692
1391.171, 67.378
1392.365, 67.043
1393.559, 34.668
1394.753, 30.204
1395.946, 42.652
1397.140, 20.077
1398.333, 15.688
1399.526, 24.252
1400.719, 29.021
1401.911, 21.862
1403.104, 78.781
1404.296, 30.769
1405.488, 37.825
1406.680, 86.950
1407.872, 137.132
1409.063, 81.360
1410.255, 55.624
1411.446, 167.909
1412.637, 130.198
1413.828, 153.486
1415.018, 211.771
1416.209, 190.055
1417.399, 234.340
1418.589, 215.630
1419.779, 200.925
1420.969, 326.231
1422.159, 268.548
1423.348, 264.878
1424.537, 346.221
1425.726, 373.581
1426.915, 429.955
1428.104, 410.347
1429.293, 476.757
1430.481, 448.188
1431.669, 494.639
