##NAMES=Titanite
##RRUFFID=R040033
##IDEAL CHEMISTRY=CaTi^4+^SiO_5_
##LOCALITY=Brazil
##OWNER=RRUFF
##SOURCE=University of Arizona Mineral Museum
##DESCRIPTION=Green flattened wedge-shaped single crystals
##STATUS=The identification of this mineral has been confirmed by X-ray diffraction and chemical analysis
##URL=rruff.info/R040033
##MEASURED CHEMISTRY=(Ca_0.97_Fe^3+^_0.03_)_Σ=1_(Ti_0.97_Al_0.03_)_Σ=1_Si_1.00_O_5_; Fe^3+^ assigned for charge balance
##PIN_ID=L00157
##ORIENTATION=Laser parallel to -b* (0 -1 0). Fiducial mark perpendicular to laser is parallel to c [0 0 1]
51.466, 0.000
52.866, 119.242
54.266, 239.511
55.666, 300.390
57.065, 448.876
58.464, 321.747
59.863, 121.585
61.262, 86.555
62.661, 96.257
64.059, 150.116
65.458, 55.438
66.856, 234.142
68.253, 487.870
69.651, 873.615
71.048, 1261.483
72.445, 1672.680
73.842, 2174.505
75.239, 2689.354
76.635, 3233.756
78.031, 3473.306
79.427, 3854.600
80.823, 4187.250
82.218, 4299.889
83.614, 4465.179
85.009, 4544.811
86.404, 4571.498
87.798, 4692.982
89.193, 4648.028
90.587, 4665.418
91.981, 4690.955
93.375, 4727.458
94.768, 4560.738
96.161, 4634.664
97.554, 4557.197
98.947, 4543.415
100.340, 4585.381
101.732, 4713.030
103.124, 4864.159
104.516, 4861.582
105.908, 5033.136
107.300, 5065.677
108.691, 5219.080
110.082, 5276.232
111.473, 5296.032
112.864, 5346.389
114.254, 5455.220
115.644, 5493.453
117.034, 5442.017
118.424, 5346.854
119.813, 5511.901
121.203, 5562.110
122.592, 5601.430
123.981, 5881.815
125.369, 6079.226
126.758, 6383.620
128.146, 6458.962
129.534, 6743.217
130.922, 6838.354
132.309, 7148.342
133.696, 7427.155
135.083, 7941.614
136.470, 8500.502
137.857, 9353.116
139.243, 10578.682
140.630, 11505.439
142.016, 12386.033
143.401, 13082.000
144.787, 13384.579
146.172, 13394.804
147.557, 13286.329
148.942, 13157.722
150.327, 13394.878
151.711, 13718.021
153.096, 14777.148
154.480, 15507.284
155.863, 16879.459
157.247, 18540.693
158.630, 19138.008
160.013, 19665.414
161.396, 19393.938
162.779, 18944.580
164.161, 17725.355
165.544, 16531.277
166.926, 15210.352
168.308, 13958.584
169.689, 13057.983
171.070, 12566.552
172.452, 12188.295
173.833, 11954.220
175.213, 11924.330
176.594, 11711.626
177.974, 12128.113
179.354, 12052.786
180.734, 12090.658
182.114, 11960.724
183.493, 11888.979
184.872, 11662.430
186.251, 11546.072
187.630, 11196.906
189.008, 11050.933
190.387, 11198.146
191.765, 11322.547
193.143, 11493.138
194.520, 11543.917
195.898, 11991.880
197.275, 12192.031
198.652, 12834.368
200.029, 13078.884
201.405, 13343.585
202.782, 13800.470
204.158, 14273.539
205.534, 14704.785
206.909, 14644.212
208.285, 14774.816
209.660, 14698.599
211.035, 14565.557
212.410, 14527.694
213.784, 14717.004
215.159, 14650.488
216.533, 14849.144
217.907, 15132.554
219.281, 15269.169
220.654, 15528.442
222.027, 15934.710
223.400, 15983.393
224.773, 16333.845
226.146, 16548.662
227.518, 16770.148
228.891, 16875.336
230.263, 17128.816
231.634, 17234.574
233.006, 17059.367
234.377, 17156.512
235.748, 17023.852
237.119, 17339.725
238.490, 17882.625
239.860, 18365.191
241.231, 19426.439
242.601, 20633.027
243.970, 22091.879
245.340, 23346.369
246.709, 24556.373
248.079, 26090.838
249.448, 26534.082
250.816, 27347.811
252.185, 27591.000
253.553, 27246.639
254.921, 27086.705
256.289, 25929.191
257.657, 24644.074
259.024, 23153.342
260.391, 21586.980
261.758, 19581.982
263.125, 18047.334
264.492, 16539.018
265.858, 14997.027
267.224, 13945.349
268.590, 12639.966
269.956, 12157.876
271.321, 11404.066
272.687, 10916.526
274.052, 10437.246
275.416, 10542.225
276.781, 10395.449
278.146, 10410.912
279.510, 10757.610
280.874, 10957.534
282.237, 11759.681
283.601, 12113.040
284.964, 12993.613
286.327, 13942.393
287.690, 14244.370
289.053, 14463.546
290.416, 14467.914
291.778, 13663.472
293.140, 13222.212
294.502, 12290.132
295.863, 12137.229
297.225, 11867.501
298.586, 12176.942
299.947, 12630.552
301.308, 12884.330
302.668, 13278.267
304.029, 13666.366
305.389, 13909.619
306.749, 14316.020
308.108, 15042.555
309.468, 15680.222
310.827, 16778.004
312.186, 17681.887
313.545, 18645.865
314.903, 18712.943
316.262, 18116.117
317.620, 17343.393
318.978, 16015.756
320.336, 14726.220
321.693, 13730.780
323.051, 13165.440
324.408, 12530.197
325.765, 12566.052
327.121, 12378.001
328.478, 12537.052
329.834, 12858.200
331.190, 12937.444
332.546, 12861.788
333.902, 12748.224
335.257, 12225.760
336.612, 11692.389
337.967, 11088.115
339.322, 10264.938
340.677, 9776.850
342.031, 9144.862
343.385, 8591.962
344.739, 8123.156
346.093, 7797.441
347.446, 7434.820
348.799, 7223.289
350.153, 6978.849
351.505, 6561.497
352.858, 6119.236
354.210, 5693.064
355.563, 5267.979
356.915, 4984.980
358.267, 4525.072
359.618, 4314.249
360.969, 4126.511
362.321, 3789.858
363.672, 3579.291
365.022, 3372.810
366.373, 2957.410
367.723, 2880.096
369.073, 2478.863
370.423, 2223.714
371.773, 1823.646
373.122, 1554.660
374.471, 1327.755
375.821, 834.931
377.169, 632.186
378.518, 129.521
379.866, 40.928
381.215, 175.525
382.563, 271.928
383.910, 343.322
385.258, 381.744
386.605, 495.208
387.952, 586.768
389.299, 641.467
390.646, 847.312
391.992, 966.430
393.339, 1120.883
394.685, 1238.771
396.031, 1312.097
397.376, 1401.089
398.722, 1411.607
400.067, 1448.726
401.412, 1446.463
402.757, 1223.825
404.101, 1166.704
405.446, 1092.074
406.790, 819.903
408.134, 388.059
409.478, 107.661
410.821, 637.476
412.165, 1239.413
413.508, 2316.471
414.851, 3314.651
416.193, 4709.949
417.536, 6250.365
418.878, 7852.898
420.220, 8173.543
421.562, 8645.302
422.904, 8870.174
424.245, 8273.158
425.586, 7387.251
426.927, 6760.453
428.268, 5526.765
429.609, 4621.183
430.949, 4135.707
432.289, 3600.338
433.629, 3119.073
434.969, 2906.913
436.309, 2537.857
437.648, 2533.904
438.987, 2329.057
440.326, 2077.311
441.665, 2131.708
443.003, 2174.209
444.342, 2092.828
445.680, 2310.610
447.018, 2430.520
448.355, 2601.588
449.693, 2993.801
451.030, 3477.162
452.367, 4279.689
453.704, 4867.355
455.041, 6035.189
456.377, 7395.172
457.713, 8804.313
459.049, 10651.614
460.385, 12711.055
461.721, 15304.675
463.056, 17219.461
464.391, 19053.424
465.726, 20418.543
467.061, 20319.818
468.395, 19149.240
469.730, 17584.838
471.064, 14995.622
472.398, 12954.568
473.731, 10316.673
475.065, 8407.941
476.398, 6842.368
477.731, 5715.958
479.064, 4606.703
480.397, 3996.603
481.729, 3313.647
483.062, 2932.813
484.394, 2702.151
485.725, 2475.634
487.057, 2316.262
488.389, 2374.010
489.720, 2090.894
491.051, 2228.914
492.382, 2136.040
493.712, 1928.299
495.043, 2062.658
496.373, 2071.125
497.703, 2023.688
499.032, 1993.346
500.362, 2052.100
501.691, 2077.947
503.020, 1955.891
504.349, 2118.928
505.678, 2139.061
507.007, 2311.289
508.335, 2436.611
509.663, 2656.027
510.991, 2849.539
512.319, 2877.145
513.646, 3170.844
514.973, 3246.638
516.300, 3684.525
517.627, 3939.506
518.954, 3915.581
520.280, 4354.750
521.607, 4637.013
522.933, 4972.369
524.259, 5227.819
525.584, 5594.361
526.910, 6114.998
528.235, 6570.727
529.560, 7431.551
530.885, 7872.466
532.209, 8628.473
533.534, 9565.574
534.858, 10155.767
536.182, 10851.055
537.506, 11545.430
538.829, 12241.900
540.152, 12590.954
541.476, 13157.559
542.799, 12998.202
544.121, 13454.832
545.444, 13423.255
546.766, 13416.387
548.088, 13370.436
549.410, 13295.407
550.732, 12851.632
552.053, 12405.772
553.375, 11837.774
554.696, 11454.798
556.017, 11119.478
557.337, 10794.919
558.658, 10560.740
559.978, 10276.412
561.298, 10356.265
562.618, 9961.234
563.938, 10174.648
565.257, 9852.549
566.576, 9404.532
567.895, 9370.710
569.214, 9224.098
570.533, 8907.363
571.851, 8840.777
573.170, 9178.343
574.488, 9349.056
575.805, 9812.920
577.123, 10232.930
578.440, 11065.088
579.758, 12173.397
581.075, 12673.849
582.391, 14152.448
583.708, 15222.195
585.024, 16585.088
586.341, 18505.123
587.657, 20192.309
588.972, 21973.637
590.288, 23935.111
591.603, 25793.725
592.918, 28077.486
594.233, 30762.398
595.548, 33436.441
596.863, 35592.770
598.177, 38266.098
599.491, 40975.539
600.805, 42998.449
602.119, 45229.438
603.432, 46624.926
604.746, 48332.438
606.059, 48980.445
607.372, 49157.586
608.685, 49660.246
609.997, 49077.641
611.309, 47883.934
612.621, 46761.676
613.933, 45977.359
615.245, 44127.383
616.557, 42659.773
617.868, 41038.699
619.179, 39199.648
620.490, 37015.605
621.801, 35790.148
623.111, 33816.785
624.421, 32940.000
625.731, 30445.723
627.041, 29909.648
628.351, 27772.422
629.660, 26734.727
630.970, 25909.355
632.279, 24122.711
633.588, 23295.090
634.896, 21876.152
636.205, 21188.525
637.513, 19757.275
638.821, 19261.139
640.129, 18532.693
641.437, 17492.051
642.744, 16696.354
644.051, 15908.945
645.358, 15508.330
646.665, 14845.690
647.972, 14172.472
649.278, 13856.750
650.584, 13200.984
651.890, 12946.261
653.196, 12179.273
654.502, 11926.077
655.807, 11188.979
657.113, 10907.978
658.418, 10800.069
659.722, 10161.256
661.027, 9775.531
662.331, 9470.898
663.636, 9137.356
664.940, 8683.904
666.244, 8462.542
667.547, 7941.264
668.851, 7947.072
670.154, 7558.963
671.457, 7321.939
672.760, 7151.001
674.062, 6706.141
675.365, 6524.367
676.667, 6243.672
677.969, 6074.060
679.271, 5801.526
680.572, 5599.074
681.874, 5510.696
683.175, 5303.398
684.476, 5205.177
685.777, 4926.031
687.077, 4769.452
688.378, 4506.965
689.678, 4393.045
690.978, 4278.198
692.278, 4123.974
693.577, 3957.651
694.877, 3802.091
696.176, 3585.536
697.475, 3487.070
698.774, 3315.741
700.072, 3086.571
701.371, 3156.574
702.669, 2727.763
703.967, 2706.160
705.265, 2846.788
706.562, 2560.659
707.860, 2237.824
709.157, 2305.312
710.454, 2073.161
711.751, 2176.400
713.047, 1922.046
714.344, 1877.121
715.640, 1807.628
716.936, 1462.574
718.232, 1674.959
719.527, 1660.728
720.823, 1549.863
722.118, 1410.350
723.413, 1286.116
724.708, 1202.062
726.002, 1406.072
727.297, 938.134
728.591, 1148.245
729.885, 1110.408
731.179, 916.618
732.472, 837.878
733.766, 938.185
735.059, 732.540
736.352, 756.941
737.645, 707.387
738.937, 675.880
740.230, 538.418
741.522, 454.003
742.814, 364.639
744.106, 395.321
745.397, 237.052
746.689, 177.822
747.980, 225.637
749.271, 47.490
750.562, 102.381
751.853, 6.312
753.143, 117.276
754.433, 179.724
755.723, 3.771
757.013, 64.793
758.303, 266.804
759.592, 99.919
760.881, 245.053
762.170, 172.284
763.459, 191.578
764.748, 265.948
766.036, 138.435
767.325, 258.975
768.613, 183.635
769.901, 234.381
771.188, 200.243
772.476, 152.207
773.763, 283.254
775.050, 243.448
776.337, 281.775
777.624, 192.256
778.910, 230.645
780.196, 114.363
781.482, 265.832
782.768, 309.068
784.054, 210.423
785.339, 193.681
786.625, 200.647
787.910, 178.596
789.195, 201.896
790.479, 166.831
791.764, 146.788
793.048, 107.916
794.332, 10.992
795.616, 207.172
796.900, 96.589
798.183, 96.432
799.467, 14.472
800.750, 45.157
802.033, 46.594
803.316, 87.403
804.598, 28.432
805.880, 152.648
807.163, 85.691
808.445, 273.111
809.726, 257.453
811.008, 434.162
812.289, 497.089
813.570, 542.125
814.851, 587.529
816.132, 688.384
817.413, 649.323
818.693, 823.520
819.973, 879.292
821.253, 904.083
822.533, 1086.016
823.813, 1061.751
825.092, 1140.124
826.371, 1133.896
827.650, 1267.548
828.929, 1306.829
830.208, 1403.435
831.486, 1469.005
832.764, 1560.795
834.042, 1697.314
835.320, 1833.804
836.598, 2009.295
837.875, 2189.727
839.152, 2182.122
840.429, 2612.482
841.706, 2699.815
842.983, 2930.112
844.259, 3395.373
845.536, 3537.594
846.812, 4029.777
848.088, 4519.921
849.363, 4912.023
850.639, 5388.086
851.914, 5905.104
853.189, 6324.079
854.464, 6954.009
855.739, 7477.895
857.013, 7861.733
858.288, 8236.521
859.562, 8951.261
860.836, 9868.945
862.110, 10641.314
863.383, 11628.146
864.656, 12708.656
865.930, 14065.104
867.203, 15412.486
868.475, 16823.803
869.748, 17531.051
871.020, 17957.447
872.292, 18196.322
873.564, 17737.348
874.836, 17170.293
876.108, 16268.155
877.379, 15877.940
878.650, 15405.639
879.922, 14701.254
881.192, 14085.009
882.463, 13617.987
883.733, 12759.690
885.004, 12086.972
886.274, 10996.746
887.544, 10428.063
888.813, 9076.993
890.083, 8254.664
891.352, 7500.108
892.621, 6486.545
893.890, 6028.245
895.159, 5395.044
896.427, 4857.127
897.695, 4758.633
898.964, 4683.575
900.232, 4442.550
901.499, 4572.423
902.767, 4531.487
904.034, 4716.975
905.301, 5070.327
906.568, 5407.308
907.835, 5616.898
909.102, 5814.330
910.368, 5816.917
911.634, 5784.513
912.900, 5188.901
914.166, 4894.599
915.432, 4143.671
916.697, 3515.919
917.962, 2997.410
919.227, 2495.609
920.492, 1974.657
921.757, 1679.331
923.021, 1359.545
924.285, 989.394
925.550, 970.596
926.813, 730.049
928.077, 576.167
929.341, 525.809
930.604, 439.448
931.867, 342.394
933.130, 310.587
934.393, 345.470
935.655, 244.679
936.918, 294.143
938.180, 145.375
939.442, 109.087
940.703, 81.585
941.965, 14.488
943.226, 88.755
944.488, 13.528
945.749, 4.302
947.009, 30.288
948.270, 42.980
949.530, 24.051
950.791, 21.674
952.051, 85.347
953.311, 13.131
954.570, 60.705
955.830, 52.459
957.089, 96.581
958.348, 97.852
959.607, 137.232
960.866, 143.304
962.124, 114.442
963.383, 181.573
964.641, 172.479
965.899, 239.236
967.156, 189.065
968.414, 181.402
969.671, 264.953
970.928, 196.882
972.185, 340.172
973.442, 293.544
974.699, 341.054
975.955, 236.506
977.211, 314.452
978.468, 418.522
979.723, 275.500
980.979, 286.127
982.234, 542.608
983.490, 293.946
984.745, 437.353
986.000, 489.086
987.254, 348.978
988.509, 530.414
989.763, 531.160
991.017, 580.405
992.271, 686.905
993.525, 552.928
994.779, 608.072
996.032, 569.441
997.285, 577.096
998.538, 577.728
999.791, 629.946
1001.044, 657.864
1002.296, 744.610
1003.548, 767.436
1004.800, 837.002
1006.052, 923.479
1007.304, 914.789
1008.555, 992.253
1009.807, 943.957
1011.058, 1079.125
1012.309, 1036.775
1013.559, 1060.623
1014.810, 994.976
1016.060, 1015.320
1017.310, 1010.505
1018.560, 863.927
1019.810, 960.944
1021.060, 983.878
1022.309, 822.729
1023.558, 971.497
1024.807, 830.181
1026.056, 691.782
1027.305, 617.300
1028.553, 490.619
1029.801, 435.088
1031.049, 343.357
1032.297, 270.544
1033.545, 314.644
1034.793, 206.660
1036.040, 256.585
1037.287, 179.426
1038.534, 214.174
1039.781, 233.834
1041.027, 129.409
1042.274, 118.889
1043.520, 89.275
1044.766, 12.567
1046.012, 43.751
1047.257, 13.833
1048.503, 116.811
1049.748, 28.695
1050.993, 101.478
1052.238, 77.167
1053.483, 35.762
1054.727, 28.258
1055.971, 55.657
1057.216, 79.961
1058.459, 57.213
1059.703, 19.625
1060.947, 196.437
1062.190, 19.482
1063.433, 128.456
1064.676, 74.405
1065.919, 111.308
1067.162, 116.175
1068.404, 55.026
1069.646, 133.827
1070.888, 186.613
1072.130, 212.372
1073.372, 221.119
1074.613, 253.131
1075.855, 193.545
1077.096, 277.248
1078.337, 257.947
1079.578, 243.653
1080.818, 277.142
1082.059, 337.823
1083.299, 409.145
1084.539, 383.090
1085.779, 346.993
1087.018, 448.665
1088.258, 316.149
1089.497, 360.007
1090.736, 335.320
1091.975, 287.129
1093.213, 304.828
1094.452, 266.521
1095.690, 244.132
1096.928, 251.700
1098.166, 180.355
1099.404, 204.312
1100.642, 163.339
1101.879, 104.912
1103.116, 93.117
1104.353, 41.768
1105.590, 2.160
1106.827, 96.515
1108.063, 1.178
1109.299, 44.655
1110.536, 46.569
1111.771, 93.055
1113.007, 38.996
1114.243, 45.026
1115.478, 61.280
1116.713, 72.747
1117.948, 35.433
1119.183, 32.952
1120.418, 44.154
1121.652, 194.211
1122.886, 140.784
1124.120, 134.471
1125.354, 42.453
1126.588, 17.290
1127.821, 19.370
1129.055, 18.624
1130.288, 60.788
1131.521, 13.743
1132.753, 39.485
1133.986, 3.048
1135.218, 105.290
1136.450, 42.898
1137.682, 104.457
1138.914, 28.611
1140.146, 28.341
1141.377, 33.533
1142.609, 8.498
1143.840, 98.866
1145.071, 48.675
1146.301, 43.862
1147.532, 82.371
1148.762, 47.758
1149.992, 57.228
1151.222, 110.444
1152.452, 151.623
1153.682, 0.726
1154.911, 170.679
1156.140, 39.759
1157.369, 148.983
1158.598, 141.947
1159.827, 244.674
1161.055, 176.468
1162.284, 302.048
1163.512, 254.592
1164.740, 287.217
1165.967, 193.798
1167.195, 291.258
1168.422, 369.820
1169.650, 401.131
1170.877, 412.711
1172.103, 463.937
1173.330, 529.120
1174.557, 740.261
1175.783, 761.360
1177.009, 748.417
1178.235, 996.433
1179.461, 1020.359
1180.686, 892.764
1181.912, 892.313
1183.137, 911.380
1184.362, 786.607
1185.587, 640.164
1186.811, 709.168
1188.036, 584.126
1189.260, 564.174
1190.484, 413.232
1191.708, 525.372
1192.932, 460.684
1194.155, 493.582
1195.378, 433.928
1196.602, 525.713
1197.825, 539.333
1199.047, 553.927
1200.270, 497.201
1201.492, 533.923
1202.715, 410.516
1203.937, 515.485
1205.159, 557.875
1206.380, 465.844
1207.602, 496.585
1208.823, 565.833
1210.044, 634.268
1211.265, 605.999
1212.486, 651.140
1213.707, 588.606
1214.927, 647.276
1216.147, 548.158
1217.367, 605.771
1218.587, 553.892
1219.807, 357.057
1221.027, 423.232
1222.246, 338.546
1223.465, 379.555
1224.684, 326.887
1225.903, 338.113
1227.121, 277.252
1228.340, 296.506
1229.558, 316.081
1230.776, 246.678
1231.994, 256.249
1233.212, 300.826
1234.429, 263.738
1235.646, 283.052
1236.864, 319.624
1238.081, 285.095
1239.297, 274.321
1240.514, 295.326
1241.730, 316.986
1242.947, 314.171
1244.163, 343.448
1245.378, 338.422
1246.594, 353.502
1247.810, 300.418
1249.025, 388.296
1250.240, 309.963
1251.455, 234.236
1252.670, 285.125
1253.885, 310.909
1255.099, 201.685
1256.313, 155.026
1257.527, 208.171
1258.741, 186.099
1259.955, 128.093
1261.168, 99.131
1262.382, 122.984
1263.595, 173.197
1264.808, 96.176
1266.021, 55.555
1267.233, 40.528
1268.446, 101.236
1269.658, 99.693
1270.870, 94.100
1272.082, 10.901
1273.294, 28.529
1274.505, 35.965
1275.716, 24.169
1276.928, 60.338
1278.139, 26.530
1279.349, 1.222
1280.560, 77.521
1281.770, 12.526
1282.981, 48.185
1284.191, 24.260
1285.401, 30.060
1286.610, 52.017
1287.820, 14.343
1289.029, 55.556
1290.239, 21.215
1291.448, 54.404
1292.656, 62.895
1293.865, 77.502
1295.073, 42.807
1296.282, 17.822
1297.490, 83.865
1298.698, 88.708
1299.906, 108.535
1301.113, 65.426
1302.320, 16.582
1303.528, 65.351
1304.735, 109.074
1305.942, 81.212
1307.148, 135.050
1308.355, 116.701
1309.561, 85.409
1310.767, 84.598
1311.973, 101.449
1313.179, 65.603
1314.384, 153.738
1315.590, 38.855
1316.795, 135.954
1318.000, 116.034
1319.205, 202.097
1320.410, 161.134
1321.614, 118.157
1322.819, 114.165
1324.023, 65.159
1325.227, 147.140
1326.431, 134.111
1327.634, 52.070
1328.838, 104.021
1330.041, 235.963
1331.244, 56.897
1332.447, 99.824
1333.650, 135.742
1334.852, 68.656
1336.055, 5.434
1337.257, 100.472
1338.459, 104.381
1339.661, 198.291
1340.862, 144.205
1342.064, 176.116
1343.265, 100.030
1344.466, 155.942
1345.667, 193.854
1346.868, 176.771
1348.068, 160.689
1349.269, 60.612
1350.469, 166.535
1351.669, 123.462
1352.869, 208.438
1354.069, 182.378
1355.268, 66.412
1356.468, 168.361
1357.667, 102.316
1358.866, 42.274
1360.065, 217.681
1361.263, 153.678
1362.462, 65.653
1363.660, 135.631
1364.858, 170.615
1366.056, 76.604
1367.254, 112.707
1368.451, 120.704
1369.649, 91.708
1370.846, 100.554
1372.043, 110.386
1373.240, 60.194
1374.436, 133.954
1375.633, 177.698
1376.829, 53.380
1378.025, 0.026
1379.221, 96.644
1380.417, 58.863
1381.613, 60.060
1382.808, 115.233
1384.003, 66.386
1385.199, 98.520
1386.393, 99.981
1387.588, 61.740
1388.783, 90.839
1389.977, 136.843
1391.171, 102.959
1392.365, 26.586
1393.559, 62.552
1394.753, 52.916
1395.946, 62.248
1397.140, 36.819
1398.333, 131.159
1399.526, 21.900
1400.719, 61.385
1401.911, 54.512
1403.104, 20.889
1404.296, 107.750
1405.488, 144.708
1406.680, 74.460
1407.872, 18.445
1409.063, 147.652
1410.255, 24.875
1411.446, 156.513
1412.637, 73.545
1413.828, 81.094
1415.018, 127.797
1416.209, 105.516
1417.399, 37.153
1418.589, 142.761
1419.779, 72.208
1420.969, 194.078
1422.159, 135.941
1423.348, 131.542
1424.537, 177.388
1425.726, 110.903
1426.915, 191.450
1428.104, 113.263
1429.293, 230.950
1430.481, 178.745
1431.669, 244.534
1432.857, 247.316
1434.045, 238.091
1435.233, 275.858
1436.420, 331.409
1437.608, 275.156
1438.795, 345.745
1439.982, 346.469
1441.169, 256.844
1442.355, 329.352
1443.542, 400.993
1444.728, 371.560
1445.914, 397.167
1447.100, 379.760
