##NAMES=Titanite
##RRUFFID=R050114
##IDEAL CHEMISTRY=CaTi^4+^SiO_5_
##LOCALITY=Isthak Valley Iskardu, Northern Areas Gilgit, Pakistan
##OWNER=RRUFF
##SOURCE=Syed Shah
##DESCRIPTION=Yellowish-brown fragment
##STATUS=The identification of this mineral has been confirmed by X-ray diffraction and chemical analysis
##URL=rruff.info/R050114
##MEASURED CHEMISTRY=(Ca_0.99_Na_0.01_)(Ti_0.96_Al_0.03_Fe^3+^_0.01_)Si_1.00_O_4_(O_0.95_F_0.05_)
##PIN_ID=L00193
##ORIENTATION=Laser parallel to c* (0 0 1). Fiducial mark perpendicular to laser is parallel to -a [-1 0 0]
49.365, 0.000
50.765, 49.112
52.166, 61.728
53.566, 120.817
54.966, 182.902
56.365, 252.361
57.765, 349.952
59.164, 467.934
60.563, 545.926
61.962, 579.079
63.360, 680.585
64.758, 775.098
66.157, 898.230
67.554, 972.692
68.952, 933.728
70.349, 752.607
71.747, 598.923
73.144, 460.741
74.540, 345.667
75.937, 243.384
77.333, 181.654
78.729, 85.618
80.125, 40.508
81.521, 13.690
82.916, 54.981
84.311, 69.378
85.706, 124.900
87.101, 88.574
88.496, 116.425
89.890, 49.483
91.284, 51.777
92.678, 65.658
94.071, 97.781
95.465, 228.551
96.858, 322.926
98.251, 370.864
99.644, 470.330
101.036, 498.303
102.428, 508.752
103.820, 611.654
105.212, 610.990
106.604, 628.743
107.995, 711.902
109.387, 808.494
110.777, 873.651
112.168, 955.345
113.559, 1057.554
114.949, 1079.409
116.339, 1174.803
117.729, 1192.706
119.119, 1262.093
120.508, 1381.938
121.897, 1441.218
123.286, 1594.913
124.675, 1701.004
126.063, 1776.472
127.452, 1979.302
128.840, 2215.479
130.228, 2332.987
131.615, 2496.814
133.003, 2708.934
134.390, 2899.289
135.777, 3417.858
137.164, 4039.618
138.550, 5213.542
139.937, 7088.610
141.323, 9585.800
142.709, 12790.072
144.094, 15464.415
145.480, 17288.830
146.865, 16193.307
148.250, 13337.853
149.635, 10262.482
151.019, 8037.307
152.403, 6787.185
153.788, 6366.063
155.171, 6266.044
156.555, 6529.156
157.939, 7202.402
159.322, 7727.782
160.705, 8413.301
162.088, 8938.961
163.470, 9214.763
164.853, 9140.703
166.235, 8876.955
167.617, 8473.916
168.998, 7921.916
170.380, 7191.142
171.761, 6701.578
173.142, 6194.139
174.523, 5970.556
175.904, 5772.385
177.284, 5651.271
178.664, 5573.174
180.044, 5642.096
181.424, 5787.037
182.803, 5660.002
184.183, 5769.993
185.562, 5696.009
186.940, 5739.056
188.319, 5629.133
189.698, 5652.242
191.076, 5638.386
192.454, 5840.567
193.831, 5983.785
195.209, 6109.040
196.586, 6404.331
197.963, 6587.662
199.340, 7131.032
200.717, 7664.439
202.093, 7927.886
203.470, 8411.375
204.846, 8804.898
206.221, 8908.465
207.597, 9122.069
208.972, 9065.716
210.347, 9189.401
211.722, 9053.132
213.097, 9086.899
214.472, 9050.710
215.846, 9143.555
217.220, 9226.346
218.594, 9198.983
219.967, 9701.430
221.341, 9673.636
222.714, 10215.625
224.087, 10347.359
225.460, 10928.767
226.832, 11319.910
228.204, 11610.864
229.577, 12501.609
230.948, 12812.080
232.320, 14052.051
233.692, 14771.441
235.063, 15580.430
236.434, 16039.378
237.805, 15208.528
239.175, 13817.719
240.545, 12356.771
241.916, 11555.492
243.286, 10754.048
244.655, 10802.374
246.025, 10870.223
247.394, 11096.542
248.763, 11650.168
250.132, 12052.723
251.501, 12273.814
252.869, 12471.462
254.237, 12645.248
255.605, 12513.352
256.973, 12402.087
258.340, 12105.821
259.708, 11705.519
261.075, 11177.479
262.442, 10699.575
263.808, 10011.800
265.175, 9584.156
266.541, 8826.635
267.907, 8439.240
269.273, 7991.969
270.639, 7404.814
272.004, 7287.779
273.369, 6970.862
274.734, 6884.060
276.099, 6717.368
277.463, 6800.789
278.828, 7024.318
280.192, 7212.183
281.556, 7720.016
282.919, 8195.655
284.283, 9060.574
285.646, 9801.844
287.009, 11039.821
288.372, 12432.867
289.734, 13772.499
291.097, 15247.681
292.459, 15856.530
293.821, 16509.303
295.183, 16035.223
296.544, 15174.771
297.905, 13827.941
299.266, 12247.263
300.627, 11138.396
301.988, 10033.319
303.348, 9468.304
304.709, 9273.348
306.069, 9338.454
307.428, 9733.623
308.788, 10438.852
310.147, 11374.145
311.507, 13091.377
312.865, 14834.908
314.224, 17670.385
315.583, 20545.920
316.941, 24001.518
318.299, 25597.170
319.657, 26482.877
321.015, 25648.658
322.372, 23374.486
323.729, 21340.375
325.086, 18996.330
326.443, 17562.334
327.800, 16228.402
329.156, 15724.526
330.512, 15400.707
331.868, 15086.938
333.224, 15033.221
334.579, 14359.546
335.935, 13715.911
337.290, 12782.309
338.645, 11658.736
339.999, 10975.196
341.354, 9961.682
342.708, 9878.198
344.062, 9964.741
345.416, 11061.317
346.769, 12317.923
348.123, 14614.557
349.476, 17691.223
350.829, 20497.916
352.182, 23124.643
353.534, 24181.395
354.887, 23218.186
356.239, 20645.006
357.591, 16991.854
358.942, 13908.735
360.294, 11355.646
361.645, 9012.588
362.996, 7469.565
364.347, 6286.574
365.698, 5473.614
367.048, 4750.685
368.398, 4227.789
369.748, 3634.926
371.098, 3185.096
372.448, 2748.298
373.797, 2246.534
375.146, 1939.803
376.495, 1517.105
377.844, 1314.441
379.192, 1073.818
380.540, 849.236
381.889, 624.697
383.236, 520.202
384.584, 604.751
385.932, 507.347
387.279, 537.990
388.626, 498.682
389.973, 454.426
391.319, 437.222
392.666, 436.070
394.012, 416.975
395.358, 452.937
396.704, 382.958
398.049, 326.042
399.394, 188.189
400.740, 235.399
402.084, 197.671
403.429, 102.007
404.774, 193.404
406.118, 58.868
407.462, 57.386
408.806, 42.961
410.150, 125.406
411.493, 104.782
412.836, 125.160
414.179, 3.537
415.522, 66.129
416.865, 338.873
418.207, 571.690
419.549, 921.579
420.891, 1342.523
422.233, 1716.524
423.575, 2207.582
424.916, 2427.695
426.257, 2644.864
427.598, 2644.088
428.939, 2481.367
430.279, 2289.702
431.619, 1848.091
432.959, 1512.535
434.299, 1186.034
435.639, 944.587
436.978, 684.195
438.318, 422.857
439.657, 194.572
440.996, 2.654
442.334, 183.422
443.673, 318.171
445.011, 474.603
446.349, 581.241
447.687, 694.128
449.024, 779.312
450.361, 719.847
451.699, 813.682
453.036, 704.887
454.372, 771.381
455.709, 654.201
457.045, 545.312
458.381, 436.639
459.717, 195.144
461.053, 44.705
462.388, 268.744
463.724, 658.258
465.059, 1042.844
466.394, 1745.486
467.728, 2444.189
469.063, 3082.949
470.397, 3718.768
471.731, 4295.645
473.065, 4702.580
474.398, 5019.573
475.732, 5126.627
477.065, 5373.742
478.398, 5360.919
479.731, 5518.158
481.063, 5545.461
482.396, 5732.826
483.728, 5520.258
485.060, 6157.754
486.391, 6115.318
487.723, 6072.949
489.054, 6400.647
490.385, 6288.417
491.716, 6486.254
493.047, 6474.163
494.377, 6282.142
495.708, 6300.192
497.038, 6118.313
498.368, 5976.509
499.697, 5614.776
501.027, 5533.118
502.356, 5301.533
503.685, 5000.023
505.014, 5018.587
506.342, 4567.225
507.671, 4465.939
508.999, 4544.729
510.327, 4083.594
511.655, 4252.536
512.982, 4031.554
514.310, 4230.651
515.637, 4159.825
516.964, 4209.076
518.291, 4348.407
519.617, 4237.816
520.944, 4607.304
522.270, 4446.872
523.596, 4476.517
524.921, 4816.246
526.247, 4676.053
527.572, 4845.942
528.897, 4915.912
530.222, 5045.965
531.547, 5156.099
532.871, 5286.314
534.196, 5516.614
535.520, 5776.995
536.844, 5827.461
538.167, 6278.010
539.491, 6008.644
540.814, 6309.361
542.137, 5910.164
543.460, 6131.050
544.783, 5902.023
546.105, 5503.082
547.427, 5664.225
548.749, 5175.455
550.071, 4856.771
551.393, 4488.173
552.714, 4199.664
554.035, 4121.240
555.356, 3872.903
556.677, 3784.655
557.998, 4076.493
559.318, 4128.419
560.638, 4830.433
561.958, 5502.536
563.278, 6704.710
564.597, 7886.990
565.917, 9488.649
567.236, 11310.338
568.555, 13011.681
569.874, 14634.156
571.192, 16007.808
572.511, 16980.406
573.829, 18309.686
575.147, 18742.000
576.464, 19635.092
577.782, 20238.283
579.099, 20281.559
580.416, 21554.936
581.733, 21968.404
583.050, 23561.965
584.366, 24245.615
585.683, 25719.361
586.999, 26683.205
588.315, 27867.139
589.630, 29851.170
590.946, 30615.293
592.261, 32609.514
593.576, 34113.832
594.891, 35678.234
596.206, 37402.746
597.520, 37947.332
598.834, 40032.398
600.148, 41613.703
601.462, 41484.504
602.776, 42980.062
604.089, 42367.176
605.402, 43410.656
606.715, 43069.387
608.028, 42260.000
609.341, 42059.422
610.653, 40448.012
611.965, 39369.258
613.277, 38285.461
614.589, 36723.457
615.901, 35623.090
617.212, 33405.492
618.523, 32442.555
619.834, 30467.041
621.145, 29215.182
622.456, 27884.820
623.766, 25971.621
625.076, 25509.033
626.386, 23756.123
627.696, 23023.379
629.006, 22160.824
630.315, 20708.479
631.624, 20276.346
632.933, 18974.428
634.242, 18562.736
635.551, 17611.275
636.859, 16900.086
638.167, 16629.143
639.475, 15568.459
640.783, 15038.015
642.090, 14467.825
643.398, 13737.866
644.705, 13338.165
646.012, 12788.708
647.318, 12369.479
648.625, 12010.458
649.931, 11141.657
651.237, 11283.044
652.543, 10464.597
653.849, 10266.310
655.155, 9948.165
656.460, 9350.146
657.765, 9212.252
659.070, 8704.482
660.375, 8356.828
661.679, 8339.297
662.984, 7761.885
664.288, 7614.592
665.592, 7267.417
666.895, 7060.362
668.199, 6963.426
669.502, 6316.609
670.805, 6389.910
672.108, 5963.329
673.411, 6056.867
674.713, 5630.521
676.016, 5384.294
677.318, 5328.185
678.620, 5112.192
679.921, 4896.316
681.223, 4820.555
682.524, 4464.913
683.825, 4469.386
685.126, 4153.975
686.427, 3928.679
687.727, 4043.498
689.028, 3728.435
690.328, 3593.485
691.628, 3468.650
692.927, 3253.931
694.227, 3229.324
695.526, 2944.833
696.825, 3050.455
698.124, 2726.191
699.423, 2732.040
700.721, 2538.002
702.020, 2484.076
703.318, 2560.261
704.616, 2294.558
705.913, 2216.966
707.211, 2144.486
708.508, 2036.116
709.805, 2094.855
711.102, 1906.703
712.399, 1644.661
713.695, 1832.728
714.992, 1657.903
716.288, 1445.186
717.584, 1600.576
718.879, 1326.073
720.175, 1376.679
721.470, 1148.391
722.765, 1288.217
724.060, 943.157
725.355, 912.212
726.649, 1017.423
727.944, 826.784
729.238, 820.298
730.532, 867.938
731.825, 690.688
733.119, 872.541
734.412, 624.494
735.705, 659.548
736.998, 652.703
738.291, 497.957
739.584, 595.311
740.876, 444.763
742.168, 495.313
743.460, 366.962
744.752, 376.707
746.043, 393.549
747.334, 200.487
748.626, 330.521
749.916, 47.649
751.207, 217.872
752.498, 178.188
753.788, 17.402
755.078, 41.907
756.368, 24.695
757.658, 109.545
758.947, 130.621
760.237, 206.500
761.526, 252.181
762.815, 161.650
764.104, 298.859
765.392, 151.869
766.680, 312.610
767.969, 280.163
769.257, 136.500
770.544, 273.608
771.832, 173.556
773.119, 189.340
774.406, 162.025
775.693, 71.637
776.980, 119.188
778.267, 71.366
779.553, 20.125
780.839, 93.700
782.125, 217.688
783.411, 287.571
784.697, 571.244
785.982, 541.756
787.267, 722.559
788.552, 893.474
789.837, 910.828
791.122, 1237.513
792.406, 1335.759
793.690, 1665.465
794.974, 1816.864
796.258, 1975.746
797.542, 2172.592
798.825, 2346.339
800.108, 2565.576
801.391, 2751.567
802.674, 3016.218
803.957, 3278.148
805.239, 3523.520
806.522, 3619.168
807.804, 4071.204
809.085, 4250.203
810.367, 4636.263
811.649, 4901.807
812.930, 5296.770
814.211, 5381.762
815.492, 5676.784
816.772, 6081.833
818.053, 6286.912
819.333, 6082.017
820.613, 6527.148
821.893, 6432.310
823.173, 6717.497
824.452, 6772.710
825.732, 6907.950
827.011, 7173.223
828.290, 7368.522
829.568, 7333.855
830.847, 7539.219
832.125, 7464.610
833.403, 7590.035
834.681, 7745.485
835.959, 7730.962
837.236, 8176.478
838.514, 8232.029
839.791, 8967.609
841.068, 9383.213
842.345, 10078.864
843.621, 11194.576
844.898, 11880.312
846.174, 13326.097
847.450, 14691.895
848.726, 16227.704
850.001, 18103.527
851.277, 19739.363
852.552, 22175.207
853.827, 24161.053
855.102, 25206.902
856.376, 27312.758
857.651, 27818.617
858.925, 28834.475
860.199, 28770.340
861.473, 27266.203
862.746, 27392.062
864.020, 26837.930
865.293, 25963.787
866.566, 26669.646
867.839, 26975.504
869.112, 28391.352
870.384, 29517.199
871.656, 30373.039
872.928, 32938.875
874.200, 32914.699
875.472, 34290.512
876.744, 34276.336
878.015, 34142.137
879.286, 36027.922
880.557, 34643.699
881.828, 35859.457
883.098, 36105.219
884.369, 37530.961
885.639, 38456.691
886.909, 38552.395
888.178, 38528.090
889.448, 38193.758
890.717, 35939.418
891.987, 34615.055
893.256, 30910.674
894.524, 27786.271
895.793, 25211.848
897.061, 21287.400
898.330, 18782.934
899.598, 16518.439
900.865, 14233.928
902.133, 12649.387
903.401, 11384.819
904.668, 10290.230
905.935, 9575.613
907.202, 8530.605
908.468, 8135.175
909.735, 7330.471
911.001, 6823.354
912.267, 6205.573
913.533, 5385.231
914.799, 4933.104
916.064, 4116.172
917.330, 3487.009
918.595, 2983.281
919.860, 2274.372
921.124, 2074.731
922.389, 1538.319
923.653, 1265.770
924.918, 988.975
926.182, 737.527
927.445, 644.973
928.709, 475.124
929.972, 275.856
931.236, 231.498
932.499, 78.594
933.761, 59.055
935.024, 52.610
936.286, 125.460
937.549, 119.534
938.811, 136.831
940.073, 167.362
941.334, 219.144
942.596, 301.206
943.857, 275.591
945.118, 296.290
946.379, 225.311
947.640, 262.621
948.900, 196.238
950.161, 266.130
951.421, 236.334
952.681, 177.834
953.940, 106.602
955.200, 125.599
956.459, 19.836
957.719, 62.741
958.978, 99.173
960.236, 216.478
961.495, 354.688
962.753, 400.833
964.012, 638.916
965.270, 697.947
966.527, 928.924
967.785, 1147.848
969.043, 1332.718
970.300, 1737.722
971.557, 1902.489
972.814, 2122.968
974.071, 2410.848
975.327, 2555.470
976.583, 2691.042
977.840, 2716.556
979.095, 2776.161
980.351, 2713.684
981.607, 2557.987
982.862, 2422.152
984.117, 2455.342
985.372, 2208.739
986.627, 2231.613
987.882, 2180.884
989.136, 2157.441
990.390, 2124.069
991.644, 2106.334
992.898, 2188.114
994.152, 2218.270
995.405, 2160.822
996.659, 2205.146
997.912, 2102.792
999.165, 2172.089
1000.417, 2198.685
1001.670, 2127.184
1002.922, 2155.753
1004.174, 2099.077
1005.426, 2024.146
1006.678, 2021.248
1007.930, 1944.286
1009.181, 1951.260
1010.432, 1951.171
1011.683, 1957.018
1012.934, 2050.800
1014.185, 1975.519
1015.435, 2077.173
1016.685, 2033.764
1017.935, 2128.291
1019.185, 2332.753
1020.435, 2255.151
1021.684, 2421.485
1022.934, 2583.755
1024.183, 2559.960
1025.432, 2748.102
1026.680, 2796.178
1027.929, 2850.190
1029.177, 3010.138
1030.425, 2943.021
1031.673, 3035.841
1032.921, 3061.594
1034.169, 2916.285
1035.416, 3033.910
1036.663, 2938.470
1037.911, 2962.968
1039.157, 2916.400
1040.404, 2767.767
1041.650, 2805.071
1042.897, 2573.310
1044.143, 2419.485
1045.389, 2307.595
1046.634, 2088.642
1047.880, 2032.624
1049.125, 1844.542
1050.371, 1639.396
1051.615, 1648.186
1052.860, 1408.913
1054.105, 1231.575
1055.349, 1181.174
1056.593, 1037.710
1057.837, 982.185
1059.081, 972.602
1060.325, 851.956
1061.568, 826.260
1062.812, 752.518
1064.055, 786.740
1065.298, 757.935
1066.540, 701.087
1067.783, 745.221
1069.025, 744.312
1070.267, 756.387
1071.509, 824.442
1072.751, 844.451
1073.993, 1027.439
1075.234, 1229.390
1076.475, 1264.305
1077.716, 1629.181
1078.957, 1929.006
1080.198, 2285.728
1081.438, 2837.515
1082.679, 3205.003
1083.919, 3767.348
1085.159, 4249.815
1086.398, 5049.518
1087.638, 5504.403
1088.877, 5632.023
1090.116, 5950.582
1091.355, 5882.727
1092.594, 5653.579
1093.833, 5447.921
1095.071, 4912.829
1096.309, 4345.090
1097.547, 3884.923
1098.785, 3136.832
1100.023, 2606.300
1101.260, 2104.567
1102.498, 1629.450
1103.735, 1347.751
1104.972, 1137.800
1106.208, 869.461
1107.445, 795.890
1108.681, 607.945
1109.918, 493.071
1111.154, 507.147
1112.389, 356.754
1113.625, 347.960
1114.860, 265.145
1116.096, 208.306
1117.331, 209.445
1118.566, 141.558
1119.800, 184.645
1121.035, 64.709
1122.269, 130.741
1123.503, 178.747
1124.737, 10.728
1125.971, 11.329
1127.205, 17.573
1128.438, 24.561
1129.671, 20.967
1130.904, 18.964
1132.137, 46.230
1133.370, 6.449
1134.602, 16.906
1135.834, 85.302
1137.066, 59.770
1138.298, 44.297
1139.530, 5.873
1140.762, 132.484
1141.993, 172.190
1143.224, 51.010
1144.455, 130.880
1145.686, 4.160
1146.917, 33.168
1148.147, 1.848
1149.377, 133.104
1150.607, 100.038
1151.837, 200.952
1153.067, 405.848
1154.296, 435.729
1155.526, 681.593
1156.755, 834.441
1157.984, 1068.275
1159.213, 1514.093
1160.441, 1810.896
1161.670, 2187.686
1162.898, 2695.460
1164.126, 2909.221
1165.354, 3555.968
1166.581, 4005.701
1167.809, 4467.419
1169.036, 5372.123
1170.263, 6259.811
1171.490, 7261.483
1172.717, 8823.139
1173.943, 9914.777
1175.170, 11906.404
1176.396, 13418.013
1177.622, 14669.604
1178.848, 16191.179
1180.073, 16292.742
1181.299, 16454.291
1182.524, 16195.822
1183.749, 14637.339
1184.974, 13908.843
1186.199, 12350.329
1187.423, 11191.804
1188.648, 10433.268
1189.872, 9454.716
1191.096, 8986.149
1192.320, 8907.570
1193.543, 8698.981
1194.767, 9100.376
1195.990, 9331.761
1197.213, 9563.132
1198.436, 10024.491
1199.659, 9925.835
1200.881, 9857.173
1202.104, 9998.494
1203.326, 9299.807
1204.548, 9181.105
1205.770, 8812.395
1206.991, 8403.671
1208.213, 8424.933
1209.434, 8156.190
1210.655, 8127.435
1211.876, 8318.670
1213.096, 8089.896
1214.317, 8171.109
1215.537, 7942.331
1216.757, 7523.542
1217.977, 7364.742
1219.197, 6725.939
1220.417, 6617.126
1221.636, 6378.307
1222.855, 5934.479
1224.074, 6020.643
1225.293, 5922.796
1226.512, 5797.067
1227.731, 6214.208
1228.949, 6265.891
1230.167, 6287.632
1231.385, 6789.239
1232.603, 6602.114
1233.820, 6944.823
1235.038, 7058.335
1236.255, 6878.112
1237.472, 7222.031
1238.689, 6908.642
1239.906, 6889.856
1241.122, 7073.935
1242.338, 6664.634
1243.555, 6756.294
1244.771, 6815.165
1245.986, 6541.209
1247.202, 6670.773
1248.417, 6352.135
1249.633, 6056.581
1250.848, 6048.775
1252.063, 5611.574
1253.277, 5418.233
1254.492, 5100.066
1255.706, 4609.394
1256.920, 4562.327
1258.134, 4027.382
1259.348, 3779.305
1260.562, 3698.667
1261.775, 3278.718
1262.988, 2975.425
1264.201, 2992.800
1265.414, 2676.316
1266.627, 2638.996
1267.839, 2513.474
1269.052, 2342.826
1270.264, 2367.063
1271.476, 2169.029
1272.688, 2107.544
1273.899, 2085.647
1275.111, 1889.782
1276.322, 1961.085
1277.533, 1876.478
1278.744, 1709.796
1279.955, 1897.855
1281.165, 1752.389
1282.376, 1677.474
1283.586, 1855.224
1284.796, 1757.851
1286.006, 1878.791
1287.215, 1840.165
1288.425, 1883.114
1289.634, 2033.616
1290.843, 2145.297
1292.052, 2271.603
1293.261, 2538.210
1294.469, 2566.469
1295.678, 2755.774
1296.886, 3057.960
1298.094, 3059.438
1299.302, 3379.930
1300.509, 3366.436
1301.717, 3576.958
1302.924, 3796.496
1304.131, 3568.048
1305.338, 3713.612
1306.545, 3683.185
1307.752, 3605.746
1308.958, 3614.232
1310.164, 3681.666
1311.370, 3360.008
1312.576, 3441.197
1313.782, 3313.208
1314.987, 3102.078
1316.193, 3129.834
1317.398, 3011.401
1318.603, 2924.885
1319.807, 2992.326
1321.012, 2782.720
1322.216, 2720.092
1323.421, 2638.448
1324.625, 2536.792
1325.829, 2472.119
1327.032, 2226.436
1328.236, 2139.739
1329.439, 2137.027
1330.642, 1917.299
1331.845, 1889.554
1333.048, 1790.789
1334.251, 1635.003
1335.453, 1649.194
1336.656, 1456.359
1337.858, 1494.495
1339.060, 1437.601
1340.261, 1332.673
1341.463, 1385.707
1342.664, 1432.700
1343.866, 1333.648
1345.067, 1378.549
1346.267, 1412.406
1347.468, 1286.224
1348.669, 1359.014
1349.869, 1255.782
1351.069, 1260.534
1352.269, 1232.313
1353.469, 1140.030
1354.668, 1191.728
1355.868, 1122.931
1357.067, 955.679
1358.266, 1025.500
1359.465, 885.761
1360.664, 718.361
1361.862, 762.360
1363.061, 626.462
1364.259, 648.091
1365.457, 552.133
1366.655, 451.286
1367.852, 457.938
1369.050, 302.752
1370.247, 210.260
1371.444, 259.486
1372.641, 111.712
1373.838, 104.575
1375.035, 143.277
1376.231, 0.111
1377.427, 10.168
1378.623, 9.792
1379.819, 107.976
1381.015, 11.578
1382.211, 51.242
1383.406, 120.976
1384.601, 3.838
1385.796, 105.864
1386.991, 118.024
1388.185, 70.305
1389.380, 181.723
1390.574, 75.220
1391.768, 100.763
1392.962, 83.342
1394.156, 28.938
1395.350, 131.547
1396.543, 95.158
1397.736, 21.231
1398.929, 54.355
1400.122, 23.096
1401.315, 19.593
1402.507, 4.126
1403.700, 76.747
1404.892, 116.427
1406.084, 178.259
1407.276, 261.228
1408.467, 186.259
1409.659, 194.310
1410.850, 311.364
1412.041, 227.416
1413.232, 365.465
1414.423, 496.509
1415.614, 395.549
1416.804, 565.586
1417.994, 561.625
1419.184, 643.670
1420.374, 757.733
1421.564, 736.817
1422.753, 894.926
1423.943, 981.062
1425.132, 1072.227
1426.321, 1181.422
1427.510, 1308.650
1428.698, 1242.911
1429.887, 1547.209
