##NAMES=Titanite
##RRUFFID=R050039
##IDEAL CHEMISTRY=CaTi^4+^SiO_5_
##LOCALITY=Kingman, Arizona, USA
##OWNER=RRUFF
##SOURCE=University of Arizona Mineral Museum
##DESCRIPTION=Black fragment from a single crystal
##STATUS=The identification of this mineral has been confirmed by X-ray diffraction and chemical analysis
##URL=rruff.info/R050039
##MEASURED CHEMISTRY=(Ca_0.95_Y_0.05_)(Ti_0.85_Al_0.10_Fe^3+^_0.06_)Si_1.00_O_4_(O_0.93_F_0.07_)
##PIN_ID=L00126
##ORIENTATION=Laser parallel to a* (1 0 0). Fiducial mark perpendicular to laser is parallel to b [0 1 0]
101.492, 0.000
102.883, 1.062
104.273, 89.920
105.664, 260.242
107.054, 401.346
108.444, 349.291
109.834, 564.934
111.223, 718.781
112.613, 886.754
114.002, 688.418
115.391, 778.055
116.780, 579.359
118.168, 489.152
119.556, 220.836
120.944, 94.299
122.332, 149.430
123.720, 6.115
125.107, 114.240
126.495, 56.312
127.882, 205.633
129.268, 53.777
130.655, 19.211
132.041, 83.283
133.427, 268.391
134.813, 274.482
136.199, 421.510
137.584, 599.418
138.970, 726.578
140.355, 857.678
141.740, 1077.924
143.124, 1108.848
144.509, 1240.398
145.893, 1342.518
147.277, 1615.162
148.660, 1758.277
150.044, 1641.828
151.427, 2005.801
152.810, 2140.250
154.193, 2155.230
155.576, 2400.781
156.958, 2246.924
158.341, 2543.629
159.723, 2520.852
161.105, 2658.549
162.486, 2766.688
163.867, 2735.254
165.249, 2884.227
166.630, 2683.598
168.010, 2823.334
169.391, 2773.408
170.771, 3023.793
172.151, 2874.455
173.531, 3035.377
174.911, 3056.531
176.290, 3207.893
177.669, 3359.443
179.049, 3281.166
180.427, 3463.041
181.806, 3295.053
183.184, 3517.186
184.562, 3779.414
185.940, 3711.688
187.318, 4044.000
188.696, 3996.338
190.073, 4358.686
191.450, 4451.031
192.827, 4193.355
194.204, 5025.656
195.580, 4687.945
196.956, 5280.242
198.332, 5032.412
199.708, 5465.012
201.084, 5878.270
202.459, 6152.348
203.834, 6426.328
205.209, 6603.223
206.584, 6829.836
207.958, 7033.625
209.333, 7015.285
210.707, 7373.768
212.081, 7662.467
213.454, 7741.137
214.828, 8089.766
216.201, 8588.309
217.574, 8496.752
218.947, 8865.104
220.320, 9013.410
221.692, 8901.637
223.064, 9209.945
224.436, 9208.391
225.808, 9096.957
227.179, 9405.680
228.551, 9384.484
229.922, 9333.324
231.293, 9062.137
232.663, 8920.852
234.034, 8759.484
235.404, 8708.021
236.774, 8916.434
238.144, 8764.721
239.514, 9072.883
240.883, 9110.922
242.252, 9358.834
243.621, 9566.621
244.990, 9664.285
246.359, 9821.824
247.727, 9999.238
249.095, 10196.527
250.463, 10353.690
251.831, 10400.729
253.198, 10297.640
254.566, 10324.430
255.933, 10431.091
257.299, 10077.630
258.666, 10134.041
260.033, 9720.323
261.399, 9416.486
262.765, 9142.521
264.131, 9098.430
265.496, 8874.212
266.862, 8689.724
268.227, 8514.245
269.592, 8389.104
270.957, 8163.805
272.321, 7878.343
273.685, 7772.640
275.050, 7806.752
276.413, 7180.690
277.777, 7524.422
279.141, 7077.891
280.504, 6880.586
281.867, 6743.422
283.230, 6526.406
284.592, 6069.279
285.955, 6131.531
287.317, 5635.258
288.679, 5547.176
290.041, 5482.554
291.403, 5133.221
292.764, 4786.337
294.125, 4793.316
295.486, 4692.867
296.847, 4835.412
298.207, 4733.779
299.568, 4948.562
300.928, 4854.201
302.288, 4729.590
303.647, 5000.648
305.007, 5366.896
306.366, 5535.249
307.725, 5615.672
309.084, 5983.234
310.443, 6145.396
311.801, 6079.066
313.159, 6331.160
314.517, 6261.604
315.875, 6462.959
317.233, 6485.189
318.590, 6514.582
319.947, 6541.764
321.304, 6343.604
322.661, 6359.449
324.018, 6125.457
325.374, 5893.268
326.730, 5957.940
328.086, 5663.652
329.442, 5478.695
330.797, 5233.586
332.153, 5128.658
333.508, 4953.660
334.863, 4708.209
336.217, 4649.757
337.572, 4390.401
338.926, 4395.014
340.280, 4269.882
341.634, 4003.370
342.988, 4056.568
344.341, 4161.989
345.694, 3970.225
347.047, 4106.342
348.400, 3878.419
349.753, 4134.623
351.105, 4008.680
352.457, 4078.715
353.809, 4070.344
355.161, 4119.148
356.512, 4157.184
357.864, 4164.980
359.215, 4288.842
360.566, 4223.395
361.916, 4416.686
363.267, 4221.062
364.617, 4266.840
365.967, 4160.369
367.317, 4003.273
368.667, 3976.103
370.016, 3588.854
371.366, 3981.521
372.715, 3474.104
374.064, 3356.600
375.412, 3439.006
376.761, 3011.323
378.109, 2993.551
379.457, 2745.688
380.805, 2687.738
382.152, 2549.701
383.500, 2431.573
384.847, 2423.355
386.194, 2300.250
387.541, 2236.654
388.887, 2148.166
390.233, 2139.587
391.580, 2070.914
392.926, 1902.148
394.271, 2053.290
395.617, 1884.337
396.962, 1955.291
398.307, 2016.152
399.652, 1966.922
400.997, 2147.599
402.341, 2098.184
403.686, 2328.678
405.030, 2629.081
406.374, 2699.395
407.717, 3079.618
409.061, 3019.751
410.404, 3249.795
411.747, 3769.750
413.090, 3829.617
414.433, 4149.398
415.775, 4259.091
417.117, 4648.696
418.459, 4588.216
419.801, 4667.648
421.143, 4686.998
422.484, 4526.259
423.825, 4405.438
425.166, 4241.652
426.507, 3974.756
427.848, 3782.474
429.188, 3391.324
430.528, 3060.100
431.868, 2748.799
433.208, 2497.425
434.547, 2145.976
435.887, 2054.452
437.226, 1772.856
438.565, 1421.188
439.904, 1399.449
441.242, 1247.639
442.580, 945.763
443.918, 893.818
445.256, 541.806
446.594, 619.725
447.932, 357.578
449.269, 295.356
450.606, 173.066
451.943, 180.687
453.280, 128.236
454.616, 35.744
455.952, 116.870
457.288, 159.701
458.624, 252.772
459.960, 196.132
461.295, 369.750
462.631, 366.576
463.966, 458.028
465.300, 382.735
466.635, 417.796
467.969, 293.228
469.304, 408.960
470.638, 325.058
471.972, 351.471
473.305, 488.212
474.639, 305.352
475.972, 322.792
477.305, 180.537
478.638, 138.512
479.970, 106.689
481.303, 25.053
482.635, 106.444
483.967, 87.861
485.298, 29.197
486.630, 290.429
487.961, 81.595
489.293, 172.685
490.624, 193.705
491.954, 134.659
493.285, 135.546
494.615, 226.364
495.945, 27.121
497.275, 17.791
498.605, 158.371
499.935, 78.889
501.264, 110.659
502.593, 110.356
503.922, 150.201
505.251, 40.213
506.579, 170.327
507.908, 110.614
509.236, 181.038
510.564, 151.634
511.891, 92.384
513.219, 122.663
514.546, 82.596
515.873, 75.368
517.200, 76.584
518.527, 19.859
519.853, 19.274
521.180, 109.284
522.506, 22.208
523.832, 63.767
525.157, 4.595
526.483, 132.900
527.808, 201.160
529.133, 159.375
530.458, 347.546
531.783, 415.672
533.107, 313.755
534.431, 541.797
535.756, 499.796
537.079, 497.755
538.403, 615.676
539.727, 773.557
541.050, 701.399
542.373, 569.205
543.696, 886.975
545.018, 814.708
546.341, 902.406
547.663, 800.070
548.985, 1047.702
550.307, 1095.301
551.629, 1102.869
552.950, 1120.406
554.271, 1317.914
555.592, 1565.394
556.913, 1912.844
558.234, 2200.266
559.554, 2667.664
560.875, 2825.036
562.195, 3272.383
563.514, 4049.706
564.834, 4317.006
566.154, 5244.285
567.473, 5481.542
568.792, 6478.779
570.111, 7005.997
571.429, 7113.195
572.748, 7980.377
574.066, 8087.541
575.384, 8514.688
576.702, 8481.823
578.019, 8838.939
579.337, 8826.046
580.654, 8973.139
581.971, 9240.220
583.288, 9167.291
584.605, 8934.352
585.921, 9241.402
587.237, 9158.444
588.553, 9085.479
589.869, 9312.510
591.185, 9069.531
592.500, 9056.548
593.815, 9073.561
595.130, 9320.570
596.445, 9497.576
597.760, 9234.579
599.074, 9391.581
600.389, 9308.586
601.703, 9615.589
603.016, 9562.591
604.330, 9419.599
605.644, 9686.606
606.957, 9632.947
608.270, 9949.040
609.583, 10004.008
610.895, 9869.149
612.208, 10103.263
613.520, 9853.788
614.832, 10334.918
616.144, 10403.448
617.455, 9716.232
618.767, 10052.677
620.078, 10268.335
621.389, 9674.314
622.700, 10244.705
624.011, 9809.991
625.321, 10123.312
626.631, 9614.705
627.941, 10059.135
629.251, 9709.114
630.561, 9757.814
631.870, 9898.298
633.180, 9380.618
634.489, 9452.290
635.798, 9683.312
637.106, 9177.396
638.415, 9563.916
639.723, 9235.957
641.031, 9244.211
642.339, 9182.438
643.647, 9189.006
644.954, 9058.842
646.261, 8957.701
647.568, 8727.327
648.875, 9027.130
650.182, 8606.775
651.488, 8706.521
652.795, 8446.736
654.101, 8575.561
655.407, 8344.147
656.712, 8234.367
658.018, 8264.353
659.323, 7885.734
660.628, 8187.431
661.933, 7416.922
663.238, 7593.615
664.542, 7732.451
665.847, 7295.343
667.151, 7254.133
668.455, 7215.086
669.758, 7190.082
671.062, 6953.512
672.365, 6917.469
673.668, 6736.856
674.971, 6694.188
676.274, 6560.518
677.577, 6236.108
678.879, 6288.025
680.181, 6188.880
681.483, 6008.357
682.785, 6120.104
684.086, 5802.488
685.388, 5774.963
686.689, 5817.521
687.990, 5520.169
689.290, 5062.905
690.591, 5705.729
691.891, 5118.645
693.192, 5321.646
694.491, 5284.741
695.791, 4927.924
697.091, 5161.199
698.390, 4804.564
699.689, 4678.021
700.988, 4851.570
702.287, 4595.211
703.586, 4478.945
704.884, 4572.772
706.182, 4336.691
707.480, 4450.705
708.778, 4294.812
710.076, 4149.016
711.373, 3963.312
712.670, 3910.176
713.968, 3820.441
715.264, 3796.774
716.561, 3721.453
717.857, 3646.229
719.154, 3561.101
720.450, 3556.067
721.746, 3451.363
723.041, 3379.234
724.337, 3261.555
725.632, 3186.910
726.927, 3032.365
728.222, 2907.919
729.517, 3083.570
730.811, 2569.320
732.105, 2785.169
733.400, 2571.116
734.693, 2597.162
735.987, 2513.309
737.281, 2329.554
738.574, 2175.899
739.867, 2212.345
741.160, 2248.890
742.453, 2145.535
743.745, 1982.280
745.038, 2109.126
746.330, 1986.072
747.622, 1713.119
748.913, 1770.266
750.205, 1717.515
751.496, 1554.864
752.788, 1682.314
754.079, 1429.865
755.369, 1537.518
756.660, 1315.271
757.950, 1533.127
759.241, 1431.082
760.531, 1389.142
761.820, 1157.300
763.110, 1125.225
764.399, 1223.932
765.689, 1002.412
766.978, 991.005
768.267, 1019.713
769.555, 1118.555
770.844, 1037.571
772.132, 1006.771
773.420, 1096.180
774.708, 1065.782
775.996, 975.623
777.283, 958.587
778.570, 932.130
779.857, 1000.291
781.144, 819.120
782.431, 986.745
783.718, 988.142
785.004, 1230.907
786.290, 1037.443
787.576, 1050.303
788.862, 1152.040
790.147, 965.054
791.433, 1167.478
792.718, 1163.072
794.003, 935.523
795.288, 1200.550
796.572, 1225.492
797.857, 1461.702
799.141, 1156.057
800.425, 1166.617
801.709, 1152.222
802.992, 995.611
804.276, 1259.055
805.559, 1112.564
806.842, 986.144
808.125, 1339.790
809.407, 883.527
810.690, 1127.351
811.972, 1121.277
813.254, 1215.306
814.536, 1159.492
815.818, 1193.855
817.099, 1168.405
818.381, 1313.096
819.662, 1277.943
820.943, 1342.802
822.223, 1288.105
823.504, 1453.461
824.784, 1448.965
826.065, 1544.646
827.345, 1580.479
828.624, 1696.464
829.904, 1842.573
831.183, 1798.769
832.462, 1805.045
833.741, 2141.383
835.020, 2067.816
836.299, 2354.322
837.577, 2640.886
838.856, 2627.502
840.134, 2804.169
841.412, 3110.884
842.689, 3297.647
843.967, 3274.458
845.244, 3721.316
846.521, 4198.220
847.798, 4115.170
849.075, 4662.162
850.351, 4979.201
851.628, 5196.282
852.904, 6203.407
854.180, 6190.574
855.455, 6817.781
856.731, 7355.030
858.006, 7772.319
859.281, 8709.647
860.556, 9017.015
861.831, 9844.418
863.106, 10561.860
864.380, 11479.339
865.655, 12206.855
866.929, 12914.403
868.202, 13591.997
869.476, 14173.104
870.750, 14737.257
872.023, 15274.938
873.296, 15722.652
874.569, 16280.395
875.842, 16518.170
877.114, 17165.975
878.386, 17133.807
879.658, 17381.666
880.930, 17579.553
882.202, 17497.463
883.474, 17375.406
884.745, 16983.373
886.016, 17121.359
887.287, 16749.371
888.558, 16177.403
889.829, 16535.457
891.099, 15263.532
892.369, 15391.628
893.639, 14429.745
894.909, 13807.880
896.179, 13076.032
897.448, 11714.202
898.718, 11312.385
899.987, 10130.586
901.256, 9688.803
902.524, 8787.032
903.793, 8005.276
905.061, 7233.529
906.329, 6561.797
907.597, 5878.004
908.865, 5262.721
910.133, 4586.656
911.400, 4204.961
912.667, 3523.273
913.934, 3201.592
915.201, 2779.917
916.468, 2308.247
917.734, 1916.581
919.001, 1674.919
920.267, 1503.259
921.532, 1191.601
922.798, 899.942
924.064, 678.284
925.329, 546.625
926.594, 154.963
927.859, 263.297
929.124, 28.374
930.388, 30.091
931.653, 261.857
932.917, 263.799
934.181, 395.918
935.445, 288.290
936.708, 620.859
937.972, 513.806
939.235, 447.075
940.498, 740.635
941.761, 594.644
943.024, 579.027
944.286, 623.780
945.548, 408.928
946.811, 604.360
948.072, 280.183
949.334, 296.225
950.596, 262.499
951.857, 38.989
953.118, 115.578
954.379, 197.688
955.640, 310.932
956.901, 864.258
958.161, 1057.872
959.421, 911.945
960.681, 1297.794
961.941, 1202.511
963.201, 1643.813
964.460, 1884.052
965.720, 1828.252
966.979, 2147.045
968.238, 2425.416
969.496, 2620.860
970.755, 2922.130
972.013, 3205.504
973.272, 3299.104
974.529, 3370.467
975.787, 3465.791
977.045, 3506.380
978.302, 3433.452
979.560, 3402.036
980.817, 3423.978
982.073, 3231.792
983.330, 3217.595
984.587, 3161.728
985.843, 3140.990
987.099, 2944.226
988.355, 2897.350
989.611, 2830.113
990.866, 2792.277
992.122, 2707.178
993.377, 2776.444
994.632, 2558.445
995.887, 2590.393
997.141, 2562.285
998.396, 2394.121
999.650, 2365.902
1000.904, 2247.625
1002.158, 2319.293
1003.412, 2140.901
1004.665, 2182.451
1005.918, 1993.945
1007.172, 2055.379
1008.425, 1986.756
1009.677, 2118.071
1010.930, 1879.328
1012.182, 2000.524
1013.434, 2011.661
1014.687, 1972.735
1015.938, 1783.749
1017.190, 2044.700
1018.441, 1765.591
1019.693, 2156.418
1020.944, 2007.183
1022.195, 2057.884
1023.445, 2268.521
1024.696, 2079.096
1025.946, 2389.604
1027.197, 2320.051
1028.446, 2160.431
1029.696, 2470.746
1030.946, 2320.996
1032.195, 2491.179
1033.445, 2641.297
1034.694, 2461.348
1035.942, 2511.332
1037.191, 2511.249
1038.440, 2621.097
1039.688, 2680.878
1040.936, 2540.589
1042.184, 2690.232
1043.432, 2479.808
1044.679, 2429.313
1045.927, 2508.749
1047.174, 2378.116
1048.421, 2347.412
1049.668, 2166.639
1050.914, 2035.794
1052.161, 1998.708
1053.407, 2103.892
1054.653, 1862.833
1055.899, 1831.703
1057.145, 1690.500
1058.391, 1619.227
1059.636, 1587.880
1060.881, 1556.460
1062.126, 1454.969
1063.371, 1479.002
1064.615, 1561.764
1065.860, 1470.050
1067.104, 1518.264
1068.348, 1476.403
1069.592, 1584.470
1070.836, 1652.461
1072.079, 1870.380
1073.323, 1968.226
1074.566, 2066.004
1075.809, 2373.712
1077.052, 2361.374
1078.294, 2570.639
1079.537, 2853.610
1080.779, 2877.927
1082.021, 3067.824
1083.263, 3247.272
1084.504, 3198.135
1085.746, 3375.434
1086.987, 3141.588
1088.228, 3364.214
1089.469, 3200.767
1090.710, 3038.663
1091.951, 2725.503
1093.191, 2493.086
1094.431, 2287.648
1095.671, 1915.469
1096.911, 1530.824
1098.151, 1516.316
1099.390, 1280.586
1100.630, 896.778
1101.869, 876.814
1103.108, 641.843
1104.346, 419.119
1105.585, 386.372
1106.823, 313.584
1108.062, 200.752
1109.300, 47.870
1110.537, 104.917
1111.775, 48.095
1113.013, 31.230
1114.250, 94.481
1115.487, 167.881
1116.724, 161.466
1117.961, 115.234
1119.197, 49.161
1120.434, 83.213
1121.670, 87.407
1122.906, 211.745
1124.142, 116.292
1125.377, 200.997
1126.613, 145.906
1127.848, 170.988
1129.083, 66.257
1130.318, 1.656
1131.553, 32.847
1132.787, 109.504
1134.022, 28.356
1135.256, 225.903
1136.490, 240.115
1137.724, 314.280
1138.957, 548.402
1140.191, 582.484
1141.424, 636.527
1142.657, 930.532
1143.890, 1104.499
1145.123, 1358.428
1146.355, 1532.320
1147.588, 2046.173
1148.820, 2109.987
1150.052, 2413.762
1151.284, 2997.495
1152.516, 3151.188
1153.747, 3764.836
1154.978, 4128.440
1156.209, 4582.000
1157.440, 5265.514
1158.671, 5518.982
1159.902, 6452.404
1161.132, 6625.780
1162.362, 7389.111
1163.592, 7962.398
1164.822, 8705.637
1166.052, 9238.830
1167.281, 10061.979
1168.511, 10445.086
1169.740, 11128.144
1170.969, 11961.159
1172.197, 12224.126
1173.426, 12627.052
1174.654, 12919.927
1175.883, 13192.762
1177.111, 13255.548
1178.338, 13058.286
1179.566, 13170.981
1180.794, 12803.633
1182.021, 12386.232
1183.248, 12448.789
1184.475, 11961.298
1185.702, 11393.765
1186.928, 11116.179
1188.155, 10738.552
1189.381, 10470.877
1190.607, 10283.156
1191.833, 10145.393
1193.059, 9767.578
1194.284, 9689.723
1195.509, 9511.821
1196.735, 9513.873
1197.960, 9195.880
1199.184, 9387.841
1200.409, 9029.759
1201.633, 8951.634
1202.858, 9193.465
1204.082, 8895.251
1205.306, 8476.996
1206.529, 8508.696
1207.753, 7880.357
1208.976, 7911.978
1210.199, 7763.561
1211.422, 7465.104
1212.645, 7596.607
1213.868, 7178.092
1215.090, 7169.555
1216.313, 7011.000
1217.535, 6802.426
1218.757, 6913.998
1219.978, 6645.756
1221.200, 6528.762
1222.421, 6830.973
1223.643, 7058.331
1224.864, 7121.338
1226.084, 7309.446
1227.305, 6811.119
1228.526, 7389.979
1229.746, 7361.289
1230.966, 7108.951
1232.186, 7709.005
1233.406, 8398.631
1234.625, 8210.135
1235.845, 7906.777
1237.064, 7777.699
1238.283, 8018.080
1239.502, 8111.222
1240.721, 7847.593
1241.939, 8127.095
1243.157, 7971.086
1244.376, 7869.316
1245.594, 7874.814
1246.811, 7393.952
1248.029, 7662.878
1249.247, 7217.764
1250.464, 6953.173
1251.681, 7037.744
1252.898, 6691.619
1254.115, 6385.205
1255.331, 6497.789
1256.548, 5818.766
1257.764, 6030.410
1258.980, 5635.326
1260.196, 5181.267
1261.411, 5123.203
1262.627, 4960.506
1263.842, 4708.189
1265.057, 4528.758
1266.272, 4343.457
1267.487, 4086.009
1268.702, 4168.292
1269.916, 3812.768
1271.130, 3933.239
1272.344, 3668.400
1273.558, 3627.033
1274.772, 3654.111
1275.986, 3487.785
1277.199, 3325.543
1278.412, 3615.266
1279.625, 3296.614
1280.838, 3262.790
1282.051, 3704.949
1283.263, 3447.179
1284.475, 3659.726
1285.687, 4182.828
1286.899, 3715.944
1288.111, 3859.070
1289.323, 3732.206
1290.534, 3925.331
1291.745, 4268.390
1292.957, 4281.293
1294.167, 4374.027
1295.378, 4276.516
1296.589, 4368.617
1297.799, 4780.359
1299.009, 4651.778
1300.219, 4862.945
1301.429, 5023.898
1302.639, 4814.715
1303.848, 5015.408
1305.057, 5266.023
1306.267, 4936.580
1307.476, 5277.080
1308.684, 5127.535
1309.893, 5187.941
1311.101, 5118.297
1312.310, 5108.598
1313.518, 5228.844
1314.725, 5109.024
1315.933, 5039.142
1317.141, 5149.189
1318.348, 4889.161
1319.555, 4889.053
1320.762, 4828.854
1321.969, 4628.561
1323.176, 4598.166
1324.382, 4387.658
1325.589, 4187.034
1326.795, 4126.302
1328.001, 3805.479
1329.206, 3744.585
1330.412, 3653.635
1331.617, 3532.632
1332.823, 3311.576
1334.028, 3190.467
1335.233, 2999.305
1336.437, 2928.087
1337.642, 2676.814
1338.846, 2505.491
1340.051, 2454.117
1341.255, 2282.705
1342.458, 2167.562
1343.662, 2039.799
1344.866, 1898.322
1346.069, 1806.838
1347.272, 1645.446
1348.475, 1563.977
1349.678, 1444.154
1350.880, 1231.139
1352.083, 1199.809
1353.285, 1098.554
1354.487, 918.212
1355.689, 797.236
1356.891, 895.627
1358.093, 609.151
1359.294, 712.700
1360.495, 526.273
1361.696, 509.862
1362.897, 393.434
1364.098, 346.978
1365.298, 120.363
1366.499, 233.564
1367.699, 29.461
1368.899, 119.179
1370.099, 91.479
1371.298, 172.498
1372.498, 50.695
1373.697, 88.055
1374.896, 187.563
1376.095, 64.180
1377.294, 214.877
1378.493, 241.633
1379.691, 161.401
1380.889, 227.076
1382.087, 214.544
1383.285, 95.732
1384.483, 143.729
1385.681, 30.472
1386.878, 98.896
1388.075, 2.984
1389.272, 81.150
1390.469, 11.637
1391.666, 5.334
1392.862, 150.971
1394.059, 114.263
1395.255, 197.535
1396.451, 290.790
1397.647, 284.029
1398.842, 407.266
1400.038, 360.515
1401.233, 463.793
1402.428, 587.109
1403.623, 620.471
1404.818, 633.882
1406.013, 847.347
1407.207, 650.870
1408.401, 984.457
1409.595, 988.113
1410.789, 1011.847
1411.983, 1125.666
1413.177, 1259.579
1414.370, 1303.597
1415.563, 1497.729
1416.756, 1541.979
1417.949, 1616.361
1419.142, 1840.882
1420.335, 1565.548
1421.527, 1880.373
1422.719, 1975.359
1423.911, 2080.517
1425.103, 2395.853
1426.295, 2411.372
1427.486, 2457.072
1428.677, 2742.957
1429.869, 2648.929
1431.060, 2604.947
1432.250, 2959.893
1433.441, 2770.631
1434.632, 2999.792
1435.822, 2997.240
1437.012, 2882.561
1438.202, 3179.561
1439.392, 3113.539
1440.581, 2873.825
1441.771, 2962.284
1442.960, 2918.418
1444.149, 2882.900
1445.338, 2926.217
1446.527, 2701.090
1447.715, 2865.382
1448.904, 2874.158
1450.092, 2604.371
1451.280, 2976.054
1452.468, 2507.389
1453.656, 2618.021
1454.843, 2577.887
1456.031, 2446.913
1457.218, 2475.018
1458.405, 2442.106
1459.592, 2048.070
1460.778, 2182.789
1461.965, 2006.118
1463.151, 1847.900
1464.337, 1927.950
1465.523, 1776.065
1466.709, 1482.170
1467.895, 1667.455
1469.080, 1253.930
1470.266, 1244.831
1471.451, 1270.139
1472.636, 888.090
1473.821, 947.097
