##NAMES=Titanite
##RRUFFID=R040033
##IDEAL CHEMISTRY=CaTi^4+^SiO_5_
##LOCALITY=Brazil
##OWNER=RRUFF
##SOURCE=University of Arizona Mineral Museum
##DESCRIPTION=Green flattened wedge-shaped single crystals
##STATUS=The identification of this mineral has been confirmed by X-ray diffraction and chemical analysis
##URL=rruff.info/R040033
##MEASURED CHEMISTRY=(Ca_0.97_Fe^3+^_0.03_)_Σ=1_(Ti_0.97_Al_0.03_)_Σ=1_Si_1.00_O_5_; Fe^3+^ assigned for charge balance
##PIN_ID=L00086
##ORIENTATION=Laser parallel to a [1 0 0]. Fiducial mark perpendicular to laser is parallel to b* (0 1 0)
51.466, 0.000
52.866, 71.292
54.266, 99.174
55.666, 144.932
57.065, 159.724
58.464, 154.125
59.863, 79.999
61.262, 8.478
62.661, 24.891
64.059, 66.610
65.458, 53.152
66.856, 22.037
68.253, 99.541
69.651, 210.979
71.048, 342.008
72.445, 532.319
73.842, 718.664
75.239, 838.855
76.635, 1087.728
78.031, 1240.106
79.427, 1417.817
80.823, 1501.692
82.218, 1592.575
83.614, 1686.329
85.009, 1737.824
86.404, 1777.172
87.798, 1762.582
89.193, 1788.636
90.587, 1720.016
91.981, 1667.640
93.375, 1599.472
94.768, 1468.561
96.161, 1345.927
97.554, 1215.573
98.947, 1069.473
100.340, 996.537
101.732, 1012.659
103.124, 908.749
104.516, 936.729
105.908, 988.529
107.300, 945.091
108.691, 965.360
110.082, 972.291
111.473, 960.844
112.864, 1066.005
114.254, 1060.749
115.644, 1107.042
117.034, 1142.851
118.424, 1185.148
119.813, 1205.908
121.203, 1250.105
122.592, 1299.719
123.981, 1372.728
125.369, 1526.112
126.758, 1619.856
128.146, 1663.943
129.534, 1873.357
130.922, 1954.086
132.309, 2144.115
133.696, 2299.725
135.083, 2937.878
136.470, 3384.076
137.857, 4185.348
139.243, 4788.639
140.630, 5641.885
142.016, 6659.987
143.401, 8011.922
144.787, 8486.467
146.172, 7671.208
147.557, 6532.856
148.942, 5864.396
150.327, 5685.845
151.711, 6031.222
153.096, 6674.539
154.480, 7527.809
155.863, 8613.044
157.247, 9753.254
158.630, 10776.448
160.013, 11658.631
161.396, 12041.813
162.779, 12081.000
164.161, 11418.195
165.544, 10681.406
166.926, 9536.631
168.308, 8510.878
169.689, 7468.151
171.070, 6781.678
172.452, 6106.533
173.833, 5602.592
175.213, 5246.672
176.594, 4896.773
177.974, 4720.896
179.354, 4603.044
180.734, 4478.216
182.114, 4470.414
183.493, 4348.638
184.872, 4271.888
186.251, 4139.164
187.630, 3970.468
189.008, 3956.801
190.387, 3940.161
191.765, 3900.549
193.143, 4073.966
194.520, 4194.414
195.898, 4327.890
197.275, 4494.343
198.652, 4552.936
200.029, 4773.503
201.405, 4934.102
202.782, 4988.732
204.158, 5211.393
205.534, 5449.085
206.909, 5357.811
208.285, 5556.567
209.660, 5611.357
211.035, 5651.180
212.410, 5800.035
213.784, 5776.222
215.159, 5903.969
216.533, 6210.550
217.907, 6261.000
219.281, 6539.610
220.654, 6679.944
222.027, 7056.455
223.400, 7316.891
224.773, 7628.060
226.146, 8003.310
227.518, 8281.059
228.891, 8596.453
230.263, 8905.868
231.634, 9229.228
233.006, 9588.240
234.377, 9513.796
235.748, 9170.747
237.119, 8509.416
238.490, 8252.233
239.860, 8024.062
241.231, 8112.239
242.601, 8313.660
243.970, 8692.303
245.340, 9195.167
246.709, 9686.236
248.079, 10372.503
249.448, 10799.956
250.816, 11387.592
252.185, 11673.397
253.553, 11598.369
254.921, 11816.499
256.289, 11665.784
257.657, 11438.214
259.024, 10992.782
260.391, 10517.488
261.758, 9882.325
263.125, 9437.284
264.492, 8934.360
265.858, 8253.547
267.224, 7900.843
268.590, 7286.243
269.956, 7168.742
271.321, 6886.335
272.687, 6673.020
274.052, 6611.795
275.416, 6957.656
276.781, 7216.601
278.146, 7494.624
279.510, 8302.727
280.874, 9052.905
282.237, 10336.156
283.601, 11604.482
284.964, 13181.876
286.327, 15385.340
287.690, 17020.949
289.053, 18628.484
290.416, 19810.672
291.778, 19936.125
293.140, 19385.811
294.502, 17587.654
295.863, 15921.544
297.225, 13788.492
298.586, 12091.495
299.947, 10582.541
301.308, 9574.634
302.668, 8921.759
304.029, 8587.919
305.389, 8753.110
306.749, 8893.327
308.108, 9922.565
309.468, 10845.823
310.827, 12319.102
312.186, 13876.400
313.545, 15863.717
314.903, 17462.061
316.262, 18022.416
317.620, 18012.799
318.978, 16462.205
320.336, 14541.633
321.693, 12580.084
323.051, 10956.560
324.408, 9359.060
325.765, 8573.580
327.121, 7622.129
328.478, 7119.701
329.834, 6730.296
331.190, 6425.917
332.546, 5822.564
333.902, 5688.233
335.257, 5205.929
336.612, 4945.646
337.967, 4615.386
339.322, 4429.147
340.677, 4388.932
342.031, 4531.738
343.385, 4843.565
344.739, 5282.417
346.093, 5952.291
347.446, 6774.188
348.799, 7488.109
350.153, 8087.050
351.505, 8114.020
352.858, 7561.010
354.210, 6615.023
355.563, 5439.062
356.915, 4440.123
358.267, 3495.210
359.618, 2822.321
360.969, 2277.457
362.321, 1812.616
363.672, 1490.801
365.022, 1273.011
366.373, 978.246
367.723, 800.507
369.073, 594.792
370.423, 475.104
371.773, 192.441
373.122, 63.805
374.471, 74.818
375.821, 210.457
377.169, 258.159
378.518, 388.045
379.866, 478.234
381.215, 465.647
382.563, 531.273
383.910, 536.147
385.258, 521.269
386.605, 521.630
387.952, 569.230
389.299, 484.092
390.646, 575.173
391.992, 463.517
393.339, 467.068
394.685, 469.834
396.031, 405.824
397.376, 374.008
398.722, 177.369
400.067, 105.812
401.412, 26.697
402.757, 270.220
404.101, 584.797
405.446, 835.426
406.790, 1400.108
408.134, 2011.843
409.478, 2739.629
410.821, 3807.465
412.165, 4916.353
413.508, 6804.292
414.851, 8604.279
416.193, 10769.315
417.536, 13322.403
418.878, 15916.539
420.220, 17855.725
421.562, 19180.957
422.904, 19393.801
424.245, 19069.572
425.586, 17688.953
426.927, 15630.384
428.268, 12923.862
429.609, 10717.387
430.949, 8728.962
432.289, 7264.586
433.629, 5601.257
434.969, 4536.984
436.309, 3487.777
437.648, 2785.618
438.987, 2043.536
440.326, 1514.525
441.665, 1036.594
443.003, 734.761
444.342, 361.015
445.680, 210.383
447.018, 111.851
448.355, 140.569
449.693, 193.979
451.030, 187.406
452.367, 81.850
453.704, 141.265
455.041, 249.322
456.377, 387.003
457.713, 918.765
459.049, 1351.605
460.385, 2080.523
461.721, 2913.525
463.056, 3784.605
464.391, 4867.750
465.726, 6100.968
467.061, 6883.251
468.395, 7540.590
469.730, 7873.996
471.064, 7526.468
472.398, 7510.992
473.731, 6804.574
475.065, 6359.213
476.398, 5902.907
477.731, 5604.661
479.064, 5314.471
480.397, 5081.341
481.729, 4979.269
483.062, 4684.257
484.394, 4711.304
485.725, 4553.413
487.057, 4522.585
488.389, 4371.817
489.720, 4272.113
491.051, 4070.471
492.382, 4016.895
493.712, 3734.383
495.043, 3524.935
496.373, 3269.553
497.703, 3243.238
499.032, 2981.988
500.362, 2779.806
501.691, 2574.690
503.020, 2267.643
504.349, 2192.663
505.678, 1998.751
507.007, 1947.909
508.335, 1919.136
509.663, 1824.432
510.991, 1951.799
512.319, 1794.236
513.646, 1845.743
514.973, 1796.321
516.300, 1898.971
517.627, 1934.693
518.954, 1896.487
520.280, 2046.354
521.607, 2154.293
522.933, 2223.306
524.259, 2322.393
525.584, 2435.992
526.910, 2563.789
528.235, 2661.100
529.560, 2904.484
530.885, 3006.945
532.209, 3145.482
533.534, 3574.818
534.858, 3639.118
536.182, 3856.648
537.506, 3869.402
538.829, 4137.574
540.152, 4006.499
541.476, 3923.208
542.799, 3691.128
544.121, 3574.460
545.444, 3407.479
546.766, 3265.193
548.088, 3016.218
549.410, 2868.337
550.732, 2834.238
552.053, 3044.809
553.375, 3099.310
554.696, 3474.794
556.017, 4112.183
557.337, 4989.602
558.658, 6139.584
559.978, 7327.067
561.298, 9129.796
562.618, 10907.539
563.938, 12869.395
565.257, 14833.371
566.576, 15945.458
567.895, 17355.668
569.214, 18400.986
570.533, 18306.426
571.851, 18095.979
573.170, 18381.654
574.488, 17902.443
575.805, 17879.346
577.123, 17693.367
578.440, 18174.512
579.758, 18674.773
581.075, 18763.143
582.391, 20005.633
583.708, 20240.250
585.024, 21204.980
586.341, 22788.828
587.657, 23779.797
588.972, 25762.875
590.288, 26899.082
591.603, 28201.406
592.918, 30391.316
594.233, 32599.426
595.548, 34353.105
596.863, 36578.031
598.177, 38592.637
599.491, 41065.344
600.805, 42897.066
602.119, 44450.215
603.432, 45787.887
604.746, 47527.672
606.059, 47950.160
607.372, 48179.176
608.685, 48139.570
609.997, 47603.047
611.309, 46649.379
612.621, 45252.480
613.933, 44419.867
615.245, 42496.293
616.557, 41244.094
617.868, 38907.137
619.179, 37100.930
620.490, 35102.977
621.801, 33862.238
623.111, 31633.537
624.421, 30785.900
625.731, 28262.285
627.041, 27864.172
628.351, 25765.871
629.660, 24649.602
630.970, 23797.447
632.279, 22039.418
633.588, 21182.514
634.896, 19762.762
636.205, 19342.135
637.513, 17793.676
638.821, 17257.383
640.129, 16531.250
641.437, 15714.283
642.744, 15111.582
644.051, 14309.851
645.358, 13763.385
646.665, 13135.091
647.972, 12507.958
649.278, 12226.980
650.584, 11584.157
651.890, 11378.466
653.196, 10729.909
654.502, 10592.486
655.807, 9952.187
657.113, 9593.004
658.418, 9467.943
659.722, 8917.995
661.027, 8594.167
662.331, 8524.448
663.636, 8152.843
664.940, 7537.352
666.244, 7478.975
667.547, 7114.712
668.851, 7101.561
670.154, 6724.524
671.457, 6395.601
672.760, 6346.789
674.062, 5981.091
675.365, 5899.505
676.667, 5622.031
677.969, 5476.669
679.271, 5159.420
680.572, 4892.283
681.874, 5009.257
683.175, 4782.344
684.476, 4559.541
685.777, 4423.851
687.077, 4150.273
688.378, 4111.810
689.678, 4054.457
690.978, 3722.227
692.278, 3407.153
693.577, 3648.264
694.877, 3362.574
696.176, 3231.115
697.475, 3119.907
698.774, 3099.948
700.072, 2845.255
701.371, 2766.827
702.669, 2642.292
703.967, 2561.756
705.265, 2383.125
706.562, 2224.744
707.860, 2055.636
709.157, 1962.680
710.454, 1858.157
711.751, 1819.787
713.047, 1746.645
714.344, 1720.725
715.640, 1648.833
716.936, 1547.837
718.232, 1499.905
719.527, 1337.532
720.823, 1218.259
722.118, 1141.086
723.413, 1177.013
724.708, 1118.037
726.002, 1122.160
727.297, 1053.028
728.591, 950.698
729.885, 881.111
731.179, 821.621
732.472, 706.225
733.766, 707.923
735.059, 568.716
736.352, 623.602
737.645, 537.580
738.937, 415.650
740.230, 382.812
741.522, 321.016
742.814, 282.406
744.106, 244.840
745.397, 172.371
746.689, 109.996
747.980, 15.279
749.271, 110.463
750.562, 75.416
751.853, 145.586
753.143, 133.531
754.433, 155.425
755.723, 259.263
757.013, 200.095
758.303, 328.862
759.592, 247.641
760.881, 317.396
762.170, 305.161
763.459, 285.876
764.748, 275.512
766.036, 252.626
767.325, 247.643
768.613, 211.141
769.901, 143.634
771.188, 126.094
772.476, 127.524
773.763, 139.930
775.050, 120.026
776.337, 50.683
777.624, 72.003
778.910, 45.286
780.196, 30.477
781.482, 50.691
782.768, 15.818
784.054, 168.153
785.339, 182.271
786.625, 90.080
787.910, 263.876
789.195, 242.620
790.479, 279.063
791.764, 441.935
793.048, 422.440
794.332, 578.884
795.616, 668.725
796.900, 644.340
798.183, 715.360
799.467, 901.471
800.750, 1002.189
802.033, 1184.438
803.316, 1389.094
804.598, 1566.003
805.880, 1779.026
807.163, 1985.872
808.445, 2207.858
809.726, 2422.604
811.008, 2764.678
812.289, 3036.297
813.570, 3363.556
814.851, 3624.868
816.132, 3917.235
817.413, 4200.655
818.693, 4356.124
819.973, 4627.642
821.253, 4624.202
822.533, 4869.808
823.813, 5003.455
825.092, 5085.145
826.371, 5239.873
827.650, 5307.641
828.929, 5446.452
830.208, 5609.301
831.486, 5438.189
832.764, 5681.133
834.042, 5995.102
835.320, 6187.133
836.598, 6767.183
837.875, 7104.281
839.152, 7622.559
840.429, 8530.186
841.706, 9118.062
842.983, 10069.313
844.259, 11332.776
845.536, 12367.345
846.812, 13941.647
848.088, 15215.976
849.363, 17204.328
850.639, 19057.707
851.914, 20686.104
853.189, 22571.514
854.464, 24120.525
855.739, 26296.396
857.013, 27201.852
858.288, 28567.312
859.562, 30012.793
860.836, 31847.281
862.110, 33278.773
863.383, 36448.266
864.656, 39223.766
865.930, 43089.277
867.203, 47243.785
868.475, 50930.285
869.748, 53844.805
871.020, 56163.301
872.292, 56353.801
873.564, 55411.293
874.836, 53213.793
876.108, 50886.281
877.379, 49236.766
878.650, 46831.250
879.922, 44944.711
881.192, 43210.172
882.463, 41688.629
883.733, 39583.066
885.004, 37744.500
886.274, 35332.922
887.544, 32824.336
888.813, 29873.736
890.083, 26874.119
891.352, 24155.494
892.621, 21209.852
893.890, 19108.201
895.159, 16981.525
896.427, 15327.375
897.695, 14343.304
898.964, 13132.820
900.232, 12538.274
901.499, 12000.582
902.767, 12011.896
904.034, 11626.403
905.301, 12004.770
906.568, 12359.746
907.835, 12419.396
909.102, 12494.937
910.368, 12362.665
911.634, 11974.394
912.900, 11143.408
914.166, 9944.247
915.432, 8625.679
916.697, 7162.935
917.962, 6015.419
919.227, 4825.414
920.492, 3927.603
921.757, 3025.158
923.021, 2504.359
924.285, 1893.648
925.550, 1551.057
926.813, 1259.539
928.077, 1009.114
929.341, 799.562
930.604, 620.059
931.867, 425.581
933.130, 312.163
934.393, 309.328
935.655, 147.765
936.918, 140.251
938.180, 61.702
939.442, 66.101
940.703, 32.551
941.965, 8.703
943.226, 99.120
944.488, 108.072
945.749, 88.161
947.009, 125.375
948.270, 87.737
949.530, 124.227
950.791, 107.865
952.051, 131.645
953.311, 90.578
954.570, 47.135
955.830, 66.984
957.089, 19.434
958.348, 23.076
959.607, 21.732
960.866, 88.328
962.124, 124.386
963.383, 100.287
964.641, 253.790
965.899, 320.258
967.156, 349.640
968.414, 375.194
969.671, 504.577
970.928, 494.731
972.185, 563.101
973.442, 591.324
974.699, 633.304
975.955, 576.146
977.211, 515.151
978.468, 487.063
979.723, 455.439
980.979, 320.555
982.234, 379.451
983.490, 245.650
984.745, 268.407
986.000, 249.308
987.254, 261.147
988.509, 255.832
989.763, 224.978
991.017, 188.568
992.271, 168.724
993.525, 260.281
994.779, 223.565
996.032, 215.284
997.285, 345.497
998.538, 285.221
999.791, 382.772
1001.044, 391.505
1002.296, 522.617
1003.548, 463.475
1004.800, 594.119
1006.052, 588.722
1007.304, 584.252
1008.555, 691.724
1009.807, 758.138
1011.058, 785.495
1012.309, 799.792
1013.559, 821.288
1014.810, 821.555
1016.060, 822.335
1017.310, 809.398
1018.560, 798.402
1019.810, 779.347
1021.060, 893.231
1022.309, 825.057
1023.558, 885.823
1024.807, 831.528
1026.056, 791.172
1027.305, 775.758
1028.553, 736.249
1029.801, 743.745
1031.049, 691.148
1032.297, 678.490
1033.545, 669.771
1034.793, 628.490
1036.040, 603.150
1037.287, 568.247
1038.534, 562.283
1039.781, 534.258
1041.027, 538.170
1042.274, 442.021
1043.520, 379.810
1044.766, 365.537
1046.012, 262.201
1047.257, 165.799
1048.503, 198.320
1049.748, 79.767
1050.993, 112.124
1052.238, 61.400
1053.483, 21.399
1054.727, 10.675
1055.971, 66.664
1057.216, 4.417
1058.459, 16.413
1059.703, 121.816
1060.947, 33.186
1062.190, 54.624
1063.433, 30.158
1064.676, 63.759
1065.919, 95.448
1067.162, 25.755
1068.404, 21.089
1069.646, 40.994
1070.888, 55.028
1072.130, 73.013
1073.372, 173.936
1074.613, 238.807
1075.855, 271.634
1077.096, 412.422
1078.337, 588.175
1079.578, 698.890
1080.818, 763.563
1082.059, 862.190
1083.299, 1114.773
1084.539, 1224.307
1085.779, 1426.758
1087.018, 1587.071
1088.258, 1657.714
1089.497, 1652.385
1090.736, 1656.119
1091.975, 1649.165
1093.213, 1632.784
1094.452, 1522.774
1095.690, 1355.834
1096.928, 1132.502
1098.166, 898.400
1099.404, 753.915
1100.642, 534.338
1101.879, 381.158
1103.116, 208.454
1104.353, 229.336
1105.590, 168.897
1106.827, 129.470
1108.063, 29.145
1109.299, 24.950
1110.536, 61.409
1111.771, 0.190
1113.007, 17.648
1114.243, 16.829
1115.478, 21.062
1116.713, 5.796
1117.948, 12.928
1119.183, 24.816
1120.418, 83.636
1121.652, 95.395
1122.886, 119.091
1124.120, 129.729
1125.354, 104.624
1126.588, 109.907
1127.821, 58.289
1129.055, 74.686
1130.288, 94.021
1131.521, 59.296
1132.753, 10.494
1133.986, 0.361
1135.218, 0.442
1136.450, 87.697
1137.682, 40.629
1138.914, 85.356
1140.146, 129.707
1141.377, 73.782
1142.609, 99.460
1143.840, 159.898
1145.071, 93.204
1146.301, 144.747
1147.532, 158.236
1148.762, 129.673
1149.992, 219.057
1151.222, 266.392
1152.452, 329.680
1153.682, 299.923
1154.911, 470.121
1156.140, 467.274
1157.369, 644.384
1158.598, 695.449
1159.827, 907.470
1161.055, 989.447
1162.284, 1106.381
1163.512, 1206.271
1164.740, 1332.117
1165.967, 1339.921
1167.195, 1736.681
1168.422, 1824.397
1169.650, 2039.072
1170.877, 2454.702
1172.103, 2847.291
1173.330, 3451.837
1174.557, 4113.339
1175.783, 4709.801
1177.009, 5222.218
1178.235, 5834.597
1179.461, 5935.933
1180.686, 6057.229
1181.912, 5957.482
1183.137, 5431.695
1184.362, 4913.870
1185.587, 4353.001
1186.811, 3953.094
1188.036, 3473.148
1189.260, 3169.161
1190.484, 2937.136
1191.708, 2848.071
1192.932, 2714.968
1194.155, 2767.292
1195.378, 2832.478
1196.602, 3011.022
1197.825, 2949.574
1199.047, 2940.745
1200.270, 2941.774
1201.492, 2912.102
1202.715, 2727.390
1203.937, 2810.449
1205.159, 2723.795
1206.380, 2829.284
1207.602, 2866.232
1208.823, 3038.730
1210.044, 3275.868
1211.265, 3461.530
1212.486, 3588.069
1213.707, 3530.608
1214.927, 3489.294
1216.147, 3289.613
1217.367, 3128.998
1218.587, 2759.778
1219.807, 2542.841
1221.027, 2342.260
1222.246, 2126.525
1223.465, 2108.131
1224.684, 1953.348
1225.903, 2014.005
1227.121, 1935.725
1228.340, 2040.514
1229.558, 2032.366
1230.776, 2088.467
1231.994, 2083.878
1233.212, 2143.414
1234.429, 2110.771
1235.646, 2088.235
1236.864, 2183.319
1238.081, 2083.767
1239.297, 2126.819
1240.514, 2311.989
1241.730, 2255.292
1242.947, 2355.932
1244.163, 2397.169
1245.378, 2588.989
1246.594, 2563.169
1247.810, 2435.412
1249.025, 2456.248
1250.240, 2360.821
1251.455, 2272.158
1252.670, 2146.661
1253.885, 1990.689
1255.099, 1858.115
1256.313, 1674.536
1257.527, 1538.916
1258.741, 1399.384
1259.955, 1226.180
1261.168, 1108.948
1262.382, 1021.740
1263.595, 976.296
1264.808, 867.960
1266.021, 783.790
1267.233, 781.340
1268.446, 754.971
1269.658, 657.784
1270.870, 619.669
1272.082, 609.329
1273.294, 547.017
1274.505, 588.176
1275.716, 490.529
1276.928, 491.041
1278.139, 465.181
1279.349, 489.700
1280.560, 444.011
1281.770, 448.278
1282.981, 411.712
1284.191, 439.581
1285.401, 479.938
1286.610, 488.662
1287.820, 522.307
1289.029, 537.419
1290.239, 572.338
1291.448, 590.736
1292.656, 613.559
1293.865, 691.488
1295.073, 750.172
1296.282, 831.410
1297.490, 829.837
1298.698, 984.413
1299.906, 966.964
1301.113, 919.522
1302.320, 1038.068
1303.528, 958.604
1304.735, 973.130
1305.942, 964.627
1307.148, 1005.103
1308.355, 961.538
1309.561, 1011.930
1310.767, 925.261
1311.973, 994.558
1313.179, 945.841
1314.384, 1004.095
1315.590, 987.284
1316.795, 974.449
1318.000, 1028.587
1319.205, 1028.707
1320.410, 1091.818
1321.614, 1053.829
1322.819, 969.011
1324.023, 986.094
1325.227, 905.167
1326.431, 883.231
1327.634, 774.287
1328.838, 718.333
1330.041, 665.369
1331.244, 665.395
1332.447, 566.413
1333.650, 500.420
1334.852, 430.417
1336.055, 436.405
1337.257, 408.382
1338.459, 368.349
1339.661, 366.308
1340.862, 335.262
1342.064, 199.210
1343.265, 300.161
1344.466, 260.110
1345.667, 189.062
1346.868, 257.035
1348.068, 184.021
1349.269, 164.016
1350.469, 195.031
1351.669, 135.063
1352.869, 120.151
1354.069, 131.269
1355.268, 95.424
1356.468, 83.609
1357.667, 84.834
1358.866, 84.107
1360.065, 49.397
1361.263, 12.716
1362.462, 0.048
1363.660, 16.395
1364.858, 74.769
1366.056, 38.176
1367.254, 14.154
1368.451, 36.589
1369.649, 56.435
1370.846, 13.821
1372.043, 16.442
1373.240, 76.041
1374.436, 31.333
1375.633, 69.287
1376.829, 11.957
1378.025, 68.685
1379.221, 54.456
1380.417, 27.241
1381.613, 35.032
1382.808, 12.123
1384.003, 1.088
1385.199, 30.474
1386.393, 13.888
1387.588, 27.362
1388.783, 87.870
1389.977, 15.604
1391.171, 24.929
1392.365, 36.442
1393.559, 58.069
1394.753, 8.391
1395.946, 32.190
1397.140, 85.803
1398.333, 81.435
1399.526, 74.080
1400.719, 84.737
1401.911, 97.417
1403.104, 101.002
1404.296, 73.856
1405.488, 104.634
1406.680, 111.441
1407.872, 80.270
1409.063, 177.121
1410.255, 131.992
1411.446, 199.880
1412.637, 124.779
1413.828, 183.681
1415.018, 223.585
1416.209, 252.492
1417.399, 261.402
1418.589, 298.318
1419.779, 313.741
1420.969, 330.064
1422.159, 345.118
1423.348, 383.074
1424.537, 382.046
1425.726, 456.034
1426.915, 517.038
1428.104, 527.059
1429.293, 545.098
1430.481, 548.158
1431.669, 560.238
1432.857, 636.341
1434.045, 562.468
1435.233, 648.619
1436.420, 701.796
1437.608, 703.999
1438.795, 746.228
1439.982, 844.483
1441.169, 812.763
1442.355, 847.066
1443.542, 926.160
1444.728, 945.384
