##NAMES=Titanite
##RRUFFID=R040033
##IDEAL CHEMISTRY=CaTi^4+^SiO_5_
##LOCALITY=Brazil
##OWNER=RRUFF
##SOURCE=University of Arizona Mineral Museum
##DESCRIPTION=Green flattened wedge-shaped single crystals
##STATUS=The identification of this mineral has been confirmed by X-ray diffraction and chemical analysis
##URL=rruff.info/R040033
##MEASURED CHEMISTRY=(Ca_0.97_Fe^3+^_0.03_)_Σ=1_(Ti_0.97_Al_0.03_)_Σ=1_Si_1.00_O_5_; Fe^3+^ assigned for charge balance
##PIN_ID=L00108
##ORIENTATION=Laser parallel to c [0 0 1]. Fiducial mark perpendicular to laser is parallel to b* (0 1 0)
51.466, 0.000
52.866, 29.196
54.266, 38.964
55.666, 83.815
57.065, 45.768
58.464, 14.310
59.863, 27.674
61.262, 54.797
62.661, 132.444
64.059, 247.682
65.458, 487.972
66.856, 835.185
68.253, 1210.719
69.651, 1528.253
71.048, 1914.215
72.445, 2407.706
73.842, 2839.639
75.239, 3159.040
76.635, 3536.976
78.031, 3712.484
79.427, 3784.583
80.823, 3837.279
82.218, 3749.821
83.614, 3560.811
85.009, 3418.000
86.404, 3272.621
87.798, 3062.904
89.193, 2911.477
90.587, 2659.217
91.981, 2374.746
93.375, 2054.698
94.768, 1739.716
96.161, 1423.449
97.554, 1031.844
98.947, 815.853
100.340, 559.437
101.732, 407.562
103.124, 252.201
104.516, 262.327
105.908, 212.919
107.300, 112.958
108.691, 95.425
110.082, 28.306
111.473, 23.407
112.864, 2.335
114.254, 26.613
115.644, 21.524
117.034, 17.843
118.424, 83.254
119.813, 77.858
121.203, 99.995
122.592, 114.684
123.981, 70.943
125.369, 87.792
126.758, 47.245
128.146, 61.316
129.534, 6.979
130.922, 16.631
132.309, 29.626
133.696, 30.967
135.083, 109.221
136.470, 114.705
137.857, 285.305
139.243, 461.914
140.630, 554.585
142.016, 718.333
143.401, 844.168
144.787, 718.100
146.172, 650.136
147.557, 634.282
148.942, 656.263
150.327, 758.389
151.711, 856.444
153.096, 1112.083
154.480, 1347.851
155.863, 1653.748
157.247, 2056.781
158.630, 2412.952
160.013, 2744.264
161.396, 3091.723
162.779, 3458.326
164.161, 3694.078
165.544, 3920.973
166.926, 4138.016
168.308, 4431.196
169.689, 4724.862
171.070, 5203.469
172.452, 5416.493
173.833, 5816.775
175.213, 6242.247
176.594, 6356.635
177.974, 6747.506
179.354, 7028.544
180.734, 7172.639
182.114, 7283.794
183.493, 7517.010
184.872, 7422.294
186.251, 7423.643
187.630, 7057.061
189.008, 7070.551
190.387, 7109.114
191.765, 7037.752
193.143, 7415.469
194.520, 7375.265
195.898, 7900.139
197.275, 8054.094
198.652, 8419.134
200.029, 8431.254
201.405, 8545.461
202.782, 8499.750
204.158, 8597.122
205.534, 8527.584
206.909, 8321.127
208.285, 8289.756
209.660, 8265.478
211.035, 8131.284
212.410, 8099.178
213.784, 8161.162
215.159, 8095.982
216.533, 8281.043
217.907, 8429.625
219.281, 8574.827
220.654, 8791.797
222.027, 9005.336
223.400, 9195.480
224.773, 9407.015
226.146, 9395.939
227.518, 9507.124
228.891, 9291.566
230.263, 9104.247
231.634, 8979.157
233.006, 8602.291
234.377, 8298.637
235.748, 8012.180
237.119, 7716.905
238.490, 8027.813
239.860, 8027.905
241.231, 8401.176
242.601, 9032.623
243.970, 9515.248
245.340, 10087.049
246.709, 10496.022
248.079, 11223.146
249.448, 11252.427
250.816, 11364.829
252.185, 11332.304
253.553, 11090.852
254.921, 10851.950
256.289, 10452.310
257.657, 9949.275
259.024, 9307.391
260.391, 8574.667
261.758, 7828.098
263.125, 7240.684
264.492, 6420.420
265.858, 5708.307
267.224, 5166.340
268.590, 4438.519
269.956, 4101.840
271.321, 3580.304
272.687, 3178.908
274.052, 2721.650
275.416, 2709.530
276.781, 2585.970
278.146, 2461.084
279.510, 2551.366
280.874, 2699.342
282.237, 2984.882
283.601, 3150.527
284.964, 3554.500
286.327, 4109.563
287.690, 4475.494
289.053, 4920.227
290.416, 5120.593
291.778, 5071.716
293.140, 5167.604
294.502, 4845.246
295.863, 5118.020
297.225, 5278.699
298.586, 5698.774
299.947, 6484.927
301.308, 7029.823
302.668, 7945.165
304.029, 8980.623
305.389, 10293.005
306.749, 11992.483
308.108, 14767.052
309.468, 18136.713
310.827, 22905.473
312.186, 28131.320
313.545, 34091.266
314.903, 38294.301
316.262, 39787.430
317.620, 39170.656
318.978, 35613.980
320.336, 31561.381
321.693, 26880.887
323.051, 23022.480
324.408, 19569.170
325.765, 17304.951
327.121, 14892.825
328.478, 13458.792
329.834, 12442.849
331.190, 11677.995
332.546, 10801.240
333.902, 10330.572
335.257, 9523.993
336.612, 9091.499
337.967, 8611.084
339.322, 8068.746
340.677, 7531.479
342.031, 6972.280
343.385, 6632.152
344.739, 6200.091
346.093, 5768.100
347.446, 5424.182
348.799, 5053.331
350.153, 4647.241
351.505, 4328.841
352.858, 3870.200
354.210, 3524.632
355.563, 3166.134
356.915, 2846.707
358.267, 2583.351
359.618, 2277.066
360.969, 2087.854
362.321, 1841.711
363.672, 1666.641
365.022, 1427.642
366.373, 1146.714
367.723, 1007.859
369.073, 842.075
370.423, 589.363
371.773, 373.724
373.122, 287.157
374.471, 218.662
375.821, 94.761
377.169, 54.150
378.518, 181.537
379.866, 126.000
381.215, 61.450
382.563, 0.140
383.910, 26.798
385.258, 149.537
386.605, 316.382
387.952, 281.342
389.299, 412.407
390.646, 443.575
391.992, 636.847
393.339, 820.222
394.685, 1041.698
396.031, 1285.276
397.376, 1442.957
398.722, 1829.737
400.067, 2151.619
401.412, 2582.601
402.757, 3121.683
404.101, 3737.865
405.446, 4400.146
406.790, 5449.526
408.134, 6693.005
409.478, 8296.584
410.821, 10312.260
412.165, 12934.402
413.508, 15970.906
414.851, 19517.877
416.193, 23465.945
417.536, 27984.115
418.878, 32520.383
420.220, 35478.750
421.562, 36173.211
422.904, 36097.777
424.245, 33442.434
425.586, 29733.191
426.927, 25614.049
428.268, 20728.002
429.609, 16834.047
430.949, 13629.193
432.289, 11059.437
433.629, 8449.773
434.969, 6713.209
436.309, 5269.741
437.648, 4062.368
438.987, 3188.096
440.326, 2218.919
441.665, 1504.838
443.003, 1111.862
444.342, 653.982
445.680, 324.232
447.018, 40.376
448.355, 340.889
449.693, 564.445
451.030, 683.165
452.367, 743.084
453.704, 862.250
455.041, 785.700
456.377, 786.433
457.713, 749.449
459.049, 591.710
460.385, 441.148
461.721, 251.682
463.056, 93.617
464.391, 4.222
465.726, 247.757
467.061, 418.418
468.395, 587.185
469.730, 857.093
471.064, 1006.109
472.398, 1266.236
473.731, 1464.476
475.065, 1818.820
476.398, 2114.262
477.731, 2410.800
479.064, 2755.437
480.397, 3189.172
481.729, 3659.006
483.062, 3934.939
484.394, 4317.972
485.725, 4501.105
487.057, 4782.340
488.389, 4958.676
489.720, 5071.115
491.051, 5091.655
492.382, 5099.296
493.712, 5120.042
495.043, 4943.890
496.373, 4677.841
497.703, 4630.897
499.032, 4456.056
500.362, 4141.318
501.691, 3915.684
503.020, 3728.153
504.349, 3675.729
505.678, 3514.407
507.007, 3553.190
508.335, 3570.079
509.663, 3586.071
510.991, 3735.170
512.319, 3626.374
513.646, 3769.683
514.973, 3816.098
516.300, 4007.618
517.627, 4073.245
518.954, 3952.978
520.280, 4197.816
521.607, 4164.762
522.933, 4322.814
524.259, 4560.973
525.584, 4673.238
526.910, 5091.611
528.235, 5401.091
529.560, 5916.679
530.885, 6243.372
532.209, 6669.175
533.534, 7261.085
534.858, 7695.104
536.182, 8101.545
537.506, 8419.115
538.829, 8725.157
540.152, 8883.310
541.476, 9095.807
542.799, 8937.491
544.121, 9351.623
545.444, 9091.520
546.766, 9054.529
548.088, 9035.654
549.410, 8663.887
550.732, 8277.235
552.053, 7959.690
553.375, 7396.259
554.696, 6796.939
556.017, 6492.731
557.337, 6061.634
558.658, 5585.649
559.978, 5311.775
561.298, 5187.012
562.618, 4911.360
563.938, 4992.819
565.257, 5107.390
566.576, 5276.072
567.895, 5918.866
569.214, 6395.770
570.533, 6911.782
571.851, 7320.908
573.170, 8105.146
574.488, 8691.493
575.805, 9486.947
577.123, 10133.516
578.440, 11068.194
579.758, 12418.982
581.075, 13322.882
582.391, 14999.893
583.708, 15845.009
585.024, 17513.238
586.341, 19309.582
587.657, 21014.029
588.972, 23045.584
590.288, 24813.254
591.603, 26957.309
592.918, 28872.920
594.233, 31335.912
595.548, 33409.020
596.863, 35674.238
598.177, 37821.559
599.491, 40291.992
600.805, 42031.121
602.119, 43683.789
603.432, 45106.145
604.746, 46326.758
606.059, 46614.789
607.372, 46825.875
608.685, 46853.934
609.997, 46118.555
611.309, 44867.066
612.621, 43633.586
613.933, 42626.906
615.245, 41013.867
616.557, 39809.203
617.868, 37799.430
619.179, 36256.754
620.490, 34572.527
621.801, 33433.461
623.111, 31450.789
624.421, 30705.496
625.731, 28407.646
627.041, 27986.711
628.351, 25786.602
629.660, 24980.842
630.970, 24234.027
632.279, 22515.086
633.588, 21640.619
634.896, 20239.303
636.205, 19850.174
637.513, 18376.236
638.821, 17939.508
640.129, 17072.984
641.437, 16272.672
642.744, 15498.574
644.051, 14953.686
645.358, 14339.001
646.665, 13834.501
647.972, 13166.182
649.278, 12817.028
650.584, 12251.029
651.890, 12147.169
653.196, 11344.446
654.502, 11266.853
655.807, 10633.375
657.113, 10293.018
658.418, 10145.775
659.722, 9765.642
661.027, 9364.621
662.331, 9120.714
663.636, 8847.920
664.940, 8415.236
666.244, 8134.667
667.547, 7697.208
668.851, 7694.856
670.154, 7482.621
671.457, 7143.491
672.760, 7204.474
674.062, 6583.564
675.365, 6737.766
676.667, 6301.073
677.969, 6073.490
679.271, 5928.014
680.572, 5643.647
681.874, 5728.387
683.175, 5500.235
684.476, 5216.187
685.777, 5033.245
687.077, 4657.411
688.378, 4730.681
689.678, 4629.057
690.978, 4379.538
692.278, 4145.122
693.577, 4266.849
694.877, 3992.710
696.176, 4003.734
697.475, 3792.906
698.774, 3705.213
700.072, 3511.642
701.371, 3395.184
702.669, 3103.826
703.967, 3087.569
705.265, 3173.411
706.562, 2889.354
707.860, 2683.394
709.157, 2764.531
710.454, 2503.767
711.751, 2479.099
713.047, 2293.526
714.344, 2187.050
715.640, 2131.669
716.936, 2021.119
718.232, 1942.330
719.527, 1895.090
720.823, 1784.084
722.118, 1729.169
723.413, 1678.348
724.708, 1522.617
726.002, 1517.976
727.297, 1259.425
728.591, 1494.963
729.885, 1412.591
731.179, 1231.307
732.472, 1086.109
733.766, 1162.999
735.059, 1060.977
736.352, 993.039
737.645, 1029.186
738.937, 967.417
740.230, 753.733
741.522, 665.132
742.814, 687.614
744.106, 793.178
745.397, 507.824
746.689, 477.550
747.980, 437.356
749.271, 312.242
750.562, 279.207
751.853, 68.250
753.143, 158.371
754.433, 24.570
755.723, 21.158
757.013, 17.180
758.303, 127.408
759.592, 189.969
760.881, 245.528
762.170, 228.080
763.459, 190.547
764.748, 272.861
766.036, 222.032
767.325, 310.024
768.613, 161.845
769.901, 171.452
771.188, 246.848
772.476, 199.077
773.763, 244.160
775.050, 167.155
776.337, 48.075
777.624, 76.909
778.910, 138.691
780.196, 37.472
781.482, 195.209
782.768, 47.974
784.054, 52.257
785.339, 68.908
786.625, 13.143
787.910, 58.748
789.195, 74.239
790.479, 122.791
791.764, 226.719
793.048, 196.647
794.332, 232.324
795.616, 286.768
796.900, 389.660
798.183, 358.628
799.467, 419.708
800.750, 446.607
802.033, 492.646
803.316, 595.484
804.598, 537.417
805.880, 645.338
807.163, 808.645
808.445, 682.210
809.726, 859.805
811.008, 955.388
812.289, 1083.669
813.570, 1145.989
814.851, 1358.350
816.132, 1602.751
817.413, 1687.189
818.693, 2074.667
819.973, 2348.187
821.253, 2618.742
822.533, 3054.329
823.813, 3279.950
825.092, 3706.602
826.371, 4151.289
827.650, 4554.010
828.929, 4921.677
830.208, 5282.565
831.486, 5629.396
832.764, 6033.255
834.042, 6415.149
835.320, 6840.078
836.598, 7445.032
837.875, 7880.015
839.152, 8403.028
840.429, 9379.081
841.706, 9692.171
842.983, 10304.292
844.259, 11210.436
845.536, 11708.617
846.812, 12824.812
848.088, 13529.040
849.363, 14454.289
850.639, 15320.553
851.914, 15848.828
853.189, 16761.117
854.464, 17312.414
855.739, 18156.717
857.013, 18411.027
858.288, 18501.340
859.562, 19414.652
860.836, 19936.971
862.110, 20282.289
863.383, 21713.594
864.656, 22726.900
865.930, 24194.207
867.203, 25639.516
868.475, 26912.809
869.748, 27361.107
871.020, 27490.395
872.292, 26462.670
873.564, 24499.945
874.836, 22425.211
876.108, 19923.471
877.379, 18123.715
878.650, 16016.949
879.922, 14377.176
881.192, 12950.392
882.463, 11963.590
883.733, 10962.780
885.004, 10237.952
886.274, 9438.110
887.544, 9080.257
888.813, 8183.384
890.083, 7483.498
891.352, 6826.591
892.621, 6114.668
893.890, 5646.725
895.159, 5354.763
896.427, 4924.782
897.695, 4992.779
898.964, 5012.754
900.232, 5196.708
901.499, 5605.640
902.767, 6137.546
904.034, 6805.430
905.301, 7645.288
906.568, 8723.120
907.835, 9651.928
909.102, 10653.124
910.368, 11428.103
911.634, 11756.607
912.900, 11506.336
914.166, 11009.299
915.432, 9851.360
916.697, 8505.591
917.962, 7323.027
919.227, 6078.117
920.492, 4829.072
921.757, 4003.883
923.021, 3219.835
924.285, 2614.647
925.550, 2030.520
926.813, 1568.667
928.077, 1247.475
929.341, 1015.400
930.604, 801.724
931.867, 549.808
933.130, 461.534
934.393, 423.424
935.655, 184.571
936.918, 150.443
938.180, 37.438
939.442, 46.389
940.703, 37.646
941.965, 100.038
943.226, 151.595
944.488, 181.348
945.749, 207.182
947.009, 217.505
948.270, 206.930
949.530, 222.394
950.791, 174.792
952.051, 122.566
953.311, 91.443
954.570, 38.989
955.830, 7.207
957.089, 71.331
958.348, 64.024
959.607, 153.783
960.866, 217.570
962.124, 324.032
963.383, 439.832
964.641, 605.167
965.899, 685.419
967.156, 795.608
968.414, 876.632
969.671, 989.019
970.928, 1080.185
972.185, 1213.317
973.442, 1259.562
974.699, 1389.259
975.955, 1374.679
977.211, 1390.163
978.468, 1467.125
979.723, 1508.089
980.979, 1455.614
982.234, 1748.069
983.490, 1643.356
984.745, 1807.330
986.000, 1992.942
987.254, 2009.146
988.509, 2195.210
989.763, 2268.421
991.017, 2434.320
992.271, 2437.124
993.525, 2414.402
994.779, 2427.336
996.032, 2298.452
997.285, 2256.568
998.538, 2136.352
999.791, 2152.434
1001.044, 2025.557
1002.296, 1996.313
1003.548, 2011.146
1004.800, 1982.382
1006.052, 1997.267
1007.304, 2014.851
1008.555, 2059.004
1009.807, 2081.841
1011.058, 2165.507
1012.309, 2205.107
1013.559, 2216.640
1014.810, 2209.108
1016.060, 2258.508
1017.310, 2326.841
1018.560, 2295.106
1019.810, 2439.305
1021.060, 2521.436
1022.309, 2530.499
1023.558, 2522.495
1024.807, 2443.423
1026.056, 2433.283
1027.305, 2394.074
1028.553, 2339.798
1029.801, 2235.452
1031.049, 2229.038
1032.297, 2155.555
1033.545, 2131.004
1034.793, 2095.282
1036.040, 2057.694
1037.287, 2010.936
1038.534, 1942.108
1039.781, 1867.210
1041.027, 1675.244
1042.274, 1634.207
1043.520, 1565.102
1044.766, 1460.926
1046.012, 1212.680
1047.257, 1119.365
1048.503, 1125.980
1049.748, 923.524
1050.993, 921.999
1052.238, 792.404
1053.483, 711.739
1054.727, 626.003
1055.971, 632.197
1057.216, 535.321
1058.459, 540.375
1059.703, 464.365
1060.947, 447.282
1062.190, 401.150
1063.433, 379.978
1064.676, 350.777
1065.919, 309.542
1067.162, 350.260
1068.404, 351.956
1069.646, 276.616
1070.888, 371.255
1072.130, 291.847
1073.372, 295.389
1074.613, 341.898
1075.855, 360.368
1077.096, 400.810
1078.337, 458.211
1079.578, 524.548
1080.818, 588.832
1082.059, 614.075
1083.299, 656.259
1084.539, 752.417
1085.779, 845.073
1087.018, 895.075
1088.258, 923.635
1089.497, 865.052
1090.736, 878.861
1091.975, 855.598
1093.213, 746.948
1094.452, 789.285
1095.690, 606.862
1096.928, 487.659
1098.166, 391.993
1099.404, 302.237
1100.642, 185.354
1101.879, 161.640
1103.116, 93.764
1104.353, 63.062
1105.590, 57.238
1106.827, 34.408
1108.063, 21.164
1109.299, 14.367
1110.536, 28.041
1111.771, 4.431
1113.007, 28.088
1114.243, 8.676
1115.478, 12.203
1116.713, 13.655
1117.948, 10.039
1119.183, 14.653
1120.418, 17.570
1121.652, 81.720
1122.886, 40.803
1124.120, 57.820
1125.354, 8.234
1126.588, 7.633
1127.821, 20.575
1129.055, 30.868
1130.288, 14.253
1131.521, 37.281
1132.753, 26.255
1133.986, 21.876
1135.218, 27.419
1136.450, 14.356
1137.682, 19.210
1138.914, 64.146
1140.146, 48.186
1141.377, 25.323
1142.609, 20.543
1143.840, 41.844
1145.071, 4.236
1146.301, 39.700
1147.532, 8.253
1148.762, 48.120
1149.992, 77.429
1151.222, 59.675
1152.452, 121.859
1153.682, 155.163
1154.911, 182.053
1156.140, 265.070
1157.369, 324.036
1158.598, 384.955
1159.827, 473.827
1161.055, 562.653
1162.284, 670.433
1163.512, 687.167
1164.740, 856.856
1165.967, 838.500
1167.195, 1124.098
1168.422, 1213.652
1169.650, 1486.161
1170.877, 1755.625
1172.103, 2122.046
1173.330, 2505.423
1174.557, 2949.756
1175.783, 3561.046
1177.009, 3874.291
1178.235, 4348.494
1179.461, 4424.653
1180.686, 4463.771
1181.912, 4355.844
1183.137, 3940.875
1184.362, 3543.864
1185.587, 3085.810
1186.811, 2770.715
1188.036, 2433.577
1189.260, 2226.399
1190.484, 2130.180
1191.708, 2122.922
1192.932, 2129.625
1194.155, 2250.288
1195.378, 2289.909
1196.602, 2454.492
1197.825, 2381.034
1199.047, 2448.538
1200.270, 2395.002
1201.492, 2351.428
1202.715, 2225.814
1203.937, 2264.163
1205.159, 2235.476
1206.380, 2251.750
1207.602, 2340.738
1208.823, 2431.552
1210.044, 2480.937
1211.265, 2516.103
1212.486, 2582.983
1213.707, 2523.474
1214.927, 2567.267
1216.147, 2413.032
1217.367, 2327.001
1218.587, 2181.844
1219.807, 2039.931
1221.027, 2071.029
1222.246, 1949.504
1223.465, 2064.093
1224.684, 2074.979
1225.903, 2125.276
1227.121, 2171.808
1228.340, 2324.492
1229.558, 2400.066
1230.776, 2475.780
1231.994, 2543.548
1233.212, 2671.247
1234.429, 2674.067
1235.646, 2796.774
1236.864, 2921.318
1238.081, 2971.065
1239.297, 3038.889
1240.514, 3236.885
1241.730, 3325.219
1242.947, 3437.290
1244.163, 3507.484
1245.378, 3623.821
1246.594, 3778.124
1247.810, 3678.465
1249.025, 3689.391
1250.240, 3482.919
1251.455, 3268.341
1252.670, 3059.758
1253.885, 2914.347
1255.099, 2576.427
1256.313, 2440.181
1257.527, 2245.164
1258.741, 2103.571
1259.955, 1915.606
1261.168, 1838.684
1262.382, 1718.149
1263.595, 1558.416
1264.808, 1539.747
1266.021, 1428.258
1267.233, 1394.012
1268.446, 1308.387
1269.658, 1233.837
1270.870, 1273.758
1272.082, 1190.544
1273.294, 1141.778
1274.505, 1068.954
1275.716, 1061.366
1276.928, 1013.838
1278.139, 966.388
1279.349, 925.603
1280.560, 957.715
1281.770, 896.176
1282.981, 1017.690
1284.191, 983.091
1285.401, 974.405
1286.610, 987.746
1287.820, 1045.593
1289.029, 1051.676
1290.239, 1127.612
1291.448, 1215.478
1292.656, 1296.595
1293.865, 1415.201
1295.073, 1448.766
1296.282, 1529.489
1297.490, 1639.043
1298.698, 1644.159
1299.906, 1732.662
1301.113, 1780.231
1302.320, 1780.184
1303.528, 1818.362
1304.735, 1786.618
1305.942, 1796.864
1307.148, 1808.165
1308.355, 1791.382
1309.561, 1828.578
1310.767, 1773.759
1311.973, 1845.919
1313.179, 1844.063
1314.384, 1910.181
1315.590, 1935.259
1316.795, 1908.451
1318.000, 1867.461
1319.205, 1990.512
1320.410, 1966.458
1321.614, 1933.401
1322.819, 1904.442
1324.023, 1827.264
1325.227, 1759.871
1326.431, 1686.058
1327.634, 1585.810
1328.838, 1476.546
1330.041, 1395.264
1331.244, 1294.737
1332.447, 1218.673
1333.650, 1127.440
1334.852, 1074.182
1336.055, 1030.561
1337.257, 952.337
1338.459, 915.917
1339.661, 879.586
1340.862, 829.242
1342.064, 769.774
1343.265, 797.351
1344.466, 733.006
1345.667, 720.474
1346.868, 679.007
1348.068, 707.588
1349.269, 636.524
1350.469, 686.965
1351.669, 635.334
1352.869, 574.755
1354.069, 536.089
1355.268, 487.411
1356.468, 482.722
1357.667, 441.864
1358.866, 381.289
1360.065, 385.542
1361.263, 341.777
1362.462, 307.002
1363.660, 309.341
1364.858, 274.018
1366.056, 224.174
1367.254, 245.314
1368.451, 159.446
1369.649, 148.553
1370.846, 142.641
1372.043, 98.828
1373.240, 115.826
1374.436, 72.898
1375.633, 50.838
1376.829, 60.063
1378.025, 23.893
1379.221, 47.557
1380.417, 18.945
1381.613, 42.816
1382.808, 30.554
1384.003, 2.261
1385.199, 9.063
1386.393, 7.574
1387.588, 0.192
1388.783, 9.201
1389.977, 14.605
1391.171, 52.008
1392.365, 8.598
1393.559, 3.821
1394.753, 8.240
1395.946, 49.631
1397.140, 18.020
1398.333, 9.396
1399.526, 46.740
1400.719, 3.027
1401.911, 6.719
1403.104, 28.490
1404.296, 68.657
1405.488, 14.268
1406.680, 37.735
1407.872, 31.330
1409.063, 22.461
1410.255, 3.375
1411.446, 2.814
1412.637, 12.984
1413.828, 30.217
1415.018, 29.412
1416.209, 28.599
1417.399, 23.779
1418.589, 53.954
1419.779, 38.123
1420.969, 40.809
1422.159, 2.551
1423.348, 31.609
1424.537, 26.769
1425.726, 28.930
1426.915, 34.095
1428.104, 48.265
1429.293, 77.439
1430.481, 63.609
1431.669, 70.786
1432.857, 43.970
1434.045, 42.164
1435.233, 42.866
1436.420, 75.581
1437.608, 56.804
1438.795, 88.044
1439.982, 118.303
1441.169, 81.583
1442.355, 54.886
1443.542, 126.212
1444.728, 85.556
1445.914, 88.929
