##NAMES=Titanite
##RRUFFID=R050039
##IDEAL CHEMISTRY=CaTi^4+^SiO_5_
##LOCALITY=Kingman, Arizona, USA
##OWNER=RRUFF
##SOURCE=University of Arizona Mineral Museum
##DESCRIPTION=Black fragment from a single crystal
##STATUS=The identification of this mineral has been confirmed by X-ray diffraction and chemical analysis
##URL=rruff.info/R050039
##MEASURED CHEMISTRY=(Ca_0.95_Y_0.05_)(Ti_0.85_Al_0.10_Fe^3+^_0.06_)Si_1.00_O_4_(O_0.93_F_0.07_)
##PIN_ID=L00107
##ORIENTATION=Laser parallel to (-1 0 -1). Fiducial mark perpendicular to laser is parallel to b [0 1 0]
77.813, 0.000
79.208, 49.285
80.602, 115.141
81.996, 134.189
83.390, 151.076
84.784, 361.049
86.178, 232.047
87.571, 524.350
88.964, 530.846
90.357, 1016.201
91.749, 1436.240
93.142, 1567.637
94.534, 2067.680
95.926, 2344.172
97.318, 2295.322
98.709, 2169.645
100.101, 2455.918
101.492, 2773.033
102.883, 2419.990
104.273, 2255.900
105.664, 2489.988
107.054, 2821.576
108.444, 2730.070
109.834, 3134.943
111.223, 3035.762
112.613, 3072.164
114.002, 3243.846
115.391, 2970.520
116.780, 2681.920
118.168, 2757.812
119.556, 2608.156
120.944, 2552.674
122.332, 2670.955
123.720, 2762.680
125.107, 2687.584
126.495, 2775.451
127.882, 2556.094
129.268, 2969.354
130.655, 2975.090
132.041, 2813.178
133.427, 3153.504
134.813, 3275.969
136.199, 3450.484
137.584, 3396.959
138.970, 4105.316
140.355, 4165.500
141.740, 4207.512
143.124, 4771.396
144.509, 4877.193
145.893, 5324.945
147.277, 5604.656
148.660, 6276.283
150.044, 6399.744
151.427, 7314.949
152.810, 7591.814
154.193, 7360.264
155.576, 8340.223
156.958, 8191.641
158.341, 8715.410
159.723, 8692.689
161.105, 9132.223
162.486, 9501.293
163.867, 9230.029
165.249, 9728.699
166.630, 9407.438
168.010, 10006.352
169.391, 9655.523
170.771, 10145.029
172.151, 10154.908
173.531, 10085.215
174.911, 10415.973
176.290, 10557.219
177.669, 11148.977
179.049, 10811.252
180.427, 11134.064
181.806, 11217.426
183.184, 11001.344
184.562, 11325.814
185.940, 11560.848
187.318, 11696.443
188.696, 12022.510
190.073, 12419.312
191.450, 12576.578
192.827, 12683.559
194.204, 12972.766
195.580, 12671.676
196.956, 13251.121
198.332, 12971.090
199.708, 13641.590
201.084, 14392.715
202.459, 14665.000
203.834, 14798.719
205.209, 15224.094
206.584, 15571.230
207.958, 15650.172
209.333, 15771.029
210.707, 16133.553
212.081, 16888.172
213.454, 17044.098
214.828, 17171.314
216.201, 18169.480
217.574, 18148.270
218.947, 18387.426
220.320, 18966.779
221.692, 18646.273
223.064, 19155.916
224.436, 19125.699
225.808, 18955.621
227.179, 19365.680
228.551, 19095.865
229.922, 19566.184
231.293, 19166.619
232.663, 19177.176
234.034, 19127.838
235.404, 18638.963
236.774, 19634.768
238.144, 19040.955
239.514, 19932.801
240.883, 20323.275
242.252, 20659.092
243.621, 21219.506
244.990, 21357.600
246.359, 21789.373
247.727, 21800.070
249.095, 22057.674
250.463, 22347.514
251.831, 21919.365
253.198, 22143.006
254.566, 21558.295
255.933, 21875.088
257.299, 21053.275
258.666, 20982.746
260.033, 20123.416
261.399, 19115.211
262.765, 18838.053
264.131, 18071.893
265.496, 17536.664
266.862, 16752.312
268.227, 16318.805
269.592, 15816.078
270.957, 15064.113
272.321, 14472.867
273.685, 13512.301
275.050, 13652.393
276.413, 12183.113
277.777, 12334.430
279.141, 11586.328
280.504, 11098.775
281.867, 11001.750
283.230, 10435.230
284.592, 10019.197
285.955, 9823.633
287.317, 9198.518
288.679, 9213.828
290.041, 9189.559
291.403, 8995.691
292.764, 8672.215
294.125, 8869.113
295.486, 8776.375
296.847, 8823.992
298.207, 8801.949
299.568, 9180.238
300.928, 9318.850
302.288, 8997.771
303.647, 8977.000
305.007, 9786.520
306.366, 9496.326
307.725, 9796.410
309.084, 10016.754
310.443, 10307.365
311.801, 9978.219
313.159, 10449.312
314.517, 10430.637
315.875, 10452.180
317.233, 10623.938
318.590, 10465.902
319.947, 10688.098
321.304, 10636.000
322.661, 10560.061
324.018, 10328.305
325.374, 10323.973
326.730, 10190.002
328.086, 10132.699
329.442, 10003.973
330.797, 10050.508
332.153, 9899.215
333.508, 9913.449
334.863, 9554.379
336.217, 9496.465
337.572, 9256.041
338.926, 9124.842
340.280, 9003.578
341.634, 8677.953
342.988, 8510.373
344.341, 8529.637
345.694, 8195.131
347.047, 8757.496
348.400, 8063.604
349.753, 8487.398
351.105, 8110.631
352.457, 8379.258
353.809, 8091.576
355.161, 8167.348
356.512, 8227.551
357.864, 8014.998
359.215, 8141.561
360.566, 7837.010
361.916, 8172.500
363.267, 7808.033
364.617, 7773.602
365.967, 7679.203
367.317, 7264.828
368.667, 7060.473
370.016, 6246.123
371.366, 6431.773
372.715, 5767.418
374.064, 5273.047
375.412, 4998.648
376.761, 4044.217
378.109, 3769.748
379.457, 3185.234
380.805, 2440.674
382.152, 2096.064
383.500, 1611.406
384.847, 1346.697
386.194, 871.934
387.541, 437.119
388.887, 352.252
390.233, 7.328
391.580, 157.656
392.926, 502.727
394.271, 497.947
395.617, 583.324
396.962, 738.881
398.307, 614.654
399.652, 870.746
400.997, 627.307
402.341, 564.346
403.686, 471.891
405.030, 60.184
406.374, 242.385
407.717, 694.727
409.061, 647.191
410.404, 1179.783
411.747, 1972.471
413.090, 2235.242
414.433, 3008.092
415.775, 3081.008
417.117, 3903.982
418.459, 3717.008
419.801, 3900.076
421.143, 4473.186
422.484, 3956.328
423.825, 4039.496
425.166, 3952.688
426.507, 3565.896
427.848, 3629.119
429.188, 3172.348
430.528, 3045.584
431.868, 2838.820
433.208, 2562.057
434.547, 2275.281
435.887, 2128.500
437.226, 1891.707
438.565, 1774.895
439.904, 1838.066
441.242, 1711.213
442.580, 1604.340
443.918, 1787.438
445.256, 1280.510
446.594, 1783.547
447.932, 1606.551
449.269, 1639.520
450.606, 1792.451
451.943, 1955.342
453.280, 2198.191
454.616, 2540.996
455.952, 2615.574
457.288, 2726.465
458.624, 2809.129
459.960, 2831.742
461.295, 2834.307
462.631, 3146.818
463.966, 2959.275
465.300, 2961.680
466.635, 2614.035
467.969, 3106.334
469.304, 2588.578
470.638, 2510.770
471.972, 2092.906
473.305, 1654.988
474.639, 1307.014
475.972, 978.986
477.305, 930.906
478.638, 522.770
479.970, 384.578
481.303, 156.326
482.635, 297.949
483.967, 370.512
485.298, 319.352
486.630, 298.557
487.961, 808.113
489.293, 538.285
490.624, 648.934
491.954, 680.119
493.285, 921.859
494.615, 704.281
495.945, 897.277
497.275, 970.949
498.605, 815.340
499.935, 810.363
501.264, 1056.023
502.593, 862.449
503.922, 809.537
505.251, 587.264
506.579, 695.510
507.908, 594.336
509.236, 383.686
510.564, 373.453
511.891, 123.631
513.219, 15.775
514.546, 74.799
515.873, 234.236
517.200, 343.146
518.527, 391.969
519.853, 680.707
521.180, 939.387
522.506, 1098.006
523.832, 1353.967
525.157, 1635.064
526.483, 1773.506
527.808, 2021.887
529.133, 2240.211
530.458, 2358.477
531.783, 2806.684
533.107, 2764.836
534.431, 3232.932
535.756, 3240.969
537.079, 3338.953
538.403, 3486.885
539.727, 3704.760
541.050, 3892.584
542.373, 4031.303
543.696, 4138.074
545.018, 4215.742
546.341, 4283.361
547.663, 4160.930
548.985, 4248.449
550.307, 4225.586
551.629, 4098.613
552.950, 3656.291
554.271, 3803.797
555.592, 3776.619
556.913, 3890.525
558.234, 4150.723
559.554, 4156.549
560.875, 4115.186
562.195, 4266.834
563.514, 5043.080
564.834, 5100.156
566.154, 5917.207
567.473, 6324.236
568.792, 7101.244
570.111, 8108.230
571.429, 8465.195
572.748, 9752.133
574.066, 10429.053
575.384, 10835.949
576.702, 11402.824
578.019, 12539.680
579.337, 12816.516
580.654, 13643.328
581.971, 14250.121
583.288, 14616.895
584.605, 14793.652
585.921, 15500.385
587.237, 15937.105
588.553, 16103.801
589.869, 16800.484
591.185, 16957.146
592.500, 17103.795
593.815, 17610.426
595.130, 18227.047
596.445, 19063.652
597.760, 18630.236
599.074, 19246.811
600.389, 19383.377
601.703, 20249.924
603.016, 20496.467
604.330, 20652.992
605.644, 20979.514
606.957, 21416.020
608.270, 21552.516
609.583, 22019.010
610.895, 22045.500
612.208, 22481.977
613.520, 22328.469
614.832, 23064.961
616.144, 23361.490
617.455, 22418.133
618.767, 23234.883
620.078, 23481.812
621.389, 22698.883
622.700, 24036.178
624.011, 23263.662
625.321, 23641.387
626.631, 23099.314
627.941, 24147.469
629.251, 23595.826
630.561, 23454.463
631.870, 23853.377
633.180, 23352.484
634.489, 23081.879
635.798, 23681.475
637.106, 23191.242
638.415, 23481.199
639.723, 23335.764
641.031, 23024.518
642.339, 23209.322
643.647, 23166.916
644.954, 22905.508
646.261, 22773.672
647.568, 22532.438
648.875, 22645.250
650.182, 22120.699
651.488, 21800.791
652.795, 21814.367
654.101, 21465.662
655.407, 21312.209
656.712, 20858.420
658.018, 21004.863
659.323, 20005.836
660.628, 20498.934
661.933, 19425.354
663.238, 19365.709
664.542, 19619.359
665.847, 18879.430
667.151, 18761.971
668.455, 18445.244
669.758, 18393.281
671.062, 17947.785
672.365, 17418.984
673.668, 17675.912
674.971, 17665.746
676.274, 16996.613
677.577, 16828.748
678.879, 16680.984
680.181, 16293.324
681.483, 15985.766
682.785, 16088.322
684.086, 15730.977
685.388, 15473.734
686.689, 15366.602
687.990, 15249.578
689.290, 14262.660
690.591, 15145.852
691.891, 14109.152
693.192, 14582.562
694.491, 14136.082
695.791, 13459.711
697.091, 13933.449
698.390, 13537.301
699.689, 12741.262
700.988, 13235.336
702.287, 12749.518
703.586, 12383.814
704.884, 12538.223
706.182, 11862.744
707.480, 12357.383
708.778, 11852.164
710.076, 11467.152
711.373, 11242.352
712.670, 10931.455
713.968, 10763.482
715.264, 10649.426
716.561, 10515.668
717.857, 10642.160
719.154, 9938.889
720.450, 10185.838
721.746, 9652.898
723.041, 9500.076
724.337, 9237.367
725.632, 9284.777
726.927, 8872.301
728.222, 8709.938
729.517, 8967.688
730.811, 7885.549
732.105, 8363.529
733.400, 7891.625
734.693, 7779.836
735.987, 7538.160
737.281, 7356.602
738.574, 7095.150
739.867, 7053.822
741.160, 6972.602
742.453, 6631.500
743.745, 6640.512
745.038, 6299.635
746.330, 6448.877
747.622, 5808.230
748.913, 5877.699
750.205, 5897.281
751.496, 5526.977
752.788, 5446.787
754.079, 5206.711
755.369, 5226.746
756.660, 4996.896
757.950, 4947.162
759.241, 4677.539
760.531, 4518.029
761.820, 4358.635
763.110, 4136.750
764.399, 4021.568
765.689, 3851.498
766.978, 3763.445
768.267, 3846.047
769.555, 3749.932
770.844, 3808.393
772.132, 3534.297
773.420, 3701.332
774.708, 3432.750
775.996, 3446.586
777.283, 3639.855
778.570, 3373.707
779.857, 3371.371
781.144, 3228.395
782.431, 3311.736
783.718, 3122.000
785.004, 3376.152
786.290, 3190.398
787.576, 3176.559
788.862, 3324.820
790.147, 2821.271
791.433, 2961.613
792.718, 3063.441
794.003, 2482.877
795.288, 2889.465
796.572, 2565.584
797.857, 2719.645
799.141, 2377.814
800.425, 2263.410
801.709, 2450.236
802.992, 1965.645
804.276, 2090.303
805.559, 1815.262
806.842, 1540.594
808.125, 1816.238
809.407, 1282.248
810.690, 1368.645
811.972, 1185.385
813.254, 1262.475
814.536, 1169.975
815.818, 1167.834
817.099, 1086.047
818.381, 1004.553
819.662, 783.385
820.943, 882.523
822.223, 581.920
823.504, 651.564
824.784, 441.402
826.065, 441.412
827.345, 491.600
828.624, 431.900
829.904, 422.287
831.183, 202.780
832.462, 163.363
833.741, 474.056
835.020, 214.862
836.299, 135.755
837.577, 386.757
838.856, 137.828
840.134, 268.956
841.412, 670.141
842.689, 611.369
843.967, 322.634
845.244, 503.927
846.521, 725.247
847.798, 586.593
849.075, 817.957
850.351, 889.336
851.628, 930.728
852.904, 1512.129
854.180, 1323.542
855.455, 1644.964
856.731, 1866.393
858.006, 2017.828
859.281, 2469.270
860.556, 2450.714
861.831, 2842.161
863.106, 3293.610
864.380, 3755.059
865.655, 3846.504
866.929, 4337.948
868.202, 4379.384
869.476, 5130.812
870.750, 5432.232
872.023, 5653.637
873.296, 5875.033
874.569, 6296.410
875.842, 6197.771
877.114, 6779.113
878.386, 6620.438
879.658, 6881.740
880.930, 7153.021
882.202, 7204.281
883.474, 7105.514
884.745, 6786.725
886.016, 6957.904
887.287, 7099.059
888.558, 6380.182
889.829, 6951.275
891.099, 6202.337
892.369, 6323.363
893.639, 5964.356
894.909, 5495.312
896.179, 5466.233
897.448, 4747.113
898.718, 4537.956
899.987, 4308.756
901.256, 3969.513
902.524, 3710.227
903.793, 3320.896
905.061, 2911.518
906.329, 2692.092
907.597, 2172.617
908.865, 2353.092
910.133, 1853.517
911.400, 1763.887
912.667, 1384.514
913.934, 1245.484
915.201, 1176.592
916.468, 597.896
917.734, 449.438
919.001, 340.693
920.267, 231.782
921.532, 112.785
922.798, 6.728
924.064, 276.097
925.329, 285.676
926.594, 506.640
927.859, 377.771
929.124, 679.521
930.388, 521.793
931.653, 734.512
932.917, 557.791
934.181, 651.542
935.445, 595.819
936.708, 810.596
937.972, 805.988
939.235, 511.998
940.498, 858.474
941.761, 505.599
943.024, 403.193
944.286, 581.204
945.548, 219.729
946.811, 328.578
948.072, 2.196
949.334, 42.763
950.596, 213.115
951.857, 484.660
953.118, 385.512
954.379, 687.294
955.640, 959.179
956.901, 1190.669
958.161, 1412.975
959.421, 1484.924
960.681, 2066.848
961.941, 2049.504
963.201, 2391.291
964.460, 2624.543
965.720, 2677.252
966.979, 3030.338
968.238, 3243.908
969.496, 3377.846
970.755, 3632.383
972.013, 4087.789
973.272, 4124.926
974.529, 4240.629
975.787, 4488.044
977.045, 4415.922
978.302, 4503.027
979.560, 4401.615
980.817, 4517.178
982.073, 4358.889
983.330, 4469.226
984.587, 4524.479
985.843, 4540.892
987.099, 4380.943
988.355, 4456.568
989.611, 4392.717
990.866, 4415.672
992.122, 4289.208
993.377, 4430.531
994.632, 4470.545
995.887, 4408.752
997.141, 4526.771
998.396, 4484.477
999.650, 4500.400
1000.904, 4525.970
1002.158, 4571.041
1003.412, 4455.957
1004.665, 4650.717
1005.918, 4325.320
1007.172, 4569.768
1008.425, 4214.057
1009.677, 4728.189
1010.930, 4462.164
1012.182, 4405.979
1013.434, 4519.633
1014.687, 4443.129
1015.938, 4286.463
1017.190, 4709.637
1018.441, 4072.647
1019.693, 4485.499
1020.944, 4188.188
1022.195, 4030.711
1023.445, 4213.072
1024.696, 3985.271
1025.946, 4157.304
1027.197, 4069.174
1028.446, 3610.879
1029.696, 3912.419
1030.946, 3503.793
1032.195, 3384.998
1033.445, 3596.039
1034.694, 3466.914
1035.942, 3337.620
1037.191, 3298.160
1038.440, 3338.530
1039.688, 3250.253
1040.936, 3220.447
1042.184, 3168.632
1043.432, 3078.328
1044.679, 3007.854
1045.927, 2887.212
1047.174, 2706.396
1048.421, 2795.413
1049.668, 2464.257
1050.914, 2392.931
1052.161, 2581.433
1053.407, 2319.764
1054.653, 1947.923
1055.899, 2165.909
1057.145, 1813.725
1058.391, 1851.367
1059.636, 1668.838
1060.881, 1756.135
1062.126, 1583.261
1063.371, 1490.211
1064.615, 1446.982
1065.860, 1388.963
1067.104, 1319.981
1068.348, 1375.862
1069.592, 1401.030
1070.836, 1405.479
1072.079, 1508.577
1073.323, 1437.033
1074.566, 1397.980
1075.809, 1717.729
1077.052, 1543.036
1078.294, 1875.862
1079.537, 1819.195
1080.779, 1621.896
1082.021, 1840.724
1083.263, 1810.137
1084.504, 1873.176
1085.746, 1939.238
1086.987, 1751.364
1088.228, 1933.373
1089.469, 1603.416
1090.710, 1671.357
1091.951, 1511.099
1093.191, 1256.907
1094.431, 1301.246
1095.671, 1177.927
1096.911, 967.457
1098.151, 957.463
1099.390, 999.667
1100.630, 637.862
1101.869, 778.766
1103.108, 528.679
1104.346, 480.184
1105.585, 552.646
1106.823, 334.991
1108.062, 397.234
1109.300, 379.359
1110.537, 251.358
1111.775, 363.237
1113.013, 154.988
1114.250, 206.597
1115.487, 148.067
1116.724, 89.396
1117.961, 50.573
1119.197, 19.185
1120.434, 2.985
1121.670, 26.880
1122.906, 6.403
1124.142, 36.111
1125.377, 46.018
1126.613, 36.249
1127.848, 62.491
1129.083, 16.966
1130.318, 117.679
1131.553, 98.631
1132.787, 179.812
1134.022, 201.264
1135.256, 102.998
1136.490, 194.960
1137.724, 47.197
1138.957, 0.368
1140.191, 12.237
1141.424, 34.979
1142.657, 142.046
1143.890, 378.973
1145.123, 385.776
1146.355, 422.454
1147.588, 809.007
1148.820, 855.451
1150.052, 1031.785
1151.284, 1478.012
1152.516, 1374.132
1153.747, 1810.145
1154.978, 2066.048
1156.209, 2271.844
1157.440, 2747.530
1158.671, 2933.109
1159.902, 3498.580
1161.132, 3663.941
1162.362, 4039.197
1163.592, 4444.344
1164.822, 4899.383
1166.052, 5114.314
1167.281, 5859.141
1168.511, 6023.860
1169.740, 6298.474
1170.969, 7042.980
1172.197, 7047.381
1173.426, 7571.676
1174.654, 7625.865
1175.883, 7779.947
1177.111, 7943.924
1178.338, 7787.797
1179.566, 7861.562
1180.794, 7725.225
1182.021, 7348.781
1183.248, 7422.232
1184.475, 7105.579
1185.702, 6894.104
1186.928, 6681.965
1188.155, 6445.002
1189.381, 6237.938
1190.607, 6090.770
1191.833, 5953.500
1193.059, 5776.138
1194.284, 5698.675
1195.509, 5531.110
1196.735, 5693.447
1197.960, 5415.686
1199.184, 5637.824
1200.409, 5409.863
1201.633, 5431.801
1202.858, 5333.668
1204.082, 5345.464
1205.306, 4967.189
1206.529, 5118.846
1207.753, 4920.432
1208.976, 4691.951
1210.199, 4713.098
1211.422, 4433.774
1212.645, 4544.193
1213.868, 4404.295
1215.090, 4274.033
1216.313, 4293.934
1217.535, 4033.870
1218.757, 4243.762
1219.978, 4154.028
1221.200, 3983.982
1222.421, 4233.901
1223.643, 4305.576
1224.864, 4337.188
1226.084, 4538.925
1227.305, 4353.060
1228.526, 4856.249
1229.746, 4979.574
1230.966, 4833.657
1232.186, 5247.824
1233.406, 5033.207
1234.625, 5375.824
1235.845, 5501.796
1237.064, 5439.550
1238.283, 5724.710
1239.502, 5793.853
1240.721, 5765.336
1241.939, 5872.326
1243.157, 6023.687
1244.376, 6011.051
1245.594, 5924.354
1246.811, 5881.298
1248.029, 5677.434
1249.247, 5618.287
1250.464, 5458.697
1251.681, 5430.504
1252.898, 5445.653
1254.115, 4834.771
1255.331, 5070.115
1256.548, 4753.138
1257.764, 4738.993
1258.980, 4531.448
1260.196, 4192.629
1261.411, 4204.372
1262.627, 4084.836
1263.842, 3794.917
1265.057, 3863.551
1266.272, 3751.344
1267.487, 3608.400
1268.702, 3682.982
1269.916, 3308.335
1271.130, 3382.400
1272.344, 3415.191
1273.558, 3184.866
1274.772, 3280.360
1275.986, 3114.990
1277.199, 3033.312
1278.412, 3422.846
1279.625, 3087.305
1280.838, 3130.444
1282.051, 3519.783
1283.263, 3243.385
1284.475, 3446.304
1285.687, 3542.246
1286.899, 3467.434
1288.111, 3704.628
1289.323, 3722.930
1290.534, 3782.814
1291.745, 3992.568
1292.957, 4102.154
1294.167, 4343.053
1295.378, 4293.984
1296.589, 4364.933
1297.799, 4645.625
1299.009, 4686.046
1300.219, 4876.230
1301.429, 4976.175
1302.639, 4875.938
1303.848, 5125.572
1305.057, 5365.074
1306.267, 5154.454
1307.476, 5313.717
1308.684, 5642.879
1309.893, 5401.934
1311.101, 5470.885
1312.310, 5559.727
1313.518, 5498.449
1314.725, 5627.049
1315.933, 5405.509
1317.141, 5533.824
1318.348, 5411.981
1319.555, 5429.977
1320.762, 5347.820
1321.969, 5255.521
1323.176, 5113.095
1324.382, 5005.471
1325.589, 4887.896
1326.795, 4745.137
1328.001, 4632.267
1329.206, 4509.290
1330.412, 4506.203
1331.617, 4423.006
1332.823, 4149.706
1334.028, 4166.312
1335.233, 3832.836
1336.437, 3769.279
1337.642, 3757.520
1338.846, 3423.826
1340.051, 3430.082
1341.255, 3136.301
1342.458, 2932.214
1343.662, 2988.313
1344.866, 2684.122
1346.069, 2719.166
1347.272, 2501.193
1348.475, 2283.211
1349.678, 2295.223
1350.880, 2147.230
1352.083, 1859.248
1353.285, 1911.287
1354.487, 1663.352
1355.689, 1545.440
1356.891, 1577.553
1358.093, 1229.668
1359.294, 1251.766
1360.495, 1223.824
1361.696, 935.830
1362.897, 817.726
1364.098, 869.433
1365.298, 630.868
1366.499, 732.020
1367.699, 462.938
1368.899, 443.594
1370.099, 493.988
1371.298, 74.144
1372.498, 214.117
1373.697, 223.949
1374.896, 133.665
1376.095, 143.322
1377.294, 32.940
1378.493, 100.435
1379.691, 22.264
1380.889, 174.922
1382.087, 128.955
1383.285, 29.821
1384.483, 223.453
1385.681, 16.267
1386.878, 55.672
1388.075, 148.371
1389.272, 81.943
1390.469, 38.537
1391.666, 144.961
1392.862, 50.460
1394.059, 58.964
1395.255, 83.463
1396.451, 46.054
1397.647, 48.402
1398.842, 19.176
1400.038, 160.796
1401.233, 3.536
1402.428, 214.191
1403.623, 175.984
1404.818, 157.857
1406.013, 249.822
1407.207, 221.889
1408.401, 404.072
1409.595, 426.380
1410.789, 358.825
1411.983, 501.422
1413.177, 624.182
1414.370, 487.086
1415.563, 750.177
1416.756, 863.468
1417.949, 756.980
1419.142, 1140.573
1420.335, 844.188
1421.527, 1177.829
1422.719, 1391.492
1423.911, 1035.178
1425.103, 1408.888
1426.295, 1382.629
1427.486, 1356.414
1428.677, 1658.804
1429.869, 1599.857
1431.060, 1583.049
1432.250, 1867.254
1433.441, 1697.232
1434.632, 1805.023
1435.822, 1864.734
1437.012, 1639.112
1438.202, 1906.241
1439.392, 1736.924
1440.581, 1682.612
1441.771, 1776.839
1442.960, 1807.279
1444.149, 1758.238
1445.338, 1781.645
