##NAMES=Titanite
##RRUFFID=R050124
##IDEAL CHEMISTRY=CaTi^4+^SiO_5_
##LOCALITY=Capelinha, Minas Gerais, Brazil
##OWNER=RRUFF
##SOURCE=Carlos and Paulo Vasconcelos
##DESCRIPTION=Yellow tabular crystal
##STATUS=The identification of this mineral has been confirmed by X-ray diffraction and chemical analysis
##URL=rruff.info/R050124
##MEASURED CHEMISTRY=Ca_1.00_(Ti_0.93_Al_0.05_Fe^3+^_0.02_)Si_1.00_O_4_(O)_1.00_
##PIN_ID=M00222
##ORIENTATION=Laser parallel to -b* (0 -1 0). Fiducial mark perpendicular to laser is parallel to -c [0 0 -1]
92.793, 0.000
94.188, 439.300
95.582, 155.624
96.976, 531.219
98.370, 109.809
99.764, 154.155
101.157, 98.035
102.550, 171.048
103.943, 298.869
105.336, 23.779
106.729, 413.682
108.121, 270.092
109.513, 494.426
110.905, 675.792
112.297, 773.433
113.688, 906.664
115.079, 702.860
116.470, 1039.854
117.861, 278.579
119.251, 211.571
120.642, 208.444
122.032, 58.843
123.422, 322.446
124.811, 228.966
126.201, 748.142
127.590, 719.742
128.979, 1353.559
130.367, 1639.438
131.756, 1287.539
133.144, 1728.452
134.532, 1052.353
135.920, 1308.873
137.307, 1147.657
138.695, 1178.412
140.082, 1480.900
141.469, 1514.924
142.856, 2460.315
144.242, 2176.929
145.628, 2664.642
147.014, 2173.345
148.400, 1872.946
149.786, 1473.363
151.171, 1144.519
152.556, 1796.352
153.941, 1908.800
155.325, 3491.813
156.710, 4645.343
158.094, 6879.348
159.478, 8873.784
160.862, 10738.616
162.245, 13053.812
163.629, 12789.338
165.012, 13225.167
166.395, 11771.396
167.777, 10538.830
169.160, 9539.272
170.542, 7715.445
171.924, 7748.207
173.306, 6636.248
174.687, 7205.629
176.068, 6844.070
177.449, 7211.594
178.830, 7588.230
180.211, 7484.055
181.591, 8449.048
182.972, 8023.400
184.351, 9187.183
185.731, 8700.446
187.111, 8683.240
188.490, 8265.602
189.869, 7577.568
191.248, 8519.168
192.626, 7700.431
194.005, 8491.380
195.383, 8702.035
196.761, 8972.418
198.139, 9952.543
199.516, 9422.423
200.893, 10942.073
202.271, 10341.504
203.647, 11510.723
205.024, 11929.742
206.400, 12688.570
207.777, 13957.213
209.152, 12945.673
210.528, 14763.964
211.904, 13792.089
213.279, 14330.051
214.654, 14447.854
216.029, 13825.505
217.403, 15002.999
218.778, 13810.339
220.152, 15767.521
221.526, 14564.552
222.900, 15971.423
224.273, 16278.147
225.646, 16164.719
227.019, 17621.139
228.392, 16387.414
229.765, 17673.537
231.137, 16779.514
232.509, 17125.350
233.881, 17401.037
235.253, 16046.582
236.625, 17041.988
237.996, 15708.347
239.367, 16540.695
240.738, 16005.658
242.108, 16722.912
243.479, 18587.043
244.849, 18490.463
246.219, 22351.020
247.589, 22811.301
248.958, 25731.773
250.328, 27389.721
251.697, 28338.391
253.065, 31039.201
254.434, 29489.027
255.803, 32054.637
257.171, 29266.529
258.539, 29330.809
259.906, 28264.932
261.274, 25238.783
262.641, 24553.164
264.008, 20345.424
265.375, 19320.330
266.742, 16855.965
268.108, 14904.966
269.475, 14221.845
270.840, 12128.924
272.206, 11796.829
273.572, 10385.181
274.937, 10053.946
276.302, 9363.086
277.667, 8862.572
279.032, 9302.379
280.396, 8032.476
281.760, 8922.841
283.125, 8093.454
284.488, 8374.290
285.852, 8765.333
287.215, 8316.568
288.578, 9197.974
289.941, 8359.545
291.304, 8651.259
292.666, 7503.111
294.029, 6705.088
295.391, 6717.179
296.753, 6099.373
298.114, 7521.662
299.476, 7684.024
300.837, 9646.450
302.198, 10748.930
303.558, 11011.456
304.919, 12764.019
306.279, 11956.603
307.639, 12819.212
308.999, 12501.839
310.359, 12864.475
311.718, 13827.114
313.077, 13389.758
314.436, 15342.396
315.795, 14535.026
317.154, 15347.648
318.512, 14680.257
319.870, 13692.854
321.228, 13645.426
322.586, 12187.979
323.943, 12470.510
325.300, 11463.015
326.657, 11975.496
328.014, 12447.943
329.371, 12620.364
330.727, 14342.748
332.083, 13815.100
333.439, 15137.396
334.795, 15079.614
336.150, 14711.723
337.506, 14963.704
338.861, 13175.546
340.215, 13497.256
341.570, 11308.840
342.924, 11040.294
344.279, 10041.631
345.633, 8742.852
346.986, 8853.957
348.340, 7514.950
349.693, 7445.837
351.046, 6696.616
352.399, 6387.290
353.752, 6547.862
355.104, 5618.332
356.457, 6028.703
357.809, 5548.977
359.160, 5439.155
360.512, 5359.235
361.863, 4859.223
363.214, 5329.118
364.565, 4428.922
365.916, 4568.634
367.267, 4198.258
368.617, 3736.794
369.967, 3793.243
371.317, 3090.605
372.666, 3313.882
374.016, 2444.074
375.365, 2217.184
376.714, 1941.209
378.063, 1256.153
379.411, 1225.016
380.760, 513.799
382.108, 429.496
383.456, 206.105
384.803, 28.607
386.151, 204.961
387.498, 72.791
388.845, 82.283
390.192, 235.776
391.539, 301.051
392.885, 343.560
394.231, 787.312
395.577, 756.424
396.923, 1101.888
398.269, 1162.793
399.614, 1182.156
400.959, 1250.988
402.304, 1147.341
403.649, 1281.258
404.993, 1130.830
406.337, 1154.172
407.681, 1015.456
409.025, 797.839
410.369, 681.388
411.712, 237.073
413.055, 174.763
414.398, 291.638
415.741, 734.438
417.084, 1304.953
418.426, 2289.438
419.768, 2680.918
421.110, 4017.387
422.452, 4446.846
423.793, 5108.296
425.134, 5583.738
426.475, 4919.178
427.816, 5384.606
429.157, 4586.020
430.497, 4479.448
431.837, 4557.854
433.177, 3833.240
434.517, 4296.601
435.857, 3827.936
437.196, 4333.242
438.535, 4253.518
439.874, 4151.762
441.213, 4567.975
442.551, 4258.156
443.889, 4737.300
445.227, 4643.410
446.565, 4766.485
447.903, 5233.522
449.240, 5068.525
450.577, 6143.488
451.914, 5998.415
453.251, 7033.303
454.588, 8238.153
455.924, 8742.962
457.260, 10987.734
458.596, 11852.468
459.932, 14787.162
461.267, 16801.816
462.602, 19036.436
463.938, 24081.012
465.272, 24915.555
466.607, 29790.059
467.941, 30024.527
469.276, 29028.971
470.610, 28143.365
471.943, 22597.746
473.277, 20662.084
474.610, 15556.394
475.944, 12670.683
477.276, 10304.938
478.609, 7719.181
479.942, 6743.396
481.274, 4947.587
482.606, 4598.768
483.938, 3618.918
485.270, 3001.075
486.601, 3127.216
487.932, 2418.330
489.263, 2617.462
490.594, 2434.582
491.925, 2345.721
493.255, 2672.862
494.585, 2295.002
495.915, 2727.165
497.245, 2373.311
498.575, 2655.483
499.904, 2772.662
501.233, 2488.841
502.562, 3034.044
503.891, 2683.232
505.219, 2975.429
506.548, 3286.646
507.876, 3001.860
509.203, 3717.106
510.531, 3326.354
511.859, 4072.618
513.186, 4172.916
514.513, 4131.215
515.840, 4904.554
517.166, 4539.908
518.493, 5465.297
519.819, 5149.720
521.145, 5694.179
522.470, 6558.693
523.796, 6133.250
525.121, 7467.836
526.446, 7372.477
527.771, 8377.153
529.096, 9181.876
530.421, 9176.637
531.745, 11121.426
533.069, 11236.258
534.393, 12661.111
535.716, 13846.002
537.040, 14010.938
538.363, 16245.904
539.686, 15900.909
541.009, 17504.969
542.331, 18138.465
543.654, 17388.666
544.976, 19600.787
546.298, 18020.834
547.620, 19556.406
548.941, 18811.422
550.263, 18466.600
551.584, 19407.592
552.905, 17295.854
554.225, 17886.201
555.546, 16168.427
556.866, 15018.941
558.186, 14675.604
559.506, 12891.036
560.826, 12992.158
562.145, 11409.797
563.465, 10609.071
564.784, 9977.840
566.103, 8065.224
567.421, 7571.425
568.740, 6021.427
570.058, 5508.927
571.376, 5274.529
572.694, 4564.289
574.011, 5456.840
575.329, 4952.665
576.646, 5948.737
577.963, 6584.893
579.279, 6731.134
580.596, 8347.460
581.912, 8503.870
583.228, 10360.360
584.544, 11436.938
585.860, 12213.598
587.175, 14780.340
588.491, 14687.162
589.806, 17764.070
591.121, 19501.059
592.435, 20888.131
593.750, 24295.281
595.064, 24352.521
596.378, 28999.838
597.692, 30857.242
599.006, 32534.730
600.319, 37022.297
601.632, 36819.945
602.945, 42027.680
604.258, 42415.500
605.571, 43943.398
606.883, 47681.383
608.195, 44819.457
609.507, 49027.699
610.819, 46885.938
612.131, 46764.254
613.442, 46922.660
614.753, 42491.145
616.064, 45709.801
617.375, 40358.457
618.685, 40477.203
619.995, 39506.281
621.306, 35125.191
622.615, 36224.898
623.925, 32783.980
625.235, 31723.656
626.544, 30984.111
627.853, 27763.457
629.162, 28295.188
630.471, 24704.766
631.779, 24585.715
633.087, 23578.445
634.395, 21018.338
635.703, 21743.141
637.011, 19114.227
638.318, 18576.617
639.625, 18320.975
640.932, 16031.813
642.239, 16940.287
643.546, 14794.057
644.852, 14975.494
646.158, 14536.640
647.464, 13091.131
648.770, 13892.849
650.076, 11960.315
651.381, 12366.748
652.686, 11719.298
653.991, 10892.443
655.296, 11545.423
656.600, 10223.523
657.905, 10069.893
659.209, 9962.093
660.513, 8945.091
661.817, 9472.860
663.120, 8344.109
664.423, 8679.326
665.726, 8332.503
667.029, 7498.632
668.332, 8078.366
669.635, 6962.161
670.937, 7317.654
672.239, 6962.550
673.541, 6280.971
674.842, 6835.344
676.144, 5868.586
677.445, 6151.519
678.746, 5900.105
680.047, 5285.382
681.348, 5776.785
682.648, 4914.862
683.948, 5247.632
685.248, 4985.075
686.548, 4609.793
687.848, 4854.413
689.147, 4105.783
690.447, 4427.553
691.746, 4248.706
693.044, 3801.178
694.343, 4210.445
695.641, 3406.725
696.940, 3785.061
698.238, 3618.611
699.535, 3146.063
700.833, 3496.809
702.130, 2847.934
703.427, 3044.685
704.724, 2844.050
706.021, 2508.955
707.318, 2743.690
708.614, 2344.075
709.910, 2396.427
711.206, 2324.197
712.502, 2118.351
713.798, 2382.029
715.093, 1877.085
716.388, 2002.990
717.683, 2062.674
718.978, 1600.616
720.272, 2078.870
721.567, 1547.917
722.861, 1719.978
724.155, 1679.574
725.448, 1398.735
726.742, 1623.389
728.035, 1319.695
729.328, 1323.416
730.621, 1480.923
731.914, 1034.908
733.206, 1297.581
734.499, 969.149
735.791, 1043.131
737.083, 1057.466
738.374, 776.367
739.666, 966.917
740.957, 764.362
742.248, 768.853
743.539, 773.242
744.830, 536.751
746.120, 730.197
747.410, 470.670
748.701, 483.169
749.990, 581.692
751.280, 321.238
752.570, 547.808
753.859, 345.399
755.148, 345.013
756.437, 379.647
757.725, 122.302
759.014, 366.976
760.302, 225.666
761.590, 187.371
762.878, 294.091
764.166, 2.825
765.453, 213.569
766.740, 111.325
768.027, 119.092
769.314, 189.868
770.601, 5.652
771.887, 132.443
773.174, 54.240
774.460, 15.957
775.745, 102.999
777.031, 47.195
778.316, 124.003
779.602, 32.894
780.887, 67.509
782.172, 78.832
783.456, 103.951
784.741, 7.701
786.025, 66.694
787.309, 118.033
788.593, 2.401
789.876, 157.895
791.160, 51.563
792.443, 88.507
793.726, 131.195
795.009, 26.297
796.291, 196.135
797.574, 101.746
798.856, 34.433
800.138, 220.635
801.420, 99.762
802.702, 217.268
803.983, 142.872
805.264, 119.366
806.545, 212.335
807.826, 45.304
809.107, 207.334
810.387, 123.718
811.667, 89.930
812.947, 177.454
814.227, 16.986
815.507, 95.536
816.786, 145.388
818.065, 43.060
819.344, 165.051
820.623, 47.216
821.902, 99.279
823.180, 158.621
824.459, 21.038
825.737, 165.586
827.014, 57.280
828.292, 146.929
829.569, 123.859
830.847, 113.923
832.124, 199.118
833.401, 141.492
834.677, 75.017
835.954, 176.659
837.230, 87.476
838.506, 141.422
839.782, 93.528
841.057, 39.735
842.333, 111.093
843.608, 1.602
844.883, 67.208
846.158, 99.947
847.433, 28.839
848.707, 56.849
849.981, 27.005
851.255, 21.233
852.529, 15.592
853.803, 97.930
855.076, 51.382
856.350, 144.742
857.623, 104.042
858.895, 97.268
860.168, 183.414
861.441, 103.502
862.713, 143.507
863.985, 145.439
865.257, 94.295
866.528, 187.056
867.800, 155.746
869.071, 147.354
870.342, 219.873
871.613, 151.317
872.884, 285.667
874.154, 185.942
875.425, 170.125
876.695, 277.209
877.965, 138.209
879.234, 243.094
880.504, 223.888
881.773, 273.585
883.042, 332.266
884.311, 269.162
885.580, 320.887
886.848, 359.653
888.117, 292.654
889.385, 442.178
890.653, 319.828
891.920, 416.517
893.188, 453.925
894.455, 455.763
895.722, 531.006
896.989, 475.660
898.256, 650.955
899.523, 720.037
900.789, 745.147
902.055, 983.036
903.321, 966.854
904.587, 1209.671
905.852, 1475.213
907.118, 1559.161
908.383, 1977.734
909.648, 2138.506
910.913, 2203.710
912.177, 2438.638
913.442, 2123.519
914.706, 2090.338
915.970, 1944.014
917.233, 1573.576
918.497, 1565.975
919.760, 1135.167
921.024, 1119.439
922.287, 950.504
923.550, 743.484
924.812, 776.479
926.075, 620.000
927.337, 561.394
928.599, 605.777
929.861, 508.419
931.122, 534.750
932.384, 468.213
933.645, 477.031
934.906, 508.949
936.167, 425.327
937.428, 432.943
938.688, 425.147
939.948, 367.627
941.208, 418.957
942.468, 369.241
943.728, 385.511
944.987, 448.422
946.247, 387.334
947.506, 458.670
948.765, 414.360
950.023, 415.807
951.282, 500.712
952.540, 447.688
953.798, 523.626
955.056, 510.067
956.314, 459.797
957.572, 552.493
958.829, 512.976
960.086, 516.981
961.343, 561.080
962.600, 494.012
963.856, 547.871
965.113, 511.631
966.369, 505.735
967.625, 606.024
968.881, 474.817
970.136, 533.572
971.392, 543.365
972.647, 490.188
973.902, 580.388
975.157, 501.567
976.411, 563.971
977.666, 542.021
978.920, 466.240
980.174, 551.720
981.428, 531.181
982.682, 495.773
983.935, 553.987
985.188, 460.305
986.441, 527.678
987.694, 478.408
988.947, 482.365
990.199, 488.517
991.452, 387.408
992.704, 445.226
993.956, 471.519
995.207, 423.205
996.459, 528.641
997.710, 487.731
998.961, 542.813
1000.212, 680.960
1001.463, 630.112
1002.714, 774.911
1003.964, 685.957
1005.214, 674.488
1006.464, 737.723
1007.714, 702.319
1008.964, 752.493
1010.213, 808.115
1011.462, 736.907
1012.711, 853.197
1013.960, 789.718
1015.209, 817.927
1016.457, 866.215
1017.705, 698.253
1018.954, 803.120
1020.201, 796.552
1021.449, 720.668
1022.697, 772.788
1023.944, 599.109
1025.191, 578.818
1026.438, 578.872
1027.685, 431.712
1028.931, 431.253
1030.177, 338.587
1031.423, 288.330
1032.669, 262.758
1033.915, 189.389
1035.161, 206.515
1036.406, 173.922
1037.651, 117.403
1038.896, 185.437
1040.141, 134.170
1041.386, 117.221
1042.630, 144.591
1043.874, 92.119
1045.118, 138.477
1046.362, 89.992
1047.606, 106.267
1048.849, 117.561
1050.092, 103.934
1051.336, 116.100
1052.578, 112.205
1053.821, 101.260
1055.064, 120.240
1056.306, 78.158
1057.548, 94.026
1058.790, 74.819
1060.032, 109.548
1061.273, 147.219
1062.515, 133.832
1063.756, 124.389
1064.997, 133.888
1066.237, 115.335
1067.478, 150.726
1068.718, 175.063
1069.959, 131.349
1071.199, 155.581
1072.438, 133.812
1073.678, 122.006
1074.918, 210.083
1076.157, 157.154
1077.396, 192.029
1078.635, 173.968
1079.873, 152.501
1081.112, 248.112
1082.350, 175.329
1083.588, 171.604
1084.826, 202.966
1086.064, 176.754
1087.301, 179.590
1088.539, 158.262
1089.776, 148.143
1091.013, 173.651
1092.250, 100.457
1093.486, 105.479
1094.723, 109.178
1095.959, 121.218
1097.195, 118.954
1098.431, 98.351
1099.666, 61.766
1100.902, 107.620
1102.137, 39.294
1103.372, 86.271
1104.607, 70.237
1105.842, 80.005
1107.076, 97.192
1108.311, 62.244
1109.545, 73.365
1110.779, 78.651
1112.012, 30.673
1113.246, 84.036
1114.479, 42.183
1115.712, 47.278
1116.945, 44.585
1118.178, 55.605
1119.411, 48.653
1120.643, 48.252
1121.875, 45.387
1123.108, 29.842
1124.339, 42.114
1125.571, 24.435
1126.802, 90.782
1128.034, 33.992
1129.265, 63.364
1130.496, 99.757
1131.727, 27.171
1132.957, 70.652
1134.187, 21.137
1135.418, 7.634
1136.648, 20.171
1137.877, 45.733
1139.107, 36.457
1140.336, 71.106
1141.566, 10.736
1142.795, 54.394
1144.023, 16.102
1145.252, 16.809
1146.480, 61.624
1147.709, 36.348
1148.937, 16.094
1150.165, 43.840
1151.392, 4.601
1152.620, 58.374
1153.847, 48.259
1155.074, 53.022
1156.301, 23.966
1157.528, 34.704
1158.755, 61.436
1159.981, 58.151
1161.207, 44.860
1162.433, 81.559
1163.659, 31.250
1164.885, 47.939
1166.110, 83.615
1167.336, 72.283
1168.561, 52.946
1169.786, 74.595
1171.010, 45.240
1172.235, 114.870
1173.459, 90.493
1174.683, 120.112
1175.907, 142.719
1177.131, 69.328
1178.355, 92.927
1179.578, 107.520
1180.801, 85.026
1182.024, 146.219
1183.247, 101.482
1184.470, 79.600
1185.692, 102.435
1186.915, 54.987
1188.137, 84.925
1189.359, 88.330
1190.580, 51.301
1191.802, 126.741
1193.023, 49.024
1194.244, 67.449
1195.465, 79.203
1196.686, 33.061
1197.907, 70.728
1199.127, 102.689
1200.347, 61.465
1201.567, 79.125
1202.787, 84.960
1204.007, 58.318
1205.226, 64.920
1206.446, 67.447
1207.665, 81.216
1208.884, 88.259
1210.102, 64.183
1211.321, 71.067
1212.539, 84.689
1213.758, 110.525
1214.976, 89.527
1216.193, 81.058
1217.411, 54.142
1218.628, 40.186
1219.846, 36.388
1221.063, 63.289
1222.280, 41.576
1223.496, 41.709
1224.713, 81.886
1225.929, 43.224
1227.145, 35.293
1228.361, 67.591
1229.577, 33.309
1230.793, 29.437
1232.008, 49.751
1233.223, 34.920
1234.438, 100.110
1235.653, 34.270
1236.868, 71.360
1238.082, 66.571
1239.297, 46.495
1240.511, 72.456
1241.725, 84.464
1242.938, 37.521
1244.152, 91.580
1245.365, 37.641
1246.578, 105.561
1247.791, 41.612
1249.004, 41.496
1250.217, 87.481
1251.429, 58.526
1252.642, 33.801
1253.854, 70.909
1255.066, 19.836
1256.277, 47.191
1257.489, 79.289
1258.700, 10.155
1259.911, 44.211
1261.122, 52.128
1262.333, 66.049
1263.544, 42.988
1264.754, 18.978
1265.964, 71.955
1267.174, 69.958
1268.384, 0.913
1269.594, 95.843
1270.803, 70.800
1272.013, 51.754
1273.222, 106.954
1274.431, 45.902
1275.640, 32.234
1276.848, 102.493
1278.057, 25.461
1279.265, 44.591
1280.473, 34.520
1281.681, 38.396
1282.888, 40.331
1284.096, 1.377
1285.303, 15.385
1286.510, 69.540
1287.717, 38.448
1288.924, 19.541
1290.131, 24.480
1291.337, 5.423
1292.543, 78.557
1293.749, 51.588
1294.955, 60.536
1296.161, 72.597
1297.366, 46.497
1298.571, 0.620
1299.777, 77.701
1300.981, 5.205
1302.186, 51.760
1303.391, 51.762
1304.595, 31.874
1305.799, 97.973
1307.003, 28.020
1308.207, 71.223
1309.411, 58.217
1310.614, 72.284
1311.818, 46.502
1313.021, 89.674
1314.224, 81.767
1315.426, 73.951
1316.629, 86.001
1317.831, 100.219
1319.033, 111.433
1320.235, 83.645
1321.437, 84.798
1322.639, 71.010
1323.840, 64.214
1325.042, 46.416
1326.243, 58.616
1327.444, 23.811
1328.644, 25.005
1329.845, 12.199
1331.045, 12.633
1332.245, 22.450
1333.445, 18.386
1334.645, 27.776
1335.845, 31.849
1337.044, 10.989
1338.244, 50.081
1339.443, 6.235
1340.642, 8.396
1341.840, 30.414
1343.039, 4.424
1344.237, 18.738
1345.435, 41.887
1346.633, 22.050
1347.831, 15.212
1349.029, 38.364
1350.226, 6.470
1351.424, 38.698
1352.621, 0.135
1353.818, 14.033
1355.014, 14.269
1356.211, 19.562
1357.407, 17.605
1358.604, 13.774
1359.800, 13.055
1360.995, 4.885
1362.191, 11.889
1363.387, 7.989
1364.582, 14.122
1365.777, 24.699
1366.972, 25.566
1368.167, 28.566
1369.361, 27.257
1370.556, 10.838
1371.750, 19.901
1372.944, 14.981
1374.138, 24.058
1375.331, 10.080
1376.525, 21.298
1377.718, 36.236
1378.911, 10.512
1380.104, 24.838
1381.297, 45.167
1382.490, 22.479
1383.682, 26.800
1384.874, 17.140
1386.066, 30.485
1387.258, 42.803
1388.450, 4.059
1389.641, 4.400
1390.833, 51.620
1392.024, 2.031
1393.215, 56.248
1394.406, 0.393
1395.596, 24.189
1396.787, 11.180
1397.977, 25.553
1399.167, 7.074
1400.357, 2.274
1401.547, 6.657
1402.736, 25.871
1403.925, 16.161
1405.115, 22.516
1406.304, 17.699
1407.492, 19.084
1408.681, 17.474
1409.870, 12.715
1411.058, 26.859
1412.246, 15.686
1413.434, 31.671
1414.622, 9.084
1415.809, 18.503
1416.997, 27.926
1418.184, 1.647
1419.371, 19.785
1420.558, 18.220
1421.744, 30.659
1422.931, 79.101
1424.117, 37.542
1425.303, 29.084
1426.489, 38.759
1427.675, 41.265
1428.861, 43.168
1430.046, 95.501
1431.231, 52.853
1432.416, 25.001
1433.601, 94.454
1434.786, 75.867
1435.970, 72.954
1437.155, 125.198
1438.339, 153.343
1439.523, 172.711
1440.707, 177.010
1441.890, 222.849
1443.074, 247.291
1444.257, 181.619
1445.440, 208.563
1446.623, 248.766
1447.806, 213.011
1448.989, 247.351
1450.171, 247.602
1451.353, 229.939
1452.535, 299.237
1453.717, 251.567
1454.899, 249.577
1456.080, 301.550
1457.262, 281.598
1458.443, 254.790
1459.624, 296.144
1460.805, 228.987
1461.985, 271.111
1463.166, 258.234
1464.346, 214.298
1465.526, 262.341
1466.706, 203.397
1467.886, 156.288
1469.065, 180.674
1470.245, 126.599
1471.424, 128.636
1472.603, 118.604
1473.782, 120.463
1474.960, 133.315
1476.139, 132.130
1477.317, 138.917
1478.495, 133.675
1479.673, 114.431
1480.851, 153.189
1482.029, 139.009
1483.206, 100.926
1484.383, 73.832
1485.560, 117.703
1486.737, 67.536
1487.914, 70.343
1489.091, 90.187
1490.267, 65.103
1491.443, 67.000
1492.619, 83.874
1493.795, 57.727
1494.971, 52.597
1496.146, 0.602
1497.322, 41.777
1498.497, 86.985
1499.672, 19.238
1500.846, 28.541
1502.021, 66.890
1503.196, 6.704
1504.370, 30.781
