##NAMES=Titanite
##RRUFFID=R050039
##IDEAL CHEMISTRY=CaTi^4+^SiO_5_
##LOCALITY=Kingman, Arizona, USA
##OWNER=RRUFF
##SOURCE=University of Arizona Mineral Museum
##DESCRIPTION=Black fragment from a single crystal
##STATUS=The identification of this mineral has been confirmed by X-ray diffraction and chemical analysis
##URL=rruff.info/R050039
##MEASURED CHEMISTRY=(Ca_0.95_Y_0.05_)(Ti_0.85_Al_0.10_Fe^3+^_0.06_)Si_1.00_O_4_(O_0.93_F_0.07_)
##PIN_ID=L00457
##ORIENTATION=Laser parallel to -b* (0 -1 0). Fiducial mark perpendicular to laser is parallel to -c [0 0 -1]
78.926, 0.000
80.327, 6.158
81.728, 102.127
83.128, 481.995
84.529, 783.860
85.929, 1002.931
87.329, 1584.486
88.728, 2065.582
90.128, 2423.040
91.527, 2776.644
92.926, 3199.809
94.324, 3518.680
95.723, 4123.574
97.121, 4055.868
98.519, 4218.448
99.917, 4201.572
101.314, 3775.425
102.712, 3620.104
104.109, 3529.322
105.505, 3275.623
106.902, 3023.673
108.298, 2962.771
109.694, 2552.589
111.090, 2818.140
112.486, 2643.354
113.881, 2249.870
115.277, 1697.614
116.672, 1186.530
118.066, 706.576
119.461, 447.719
120.855, 259.923
122.249, 313.120
123.643, 247.238
125.036, 60.218
126.430, 58.012
127.823, 7.427
129.216, 96.134
130.608, 91.144
132.001, 71.487
133.393, 92.190
134.785, 102.283
136.176, 161.795
137.568, 110.750
138.959, 109.161
140.350, 84.595
141.741, 15.584
143.131, 21.285
144.521, 102.336
145.911, 106.434
147.301, 141.000
148.691, 136.021
150.080, 121.493
151.469, 157.424
152.858, 273.835
154.247, 160.757
155.635, 328.216
157.024, 226.225
158.411, 184.777
159.799, 353.855
161.187, 283.437
162.574, 283.397
163.961, 253.418
165.348, 233.559
166.734, 173.852
168.121, 154.314
169.507, 164.965
170.893, 215.809
172.278, 226.853
173.664, 188.103
175.049, 349.562
176.434, 281.228
177.819, 453.093
179.203, 435.159
180.587, 497.430
181.971, 629.908
183.355, 582.599
184.739, 805.502
186.122, 688.620
187.505, 991.922
188.888, 1155.363
190.271, 1308.949
191.653, 1489.159
193.035, 1576.499
194.417, 1740.555
195.799, 1944.830
197.180, 2049.328
198.562, 2271.295
199.943, 2538.982
201.324, 2684.139
202.704, 2939.508
204.084, 3175.092
205.465, 3400.887
206.844, 3631.411
208.224, 3872.523
209.603, 4079.520
210.983, 4346.141
212.362, 4592.960
213.740, 4809.980
215.119, 5078.707
216.497, 5364.610
217.875, 5582.216
219.253, 5780.031
220.631, 6018.205
222.008, 6166.857
223.385, 6296.059
224.762, 6345.883
226.139, 6236.387
227.515, 6167.680
228.891, 5829.692
230.267, 5862.369
231.643, 5555.678
233.018, 5349.495
234.394, 5213.635
235.769, 4908.010
237.144, 4902.479
238.518, 4637.027
239.893, 4401.655
241.267, 4526.360
242.641, 4391.142
244.014, 4475.998
245.388, 4249.368
246.761, 4312.578
248.134, 4207.293
249.507, 4342.692
250.879, 4368.654
252.252, 4425.100
253.624, 4501.955
254.996, 4359.178
256.367, 4336.738
257.739, 4434.605
259.110, 4332.736
260.481, 4401.094
261.852, 4169.670
263.222, 4318.465
264.592, 4317.482
265.962, 4336.719
267.332, 4376.168
268.702, 4379.908
270.071, 4388.940
271.440, 4425.396
272.809, 4415.269
274.178, 4465.150
275.546, 4545.127
276.915, 4635.307
278.283, 4375.695
279.650, 4556.289
281.018, 4137.084
282.385, 4218.070
283.752, 4149.244
285.119, 3790.604
286.486, 3742.143
287.852, 3483.854
289.218, 3345.737
290.584, 3027.787
291.950, 2829.998
293.316, 2781.906
294.681, 2421.233
296.046, 2490.998
297.411, 2091.680
298.775, 2221.922
300.140, 2112.071
301.504, 1940.348
302.868, 2110.696
304.231, 1951.334
305.595, 1882.988
306.958, 2026.797
308.321, 2080.412
309.684, 2234.479
311.047, 2198.672
312.409, 2412.989
313.771, 2437.429
315.133, 2471.986
316.495, 2626.664
317.856, 2471.456
319.217, 2546.362
320.578, 2431.377
321.939, 2526.503
323.299, 2241.733
324.660, 2327.067
326.020, 2182.503
327.380, 2118.039
328.739, 2033.674
330.099, 1909.405
331.458, 1805.238
332.817, 1801.167
334.176, 1627.192
335.534, 1623.312
336.892, 1519.529
338.251, 1505.838
339.608, 1262.240
340.966, 1598.734
342.323, 1425.319
343.681, 1601.994
345.037, 1608.759
346.394, 1585.612
347.751, 1642.553
349.107, 1619.578
350.463, 1906.690
351.819, 1993.886
353.174, 2051.166
354.530, 2138.528
355.885, 2255.393
357.240, 2385.879
358.594, 2522.181
359.949, 2650.361
361.303, 2799.254
362.657, 2728.814
364.011, 2720.892
365.365, 3041.890
366.718, 2900.681
368.071, 2904.885
369.424, 2860.994
370.777, 2713.155
372.129, 2766.018
373.481, 2753.335
374.833, 2658.921
376.185, 2495.857
377.537, 2641.375
378.888, 2581.616
380.239, 2620.298
381.590, 2727.467
382.941, 2554.803
384.291, 2743.606
385.642, 2596.137
386.992, 2674.195
388.341, 2912.468
389.691, 2883.285
391.040, 2862.250
392.389, 2991.236
393.738, 3030.244
395.087, 3009.271
396.435, 3078.313
397.784, 3137.369
399.132, 3266.438
400.479, 3375.520
401.827, 3424.614
403.174, 3533.719
404.521, 3653.506
405.868, 3761.965
407.215, 3891.103
408.561, 4050.305
409.908, 4119.572
411.254, 4292.616
412.599, 4328.277
413.945, 4557.709
415.290, 4807.189
416.636, 4866.715
417.980, 4736.287
419.325, 4875.906
420.670, 4625.568
422.014, 4815.270
423.358, 4735.012
424.702, 4524.795
426.045, 4434.614
427.389, 4294.473
428.732, 4264.367
430.075, 4064.298
431.417, 3594.263
432.760, 3614.261
434.102, 3484.293
435.444, 3124.359
436.786, 3084.466
438.127, 2944.615
439.469, 2724.799
440.810, 2625.031
442.151, 2315.293
443.492, 2255.600
444.832, 2085.935
446.172, 2016.300
447.512, 1896.729
448.852, 1847.941
450.192, 1697.662
451.531, 1818.166
452.870, 1728.695
454.209, 1779.247
455.548, 1609.837
456.887, 1690.468
458.225, 1641.135
459.563, 1751.831
460.901, 1462.560
462.238, 1933.322
463.576, 1784.125
464.913, 2134.959
466.250, 2055.823
467.587, 1986.715
468.923, 2227.621
470.259, 2278.545
471.596, 2529.483
472.931, 2540.436
474.267, 2641.400
475.603, 2822.378
476.938, 3003.368
478.273, 3114.369
479.608, 2985.382
480.942, 3166.404
482.276, 3047.438
483.611, 2928.482
484.944, 3059.535
486.278, 2850.596
487.612, 2711.667
488.945, 2752.744
490.278, 2443.829
491.611, 2534.921
492.943, 2236.021
494.276, 2307.124
495.608, 1978.233
496.940, 1789.348
498.271, 1740.467
499.603, 1501.591
500.934, 1382.719
502.265, 1313.851
503.596, 1094.985
504.927, 1076.124
506.257, 967.265
507.587, 768.407
508.917, 719.552
510.247, 590.696
511.577, 541.843
512.906, 448.989
514.235, 384.137
515.564, 255.283
516.892, 136.426
518.221, 12.457
519.549, 41.426
520.877, 50.496
522.205, 229.673
523.533, 99.044
524.860, 248.551
526.187, 208.263
527.514, 298.163
528.841, 328.297
530.167, 258.679
531.493, 439.275
532.820, 510.180
534.145, 311.428
535.471, 332.918
536.796, 307.272
538.122, 386.647
539.447, 358.915
540.771, 161.449
542.096, 334.153
543.420, 17.114
544.744, 80.175
546.068, 3.365
547.392, 6.648
548.715, 179.973
550.039, 396.568
551.362, 583.161
552.684, 769.747
554.007, 1036.330
555.329, 1232.910
556.652, 1359.484
557.973, 2016.056
559.295, 2202.624
560.617, 2779.188
561.938, 2945.750
563.259, 3762.310
564.580, 4148.867
565.901, 4395.424
567.221, 5271.977
568.541, 5608.531
569.861, 6005.082
571.181, 6031.634
572.501, 6538.186
573.820, 6534.738
575.139, 6431.289
576.458, 6717.844
577.777, 6364.396
579.095, 6050.951
580.414, 5957.508
581.732, 5754.066
583.049, 5524.137
584.367, 5225.411
585.685, 5028.307
587.002, 4820.676
588.319, 4596.898
589.636, 4403.476
590.952, 4240.057
592.268, 3916.641
593.585, 3793.229
594.900, 3610.977
596.216, 3569.663
597.532, 3276.268
598.847, 3236.690
600.162, 3043.303
601.477, 3082.700
602.792, 3049.407
604.106, 2906.312
605.420, 2890.551
606.734, 2797.186
608.048, 2744.043
609.361, 2820.688
610.675, 2807.338
611.988, 2554.149
613.301, 2572.855
614.614, 2770.732
615.926, 2457.401
617.238, 2684.104
618.550, 2560.782
619.862, 2527.465
621.174, 2464.153
622.485, 2740.882
623.797, 2617.580
625.108, 2654.284
626.418, 2770.992
627.729, 2727.706
629.039, 2634.426
630.349, 2751.151
631.659, 2647.884
632.969, 2624.621
634.279, 2761.364
635.588, 2558.115
636.897, 2824.871
638.206, 2831.636
639.515, 2808.408
640.823, 2905.187
642.131, 2833.333
643.439, 2688.766
644.747, 2735.567
646.055, 2672.375
647.362, 2599.193
648.669, 2566.020
649.976, 2682.854
651.283, 2629.698
652.589, 2596.551
653.896, 2393.412
655.202, 2610.283
656.508, 2147.165
657.814, 2264.057
659.119, 2260.957
660.424, 2087.868
661.729, 2074.790
663.034, 2181.723
664.339, 1988.667
665.643, 1985.623
666.947, 2022.590
668.251, 1949.568
669.555, 1846.559
670.859, 1893.562
672.162, 1770.576
673.465, 1717.506
674.768, 1672.268
676.071, 1710.628
677.373, 1627.202
678.676, 1423.160
679.978, 1538.541
681.280, 1431.497
682.581, 1465.625
683.883, 1102.052
685.184, 1573.155
686.485, 1142.445
687.786, 1135.773
689.087, 1128.491
690.387, 926.845
691.687, 1077.021
692.987, 965.935
694.287, 876.359
695.586, 872.150
696.886, 699.589
698.185, 708.632
699.484, 787.597
700.783, 615.183
702.081, 729.127
703.379, 677.628
704.677, 715.998
705.975, 611.902
707.273, 749.739
708.570, 537.625
709.868, 535.561
711.165, 523.546
712.462, 581.583
713.758, 449.683
715.055, 447.856
716.351, 566.108
717.647, 334.445
718.943, 482.885
720.238, 331.427
721.533, 340.077
722.829, 418.840
724.124, 437.716
725.418, 206.717
726.713, 355.847
728.007, 165.104
729.301, 284.484
730.595, 244.004
731.889, 163.626
733.182, 103.390
734.476, 193.265
735.769, 193.271
737.061, 173.403
738.354, 73.633
739.647, 93.990
740.939, 49.319
742.231, 74.992
743.523, 35.658
744.814, 36.409
746.106, 87.269
747.397, 38.214
748.688, 29.245
749.978, 69.637
751.269, 108.473
752.559, 172.753
753.849, 165.939
755.139, 15.388
756.429, 133.229
757.719, 1.818
759.008, 20.354
760.297, 268.838
761.586, 102.663
762.875, 15.778
764.163, 85.832
765.451, 47.498
766.739, 10.779
768.027, 109.004
769.315, 74.401
770.602, 24.662
771.890, 6.573
773.177, 88.539
774.463, 200.561
775.750, 142.640
777.036, 4.775
778.323, 236.965
779.609, 179.214
780.894, 321.518
782.180, 223.880
783.465, 496.300
784.750, 498.355
786.035, 311.309
787.320, 573.898
788.605, 526.546
789.889, 409.250
791.173, 552.014
792.457, 594.834
793.741, 387.712
795.024, 700.646
796.307, 593.640
797.591, 736.690
798.873, 979.798
800.156, 822.964
801.439, 736.188
802.721, 1199.471
804.003, 802.811
805.285, 1116.208
806.566, 1079.664
807.848, 1013.178
809.129, 1346.750
810.410, 1310.380
811.691, 1424.068
812.971, 1787.815
814.252, 1661.620
815.532, 1595.482
816.812, 1689.403
818.092, 1943.384
819.371, 1997.422
820.651, 2251.519
821.930, 2285.672
823.209, 2559.885
824.488, 2534.154
825.766, 2788.485
827.045, 2882.873
828.323, 3077.322
829.601, 3301.840
830.878, 3476.459
832.156, 3681.187
833.433, 3966.026
834.710, 4171.021
835.987, 4636.137
837.264, 4991.415
838.540, 4976.844
839.817, 5622.443
841.093, 5978.226
842.369, 6194.172
843.644, 6780.326
844.920, 7096.709
846.195, 7393.270
847.470, 8640.011
848.745, 8836.929
850.020, 9504.041
851.294, 10181.344
852.568, 10818.785
853.842, 11806.407
855.116, 12664.136
856.390, 13471.982
857.663, 14359.928
858.936, 15497.975
860.209, 16306.091
861.482, 17554.256
862.755, 18802.479
864.027, 20080.754
865.299, 21129.088
866.571, 22189.693
867.843, 23332.230
869.115, 24896.125
870.386, 25841.389
871.657, 27151.156
872.928, 27940.785
874.199, 29031.852
875.470, 29953.857
876.740, 30755.982
878.010, 31400.752
879.280, 32000.768
880.550, 32702.570
881.820, 32877.125
883.089, 32985.594
884.358, 33234.793
885.627, 32934.188
886.896, 33000.676
888.164, 33552.168
889.433, 32677.672
890.701, 32325.807
891.969, 31921.648
893.236, 30970.768
894.504, 30746.305
895.771, 29320.812
897.038, 28826.102
898.305, 26767.232
899.572, 26192.908
900.838, 24878.777
902.105, 23204.857
903.371, 22483.352
904.637, 21226.488
905.902, 19421.291
907.168, 18387.318
908.433, 17296.936
909.698, 15833.788
910.963, 15123.363
912.228, 13292.768
913.492, 12484.862
914.757, 11734.588
916.021, 11004.116
917.285, 10093.888
918.548, 8903.681
919.812, 8443.333
921.075, 7511.119
922.338, 7039.760
923.601, 6329.637
924.864, 5839.504
926.126, 5229.424
927.388, 4809.362
928.650, 4379.323
929.912, 3967.548
931.174, 3619.270
932.435, 3299.293
933.697, 2969.337
934.958, 2709.402
936.218, 2469.488
937.479, 2249.594
938.739, 2059.933
940.000, 1999.872
941.260, 1690.041
942.520, 1550.231
943.779, 1300.442
945.039, 1450.673
946.298, 1260.924
947.557, 1151.193
948.816, 1071.483
950.074, 831.793
951.333, 832.122
952.591, 802.469
953.849, 872.836
955.107, 873.219
956.365, 823.621
957.622, 924.040
958.879, 994.477
960.136, 974.931
961.393, 825.399
962.650, 1105.886
963.906, 1096.387
965.162, 1246.904
966.418, 1427.437
967.674, 1357.984
968.930, 1578.546
970.185, 1619.121
971.441, 1689.711
972.696, 1750.314
973.950, 1850.931
975.205, 1831.560
976.459, 1892.201
977.714, 1882.854
978.968, 1763.519
980.222, 1904.193
981.475, 1514.881
982.729, 1815.578
983.982, 1516.285
985.235, 1367.000
986.488, 1327.725
987.740, 1338.456
988.993, 1319.195
990.245, 1099.940
991.497, 1170.690
992.749, 1051.445
994.000, 882.204
995.252, 892.966
996.503, 883.728
997.754, 914.491
999.005, 865.255
1000.256, 736.016
1001.506, 746.776
1002.756, 677.531
1004.006, 588.285
1005.256, 649.034
1006.506, 549.776
1007.755, 450.514
1009.005, 471.244
1010.254, 421.969
1011.502, 412.686
1012.751, 283.394
1014.000, 114.096
1015.248, 184.788
1016.496, 5.472
1017.744, 23.882
1018.991, 43.288
1020.239, 62.760
1021.486, 132.307
1022.733, 127.928
1023.980, 148.711
1025.227, 161.639
1026.473, 161.669
1027.719, 201.832
1028.965, 222.150
1030.211, 212.636
1031.457, 193.282
1032.702, 254.083
1033.948, 105.068
1035.193, 266.164
1036.438, 137.452
1037.682, 218.867
1038.927, 200.451
1040.171, 82.196
1041.415, 204.041
1042.659, 96.049
1043.903, 38.162
1045.146, 180.354
1046.390, 32.698
1047.633, 125.118
1048.876, 37.660
1050.118, 40.280
1051.361, 42.980
1052.603, 124.237
1053.845, 28.554
1055.087, 21.408
1056.329, 115.668
1057.571, 172.746
1058.812, 249.812
1060.053, 326.880
1061.294, 413.942
1062.535, 553.577
1063.775, 728.080
1065.016, 875.155
1066.256, 1092.226
1067.496, 1299.289
1068.736, 1572.657
1069.975, 1859.255
1071.214, 2190.486
1072.454, 2497.582
1073.693, 2844.714
1074.931, 3171.896
1076.170, 3559.111
1077.408, 3896.369
1078.647, 4233.676
1079.885, 4751.019
1081.122, 4898.420
1082.360, 5335.887
1083.597, 5763.391
1084.835, 5740.972
1086.072, 6038.592
1087.308, 6036.277
1088.545, 6224.020
1089.781, 6091.777
1091.018, 5961.015
1092.254, 5597.383
1093.490, 5445.195
1094.725, 5003.006
1095.961, 4590.837
1097.196, 4438.654
1098.431, 3966.465
1099.666, 3694.262
1100.900, 3292.044
1102.135, 3088.033
1103.369, 2796.895
1104.603, 2635.299
1105.837, 2413.014
1107.071, 2190.385
1108.304, 1998.377
1109.538, 1796.025
1110.771, 1603.651
1112.004, 1461.253
1113.236, 1418.829
1114.469, 1317.502
1115.701, 1323.912
1116.933, 1251.416
1118.165, 1328.895
1119.397, 1346.350
1120.629, 1213.781
1121.860, 1241.188
1123.091, 1318.567
1124.322, 1215.924
1125.553, 1243.257
1126.783, 1270.562
1128.014, 1237.844
1129.244, 1385.101
1130.474, 1392.331
1131.704, 1449.537
1132.933, 1576.718
1134.163, 1493.873
1135.392, 1681.003
1136.621, 1768.108
1137.850, 1875.187
1139.079, 2022.241
1140.307, 2009.269
1141.535, 2356.271
1142.763, 2553.248
1143.991, 2460.200
1145.219, 2987.128
1146.446, 3134.029
1147.674, 3550.904
1148.901, 3817.754
1150.128, 4084.578
1151.354, 4471.375
1152.581, 4928.147
1153.807, 5404.892
1155.033, 5791.609
1156.259, 6458.298
1157.485, 7034.957
1158.710, 7641.585
1159.936, 7998.182
1161.161, 8774.744
1162.386, 9291.270
1163.611, 9747.761
1164.835, 10461.992
1166.060, 11074.315
1167.284, 11415.292
1168.508, 12414.920
1169.732, 12680.060
1170.955, 13235.348
1172.179, 13409.217
1173.402, 13872.159
1174.625, 14214.988
1175.848, 14125.194
1177.070, 14384.023
1178.293, 14023.353
1179.515, 13893.811
1180.737, 13890.365
1181.959, 13246.193
1183.181, 13161.838
1184.402, 12795.486
1185.624, 12433.962
1186.845, 11833.533
1188.066, 11710.469
1189.286, 11199.703
1190.507, 11015.670
1191.727, 10625.227
1192.947, 10575.809
1194.167, 10325.625
1195.387, 10149.599
1196.607, 9829.029
1197.826, 9928.261
1199.045, 9597.431
1200.264, 9473.378
1201.483, 9233.646
1202.702, 9034.319
1203.920, 8960.574
1205.138, 8647.338
1206.356, 8584.449
1207.574, 8452.192
1208.792, 8199.766
1210.009, 8047.984
1211.227, 7785.727
1212.444, 7893.837
1213.661, 7472.262
1214.877, 7160.882
1216.094, 7230.006
1217.310, 6822.148
1218.526, 6773.492
1219.742, 6761.160
1220.958, 6402.398
1222.173, 6560.082
1223.389, 6499.121
1224.604, 6370.286
1225.819, 6177.752
1227.034, 6391.724
1228.248, 6426.248
1229.463, 6325.213
1230.677, 6362.563
1231.891, 6241.393
1233.105, 6496.550
1234.318, 6230.169
1235.532, 6413.098
1236.745, 6489.219
1237.958, 6186.526
1239.171, 6275.521
1240.384, 6094.945
1241.596, 6098.697
1242.809, 6036.324
1244.021, 5754.769
1245.233, 5771.944
1246.444, 5568.297
1247.656, 5355.563
1248.867, 5331.727
1250.079, 4997.512
1251.290, 4703.334
1252.500, 4718.424
1253.711, 4243.671
1254.921, 4178.755
1256.132, 4003.388
1257.342, 3768.010
1258.552, 3382.620
1259.761, 3427.221
1260.971, 3091.811
1262.180, 3026.390
1263.389, 2790.959
1264.598, 2645.518
1265.807, 2515.255
1267.015, 2394.602
1268.223, 2209.129
1269.432, 2093.645
1270.640, 1888.150
1271.847, 1982.646
1273.055, 1707.133
1274.262, 1611.611
1275.470, 1826.080
1276.677, 1570.539
1277.883, 1514.991
1279.090, 1419.436
1280.296, 1493.871
1281.503, 1408.301
1282.709, 1292.723
1283.915, 1247.139
1285.120, 1230.949
1286.326, 1215.951
1287.531, 1260.350
1288.736, 1264.742
1289.941, 1289.125
1291.146, 1383.492
1292.350, 1387.835
1293.555, 1322.141
1294.759, 1426.405
1295.963, 1190.623
1297.167, 1394.779
1298.370, 1488.823
1299.574, 1282.631
1300.777, 1426.213
1301.980, 1479.544
1303.183, 1472.539
1304.386, 1435.202
1305.588, 1547.546
1306.790, 1449.618
1307.993, 1501.438
1309.195, 1583.141
1310.396, 1404.702
1311.598, 1486.183
1312.799, 1517.604
1314.000, 1408.981
1315.201, 1420.343
1316.402, 1451.690
1317.603, 1403.036
1318.803, 1374.385
1320.003, 1305.731
1321.203, 1287.085
1322.403, 1260.959
1323.603, 1249.817
1324.802, 1221.184
1326.002, 1202.559
1327.201, 1163.901
1328.400, 1085.249
1329.599, 1106.564
1330.797, 1017.865
1331.995, 939.140
1333.194, 940.352
1334.392, 961.529
1335.589, 788.637
1336.787, 806.654
1337.985, 771.616
1339.182, 683.488
1340.379, 800.307
1341.576, 645.061
1342.772, 612.767
1343.969, 530.562
1345.165, 556.151
1346.361, 560.695
1347.557, 413.257
1348.753, 348.674
1349.949, 285.565
1351.144, 208.324
1352.339, 227.326
1353.534, 150.831
1354.729, 205.609
1355.924, 160.284
1357.118, 140.155
1358.312, 124.285
1359.506, 84.005
1360.700, 15.936
1361.894, 2.724
1363.088, 103.098
1364.281, 159.583
1365.474, 102.580
1366.667, 123.814
1367.860, 157.552
1369.052, 98.560
1370.245, 202.183
1371.437, 211.065
1372.629, 122.614
1373.821, 256.500
1375.013, 120.995
1376.204, 222.150
1377.395, 196.129
1378.586, 24.319
1379.777, 73.701
1380.968, 91.195
1382.159, 86.212
1383.349, 65.560
1384.539, 30.148
1385.729, 192.106
1386.919, 129.329
1388.109, 245.527
1389.298, 345.707
1390.487, 238.869
1391.676, 373.011
1392.865, 461.133
1394.054, 453.233
1395.242, 629.314
1396.431, 593.375
1397.619, 633.414
1398.807, 823.432
1399.995, 799.424
1401.182, 1015.396
1402.370, 1079.343
1403.557, 1093.265
1404.744, 1227.162
1405.931, 1261.031
1407.118, 1324.877
1408.304, 1508.696
1409.490, 1572.494
1410.676, 1686.281
1411.862, 1940.069
1413.048, 1833.872
1414.234, 2077.702
1415.419, 2221.568
1416.604, 2215.473
1417.789, 2349.419
1418.974, 2433.409
1420.159, 2657.444
1421.343, 2861.522
1422.528, 2865.648
1423.712, 2889.822
1424.896, 3154.047
1426.079, 3168.324
1427.263, 3252.659
1428.446, 3457.057
1429.629, 3501.523
1430.812, 3595.844
1431.995, 3749.030
1433.178, 3701.439
1434.360, 3841.256
1435.543, 3958.375
1436.725, 3954.083
1437.907, 4098.434
1439.088, 3950.228
1440.270, 4061.072
1441.451, 4082.529
1442.632, 4016.338
1443.813, 3994.785
1444.994, 3972.144
1446.175, 3731.155
1447.355, 3742.200
1448.535, 3585.808
1449.715, 3503.668
1450.895, 3711.143
1452.075, 3371.146
1453.255, 3392.381
1454.434, 3297.082
1455.613, 3104.707
1456.792, 3113.939
1457.971, 3053.816
1459.149, 2927.482
1460.328, 2806.752
