##NAMES=Titanite
##RRUFFID=R050039
##IDEAL CHEMISTRY=CaTi^4+^SiO_5_
##LOCALITY=Kingman, Arizona, USA
##OWNER=RRUFF
##SOURCE=University of Arizona Mineral Museum
##DESCRIPTION=Black fragment from a single crystal
##STATUS=The identification of this mineral has been confirmed by X-ray diffraction and chemical analysis
##URL=rruff.info/R050039
##MEASURED CHEMISTRY=(Ca_0.95_Y_0.05_)(Ti_0.85_Al_0.10_Fe^3+^_0.06_)Si_1.00_O_4_(O_0.93_F_0.07_)
##PIN_ID=L00539
##ORIENTATION=Laser parallel to c* (0 0 1). Fiducial mark perpendicular to laser is parallel to a [1 0 0]
129.653, 0.000
131.042, 32.321
132.432, 24.956
133.821, 61.209
135.210, 22.298
136.599, 74.312
137.987, 2.142
139.376, 55.252
140.764, 9.650
142.152, 66.141
143.539, 0.460
144.927, 24.911
146.314, 76.438
147.701, 159.246
149.088, 164.306
150.474, 81.438
151.861, 160.479
153.247, 121.271
154.633, 283.668
156.018, 277.543
157.404, 272.776
158.789, 379.270
160.174, 336.933
161.559, 365.697
162.943, 505.511
164.327, 466.332
165.711, 458.122
167.095, 500.841
168.479, 544.449
169.862, 438.904
171.246, 454.166
172.628, 560.174
174.011, 596.858
175.394, 514.165
176.776, 572.047
178.158, 550.469
179.540, 659.399
180.922, 658.812
182.303, 788.685
183.684, 778.994
185.065, 769.725
186.446, 900.857
187.826, 912.381
189.207, 764.289
190.587, 926.600
191.967, 889.329
193.346, 952.499
194.726, 866.121
196.105, 960.204
197.484, 1034.753
198.862, 1029.760
200.241, 1045.198
201.619, 1161.048
202.997, 1057.284
204.375, 1073.886
205.753, 1000.835
207.130, 1037.330
208.507, 1107.997
209.884, 1173.578
211.261, 1281.738
212.638, 1450.097
214.014, 1488.452
215.390, 1656.809
216.766, 1775.173
218.141, 1833.566
219.517, 1881.977
220.892, 1990.449
222.267, 2209.003
223.642, 2337.646
225.016, 2256.386
226.391, 2165.228
227.765, 2104.179
229.139, 1923.240
230.512, 1962.418
231.886, 1811.712
233.259, 1711.125
234.632, 1400.658
236.005, 1480.311
237.377, 1470.084
238.749, 1219.979
240.122, 1269.994
241.493, 1260.129
242.865, 1380.384
244.237, 1180.764
245.608, 1171.299
246.979, 1422.115
248.350, 1133.338
249.720, 1445.021
251.090, 1457.109
252.461, 1429.723
253.830, 1482.859
255.200, 1586.468
256.570, 1590.552
257.939, 1639.179
259.308, 1709.864
260.677, 1645.152
262.045, 1700.891
263.414, 1626.939
264.782, 1583.228
266.150, 1599.703
267.517, 1516.206
268.885, 1432.713
270.252, 1379.213
271.619, 1335.708
272.986, 1282.196
274.353, 1258.680
275.719, 1195.155
277.085, 1121.625
278.451, 1218.086
279.817, 1154.537
281.182, 1140.980
282.548, 1257.411
283.913, 1083.830
285.278, 1190.236
286.642, 1406.629
288.007, 1373.006
289.371, 1619.368
290.735, 1575.714
292.099, 1792.042
293.462, 1758.353
294.826, 2037.877
296.189, 2247.314
297.552, 2126.656
298.914, 2376.221
300.277, 2475.872
301.639, 2855.812
303.001, 2845.055
304.363, 3065.578
305.724, 3406.377
307.086, 3425.346
308.447, 3726.639
309.808, 3777.865
311.168, 4089.611
312.529, 4351.559
313.889, 4673.700
315.249, 4946.025
316.609, 4998.521
317.969, 5011.188
319.328, 5234.009
320.687, 5156.981
322.046, 5310.098
323.405, 5163.349
324.764, 5086.736
326.122, 4820.248
327.480, 4783.884
328.838, 4427.633
330.196, 4291.496
331.553, 4095.467
332.910, 3859.540
334.267, 3523.713
335.624, 3277.980
336.981, 3082.340
338.337, 2926.787
339.693, 2751.318
341.049, 2705.933
342.405, 2420.625
343.760, 2685.394
345.116, 2330.237
346.471, 2425.151
347.826, 2330.135
349.180, 2235.188
350.535, 2290.305
351.889, 2195.485
353.243, 2214.307
354.597, 2276.026
355.950, 2271.551
357.304, 2307.438
358.657, 2424.176
360.010, 2461.863
361.362, 2533.583
362.715, 2639.266
364.067, 2705.652
365.419, 2817.098
366.771, 2826.451
368.123, 3007.232
369.474, 2990.389
370.825, 3038.078
372.176, 3124.302
373.527, 3162.039
374.877, 3280.371
376.228, 3366.943
377.578, 3468.438
378.928, 3623.647
380.277, 3776.275
381.627, 3950.619
382.976, 4160.700
384.325, 4231.072
385.674, 4473.879
387.023, 4766.613
388.371, 4851.664
389.719, 4986.347
391.067, 5243.926
392.415, 5397.510
393.762, 5576.035
395.110, 5704.594
396.457, 5940.240
397.804, 5926.998
399.150, 6103.801
400.497, 6141.896
401.843, 6329.207
403.189, 6476.299
404.535, 6682.557
405.881, 6798.637
407.226, 6934.711
408.571, 7280.777
409.916, 7416.837
411.261, 7782.887
412.605, 7788.923
413.950, 8204.942
415.294, 8250.949
416.638, 8306.935
417.981, 8742.898
419.325, 8648.837
420.668, 8664.751
422.011, 8550.635
423.354, 8276.485
424.697, 8282.309
426.039, 7998.094
427.381, 7613.842
428.723, 7369.557
430.065, 6875.233
431.406, 6730.871
432.748, 6226.471
434.089, 5962.034
435.430, 5627.558
436.770, 5173.043
438.111, 4858.490
439.451, 4503.898
440.791, 4149.268
442.131, 3764.597
443.471, 3569.888
444.810, 3285.138
446.149, 2970.363
447.488, 2845.550
448.827, 2660.697
450.166, 2375.824
451.504, 2360.914
452.842, 1975.967
454.180, 1910.983
455.518, 1805.961
456.855, 1750.931
458.193, 1652.818
459.530, 1800.875
460.867, 1475.842
462.203, 1360.798
463.540, 1285.756
464.876, 1450.705
466.212, 1295.641
467.548, 1490.561
468.883, 1395.471
470.219, 1290.364
471.554, 1455.237
472.889, 1390.091
474.224, 1644.920
475.558, 1679.728
476.892, 1844.510
478.227, 1819.269
479.561, 1964.002
480.894, 1938.710
482.228, 2003.393
483.561, 2148.049
484.894, 1922.678
486.227, 1997.279
487.559, 2041.854
488.892, 1906.399
490.224, 1860.916
491.556, 1885.403
492.888, 1789.858
494.220, 1704.283
495.551, 1488.675
496.882, 1533.033
498.213, 1267.359
499.544, 1271.651
500.874, 1175.907
502.205, 1080.128
503.535, 954.314
504.865, 848.464
506.194, 725.575
507.524, 690.650
508.853, 552.688
510.182, 401.687
511.511, 364.646
512.840, 348.567
514.168, 289.447
515.496, 240.891
516.824, 186.328
518.152, 109.835
519.480, 59.530
520.807, 21.838
522.134, 82.310
523.461, 90.918
524.788, 165.667
526.114, 136.600
527.441, 153.701
528.767, 29.981
530.093, 259.377
531.418, 234.010
532.744, 96.865
534.069, 263.875
535.394, 234.127
536.719, 151.606
538.044, 209.271
539.368, 215.152
540.693, 144.253
542.017, 123.537
543.340, 126.994
544.664, 164.627
545.987, 162.456
547.311, 198.481
548.634, 191.721
549.956, 237.173
551.279, 172.859
552.601, 91.749
553.923, 91.801
555.245, 45.011
556.567, 62.358
557.889, 62.851
559.210, 123.510
560.531, 174.803
561.852, 192.036
563.173, 301.213
564.493, 494.339
565.813, 690.417
567.133, 881.449
568.453, 1066.973
569.773, 1267.369
571.092, 1415.258
572.412, 1633.100
573.731, 1770.895
575.049, 1968.642
576.368, 1976.342
577.686, 2133.994
579.005, 2311.601
580.323, 2219.160
581.640, 2136.675
582.958, 2294.141
584.275, 2361.561
585.593, 2108.935
586.909, 2206.265
588.226, 2253.548
589.543, 2180.785
590.859, 2197.979
592.175, 2235.125
593.491, 2342.228
594.807, 2189.284
596.122, 2086.298
597.438, 2093.266
598.753, 2180.191
600.068, 2037.071
601.382, 2213.910
602.697, 2120.703
604.011, 2100.035
605.325, 2126.922
606.639, 2113.586
607.952, 2154.733
609.266, 2101.312
610.579, 2148.821
611.892, 2135.698
613.205, 2152.296
614.518, 2018.908
615.830, 2067.873
617.142, 2204.196
618.454, 1891.657
619.766, 2147.896
621.078, 2086.605
622.389, 2002.761
623.700, 1918.973
625.011, 2105.043
626.322, 2011.070
627.632, 1967.056
628.943, 2033.022
630.253, 1948.965
631.563, 1894.933
632.872, 2020.915
634.182, 1836.939
635.491, 1863.066
636.800, 1979.233
638.109, 1855.482
639.418, 1941.770
640.726, 1988.136
642.035, 1874.536
643.343, 1890.940
644.651, 1807.379
645.958, 1993.784
647.266, 1870.150
648.573, 1886.477
649.880, 1862.764
651.187, 1849.011
652.494, 1895.219
653.800, 1741.390
655.106, 1867.520
656.412, 1843.613
657.718, 2009.668
659.024, 1685.685
660.329, 1761.663
661.634, 1747.605
662.939, 1743.512
664.244, 1759.383
665.549, 1785.218
666.853, 1731.018
668.157, 1748.962
669.461, 1740.623
670.765, 1728.209
672.069, 1723.873
673.372, 1709.335
674.675, 1674.457
675.978, 1628.749
677.281, 1633.417
678.583, 1551.452
679.886, 1586.847
681.188, 1491.550
682.490, 1381.415
683.792, 1522.963
685.093, 1483.300
686.394, 1321.270
687.696, 1584.712
688.997, 1289.623
690.297, 1283.027
691.598, 1285.837
692.898, 1210.409
694.198, 1330.062
695.498, 1126.003
696.798, 1131.487
698.097, 1261.343
699.397, 1122.423
700.696, 1103.216
701.995, 1151.579
703.293, 890.021
704.592, 1066.146
705.890, 972.646
707.188, 926.253
708.486, 903.860
709.784, 996.528
711.081, 809.168
712.378, 844.723
713.675, 849.170
714.972, 733.573
716.269, 866.688
717.565, 680.588
718.862, 674.710
720.158, 549.666
721.453, 553.672
722.749, 659.943
724.045, 565.090
725.340, 630.245
726.635, 575.404
727.930, 380.571
729.224, 495.746
730.519, 450.928
731.813, 496.115
733.107, 421.313
734.401, 386.520
735.694, 301.732
736.988, 376.956
738.281, 316.398
739.574, 277.430
740.867, 302.682
742.160, 257.944
743.452, 283.216
744.744, 228.500
746.036, 221.153
747.328, 199.100
748.620, 174.417
749.911, 189.746
751.202, 145.088
752.493, 50.442
753.784, 105.810
755.075, 161.190
756.365, 26.584
757.655, 131.991
758.945, 92.587
760.235, 7.179
761.525, 108.240
762.814, 136.326
764.103, 119.077
765.392, 45.504
766.681, 20.080
767.969, 4.647
769.258, 9.201
770.546, 93.743
771.834, 71.704
773.122, 52.831
774.409, 22.638
775.697, 91.876
776.984, 63.602
778.271, 0.902
779.558, 34.610
780.844, 100.141
782.131, 15.691
783.417, 195.479
784.703, 134.192
785.989, 264.964
787.274, 291.471
788.560, 156.564
789.845, 345.384
791.130, 369.175
792.415, 352.280
793.699, 436.140
794.983, 448.755
796.268, 510.940
797.552, 496.143
798.835, 588.422
800.119, 664.933
801.402, 760.715
802.686, 636.506
803.969, 612.310
805.251, 838.125
806.534, 693.952
807.816, 759.801
809.098, 835.662
810.380, 911.574
811.662, 1047.521
812.944, 963.501
814.225, 909.543
815.506, 1265.655
816.787, 1211.832
818.068, 1168.072
819.349, 1374.370
820.629, 1580.736
821.909, 1617.157
823.189, 1703.607
824.469, 1760.106
825.749, 1876.656
827.028, 1913.243
828.307, 2021.303
829.586, 2148.144
830.865, 2243.363
832.144, 2430.184
833.422, 2607.071
834.700, 2764.036
835.978, 2811.086
837.256, 2898.224
838.534, 3135.442
839.811, 3442.750
841.088, 3530.108
842.365, 4007.584
843.642, 3985.168
844.919, 4182.828
846.195, 4570.605
847.472, 4598.496
848.748, 4946.475
850.023, 5287.969
851.299, 5582.752
852.575, 6021.033
853.850, 6379.400
855.125, 6687.852
856.400, 7166.399
857.674, 7825.043
858.949, 8093.792
860.223, 8542.647
861.497, 9361.616
862.771, 9630.685
864.045, 10359.834
865.318, 10989.060
866.591, 11688.354
867.864, 12407.720
869.137, 12717.156
870.410, 13506.627
871.682, 14256.123
872.955, 14695.648
874.227, 15675.198
875.499, 15674.773
876.770, 16134.368
878.042, 16793.990
879.313, 16843.629
880.584, 17033.293
881.855, 17462.980
883.126, 17762.695
884.396, 17632.426
885.667, 17792.188
886.937, 17831.971
888.207, 17451.775
889.476, 17551.600
890.746, 17431.455
892.015, 16631.334
893.284, 16321.231
894.553, 15881.156
895.822, 14971.102
897.090, 14751.074
898.359, 13701.071
899.627, 13171.093
900.895, 12141.137
902.163, 11451.204
903.430, 10961.298
904.698, 9711.415
905.965, 9561.557
907.232, 8711.724
908.499, 7811.914
909.765, 7162.129
911.032, 6872.369
912.298, 5970.053
913.564, 5529.404
914.830, 4840.479
916.095, 4406.292
917.361, 4126.657
918.626, 3616.073
919.891, 3176.105
921.156, 2646.402
922.420, 2506.666
923.685, 2044.562
924.949, 1805.082
926.213, 1574.448
927.477, 1225.023
928.740, 953.108
930.004, 733.735
931.267, 474.289
932.530, 454.971
933.793, 215.678
935.056, 13.587
936.318, 7.130
937.581, 202.162
938.843, 141.564
940.104, 261.047
941.366, 492.669
942.628, 250.554
943.889, 400.574
945.150, 250.808
946.411, 392.176
947.672, 221.754
948.932, 102.452
950.193, 223.213
951.453, 65.906
952.713, 115.041
953.973, 214.203
955.232, 413.394
956.491, 622.612
957.751, 951.859
959.010, 1062.269
960.268, 1511.574
961.527, 1718.885
962.785, 1952.369
964.044, 2308.315
965.302, 2725.422
966.559, 2996.566
967.817, 3357.035
969.075, 3846.827
970.332, 3955.400
971.589, 4556.561
972.846, 4654.324
974.102, 5026.281
975.359, 5222.140
976.615, 5448.951
977.871, 5552.521
979.127, 5811.769
980.383, 5667.812
981.638, 5657.315
982.893, 5900.877
984.149, 5514.309
985.404, 5706.191
986.658, 5458.877
987.913, 5388.750
989.167, 5378.648
990.421, 5288.570
991.675, 5288.516
992.929, 5078.481
994.183, 5208.472
995.436, 5008.483
996.689, 4868.518
997.942, 4578.574
999.195, 4778.650
1000.448, 4558.752
1001.700, 4458.871
1002.952, 4289.014
1004.204, 4189.175
1005.456, 4139.359
1006.708, 4071.583
1007.959, 4060.788
1009.210, 4050.033
1010.461, 4070.298
1011.712, 4110.584
1012.963, 4120.888
1014.213, 4271.211
1015.464, 4241.554
1016.714, 4361.916
1017.964, 4682.297
1019.214, 4692.697
1020.463, 5093.115
1021.712, 5253.553
1022.962, 5684.010
1024.210, 5604.486
1025.459, 5944.980
1026.708, 6215.496
1027.956, 6536.031
1029.204, 6866.588
1030.452, 7377.164
1031.700, 7317.758
1032.948, 7588.373
1034.195, 7919.008
1035.442, 7899.665
1036.689, 8150.342
1037.936, 8301.038
1039.183, 8371.759
1040.429, 8672.500
1041.676, 8373.260
1042.922, 8704.042
1044.168, 8344.846
1045.413, 8465.671
1046.659, 8466.519
1047.904, 8137.387
1049.149, 7748.278
1050.394, 7909.190
1051.639, 7280.127
1052.884, 7041.084
1054.128, 6752.062
1055.372, 6593.064
1056.616, 6204.091
1057.860, 5865.138
1059.104, 5526.207
1060.347, 5207.302
1061.590, 4958.418
1062.833, 4539.571
1064.076, 4400.747
1065.319, 4121.948
1066.561, 3913.194
1067.803, 3514.463
1069.046, 3555.762
1070.287, 3327.084
1071.529, 3128.434
1072.771, 3259.806
1074.012, 2991.215
1075.253, 2982.648
1076.494, 3134.109
1077.735, 2895.596
1078.975, 2807.116
1080.216, 3048.659
1081.456, 3030.226
1082.696, 3111.814
1083.936, 3013.426
1085.175, 3060.842
1086.415, 3119.373
1087.654, 2795.887
1088.893, 2895.940
1090.132, 2628.987
1091.371, 2597.582
1092.609, 2351.250
1093.847, 1935.646
1095.085, 1819.334
1096.323, 1714.309
1097.561, 1229.761
1098.799, 1112.243
1100.036, 1077.696
1101.273, 608.967
1102.510, 671.014
1103.747, 243.100
1104.983, 425.230
1106.220, 147.401
1107.456, 10.390
1108.692, 101.901
1109.928, 145.768
1111.163, 73.462
1112.399, 61.117
1113.634, 198.771
1114.869, 216.477
1116.104, 204.241
1117.339, 192.054
1118.573, 169.899
1119.808, 217.751
1121.042, 155.651
1122.276, 43.536
1123.509, 121.394
1124.743, 139.248
1125.976, 77.104
1127.210, 184.958
1128.443, 126.507
1129.675, 190.614
1130.908, 78.477
1132.141, 76.313
1133.373, 44.141
1134.605, 61.931
1135.837, 46.209
1137.068, 162.573
1138.300, 264.915
1139.531, 407.344
1140.762, 519.826
1141.993, 772.358
1143.224, 754.944
1144.455, 1167.578
1145.685, 1290.263
1146.915, 1462.994
1148.145, 1945.773
1149.375, 2038.605
1150.605, 2391.482
1151.834, 2714.409
1153.063, 2917.388
1154.292, 3680.412
1155.521, 4053.488
1156.750, 4536.614
1157.978, 5099.787
1159.207, 5533.010
1160.435, 6256.281
1161.663, 6979.602
1162.891, 7332.972
1164.118, 8436.387
1165.345, 8659.855
1166.573, 9423.372
1167.800, 10506.935
1169.026, 11090.549
1170.253, 11734.216
1171.480, 12747.928
1172.706, 12981.694
1173.932, 13995.512
1175.158, 13919.378
1176.383, 14623.293
1177.609, 14747.255
1178.834, 14731.267
1180.059, 14935.334
1181.284, 14509.450
1182.509, 14353.618
1183.734, 14387.832
1184.958, 13772.088
1186.182, 13836.393
1187.406, 13560.748
1188.630, 13355.142
1189.854, 12919.599
1191.077, 13194.094
1192.301, 12878.643
1193.524, 12893.236
1194.747, 12777.876
1195.969, 12709.857
1197.192, 12837.300
1198.414, 12792.072
1199.636, 12736.881
1200.858, 13021.730
1202.080, 12576.610
1203.302, 12671.526
1204.523, 12386.479
1205.744, 12111.459
1206.966, 12266.472
1208.186, 11611.512
1209.407, 11546.580
1210.628, 11281.675
1211.848, 11166.792
1213.068, 11051.931
1214.288, 10837.086
1215.508, 10912.263
1216.727, 10677.451
1217.947, 10502.654
1219.166, 10827.862
1220.385, 10753.083
1221.604, 10988.303
1222.822, 11593.531
1224.041, 11328.753
1225.259, 12013.971
1226.477, 12429.183
1227.695, 12354.386
1228.913, 12929.572
1230.130, 13474.744
1231.348, 13979.896
1232.565, 14355.041
1233.782, 14460.247
1234.999, 14845.562
1236.215, 15620.977
1237.432, 15306.508
1238.648, 15982.230
1239.864, 16418.074
1241.080, 16094.083
1242.296, 16310.212
1243.511, 16146.504
1244.726, 16183.545
1245.942, 16230.137
1247.156, 15807.456
1248.371, 15714.431
1249.586, 15561.225
1250.800, 14899.833
1252.014, 14857.413
1253.228, 14074.874
1254.442, 13714.588
1255.656, 13772.505
1256.869, 12754.276
1258.083, 12417.694
1259.296, 12302.038
1260.509, 11510.388
1261.722, 10837.967
1262.934, 10857.803
1264.147, 10240.245
1265.359, 9887.911
1266.571, 9438.655
1267.783, 9200.633
1268.994, 9079.001
1270.206, 8616.537
1271.417, 8463.439
1272.628, 8208.833
1273.839, 7971.899
1275.050, 8124.042
1276.260, 7773.643
1277.471, 7563.896
1278.681, 7960.301
1279.891, 7491.521
1281.101, 7589.207
1282.310, 7558.848
1283.520, 7462.826
1284.729, 7941.959
1285.938, 7612.863
1287.147, 7763.693
1288.356, 8014.836
1289.564, 8014.790
1290.773, 8295.631
1291.981, 8675.419
1293.189, 8465.499
1294.397, 8906.654
1295.604, 8946.406
1296.812, 8956.900
1298.019, 9417.684
1299.226, 9227.709
1300.433, 9488.854
1301.640, 9929.217
1302.846, 9629.032
1304.053, 10210.543
1305.259, 9970.593
1306.465, 9850.633
1307.671, 9961.434
1308.876, 10351.576
1310.082, 10142.431
1311.287, 10333.206
1312.492, 10163.142
1313.697, 10464.404
1314.902, 10455.465
1316.106, 10095.864
1317.310, 10217.386
1318.515, 10028.485
1319.719, 9808.609
1320.922, 9799.803
1322.126, 9580.202
1323.329, 9391.058
1324.533, 9223.877
1325.736, 8963.457
1326.939, 8775.454
1328.141, 8615.475
1329.344, 8255.236
1330.546, 8136.512
1331.748, 7676.051
1332.950, 7345.539
1334.152, 7319.486
1335.354, 6888.701
1336.555, 6729.805
1337.757, 6580.768
1338.958, 5950.431
1340.159, 5941.976
1341.359, 5681.614
1342.560, 5400.171
1343.760, 5248.771
1344.960, 4977.020
1346.160, 4664.406
1347.360, 4523.088
1348.560, 4220.438
1349.759, 4227.012
1350.959, 3884.375
1352.158, 3710.453
1353.357, 3616.690
1354.555, 3162.608
1355.754, 3157.929
1356.952, 2982.705
1358.151, 2767.116
1359.349, 2580.833
1360.546, 2464.523
1361.744, 2097.094
1362.941, 2228.891
1364.139, 1900.967
1365.336, 1692.060
1366.533, 1722.607
1367.730, 1372.322
1368.926, 1271.166
1370.123, 1339.682
1371.319, 1057.359
1372.515, 951.129
1373.711, 863.291
1374.906, 658.517
1376.102, 794.825
1377.297, 541.787
1378.492, 587.820
1379.687, 522.917
1380.882, 458.075
1382.077, 543.289
1383.271, 390.550
1384.465, 242.853
1385.659, 282.191
1386.853, 206.558
1388.047, 53.851
1389.240, 189.210
1390.434, 49.663
1391.627, 151.341
1392.820, 212.155
1394.013, 26.929
1395.205, 60.015
1396.398, 107.036
1397.590, 216.944
1398.782, 35.185
1399.974, 33.641
1401.166, 154.434
1402.357, 113.684
1403.549, 12.305
1404.740, 12.233
1405.931, 34.214
1407.122, 61.205
1408.313, 121.207
1409.503, 48.227
1410.693, 169.268
1411.883, 15.323
1413.073, 60.396
1414.263, 61.490
1415.453, 44.393
1416.642, 190.747
1417.831, 120.921
1419.020, 70.865
1420.209, 43.379
1421.398, 38.344
1422.587, 23.986
1423.775, 30.643
1424.963, 99.247
1426.151, 24.167
1427.339, 102.646
1428.526, 43.838
1429.714, 54.283
1430.901, 48.706
1432.088, 138.145
1433.275, 78.613
1434.462, 183.129
1435.648, 161.709
1436.835, 87.379
1438.021, 227.166
1439.207, 154.104
1440.393, 142.230
1441.579, 235.595
1442.764, 136.235
1443.949, 223.213
1445.135, 327.588
1446.320, 145.430
1447.504, 316.816
1448.689, 342.404
1449.873, 248.062
1451.058, 364.789
1452.242, 273.584
1453.426, 299.055
1454.609, 482.160
1455.793, 272.168
1456.976, 307.978
1458.159, 369.331
1459.342, 237.451
1460.525, 262.681
1461.708, 419.728
1462.890, 244.469
1464.073, 306.174
1465.255, 210.718
1466.437, 72.074
1467.619, 303.676
1468.800, 54.095
1469.982, 180.011
1471.163, 192.673
1472.344, 56.748
1473.525, 153.171
1474.706, 146.584
1475.886, 23.166
1477.066, 164.250
1478.247, 27.050
1479.427, 28.242
1480.607, 89.399
1481.786, 7.848
1482.966, 72.219
1484.145, 157.564
1485.324, 133.173
1486.503, 153.737
1487.682, 259.222
1488.860, 63.199
1490.039, 172.950
1491.217, 284.821
1492.395, 89.423
1493.573, 239.746
1494.751, 148.799
1495.928, 142.066
1497.106, 140.490
1498.283, 164.929
1499.460, 127.102
1500.637, 139.163
1501.814, 56.683
1502.990, 178.100
