##NAMES=Titanite
##RRUFFID=R040033
##IDEAL CHEMISTRY=CaTi^4+^SiO_5_
##LOCALITY=Brazil
##OWNER=RRUFF
##SOURCE=University of Arizona Mineral Museum
##DESCRIPTION=Green flattened wedge-shaped single crystals
##STATUS=The identification of this mineral has been confirmed by X-ray diffraction and chemical analysis
##URL=rruff.info/R040033
##MEASURED CHEMISTRY=(Ca_0.97_Fe^3+^_0.03_)_Σ=1_(Ti_0.97_Al_0.03_)_Σ=1_Si_1.00_O_5_; Fe^3+^ assigned for charge balance
##PIN_ID=L00108
##ORIENTATION=Laser parallel to c [0 0 1]. Fiducial mark perpendicular to laser is parallel to b* (0 1 0)
51.466, 0.000
52.866, 186.276
54.266, 264.549
55.666, 382.568
57.065, 409.201
58.464, 203.483
59.863, 9.520
61.262, 87.442
62.661, 128.268
64.059, 48.482
65.458, 48.051
66.856, 325.127
68.253, 565.088
69.651, 892.825
71.048, 1351.357
72.445, 1729.819
73.842, 2214.442
75.239, 2709.561
76.635, 3175.663
78.031, 3501.314
79.427, 3734.090
80.823, 3893.578
82.218, 3926.388
83.614, 4021.156
85.009, 3999.551
86.404, 4064.268
87.798, 4113.026
89.193, 4194.572
90.587, 4285.674
91.981, 4307.119
93.375, 4469.709
94.768, 4440.238
96.161, 4554.527
97.554, 4688.521
98.947, 4686.312
100.340, 4893.997
101.732, 5050.551
103.124, 5244.785
104.516, 5385.487
105.908, 5528.483
107.300, 5614.612
108.691, 5724.148
110.082, 5782.738
111.473, 5858.497
112.864, 5934.919
114.254, 5925.914
115.644, 5847.397
117.034, 5881.299
118.424, 5613.545
119.813, 5877.079
121.203, 5805.841
122.592, 5888.774
123.981, 6185.834
125.369, 6238.969
126.758, 6464.139
128.146, 6375.304
129.534, 6514.427
130.922, 6344.470
132.309, 6373.408
133.696, 6138.203
135.083, 6121.659
136.470, 5968.429
137.857, 6140.780
139.243, 6248.803
140.630, 6419.802
142.016, 6536.639
143.401, 6698.928
144.787, 6631.082
146.172, 6761.254
147.557, 6779.171
148.942, 6895.429
150.327, 7597.082
151.711, 8474.945
153.096, 9749.770
154.480, 11225.579
155.863, 12971.404
157.247, 14701.267
158.630, 16138.190
160.013, 17288.191
161.396, 17918.281
162.779, 17879.480
164.161, 17291.797
165.544, 16272.247
166.926, 15132.834
168.308, 14173.568
169.689, 13013.453
171.070, 12655.501
172.452, 12178.711
173.833, 11795.092
175.213, 11782.650
176.594, 11572.379
177.974, 11705.293
179.354, 11896.386
180.734, 11732.665
182.114, 11676.129
183.493, 11756.777
184.872, 11743.615
186.251, 11777.633
187.630, 11660.834
189.008, 11694.220
190.387, 12203.782
191.765, 12239.528
193.143, 12634.449
194.520, 12888.555
195.898, 13596.834
197.275, 14020.295
198.652, 14687.930
200.029, 15200.745
201.405, 15945.728
202.782, 16423.891
204.158, 17083.232
205.534, 17880.738
206.909, 17858.424
208.285, 18406.277
209.660, 18776.303
211.035, 18675.498
212.410, 19013.855
213.784, 19073.393
215.159, 19437.098
216.533, 19682.967
217.907, 20038.379
219.281, 20417.406
220.654, 20491.146
222.027, 21259.527
223.400, 21617.332
224.773, 21982.816
226.146, 22125.639
227.518, 22267.973
228.891, 22271.729
230.263, 22377.977
231.634, 22320.820
233.006, 21831.721
234.377, 21608.678
235.748, 21395.857
237.119, 21210.016
238.490, 21782.342
239.860, 22074.121
241.231, 22904.139
242.601, 24177.631
243.970, 25450.359
245.340, 26930.119
246.709, 27880.604
248.079, 29558.924
249.448, 29909.432
250.816, 30647.080
252.185, 30601.223
253.553, 30121.824
254.921, 29798.867
256.289, 28340.352
257.657, 27130.252
259.024, 25380.545
260.391, 23653.223
261.758, 21660.281
263.125, 20073.703
264.492, 18358.469
265.858, 16679.564
267.224, 15403.991
268.590, 13957.723
269.956, 13126.758
271.321, 12338.075
272.687, 11409.673
274.052, 10642.537
275.416, 10336.666
276.781, 9858.047
278.146, 9443.675
279.510, 9413.537
280.874, 9143.637
282.237, 9245.958
283.601, 9079.501
284.964, 9160.257
286.327, 9256.220
287.690, 9072.389
289.053, 8904.755
290.416, 8924.312
291.778, 8505.062
293.140, 8616.997
294.502, 8686.112
295.863, 9306.406
297.225, 10268.872
298.586, 11247.511
299.947, 12312.315
301.308, 13213.286
302.668, 14246.421
304.029, 15110.718
305.389, 15652.172
306.749, 16205.772
308.108, 16918.518
309.468, 17081.391
310.827, 17389.373
312.186, 17882.463
313.545, 18419.645
314.903, 18275.918
316.262, 17915.277
317.620, 17461.723
318.978, 16424.262
320.336, 15713.884
321.693, 15047.598
323.051, 14630.400
324.408, 14400.834
325.765, 14512.281
327.121, 14389.357
328.478, 14852.529
329.834, 15155.784
331.190, 15491.134
332.546, 15411.573
333.902, 15614.104
335.257, 15064.726
336.612, 14734.440
337.967, 13859.246
339.322, 13012.143
340.677, 12305.128
342.031, 11278.204
343.385, 10576.373
344.739, 9756.628
346.093, 9045.976
347.446, 8587.412
348.799, 8088.938
350.153, 7791.553
351.505, 7242.256
352.858, 6848.047
354.210, 6714.929
355.563, 6152.895
356.915, 5963.949
358.267, 5670.089
359.618, 5452.317
360.969, 5178.629
362.321, 4837.027
363.672, 4609.511
365.022, 4252.079
366.373, 3778.729
367.723, 3500.463
369.073, 2956.281
370.423, 2614.182
371.773, 2076.163
373.122, 1585.229
374.471, 1276.375
375.821, 775.601
377.169, 589.908
378.518, 176.296
379.866, 32.762
381.215, 88.632
382.563, 185.938
383.910, 263.197
385.258, 323.348
386.605, 264.705
387.952, 436.960
389.299, 486.278
390.646, 615.692
391.992, 968.270
393.339, 1084.205
394.685, 1286.563
396.031, 1268.450
397.376, 1561.863
398.722, 1578.950
400.067, 1634.724
401.412, 1628.217
402.757, 1465.428
404.101, 1444.282
405.446, 1351.771
406.790, 1068.853
408.134, 781.390
409.478, 387.244
410.821, 109.775
412.165, 493.867
413.508, 1352.090
414.851, 2172.436
416.193, 3055.904
417.536, 4264.491
418.878, 5487.199
420.220, 6494.023
421.562, 7036.963
422.904, 7544.019
424.245, 7589.188
425.586, 7080.471
426.927, 6779.867
428.268, 6028.373
429.609, 5274.988
430.949, 4945.715
432.289, 4570.549
433.629, 4118.492
434.969, 4038.541
436.309, 3914.697
437.648, 3946.961
438.987, 3945.329
440.326, 3919.804
441.665, 3938.381
443.003, 3995.063
444.342, 4044.850
445.680, 4263.739
447.018, 4500.738
448.355, 4647.850
449.693, 5244.066
451.030, 5794.403
452.367, 6784.867
453.704, 7482.441
455.041, 8919.178
456.377, 10257.044
457.713, 12051.053
459.049, 14049.209
460.385, 16486.506
461.721, 19086.957
463.056, 21437.559
464.391, 23198.311
465.726, 25145.219
467.061, 25134.289
468.395, 24303.508
469.730, 22695.900
471.064, 19397.447
472.398, 16933.150
473.731, 13540.018
475.065, 11080.052
476.398, 8894.242
477.731, 7136.593
479.064, 5602.109
480.397, 4675.780
481.729, 3852.623
483.062, 3280.625
484.394, 2922.795
485.725, 2696.113
487.057, 2648.584
488.389, 2618.218
489.720, 2603.013
491.051, 2619.981
492.382, 2661.122
493.712, 2785.447
495.043, 2907.949
496.373, 2800.634
497.703, 2949.508
499.032, 2978.542
500.362, 2942.738
501.691, 3034.107
503.020, 2981.631
504.349, 3122.319
505.678, 3151.163
507.007, 3400.155
508.335, 3587.292
509.663, 3778.567
510.991, 4114.971
512.319, 4320.491
513.646, 4811.124
514.973, 4915.861
516.300, 5375.702
517.627, 5701.645
518.954, 5778.686
520.280, 6259.831
521.607, 6625.073
522.933, 7090.417
524.259, 7575.860
525.584, 8034.401
526.910, 8900.045
528.235, 9539.786
529.560, 10498.630
530.885, 11081.572
532.209, 12019.613
533.534, 13232.753
534.858, 14047.990
536.182, 15050.328
537.506, 15749.768
538.829, 16728.307
540.152, 17350.322
541.476, 18134.465
542.799, 18556.680
544.121, 19013.818
545.444, 19140.596
546.766, 19222.455
548.088, 19292.838
549.410, 19150.434
550.732, 18435.893
552.053, 18002.252
553.375, 16802.709
554.696, 15900.241
556.017, 15079.770
557.337, 13840.077
558.658, 12868.376
559.978, 11648.429
561.298, 10889.913
562.618, 9696.009
563.938, 8667.447
565.257, 7620.439
566.576, 6700.160
567.895, 6052.896
569.214, 5685.508
570.533, 5598.624
571.851, 5549.252
573.170, 6233.041
574.488, 6867.992
575.805, 7439.104
577.123, 8254.376
578.440, 9569.804
579.758, 10768.394
581.075, 11855.143
582.391, 13824.049
583.708, 15043.113
585.024, 16800.334
586.341, 18962.713
587.657, 21105.242
588.972, 23381.936
590.288, 25584.781
591.603, 28065.463
592.918, 30483.326
594.233, 33041.242
595.548, 35503.703
596.863, 37832.320
598.177, 40270.078
599.491, 42464.066
600.805, 44908.066
602.119, 46608.289
603.432, 48286.656
604.746, 49886.879
606.059, 49940.527
607.372, 50139.609
608.685, 50228.543
609.997, 49274.738
611.309, 48221.969
612.621, 46915.074
613.933, 45995.750
615.245, 44153.262
616.557, 42813.664
617.868, 40859.516
619.179, 39064.344
620.490, 37094.395
621.801, 35717.660
623.111, 34031.238
624.421, 33061.398
625.731, 30568.863
627.041, 30216.223
628.351, 27813.775
629.660, 26812.725
630.970, 26094.334
632.279, 24461.771
633.588, 23441.242
634.896, 21867.129
636.205, 21515.188
637.513, 20069.188
638.821, 19451.488
640.129, 18643.861
641.437, 17868.062
642.744, 17129.229
644.051, 16181.264
645.358, 15660.936
646.665, 14926.164
647.972, 14389.561
649.278, 13939.210
650.584, 13367.893
651.890, 13185.628
653.196, 12486.461
654.502, 12394.101
655.807, 11511.601
657.113, 11224.060
658.418, 11231.012
659.722, 10612.570
661.027, 10133.349
662.331, 9999.090
663.636, 9608.744
664.940, 9206.743
666.244, 8895.419
667.547, 8505.032
668.851, 8487.937
670.154, 7944.795
671.457, 7851.661
672.760, 7625.145
674.062, 7359.331
675.365, 7140.589
676.667, 6803.927
677.969, 6548.339
679.271, 6519.826
680.572, 6050.387
681.874, 6119.021
683.175, 5878.729
684.476, 5622.505
685.777, 5357.354
687.077, 5090.273
688.378, 5046.261
689.678, 4863.317
690.978, 4673.441
692.278, 4354.631
693.577, 4386.887
694.877, 4134.210
696.176, 4031.598
697.475, 3908.075
698.774, 3723.669
700.072, 3546.398
701.371, 3562.283
702.669, 3197.336
703.967, 3214.543
705.265, 3244.944
706.562, 3005.551
707.860, 2716.393
709.157, 2715.554
710.454, 2588.064
711.751, 2496.972
713.047, 2296.273
714.344, 2204.040
715.640, 2196.274
716.936, 1935.991
718.232, 1997.187
719.527, 1801.821
720.823, 1934.888
722.118, 1763.362
723.413, 1615.175
724.708, 1498.253
726.002, 1536.504
727.297, 1241.814
728.591, 1410.163
729.885, 1272.550
731.179, 1141.972
732.472, 1094.429
733.766, 1006.919
735.059, 951.221
736.352, 965.994
737.645, 861.576
738.937, 837.187
740.230, 789.823
741.522, 702.486
742.814, 635.173
744.106, 566.124
745.397, 512.615
746.689, 409.369
747.980, 404.145
749.271, 306.939
750.562, 337.753
751.853, 291.584
753.143, 283.432
754.433, 242.475
755.723, 95.173
757.013, 131.064
758.303, 42.969
759.592, 32.115
760.881, 44.202
762.170, 4.298
763.459, 97.394
764.748, 116.522
766.036, 36.696
767.325, 259.884
768.613, 122.193
769.901, 183.559
771.188, 174.015
772.476, 157.512
773.763, 218.242
775.050, 163.136
776.337, 211.001
777.624, 174.983
778.910, 245.793
780.196, 175.311
781.482, 234.724
782.768, 196.761
784.054, 161.959
785.339, 251.386
786.625, 189.930
787.910, 183.287
789.195, 149.171
790.479, 213.207
791.764, 136.834
793.048, 220.429
794.332, 146.420
795.616, 187.801
796.900, 97.113
798.183, 119.214
799.467, 142.630
800.750, 146.219
802.033, 174.487
803.316, 172.233
804.598, 214.466
805.880, 177.542
807.163, 205.182
808.445, 212.445
809.726, 109.177
811.008, 119.064
812.289, 137.572
813.570, 78.463
814.851, 108.753
816.132, 71.353
817.413, 49.164
818.693, 18.115
819.973, 8.195
821.253, 48.600
822.533, 94.295
823.813, 139.572
825.092, 212.448
826.371, 267.931
827.650, 364.358
828.929, 415.434
830.208, 502.066
831.486, 544.346
832.764, 605.571
834.042, 689.742
835.320, 818.857
836.598, 913.916
837.875, 1082.917
839.152, 1148.860
840.429, 1356.748
841.706, 1460.577
842.983, 1674.347
844.259, 1934.060
845.536, 2130.712
846.812, 2453.300
848.088, 2692.823
849.363, 3080.283
850.639, 3458.676
851.914, 3678.002
853.189, 3983.259
854.464, 4318.445
855.739, 4450.561
857.013, 4444.604
858.288, 4370.572
859.562, 4211.464
860.836, 4190.278
862.110, 3823.013
863.383, 3839.666
864.656, 3654.235
865.930, 3530.717
867.203, 3554.111
868.475, 3394.414
869.748, 3394.624
871.020, 3386.737
872.292, 3316.751
873.564, 3164.665
874.836, 3010.476
876.108, 2783.181
877.379, 2680.779
878.650, 2517.268
879.922, 2373.646
881.192, 2347.915
882.463, 2306.071
883.733, 2207.116
885.004, 2196.048
886.274, 2157.868
887.544, 2126.574
888.813, 1941.167
890.083, 1843.645
891.352, 1786.008
892.621, 1594.256
893.890, 1490.388
895.159, 1406.404
896.427, 1336.486
897.695, 1307.859
898.964, 1306.367
900.232, 1323.413
901.499, 1371.287
902.767, 1458.233
904.034, 1593.941
905.301, 1771.635
906.568, 1975.295
907.835, 2227.078
909.102, 2406.519
910.368, 2578.367
911.634, 2628.889
912.900, 2573.240
914.166, 2479.321
915.432, 2253.928
916.697, 1986.803
917.962, 1775.285
919.227, 1462.872
920.492, 1257.527
921.757, 1041.787
923.021, 843.111
924.285, 753.522
925.550, 623.491
926.813, 509.512
928.077, 494.197
929.341, 405.620
930.604, 379.621
931.867, 288.090
933.130, 270.165
934.393, 282.236
935.655, 191.853
936.918, 225.993
938.180, 144.485
939.442, 156.101
940.703, 159.665
941.965, 123.796
943.226, 125.731
944.488, 114.705
945.749, 110.367
947.009, 84.081
948.270, 122.970
949.530, 106.988
950.791, 139.415
952.051, 131.189
953.311, 196.422
954.570, 202.694
955.830, 211.734
957.089, 247.702
958.348, 264.819
959.607, 297.220
960.866, 312.153
962.124, 301.258
963.383, 344.664
964.641, 359.227
965.899, 406.512
967.156, 429.533
968.414, 483.911
969.671, 505.750
970.928, 530.567
972.185, 578.869
973.442, 620.946
974.699, 651.602
975.955, 698.359
977.211, 719.740
978.468, 783.021
979.723, 820.414
980.979, 890.542
982.234, 998.936
983.490, 979.971
984.745, 1038.615
986.000, 1155.600
987.254, 1225.764
988.509, 1347.591
989.763, 1414.487
991.017, 1450.946
992.271, 1545.869
993.525, 1524.729
994.779, 1547.123
996.032, 1500.498
997.285, 1475.497
998.538, 1452.714
999.791, 1429.195
1001.044, 1362.243
1002.296, 1410.814
1003.548, 1435.125
1004.800, 1455.408
1006.052, 1539.535
1007.304, 1483.473
1008.555, 1562.325
1009.807, 1533.991
1011.058, 1633.481
1012.309, 1657.807
1013.559, 1647.954
1014.810, 1583.876
1016.060, 1605.745
1017.310, 1583.494
1018.560, 1574.158
1019.810, 1534.737
1021.060, 1522.229
1022.309, 1427.638
1023.558, 1468.962
1024.807, 1357.202
1026.056, 1279.358
1027.305, 1143.431
1028.553, 1071.421
1029.801, 969.329
1031.049, 885.262
1032.297, 815.899
1033.545, 742.563
1034.793, 672.146
1036.040, 618.649
1037.287, 650.072
1038.534, 579.416
1039.781, 538.681
1041.027, 524.868
1042.274, 473.977
1043.520, 471.009
1044.766, 400.965
1046.012, 375.844
1047.257, 363.646
1048.503, 301.371
1049.748, 273.019
1050.993, 283.587
1052.238, 236.079
1053.483, 262.491
1054.727, 234.827
1055.971, 212.084
1057.216, 174.264
1058.459, 202.365
1059.703, 132.388
1060.947, 154.331
1062.190, 202.195
1063.433, 172.991
1064.676, 181.719
1065.919, 166.376
1067.162, 189.978
1068.404, 165.531
1069.646, 174.019
1070.888, 152.496
1072.130, 161.929
1073.372, 173.335
1074.613, 170.666
1075.855, 162.116
1077.096, 193.598
1078.337, 199.934
1079.578, 222.254
1080.818, 209.279
1082.059, 224.868
1083.299, 241.225
1084.539, 297.063
1085.779, 325.927
1087.018, 296.894
1088.258, 299.827
1089.497, 291.435
1090.736, 317.433
1091.975, 310.455
1093.213, 272.926
1094.452, 256.235
1095.690, 215.789
1096.928, 199.595
1098.166, 143.189
1099.404, 112.443
1100.642, 84.880
1101.879, 70.346
1103.116, 38.347
1104.353, 31.670
1105.590, 32.327
1106.827, 4.656
1108.063, 12.613
1109.299, 32.568
1110.536, 26.050
1111.771, 1.463
1113.007, 48.508
1114.243, 2.337
1115.478, 0.914
1116.713, 13.335
1117.948, 24.694
1119.183, 4.055
1120.418, 10.422
1121.652, 0.200
1122.886, 20.803
1124.120, 2.619
1125.354, 21.074
1126.588, 6.573
1127.821, 31.116
1129.055, 26.712
1130.288, 36.359
1131.521, 4.939
1132.753, 21.805
1133.986, 3.597
1135.218, 13.433
1136.450, 5.314
1137.682, 11.237
1138.914, 30.204
1140.146, 18.220
1141.377, 19.281
1142.609, 36.386
1143.840, 10.541
1145.071, 0.262
1146.301, 11.972
1147.532, 0.754
1148.762, 1.558
1149.992, 2.093
1151.222, 27.709
1152.452, 12.290
1153.682, 26.838
1154.911, 49.353
1156.140, 47.836
1157.369, 69.738
1158.598, 89.710
1159.827, 107.103
1161.055, 127.467
1162.284, 159.805
1163.512, 150.118
1164.740, 202.405
1165.967, 182.667
1167.195, 222.906
1168.422, 256.120
1169.650, 314.310
1170.877, 369.477
1172.103, 425.622
1173.330, 529.743
1174.557, 627.842
1175.783, 758.918
1177.009, 828.974
1178.235, 943.007
1179.461, 977.019
1180.686, 990.010
1181.912, 981.981
1183.137, 912.932
1184.362, 835.862
1185.587, 742.774
1186.811, 630.665
1188.036, 570.538
1189.260, 499.392
1190.484, 518.228
1191.708, 490.046
1192.932, 469.847
1194.155, 480.537
1195.378, 485.168
1196.602, 491.999
1197.825, 537.763
1199.047, 530.035
1200.270, 549.100
1201.492, 588.269
1202.715, 561.316
1203.937, 512.263
1205.159, 556.951
1206.380, 590.847
1207.602, 568.201
1208.823, 650.746
1210.044, 656.631
1211.265, 689.351
1212.486, 694.145
1213.707, 663.830
1214.927, 662.656
1216.147, 612.356
1217.367, 608.114
1218.587, 524.727
1219.807, 517.430
1221.027, 494.182
1222.246, 448.921
1223.465, 463.704
1224.684, 457.570
1225.903, 441.566
1227.121, 446.703
1228.340, 467.781
1229.558, 482.954
1230.776, 490.328
1231.994, 496.835
1233.212, 525.453
1234.429, 549.882
1235.646, 583.086
1236.864, 612.842
1238.081, 645.131
1239.297, 665.415
1240.514, 699.434
1241.730, 721.757
1242.947, 706.454
1244.163, 763.408
1245.378, 825.923
1246.594, 818.321
1247.810, 787.943
1249.025, 830.230
1250.240, 784.282
1251.455, 754.543
1252.670, 694.047
1253.885, 647.575
1255.099, 580.768
1256.313, 536.649
1257.527, 500.706
1258.741, 438.773
1259.955, 420.173
1261.168, 384.911
1262.382, 360.165
1263.595, 320.589
1264.808, 326.595
1266.021, 278.655
1267.233, 292.194
1268.446, 270.214
1269.658, 258.030
1270.870, 247.307
1272.082, 234.400
1273.294, 224.721
1274.505, 212.515
1275.716, 201.469
1276.928, 191.665
1278.139, 189.823
1279.349, 176.686
1280.560, 169.630
1281.770, 166.951
1282.981, 171.522
1284.191, 172.993
1285.401, 181.710
1286.610, 162.834
1287.820, 182.996
1289.029, 178.472
1290.239, 202.940
1291.448, 203.722
1292.656, 210.121
1293.865, 242.800
1295.073, 261.492
1296.282, 289.250
1297.490, 304.585
1298.698, 300.980
1299.906, 333.854
1301.113, 326.822
1302.320, 344.856
1303.528, 330.848
1304.735, 352.982
1305.942, 366.188
1307.148, 369.476
1308.355, 322.891
1309.561, 392.251
1310.767, 354.633
1311.973, 331.993
1313.179, 355.334
1314.384, 386.656
1315.590, 394.954
1316.795, 430.239
1318.000, 405.497
1319.205, 421.750
1320.410, 401.997
1321.614, 391.206
1322.819, 399.402
1324.023, 375.576
1325.227, 394.726
1326.431, 390.865
1327.634, 343.994
1328.838, 353.112
1330.041, 333.219
1331.244, 308.317
1332.447, 295.405
1333.650, 249.483
1334.852, 256.550
1336.055, 248.606
1337.257, 251.779
1338.459, 209.879
1339.661, 204.901
1340.862, 206.916
1342.064, 216.916
1343.265, 201.923
1344.466, 200.902
1345.667, 179.871
1346.868, 210.831
1348.068, 201.783
1349.269, 201.729
1350.469, 189.721
1351.669, 158.693
1352.869, 132.658
1354.069, 138.578
1355.268, 146.493
1356.468, 127.401
1357.667, 146.322
1358.866, 99.557
1360.065, 117.440
1361.263, 72.317
1362.462, 91.257
1363.660, 82.122
1364.858, 69.978
1366.056, 75.825
1367.254, 36.666
1368.451, 50.475
1369.649, 28.277
1370.846, 21.057
1372.043, 26.822
1373.240, 26.570
1374.436, 3.375
1375.633, 33.091
1376.829, 0.718
1378.025, 2.081
1379.221, 10.434
1380.417, 6.764
1381.613, 8.929
1382.808, 27.642
1384.003, 1.374
1385.199, 8.123
1386.393, 7.116
1387.588, 22.656
1388.783, 4.567
1389.977, 17.220
1391.171, 2.990
1392.365, 16.756
1393.559, 11.481
1394.753, 20.276
1395.946, 5.042
1397.140, 1.197
1398.333, 0.543
1399.526, 28.259
1400.719, 9.038
1401.911, 0.650
1403.104, 0.320
1404.296, 17.035
1405.488, 3.582
1406.680, 19.814
1407.872, 11.776
1409.063, 0.356
1410.255, 13.071
1411.446, 3.505
1412.637, 8.057
1413.828, 2.619
1415.018, 2.486
1416.209, 11.248
1417.399, 18.678
1418.589, 20.105
1419.779, 44.532
1420.969, 15.959
1422.159, 24.387
1423.348, 24.818
1424.537, 45.250
1425.726, 42.687
1426.915, 27.128
1428.104, 49.574
1429.293, 60.023
1430.481, 40.479
1431.669, 53.942
1432.857, 37.413
1434.045, 29.893
1435.233, 46.384
1436.420, 67.884
1437.608, 46.396
1438.795, 47.921
1439.982, 49.454
1441.169, 80.001
1442.355, 92.563
1443.542, 78.001
1444.728, 58.358
1445.914, 76.484
1447.100, 68.465
1448.286, 98.375
1449.472, 76.153
