##NAMES=Topaz
##RRUFFID=R050200
##IDEAL CHEMISTRY=Al_2_SiO_4_F_2_
##LOCALITY=Jos Plateau, Nigeria
##OWNER=RRUFF
##SOURCE=Marcus Origlieri
##DESCRIPTION=Colorless water-worn single crystal
##STATUS=The identification of this mineral has been confirmed by X-ray diffraction and chemical analysis
##URL=rruff.info/R050200
##MEASURED CHEMISTRY=Al_2.000_Si_1.000_O_4.000_F_1.488_(OH)_0.512_
##PIN_ID=L00463
##ORIENTATION=Laser parallel to -c* (0 0 -1). Fiducial mark perpendicular to laser is parallel to a [1 0 0]
95.465, 0.000
96.858, 0.776
98.251, 18.162
99.644, 124.809
101.036, 72.426
102.428, 58.187
103.820, 118.511
105.212, 150.607
106.604, 231.024
107.995, 344.367
109.387, 474.595
110.777, 495.714
112.168, 502.893
113.559, 631.286
114.949, 551.401
116.339, 424.699
117.729, 443.849
119.119, 428.201
120.508, 378.836
121.897, 195.520
123.286, 182.313
124.675, 126.196
126.063, 32.934
127.452, 43.019
128.840, 65.867
130.228, 11.469
131.615, 10.138
133.003, 71.076
134.390, 5.997
135.777, 33.465
137.164, 26.849
138.550, 15.168
139.937, 19.520
141.323, 29.535
142.709, 56.232
144.094, 28.929
145.480, 62.631
146.865, 150.340
148.250, 303.058
149.635, 629.789
151.019, 899.535
152.403, 1269.298
153.788, 1662.078
155.171, 1588.355
156.555, 2162.360
157.939, 1342.703
159.322, 647.919
160.705, 356.098
162.088, 377.329
163.470, 680.611
164.853, 150.945
166.235, 86.331
167.617, 54.767
168.998, 24.250
170.380, 25.780
171.761, 10.357
173.142, 40.020
174.523, 19.651
175.904, 75.369
177.284, 87.135
178.664, 82.564
180.044, 66.623
181.424, 20.679
182.803, 0.604
184.183, 34.430
185.562, 36.426
186.940, 68.617
188.319, 11.698
189.698, 32.813
191.076, 15.964
192.454, 24.150
193.831, 53.370
195.209, 68.622
196.586, 76.902
197.963, 61.202
199.340, 103.527
200.717, 109.717
202.093, 183.263
203.470, 164.674
204.846, 192.112
206.221, 241.579
207.597, 343.073
208.972, 388.594
210.347, 195.139
211.722, 63.709
213.097, 49.696
214.472, 75.077
215.846, 53.433
217.220, 50.784
218.594, 41.129
219.967, 26.447
221.341, 26.738
222.714, 18.989
224.087, 27.696
225.460, 117.451
226.832, 219.242
228.204, 288.062
229.577, 523.909
230.948, 961.786
232.320, 1846.691
233.692, 3466.627
235.063, 5717.600
236.434, 8485.609
237.805, 11689.633
239.175, 15035.633
240.545, 18298.631
241.916, 16600.650
243.286, 10664.697
244.655, 6483.779
246.025, 3904.892
247.394, 2478.036
248.763, 1719.213
250.132, 1328.423
251.501, 1218.665
252.869, 1056.940
254.237, 1102.249
255.605, 1222.589
256.973, 1392.961
258.340, 1919.366
259.708, 2933.803
261.075, 5445.190
262.442, 9581.288
263.808, 15301.618
265.175, 21980.014
266.541, 30764.439
267.907, 41201.883
269.273, 43075.359
270.639, 29322.852
272.004, 16578.357
273.369, 9999.875
274.734, 6723.412
276.099, 5491.978
277.463, 5937.557
278.828, 8321.126
280.192, 13035.677
281.556, 19609.246
282.919, 28686.830
284.283, 38670.430
285.646, 50702.043
287.009, 55137.668
288.372, 44933.301
289.734, 30787.943
291.097, 18862.602
292.459, 11680.269
293.821, 7680.945
295.183, 5119.630
296.544, 3717.623
297.905, 2823.332
299.266, 2304.150
300.627, 1923.824
301.988, 1698.514
303.348, 1574.220
304.709, 1370.900
306.069, 1286.560
307.428, 1177.240
308.788, 1232.939
310.147, 1114.657
311.507, 1130.393
312.865, 1145.147
314.224, 1152.921
315.583, 1196.713
316.941, 1387.524
318.299, 1436.354
319.657, 1645.132
321.015, 1918.878
322.372, 2430.617
323.729, 3303.366
325.086, 4880.137
326.443, 8056.929
327.800, 12251.742
329.156, 17873.578
330.512, 24522.432
331.868, 32088.303
333.224, 35722.195
334.579, 29843.111
335.935, 19431.836
337.290, 12206.684
338.645, 7690.656
339.999, 5027.645
341.354, 3475.652
342.708, 2573.678
344.062, 1878.722
345.416, 1435.785
346.769, 1224.594
348.123, 1039.782
349.476, 915.639
350.829, 783.059
352.182, 778.529
353.534, 785.940
354.887, 696.234
356.239, 724.461
357.591, 753.725
358.942, 759.010
360.294, 733.319
361.645, 527.661
362.996, 403.030
364.347, 422.427
365.698, 381.844
367.048, 346.285
368.398, 317.744
369.748, 329.398
371.098, 331.899
372.448, 335.845
373.797, 303.069
375.146, 366.055
376.495, 393.195
377.844, 419.248
379.192, 354.638
380.540, 444.236
381.889, 393.387
383.236, 483.277
384.584, 573.187
385.932, 616.929
387.279, 702.684
388.626, 876.469
389.973, 1101.283
391.319, 1379.128
392.666, 1821.993
394.012, 2464.871
395.358, 3465.780
396.704, 5181.729
398.049, 7562.697
399.394, 11038.708
400.740, 14718.735
402.084, 19086.791
403.429, 22047.861
404.774, 21672.969
406.118, 17792.096
407.462, 12158.237
408.806, 8030.400
410.150, 5275.582
411.493, 3632.774
412.836, 2499.983
414.179, 1741.202
415.522, 1277.430
416.865, 979.670
418.207, 766.920
419.549, 544.179
420.891, 478.705
422.233, 355.375
423.575, 287.797
424.916, 202.098
426.257, 197.103
427.598, 251.078
428.939, 166.406
430.279, 215.563
431.619, 197.042
432.959, 211.612
434.299, 187.154
435.639, 317.126
436.978, 277.250
438.318, 414.712
439.657, 440.931
440.996, 543.338
442.334, 734.601
443.673, 895.135
445.011, 1161.716
446.349, 1753.149
447.687, 2394.171
449.024, 3913.615
450.361, 6154.066
451.699, 9580.523
453.036, 14636.983
454.372, 21105.451
455.709, 28355.920
457.045, 33404.395
458.381, 34190.887
459.717, 27975.379
461.053, 20316.879
462.388, 14014.380
463.724, 9627.891
465.059, 6715.403
466.394, 5691.921
467.728, 4099.444
469.063, 2893.972
470.397, 2019.505
471.731, 1683.040
473.065, 1436.580
474.398, 1114.124
475.732, 1081.672
477.065, 838.223
478.398, 749.777
479.731, 665.714
481.063, 726.896
482.396, 514.460
483.728, 543.028
485.060, 481.600
486.391, 524.174
487.723, 568.751
489.054, 631.331
490.385, 718.914
491.716, 781.498
493.047, 745.085
494.377, 437.675
495.708, 354.266
497.038, 216.860
498.368, 171.469
499.697, 158.080
501.027, 44.692
502.356, 65.305
503.685, 29.956
505.014, 37.571
506.342, 26.207
507.671, 18.920
508.999, 7.704
510.327, 18.642
511.655, 19.995
512.982, 47.404
514.310, 7.378
515.637, 3.976
516.964, 43.551
518.291, 130.076
519.617, 94.244
520.944, 209.601
522.270, 61.760
523.596, 156.239
524.921, 29.259
526.247, 103.092
527.572, 4.951
528.897, 10.578
530.222, 58.623
531.547, 35.611
532.871, 66.227
534.196, 18.618
535.520, 44.911
536.844, 50.629
538.167, 14.349
539.491, 40.588
540.814, 127.231
542.137, 128.742
543.460, 168.424
544.783, 347.098
546.105, 312.647
547.427, 484.836
548.749, 588.660
550.071, 557.377
551.393, 557.284
552.714, 609.796
554.035, 709.686
555.356, 964.350
556.677, 1174.452
557.998, 1528.345
559.318, 1908.427
560.638, 2147.788
561.958, 2117.986
563.278, 1773.957
564.597, 1386.241
565.917, 935.074
567.236, 712.312
568.555, 501.140
569.874, 404.522
571.192, 288.971
572.511, 248.328
573.829, 147.674
575.147, 107.278
576.464, 107.473
577.782, 44.782
579.099, 21.079
580.416, 17.385
581.733, 29.351
583.050, 58.442
584.366, 53.348
585.683, 12.808
586.999, 58.944
588.315, 5.399
589.630, 33.693
590.946, 4.771
592.261, 31.823
593.576, 1.141
594.891, 35.133
596.206, 39.827
597.520, 4.227
598.834, 80.688
600.148, 4.411
601.462, 37.459
602.776, 7.314
604.089, 81.143
605.402, 19.958
606.715, 85.753
608.028, 112.533
609.341, 111.300
610.653, 103.052
611.965, 129.790
613.277, 162.513
614.589, 229.223
615.901, 205.917
617.212, 196.598
618.523, 250.264
619.834, 238.915
621.145, 313.552
622.456, 354.174
623.766, 342.781
625.076, 467.374
626.386, 409.952
627.696, 500.516
629.006, 427.064
630.315, 504.598
631.624, 421.117
632.933, 480.621
634.242, 616.111
635.551, 681.585
636.859, 814.045
638.167, 962.490
639.475, 1273.919
640.783, 1536.334
642.090, 1901.734
643.398, 2119.120
644.705, 2312.490
646.012, 2065.845
647.318, 1795.186
648.625, 1432.511
649.931, 1064.822
651.237, 808.118
652.543, 542.398
653.849, 443.665
655.155, 357.916
656.460, 217.152
657.765, 170.374
659.070, 72.580
660.375, 48.470
661.679, 122.948
662.984, 30.110
664.288, 80.254
665.592, 74.094
666.895, 51.209
668.199, 51.730
669.502, 7.212
670.805, 15.394
672.108, 12.532
673.411, 56.476
674.713, 8.459
676.016, 2.631
677.318, 37.750
678.620, 18.916
679.921, 24.312
681.223, 18.636
682.524, 14.627
683.825, 23.074
685.126, 6.759
686.427, 5.755
687.727, 15.123
689.028, 1.623
690.328, 9.949
691.628, 23.079
692.927, 41.956
694.227, 34.522
695.526, 43.041
696.825, 23.393
698.124, 16.186
699.423, 19.202
700.721, 67.424
702.020, 38.892
703.318, 44.805
704.616, 39.547
705.913, 54.331
707.211, 10.165
708.508, 41.975
709.805, 58.897
711.102, 87.820
712.399, 15.809
713.695, 92.825
714.992, 16.909
716.288, 38.021
717.584, 36.169
718.879, 33.355
720.175, 39.139
721.470, 16.833
722.765, 24.116
724.060, 18.427
725.355, 16.237
726.649, 14.110
727.944, 52.522
729.238, 20.143
730.532, 1.246
731.825, 87.352
733.119, 75.940
734.412, 15.519
735.705, 0.830
736.998, 14.998
738.291, 13.588
739.584, 110.947
740.876, 45.778
742.168, 110.641
743.460, 49.850
744.752, 90.820
746.043, 71.168
747.334, 86.426
748.626, 69.714
749.916, 29.572
751.207, 16.279
752.498, 8.685
753.788, 64.266
755.078, 10.694
756.368, 37.269
757.658, 50.573
758.947, 41.833
760.237, 89.243
761.526, 79.065
762.815, 111.466
764.104, 64.864
765.392, 96.257
766.680, 154.648
767.969, 46.035
769.257, 210.418
770.544, 92.800
771.832, 205.177
773.119, 141.553
774.406, 222.925
775.693, 201.295
776.980, 173.664
778.267, 199.030
779.553, 212.395
780.839, 272.757
782.125, 227.119
783.411, 300.479
784.697, 247.837
785.982, 300.195
787.267, 247.552
788.552, 366.908
789.837, 320.265
791.122, 389.621
792.406, 404.976
793.690, 401.332
794.974, 437.690
796.258, 479.049
797.542, 492.409
798.825, 496.775
800.108, 512.141
801.391, 502.512
802.674, 546.884
803.957, 616.259
805.239, 564.635
806.522, 672.024
807.804, 610.416
809.085, 770.812
810.367, 750.210
811.649, 718.618
812.930, 774.029
814.211, 801.444
815.492, 832.824
816.772, 920.248
818.053, 973.399
819.333, 1024.846
820.613, 1085.299
821.893, 1205.023
823.173, 1374.180
824.452, 1478.684
825.732, 1674.751
827.011, 1846.493
828.290, 1868.018
829.568, 2070.598
830.847, 2205.537
832.125, 2480.484
833.403, 2920.277
834.681, 3219.931
835.959, 3671.049
837.236, 4266.357
838.514, 4975.645
839.791, 6063.325
841.068, 7300.275
842.345, 8779.666
843.621, 11079.992
844.898, 13258.012
846.174, 15830.490
847.450, 18932.160
848.726, 21511.668
850.001, 24137.678
851.277, 26273.299
852.552, 28246.061
853.827, 30178.668
855.102, 31436.291
856.376, 31477.062
857.651, 30551.199
858.925, 28131.713
860.199, 24161.355
861.473, 20373.809
862.746, 17116.668
864.020, 14358.157
865.293, 11729.876
866.566, 10094.164
867.839, 8632.666
869.112, 7585.980
870.384, 6699.021
871.656, 6099.237
872.928, 5417.683
874.200, 5082.821
875.472, 4729.413
876.744, 4344.605
878.015, 4011.213
879.286, 3700.274
880.557, 3566.273
881.828, 3479.372
883.098, 3269.497
884.369, 3112.494
885.639, 3033.663
886.909, 2962.871
888.178, 2935.099
889.448, 2963.321
890.717, 3143.592
891.987, 3012.326
893.256, 3132.647
894.524, 3352.007
895.793, 3387.391
897.061, 3602.260
898.330, 3773.700
899.598, 4107.168
900.865, 4427.675
902.133, 4790.236
903.401, 5132.824
904.668, 5568.468
905.935, 6107.130
907.202, 6644.830
908.468, 7354.548
909.735, 8256.297
911.001, 9072.067
912.267, 10185.863
913.533, 11409.674
914.799, 13276.516
916.064, 14964.371
917.330, 17939.242
918.595, 20370.137
919.860, 23338.057
921.124, 27166.994
922.389, 30386.949
923.653, 33732.926
924.918, 36004.914
926.182, 37498.934
927.445, 37326.980
928.709, 35677.031
929.972, 33479.113
931.236, 30459.219
932.499, 27558.340
933.761, 25191.482
935.024, 22278.652
936.286, 20207.840
937.549, 18267.047
938.811, 15301.283
940.073, 13205.538
941.334, 10951.810
942.596, 9374.100
943.857, 8108.416
945.118, 7027.745
946.379, 6191.566
947.640, 5503.943
948.900, 4952.333
950.161, 4435.906
951.421, 3962.335
952.681, 3600.335
953.940, 3303.806
955.200, 2946.449
956.459, 2610.959
957.719, 2548.091
958.978, 2263.640
960.236, 2106.678
961.495, 1909.277
962.753, 1806.378
964.012, 1624.004
965.270, 1541.791
966.527, 1527.456
967.785, 1414.836
969.043, 1255.540
970.300, 1213.956
971.557, 1076.698
972.814, 1089.459
974.071, 982.239
975.327, 962.038
976.583, 875.864
977.840, 857.721
979.095, 802.599
980.351, 723.518
981.607, 697.459
982.862, 704.556
984.117, 558.558
985.372, 731.590
986.627, 595.653
987.882, 631.736
989.136, 630.686
990.390, 595.979
991.644, 575.133
992.898, 576.312
994.152, 533.191
995.405, 544.066
996.659, 525.750
997.912, 557.552
999.165, 645.277
1000.417, 701.199
1001.670, 779.661
1002.922, 1089.028
1004.174, 1104.771
1005.426, 1204.248
1006.678, 1177.938
1007.930, 1402.401
1009.181, 1471.977
1010.432, 1450.592
1011.683, 1534.239
1012.934, 1431.016
1014.185, 1293.612
1015.435, 1065.243
1016.685, 839.618
1017.935, 715.312
1019.185, 689.050
1020.435, 568.809
1021.684, 489.859
1022.934, 469.672
1024.183, 453.511
1025.432, 387.376
1026.680, 404.263
1027.929, 356.238
1029.177, 291.911
1030.425, 271.854
1031.673, 241.599
1032.921, 290.656
1034.169, 237.643
1035.416, 212.021
1036.663, 268.352
1037.911, 187.039
1039.157, 191.375
1040.404, 139.087
1041.650, 128.152
1042.897, 248.406
1044.143, 110.495
1045.389, 175.249
1046.634, 113.733
1047.880, 129.436
1049.125, 94.392
1050.371, 100.990
1051.615, 139.804
1052.860, 82.848
1054.105, 180.544
1055.349, 129.780
1056.593, 58.174
1057.837, 105.452
1059.081, 163.237
1060.325, 112.975
1061.568, 102.364
1062.812, 110.674
1064.055, 113.013
1065.298, 88.325
1066.540, 77.710
1067.783, 51.123
1069.025, 21.513
1070.267, 157.506
1071.509, 96.879
1072.751, 43.242
1073.993, 119.549
1075.234, 44.135
1076.475, 23.453
1077.716, 93.775
1078.957, 75.455
1080.198, 72.787
1081.438, 136.123
1082.679, 103.665
1083.919, 160.053
1085.159, 31.487
1086.398, 146.228
1087.638, 69.730
1088.877, 35.122
1090.116, 66.483
1091.355, 29.848
1092.594, 20.214
1093.833, 29.583
1095.071, 23.045
1096.309, 2.324
1097.547, 10.695
1098.785, 40.912
1100.023, 63.479
1101.260, 23.941
1102.498, 59.685
1103.735, 8.954
1104.972, 58.458
1106.208, 66.181
1107.445, 62.157
1108.681, 19.504
1109.918, 0.830
1111.154, 42.804
1112.389, 62.515
1113.625, 7.079
1114.860, 6.354
1116.096, 23.325
1117.331, 29.110
1118.566, 75.582
1119.800, 5.693
1121.035, 41.966
1122.269, 163.238
1123.503, 251.509
1124.737, 246.778
1125.971, 119.045
1127.205, 58.311
1128.438, 31.575
1129.671, 4.836
1130.904, 58.906
1132.137, 31.322
1133.370, 21.546
1134.602, 50.768
1135.834, 15.987
1137.066, 22.202
1138.298, 71.413
1139.530, 21.292
1140.762, 12.824
1141.993, 28.977
1143.224, 27.799
1144.455, 39.640
1145.686, 40.509
1146.917, 22.406
1148.147, 8.322
1149.377, 1.750
1150.607, 6.813
1151.837, 2.129
1153.067, 13.082
1154.296, 47.051
1155.526, 44.944
1156.755, 75.067
1157.984, 5.870
1159.213, 10.202
1160.441, 11.291
1161.670, 58.600
1162.898, 74.484
1164.126, 1.639
1165.354, 96.223
1166.581, 21.076
1167.809, 26.921
1169.036, 8.242
1170.263, 106.574
1171.490, 80.381
1172.717, 95.179
1173.943, 43.968
1175.170, 18.748
1176.396, 3.517
1177.622, 58.270
1178.848, 4.012
1180.073, 16.264
1181.299, 51.432
1182.524, 19.882
1183.749, 66.228
1184.974, 9.369
1186.199, 18.951
1187.423, 10.573
1188.648, 42.988
1189.872, 25.685
1191.096, 58.834
1192.320, 13.350
1193.543, 22.376
1194.767, 17.272
1195.990, 4.774
1197.213, 30.353
1198.436, 96.974
1199.659, 14.456
1200.881, 45.261
1202.104, 54.129
1203.326, 7.595
1204.548, 49.594
1205.770, 24.771
1206.991, 26.930
1208.213, 43.107
1209.434, 52.236
1210.655, 50.518
1211.876, 58.077
1213.096, 49.313
1214.317, 48.390
1215.537, 51.453
1216.757, 25.503
1217.977, 56.534
1219.197, 59.552
1220.417, 80.559
1221.636, 43.554
1222.855, 128.533
1224.074, 79.500
1225.293, 4.545
1226.512, 101.376
1227.731, 84.286
1228.949, 51.183
1230.167, 21.065
1231.385, 62.926
1232.603, 42.776
1233.820, 19.610
1235.038, 75.423
1236.255, 99.222
1237.472, 96.009
1238.689, 88.784
1239.906, 125.544
1241.122, 118.293
1242.338, 132.559
1243.555, 133.277
1244.771, 82.985
1245.986, 80.515
1247.202, 56.193
1248.417, 52.917
1249.633, 182.958
1250.848, 76.442
1252.063, 165.063
1253.277, 211.067
1254.492, 115.659
1255.706, 114.769
1256.920, 80.321
1258.134, 98.378
1259.348, 67.916
1260.562, 64.734
1261.775, 86.873
1262.988, 63.602
1264.201, 130.082
1265.414, 158.856
1266.627, 180.307
1267.839, 144.744
1269.052, 189.167
1270.264, 189.577
1271.476, 230.973
1272.688, 128.354
1273.899, 245.722
1275.111, 184.077
1276.322, 249.418
1277.533, 211.617
1278.744, 181.931
1279.955, 194.231
1281.165, 155.178
1282.376, 159.791
1283.586, 126.052
1284.796, 144.297
1286.006, 169.530
1287.215, 177.750
1288.425, 206.284
1289.634, 209.828
1290.843, 170.561
1292.052, 170.175
1293.261, 169.869
1294.469, 178.371
1295.678, 200.354
1296.886, 243.436
1298.094, 175.155
1299.302, 215.146
1300.509, 199.947
1301.717, 176.976
1302.924, 241.914
1304.131, 145.832
1305.338, 114.741
1306.545, 228.531
1307.752, 104.505
1308.958, 272.469
1310.164, 282.720
1311.370, 319.571
1312.576, 395.417
1313.782, 479.513
1314.987, 516.160
1316.193, 682.060
1317.398, 837.948
1318.603, 631.827
1319.807, 708.695
1321.012, 365.488
1322.216, 245.592
1323.421, 186.431
1324.625, 152.475
1325.829, 170.210
1327.032, 151.020
1328.236, 160.442
1329.439, 81.914
1330.642, 87.033
1331.845, 39.506
1333.048, 46.605
1334.251, 122.357
1335.453, 2.925
1336.656, 68.661
1337.858, 12.267
1339.060, 1.921
1340.261, 36.221
1341.463, 56.114
1342.664, 95.368
1343.866, 28.591
1345.067, 36.225
1346.267, 5.391
1347.468, 17.021
1348.669, 49.496
1349.869, 137.092
1351.069, 69.184
1352.269, 18.327
1353.469, 107.824
1354.668, 106.403
1355.868, 11.042
1357.067, 119.543
1358.266, 50.062
1359.465, 93.559
1360.664, 50.083
1361.862, 63.011
1363.061, 147.565
1364.259, 64.663
1365.457, 87.297
1366.655, 71.663
1367.852, 64.303
1369.050, 97.949
1370.247, 102.248
1371.444, 116.218
1372.641, 73.571
1373.838, 154.045
1375.035, 122.687
1376.231, 154.958
1377.427, 181.244
1378.623, 196.826
1379.819, 62.487
1381.015, 119.194
1382.211, 108.815
1383.406, 158.408
1384.601, 151.965
1385.796, 74.503
1386.991, 128.026
1388.185, 166.482
1389.380, 96.479
1390.574, 140.892
1391.768, 131.348
1392.962, 141.795
1394.156, 147.196
1395.350, 158.401
1396.543, 208.660
1397.736, 174.931
1398.929, 106.452
1400.122, 129.823
1401.315, 141.172
1402.507, 123.498
1403.700, 111.818
1404.892, 124.132
1406.084, 150.424
1407.276, 173.693
1408.467, 196.941
1409.659, 84.194
1410.850, 120.478
1412.041, 161.775
1413.232, 101.061
1414.423, 174.340
1415.614, 164.644
1416.804, 240.988
1417.994, 139.338
1419.184, 210.679
1420.374, 145.014
1421.564, 220.333
1422.753, 153.654
1423.943, 174.958
1425.132, 108.248
1426.321, 111.467
1427.510, 156.829
1428.698, 106.138
1429.887, 146.521
1431.075, 145.791
1432.263, 97.244
1433.451, 173.309
1434.639, 191.263
1435.827, 156.649
1437.014, 208.836
1438.201, 266.025
1439.388, 277.573
1440.575, 282.073
1441.762, 255.631
1442.949, 258.902
1444.135, 295.439
1445.321, 386.979
1446.507, 353.519
1447.693, 438.050
1448.879, 619.579
1450.064, 357.139
1451.250, 334.695
1452.435, 386.259
1453.620, 500.828
1454.805, 451.399
1455.989, 418.965
1457.174, 482.527
1458.358, 339.089
1459.542, 487.662
1460.726, 570.236
1461.910, 388.817
1463.093, 454.407
1464.277, 301.003
1465.460, 334.607
1466.643, 358.220
1467.826, 313.843
1469.009, 337.480
1470.191, 304.519
1471.373, 304.140
1472.556, 290.809
1473.738, 295.157
1474.919, 259.859
1476.101, 240.576
1477.283, 234.311
1478.464, 187.063
1479.645, 97.834
1480.826, 187.680
1482.007, 192.619
1483.187, 255.676
1484.368, 167.764
1485.548, 182.897
1486.728, 144.082
1487.908, 198.301
1489.088, 109.557
1490.268, 230.852
1491.447, 216.189
1492.626, 133.574
1493.805, 86.010
1494.984, 166.502
1496.163, 107.056
1497.341, 73.677
1498.520, 106.373
1499.698, 43.148
1500.876, 151.012
1502.054, 59.974
1503.232, 104.045
1504.409, 49.236
1505.586, 13.455
1506.763, 72.977
1507.940, 57.541
1509.117, 32.250
1510.294, 18.122
1511.470, 71.175
1512.647, 96.432
1513.823, 199.917
1514.999, 91.658
1516.174, 154.685
1517.350, 7.361
1518.526, 179.375
1519.701, 12.239
1520.876, 85.138
1522.051, 198.840
1523.226, 79.527
1524.400, 110.914
1525.574, 95.917
1526.749, 0.000
##END=



