##NAMES=Topaz
##RRUFFID=R050200
##IDEAL CHEMISTRY=Al_2_SiO_4_F_2_
##LOCALITY=Jos Plateau, Nigeria
##OWNER=RRUFF
##SOURCE=Marcus Origlieri
##DESCRIPTION=Colorless water-worn single crystal
##STATUS=The identification of this mineral has been confirmed by X-ray diffraction and chemical analysis
##URL=rruff.info/R050200
##MEASURED CHEMISTRY=Al_2.000_Si_1.000_O_4.000_F_1.488_(OH)_0.512_
##PIN_ID=L00463
##ORIENTATION=Laser parallel to -c* (0 0 -1). Fiducial mark perpendicular to laser is parallel to a [1 0 0]
95.465, 0.000
96.858, 12.429
98.251, 31.408
99.644, 32.487
101.036, 19.234
102.428, 17.492
103.820, 32.354
105.212, 60.977
106.604, 94.348
107.995, 104.035
109.387, 226.073
110.777, 227.469
112.168, 395.215
113.559, 349.296
114.949, 304.136
116.339, 496.693
117.729, 892.920
119.119, 1114.488
120.508, 721.368
121.897, 247.532
123.286, 156.959
124.675, 21.629
126.063, 43.525
127.452, 41.631
128.840, 8.931
130.228, 45.413
131.615, 9.064
133.003, 20.874
134.390, 37.169
135.777, 11.928
137.164, 24.844
138.550, 36.503
139.937, 4.961
141.323, 2.522
142.709, 1.181
144.094, 20.935
145.480, 59.784
146.865, 148.728
148.250, 287.764
149.635, 518.889
151.019, 800.100
152.403, 1137.392
153.788, 1667.759
155.171, 1587.057
156.555, 2159.704
157.939, 1397.274
159.322, 746.906
160.705, 380.595
162.088, 225.340
163.470, 165.138
164.853, 101.986
166.235, 82.882
167.617, 87.824
168.998, 18.811
170.380, 77.840
171.761, 76.911
173.142, 25.021
174.523, 85.169
175.904, 67.354
177.284, 60.575
178.664, 46.819
180.044, 38.903
181.424, 26.849
182.803, 23.532
184.183, 15.825
185.562, 5.141
186.940, 27.468
188.319, 38.829
189.698, 53.214
191.076, 35.656
192.454, 70.170
193.831, 90.726
195.209, 53.371
196.586, 70.089
197.963, 86.841
199.340, 100.623
200.717, 114.004
202.093, 143.318
203.470, 128.211
204.846, 168.116
206.221, 157.035
207.597, 267.963
208.972, 264.900
210.347, 149.845
211.722, 39.800
213.097, 41.764
214.472, 46.737
215.846, 57.719
217.220, 81.710
218.594, 61.711
219.967, 83.720
221.341, 111.739
222.714, 195.767
224.087, 184.803
225.460, 328.848
226.832, 476.903
228.204, 680.966
229.577, 989.037
230.948, 1615.118
232.320, 2930.207
233.692, 5316.304
235.063, 8485.411
236.434, 12361.525
237.805, 17860.648
239.175, 24950.777
240.545, 30852.918
241.916, 28723.066
243.286, 19084.221
244.655, 11284.387
246.025, 6818.561
247.394, 4296.743
248.763, 2943.933
250.132, 2135.131
251.501, 1850.338
252.869, 1641.554
254.237, 1565.779
255.605, 1636.013
256.973, 1814.255
258.340, 2324.506
259.708, 3616.763
261.075, 6560.731
262.442, 11314.872
263.808, 17200.125
265.175, 25625.477
266.541, 37847.910
267.907, 53075.508
269.273, 56707.047
270.639, 39716.293
272.004, 22332.559
273.369, 12653.225
274.734, 7408.929
276.099, 4808.669
277.463, 3731.440
278.828, 3525.360
280.192, 4078.494
281.556, 5229.300
282.919, 7148.254
284.283, 9660.121
285.646, 12828.671
287.009, 14170.065
288.372, 12048.187
289.734, 8578.277
291.097, 5518.660
292.459, 3661.870
293.821, 2636.711
295.183, 1973.752
296.544, 1663.816
297.905, 1468.484
299.266, 1356.569
300.627, 1213.149
301.988, 1167.205
303.348, 1048.900
304.709, 1046.057
306.069, 975.520
307.428, 901.703
308.788, 870.899
310.147, 857.631
311.507, 809.849
312.865, 811.079
314.224, 817.665
315.583, 793.915
316.941, 839.174
318.299, 849.574
319.657, 877.720
321.015, 925.006
322.372, 1022.301
323.729, 1097.603
325.086, 1260.912
326.443, 1555.229
327.800, 1832.553
329.156, 2444.884
330.512, 3220.221
331.868, 4127.563
333.224, 4644.914
334.579, 4095.269
335.935, 2791.629
337.290, 1927.996
338.645, 1297.367
339.999, 1009.743
341.354, 780.125
342.708, 671.510
344.062, 616.901
345.416, 594.296
346.769, 555.697
348.123, 513.103
349.476, 508.276
350.829, 503.929
352.182, 513.349
353.534, 523.773
354.887, 570.201
356.239, 524.632
357.591, 579.066
358.942, 603.509
360.294, 573.955
361.645, 471.405
362.996, 409.864
364.347, 408.325
365.698, 334.788
367.048, 400.253
368.398, 380.721
369.748, 324.190
371.098, 325.668
372.448, 319.153
373.797, 279.644
375.146, 222.155
376.495, 205.667
377.844, 289.179
379.192, 171.693
380.540, 283.220
381.889, 221.748
383.236, 180.278
384.584, 269.807
385.932, 222.712
387.279, 191.869
388.626, 220.412
389.973, 263.958
391.319, 229.519
392.666, 306.084
394.012, 405.650
395.358, 482.216
396.704, 629.792
398.049, 840.376
399.394, 1152.987
400.740, 1405.596
402.084, 1846.226
403.429, 2120.856
404.774, 2037.501
406.118, 1759.160
407.462, 1211.818
408.806, 740.474
410.150, 530.132
411.493, 354.794
412.836, 316.456
414.179, 227.115
415.522, 200.773
416.865, 154.429
418.207, 126.083
419.549, 86.734
420.891, 113.384
422.233, 45.034
423.575, 59.688
424.916, 24.347
426.257, 12.008
427.598, 68.671
428.939, 4.335
430.279, 66.999
431.619, 22.337
432.959, 21.688
434.299, 64.946
435.639, 22.581
436.978, 18.226
438.318, 87.871
439.657, 11.485
440.996, 2.147
442.334, 26.775
443.673, 10.598
445.011, 16.017
446.349, 66.370
447.687, 1.202
449.024, 26.233
450.361, 10.310
451.699, 13.150
453.036, 41.625
454.372, 35.131
455.709, 37.754
457.045, 24.773
458.381, 14.792
459.717, 5.374
461.053, 4.036
462.388, 28.563
463.724, 2.816
465.059, 36.185
466.394, 56.449
467.728, 50.876
469.063, 58.198
470.397, 4.516
471.731, 27.825
473.065, 98.129
474.398, 9.430
475.732, 58.723
477.065, 34.011
478.398, 50.296
479.731, 49.576
481.063, 107.851
482.396, 68.122
483.728, 129.388
485.060, 199.649
486.391, 175.906
487.723, 269.157
489.054, 401.404
490.385, 397.646
491.716, 528.883
493.047, 479.114
494.377, 328.340
495.708, 356.561
497.038, 296.777
498.368, 258.987
499.697, 287.191
501.027, 332.390
502.356, 277.586
503.685, 360.774
505.014, 416.979
506.342, 498.458
507.671, 658.628
508.999, 801.873
510.327, 1084.398
511.655, 1405.559
512.982, 1857.706
514.310, 2789.963
515.637, 4064.097
516.964, 5876.225
518.291, 8055.765
519.617, 10518.273
520.944, 11852.573
522.270, 10436.293
523.596, 7913.530
524.921, 5215.752
526.247, 3424.855
527.572, 2175.414
528.897, 1485.482
530.222, 1049.521
531.547, 845.851
532.871, 609.787
534.196, 414.532
535.520, 365.564
536.844, 276.596
538.167, 307.772
539.491, 264.824
540.814, 265.889
542.137, 245.151
543.460, 282.143
544.783, 352.156
546.105, 363.498
547.427, 449.219
548.749, 506.490
550.071, 492.191
551.393, 529.184
552.714, 661.216
554.035, 863.132
555.356, 1145.667
556.677, 1468.504
557.998, 1936.664
559.318, 2634.544
560.638, 2995.187
561.958, 3072.559
563.278, 2785.940
564.597, 2430.319
565.917, 1936.149
567.236, 1414.968
568.555, 1158.332
569.874, 831.260
571.192, 791.310
572.511, 818.094
573.829, 813.860
575.147, 409.616
576.464, 388.362
577.782, 327.097
579.099, 284.821
580.416, 266.131
581.733, 265.833
583.050, 252.834
584.366, 212.515
585.683, 313.186
586.999, 195.845
588.315, 117.378
589.630, 222.016
590.946, 238.993
592.261, 195.977
593.576, 182.582
594.891, 130.618
596.206, 167.202
597.520, 138.775
598.834, 187.221
600.148, 127.434
601.462, 163.975
602.776, 113.387
604.089, 122.906
605.402, 161.782
606.715, 188.802
608.028, 176.112
609.341, 194.055
610.653, 156.531
611.965, 181.786
613.277, 151.420
614.589, 136.862
615.901, 186.289
617.212, 150.120
618.523, 153.517
619.834, 159.449
621.145, 159.340
622.456, 168.168
623.766, 218.538
625.076, 235.607
626.386, 229.959
627.696, 225.327
629.006, 109.137
630.315, 176.462
631.624, 84.778
632.933, 89.740
634.242, 173.039
635.551, 97.329
636.859, 183.610
638.167, 66.883
639.475, 216.147
640.783, 69.402
642.090, 180.649
643.398, 149.887
644.705, 252.117
646.012, 147.338
647.318, 130.551
648.625, 100.756
649.931, 67.549
651.237, 133.140
652.543, 84.320
653.849, 70.491
655.155, 160.655
656.460, 134.811
657.765, 65.958
659.070, 49.098
660.375, 104.230
661.679, 43.354
662.984, 22.469
664.288, 79.574
665.592, 34.671
666.895, 18.760
668.199, 44.837
669.502, 106.906
670.805, 29.968
672.108, 88.021
673.411, 51.067
674.713, 4.896
676.016, 15.122
677.318, 23.128
678.620, 8.875
679.921, 25.101
681.223, 25.067
682.524, 36.730
683.825, 9.976
685.126, 73.914
686.427, 16.154
687.727, 5.247
689.028, 0.642
690.328, 60.485
691.628, 49.341
692.927, 35.160
694.227, 17.973
695.526, 35.223
696.825, 23.549
698.124, 11.313
699.423, 32.068
700.721, 24.817
702.020, 6.559
703.318, 32.709
704.616, 6.993
705.913, 49.315
707.211, 6.662
708.508, 13.977
709.805, 34.607
711.102, 32.768
712.399, 22.172
713.695, 91.599
714.992, 32.916
716.288, 68.576
717.584, 1.113
718.879, 49.662
720.175, 50.247
721.470, 39.133
722.765, 75.507
724.060, 4.123
725.355, 13.764
726.649, 0.420
727.944, 13.915
729.238, 84.246
730.532, 14.572
731.825, 80.895
733.119, 43.212
734.412, 35.526
735.705, 9.164
736.998, 30.136
738.291, 5.568
739.584, 43.721
740.876, 66.006
742.168, 49.288
743.460, 6.565
744.752, 6.842
746.043, 19.115
747.334, 81.392
748.626, 43.674
749.916, 44.047
751.207, 51.208
752.498, 43.460
753.788, 100.710
755.078, 87.642
756.368, 56.215
757.658, 39.465
758.947, 22.718
760.237, 1.030
761.526, 5.239
762.815, 52.509
764.104, 39.788
765.392, 22.065
766.680, 78.347
767.969, 63.643
769.257, 164.949
770.544, 141.209
771.832, 137.584
773.119, 114.907
774.406, 70.234
775.693, 21.563
776.980, 26.903
778.267, 90.246
779.553, 40.587
780.839, 49.947
782.125, 1.694
783.411, 64.664
784.697, 45.025
785.982, 32.387
787.267, 67.748
788.552, 120.112
789.837, 14.476
791.122, 99.839
792.406, 74.205
793.690, 132.570
794.974, 82.947
796.258, 136.338
797.542, 91.730
798.825, 52.130
800.108, 129.532
801.391, 50.934
802.674, 26.340
803.957, 102.755
805.239, 58.179
806.522, 77.607
807.804, 66.040
809.085, 126.475
810.367, 119.911
811.649, 132.349
812.930, 207.789
814.211, 133.229
815.492, 87.679
816.772, 161.111
818.053, 119.266
819.333, 166.726
820.613, 104.108
821.893, 180.206
823.173, 154.668
824.452, 166.143
825.732, 233.503
827.011, 193.983
828.290, 180.466
829.568, 213.544
830.847, 176.651
832.125, 238.968
833.403, 286.855
834.681, 279.228
835.959, 223.611
837.236, 221.113
838.514, 274.157
839.791, 375.689
841.068, 351.250
842.345, 361.516
843.621, 482.185
844.898, 518.050
846.174, 558.628
847.450, 747.202
848.726, 732.630
850.001, 870.180
851.277, 932.714
852.552, 1092.049
853.827, 1166.649
855.102, 1237.228
856.376, 1253.475
857.651, 1237.047
858.925, 1294.654
860.199, 1144.534
861.473, 1059.120
862.746, 1017.666
864.020, 1024.324
865.293, 844.361
866.566, 797.096
867.839, 820.504
869.112, 812.190
870.384, 778.112
871.656, 802.302
872.928, 756.481
874.200, 796.661
875.472, 808.388
876.744, 856.123
878.015, 798.312
879.286, 884.935
880.557, 895.434
881.828, 928.199
883.098, 1011.978
884.369, 1024.767
885.639, 1073.564
886.909, 1083.386
888.178, 1252.217
889.448, 1294.461
890.717, 1494.311
891.987, 1458.863
893.256, 1531.731
894.524, 1774.615
895.793, 1858.518
897.061, 1994.432
898.330, 2151.360
899.598, 2256.299
900.865, 2621.249
902.133, 2882.210
903.401, 3043.740
904.668, 3388.720
905.935, 3824.711
907.202, 4180.713
908.468, 4669.726
909.735, 5185.748
911.001, 5738.782
912.267, 6419.825
913.533, 7272.853
914.799, 8454.917
916.064, 9602.989
917.330, 11401.073
918.595, 12946.167
919.860, 14985.271
921.124, 17275.381
922.389, 19309.514
923.653, 21332.660
924.918, 22621.820
926.182, 23701.992
927.445, 23590.174
928.709, 22699.369
929.972, 21016.570
931.236, 19307.789
932.499, 17541.016
933.761, 16211.251
935.024, 14873.475
936.286, 14080.732
937.549, 13482.999
938.811, 11989.279
940.073, 11133.590
941.334, 9495.908
942.596, 8104.240
943.857, 7043.584
945.118, 6136.936
946.379, 5205.677
947.640, 4698.120
948.900, 4179.502
950.161, 3616.396
951.421, 3249.799
952.681, 2931.213
953.940, 2629.042
955.200, 2382.341
956.459, 2154.389
957.719, 1980.448
958.978, 1784.288
960.236, 1651.775
961.495, 1509.271
962.753, 1457.776
964.012, 1360.292
965.270, 1262.823
966.527, 1201.502
967.785, 1081.603
969.043, 1012.165
970.300, 929.737
971.557, 866.504
972.814, 874.910
974.071, 770.274
975.327, 738.886
976.583, 699.508
977.840, 798.138
979.095, 706.777
980.351, 683.040
981.607, 693.447
982.862, 633.583
984.117, 593.266
985.372, 604.302
986.627, 552.684
987.882, 580.138
989.136, 548.876
990.390, 463.626
991.644, 573.872
992.898, 512.650
994.152, 403.652
995.405, 377.859
996.659, 416.692
997.912, 500.533
999.165, 491.382
1000.417, 510.239
1001.670, 499.118
1002.922, 738.003
1004.174, 679.898
1005.426, 765.801
1006.678, 715.711
1007.930, 776.631
1009.181, 884.570
1010.432, 949.518
1011.683, 927.490
1012.934, 783.475
1014.185, 809.468
1015.435, 681.467
1016.685, 536.485
1017.935, 497.519
1019.185, 389.587
1020.435, 426.662
1021.684, 272.764
1022.934, 383.875
1024.183, 347.010
1025.432, 279.167
1026.680, 288.330
1027.929, 210.500
1029.177, 236.678
1030.425, 221.869
1031.673, 227.067
1032.921, 180.272
1034.169, 128.483
1035.416, 163.701
1036.663, 119.480
1037.911, 184.710
1039.157, 142.960
1040.404, 119.217
1041.650, 121.497
1042.897, 123.132
1044.143, 77.223
1045.389, 147.871
1046.634, 155.274
1047.880, 123.660
1049.125, 67.031
1050.371, 137.805
1051.615, 182.237
1052.860, 48.631
1054.105, 115.087
1055.349, 114.430
1056.593, 88.942
1057.837, 97.375
1059.081, 105.859
1060.325, 80.218
1061.568, 21.648
1062.812, 102.015
1064.055, 51.385
1065.298, 109.759
1066.540, 67.136
1067.783, 97.520
1069.025, 48.907
1070.267, 105.296
1071.509, 40.541
1072.751, 32.050
1073.993, 106.310
1075.234, 18.363
1076.475, 26.766
1077.716, 84.290
1078.957, 58.699
1080.198, 71.866
1081.438, 53.279
1082.679, 134.708
1083.919, 108.301
1085.159, 37.738
1086.398, 88.440
1087.638, 43.104
1088.877, 48.043
1090.116, 58.724
1091.355, 21.809
1092.594, 34.283
1093.833, 55.709
1095.071, 54.863
1096.309, 65.458
1097.547, 51.922
1098.785, 39.236
1100.023, 37.129
1101.260, 53.805
1102.498, 14.829
1103.735, 44.467
1104.972, 31.069
1106.208, 25.736
1107.445, 12.414
1108.681, 41.039
1109.918, 49.356
1111.154, 55.796
1112.389, 7.223
1113.625, 59.893
1114.860, 26.590
1116.096, 15.230
1117.331, 90.765
1118.566, 18.129
1119.800, 48.419
1121.035, 79.958
1122.269, 17.749
1123.503, 101.782
1124.737, 174.133
1125.971, 97.407
1127.205, 43.754
1128.438, 45.977
1129.671, 124.268
1130.904, 4.433
1132.137, 56.803
1133.370, 61.037
1134.602, 16.187
1135.834, 12.585
1137.066, 5.632
1138.298, 127.302
1139.530, 7.412
1140.762, 73.348
1141.993, 34.401
1143.224, 37.092
1144.455, 40.059
1145.686, 33.300
1146.917, 13.484
1148.147, 99.623
1149.377, 113.757
1150.607, 111.887
1151.837, 142.095
1153.067, 45.223
1154.296, 186.357
1155.526, 292.469
1156.755, 230.584
1157.984, 384.686
1159.213, 490.889
1160.441, 554.125
1161.670, 735.302
1162.898, 917.383
1164.126, 921.458
1165.354, 1012.527
1166.581, 1031.731
1167.809, 894.790
1169.036, 693.842
1170.263, 669.888
1171.490, 516.298
1172.717, 363.332
1173.943, 297.358
1175.170, 249.378
1176.396, 81.406
1177.622, 151.413
1178.848, 124.413
1180.073, 64.535
1181.299, 161.520
1182.524, 82.685
1183.749, 45.057
1184.974, 55.877
1186.199, 37.926
1187.423, 97.561
1188.648, 38.536
1189.872, 40.439
1191.096, 4.511
1192.320, 22.378
1193.543, 23.471
1194.767, 1.621
1195.990, 33.201
1197.213, 10.469
1198.436, 25.269
1199.659, 34.987
1200.881, 27.141
1202.104, 56.753
1203.326, 23.517
1204.548, 35.018
1205.770, 28.096
1206.991, 127.751
1208.213, 40.625
1209.434, 210.342
1210.655, 438.051
1211.876, 757.751
1213.096, 483.442
1214.317, 429.878
1215.537, 470.551
1216.757, 235.218
1217.977, 9.087
1219.197, 36.545
1220.417, 8.829
1221.636, 12.771
1222.855, 67.358
1224.074, 37.936
1225.293, 71.160
1226.512, 11.433
1227.731, 76.976
1228.949, 63.515
1230.167, 34.039
1231.385, 63.553
1232.603, 28.057
1233.820, 30.548
1235.038, 48.972
1236.255, 30.460
1237.472, 16.022
1238.689, 59.426
1239.906, 150.821
1241.122, 88.205
1242.338, 70.201
1243.555, 87.497
1244.771, 18.853
1245.986, 74.696
1247.202, 24.020
1248.417, 93.334
1249.633, 156.228
1250.848, 29.397
1252.063, 67.660
1253.277, 69.977
1254.492, 0.148
1255.706, 78.080
1256.920, 51.296
1258.134, 30.504
1259.348, 3.296
1260.562, 28.888
1261.775, 50.910
1262.988, 7.510
1264.201, 47.646
1265.414, 78.771
1266.627, 24.886
1267.839, 63.992
1269.052, 24.326
1270.264, 47.413
1271.476, 76.490
1272.688, 47.558
1273.899, 84.617
1275.111, 102.051
1276.322, 50.091
1277.533, 94.916
1278.744, 75.937
1279.955, 30.053
1281.165, 77.936
1282.376, 91.190
1283.586, 13.161
1284.796, 46.120
1286.006, 9.580
1287.215, 51.508
1288.425, 32.914
1289.634, 72.699
1290.843, 37.572
1292.052, 50.435
1293.261, 105.285
1294.469, 94.119
1295.678, 69.944
1296.886, 40.759
1298.094, 58.563
1299.302, 56.358
1300.509, 73.144
1301.717, 58.388
1302.924, 105.676
1304.131, 35.427
1305.338, 30.168
1306.545, 38.897
1307.752, 75.616
1308.958, 65.326
1310.164, 79.025
1311.370, 30.715
1312.576, 125.396
1313.782, 88.065
1314.987, 97.727
1316.193, 13.378
1317.398, 186.020
1318.603, 164.652
1319.807, 138.275
1321.012, 56.889
1322.216, 85.495
1323.421, 105.092
1324.625, 31.680
1325.829, 104.259
1327.032, 24.829
1328.236, 17.385
1329.439, 70.387
1330.642, 6.070
1331.845, 15.550
1333.048, 40.964
1334.251, 136.451
1335.453, 24.934
1336.656, 24.747
1337.858, 95.365
1339.060, 35.718
1340.261, 65.086
1341.463, 3.468
1342.664, 58.444
1343.866, 5.240
1345.067, 22.110
1346.267, 32.410
1347.468, 79.818
1348.669, 88.057
1349.869, 123.372
1351.069, 122.496
1352.269, 20.037
1353.469, 83.352
1354.668, 154.728
1355.868, 79.100
1357.067, 142.467
1358.266, 3.169
1359.465, 113.188
1360.664, 98.952
1361.862, 39.301
1363.061, 117.796
1364.259, 99.847
1365.457, 53.406
1366.655, 92.095
1367.852, 103.574
1369.050, 2.794
1370.247, 116.133
1371.444, 67.717
1372.641, 42.058
1373.838, 170.366
1375.035, 53.513
1376.231, 58.763
1377.427, 82.734
1378.623, 98.735
1379.819, 84.449
1381.015, 10.406
1382.211, 117.954
1383.406, 93.111
1384.601, 72.327
1385.796, 170.583
1386.991, 111.138
1388.185, 121.228
1389.380, 114.457
1390.574, 67.840
1391.768, 104.367
1392.962, 139.693
1394.156, 86.939
1395.350, 88.747
1396.543, 142.389
1397.736, 132.756
1398.929, 160.906
1400.122, 121.965
1401.315, 180.285
1402.507, 106.687
1403.700, 105.024
1404.892, 51.044
1406.084, 138.393
1407.276, 68.106
1408.467, 197.707
1409.659, 68.889
1410.850, 122.063
1412.041, 69.388
1413.232, 79.598
1414.423, 160.865
1415.614, 112.139
1416.804, 181.278
1417.994, 131.235
1419.184, 231.480
1420.374, 206.528
1421.564, 123.749
1422.753, 178.456
1423.943, 157.646
1425.132, 98.806
1426.321, 238.973
1427.510, 158.944
1428.698, 92.408
1429.887, 167.946
1431.075, 126.473
1432.263, 201.336
1433.451, 103.053
1434.639, 207.026
1435.827, 184.404
1437.014, 113.806
1438.201, 188.721
1439.388, 294.744
1440.575, 246.519
1441.762, 188.517
1442.949, 278.504
1444.135, 269.202
1445.321, 252.075
1446.507, 298.020
1447.693, 260.977
1448.879, 304.258
1450.064, 229.189
1451.250, 292.102
1452.435, 293.014
1453.620, 426.919
1454.805, 382.615
1455.989, 309.586
1457.174, 423.547
1458.358, 283.492
1459.542, 384.452
1460.726, 405.429
1461.910, 345.417
1463.093, 325.420
1464.277, 283.414
1465.460, 211.394
1466.643, 256.390
1467.826, 203.409
1469.009, 310.438
1470.191, 236.457
1471.373, 191.461
1472.556, 266.455
1473.738, 263.441
1474.919, 132.418
1476.101, 267.393
1477.283, 163.356
1478.464, 79.320
1479.645, 95.356
1480.826, 242.470
1482.007, 57.640
1483.187, 292.872
1484.368, 212.117
1485.548, 185.375
1486.728, 183.687
1487.908, 71.019
1489.088, 92.393
1490.268, 213.792
1491.447, 166.222
1492.626, 1.314
1493.805, 73.179
1494.984, 213.706
1496.163, 35.267
1497.341, 130.867
1498.520, 108.509
1499.698, 93.197
1500.876, 170.940
1502.054, 8.253
1503.232, 14.628
1504.409, 13.587
1505.586, 13.379
1506.763, 1.015
1507.940, 3.066
1509.117, 0.785
1510.294, 41.486
1511.470, 60.977
1512.647, 103.591
1513.823, 110.347
1514.999, 101.582
1516.174, 104.180
1517.350, 64.246
1518.526, 148.117
1519.701, 36.380
1520.876, 188.676
1522.051, 98.392
1523.226, 83.125
1524.400, 89.643
1525.574, 53.812
1526.749, 0.000
##END=



