##NAMES=Topaz
##RRUFFID=R050200
##IDEAL CHEMISTRY=Al_2_SiO_4_F_2_
##LOCALITY=Jos Plateau, Nigeria
##OWNER=RRUFF
##SOURCE=Marcus Origlieri
##DESCRIPTION=Colorless water-worn single crystal
##STATUS=The identification of this mineral has been confirmed by X-ray diffraction and chemical analysis
##URL=rruff.info/R050200
##MEASURED CHEMISTRY=Al_2.000_Si_1.000_O_4.000_F_1.488_(OH)_0.512_
##PIN_ID=L00468
##ORIENTATION=Laser parallel to b* (0 1 0). Fiducial mark perpendicular to laser is parallel to c [0 0 1]
94.071, 0.000
95.465, 18.526
96.858, 9.835
98.251, 26.593
99.644, 76.047
101.036, 94.064
102.428, 136.650
103.820, 89.271
105.212, 182.081
106.604, 227.346
107.995, 176.684
109.387, 116.897
110.777, 142.396
112.168, 133.894
113.559, 157.603
114.949, 221.220
116.339, 261.024
117.729, 318.768
119.119, 183.921
120.508, 88.445
121.897, 98.410
123.286, 34.892
124.675, 57.045
126.063, 76.441
127.452, 19.670
128.840, 27.014
130.228, 72.805
131.615, 63.551
133.003, 38.797
134.390, 43.148
135.777, 41.099
137.164, 49.443
138.550, 41.881
139.937, 112.322
141.323, 91.028
142.709, 95.698
144.094, 47.761
145.480, 191.779
146.865, 408.781
148.250, 856.769
149.635, 1166.743
151.019, 1688.703
152.403, 2054.649
153.788, 1867.324
155.171, 1404.747
156.555, 801.194
157.939, 446.596
159.322, 229.605
160.705, 113.628
162.088, 139.662
163.470, 54.706
164.853, 109.759
166.235, 66.819
167.617, 41.881
168.998, 39.945
170.380, 38.009
171.761, 40.453
173.142, 26.115
174.523, 38.207
175.904, 21.275
177.284, 32.645
178.664, 12.514
180.044, 16.254
181.424, 25.980
182.803, 0.354
184.183, 13.268
185.562, 31.145
186.940, 76.588
188.319, 97.057
189.698, 2.555
191.076, 120.099
192.454, 100.725
193.831, 176.449
195.209, 203.200
196.586, 194.006
197.963, 223.826
199.340, 215.646
200.717, 226.467
202.093, 276.137
203.470, 278.076
204.846, 368.865
206.221, 452.644
207.597, 480.409
208.972, 308.159
210.347, 155.894
211.722, 37.613
213.097, 51.685
214.472, 65.004
215.846, 36.345
217.220, 10.708
218.594, 39.888
219.967, 21.433
221.341, 88.916
222.714, 115.357
224.087, 261.788
225.460, 373.199
226.832, 607.603
228.204, 1052.001
229.577, 1781.391
230.948, 3683.775
232.320, 6956.150
233.692, 12146.520
235.063, 17833.879
236.434, 23770.213
237.805, 27844.447
239.175, 26218.643
240.545, 19651.832
241.916, 12494.017
243.286, 7880.195
244.655, 4807.371
246.025, 3145.544
247.394, 2216.715
248.763, 1695.882
250.132, 1506.046
251.501, 1324.209
252.869, 1361.369
254.237, 1551.526
255.605, 1813.709
256.973, 2578.862
258.340, 4131.157
259.708, 8294.621
261.075, 15943.292
262.442, 25833.646
263.808, 36804.258
265.175, 47375.805
266.541, 50476.414
267.907, 39849.203
269.273, 25294.410
270.639, 14799.043
272.004, 8716.634
273.369, 5390.933
274.734, 3719.760
276.099, 3180.227
277.463, 3514.938
278.828, 4735.098
280.192, 6600.581
281.556, 9199.910
282.919, 11459.625
284.283, 12883.032
285.646, 11617.896
287.009, 8730.008
288.372, 6185.423
289.734, 4109.163
291.097, 2789.766
292.459, 2178.387
293.821, 1676.417
295.183, 1368.634
296.544, 1200.218
297.905, 1131.672
299.266, 1036.766
300.627, 1001.573
301.988, 901.705
303.348, 921.297
304.709, 789.312
306.069, 837.007
307.428, 778.427
308.788, 709.886
310.147, 751.379
311.507, 675.780
312.865, 736.285
314.224, 651.674
315.583, 749.086
316.941, 718.463
318.299, 817.781
319.657, 869.996
321.015, 902.185
322.372, 1002.367
323.729, 1203.546
325.086, 1656.723
326.443, 2209.898
327.800, 3045.800
329.156, 3683.964
330.512, 4134.949
331.868, 3840.753
333.224, 3046.542
334.579, 2056.313
335.935, 1450.111
337.290, 1015.737
338.645, 793.521
339.999, 639.080
341.354, 606.839
342.708, 541.226
344.062, 483.046
345.416, 422.281
346.769, 402.183
348.123, 425.242
349.476, 401.978
350.829, 433.004
352.182, 395.114
353.534, 399.204
354.887, 392.329
356.239, 399.441
357.591, 354.556
358.942, 364.665
360.294, 270.769
361.645, 249.867
362.996, 294.958
364.347, 242.042
365.698, 260.121
367.048, 264.193
368.398, 334.258
369.748, 370.317
371.098, 384.370
372.448, 306.416
373.797, 285.461
375.146, 259.179
376.495, 236.896
377.844, 177.777
379.192, 247.479
380.540, 122.791
381.889, 205.531
383.236, 152.089
384.584, 148.064
385.932, 181.091
387.279, 187.114
388.626, 274.141
389.973, 231.176
391.319, 328.209
392.666, 406.236
394.012, 456.258
395.358, 682.288
396.704, 987.312
398.049, 1351.357
399.394, 1652.396
400.740, 1971.434
402.084, 2044.465
403.429, 1682.508
404.774, 1370.560
406.118, 909.608
407.462, 528.658
408.806, 448.709
410.150, 289.755
411.493, 229.802
412.836, 147.855
414.179, 90.903
415.522, 139.957
416.865, 103.005
418.207, 63.049
419.549, 172.087
420.891, 57.119
422.233, 32.141
423.575, 51.851
424.916, 51.113
426.257, 68.065
427.598, 50.005
428.939, 19.934
430.279, 2.146
431.619, 9.245
432.959, 35.635
434.299, 101.508
435.639, 7.381
436.978, 36.241
438.318, 9.089
439.657, 101.924
440.996, 25.749
442.334, 40.581
443.673, 2.383
445.011, 22.261
446.349, 1.966
447.687, 22.206
449.024, 11.474
450.361, 64.765
451.699, 47.107
453.036, 15.489
454.372, 51.107
455.709, 26.284
457.045, 16.728
458.381, 15.197
459.717, 21.310
461.053, 43.804
462.388, 4.289
463.724, 39.760
465.059, 6.222
466.394, 34.672
467.728, 120.111
469.063, 47.543
470.397, 71.967
471.731, 100.382
473.065, 65.789
474.398, 165.188
475.732, 84.582
477.065, 127.968
478.398, 220.348
479.731, 241.719
481.063, 269.083
482.396, 230.441
483.728, 323.792
485.060, 296.136
486.391, 387.473
487.723, 444.802
489.054, 472.125
490.385, 454.442
491.716, 284.752
493.047, 276.057
494.377, 261.355
495.708, 242.649
497.038, 221.936
498.368, 231.219
499.697, 329.496
501.027, 331.630
502.356, 400.915
503.685, 413.190
505.014, 524.221
506.342, 696.503
507.671, 882.785
508.999, 1118.067
510.327, 1519.086
511.655, 2275.381
512.982, 3420.697
514.310, 5011.956
515.637, 7062.207
516.964, 9017.688
518.291, 10524.926
519.617, 10350.411
520.944, 8488.632
522.270, 6176.846
523.596, 4034.050
524.921, 2681.248
526.247, 1747.438
527.572, 1217.620
528.897, 953.794
530.222, 676.961
531.547, 540.135
532.871, 396.477
534.196, 292.620
535.520, 318.923
536.844, 266.071
538.167, 276.135
539.491, 264.513
540.814, 247.391
542.137, 233.938
543.460, 253.120
544.783, 267.267
546.105, 279.526
547.427, 328.742
548.749, 301.930
550.071, 537.395
551.393, 628.500
552.714, 856.595
554.035, 1226.533
555.356, 1707.612
556.677, 2172.628
557.998, 2726.689
559.318, 2981.017
560.638, 2752.060
561.958, 2521.392
563.278, 2122.884
564.597, 1613.898
565.917, 1165.331
567.236, 935.551
568.555, 757.536
569.874, 642.707
571.192, 530.045
572.511, 447.001
573.829, 369.329
575.147, 379.266
576.464, 255.192
577.782, 239.966
579.099, 240.873
580.416, 185.601
581.733, 173.194
583.050, 114.130
584.366, 130.396
585.683, 192.540
586.999, 144.190
588.315, 195.777
589.630, 155.771
590.946, 141.593
592.261, 150.195
593.576, 104.213
594.891, 110.734
596.206, 149.587
597.520, 168.834
598.834, 156.599
600.148, 90.006
601.462, 146.847
602.776, 71.934
604.089, 94.284
605.402, 153.003
606.715, 161.648
608.028, 193.217
609.341, 92.764
610.653, 203.741
611.965, 133.695
613.277, 73.176
614.589, 102.435
615.901, 108.286
617.212, 153.226
618.523, 173.488
619.834, 178.639
621.145, 173.919
622.456, 165.306
623.766, 223.348
625.076, 179.692
626.386, 225.284
627.696, 145.680
629.006, 184.171
630.315, 101.741
631.624, 94.195
632.933, 139.476
634.242, 151.997
635.551, 165.827
636.859, 188.076
638.167, 200.605
639.475, 177.128
640.783, 199.643
642.090, 168.152
643.398, 216.655
644.705, 176.151
646.012, 170.640
647.318, 113.124
648.625, 164.600
649.931, 166.070
651.237, 141.534
652.543, 70.992
653.849, 129.443
655.155, 107.888
656.460, 119.328
657.765, 3.761
659.070, 49.180
660.375, 128.593
661.679, 27.000
662.984, 56.376
664.288, 89.747
665.592, 57.111
666.895, 4.469
668.199, 38.814
669.502, 31.154
670.805, 71.487
672.108, 58.814
673.411, 15.135
674.713, 58.449
676.016, 13.757
677.318, 62.056
678.620, 42.350
679.921, 42.639
681.223, 53.923
682.524, 38.201
683.825, 57.475
685.126, 89.742
686.427, 35.006
687.727, 28.264
689.028, 6.483
690.328, 70.754
691.628, 11.986
692.927, 35.212
694.227, 66.567
695.526, 9.607
696.825, 16.227
698.124, 4.920
699.423, 17.057
700.721, 30.189
702.020, 10.317
703.318, 23.561
704.616, 39.462
705.913, 3.605
707.211, 53.664
708.508, 67.719
709.805, 37.230
711.102, 73.792
712.399, 87.189
713.695, 51.774
714.992, 2.733
716.288, 41.686
717.584, 46.365
718.879, 49.449
720.175, 65.434
721.470, 17.687
722.765, 14.823
724.060, 15.024
725.355, 15.130
726.649, 34.299
727.944, 133.508
729.238, 35.688
730.532, 113.092
731.825, 34.871
733.119, 31.646
734.412, 8.419
735.705, 79.191
736.998, 73.960
738.291, 82.730
739.584, 57.515
740.876, 29.298
742.168, 35.081
743.460, 20.138
744.752, 38.633
746.043, 4.620
747.334, 19.819
748.626, 39.055
749.916, 5.311
751.207, 6.569
752.498, 49.169
753.788, 35.909
755.078, 41.647
756.368, 7.634
757.658, 27.103
758.947, 94.749
760.237, 19.509
761.526, 1.773
762.815, 23.972
764.104, 123.724
765.392, 55.497
766.680, 26.287
767.969, 122.085
769.257, 93.861
770.544, 102.672
771.832, 39.493
773.119, 93.322
774.406, 86.154
775.693, 25.987
776.980, 159.827
778.267, 54.667
779.553, 97.512
780.839, 101.359
782.125, 137.208
783.411, 28.059
784.697, 38.912
785.982, 15.768
787.267, 22.375
788.552, 50.478
789.837, 147.333
791.122, 59.189
792.406, 65.049
793.690, 123.911
794.974, 2.778
796.258, 122.649
797.542, 26.525
798.825, 130.404
800.108, 42.286
801.391, 127.172
802.674, 74.063
803.957, 87.959
805.239, 75.858
806.522, 43.762
807.804, 56.887
809.085, 45.598
810.367, 67.524
811.649, 90.456
812.930, 118.529
814.211, 64.464
815.492, 110.408
816.772, 114.604
818.053, 175.559
819.333, 161.517
820.613, 174.151
821.893, 187.708
823.173, 139.656
824.452, 174.582
825.732, 102.566
827.011, 144.556
828.290, 173.314
829.568, 210.315
830.847, 222.709
832.125, 237.935
833.403, 247.116
834.681, 280.148
835.959, 307.197
837.236, 394.253
838.514, 356.315
839.791, 415.384
841.068, 368.459
842.345, 541.525
843.621, 456.423
844.898, 448.519
846.174, 694.455
847.450, 655.565
848.726, 745.780
850.001, 931.698
851.277, 949.122
852.552, 1142.878
853.827, 1141.000
855.102, 1154.159
856.376, 1174.204
857.651, 1199.292
858.925, 1083.407
860.199, 908.245
861.473, 925.444
862.746, 943.651
864.020, 746.017
865.293, 779.242
866.566, 697.530
867.839, 763.773
869.112, 924.750
870.384, 698.012
871.656, 635.987
872.928, 826.800
874.200, 744.092
875.472, 786.967
876.744, 733.056
878.015, 826.380
879.286, 888.520
880.557, 865.492
881.828, 1010.849
883.098, 888.808
884.369, 1043.187
885.639, 1055.577
886.909, 1121.978
888.178, 1274.391
889.448, 1386.816
890.717, 1337.253
891.987, 1477.702
893.256, 1514.164
894.524, 1604.638
895.793, 1766.123
897.061, 1933.476
898.330, 2053.990
899.598, 2353.229
900.865, 2435.710
902.133, 2681.133
903.401, 2934.412
904.668, 3347.656
905.935, 3631.243
907.202, 4138.841
908.468, 4664.460
909.735, 5202.761
911.001, 5933.424
912.267, 6765.188
913.533, 7886.015
914.799, 8969.660
916.064, 10798.391
917.330, 12244.135
918.595, 14084.896
919.860, 16426.658
921.124, 18294.443
922.389, 20140.527
923.653, 21328.338
924.918, 22190.162
926.182, 21644.992
927.445, 21007.842
928.709, 19401.980
929.972, 17773.854
931.236, 16306.738
932.499, 15116.635
933.761, 13687.546
935.024, 13093.470
936.286, 12471.412
937.549, 11106.383
938.811, 10142.366
940.073, 8592.642
941.334, 7708.653
942.596, 6765.676
943.857, 5682.713
945.118, 4875.771
946.379, 4263.644
947.640, 3822.729
948.900, 3393.378
950.161, 2941.514
951.421, 2726.677
952.681, 2462.852
953.940, 2179.736
955.200, 1985.945
956.459, 1795.392
957.719, 1729.634
958.978, 1522.852
960.236, 1451.131
961.495, 1386.077
962.753, 1260.383
964.012, 1270.721
965.270, 1255.075
966.527, 1257.442
967.785, 1155.823
969.043, 1088.440
970.300, 1120.859
971.557, 1121.292
972.814, 1126.736
974.071, 1271.198
975.327, 1296.673
976.583, 1554.160
977.840, 1660.659
979.095, 1944.172
980.351, 2527.698
981.607, 2868.742
982.862, 3192.298
984.117, 3167.046
985.372, 3070.449
986.627, 2695.888
987.882, 2360.494
989.136, 1773.111
990.390, 1551.749
991.644, 1167.399
992.898, 977.062
994.152, 846.736
995.405, 736.727
996.659, 716.436
997.912, 624.158
999.165, 578.891
1000.417, 416.273
1001.670, 420.363
1002.922, 380.374
1004.174, 387.668
1005.426, 353.495
1006.678, 341.333
1007.930, 277.183
1009.181, 277.054
1010.432, 261.950
1011.683, 228.860
1012.934, 238.782
1014.185, 235.715
1015.435, 234.671
1016.685, 188.639
1017.935, 228.644
1019.185, 235.659
1020.435, 187.688
1021.684, 185.729
1022.934, 251.802
1024.183, 237.902
1025.432, 223.012
1026.680, 200.140
1027.929, 199.284
1029.177, 175.439
1030.425, 169.206
1031.673, 174.895
1032.921, 158.102
1034.169, 98.329
1035.416, 98.989
1036.663, 87.913
1037.911, 125.073
1039.157, 105.539
1040.404, 127.817
1041.650, 162.106
1042.897, 155.219
1044.143, 116.042
1045.389, 149.377
1046.634, 96.706
1047.880, 45.000
1049.125, 33.356
1050.371, 156.723
1051.615, 8.895
1052.860, 95.505
1054.105, 125.916
1055.349, 108.337
1056.593, 59.767
1057.837, 72.792
1059.081, 111.240
1060.325, 50.530
1061.568, 8.004
1062.812, 89.480
1064.055, 124.375
1065.298, 126.065
1066.540, 133.173
1067.783, 76.097
1069.025, 72.625
1070.267, 19.176
1071.509, 17.980
1072.751, 126.566
1073.993, 46.119
1075.234, 34.680
1076.475, 62.248
1077.716, 17.178
1078.957, 22.400
1080.198, 124.985
1081.438, 106.577
1082.679, 97.311
1083.919, 28.916
1085.159, 42.016
1086.398, 40.107
1087.638, 39.892
1088.877, 16.521
1090.116, 19.246
1091.355, 21.890
1092.594, 36.540
1093.833, 20.047
1095.071, 30.700
1096.309, 7.958
1097.547, 23.330
1098.785, 23.155
1100.023, 38.705
1101.260, 43.375
1102.498, 24.950
1103.735, 23.585
1104.972, 10.740
1106.208, 43.940
1107.445, 49.772
1108.681, 52.894
1109.918, 21.438
1111.154, 27.227
1112.389, 51.561
1113.625, 15.231
1114.860, 26.010
1116.096, 29.685
1117.331, 7.221
1118.566, 13.457
1119.800, 28.136
1121.035, 123.910
1122.269, 222.593
1123.503, 279.278
1124.737, 165.035
1125.971, 55.723
1127.205, 36.413
1128.438, 78.212
1129.671, 34.061
1130.904, 179.212
1132.137, 35.118
1133.370, 104.800
1134.602, 55.517
1135.834, 70.141
1137.066, 65.799
1138.298, 37.254
1139.530, 35.137
1140.762, 65.796
1141.993, 49.479
1143.224, 5.861
1144.455, 60.843
1145.686, 93.499
1146.917, 156.154
1148.147, 11.856
1149.377, 137.792
1150.607, 81.439
1151.837, 145.086
1153.067, 182.789
1154.296, 245.434
1155.526, 332.537
1156.755, 414.832
1157.984, 524.472
1159.213, 671.226
1160.441, 780.917
1161.670, 917.552
1162.898, 989.186
1164.126, 1064.817
1165.354, 1077.446
1166.581, 974.072
1167.809, 760.697
1169.036, 644.725
1170.263, 579.968
1171.490, 436.584
1172.717, 290.197
1173.943, 197.807
1175.170, 189.414
1176.396, 268.017
1177.622, 100.617
1178.848, 6.102
1180.073, 131.693
1181.299, 77.286
1182.524, 64.869
1183.749, 183.449
1184.974, 91.048
1186.199, 5.839
1187.423, 31.404
1188.648, 27.963
1189.872, 4.518
1191.096, 31.065
1192.320, 13.626
1193.543, 34.290
1194.767, 4.144
1195.990, 21.268
1197.213, 23.421
1198.436, 49.290
1199.659, 53.703
1200.881, 42.200
1202.104, 73.693
1203.326, 26.181
1204.548, 11.338
1205.770, 83.124
1206.991, 62.329
1208.213, 46.081
1209.434, 63.744
1210.655, 37.859
1211.876, 18.503
1213.096, 72.857
1214.317, 104.476
1215.537, 69.818
1216.757, 35.154
1217.977, 17.490
1219.197, 42.529
1220.417, 95.851
1221.636, 128.166
1222.855, 133.430
1224.074, 119.421
1225.293, 104.792
1226.512, 74.082
1227.731, 75.823
1228.949, 28.643
1230.167, 62.074
1231.385, 2.608
1232.603, 34.362
1233.820, 29.847
1235.038, 105.047
1236.255, 36.240
1237.472, 87.425
1238.689, 110.601
1239.906, 16.230
1241.122, 78.909
1242.338, 112.243
1243.555, 45.346
1244.771, 70.120
1245.986, 23.075
1247.202, 60.951
1248.417, 119.950
1249.633, 6.752
1250.848, 74.204
1252.063, 59.922
1253.277, 50.137
1254.492, 73.827
1255.706, 77.735
1256.920, 74.982
1258.134, 52.125
1259.348, 152.739
1260.562, 41.594
1261.775, 97.441
1262.988, 24.273
1264.201, 81.884
1265.414, 114.698
1266.627, 45.500
1267.839, 66.290
1269.052, 77.074
1270.264, 49.851
1271.476, 85.618
1272.688, 74.378
1273.899, 46.303
1275.111, 60.509
1276.322, 19.103
1277.533, 35.828
1278.744, 111.531
1279.955, 76.227
1281.165, 84.067
1282.376, 88.747
1283.586, 6.587
1284.796, 35.062
1286.006, 112.702
1287.215, 63.331
1288.425, 143.953
1289.634, 6.266
1290.843, 85.864
1292.052, 93.447
1293.261, 30.022
1294.469, 87.973
1295.678, 118.529
1296.886, 109.075
1298.094, 57.596
1299.302, 107.107
1300.509, 48.609
1301.717, 99.101
1302.924, 79.584
1304.131, 49.058
1305.338, 60.522
1306.545, 74.977
1307.752, 165.423
1308.958, 125.857
1310.164, 145.761
1311.370, 199.698
1312.576, 117.104
1313.782, 28.502
1314.987, 3.111
1316.193, 136.261
1317.398, 104.623
1318.603, 113.978
1319.807, 78.324
1321.012, 132.663
1322.216, 111.993
1323.421, 11.315
1324.625, 92.537
1325.829, 75.840
1327.032, 105.135
1328.236, 98.422
1329.439, 71.702
1330.642, 41.974
1331.845, 140.040
1333.048, 108.295
1334.251, 103.999
1335.453, 80.456
1336.656, 73.689
1337.858, 51.899
1339.060, 70.117
1340.261, 10.377
1341.463, 130.579
1342.664, 145.773
1343.866, 93.962
1345.067, 139.146
1346.267, 126.324
1347.468, 81.496
1348.669, 110.664
1349.869, 98.239
1351.069, 55.397
1352.269, 115.719
1353.469, 18.132
1354.668, 175.004
1355.868, 156.736
1357.067, 98.680
1358.266, 29.806
1359.465, 114.929
1360.664, 161.050
1361.862, 155.554
1363.061, 185.592
1364.259, 186.667
1365.457, 174.903
1366.655, 166.022
1367.852, 157.141
1369.050, 110.262
1370.247, 119.387
1371.444, 92.514
1372.641, 164.645
1373.838, 42.362
1375.035, 60.400
1376.231, 186.956
1377.427, 71.510
1378.623, 108.358
1379.819, 101.262
1381.015, 218.048
1382.211, 78.866
1383.406, 132.645
1384.601, 155.951
1385.796, 130.382
1386.991, 147.832
1388.185, 70.236
1389.380, 182.634
1390.574, 91.932
1391.768, 152.378
1392.962, 56.634
1394.156, 105.878
1395.350, 175.950
1396.543, 148.669
1397.736, 106.725
1398.929, 122.865
1400.122, 132.912
1401.315, 123.901
1402.507, 175.288
1403.700, 190.118
1404.892, 220.208
1406.084, 159.184
1407.276, 180.973
1408.467, 49.984
1409.659, 91.743
1410.850, 174.336
1412.041, 87.328
1413.232, 218.234
1414.423, 56.057
1415.614, 197.005
1416.804, 174.723
1417.994, 187.643
1419.184, 78.548
1420.374, 164.440
1421.564, 222.575
1422.753, 256.409
1423.943, 164.228
1425.132, 155.034
1426.321, 279.567
1427.510, 121.322
1428.698, 231.034
1429.887, 120.444
1431.075, 83.161
1432.263, 212.840
1433.451, 190.286
1434.639, 236.595
1435.827, 142.248
1437.014, 217.884
1438.201, 149.504
1439.388, 231.982
1440.575, 302.792
1441.762, 314.423
1442.949, 344.708
1444.135, 218.225
1445.321, 327.807
1446.507, 287.370
1447.693, 242.914
1448.879, 292.438
1450.064, 312.938
1451.250, 274.014
1452.435, 263.511
1453.620, 318.021
1454.805, 259.518
1455.989, 361.022
1457.174, 259.570
1458.358, 298.212
1459.542, 327.890
1460.726, 177.632
1461.910, 285.409
1463.093, 248.176
1464.277, 265.929
1465.460, 253.683
1466.643, 153.446
1467.826, 211.222
1469.009, 185.018
1470.191, 229.807
1471.373, 266.588
1472.556, 239.365
1473.738, 177.132
1474.919, 192.957
1476.101, 254.779
1477.283, 79.631
1478.464, 183.490
1479.645, 149.357
1480.826, 125.255
1482.007, 314.181
1483.187, 175.121
1484.368, 223.186
1485.548, 98.286
1486.728, 147.512
1487.908, 84.568
1489.088, 206.768
1490.268, 137.015
1491.447, 79.307
1492.626, 46.645
1493.805, 91.023
1494.984, 147.441
1496.163, 202.903
1497.341, 175.993
1498.520, 65.978
1499.698, 114.602
1500.876, 59.293
1502.054, 40.058
1503.232, 17.098
1504.409, 2.669
1505.586, 57.864
1506.763, 69.987
1507.940, 66.216
1509.117, 144.558
1510.294, 59.022
1511.470, 77.624
1512.647, 67.380
1513.823, 153.312
1514.999, 5.180
1516.174, 85.943
1517.350, 139.362
1518.526, 32.091
1519.701, 169.647
1520.876, 43.048
1522.051, 61.276
1523.226, 5.983
1524.400, 1.314
1525.574, 0.000
##END=



