##NAMES=Topaz
##RRUFFID=R050200
##IDEAL CHEMISTRY=Al_2_SiO_4_F_2_
##LOCALITY=Jos Plateau, Nigeria
##OWNER=RRUFF
##SOURCE=Marcus Origlieri
##DESCRIPTION=Colorless water-worn single crystal
##STATUS=The identification of this mineral has been confirmed by X-ray diffraction and chemical analysis
##URL=rruff.info/R050200
##MEASURED CHEMISTRY=Al_2.000_Si_1.000_O_4.000_F_1.488_(OH)_0.512_
##PIN_ID=L00463
##ORIENTATION=Laser parallel to -c* (0 0 -1). Fiducial mark perpendicular to laser is parallel to a [1 0 0]
91.284, 0.000
92.678, 42.186
94.071, 37.651
95.465, 103.714
96.858, 141.646
98.251, 216.280
99.644, 230.729
101.036, 185.745
102.428, 247.508
103.820, 262.880
105.212, 339.328
106.604, 400.065
107.995, 496.050
109.387, 624.148
110.777, 671.115
112.168, 924.784
113.559, 953.366
114.949, 778.968
116.339, 1401.536
117.729, 2550.790
119.119, 2138.544
120.508, 1713.939
121.897, 1002.576
123.286, 455.997
124.675, 163.119
126.063, 96.150
127.452, 343.115
128.840, 539.034
130.228, 479.922
131.615, 10.792
133.003, 107.656
134.390, 115.517
135.777, 161.112
137.164, 25.061
138.550, 6.260
139.937, 0.790
141.323, 34.600
142.709, 8.086
144.094, 3.153
145.480, 6.322
146.865, 83.577
148.250, 375.541
149.635, 670.568
151.019, 1003.655
152.403, 1441.153
153.788, 1908.790
155.171, 1824.747
156.555, 2501.674
157.939, 1490.955
159.322, 819.328
160.705, 498.790
162.088, 399.335
163.470, 259.962
164.853, 117.666
166.235, 171.437
167.617, 172.275
168.998, 69.179
170.380, 10.145
171.761, 27.173
173.142, 14.262
174.523, 155.391
175.904, 25.521
177.284, 25.686
178.664, 75.068
180.044, 67.428
181.424, 63.259
182.803, 6.896
184.183, 34.911
185.562, 0.190
186.940, 32.337
188.319, 62.508
189.698, 82.705
191.076, 38.928
192.454, 108.177
193.831, 91.451
195.209, 115.751
196.586, 178.076
197.963, 152.426
199.340, 201.792
200.717, 188.175
202.093, 263.579
203.470, 255.007
204.846, 298.458
206.221, 322.931
207.597, 313.786
208.972, 250.638
210.347, 278.453
211.722, 75.996
213.097, 10.443
214.472, 72.865
215.846, 108.267
217.220, 100.062
218.594, 131.035
219.967, 30.418
221.341, 77.197
222.714, 116.832
224.087, 143.485
225.460, 325.161
226.832, 589.856
228.204, 979.572
229.577, 1781.310
230.948, 3217.068
232.320, 5629.847
233.692, 9736.646
235.063, 15381.464
236.434, 21774.240
237.805, 27117.939
239.175, 30589.615
240.545, 33184.309
241.916, 29803.035
243.286, 19445.781
244.655, 11668.542
246.025, 7017.335
247.394, 4621.148
248.763, 3256.987
250.132, 2217.850
251.501, 1936.735
252.869, 1594.645
254.237, 1605.579
255.605, 1761.536
256.973, 2011.542
258.340, 2768.015
259.708, 4405.787
261.075, 8389.896
262.442, 14705.270
263.808, 22653.971
265.175, 32512.801
266.541, 45200.488
267.907, 57775.023
269.273, 60004.215
270.639, 42685.445
272.004, 24409.676
273.369, 15297.849
274.734, 11150.740
276.099, 9411.192
277.463, 7832.332
278.828, 7344.850
280.192, 8477.933
281.556, 10758.013
282.919, 14667.119
284.283, 19247.252
285.646, 24684.420
287.009, 26544.609
288.372, 22309.822
289.734, 15611.048
291.097, 9936.290
292.459, 6498.547
293.821, 4588.818
295.183, 3193.107
296.544, 2512.410
297.905, 1898.728
299.266, 1649.061
300.627, 1526.360
301.988, 1411.668
303.348, 1260.965
304.709, 1201.272
306.069, 1105.395
307.428, 1077.094
308.788, 1008.408
310.147, 900.687
311.507, 925.073
312.865, 885.474
314.224, 950.887
315.583, 898.314
316.941, 1008.746
318.299, 1021.096
319.657, 1097.339
321.015, 1224.583
322.372, 1419.844
323.729, 1776.120
325.086, 2398.412
326.443, 3494.717
327.800, 4901.039
329.156, 6975.373
330.512, 9285.722
331.868, 12002.085
333.224, 13381.456
334.579, 11361.844
335.935, 7627.244
337.290, 4899.656
338.645, 3250.078
339.999, 2321.514
341.354, 1604.961
342.708, 1217.427
344.062, 1011.993
345.416, 874.484
346.769, 828.603
348.123, 727.649
349.476, 757.039
350.829, 844.599
352.182, 1068.183
353.534, 1453.774
354.887, 2080.396
356.239, 2837.035
357.591, 3867.685
358.942, 5069.363
360.294, 5406.050
361.645, 3853.749
362.996, 2247.475
364.347, 1502.217
365.698, 924.971
367.048, 640.731
368.398, 596.498
369.748, 487.271
371.098, 475.051
372.448, 465.835
373.797, 472.626
375.146, 498.539
376.495, 525.717
377.844, 605.325
379.192, 657.163
380.540, 786.415
381.889, 735.062
383.236, 764.595
384.584, 750.426
385.932, 642.261
387.279, 467.106
388.626, 482.955
389.973, 593.845
391.319, 536.781
392.666, 723.742
394.012, 982.707
395.358, 1266.676
396.704, 1873.679
398.049, 2735.699
399.394, 3949.744
400.740, 5126.810
402.084, 6563.910
403.429, 7541.012
404.774, 7445.146
406.118, 6301.308
407.462, 4246.474
408.806, 2763.645
410.150, 1788.836
411.493, 1302.037
412.836, 913.260
414.179, 796.487
415.522, 548.714
416.865, 299.961
418.207, 234.207
419.549, 86.462
420.891, 157.732
422.233, 15.007
423.575, 9.716
424.916, 144.448
426.257, 31.260
427.598, 8.093
428.939, 87.937
430.279, 65.073
431.619, 48.007
432.959, 62.975
434.299, 44.892
435.639, 3.581
436.978, 126.853
438.318, 17.689
439.657, 29.928
440.996, 26.247
442.334, 90.826
443.673, 39.104
445.011, 223.136
446.349, 342.708
447.687, 521.878
449.024, 984.297
450.361, 1636.111
451.699, 2455.123
453.036, 3905.198
454.372, 5650.995
455.709, 7633.229
457.045, 8809.013
458.381, 9178.922
459.717, 7619.690
461.053, 5553.453
462.388, 3765.208
463.724, 2536.955
465.059, 1904.694
466.394, 1252.561
467.728, 805.288
469.063, 792.008
470.397, 532.719
471.731, 348.422
473.065, 404.117
474.398, 303.803
475.732, 353.479
477.065, 152.147
478.398, 209.805
479.731, 129.454
481.063, 223.095
482.396, 192.726
483.728, 264.348
485.060, 300.960
486.391, 363.563
487.723, 494.157
489.054, 660.741
490.385, 926.313
491.716, 1108.876
493.047, 1069.429
494.377, 1027.971
495.708, 1043.502
497.038, 1084.022
498.368, 935.531
499.697, 1229.357
501.027, 556.939
502.356, 561.857
503.685, 445.916
505.014, 528.435
506.342, 487.205
507.671, 661.222
508.999, 714.023
510.327, 907.073
511.655, 1302.314
512.982, 1810.075
514.310, 2789.960
515.637, 3953.529
516.964, 5626.106
518.291, 7468.651
519.617, 9477.063
520.944, 10387.257
522.270, 9058.856
523.596, 6890.404
524.921, 4581.254
526.247, 3056.918
527.572, 2079.521
528.897, 1421.354
530.222, 1026.905
531.547, 668.423
532.871, 637.170
534.196, 436.565
535.520, 386.029
536.844, 433.780
538.167, 381.565
539.491, 438.373
540.814, 645.509
542.137, 824.209
543.460, 1038.506
544.783, 1631.862
546.105, 2170.257
547.427, 3079.699
548.749, 3629.855
550.071, 3410.820
551.393, 2741.201
552.714, 2069.741
554.035, 1787.995
555.356, 1848.640
556.677, 2058.149
557.998, 2488.424
559.318, 3108.393
560.638, 3136.246
561.958, 3432.133
563.278, 3076.535
564.597, 2660.770
565.917, 1955.870
567.236, 1507.008
568.555, 1219.873
569.874, 951.633
571.192, 764.500
572.511, 653.778
573.829, 596.554
575.147, 553.713
576.464, 450.261
577.782, 471.219
579.099, 336.551
580.416, 220.179
581.733, 288.891
583.050, 290.272
584.366, 198.466
585.683, 270.710
586.999, 256.091
588.315, 81.846
589.630, 181.828
590.946, 240.850
592.261, 153.660
593.576, 95.860
594.891, 66.905
596.206, 28.493
597.520, 32.624
598.834, 88.143
600.148, 24.478
601.462, 77.566
602.776, 118.017
604.089, 24.191
605.402, 88.019
606.715, 67.026
608.028, 182.034
609.341, 118.888
610.653, 102.598
611.965, 200.280
613.277, 77.959
614.589, 173.583
615.901, 137.181
617.212, 225.750
618.523, 169.292
619.834, 179.807
621.145, 180.295
622.456, 195.756
623.766, 138.191
625.076, 295.597
626.386, 273.975
627.696, 391.327
629.006, 248.651
630.315, 397.948
631.624, 302.218
632.933, 427.461
634.242, 515.677
635.551, 352.866
636.859, 501.027
638.167, 469.162
639.475, 632.269
640.783, 592.349
642.090, 689.401
643.398, 786.427
644.705, 847.426
646.012, 741.396
647.318, 639.342
648.625, 545.258
649.931, 413.149
651.237, 356.034
652.543, 220.849
653.849, 221.658
655.155, 172.439
656.460, 92.195
657.765, 147.920
659.070, 20.619
660.375, 16.277
661.679, 156.894
662.984, 93.482
664.288, 58.042
665.592, 31.430
666.895, 19.968
668.199, 23.564
669.502, 80.777
670.805, 50.910
672.108, 1.327
673.411, 21.518
674.713, 47.330
676.016, 24.750
677.318, 32.793
678.620, 50.197
679.921, 2.261
681.223, 8.628
682.524, 65.475
683.825, 70.932
685.126, 43.082
686.427, 73.839
687.727, 76.568
689.028, 43.268
690.328, 95.938
691.628, 74.580
692.927, 36.194
694.227, 32.777
695.526, 30.713
696.825, 145.850
698.124, 37.345
699.423, 104.810
700.721, 85.249
702.020, 4.659
703.318, 54.032
704.616, 120.624
705.913, 134.383
707.211, 62.252
708.508, 29.806
709.805, 68.835
711.102, 101.163
712.399, 36.252
713.695, 65.397
714.992, 45.616
716.288, 99.894
717.584, 16.739
718.879, 87.657
720.175, 86.135
721.470, 43.308
722.765, 7.276
724.060, 51.898
725.355, 19.580
726.649, 70.304
727.944, 2.902
729.238, 74.079
730.532, 62.768
731.825, 47.322
733.119, 71.387
734.412, 21.571
735.705, 68.432
736.998, 13.412
738.291, 59.368
739.584, 51.927
740.876, 27.265
742.168, 45.211
743.460, 6.141
744.752, 38.315
746.043, 32.243
747.334, 84.168
748.626, 10.000
749.916, 15.437
751.207, 93.681
752.498, 36.925
753.788, 107.305
755.078, 1.858
756.368, 47.984
757.658, 8.613
758.947, 10.012
760.237, 80.073
761.526, 28.515
762.815, 18.685
764.104, 47.437
765.392, 144.968
766.680, 168.414
767.969, 64.117
769.257, 161.360
770.544, 152.032
771.832, 315.556
773.119, 480.199
774.406, 163.827
775.693, 576.441
776.980, 130.042
778.267, 184.629
779.553, 116.067
780.839, 137.627
782.125, 118.174
783.411, 181.707
784.697, 160.413
785.982, 75.736
787.267, 130.230
788.552, 160.713
789.837, 103.184
791.122, 201.643
792.406, 99.096
793.690, 224.537
794.974, 262.979
796.258, 150.409
797.542, 142.832
798.825, 183.249
800.108, 268.656
801.391, 207.054
802.674, 289.440
803.957, 319.833
805.239, 267.222
806.522, 329.601
807.804, 333.909
809.085, 356.337
810.367, 360.697
811.649, 382.735
812.930, 340.007
814.211, 374.920
815.492, 371.215
816.772, 346.990
818.053, 412.021
819.333, 384.797
820.613, 440.776
821.893, 510.487
823.173, 533.985
824.452, 584.944
825.732, 678.758
827.011, 667.868
828.290, 752.949
829.568, 830.046
830.847, 881.254
832.125, 1047.668
833.403, 1144.652
834.681, 1102.673
835.959, 1410.368
837.236, 1491.256
838.514, 1999.184
839.791, 2170.861
841.068, 2722.816
842.345, 3180.786
843.621, 3864.524
844.898, 4627.604
846.174, 5485.599
847.450, 6629.297
848.726, 7327.963
850.001, 8433.606
851.277, 9087.922
852.552, 9945.682
853.827, 10702.830
855.102, 11167.902
856.376, 11135.910
857.651, 10975.857
858.925, 10196.066
860.199, 8773.448
861.473, 7789.395
862.746, 6468.161
864.020, 5608.195
865.293, 4548.818
866.566, 4265.557
867.839, 3682.510
869.112, 3230.750
870.384, 2930.630
871.656, 2761.365
872.928, 2531.111
874.200, 2474.006
875.472, 2500.016
876.744, 2356.967
878.015, 2353.172
879.286, 2221.463
880.557, 2217.626
881.828, 2269.360
883.098, 2282.596
884.369, 2199.430
885.639, 2276.584
886.909, 2318.855
888.178, 2437.469
889.448, 2519.770
890.717, 2677.447
891.987, 2872.152
893.256, 3060.445
894.524, 3334.654
895.793, 3606.975
897.061, 3969.141
898.330, 4241.470
899.598, 4700.804
900.865, 5155.583
902.133, 5817.661
903.401, 6286.420
904.668, 7077.106
905.935, 7875.586
907.202, 8438.319
908.468, 9254.684
909.735, 10132.309
911.001, 10890.567
912.267, 11780.096
913.533, 12893.950
914.799, 14429.609
916.064, 16154.249
917.330, 18783.053
918.595, 21127.973
919.860, 23944.916
921.124, 27768.840
922.389, 30720.795
923.653, 34007.770
924.918, 36248.750
926.182, 37851.004
927.445, 37523.012
928.709, 36205.043
929.972, 33691.125
931.236, 30798.250
932.499, 27837.361
933.761, 25616.475
935.024, 23116.613
936.286, 21513.762
937.549, 20195.924
938.811, 17477.094
940.073, 15820.273
941.334, 13315.467
942.596, 11501.779
943.857, 9977.111
945.118, 8603.443
946.379, 7348.061
947.640, 6608.486
948.900, 5986.979
950.161, 5275.812
951.421, 4614.094
952.681, 4179.580
953.940, 3803.948
955.200, 3343.531
956.459, 3006.116
957.719, 2889.533
958.978, 2673.888
960.236, 2449.197
961.495, 2102.696
962.753, 2101.094
964.012, 1849.048
965.270, 1733.457
966.527, 1833.531
967.785, 1503.974
969.043, 1588.674
970.300, 1412.402
971.557, 1359.050
972.814, 1227.560
974.071, 1077.094
975.327, 1208.656
976.583, 1036.227
977.840, 1108.832
979.095, 1074.455
980.351, 891.925
981.607, 1051.779
982.862, 956.015
984.117, 1015.713
985.372, 1362.051
986.627, 890.798
987.882, 1125.985
989.136, 1047.027
990.390, 836.811
991.644, 919.186
992.898, 963.994
994.152, 1058.009
995.405, 1072.278
996.659, 1053.373
997.912, 1252.654
999.165, 1338.495
1000.417, 1578.362
1001.670, 1853.934
1002.922, 2122.127
1004.174, 2525.364
1005.426, 2853.420
1006.678, 3259.336
1007.930, 3755.266
1009.181, 4186.203
1010.432, 4227.184
1011.683, 4284.213
1012.934, 3896.273
1014.185, 3583.340
1015.435, 2976.417
1016.685, 2406.533
1017.935, 2003.671
1019.185, 1641.497
1020.435, 1482.027
1021.684, 1200.257
1022.934, 1090.495
1024.183, 1058.766
1025.432, 860.069
1026.680, 865.381
1027.929, 636.703
1029.177, 672.048
1030.425, 568.408
1031.673, 557.794
1032.921, 479.650
1034.169, 438.050
1035.416, 419.783
1036.663, 537.772
1037.911, 327.784
1039.157, 334.955
1040.404, 366.787
1041.650, 226.945
1042.897, 341.573
1044.143, 154.489
1045.389, 335.508
1046.634, 279.205
1047.880, 249.164
1049.125, 113.733
1050.371, 197.978
1051.615, 352.349
1052.860, 7.544
1054.105, 244.874
1055.349, 181.629
1056.593, 108.771
1057.837, 173.273
1059.081, 252.635
1060.325, 175.369
1061.568, 126.430
1062.812, 154.243
1064.055, 72.957
1065.298, 154.983
1066.540, 81.036
1067.783, 171.789
1069.025, 63.280
1070.267, 164.769
1071.509, 41.255
1072.751, 112.736
1073.993, 145.213
1075.234, 16.932
1076.475, 99.590
1077.716, 145.585
1078.957, 68.314
1080.198, 1.532
1081.438, 187.924
1082.679, 108.945
1083.919, 63.168
1085.159, 158.986
1086.398, 230.402
1087.638, 191.062
1088.877, 146.128
1090.116, 78.524
1091.355, 1.253
1092.594, 32.104
1093.833, 0.110
1095.071, 56.739
1096.309, 3.123
1097.547, 5.234
1098.785, 38.998
1100.023, 29.364
1101.260, 2.218
1102.498, 16.037
1103.735, 66.685
1104.972, 29.492
1106.208, 19.844
1107.445, 73.226
1108.681, 41.371
1109.918, 12.765
1111.154, 73.716
1112.389, 32.277
1113.625, 86.062
1114.860, 65.804
1116.096, 72.385
1117.331, 0.862
1118.566, 41.633
1119.800, 15.909
1121.035, 144.412
1122.269, 69.327
1123.503, 346.340
1124.737, 293.351
1125.971, 215.228
1127.205, 155.305
1128.438, 10.827
1129.671, 25.341
1130.904, 3.697
1132.137, 191.098
1133.370, 4.121
1134.602, 80.639
1135.834, 82.617
1137.066, 14.066
1138.298, 94.860
1139.530, 51.379
1140.762, 163.573
1141.993, 59.838
1143.224, 31.265
1144.455, 26.298
1145.686, 30.062
1146.917, 6.236
1148.147, 106.484
1149.377, 32.349
1150.607, 82.846
1151.837, 92.210
1153.067, 62.655
1154.296, 182.017
1155.526, 322.326
1156.755, 313.620
1157.984, 342.896
1159.213, 515.155
1160.441, 593.396
1161.670, 831.617
1162.898, 952.523
1164.126, 1007.802
1165.354, 1219.968
1166.581, 1042.360
1167.809, 1029.488
1169.036, 769.050
1170.263, 816.140
1171.490, 593.339
1172.717, 580.389
1173.943, 789.418
1175.170, 432.426
1176.396, 225.728
1177.622, 316.695
1178.848, 141.643
1180.073, 47.117
1181.299, 137.748
1182.524, 56.817
1183.749, 21.639
1184.974, 0.661
1186.199, 18.318
1187.423, 45.357
1188.648, 0.059
1189.872, 9.942
1191.096, 35.940
1192.320, 43.990
1193.543, 87.554
1194.767, 39.265
1195.990, 18.244
1197.213, 25.317
1198.436, 14.270
1199.659, 28.491
1200.881, 3.257
1202.104, 90.625
1203.326, 32.895
1204.548, 153.134
1205.770, 59.648
1206.991, 17.505
1208.213, 6.413
1209.434, 81.633
1210.655, 18.664
1211.876, 44.804
1213.096, 53.061
1214.317, 97.828
1215.537, 234.688
1216.757, 301.527
1217.977, 743.670
1219.197, 623.461
1220.417, 697.273
1221.636, 72.024
1222.855, 26.484
1224.074, 34.819
1225.293, 94.187
1226.512, 40.354
1227.731, 162.830
1228.949, 48.317
1230.167, 10.776
1231.385, 73.197
1232.603, 169.595
1233.820, 108.971
1235.038, 45.319
1236.255, 228.636
1237.472, 37.928
1238.689, 122.799
1239.906, 121.410
1241.122, 165.303
1242.338, 98.106
1243.555, 136.089
1244.771, 78.992
1245.986, 147.532
1247.202, 132.606
1248.417, 241.464
1249.633, 161.424
1250.848, 4.154
1252.063, 129.864
1253.277, 116.725
1254.492, 109.635
1255.706, 201.574
1256.920, 71.310
1258.134, 76.132
1259.348, 93.153
1260.562, 139.170
1261.775, 113.282
1262.988, 51.014
1264.201, 46.471
1265.414, 37.889
1266.627, 40.203
1267.839, 172.989
1269.052, 131.584
1270.264, 129.149
1271.476, 274.691
1272.688, 107.211
1273.899, 154.703
1275.111, 77.342
1276.322, 122.604
1277.533, 184.469
1278.744, 247.861
1279.955, 169.623
1281.165, 266.968
1282.376, 153.864
1283.586, 122.892
1284.796, 127.162
1286.006, 2.821
1287.215, 246.030
1288.425, 138.014
1289.634, 129.709
1290.843, 106.564
1292.052, 51.215
1293.261, 69.291
1294.469, 3.671
1295.678, 114.079
1296.886, 287.014
1298.094, 117.960
1299.302, 3.752
1300.509, 170.670
1301.717, 143.565
1302.924, 163.438
1304.131, 162.291
1305.338, 197.124
1306.545, 178.936
1307.752, 16.728
1308.958, 118.499
1310.164, 220.248
1311.370, 81.978
1312.576, 200.687
1313.782, 39.377
1314.987, 241.047
1316.193, 108.695
1317.398, 305.325
1318.603, 196.937
1319.807, 237.528
1321.012, 64.102
1322.216, 252.655
1323.421, 182.189
1324.625, 62.706
1325.829, 166.744
1327.032, 79.813
1328.236, 200.376
1329.439, 78.259
1330.642, 1.107
1331.845, 56.790
1333.048, 151.799
1334.251, 77.470
1335.453, 40.658
1336.656, 28.545
1337.858, 174.321
1339.060, 39.596
1340.261, 168.218
1341.463, 92.408
1342.664, 224.912
1343.866, 27.278
1345.067, 22.812
1346.267, 98.203
1347.468, 160.158
1348.669, 173.067
1349.869, 191.056
1351.069, 224.225
1352.269, 140.160
1353.469, 163.766
1354.668, 101.607
1355.868, 66.541
1357.067, 60.154
1358.266, 107.928
1359.465, 116.801
1360.664, 191.929
1361.862, 19.055
1363.061, 188.177
1364.259, 88.478
1365.457, 147.638
1366.655, 198.418
1367.852, 114.531
1369.050, 93.129
1370.247, 166.995
1371.444, 210.545
1372.641, 214.367
1373.838, 237.168
1375.035, 190.614
1376.231, 212.310
1377.427, 195.033
1378.623, 147.861
1379.819, 171.859
1381.015, 124.212
1382.211, 113.442
1383.406, 160.259
1384.601, 209.138
1385.796, 183.784
1386.991, 245.688
1388.185, 211.770
1389.380, 126.637
1390.574, 196.230
1391.768, 100.856
1392.962, 221.214
1394.156, 256.947
1395.350, 237.846
1396.543, 263.541
1397.736, 163.381
1398.929, 196.172
1400.122, 148.803
1401.315, 224.108
1402.507, 221.947
1403.700, 225.761
1404.892, 369.446
1406.084, 209.521
1407.276, 146.296
1408.467, 278.863
1409.659, 91.855
1410.850, 198.691
1412.041, 275.335
1413.232, 100.758
1414.423, 280.459
1415.614, 261.132
1416.804, 219.849
1417.994, 253.333
1419.184, 361.581
1420.374, 160.508
1421.564, 342.841
1422.753, 251.324
1423.943, 297.335
1425.132, 127.303
1426.321, 194.417
1427.510, 245.498
1428.698, 154.117
1429.887, 310.180
1431.075, 266.302
1432.263, 284.793
1433.451, 274.959
1434.639, 304.708
1435.827, 356.284
1437.014, 330.658
1438.201, 379.173
1439.388, 563.530
1440.575, 464.740
1441.762, 520.953
1442.949, 636.495
1444.135, 511.436
1445.321, 636.838
1446.507, 786.290
1447.693, 687.854
1448.879, 744.475
1450.064, 583.099
1451.250, 543.710
1452.435, 611.318
1453.620, 802.943
1454.805, 674.571
1455.989, 707.192
1457.174, 863.817
1458.358, 627.457
1459.542, 746.098
1460.726, 748.757
1461.910, 792.419
1463.093, 718.080
1464.277, 491.738
1465.460, 530.407
1466.643, 589.089
1467.826, 454.804
1469.009, 640.553
1470.191, 343.316
1471.373, 316.105
1472.556, 502.916
1473.738, 511.747
1474.919, 342.610
1476.101, 312.509
1477.283, 347.483
1478.464, 338.586
1479.645, 231.805
1480.826, 361.097
1482.007, 382.432
1483.187, 537.820
1484.368, 364.268
1485.548, 367.776
1486.728, 420.338
1487.908, 367.954
1489.088, 368.630
1490.268, 423.368
1491.447, 325.178
1492.626, 236.067
1493.805, 112.040
1494.984, 134.687
1496.163, 236.277
1497.341, 112.561
1498.520, 188.965
1499.698, 19.503
1500.876, 199.189
1502.054, 195.023
1503.232, 106.005
1504.409, 100.149
1505.586, 13.531
1506.763, 70.983
1507.940, 73.712
1509.117, 6.317
1510.294, 214.918
1511.470, 108.447
1512.647, 69.867
1513.823, 188.797
1514.999, 180.282
1516.174, 57.607
1517.350, 2.216
1518.526, 292.134
1519.701, 137.842
1520.876, 25.167
