##NAMES=Topaz
##RRUFFID=R050200
##IDEAL CHEMISTRY=Al_2_SiO_4_F_2_
##LOCALITY=Jos Plateau, Nigeria
##OWNER=RRUFF
##SOURCE=Marcus Origlieri
##DESCRIPTION=Colorless water-worn single crystal
##STATUS=The identification of this mineral has been confirmed by X-ray diffraction and chemical analysis
##URL=rruff.info/R050200
##MEASURED CHEMISTRY=Al_2.000_Si_1.000_O_4.000_F_1.488_(OH)_0.512_
##PIN_ID=L00096
##ORIENTATION=Laser parallel to a* (1 0 0). Fiducial mark perpendicular to laser is parallel to b [0 1 0]
103.820, 0.000
105.212, 40.898
106.604, 91.604
107.995, 222.983
109.387, 149.252
110.777, 165.477
112.168, 69.590
113.559, 95.455
114.949, 212.313
116.339, 353.871
117.729, 289.157
119.119, 189.757
120.508, 152.689
121.897, 111.151
123.286, 61.914
124.675, 53.886
126.063, 26.729
127.452, 4.324
128.840, 8.791
130.228, 84.299
131.615, 43.000
133.003, 28.015
134.390, 31.440
135.777, 22.644
137.164, 2.601
138.550, 75.123
139.937, 82.418
141.323, 111.097
142.709, 173.536
144.094, 178.920
145.480, 266.654
146.865, 539.766
148.250, 1087.777
149.635, 1786.322
151.019, 2560.164
152.403, 3652.475
153.788, 4499.848
155.171, 4599.273
156.555, 4524.747
157.939, 3140.263
159.322, 1773.819
160.705, 1152.409
162.088, 749.032
163.470, 558.682
164.853, 419.355
166.235, 310.041
167.617, 186.738
168.998, 106.455
170.380, 123.199
171.761, 74.957
173.142, 14.748
174.523, 10.560
175.904, 2.411
177.284, 10.734
178.664, 34.877
180.044, 44.018
181.424, 22.157
182.803, 24.707
184.183, 60.428
185.562, 26.441
186.940, 93.334
188.319, 24.326
189.698, 60.459
191.076, 61.747
192.454, 79.127
193.831, 133.665
195.209, 159.287
196.586, 137.920
197.963, 132.549
199.340, 174.161
200.717, 209.763
202.093, 192.351
203.470, 219.889
204.846, 256.412
206.221, 260.922
207.597, 378.420
208.972, 372.906
210.347, 328.380
211.722, 198.847
213.097, 212.304
214.472, 180.751
215.846, 244.188
217.220, 241.617
218.594, 329.037
219.967, 330.445
221.341, 424.831
222.714, 562.178
224.087, 593.460
225.460, 840.647
226.832, 1191.776
228.204, 1514.864
229.577, 2375.939
230.948, 3928.037
232.320, 6922.305
233.692, 12555.933
235.063, 20043.451
236.434, 28498.730
237.805, 38353.992
239.175, 46030.129
240.545, 47930.152
241.916, 43286.621
243.286, 29550.016
244.655, 18151.438
246.025, 11399.979
247.394, 7506.137
248.763, 5023.165
250.132, 3440.196
251.501, 2564.229
252.869, 2162.262
254.237, 2066.300
255.605, 2075.338
256.973, 2362.378
258.340, 3199.420
259.708, 4943.464
261.075, 9154.509
262.442, 16062.556
263.808, 24562.609
265.175, 34905.664
266.541, 45958.727
267.907, 51894.832
269.273, 50282.488
270.639, 37609.109
272.004, 22266.500
273.369, 14171.396
274.734, 10114.482
276.099, 8179.058
277.463, 8094.995
278.828, 10746.726
280.192, 16268.187
281.556, 23361.678
282.919, 32562.127
284.283, 41654.457
285.646, 48685.801
287.009, 48379.891
288.372, 39897.695
289.734, 27933.375
291.097, 17879.793
292.459, 11510.824
293.821, 7858.875
295.183, 5180.475
296.544, 3636.812
297.905, 2570.982
299.266, 2015.153
300.627, 1671.287
301.988, 1379.642
303.348, 1202.985
304.709, 1037.259
306.069, 870.441
307.428, 848.651
308.788, 804.703
310.147, 710.860
311.507, 710.001
312.865, 699.135
314.224, 684.372
315.583, 707.511
316.941, 662.860
318.299, 632.077
319.657, 478.228
321.015, 502.382
322.372, 427.539
323.729, 471.699
325.086, 546.861
326.443, 746.027
327.800, 1001.194
329.156, 1326.365
330.512, 1733.537
331.868, 2085.712
333.224, 2248.587
334.579, 1940.540
335.935, 1487.263
337.290, 1039.251
338.645, 828.153
339.999, 605.752
341.354, 522.566
342.708, 391.900
344.062, 324.694
345.416, 254.893
346.769, 193.354
348.123, 177.086
349.476, 122.469
350.829, 123.381
352.182, 128.766
353.534, 117.516
354.887, 84.285
356.239, 95.158
357.591, 96.269
358.942, 50.483
360.294, 45.621
361.645, 22.736
362.996, 10.942
364.347, 76.146
365.698, 44.348
367.048, 82.548
368.398, 84.746
369.748, 43.944
371.098, 68.140
372.448, 108.334
373.797, 47.532
375.146, 7.272
376.495, 27.920
377.844, 52.109
379.192, 16.297
380.540, 74.483
381.889, 38.669
383.236, 42.853
384.584, 63.035
385.932, 17.783
387.279, 55.392
388.626, 74.567
389.973, 138.742
391.319, 215.917
392.666, 343.093
394.012, 584.269
395.358, 807.444
396.704, 1426.617
398.049, 2144.790
399.394, 3178.960
400.740, 4313.133
402.084, 5577.306
403.429, 6188.477
404.774, 5916.653
406.118, 5074.835
407.462, 3624.020
408.806, 2461.204
410.150, 1770.394
411.493, 1164.583
412.836, 930.793
414.179, 677.011
415.522, 464.229
416.865, 446.458
418.207, 301.694
419.549, 259.931
420.891, 162.167
422.233, 174.416
423.575, 135.678
424.916, 90.940
426.257, 69.214
427.598, 57.487
428.939, 69.759
430.279, 29.327
431.619, 28.333
432.959, 31.390
434.299, 25.126
435.639, 45.886
436.978, 55.676
438.318, 31.504
439.657, 14.352
440.996, 28.216
442.334, 79.094
443.673, 64.022
445.011, 31.989
446.349, 4.020
447.687, 50.022
449.024, 213.020
450.361, 432.014
451.699, 767.005
453.036, 1091.993
454.372, 1694.981
455.709, 2174.970
457.045, 2426.957
458.381, 2447.940
459.717, 1974.924
461.053, 1504.910
462.388, 985.903
463.724, 711.900
465.059, 479.895
466.394, 321.888
467.728, 135.879
469.063, 189.870
470.397, 102.866
471.731, 77.860
473.065, 81.854
474.398, 32.846
475.732, 73.836
477.065, 6.825
478.398, 38.817
479.731, 122.807
481.063, 118.796
482.396, 216.783
483.728, 358.768
485.060, 619.753
486.391, 1003.736
487.723, 1413.717
489.054, 1957.698
490.385, 2283.677
491.716, 2236.654
493.047, 1729.629
494.377, 1214.604
495.708, 819.578
497.038, 536.553
498.368, 346.530
499.697, 262.511
501.027, 152.498
502.356, 158.492
503.685, 52.501
505.014, 75.527
506.342, 119.564
507.671, 72.603
508.999, 104.662
510.327, 127.722
511.655, 131.850
512.982, 228.910
514.310, 323.328
515.637, 423.376
516.964, 657.361
518.291, 818.930
519.617, 1120.827
520.944, 1216.703
522.270, 1091.486
523.596, 971.210
524.921, 736.246
526.247, 573.149
527.572, 426.177
528.897, 374.295
530.222, 360.160
531.547, 314.126
532.871, 334.150
534.196, 312.028
535.520, 295.393
536.844, 310.187
538.167, 319.111
539.491, 347.882
540.814, 386.906
542.137, 439.801
543.460, 511.667
544.783, 575.685
546.105, 678.465
547.427, 792.389
548.749, 981.370
550.071, 1236.362
551.393, 1674.351
552.714, 2113.337
554.035, 2945.320
555.356, 3912.299
556.677, 5095.276
557.998, 6613.251
559.318, 7916.634
560.638, 8587.602
561.958, 8278.166
563.278, 7324.703
564.597, 5931.833
565.917, 4402.614
567.236, 3376.055
568.555, 2509.340
569.874, 1846.350
571.192, 1481.526
572.511, 1120.413
573.829, 884.346
575.147, 674.617
576.464, 592.107
577.782, 455.091
579.099, 449.012
580.416, 327.491
581.733, 337.698
583.050, 281.642
584.366, 224.922
585.683, 263.863
586.999, 205.707
588.315, 173.795
589.630, 186.200
590.946, 199.385
592.261, 192.279
593.576, 156.856
594.891, 103.788
596.206, 117.114
597.520, 141.661
598.834, 188.562
600.148, 173.715
601.462, 136.544
602.776, 199.733
604.089, 164.544
605.402, 195.125
606.715, 247.881
608.028, 227.689
609.341, 280.493
610.653, 266.293
611.965, 272.986
613.277, 317.985
614.589, 273.772
615.901, 234.555
617.212, 231.334
618.523, 209.898
619.834, 154.668
621.145, 124.457
622.456, 130.219
623.766, 118.975
625.076, 123.728
626.386, 122.476
627.696, 154.539
629.006, 74.278
630.315, 144.013
631.624, 145.743
632.933, 225.369
634.242, 286.090
635.551, 321.843
636.859, 417.484
638.167, 601.192
639.475, 898.895
640.783, 1136.592
642.090, 1479.286
643.398, 1750.975
644.705, 1842.754
646.012, 1880.434
647.318, 1637.109
648.625, 1414.779
649.931, 1049.444
651.237, 821.106
652.543, 626.762
653.849, 530.414
655.155, 466.061
656.460, 320.704
657.765, 288.342
659.070, 220.975
660.375, 175.604
661.679, 149.211
662.984, 94.847
664.288, 108.462
665.592, 99.071
666.895, 98.676
668.199, 31.275
669.502, 89.870
670.805, 6.459
672.108, 44.039
673.411, 19.385
674.713, 12.832
676.016, 81.703
677.318, 61.233
678.620, 44.759
679.921, 78.281
681.223, 36.800
682.524, 36.314
683.825, 54.824
685.126, 24.329
686.427, 91.828
687.727, 61.323
689.028, 5.186
690.328, 60.291
691.628, 42.763
692.927, 44.234
694.227, 38.701
695.526, 30.164
696.825, 31.615
698.124, 25.945
699.423, 36.527
700.721, 19.973
702.020, 36.413
703.318, 33.441
704.616, 75.293
705.913, 56.726
707.211, 99.155
708.508, 110.579
709.805, 91.998
711.102, 38.414
712.399, 53.825
713.695, 40.231
714.992, 2.634
716.288, 36.027
717.584, 0.584
718.879, 16.206
720.175, 9.846
721.470, 4.502
722.765, 15.170
724.060, 12.855
725.355, 16.442
726.649, 59.265
727.944, 23.012
729.238, 46.218
730.532, 29.555
731.825, 17.353
733.119, 13.830
734.412, 27.009
735.705, 33.816
736.998, 45.667
738.291, 16.449
739.584, 31.440
740.876, 13.647
742.168, 25.730
743.460, 45.191
744.752, 37.144
746.043, 2.123
747.334, 43.110
748.626, 0.118
749.916, 11.126
751.207, 17.867
752.498, 23.129
753.788, 41.866
755.078, 30.137
756.368, 23.845
757.658, 3.153
758.947, 8.858
760.237, 11.876
761.526, 25.892
762.815, 19.905
764.104, 42.915
765.392, 24.924
766.680, 37.930
767.969, 0.934
769.257, 91.933
770.544, 77.930
771.832, 53.924
773.119, 12.083
774.406, 77.899
775.693, 1.879
776.980, 34.856
778.267, 69.831
779.553, 18.803
780.839, 43.774
782.125, 22.257
783.411, 58.698
784.697, 17.652
785.982, 5.604
787.267, 52.554
788.552, 46.503
789.837, 22.549
791.122, 62.386
792.406, 9.322
793.690, 6.256
794.974, 64.189
796.258, 39.121
797.542, 54.052
798.825, 3.018
800.108, 22.909
801.391, 31.835
802.674, 44.761
803.957, 58.514
805.239, 47.616
806.522, 72.548
807.804, 52.478
809.085, 43.410
810.367, 61.342
811.649, 20.272
812.930, 76.203
814.211, 85.133
815.492, 59.063
816.772, 118.992
818.053, 76.929
819.333, 38.869
820.613, 64.812
821.893, 96.755
823.173, 90.629
824.452, 92.573
825.732, 118.254
827.011, 122.091
828.290, 153.108
829.568, 149.545
830.847, 157.495
832.125, 190.445
833.403, 214.394
834.681, 144.346
835.959, 207.265
837.236, 211.185
838.514, 291.140
839.791, 300.014
841.068, 316.970
842.345, 327.927
843.621, 489.891
844.898, 489.851
846.174, 536.812
847.450, 718.774
848.726, 712.727
850.001, 835.647
851.277, 856.576
852.552, 916.487
853.827, 1031.446
855.102, 1061.339
856.376, 1026.303
857.651, 1105.259
858.925, 1036.238
860.199, 882.219
861.473, 801.202
862.746, 787.187
864.020, 706.174
865.293, 661.402
866.566, 646.153
867.839, 585.146
869.112, 562.729
870.384, 582.726
871.656, 555.125
872.928, 558.994
874.200, 562.567
875.472, 557.566
876.744, 561.085
878.015, 560.760
879.286, 540.710
880.557, 592.494
881.828, 522.565
883.098, 569.590
884.369, 537.276
885.639, 613.742
886.909, 571.716
888.178, 610.750
889.448, 620.226
890.717, 652.857
891.987, 722.985
893.256, 772.659
894.524, 804.672
895.793, 900.740
897.061, 857.604
898.330, 918.996
899.598, 973.613
900.865, 1120.678
902.133, 1196.461
903.401, 1266.592
904.668, 1347.714
905.935, 1501.134
907.202, 1634.277
908.468, 1847.298
909.735, 2102.468
911.001, 2338.227
912.267, 2520.379
913.533, 2863.552
914.799, 3371.754
916.064, 3692.963
917.330, 4436.313
918.595, 4998.539
919.860, 5656.770
921.124, 6608.901
922.389, 7314.146
923.653, 8252.394
924.918, 9081.649
926.182, 10069.122
927.445, 11014.392
928.709, 12284.646
929.972, 14044.938
931.236, 16514.246
932.499, 20246.564
933.761, 25358.908
935.024, 30235.936
936.286, 34889.316
937.549, 37095.676
938.811, 33917.051
940.073, 29648.432
941.334, 23763.824
942.596, 18598.979
943.857, 14736.459
945.118, 11459.867
946.379, 8940.408
947.640, 7315.832
948.900, 6152.261
950.161, 5167.699
951.421, 4516.046
952.681, 3684.498
953.940, 3241.955
955.200, 2810.174
956.459, 2453.645
957.719, 2260.094
958.978, 2088.578
960.236, 1867.537
961.495, 1694.036
962.753, 1612.547
964.012, 1461.063
965.270, 1349.597
966.527, 1230.138
967.785, 1208.685
969.043, 1123.805
970.300, 1066.095
971.557, 944.383
972.814, 1005.960
974.071, 862.543
975.327, 753.134
976.583, 798.731
977.840, 728.336
979.095, 729.949
980.351, 722.657
981.607, 701.299
982.862, 701.948
984.117, 616.603
985.372, 698.265
986.627, 569.934
987.882, 604.611
989.136, 598.293
990.390, 517.983
991.644, 490.679
992.898, 448.382
994.152, 472.111
995.405, 456.832
996.659, 422.559
997.912, 495.293
999.165, 478.033
1000.417, 550.780
1001.670, 500.533
1002.922, 610.956
1004.174, 593.723
1005.426, 793.497
1006.678, 834.277
1007.930, 865.063
1009.181, 940.856
1010.432, 827.656
1011.683, 727.461
1012.934, 597.273
1014.185, 560.092
1015.435, 458.916
1016.685, 411.308
1017.935, 378.585
1019.185, 317.428
1020.435, 283.280
1021.684, 214.139
1022.934, 203.007
1024.183, 178.888
1025.432, 142.781
1026.680, 244.684
1027.929, 184.600
1029.177, 154.529
1030.425, 223.464
1031.673, 195.423
1032.921, 202.398
1034.169, 163.379
1035.416, 105.376
1036.663, 181.387
1037.911, 148.404
1039.157, 134.438
1040.404, 182.490
1041.650, 176.562
1042.897, 200.640
1044.143, 84.734
1045.389, 88.834
1046.634, 100.941
1047.880, 147.661
1049.125, 112.295
1050.371, 82.637
1051.615, 91.159
1052.860, 97.767
1054.105, 64.961
1055.349, 103.192
1056.593, 91.420
1057.837, 47.638
1059.081, 95.341
1060.325, 94.834
1061.568, 89.079
1062.812, 20.329
1064.055, 86.373
1065.298, 42.871
1066.540, 10.379
1067.783, 24.324
1069.025, 35.700
1070.267, 64.975
1071.509, 50.260
1072.751, 70.548
1073.993, 71.841
1075.234, 62.177
1076.475, 69.688
1077.716, 69.637
1078.957, 62.604
1080.198, 76.683
1081.438, 65.342
1082.679, 61.884
1083.919, 73.503
1085.159, 71.408
1086.398, 61.784
1087.638, 58.180
1088.877, 5.545
1090.116, 46.891
1091.355, 48.273
1092.594, 5.370
1093.833, 32.990
1095.071, 7.648
1096.309, 1.714
1097.547, 65.079
1098.785, 3.447
1100.023, 32.816
1101.260, 43.189
1102.498, 58.564
1103.735, 25.059
1104.972, 55.313
1106.208, 29.313
1107.445, 72.053
1108.681, 17.563
1109.918, 28.980
1111.154, 0.428
1112.389, 46.720
1113.625, 13.540
1114.860, 53.925
1116.096, 19.298
1117.331, 37.047
1118.566, 21.485
1119.800, 21.130
1121.035, 70.348
1122.269, 103.699
1123.503, 134.051
1124.737, 108.406
1125.971, 78.760
1127.205, 31.115
1128.438, 26.508
1129.671, 17.839
1130.904, 15.396
1132.137, 52.744
1133.370, 43.135
1134.602, 3.702
1135.834, 68.051
1137.066, 42.400
1138.298, 10.749
1139.530, 17.099
1140.762, 9.496
1141.993, 0.201
1143.224, 25.148
1144.455, 10.497
1145.686, 17.846
1146.917, 43.195
1148.147, 43.543
1149.377, 18.891
1150.607, 14.761
1151.837, 144.580
1153.067, 17.920
1154.296, 61.260
1155.526, 128.598
1156.755, 87.937
1157.984, 240.274
1159.213, 233.610
1160.441, 320.946
1161.670, 315.280
1162.898, 484.613
1164.126, 457.946
1165.354, 518.277
1166.581, 503.606
1167.809, 482.935
1169.036, 369.262
1170.263, 324.588
1171.490, 240.934
1172.717, 236.257
1173.943, 192.578
1175.170, 161.573
1176.396, 117.216
1177.622, 90.532
1178.848, 113.878
1180.073, 26.296
1181.299, 62.606
1182.524, 38.370
1183.749, 23.285
1184.974, 38.604
1186.199, 16.502
1187.423, 46.859
1188.648, 36.155
1189.872, 55.447
1191.096, 48.268
1192.320, 25.032
1193.543, 28.363
1194.767, 3.100
1195.990, 16.793
1197.213, 4.778
1198.436, 29.972
1199.659, 15.031
1200.881, 46.464
1202.104, 14.892
1203.326, 19.141
1204.548, 74.339
1205.770, 46.460
1206.991, 5.700
1208.213, 29.855
1209.434, 31.005
1210.655, 18.848
1211.876, 7.279
1213.096, 2.399
1214.317, 3.410
1215.537, 12.513
1216.757, 56.634
1217.977, 43.884
1219.197, 39.976
1220.417, 37.082
1221.636, 22.654
1222.855, 12.245
1224.074, 3.318
1225.293, 15.619
1226.512, 15.634
1227.731, 24.624
1228.949, 22.552
1230.167, 23.575
1231.385, 4.378
1232.603, 27.323
1233.820, 23.261
1235.038, 32.194
1236.255, 57.122
1237.472, 30.055
1238.689, 52.973
1239.906, 60.811
1241.122, 61.690
1242.338, 46.497
1243.555, 72.396
1244.771, 54.290
1245.986, 41.180
1247.202, 86.065
1248.417, 58.947
1249.633, 62.823
1250.848, 67.087
1252.063, 44.786
1253.277, 53.659
1254.492, 37.498
1255.706, 17.865
1256.920, 24.694
1258.134, 0.488
1259.348, 24.674
1260.562, 39.125
1261.775, 73.917
1262.988, 14.705
1264.201, 16.923
1265.414, 72.972
1266.627, 20.025
1267.839, 79.790
1269.052, 73.550
1270.264, 41.306
1271.476, 75.057
1272.688, 75.802
1273.899, 37.543
1275.111, 51.197
1276.322, 15.928
1277.533, 92.652
1278.744, 32.371
1279.955, 16.084
1281.165, 78.791
1282.376, 69.493
1283.586, 69.189
1284.796, 65.879
1286.006, 54.564
1287.215, 72.227
1288.425, 69.495
1289.634, 67.618
1290.843, 82.159
1292.052, 73.789
1293.261, 78.410
1294.469, 104.822
1295.678, 93.635
1296.886, 115.574
1298.094, 95.171
1299.302, 59.762
1300.509, 73.347
1301.717, 68.927
1302.924, 83.492
1304.131, 87.980
1305.338, 88.160
1306.545, 99.152
1307.752, 87.693
1308.958, 87.230
1310.164, 81.761
1311.370, 97.286
1312.576, 74.807
1313.782, 95.322
1314.987, 98.832
1316.193, 42.336
1317.398, 77.835
1318.603, 106.329
1319.807, 84.817
1321.012, 56.300
1322.216, 65.778
1323.421, 40.251
1324.625, 27.718
1325.829, 80.180
1327.032, 100.636
1328.236, 45.088
1329.439, 32.534
1330.642, 27.026
1331.845, 34.398
1333.048, 54.816
1334.251, 89.229
1335.453, 46.637
1336.656, 61.039
1337.858, 37.437
1339.060, 17.829
1340.261, 2.378
1341.463, 13.514
1342.664, 54.703
1343.866, 68.726
1345.067, 59.667
1346.267, 15.027
1347.468, 32.353
1348.669, 43.691
1349.869, 42.039
1351.069, 64.916
1352.269, 54.002
1353.469, 83.341
1354.668, 76.678
1355.868, 58.222
1357.067, 69.313
1358.266, 30.155
1359.465, 80.045
1360.664, 32.325
1361.862, 9.352
1363.061, 74.563
1364.259, 33.896
1365.457, 51.211
1366.655, 46.487
1367.852, 71.615
1369.050, 66.365
1370.247, 97.952
1371.444, 49.503
1372.641, 33.480
1373.838, 81.638
1375.035, 41.956
1376.231, 27.675
1377.427, 81.917
1378.623, 71.135
1379.819, 73.384
1381.015, 25.603
1382.211, 92.775
1383.406, 42.954
1384.601, 151.125
1385.796, 132.263
1386.991, 65.684
1388.185, 109.095
1389.380, 109.497
1390.574, 48.892
1391.768, 43.286
1392.962, 131.475
1394.156, 92.791
1395.350, 92.516
1396.543, 126.543
1397.736, 119.663
1398.929, 147.860
1400.122, 125.190
1401.315, 107.500
1402.507, 87.788
1403.700, 99.855
1404.892, 112.849
1406.084, 95.132
1407.276, 97.406
1408.467, 70.669
1409.659, 78.924
1410.850, 92.169
1412.041, 130.404
1413.232, 148.635
1414.423, 94.859
1415.614, 121.074
1416.804, 99.280
1417.994, 118.477
1419.184, 128.664
1420.374, 107.842
1421.564, 96.011
1422.753, 144.141
1423.943, 143.291
1425.132, 114.430
1426.321, 78.514
1427.510, 46.485
1428.698, 126.573
1429.887, 120.811
1431.075, 65.764
1432.263, 98.780
1433.451, 78.727
1434.639, 119.771
1435.827, 150.281
1437.014, 65.306
1438.201, 106.905
1439.388, 185.903
1440.575, 73.950
1441.762, 80.990
1442.949, 134.047
1444.135, 137.054
1445.321, 136.084
1446.507, 156.061
1447.693, 132.593
1448.879, 93.051
1450.064, 101.079
1451.250, 102.166
1452.435, 107.294
1453.620, 165.425
1454.805, 88.531
1455.989, 187.652
1457.174, 159.769
1458.358, 153.875
1459.542, 154.968
1460.726, 171.051
1461.910, 110.167
1463.093, 137.307
1464.277, 83.442
1465.460, 85.567
1466.643, 118.692
1467.826, 69.811
1469.009, 77.921
1470.191, 84.023
1471.373, 54.118
1472.556, 88.204
1473.738, 48.282
1474.919, 67.354
1476.101, 70.418
1477.283, 51.478
1478.464, 43.536
1479.645, 19.689
1480.826, 36.848
1482.007, 74.074
1483.187, 144.320
1484.368, 112.611
1485.548, 94.852
1486.728, 67.164
1487.908, 94.522
1489.088, 70.898
1490.268, 116.288
1491.447, 15.692
1492.626, 96.110
1493.805, 10.546
1494.984, 66.002
1496.163, 108.476
1497.341, 46.972
1498.520, 45.493
1499.698, 51.044
1500.876, 23.322
1502.054, 1.255
1503.232, 16.928
1504.409, 8.350
1505.586, 9.416
1506.763, 107.231
1507.940, 42.094
1509.117, 25.008
1510.294, 111.977
1511.470, 11.009
1512.647, 18.111
1513.823, 97.293
1514.999, 8.879
1516.174, 2.347
1517.350, 12.916
1518.526, 44.242
1519.701, 40.863
1520.876, 131.407
1522.051, 83.465
1523.226, 140.730
1524.400, 48.662
1525.574, 0.048
1526.749, 0.000
##END=



