##NAMES=Topaz
##RRUFFID=R050200
##IDEAL CHEMISTRY=Al_2_SiO_4_F_2_
##LOCALITY=Jos Plateau, Nigeria
##OWNER=RRUFF
##SOURCE=Marcus Origlieri
##DESCRIPTION=Colorless water-worn single crystal
##STATUS=The identification of this mineral has been confirmed by X-ray diffraction and chemical analysis
##URL=rruff.info/R050200
##MEASURED CHEMISTRY=Al_2.000_Si_1.000_O_4.000_F_1.488_(OH)_0.512_
##PIN_ID=L00096
##ORIENTATION=Laser parallel to a* (1 0 0). Fiducial mark perpendicular to laser is parallel to b [0 1 0]
95.465, 0.000
96.858, 1.137
98.251, 8.356
99.644, 69.062
101.036, 100.018
102.428, 56.577
103.820, 96.999
105.212, 111.848
106.604, 134.716
107.995, 250.038
109.387, 215.142
110.777, 206.876
112.168, 234.467
113.559, 175.485
114.949, 261.242
116.339, 345.105
117.729, 395.316
119.119, 294.531
120.508, 126.548
121.897, 87.991
123.286, 144.429
124.675, 97.032
126.063, 67.045
127.452, 51.297
128.840, 93.826
130.228, 21.183
131.615, 35.505
133.003, 34.882
134.390, 13.830
135.777, 46.557
137.164, 36.448
138.550, 113.409
139.937, 106.266
141.323, 139.546
142.709, 105.568
144.094, 137.573
145.480, 172.009
146.865, 345.646
148.250, 467.331
149.635, 816.035
151.019, 1060.612
152.403, 1383.075
153.788, 1795.546
155.171, 2035.440
156.555, 1944.947
157.939, 1382.983
159.322, 893.661
160.705, 675.665
162.088, 563.833
163.470, 551.041
164.853, 465.286
166.235, 442.570
167.617, 359.888
168.998, 233.229
170.380, 180.590
171.761, 106.972
173.142, 129.377
174.523, 90.806
175.904, 31.259
177.284, 91.737
178.664, 38.263
180.044, 31.112
181.424, 64.611
182.803, 64.426
184.183, 25.672
185.562, 8.312
186.940, 2.372
188.319, 36.503
189.698, 30.699
191.076, 79.954
192.454, 84.263
193.831, 110.622
195.209, 98.027
196.586, 138.469
197.963, 110.942
199.340, 182.440
200.717, 179.964
202.093, 182.509
203.470, 191.072
204.846, 240.655
206.221, 302.257
207.597, 325.879
208.972, 379.514
210.347, 177.155
211.722, 26.801
213.097, 98.548
214.472, 136.364
215.846, 105.230
217.220, 120.572
218.594, 71.926
219.967, 39.298
221.341, 61.728
222.714, 1.184
224.087, 9.690
225.460, 44.787
226.832, 138.264
228.204, 288.751
229.577, 478.251
230.948, 991.768
232.320, 1978.303
233.692, 3711.874
235.063, 5995.480
236.434, 8616.102
237.805, 11614.616
239.175, 14371.983
240.545, 15572.259
241.916, 14403.486
243.286, 10012.725
244.655, 6254.986
246.025, 3882.274
247.394, 2702.590
248.763, 1888.933
250.132, 1342.303
251.501, 1162.699
252.869, 1040.123
254.237, 1092.572
255.605, 1210.049
256.973, 1411.553
258.340, 2123.085
259.708, 3279.643
261.075, 6357.863
262.442, 11185.634
263.808, 17105.629
265.175, 23658.643
266.541, 30900.641
267.907, 36547.613
269.273, 36129.586
270.639, 27226.518
272.004, 16016.419
273.369, 10109.281
274.734, 7210.121
276.099, 6152.956
277.463, 6534.754
278.828, 9345.495
280.192, 14730.173
281.556, 21496.795
282.919, 30491.359
284.283, 39183.871
285.646, 47460.336
287.009, 48482.777
288.372, 40736.180
289.734, 29182.561
291.097, 18604.896
292.459, 12071.109
293.821, 8194.354
295.183, 5509.286
296.544, 3900.236
297.905, 2951.131
299.266, 2401.782
300.627, 2028.557
301.988, 1724.183
303.348, 1564.968
304.709, 1485.568
306.069, 1339.176
307.428, 1373.588
308.788, 1395.714
310.147, 1250.716
311.507, 1515.311
312.865, 1654.904
314.224, 1597.499
315.583, 1599.094
316.941, 1752.691
318.299, 1808.282
319.657, 1882.670
321.015, 2181.876
322.372, 2676.988
323.729, 3706.048
325.086, 5688.099
326.443, 9070.167
327.800, 13466.250
329.156, 19144.352
330.512, 24531.461
331.868, 30018.592
333.224, 31442.725
334.579, 26894.672
335.935, 18100.217
337.290, 11824.984
338.645, 7885.472
339.999, 5272.925
341.354, 3613.499
342.708, 2601.315
344.062, 1907.632
345.416, 1464.036
346.769, 1223.486
348.123, 976.438
349.476, 891.577
350.829, 753.472
352.182, 704.712
353.534, 633.973
354.887, 577.749
356.239, 564.685
357.591, 478.820
358.942, 492.930
360.294, 464.235
361.645, 415.452
362.996, 330.974
364.347, 400.514
365.698, 360.068
367.048, 387.650
368.398, 430.258
369.748, 420.848
371.098, 445.509
372.448, 439.145
373.797, 429.789
375.146, 408.690
376.495, 385.849
377.844, 375.693
379.192, 384.566
380.540, 380.549
381.889, 373.658
383.236, 452.881
384.584, 583.767
385.932, 552.503
387.279, 685.789
388.626, 901.166
389.973, 1111.961
391.319, 1403.767
392.666, 1876.582
394.012, 2537.408
395.358, 3723.244
396.704, 5518.089
398.049, 8165.944
399.394, 11622.817
400.740, 15161.698
402.084, 18694.598
403.429, 20694.520
404.774, 19878.463
406.118, 16519.412
407.462, 11520.376
408.806, 7791.359
410.150, 5309.365
411.493, 3652.382
412.836, 2538.432
414.179, 1853.503
415.522, 1325.584
416.865, 1040.688
418.207, 826.809
419.549, 676.939
420.891, 525.079
422.233, 382.555
423.575, 400.836
424.916, 225.203
426.257, 280.519
427.598, 258.004
428.939, 217.915
430.279, 278.648
431.619, 187.978
432.959, 252.283
434.299, 302.588
435.639, 343.772
436.978, 377.859
438.318, 486.124
439.657, 547.314
440.996, 660.944
442.334, 822.268
443.673, 1026.453
445.011, 1308.683
446.349, 1981.978
447.687, 2822.763
449.024, 4264.898
450.361, 6942.188
451.699, 10733.442
453.036, 15940.798
454.372, 21926.996
455.709, 28109.168
457.045, 31464.344
458.381, 31270.520
459.717, 25339.697
461.053, 18626.875
462.388, 13053.048
463.724, 9196.226
465.059, 6409.404
466.394, 4475.584
467.728, 3661.766
469.063, 2612.947
470.397, 1980.131
471.731, 1616.316
473.065, 1395.502
474.398, 1166.688
475.732, 1017.875
477.065, 831.063
478.398, 732.251
479.731, 627.440
481.063, 592.630
482.396, 542.872
483.728, 518.018
485.060, 519.215
486.391, 545.415
487.723, 567.617
489.054, 595.822
490.385, 658.030
491.716, 656.239
493.047, 523.450
494.377, 339.662
495.708, 286.877
497.038, 237.098
498.368, 159.320
499.697, 139.547
501.027, 97.783
502.356, 93.022
503.685, 29.360
505.014, 77.803
506.342, 7.327
507.671, 89.389
508.999, 71.696
510.327, 111.220
511.655, 131.004
512.982, 102.395
514.310, 69.541
515.637, 97.852
516.964, 84.279
518.291, 42.002
519.617, 116.714
520.944, 189.480
522.270, 163.621
523.596, 129.179
524.921, 92.792
526.247, 102.971
527.572, 11.830
528.897, 69.856
530.222, 0.427
531.547, 7.705
532.871, 82.980
534.196, 56.251
535.520, 4.892
536.844, 70.594
538.167, 16.367
539.491, 45.099
540.814, 105.764
542.137, 82.439
543.460, 51.220
544.783, 143.748
546.105, 123.193
547.427, 204.641
548.749, 280.084
550.071, 248.522
551.393, 379.955
552.714, 510.382
554.035, 757.803
555.356, 920.219
556.677, 1177.628
557.998, 1449.629
559.318, 1897.026
560.638, 2028.288
561.958, 1904.361
563.278, 1564.076
564.597, 1260.446
565.917, 920.810
567.236, 665.913
568.555, 427.153
569.874, 285.522
571.192, 252.040
572.511, 192.931
573.829, 120.248
575.147, 51.538
576.464, 100.334
577.782, 65.624
579.099, 59.905
580.416, 0.824
581.733, 13.163
583.050, 6.499
584.366, 26.693
585.683, 5.033
586.999, 1.387
588.315, 61.605
589.630, 20.508
590.946, 38.391
592.261, 25.671
593.576, 67.053
594.891, 111.523
596.206, 18.605
597.520, 90.938
598.834, 9.817
600.148, 27.679
601.462, 94.530
602.776, 49.431
604.089, 1.740
605.402, 7.066
606.715, 14.604
608.028, 1.006
609.341, 0.300
610.653, 23.417
611.965, 55.120
613.277, 77.907
614.589, 131.494
615.901, 141.166
617.212, 140.825
618.523, 162.474
619.834, 131.113
621.145, 201.740
622.456, 185.356
623.766, 180.962
625.076, 229.557
626.386, 140.140
627.696, 250.713
629.006, 222.275
630.315, 333.826
631.624, 279.366
632.933, 334.895
634.242, 533.413
635.551, 578.920
636.859, 717.417
638.167, 853.902
639.475, 1174.376
640.783, 1405.840
642.090, 1683.292
643.398, 1919.733
644.705, 2012.164
646.012, 1787.583
647.318, 1443.992
648.625, 1217.390
649.931, 837.777
651.237, 582.152
652.543, 389.518
653.849, 230.872
655.155, 271.216
656.460, 141.548
657.765, 66.870
659.070, 82.181
660.375, 26.481
661.679, 21.965
662.984, 19.044
664.288, 6.304
665.592, 43.546
666.895, 19.776
668.199, 21.008
669.502, 28.175
670.805, 58.653
672.108, 13.536
673.411, 31.447
674.713, 4.397
676.016, 4.373
677.318, 5.372
678.620, 43.396
679.921, 2.464
681.223, 3.556
682.524, 44.671
683.825, 39.832
685.126, 59.967
686.427, 39.780
687.727, 52.601
689.028, 48.663
690.328, 44.046
691.628, 8.208
692.927, 7.505
694.227, 9.787
695.526, 8.933
696.825, 7.642
698.124, 9.196
699.423, 6.820
700.721, 13.429
702.020, 55.025
703.318, 110.612
704.616, 93.189
705.913, 128.665
707.211, 133.313
708.508, 121.859
709.805, 94.396
711.102, 27.924
712.399, 60.442
713.695, 17.050
714.992, 56.433
716.288, 22.093
717.584, 3.646
718.879, 46.216
720.175, 17.175
721.470, 53.557
722.765, 22.070
724.060, 40.722
725.355, 7.590
726.649, 78.107
727.944, 36.859
729.238, 23.357
730.532, 44.435
731.825, 21.262
733.119, 138.889
734.412, 50.031
735.705, 32.167
736.998, 4.034
738.291, 39.053
739.584, 26.175
740.876, 42.680
742.168, 25.116
743.460, 11.259
744.752, 9.189
746.043, 70.033
747.334, 71.894
748.626, 27.253
749.916, 52.291
751.207, 25.749
752.498, 21.395
753.788, 4.526
755.078, 17.003
756.368, 33.779
757.658, 3.310
758.947, 15.550
760.237, 85.342
761.526, 15.360
762.815, 86.580
764.104, 89.362
765.392, 41.180
766.680, 40.890
767.969, 10.757
769.257, 216.646
770.544, 24.533
771.832, 154.418
773.119, 67.304
774.406, 105.188
775.693, 167.073
776.980, 110.957
778.267, 108.841
779.553, 191.724
780.839, 140.608
782.125, 167.493
783.411, 261.377
784.697, 223.263
785.982, 183.149
787.267, 206.036
788.552, 259.924
789.837, 244.813
791.122, 319.703
792.406, 289.597
793.690, 335.491
794.974, 350.398
796.258, 323.307
797.542, 386.217
798.825, 355.133
800.108, 408.053
801.391, 432.975
802.674, 488.898
803.957, 447.835
805.239, 492.775
806.522, 624.721
807.804, 588.670
809.085, 641.629
810.367, 710.598
811.649, 611.573
812.930, 734.552
814.211, 649.540
815.492, 761.440
816.772, 735.262
818.053, 816.821
819.333, 1016.232
820.613, 1014.230
821.893, 1107.027
823.173, 1231.580
824.452, 1305.535
825.732, 1445.146
827.011, 1589.800
828.290, 1739.743
829.568, 1948.399
830.847, 2152.072
832.125, 2473.697
833.403, 2787.954
834.681, 3041.798
835.959, 3520.593
837.236, 4071.837
838.514, 4866.412
839.791, 5827.537
841.068, 7123.685
842.345, 8519.843
843.621, 10634.009
844.898, 12835.184
846.174, 15266.008
847.450, 18362.826
848.726, 20714.637
850.001, 22998.525
851.277, 25365.539
852.552, 27325.555
853.827, 29343.496
855.102, 30277.723
856.376, 30378.047
857.651, 29194.383
858.925, 26496.729
860.199, 22719.080
861.473, 19006.449
862.746, 16296.831
864.020, 13674.224
865.293, 11121.623
866.566, 9651.039
867.839, 8159.869
869.112, 7133.309
870.384, 6373.890
871.656, 5598.666
872.928, 5076.805
874.200, 4766.296
875.472, 4382.801
876.744, 4113.570
878.015, 3745.211
879.286, 3432.728
880.557, 3371.103
881.828, 3103.112
883.098, 3014.715
884.369, 2882.353
885.639, 2778.492
886.909, 2726.143
888.178, 2656.810
889.448, 2650.573
890.717, 2769.790
891.987, 2729.089
893.256, 2769.247
894.524, 2941.511
895.793, 2974.932
897.061, 3196.152
898.330, 3302.047
899.598, 3520.974
900.865, 3780.951
902.133, 4113.731
903.401, 4317.250
904.668, 4741.373
905.935, 5257.872
907.202, 5658.049
908.468, 6339.248
909.735, 7230.470
911.001, 8179.654
912.267, 9032.935
913.533, 10436.245
914.799, 12120.250
916.064, 14135.628
917.330, 16772.041
918.595, 19225.482
919.860, 22240.945
921.124, 25840.426
922.389, 28739.930
923.653, 31803.455
924.918, 33875.000
926.182, 35136.566
927.445, 34644.164
928.709, 33610.754
929.972, 31395.381
931.236, 28599.033
932.499, 26244.697
933.761, 23811.383
935.024, 21214.084
936.286, 19171.809
937.549, 17313.549
938.811, 14512.311
940.073, 12665.091
941.334, 10470.890
942.596, 8960.707
943.857, 7913.688
945.118, 6761.547
946.379, 5925.675
947.640, 5223.573
948.900, 4742.490
950.161, 4197.179
951.421, 3838.135
952.681, 3417.110
953.940, 3145.105
955.200, 2796.167
956.459, 2446.201
957.719, 2297.750
958.978, 2072.715
960.236, 2014.350
961.495, 1823.047
962.753, 1708.403
964.012, 1619.683
965.270, 1546.752
966.527, 1452.937
967.785, 1303.141
969.043, 1181.365
970.300, 1187.608
971.557, 1058.875
972.814, 1041.158
974.071, 936.462
975.327, 871.796
976.583, 749.148
977.840, 852.539
979.095, 818.958
980.351, 633.408
981.607, 751.883
982.862, 651.383
984.117, 576.909
985.372, 723.469
986.627, 518.054
987.882, 610.844
989.136, 565.283
990.390, 527.959
991.644, 545.652
992.898, 484.363
994.152, 415.092
995.405, 422.837
996.659, 472.868
997.912, 581.244
999.165, 557.007
1000.417, 588.837
1001.670, 582.688
1002.922, 879.563
1004.174, 895.457
1005.426, 1116.250
1006.678, 1186.298
1007.930, 1332.243
1009.181, 1297.035
1010.432, 1294.179
1011.683, 1107.171
1012.934, 972.179
1014.185, 765.202
1015.435, 640.240
1016.685, 515.294
1017.935, 441.363
1019.185, 392.455
1020.435, 323.562
1021.684, 296.692
1022.934, 265.842
1024.183, 241.021
1025.432, 281.215
1026.680, 265.424
1027.929, 237.655
1029.177, 185.915
1030.425, 178.189
1031.673, 208.104
1032.921, 137.709
1034.169, 163.713
1035.416, 105.094
1036.663, 121.496
1037.911, 98.913
1039.157, 135.345
1040.404, 86.008
1041.650, 55.503
1042.897, 154.989
1044.143, 125.144
1045.389, 89.700
1046.634, 135.256
1047.880, 94.753
1049.125, 103.646
1050.371, 69.698
1051.615, 115.207
1052.860, 45.872
1054.105, 82.635
1055.349, 131.216
1056.593, 135.207
1057.837, 148.067
1059.081, 148.100
1060.325, 138.015
1061.568, 128.726
1062.812, 112.220
1064.055, 105.000
1065.298, 145.216
1066.540, 93.883
1067.783, 152.437
1069.025, 75.878
1070.267, 143.724
1071.509, 72.796
1072.751, 49.645
1073.993, 56.504
1075.234, 1.717
1076.475, 70.520
1077.716, 112.388
1078.957, 24.234
1080.198, 53.563
1081.438, 85.471
1082.679, 17.300
1083.919, 38.134
1085.159, 67.974
1086.398, 47.838
1087.638, 39.699
1088.877, 65.551
1090.116, 29.427
1091.355, 24.045
1092.594, 9.413
1093.833, 24.909
1095.071, 64.130
1096.309, 19.721
1097.547, 71.576
1098.785, 29.567
1100.023, 28.530
1101.260, 65.663
1102.498, 41.642
1103.735, 56.498
1104.972, 19.778
1106.208, 26.377
1107.445, 28.528
1108.681, 37.631
1109.918, 44.800
1111.154, 10.763
1112.389, 6.711
1113.625, 28.896
1114.860, 27.911
1116.096, 43.718
1117.331, 34.604
1118.566, 47.418
1119.800, 87.228
1121.035, 69.037
1122.269, 125.877
1123.503, 140.781
1124.737, 177.495
1125.971, 155.303
1127.205, 103.110
1128.438, 16.917
1129.671, 38.722
1130.904, 8.526
1132.137, 28.399
1133.370, 47.200
1134.602, 22.998
1135.834, 43.205
1137.066, 18.431
1138.298, 54.333
1139.530, 5.094
1140.762, 88.881
1141.993, 14.636
1143.224, 17.387
1144.455, 23.864
1145.686, 76.133
1146.917, 65.404
1148.147, 81.245
1149.377, 98.889
1150.607, 59.530
1151.837, 22.166
1153.067, 29.203
1154.296, 1.448
1155.526, 69.049
1156.755, 40.646
1157.984, 69.367
1159.213, 62.037
1160.441, 61.617
1161.670, 152.191
1162.898, 204.761
1164.126, 160.341
1165.354, 240.898
1166.581, 171.449
1167.809, 272.994
1169.036, 177.532
1170.263, 266.076
1171.490, 123.637
1172.717, 162.155
1173.943, 215.698
1175.170, 81.270
1176.396, 68.833
1177.622, 93.321
1178.848, 3.802
1180.073, 22.184
1181.299, 4.253
1182.524, 45.867
1183.749, 46.281
1184.974, 51.828
1186.199, 61.898
1187.423, 18.286
1188.648, 31.803
1189.872, 59.183
1191.096, 86.994
1192.320, 3.446
1193.543, 46.718
1194.767, 41.952
1195.990, 31.666
1197.213, 49.487
1198.436, 8.358
1199.659, 10.141
1200.881, 42.749
1202.104, 10.754
1203.326, 3.762
1204.548, 27.746
1205.770, 19.263
1206.991, 2.202
1208.213, 21.418
1209.434, 1.530
1210.655, 37.454
1211.876, 27.360
1213.096, 2.823
1214.317, 18.947
1215.537, 22.698
1216.757, 54.432
1217.977, 9.194
1219.197, 58.894
1220.417, 58.580
1221.636, 34.254
1222.855, 76.905
1224.074, 63.553
1225.293, 17.189
1226.512, 32.804
1227.731, 60.402
1228.949, 97.987
1230.167, 85.467
1231.385, 123.121
1232.603, 78.670
1233.820, 81.207
1235.038, 106.730
1236.255, 81.242
1237.472, 102.740
1238.689, 25.226
1239.906, 115.550
1241.122, 67.003
1242.338, 94.193
1243.555, 124.619
1244.771, 105.031
1245.986, 51.676
1247.202, 50.060
1248.417, 64.429
1249.633, 112.786
1250.848, 41.081
1252.063, 208.409
1253.277, 75.014
1254.492, 92.316
1255.706, 109.384
1256.920, 53.075
1258.134, 52.111
1259.348, 148.229
1260.562, 99.563
1261.775, 141.787
1262.988, 72.998
1264.201, 91.195
1265.414, 115.379
1266.627, 102.550
1267.839, 86.707
1269.052, 125.851
1270.264, 128.982
1271.476, 135.100
1272.688, 151.205
1273.899, 113.294
1275.111, 147.372
1276.322, 122.435
1277.533, 81.484
1278.744, 153.520
1279.955, 120.541
1281.165, 210.548
1282.376, 132.359
1283.586, 117.541
1284.796, 135.502
1286.006, 91.448
1287.215, 137.376
1288.425, 110.288
1289.634, 183.183
1290.843, 167.789
1292.052, 85.057
1293.261, 147.944
1294.469, 127.773
1295.678, 151.573
1296.886, 104.359
1298.094, 152.126
1299.302, 80.996
1300.509, 220.616
1301.717, 158.343
1302.924, 62.058
1304.131, 71.761
1305.338, 185.451
1306.545, 161.129
1307.752, 123.795
1308.958, 88.450
1310.164, 108.092
1311.370, 107.722
1312.576, 144.340
1313.782, 157.946
1314.987, 90.541
1316.193, 85.123
1317.398, 113.693
1318.603, 86.251
1319.807, 77.797
1321.012, 78.332
1322.216, 107.853
1323.421, 143.363
1324.625, 31.257
1325.829, 115.476
1327.032, 54.297
1328.236, 118.756
1329.439, 60.204
1330.642, 23.639
1331.845, 133.059
1333.048, 60.251
1334.251, 88.614
1335.453, 33.000
1336.656, 4.724
1337.858, 99.061
1339.060, 68.406
1340.261, 64.815
1341.463, 93.830
1342.664, 89.688
1343.866, 45.089
1345.067, 23.342
1346.267, 25.488
1347.468, 146.863
1348.669, 84.811
1349.869, 79.724
1351.069, 35.339
1352.269, 1.178
1353.469, 113.053
1354.668, 20.502
1355.868, 107.666
1357.067, 50.397
1358.266, 69.740
1359.465, 125.134
1360.664, 196.858
1361.862, 42.032
1363.061, 165.967
1364.259, 104.116
1365.457, 75.213
1366.655, 104.957
1367.852, 133.568
1369.050, 71.662
1370.247, 72.828
1371.444, 93.465
1372.641, 78.524
1373.838, 86.653
1375.035, 59.773
1376.231, 59.082
1377.427, 129.140
1378.623, 103.193
1379.819, 95.248
1381.015, 232.269
1382.211, 120.349
1383.406, 49.447
1384.601, 118.551
1385.796, 172.142
1386.991, 106.381
1388.185, 118.353
1389.380, 61.140
1390.574, 93.871
1391.768, 148.968
1392.962, 147.120
1394.156, 107.787
1395.350, 56.919
1396.543, 126.946
1397.736, 104.028
1398.929, 154.059
1400.122, 134.098
1401.315, 194.114
1402.507, 190.104
1403.700, 119.991
1404.892, 147.932
1406.084, 135.860
1407.276, 89.786
1408.467, 72.653
1409.659, 148.530
1410.850, 178.375
1412.041, 255.312
1413.232, 166.227
1414.423, 150.079
1415.614, 175.975
1416.804, 159.578
1417.994, 132.428
1419.184, 102.234
1420.374, 175.042
1421.564, 149.827
1422.753, 109.525
1423.943, 187.221
1425.132, 106.752
1426.321, 198.446
1427.510, 143.365
1428.698, 179.780
1429.887, 74.262
1431.075, 132.683
1432.263, 39.576
1433.451, 93.515
1434.639, 84.961
1435.827, 98.695
1437.014, 153.805
1438.201, 145.725
1439.388, 156.528
1440.575, 132.733
1441.762, 128.224
1442.949, 229.097
1444.135, 206.026
1445.321, 212.889
1446.507, 181.829
1447.693, 129.765
1448.879, 160.687
1450.064, 167.619
1451.250, 70.547
1452.435, 150.464
1453.620, 196.370
1454.805, 171.269
1455.989, 108.166
1457.174, 196.066
1458.358, 157.959
1459.542, 208.851
1460.726, 242.735
1461.910, 147.615
1463.093, 198.484
1464.277, 100.342
1465.460, 152.189
1466.643, 124.031
1467.826, 84.863
1469.009, 144.691
1470.191, 135.511
1471.373, 31.324
1472.556, 87.133
1473.738, 126.940
1474.919, 46.743
1476.101, 136.545
1477.283, 67.352
1478.464, 86.183
1479.645, 45.055
1480.826, 77.979
1482.007, 68.941
1483.187, 151.981
1484.368, 83.106
1485.548, 82.277
1486.728, 127.458
1487.908, 77.647
1489.088, 47.847
1490.268, 47.236
1491.447, 63.280
1492.626, 22.519
1493.805, 59.773
1494.984, 79.048
1496.163, 48.344
1497.341, 37.668
1498.520, 38.547
1499.698, 4.417
1500.876, 35.851
1502.054, 4.665
1503.232, 3.874
1504.409, 7.470
1505.586, 11.120
1506.763, 39.817
1507.940, 31.561
1509.117, 6.641
1510.294, 31.216
1511.470, 13.412
1512.647, 54.145
1513.823, 34.605
1514.999, 50.292
1516.174, 94.689
1517.350, 0.890
1518.526, 71.334
1519.701, 90.893
1520.876, 57.598
1522.051, 92.962
1523.226, 6.611
1524.400, 19.894
1525.574, 0.095
1526.749, 0.000
##END=



