##NAMES=Topaz
##RRUFFID=R050176
##IDEAL CHEMISTRY=Al_2_SiO_4_F_2_
##LOCALITY=Jos Plateau, Nigeria
##OWNER=RRUFF
##SOURCE=Marcus Origlieri
##DESCRIPTION=Colorless prismatic crystal
##STATUS=The identification of this mineral has been confirmed by X-ray diffraction and chemical analysis
##URL=rruff.info/R050176
##MEASURED CHEMISTRY=Al_2.000_Si_1.000_O_4.000_(F_1.438_(OH)_0.562_)
##PIN_ID=L00474
##ORIENTATION=Laser parallel to -b* (0 -1 0). Fiducial mark perpendicular to laser is parallel to c [0 0 1]
89.890, 0.000
91.284, 57.700
92.678, 31.476
94.071, 2.760
95.465, 42.468
96.858, 61.087
98.251, 45.841
99.644, 103.127
101.036, 126.514
102.428, 52.862
103.820, 109.082
105.212, 254.097
106.604, 298.622
107.995, 820.375
109.387, 2632.356
110.777, 8347.370
112.168, 12458.893
113.559, 4927.960
114.949, 1405.332
116.339, 869.184
117.729, 501.702
119.119, 283.551
120.508, 216.184
121.897, 171.351
123.286, 159.905
124.675, 170.921
126.063, 85.461
127.452, 100.217
128.840, 80.497
130.228, 106.602
131.615, 71.956
133.003, 81.550
134.390, 76.711
135.777, 73.618
137.164, 74.560
138.550, 73.886
139.937, 119.276
141.323, 91.045
142.709, 78.227
144.094, 123.516
145.480, 137.215
146.865, 195.534
148.250, 180.624
149.635, 387.240
151.019, 554.116
152.403, 792.641
153.788, 1673.458
155.171, 2507.307
156.555, 2503.155
157.939, 1292.021
159.322, 629.900
160.705, 272.789
162.088, 156.683
163.470, 81.582
164.853, 20.485
166.235, 35.392
167.617, 38.302
168.998, 45.216
170.380, 59.134
171.761, 52.056
173.142, 88.987
174.523, 65.951
175.904, 4.045
177.284, 16.002
178.664, 0.089
180.044, 27.229
181.424, 17.598
182.803, 25.612
184.183, 29.849
185.562, 0.883
186.940, 0.435
188.319, 25.156
189.698, 2.691
191.076, 38.112
192.454, 22.546
193.831, 11.219
195.209, 5.900
196.586, 34.407
197.963, 44.709
199.340, 30.010
200.717, 16.278
202.093, 21.425
203.470, 47.887
204.846, 36.212
206.221, 4.550
207.597, 50.099
208.972, 36.735
210.347, 20.643
211.722, 0.038
213.097, 26.553
214.472, 63.131
215.846, 72.692
217.220, 106.207
218.594, 123.694
219.967, 72.157
221.341, 147.596
222.714, 156.990
224.087, 200.337
225.460, 277.669
226.832, 285.943
228.204, 494.182
229.577, 641.386
230.948, 1021.530
232.320, 1537.664
233.692, 2771.770
235.063, 5289.867
236.434, 8591.963
237.805, 14391.058
239.175, 23796.150
240.545, 32798.250
241.916, 25852.338
243.286, 14854.431
244.655, 8239.523
246.025, 4677.614
247.394, 3010.706
248.763, 2034.798
250.132, 1754.892
251.501, 2216.984
252.869, 1675.078
254.237, 1347.172
255.605, 1320.090
256.973, 1504.179
258.340, 1635.359
259.708, 2194.661
261.075, 3310.933
262.442, 6149.225
263.808, 11524.540
265.175, 18153.848
266.541, 34823.547
267.907, 56788.844
269.273, 54495.117
270.639, 32425.506
272.004, 15768.798
273.369, 8138.347
274.734, 4545.562
276.099, 3144.755
277.463, 2445.926
278.828, 2395.340
280.192, 2938.770
281.556, 3845.867
282.919, 5694.239
284.283, 8599.208
285.646, 12932.810
287.009, 14216.168
288.372, 10659.387
289.734, 7154.786
291.097, 4389.862
292.459, 2966.922
293.821, 2152.401
295.183, 1673.519
296.544, 1530.734
297.905, 1367.479
299.266, 1339.689
300.627, 1210.009
301.988, 1213.625
303.348, 1104.824
304.709, 1030.341
306.069, 1017.895
307.428, 897.369
308.788, 975.877
310.147, 834.268
311.507, 842.689
312.865, 930.899
314.224, 897.105
315.583, 860.283
316.941, 833.449
318.299, 897.617
319.657, 930.785
321.015, 967.952
322.372, 1023.118
323.729, 1049.283
325.086, 1118.448
326.443, 1270.611
327.800, 1577.774
329.156, 2176.558
330.512, 3060.513
331.868, 4439.497
333.224, 4471.525
334.579, 3532.612
335.935, 2314.670
337.290, 1530.824
338.645, 1130.942
339.999, 883.837
341.354, 725.998
342.708, 658.185
344.062, 632.100
345.416, 644.205
346.769, 569.107
348.123, 533.045
349.476, 546.231
350.829, 591.508
352.182, 546.186
353.534, 524.278
354.887, 578.148
356.239, 455.010
357.591, 513.719
358.942, 476.287
360.294, 521.383
361.645, 419.830
362.996, 362.727
364.347, 407.958
365.698, 281.777
367.048, 379.018
368.398, 352.989
369.748, 343.944
371.098, 366.921
372.448, 324.836
373.797, 424.774
375.146, 348.004
376.495, 310.834
377.844, 333.850
379.192, 249.903
380.540, 317.957
381.889, 236.025
383.236, 318.081
384.584, 271.146
385.932, 243.231
387.279, 267.312
388.626, 285.402
389.973, 301.493
391.319, 271.584
392.666, 368.672
394.012, 375.762
395.358, 395.852
396.704, 567.939
398.049, 718.027
399.394, 962.139
400.740, 1282.256
402.084, 1809.373
403.429, 2154.489
404.774, 1818.613
406.118, 1437.734
407.462, 927.860
408.806, 527.986
410.150, 466.119
411.493, 270.250
412.836, 269.376
414.179, 128.500
415.522, 175.631
416.865, 164.759
418.207, 81.880
419.549, 125.993
420.891, 64.098
422.233, 125.201
423.575, 95.296
424.916, 76.382
426.257, 98.460
427.598, 11.472
428.939, 112.586
430.279, 85.634
431.619, 53.676
432.959, 70.710
434.299, 20.735
435.639, 110.749
436.978, 91.753
438.318, 87.748
439.657, 26.735
440.996, 21.711
442.334, 78.818
443.673, 41.212
445.011, 35.281
446.349, 2.617
447.687, 10.500
449.024, 24.637
450.361, 59.803
451.699, 39.015
453.036, 39.263
454.372, 1.453
455.709, 21.155
457.045, 11.846
458.381, 82.526
459.717, 6.199
461.053, 0.859
462.388, 79.506
463.724, 2.145
465.059, 84.771
466.394, 21.609
467.728, 69.985
469.063, 39.573
470.397, 60.153
471.731, 39.735
473.065, 81.302
474.398, 131.863
475.732, 74.419
477.065, 101.969
478.398, 134.027
479.731, 129.567
481.063, 181.101
482.396, 135.630
483.728, 238.154
485.060, 204.672
486.391, 281.185
487.723, 298.692
489.054, 427.193
490.385, 498.691
491.716, 439.183
493.047, 322.688
494.377, 325.170
495.708, 217.646
497.038, 240.118
498.368, 201.583
499.697, 196.043
501.027, 313.502
502.356, 252.251
503.685, 349.319
505.014, 380.811
506.342, 470.270
507.671, 618.747
508.999, 708.196
510.327, 903.690
511.655, 1116.356
512.982, 1668.881
514.310, 2402.329
515.637, 3654.785
516.964, 5549.234
518.291, 7658.843
519.617, 10344.285
520.944, 10305.735
522.270, 8185.193
523.596, 5639.819
524.921, 3513.274
526.247, 2342.724
527.572, 1485.184
528.897, 1302.651
530.222, 1013.118
531.547, 521.578
532.871, 512.032
534.196, 348.490
535.520, 318.033
536.844, 217.494
538.167, 231.326
539.491, 224.762
540.814, 201.467
542.137, 219.891
543.460, 227.349
544.783, 206.084
546.105, 254.487
547.427, 299.795
548.749, 324.981
550.071, 398.116
551.393, 438.489
552.714, 511.026
554.035, 673.823
555.356, 992.173
556.677, 1395.122
557.998, 1926.983
559.318, 2467.902
560.638, 2586.771
561.958, 2773.468
563.278, 2266.188
564.597, 1737.529
565.917, 1404.658
567.236, 1040.245
568.555, 867.100
569.874, 648.359
571.192, 519.611
572.511, 433.853
573.829, 408.533
575.147, 379.758
576.464, 314.974
577.782, 298.182
579.099, 289.380
580.416, 237.966
581.733, 197.147
583.050, 247.319
584.366, 223.473
585.683, 168.627
586.999, 118.742
588.315, 197.879
589.630, 245.518
590.946, 171.867
592.261, 175.938
593.576, 147.723
594.891, 183.816
596.206, 107.900
597.520, 165.975
598.834, 155.773
600.148, 62.566
601.462, 117.607
602.776, 163.334
604.089, 116.421
605.402, 137.835
606.715, 109.455
608.028, 132.177
609.341, 103.721
610.653, 152.522
611.965, 122.299
613.277, 143.622
614.589, 181.277
615.901, 155.808
617.212, 115.764
618.523, 94.185
619.834, 122.440
621.145, 166.375
622.456, 144.682
623.766, 139.603
625.076, 100.425
626.386, 145.300
627.696, 104.042
629.006, 55.866
630.315, 100.598
631.624, 138.489
632.933, 79.366
634.242, 83.228
635.551, 14.091
636.859, 101.944
638.167, 144.792
639.475, 136.870
640.783, 203.705
642.090, 73.533
643.398, 228.356
644.705, 138.173
646.012, 179.984
647.318, 230.789
648.625, 165.588
649.931, 43.381
651.237, 92.168
652.543, 98.950
653.849, 95.726
655.155, 69.496
656.460, 109.260
657.765, 75.019
659.070, 16.772
660.375, 7.516
661.679, 32.250
662.984, 88.978
664.288, 33.700
665.592, 86.416
666.895, 27.127
668.199, 16.832
669.502, 23.530
670.805, 75.221
672.108, 38.907
673.411, 65.588
674.713, 17.263
676.016, 47.931
677.318, 56.594
678.620, 96.252
679.921, 5.094
681.223, 45.542
682.524, 73.175
683.825, 37.802
685.126, 100.424
686.427, 75.042
687.727, 54.653
689.028, 79.261
690.328, 39.864
691.628, 21.539
692.927, 19.036
694.227, 5.605
695.526, 49.165
696.825, 57.279
698.124, 21.235
699.423, 6.255
700.721, 74.760
702.020, 17.686
703.318, 36.874
704.616, 3.462
705.913, 3.063
707.211, 31.324
708.508, 10.293
709.805, 1.075
711.102, 25.435
712.399, 2.210
713.695, 96.865
714.992, 18.578
716.288, 2.311
717.584, 0.052
718.879, 32.802
720.175, 6.424
721.470, 24.355
722.765, 0.154
724.060, 36.959
725.355, 65.209
726.649, 42.375
727.944, 39.538
729.238, 36.303
730.532, 11.833
731.825, 33.966
733.119, 46.096
734.412, 16.225
735.705, 22.650
736.998, 27.460
738.291, 21.569
739.584, 2.675
740.876, 4.778
742.168, 39.120
743.460, 36.965
744.752, 8.951
746.043, 5.875
747.334, 80.197
748.626, 42.268
749.916, 57.338
751.207, 82.408
752.498, 38.477
753.788, 50.547
755.078, 54.384
756.368, 20.530
757.658, 14.574
758.947, 8.631
760.237, 17.702
761.526, 7.774
762.815, 66.854
764.104, 1.057
765.392, 47.052
766.680, 35.174
767.969, 22.311
769.257, 59.452
770.544, 84.595
771.832, 72.739
773.119, 119.885
774.406, 36.035
775.693, 37.188
776.980, 80.343
778.267, 142.502
779.553, 3.662
780.839, 62.833
782.125, 37.005
783.411, 52.189
784.697, 65.368
785.982, 0.557
787.267, 78.748
788.552, 52.939
789.837, 72.135
791.122, 43.819
792.406, 71.019
793.690, 10.779
794.974, 26.422
796.258, 98.626
797.542, 78.833
798.825, 106.042
800.108, 179.254
801.391, 38.468
802.674, 79.687
803.957, 6.907
805.239, 102.113
806.522, 81.340
807.804, 3.570
809.085, 84.804
810.367, 95.041
811.649, 80.280
812.930, 87.524
814.211, 15.501
815.492, 80.162
816.772, 158.404
818.053, 100.686
819.333, 81.949
820.613, 107.240
821.893, 100.488
823.173, 74.567
824.452, 108.796
825.732, 132.105
827.011, 160.433
828.290, 157.765
829.568, 77.940
830.847, 121.288
832.125, 222.643
833.403, 123.001
834.681, 140.195
835.959, 218.564
837.236, 171.947
838.514, 216.335
839.791, 275.730
841.068, 320.130
842.345, 273.536
843.621, 319.950
844.898, 410.370
846.174, 393.708
847.450, 566.129
848.726, 671.180
850.001, 540.625
851.277, 772.803
852.552, 817.262
853.827, 949.687
855.102, 1034.834
856.376, 967.315
857.651, 955.891
858.925, 862.589
860.199, 908.338
861.473, 777.851
862.746, 550.201
864.020, 659.292
865.293, 661.829
866.566, 552.770
867.839, 587.798
869.112, 564.771
870.384, 594.794
871.656, 605.992
872.928, 597.167
874.200, 538.723
875.472, 617.493
876.744, 701.805
878.015, 618.852
879.286, 743.495
880.557, 764.149
881.828, 670.812
883.098, 770.042
884.369, 905.727
885.639, 885.424
886.909, 1016.131
888.178, 939.850
889.448, 1084.119
890.717, 1150.860
891.987, 1183.613
893.256, 1305.373
894.524, 1383.148
895.793, 1505.573
897.061, 1740.372
898.330, 1686.690
899.598, 2020.190
900.865, 2172.043
902.133, 2231.914
903.401, 2697.799
904.668, 2752.791
905.935, 3071.865
907.202, 3558.810
908.468, 3833.725
909.735, 4553.698
911.001, 4860.684
912.267, 5624.685
913.533, 6673.700
914.799, 7548.735
916.064, 8937.781
917.330, 10255.804
918.595, 12003.886
919.860, 14181.979
921.124, 15553.087
922.389, 17400.203
923.653, 18878.336
924.918, 19101.480
926.182, 19947.639
927.445, 18471.807
928.709, 17626.992
929.972, 16378.189
931.236, 14321.401
932.499, 13756.628
933.761, 12542.866
935.024, 11806.392
936.286, 11576.653
937.549, 10213.930
938.811, 9396.211
940.073, 8214.513
941.334, 6964.086
942.596, 6140.415
943.857, 5070.761
945.118, 4612.117
946.379, 4161.252
947.640, 3443.636
948.900, 3207.036
950.161, 2724.449
951.421, 2550.876
952.681, 2216.316
953.940, 1996.771
955.200, 1872.238
956.459, 1719.719
957.719, 1527.214
958.978, 1530.725
960.236, 1346.250
961.495, 1285.788
962.753, 1164.341
964.012, 1161.907
965.270, 1125.173
966.527, 1067.768
967.785, 993.829
969.043, 1085.455
970.300, 991.096
971.557, 989.928
972.814, 986.596
974.071, 1042.278
975.327, 1064.976
976.583, 1116.687
977.840, 1234.432
979.095, 1455.170
980.351, 1709.921
981.607, 2173.146
982.862, 2316.925
984.117, 2705.717
985.372, 2573.523
986.627, 2394.347
987.882, 2095.853
989.136, 1596.704
990.390, 1375.568
991.644, 1078.486
992.898, 817.377
994.152, 783.646
995.405, 554.564
996.659, 608.498
997.912, 488.454
999.165, 426.424
1000.417, 483.409
1001.670, 411.407
1002.922, 462.437
1004.174, 325.479
1005.426, 282.541
1006.678, 356.643
1007.930, 222.758
1009.181, 252.899
1010.432, 292.058
1011.683, 220.232
1012.934, 296.421
1014.185, 314.627
1015.435, 161.850
1016.685, 212.089
1017.935, 219.346
1019.185, 156.643
1020.435, 226.960
1021.684, 152.294
1022.934, 272.642
1024.183, 162.015
1025.432, 188.400
1026.680, 214.807
1027.929, 175.229
1029.177, 149.674
1030.425, 207.133
1031.673, 59.604
1032.921, 228.087
1034.169, 94.593
1035.416, 103.112
1036.663, 165.643
1037.911, 43.187
1039.157, 79.742
1040.404, 145.319
1041.650, 131.908
1042.897, 135.509
1044.143, 42.121
1045.389, 51.744
1046.634, 152.389
1047.880, 30.200
1049.125, 98.875
1050.371, 58.565
1051.615, 46.640
1052.860, 97.355
1054.105, 6.045
1055.349, 10.304
1056.593, 74.450
1057.837, 38.544
1059.081, 89.338
1060.325, 65.145
1061.568, 76.717
1062.812, 147.549
1064.055, 22.163
1065.298, 140.021
1066.540, 100.881
1067.783, 101.289
1069.025, 103.172
1070.267, 100.069
1071.509, 21.979
1072.751, 157.902
1073.993, 5.837
1075.234, 133.785
1076.475, 70.746
1077.716, 70.873
1078.957, 137.859
1080.198, 25.858
1081.438, 118.849
1082.679, 104.843
1083.919, 62.152
1085.159, 216.855
1086.398, 45.875
1087.638, 73.889
1088.877, 157.905
1090.116, 12.067
1091.355, 90.971
1092.594, 129.011
1093.833, 33.062
1095.071, 209.122
1096.309, 47.194
1097.547, 81.716
1098.785, 177.812
1100.023, 13.919
1101.260, 155.093
1102.498, 78.223
1103.735, 34.365
1104.972, 170.518
1106.208, 30.683
1107.445, 50.266
1108.681, 136.453
1109.918, 68.651
1111.154, 125.966
1112.389, 49.187
1113.625, 81.582
1114.860, 113.646
1116.096, 38.116
1117.331, 99.127
1118.566, 116.381
1119.800, 6.354
1121.035, 116.922
1122.269, 51.172
1123.503, 55.420
1124.737, 198.638
1125.971, 66.148
1127.205, 161.058
1128.438, 85.264
1129.671, 35.539
1130.904, 154.659
1132.137, 48.850
1133.370, 86.048
1134.602, 161.253
1135.834, 38.534
1137.066, 186.676
1138.298, 98.893
1139.530, 0.117
1140.762, 217.446
1141.993, 9.316
1143.224, 174.928
1144.455, 141.847
1145.686, 79.105
1146.917, 176.363
1148.147, 161.626
1149.377, 95.896
1150.607, 266.171
1151.837, 151.445
1153.067, 299.722
1154.296, 426.087
1155.526, 306.373
1156.755, 588.662
1157.984, 652.954
1159.213, 686.249
1160.441, 1007.550
1161.670, 1033.855
1162.898, 1144.168
1164.126, 1275.602
1165.354, 1092.928
1166.581, 1188.262
1167.809, 879.599
1169.036, 626.943
1170.263, 738.275
1171.490, 411.613
1172.717, 424.957
1173.943, 414.307
1175.170, 178.627
1176.396, 334.953
1177.622, 261.283
1178.848, 122.617
1180.073, 269.905
1181.299, 84.191
1182.524, 172.475
1183.749, 136.904
1184.974, 39.183
1186.199, 167.457
1187.423, 80.273
1188.648, 78.548
1189.872, 156.807
1191.096, 22.954
1192.320, 39.029
1193.543, 64.049
1194.767, 66.208
1195.990, 62.534
1197.213, 96.278
1198.436, 19.235
1199.659, 183.484
1200.881, 90.786
1202.104, 62.950
1203.326, 69.683
1204.548, 2.422
1205.770, 234.166
1206.991, 33.922
1208.213, 4.309
1209.434, 193.472
1210.655, 20.737
1211.876, 64.067
1213.096, 193.253
1214.317, 16.944
1215.537, 175.570
1216.757, 111.394
1217.977, 39.230
1219.197, 223.076
1220.417, 52.931
1221.636, 131.797
1222.855, 227.673
1224.074, 13.559
1225.293, 127.452
1226.512, 58.355
1227.731, 63.456
1228.949, 149.414
1230.167, 23.035
1231.385, 97.900
1232.603, 202.775
1233.820, 55.488
1235.038, 239.296
1236.255, 173.131
1237.472, 79.976
1238.689, 264.415
1239.906, 172.191
1241.122, 138.494
1242.338, 149.337
1243.555, 4.185
1244.771, 245.042
1245.986, 143.908
1247.202, 16.777
1248.417, 158.648
1249.633, 72.530
1250.848, 86.421
1252.063, 234.314
1253.277, 10.209
1254.492, 230.113
1255.706, 260.027
1256.920, 21.952
1258.134, 306.887
1259.348, 126.834
1260.562, 88.793
1261.775, 265.766
1262.988, 71.751
1264.201, 132.744
1265.414, 224.752
1266.627, 88.785
1267.839, 226.343
1269.052, 133.388
1270.264, 18.819
1271.476, 251.437
1272.688, 110.323
1273.899, 131.216
1275.111, 214.717
1276.322, 41.170
1277.533, 224.999
1278.744, 80.364
1279.955, 120.699
1281.165, 288.998
1282.376, 106.866
1283.586, 74.134
1284.796, 216.471
1286.006, 12.774
1287.215, 170.167
1288.425, 135.551
1289.634, 2.036
1290.843, 275.361
1292.052, 166.362
1293.261, 93.468
1294.469, 233.695
1295.678, 60.869
1296.886, 243.570
1298.094, 124.207
1299.302, 8.873
1300.509, 309.964
1301.717, 110.706
1302.924, 110.341
1304.131, 214.220
1305.338, 65.470
1306.545, 361.803
1307.752, 470.305
1308.958, 9.050
1310.164, 270.598
1311.370, 153.278
1312.576, 62.417
1313.782, 251.083
1314.987, 65.648
1316.193, 79.187
1317.398, 299.738
1318.603, 45.424
1319.807, 168.833
1321.012, 189.130
1322.216, 70.449
1323.421, 234.722
1324.625, 49.307
1325.829, 81.240
1327.032, 265.009
1328.236, 10.542
1329.439, 183.001
1330.642, 169.428
1331.845, 2.845
1333.048, 305.862
1334.251, 53.972
1335.453, 52.126
1336.656, 236.269
1337.858, 0.000
##END=



