##NAMES=Topaz
##RRUFFID=R040121
##IDEAL CHEMISTRY=Al_2_SiO_4_F_2_
##LOCALITY=Tepetate, San Luis Potosi, Mexico
##OWNER=RRUFF
##SOURCE=University of Arizona Mineral Museum
##DESCRIPTION=Fragments of a prismatic single crystal
##STATUS=The identification of this mineral has been confirmed by X-ray diffraction and chemical analysis
##URL=rruff.info/R040121
##MEASURED CHEMISTRY=Al_2.00_(Si_0.99_Al_0.02_)(F_0.82_(OH)_0.18_)_2_
##PIN_ID=L00213
##ORIENTATION=Laser parallel to -b* (0 -1 0). Fiducial mark perpendicular to laser is parallel to -c [0 0 -1]
97.554, 0.000
98.947, 12.111
100.340, 18.866
101.732, 45.313
103.124, 0.757
104.516, 29.146
105.908, 185.915
107.300, 206.179
108.691, 203.885
110.082, 134.878
111.473, 91.076
112.864, 138.671
114.254, 452.996
115.644, 951.959
117.034, 749.853
118.424, 1447.628
119.813, 556.972
121.203, 261.212
122.592, 207.415
123.981, 141.694
125.369, 79.906
126.758, 3.937
128.146, 7.178
129.534, 82.258
130.922, 65.312
132.309, 28.145
133.696, 58.750
135.083, 50.337
136.470, 7.958
137.857, 66.521
139.243, 130.102
140.630, 96.791
142.016, 14.396
143.401, 45.036
144.787, 169.718
146.172, 422.438
147.557, 815.397
148.942, 1544.042
150.327, 2797.773
151.711, 4534.532
153.096, 5351.319
154.480, 4181.130
155.863, 2267.962
157.247, 1057.814
158.630, 519.682
160.013, 305.565
161.396, 223.461
162.779, 109.369
164.161, 32.323
165.544, 6.363
166.926, 6.535
168.308, 11.431
169.689, 29.283
171.070, 41.917
172.452, 21.116
173.833, 28.308
175.213, 39.494
176.594, 0.673
177.974, 13.154
179.354, 76.014
180.734, 12.176
182.114, 5.668
183.493, 123.502
184.872, 29.730
186.251, 107.959
187.630, 58.285
189.008, 29.701
190.387, 66.178
191.765, 98.647
193.143, 42.107
194.520, 18.561
195.898, 14.004
197.275, 7.559
198.652, 91.871
200.029, 11.708
201.405, 147.708
202.782, 60.115
204.158, 189.534
205.534, 245.946
206.909, 172.350
208.285, 228.749
209.660, 240.140
211.035, 157.526
212.410, 188.906
213.784, 196.282
215.159, 342.649
216.533, 322.991
217.907, 414.317
219.281, 319.641
220.654, 378.956
222.027, 493.262
223.400, 541.562
224.773, 618.859
226.146, 728.153
227.518, 980.443
228.891, 1401.478
230.263, 2321.005
231.634, 4263.418
233.006, 8164.485
234.377, 15127.719
235.748, 27566.904
237.119, 42904.082
238.490, 52196.594
239.860, 41699.027
241.231, 24179.633
242.601, 12265.547
243.970, 6679.200
245.340, 4013.323
246.709, 2623.446
248.079, 2029.568
249.448, 1574.688
250.816, 1383.807
252.185, 1266.926
253.553, 1285.042
254.921, 1456.158
256.289, 1693.273
257.657, 2445.388
259.024, 3929.500
260.391, 7161.613
261.758, 12829.726
263.125, 23736.816
264.492, 40024.969
265.858, 52332.156
267.224, 46662.371
268.590, 27586.469
269.956, 13867.146
271.321, 7297.624
272.687, 4578.940
274.052, 3551.222
275.416, 3621.404
276.781, 4460.402
278.146, 6660.822
279.510, 11206.167
280.874, 19090.275
282.237, 32228.568
283.601, 45452.867
284.964, 49474.160
286.327, 37993.445
287.690, 21388.744
289.053, 11178.036
290.416, 6278.327
291.778, 3738.499
293.140, 2508.792
294.502, 1627.085
295.863, 1323.378
297.225, 1011.666
298.586, 788.906
299.947, 616.149
301.308, 488.396
302.668, 460.630
304.029, 485.868
305.389, 382.102
306.749, 355.339
308.108, 305.848
309.468, 280.149
310.827, 316.333
312.186, 250.573
313.545, 238.806
314.903, 198.041
316.262, 151.276
317.620, 225.515
318.978, 138.754
320.336, 233.994
321.693, 213.236
323.051, 162.479
324.408, 205.724
325.765, 334.969
327.121, 547.216
328.478, 978.463
329.834, 1480.710
331.190, 1721.576
332.546, 1388.186
333.902, 947.713
335.257, 434.959
336.612, 321.207
337.967, 227.453
339.322, 147.699
340.677, 103.046
342.031, 61.470
343.385, 51.715
344.739, 36.179
346.093, 71.919
347.446, 40.164
348.799, 62.406
350.153, 73.649
351.505, 71.890
352.858, 66.130
354.210, 49.693
355.563, 58.604
356.915, 5.839
358.267, 3.071
359.618, 7.702
360.969, 56.151
362.321, 27.371
363.672, 9.995
365.022, 61.211
366.373, 68.575
367.723, 51.617
369.073, 17.807
370.423, 135.995
371.773, 80.182
373.122, 123.367
374.471, 136.550
375.821, 5.732
377.169, 16.937
378.518, 8.141
379.866, 17.343
381.215, 18.542
382.563, 39.259
383.910, 3.075
385.258, 44.105
386.605, 79.283
387.952, 0.458
389.299, 51.631
390.646, 35.803
391.992, 162.969
393.339, 219.128
394.685, 415.286
396.031, 890.419
397.376, 1578.553
398.722, 2905.690
400.067, 5000.826
401.412, 7145.962
402.757, 7555.101
404.101, 5562.226
405.446, 3092.345
406.790, 1794.472
408.134, 1070.611
409.478, 787.750
410.821, 556.896
412.165, 413.041
413.508, 374.195
414.851, 353.350
416.193, 199.502
417.536, 122.664
418.878, 214.836
420.220, 142.010
421.562, 100.194
422.904, 101.379
424.245, 166.576
425.586, 73.771
426.927, 107.983
428.268, 83.199
429.609, 21.586
430.949, 30.390
432.289, 7.785
433.629, 22.956
434.969, 33.124
436.309, 53.709
437.648, 66.579
438.987, 41.480
440.326, 8.411
441.665, 52.354
443.003, 56.691
444.342, 67.734
445.680, 42.805
447.018, 140.874
448.355, 63.969
449.693, 371.062
451.030, 640.152
452.367, 1349.242
453.704, 1934.331
455.041, 2750.428
456.377, 2517.523
457.713, 1625.618
459.049, 838.718
460.385, 477.816
461.721, 143.913
463.056, 118.007
464.391, 44.100
465.726, 109.189
467.061, 119.276
468.395, 11.638
469.730, 40.435
471.064, 43.506
472.398, 92.574
473.731, 88.682
475.065, 45.703
476.398, 87.763
477.731, 118.821
479.064, 136.875
480.397, 238.927
481.729, 203.983
483.062, 202.037
484.394, 376.088
485.725, 557.135
487.057, 940.180
488.389, 1427.221
489.720, 1967.260
491.051, 2128.296
492.382, 1611.330
493.712, 1004.365
495.043, 510.405
496.373, 281.441
497.703, 208.474
499.032, 120.504
500.362, 139.531
501.691, 104.554
503.020, 68.578
504.349, 106.598
505.678, 155.615
507.007, 77.630
508.335, 75.642
509.663, 74.650
510.991, 131.654
512.319, 74.656
513.646, 240.654
514.973, 280.648
516.300, 447.639
517.627, 685.378
518.954, 855.013
520.280, 958.982
521.607, 767.960
522.933, 594.934
524.259, 480.780
525.584, 315.750
526.910, 354.919
528.235, 281.883
529.560, 312.801
530.885, 263.758
532.209, 222.711
533.534, 219.661
534.858, 270.608
536.182, 276.530
537.506, 288.420
538.829, 313.241
540.152, 317.124
541.476, 297.085
542.799, 270.050
544.121, 459.282
545.444, 532.198
546.766, 491.110
548.088, 708.552
549.410, 658.457
550.732, 972.358
552.053, 1203.406
553.375, 1570.300
554.696, 2207.812
556.017, 3261.697
557.337, 4867.768
558.658, 6534.646
559.978, 8083.586
561.298, 8520.184
562.618, 7522.092
563.938, 5627.023
565.257, 3901.466
566.576, 2612.190
567.895, 1937.041
569.214, 1430.700
570.533, 1077.542
571.851, 828.707
573.170, 723.541
574.488, 492.369
575.805, 536.321
577.123, 412.062
578.440, 363.930
579.758, 452.804
581.075, 340.634
582.391, 313.519
583.708, 272.312
585.024, 213.899
586.341, 212.015
587.657, 274.821
588.972, 256.722
590.288, 240.307
591.603, 258.104
592.918, 233.773
594.233, 226.391
595.548, 238.217
596.863, 167.629
598.177, 237.232
599.491, 166.906
600.805, 254.217
602.119, 156.935
603.432, 235.767
604.746, 282.476
606.059, 220.825
607.372, 256.522
608.685, 293.352
609.997, 336.243
611.309, 413.924
612.621, 447.907
613.933, 549.107
615.245, 472.771
616.557, 421.133
617.868, 329.785
619.179, 347.690
620.490, 414.331
621.801, 503.964
623.111, 355.591
624.421, 482.317
625.731, 422.934
627.041, 522.482
628.351, 347.191
629.660, 358.789
630.970, 422.381
632.279, 408.968
633.588, 425.547
634.896, 454.121
636.205, 658.689
637.513, 703.252
638.821, 1005.258
640.129, 1360.809
641.437, 1669.354
642.744, 1998.893
644.051, 2189.427
645.358, 2035.955
646.665, 1780.477
647.972, 1349.992
649.278, 1114.503
650.584, 901.177
651.890, 792.675
653.196, 706.169
654.502, 589.656
655.807, 584.138
657.113, 478.613
658.418, 458.846
659.722, 462.549
661.027, 422.009
662.331, 380.461
663.636, 373.909
664.940, 213.353
666.244, 398.791
667.547, 206.223
668.851, 280.648
670.154, 227.070
671.457, 159.484
672.760, 206.896
674.062, 154.302
675.365, 141.702
676.667, 211.100
677.969, 219.498
679.271, 127.890
680.572, 119.277
681.874, 155.661
683.175, 241.039
684.476, 214.433
685.777, 203.820
687.077, 94.205
688.378, 209.585
689.678, 130.959
690.978, 123.328
692.278, 83.306
693.577, 308.002
694.877, 29.308
696.176, 213.607
697.475, 23.904
698.774, 122.196
700.072, 72.496
701.371, 66.797
702.669, 166.093
703.967, 61.385
705.265, 222.676
706.562, 60.962
707.860, 14.246
709.157, 167.524
710.454, 2.798
711.751, 175.061
713.047, 6.679
714.344, 113.565
715.640, 20.808
716.936, 15.954
718.232, 25.263
719.527, 18.478
720.823, 30.312
722.118, 35.128
723.413, 63.027
724.708, 18.820
726.002, 115.312
727.297, 27.560
728.591, 80.546
729.885, 39.647
731.179, 25.254
732.472, 38.176
733.766, 15.871
735.059, 41.084
736.352, 20.932
737.645, 42.056
738.937, 68.927
740.230, 54.093
741.522, 15.148
742.814, 16.781
744.106, 33.707
745.397, 1.641
746.689, 32.389
747.980, 48.517
749.271, 6.452
750.562, 69.386
751.853, 34.666
753.143, 65.279
754.433, 40.238
755.723, 83.800
757.013, 93.130
758.303, 111.941
759.592, 57.924
760.881, 105.211
762.170, 36.596
763.459, 40.401
764.748, 4.793
766.036, 124.006
767.325, 38.196
768.613, 9.420
769.901, 18.351
771.188, 29.881
772.476, 96.873
773.763, 5.374
775.050, 39.374
776.337, 31.122
777.624, 53.870
778.910, 2.383
780.196, 58.363
781.482, 5.891
782.768, 3.142
784.054, 53.605
785.339, 108.353
786.625, 26.102
787.910, 111.849
789.195, 60.598
790.479, 4.347
791.764, 94.096
793.048, 33.153
794.332, 155.583
795.616, 134.320
796.900, 73.060
798.183, 27.799
799.467, 97.540
800.750, 130.282
802.033, 18.024
803.316, 152.769
804.598, 8.485
805.880, 109.277
807.163, 175.043
808.445, 103.810
809.726, 133.578
811.008, 199.349
812.289, 60.121
813.570, 292.895
814.851, 145.691
816.132, 570.450
817.413, 64.231
818.693, 93.015
819.973, 224.803
821.253, 78.594
822.533, 227.386
823.813, 76.180
825.092, 213.979
826.371, 205.778
827.650, 195.579
828.929, 253.392
830.208, 273.207
831.486, 248.024
832.764, 227.845
834.042, 192.675
835.320, 223.009
836.598, 367.344
837.875, 319.217
839.152, 322.092
840.429, 432.971
841.706, 315.853
842.983, 298.741
844.259, 582.640
845.536, 574.549
846.812, 570.249
848.088, 517.186
849.363, 705.067
850.639, 886.037
851.914, 874.936
853.189, 1069.934
854.464, 1160.937
855.739, 1354.972
857.013, 1191.021
858.288, 1088.076
859.562, 1126.135
860.836, 1074.196
862.110, 778.113
863.383, 988.185
864.656, 807.639
865.930, 662.720
867.203, 702.615
868.475, 704.705
869.748, 529.736
871.020, 634.120
872.292, 645.194
873.564, 587.248
874.836, 599.793
876.108, 595.717
877.379, 653.197
878.650, 602.529
879.922, 637.689
881.192, 617.528
882.463, 671.700
883.733, 756.879
885.004, 600.935
886.274, 555.203
887.544, 712.368
888.813, 712.528
890.083, 727.731
891.352, 926.884
892.621, 879.129
893.890, 922.582
895.159, 828.512
896.427, 911.764
897.695, 1026.057
898.964, 1036.113
900.232, 1123.424
901.499, 1085.770
902.767, 1305.065
904.034, 1284.429
905.301, 1387.418
906.568, 1550.797
907.835, 1656.183
909.102, 1666.182
910.368, 1766.582
911.634, 2027.883
912.900, 2187.310
914.166, 2566.096
915.432, 2902.597
916.697, 3294.707
917.962, 3766.104
919.227, 4260.571
920.492, 4807.738
921.757, 5439.689
923.021, 6385.180
924.285, 7015.976
925.550, 7685.482
926.813, 8242.743
928.077, 8709.267
929.341, 9419.803
930.604, 10322.349
931.867, 11751.804
933.130, 14693.376
934.393, 19088.748
935.655, 23868.230
936.918, 28930.826
938.180, 29399.432
939.442, 25904.049
940.703, 21166.666
941.965, 16099.293
943.226, 11927.932
944.488, 9219.581
945.749, 7485.781
947.009, 6052.452
948.270, 4923.132
949.530, 4010.820
950.791, 3492.516
952.051, 2918.221
953.311, 2463.931
954.570, 2390.809
955.830, 2123.535
957.089, 2021.193
958.348, 1797.937
959.607, 1632.862
960.866, 1460.622
962.124, 1359.389
963.383, 1369.329
964.641, 1320.112
965.899, 1295.909
967.156, 1284.712
968.414, 1164.805
969.671, 1304.624
970.928, 1080.926
972.185, 1212.758
973.442, 1143.597
974.699, 1247.443
975.955, 1231.297
977.211, 1203.157
978.468, 1549.024
979.723, 1653.595
980.979, 1821.476
982.234, 2423.363
983.490, 2519.257
984.745, 3063.587
986.000, 3136.621
987.254, 2676.538
988.509, 2503.136
989.763, 2096.061
991.017, 1715.224
992.271, 1347.474
993.525, 1096.693
994.779, 1186.678
996.032, 989.770
997.285, 950.756
998.538, 747.609
999.791, 934.698
1001.044, 817.023
1002.296, 891.247
1003.548, 758.550
1004.800, 686.755
1006.052, 548.307
1007.304, 561.605
1008.555, 544.954
1009.807, 495.130
1011.058, 470.189
1012.309, 535.234
1013.559, 430.396
1014.810, 373.621
1016.060, 457.763
1017.310, 442.834
1018.560, 467.994
1019.810, 456.592
1021.060, 508.086
1022.309, 485.424
1023.558, 461.858
1024.807, 484.145
1026.056, 406.734
1027.305, 320.860
1028.553, 426.016
1029.801, 356.585
1031.049, 206.725
1032.297, 250.929
1033.545, 246.433
1034.793, 312.753
1036.040, 339.942
1037.287, 327.352
1038.534, 314.597
1039.781, 320.972
1041.027, 362.143
1042.274, 283.652
1043.520, 302.165
1044.766, 221.035
1046.012, 206.427
1047.257, 310.379
1048.503, 373.607
1049.748, 172.078
1050.993, 409.940
1052.238, 333.567
1053.483, 162.144
1054.727, 255.435
1055.971, 413.575
1057.216, 244.872
1058.459, 255.622
1059.703, 222.938
1060.947, 327.331
1062.190, 237.757
1063.433, 390.206
1064.676, 287.749
1065.919, 342.123
1067.162, 467.828
1068.404, 249.227
1069.646, 307.618
1070.888, 405.992
1072.130, 254.455
1073.372, 363.825
1074.613, 284.588
1075.855, 251.285
1077.096, 107.855
1078.337, 404.223
1079.578, 258.809
1080.818, 402.407
1082.059, 250.762
1083.299, 347.111
1084.539, 117.940
1085.779, 301.418
1087.018, 171.754
1088.258, 302.161
1089.497, 223.552
1090.736, 129.869
1091.975, 173.319
1093.213, 174.625
1094.452, 184.926
1095.690, 72.047
1096.928, 131.670
1098.166, 48.075
1099.404, 151.354
1100.642, 73.626
1101.879, 99.891
1103.116, 4.147
1104.353, 105.396
1105.590, 75.292
1106.827, 232.146
1108.063, 5.522
1109.299, 147.956
1110.536, 148.390
1111.771, 11.987
1113.007, 102.183
1114.243, 109.441
1115.478, 90.696
1116.713, 1.177
1117.948, 82.999
1119.183, 7.894
1120.418, 120.201
1121.652, 274.372
1122.886, 395.447
1124.120, 414.929
1125.354, 189.984
1126.588, 195.031
1127.821, 27.896
1129.055, 137.351
1130.288, 100.351
1131.521, 117.396
1132.753, 21.625
1133.986, 44.328
1135.218, 75.332
1136.450, 119.736
1137.682, 84.409
1138.914, 24.623
1140.146, 6.745
1141.377, 16.745
1142.609, 27.456
1143.840, 12.583
1145.071, 81.160
1146.301, 71.010
1147.532, 67.890
1148.762, 93.448
1149.992, 40.147
1151.222, 60.271
1152.452, 48.259
1153.682, 95.227
1154.911, 27.041
1156.140, 19.039
1157.369, 62.055
1158.598, 91.662
1159.827, 159.445
1161.055, 75.278
1162.284, 63.709
1163.512, 86.716
1164.740, 129.289
1165.967, 22.961
1167.195, 48.233
1168.422, 24.511
1169.650, 50.709
1170.877, 29.021
1172.103, 66.205
1173.330, 12.638
1174.557, 128.786
1175.783, 107.245
1177.009, 22.519
1178.235, 125.771
1179.461, 104.165
1180.686, 15.213
1181.912, 114.552
1183.137, 131.412
1184.362, 62.029
1185.587, 117.903
1186.811, 194.851
1188.036, 104.985
1189.260, 72.146
1190.484, 72.246
1191.708, 22.614
1192.932, 25.046
1194.155, 19.727
1195.378, 11.597
1196.602, 92.318
1197.825, 78.146
1199.047, 60.660
1200.270, 73.438
1201.492, 247.554
1202.715, 18.123
1203.937, 182.883
1205.159, 45.941
1206.380, 209.443
1207.602, 4.620
1208.823, 126.827
1210.044, 121.255
1211.265, 110.404
1212.486, 236.791
1213.707, 71.159
1214.927, 144.628
1216.147, 145.956
1217.367, 195.777
1218.587, 132.342
1219.807, 246.632
1221.027, 63.622
1222.246, 77.864
1223.465, 108.281
1224.684, 161.725
1225.903, 103.904
1227.121, 2.909
1228.340, 203.634
1229.558, 161.941
1230.776, 56.073
1231.994, 127.128
1233.212, 203.195
1234.429, 142.443
1235.646, 145.432
1236.864, 188.402
1238.081, 129.558
1239.297, 235.484
1240.514, 237.392
1241.730, 6.281
1242.947, 85.145
1244.163, 135.990
1245.378, 185.814
1246.594, 208.617
1247.810, 212.393
1249.025, 199.282
1250.240, 177.744
1251.455, 149.467
1252.670, 106.076
1253.885, 118.758
1255.099, 103.246
1256.313, 101.913
1257.527, 67.485
1258.741, 155.211
1259.955, 22.792
1261.168, 137.346
1262.382, 208.880
1263.595, 152.630
1264.808, 188.118
1266.021, 180.111
1267.233, 146.719
1268.446, 265.154
1269.658, 72.704
1270.870, 303.086
1272.082, 283.439
1273.294, 159.771
1274.505, 110.384
1275.716, 200.675
1276.928, 153.947
1278.139, 333.200
1279.349, 195.004
1280.560, 152.086
1281.770, 236.272
1282.981, 90.718
1284.191, 71.823
1285.401, 90.649
1286.610, 116.367
1287.820, 164.103
1289.029, 18.058
1290.239, 202.871
1291.448, 135.773
1292.656, 101.818
1293.865, 231.612
1295.073, 210.153
1296.282, 233.192
1297.490, 150.278
1298.698, 247.876
1299.906, 156.107
1301.113, 157.571
1302.320, 130.966
1303.528, 83.519
1304.735, 17.831
1305.942, 37.815
1307.148, 3.400
1308.355, 18.767
1309.561, 74.271
1310.767, 49.831
1311.973, 173.021
1313.179, 185.297
1314.384, 168.392
1315.590, 109.635
1316.795, 162.764
1318.000, 72.025
1319.205, 210.977
1320.410, 57.388
1321.614, 106.753
1322.819, 82.687
1324.023, 54.033
1325.227, 234.307
1326.431, 58.113
1327.634, 74.614
1328.838, 6.368
1330.041, 130.651
1331.244, 119.816
1332.447, 71.001
1333.650, 51.929
1334.852, 69.951
1336.055, 12.812
1337.257, 39.405
1338.459, 157.289
1339.661, 94.688
1340.862, 127.217
1342.064, 30.352
1343.265, 74.093
1344.466, 75.759
1345.667, 14.462
1346.868, 125.437
1348.068, 63.556
1349.269, 13.505
1350.469, 180.990
1351.669, 21.916
1352.869, 165.755
1354.069, 210.578
1355.268, 32.632
1356.468, 182.080
1357.667, 139.014
1358.866, 82.543
1360.065, 229.739
1361.263, 16.361
1362.462, 51.209
1363.660, 112.147
1364.858, 1.122
1366.056, 155.575
1367.254, 66.090
1368.451, 54.731
1369.649, 128.573
1370.846, 105.983
1372.043, 23.335
1373.240, 59.878
1374.436, 97.362
1375.633, 143.677
1376.829, 100.914
1378.025, 52.116
1379.221, 131.076
1380.417, 196.334
1381.613, 59.488
1382.808, 142.882
1384.003, 122.633
1385.199, 175.812
1386.393, 174.752
1387.588, 244.005
1388.783, 152.673
1389.977, 161.208
1391.171, 133.745
1392.365, 143.410
1393.559, 213.324
1394.753, 149.272
1395.946, 192.094
1397.140, 104.506
1398.333, 250.313
1399.526, 38.874
1400.719, 294.608
1401.911, 197.322
1403.104, 219.769
1404.296, 131.766
1405.488, 178.312
1406.680, 6.725
1407.872, 191.096
1409.063, 388.898
1410.255, 61.739
1411.446, 215.620
1412.637, 66.504
1413.828, 137.916
1415.018, 259.663
1416.209, 223.185
1417.399, 165.443
1418.589, 166.217
1419.779, 210.837
1420.969, 210.221
1422.159, 205.324
1423.348, 222.285
1424.537, 259.512
1425.726, 105.250
1426.915, 279.819
1428.104, 273.544
1429.293, 137.663
1430.481, 210.551
1431.669, 300.871
1432.857, 224.587
1434.045, 283.968
1435.233, 300.236
1436.420, 255.697
1437.608, 320.403
1438.795, 429.154
1439.982, 397.541
1441.169, 456.693
1442.355, 411.627
1443.542, 550.551
1444.728, 396.412
1445.914, 566.157
1447.100, 642.493
1448.286, 509.168
1449.472, 492.269
1450.657, 671.956
1451.842, 582.668
1453.027, 514.786
1454.212, 679.867
1455.397, 463.911
1456.581, 671.933
1457.766, 631.946
1458.950, 466.922
1460.134, 789.868
1461.318, 501.154
1462.501, 455.023
1463.685, 487.871
1464.868, 363.398
1466.051, 552.771
1467.234, 288.130
1468.417, 472.881
1469.600, 337.642
1470.782, 423.358
1471.965, 288.036
1473.147, 374.689
1474.329, 280.578
1475.510, 387.630
1476.692, 297.688
1477.873, 298.870
1479.055, 252.065
1480.236, 449.346
1481.416, 260.688
1482.597, 313.094
1483.778, 246.546
1484.958, 185.050
1486.138, 183.587
1487.318, 189.328
1488.498, 132.777
1489.678, 297.421
1490.857, 128.107
1492.037, 232.872
1493.216, 295.731
1494.395, 85.732
1495.574, 292.846
1496.752, 88.078
1497.931, 245.452
1499.109, 54.954
1500.287, 111.590
1501.465, 14.366
1502.643, 31.706
1503.820, 180.387
1504.998, 39.669
1506.175, 50.171
1507.352, 193.926
1508.529, 115.958
1509.706, 182.297
1510.882, 170.099
1512.059, 133.688
1513.235, 138.962
1514.411, 90.963
1515.587, 164.420
1516.762, 0.398
1517.938, 113.888
1519.113, 64.984
1520.288, 0.000
##END=



