##NAMES=Topaz
##RRUFFID=R050176
##IDEAL CHEMISTRY=Al_2_SiO_4_F_2_
##LOCALITY=Jos Plateau, Nigeria
##OWNER=RRUFF
##SOURCE=Marcus Origlieri
##DESCRIPTION=Colorless prismatic crystal
##STATUS=The identification of this mineral has been confirmed by X-ray diffraction and chemical analysis
##URL=rruff.info/R050176
##MEASURED CHEMISTRY=Al_2.000_Si_1.000_O_4.000_(F_1.438_(OH)_0.562_)
##PIN_ID=L00474
##ORIENTATION=Laser parallel to -b* (0 -1 0). Fiducial mark perpendicular to laser is parallel to c [0 0 1]
89.890, 0.000
91.284, 56.118
92.678, 18.623
94.071, 35.378
95.465, 119.542
96.858, 65.962
98.251, 140.864
99.644, 1077.798
101.036, 1082.009
102.428, 1341.593
103.820, 406.191
105.212, 186.948
106.604, 478.487
107.995, 961.196
109.387, 2270.930
110.777, 11261.919
112.168, 31371.535
113.559, 18496.996
114.949, 3872.277
116.339, 1810.202
117.729, 991.156
119.119, 496.043
120.508, 279.645
121.897, 203.516
123.286, 238.753
124.675, 170.260
126.063, 82.122
127.452, 147.116
128.840, 38.412
130.228, 97.771
131.615, 80.062
133.003, 92.110
134.390, 43.746
135.777, 137.331
137.164, 246.446
138.550, 215.379
139.937, 217.157
141.323, 142.234
142.709, 159.464
144.094, 159.829
145.480, 122.710
146.865, 235.464
148.250, 284.625
149.635, 543.508
151.019, 795.029
152.403, 1356.907
153.788, 2621.562
155.171, 4018.412
156.555, 3612.759
157.939, 1797.244
159.322, 943.392
160.705, 413.563
162.088, 308.749
163.470, 255.940
164.853, 197.139
166.235, 194.346
167.617, 148.560
168.998, 151.783
170.380, 118.016
171.761, 71.260
173.142, 40.542
174.523, 12.041
175.904, 78.514
177.284, 11.793
178.664, 36.971
180.044, 16.027
181.424, 39.968
182.803, 13.806
184.183, 78.551
185.562, 19.790
186.940, 61.794
188.319, 129.692
189.698, 182.245
191.076, 69.854
192.454, 99.513
193.831, 36.214
195.209, 78.949
196.586, 69.293
197.963, 8.480
199.340, 89.262
200.717, 20.047
202.093, 8.834
203.470, 40.381
204.846, 34.604
206.221, 42.836
207.597, 38.077
208.972, 59.327
210.347, 66.588
211.722, 56.869
213.097, 77.170
214.472, 59.506
215.846, 6.091
217.220, 29.608
218.594, 57.019
219.967, 57.317
221.341, 80.518
222.714, 97.681
224.087, 151.834
225.460, 184.970
226.832, 354.027
228.204, 523.065
229.577, 769.058
230.948, 1184.966
232.320, 1921.784
233.692, 3533.497
235.063, 6680.107
236.434, 11020.690
237.805, 18608.318
239.175, 31102.953
240.545, 40769.602
241.916, 30599.270
243.286, 17178.951
244.655, 9555.639
246.025, 5497.344
247.394, 3580.060
248.763, 2238.789
250.132, 1839.527
251.501, 1490.279
252.869, 1337.042
254.237, 1356.815
255.605, 1322.211
256.973, 1453.935
258.340, 1583.813
259.708, 2238.771
261.075, 3299.760
262.442, 6086.946
263.808, 11251.933
265.175, 17827.885
266.541, 35002.023
267.907, 55147.922
269.273, 51030.809
270.639, 29022.682
272.004, 14313.506
273.369, 7853.189
274.734, 4638.702
276.099, 3591.160
277.463, 3175.564
278.828, 3540.881
280.192, 5117.127
281.556, 7533.283
282.919, 11675.346
284.283, 18071.361
285.646, 27590.293
287.009, 28752.314
288.372, 20748.305
289.734, 13115.009
291.097, 7891.639
292.459, 5108.188
293.821, 3477.664
295.183, 2696.056
296.544, 2162.354
297.905, 1870.531
299.266, 1827.254
300.627, 1534.059
301.988, 1544.660
303.348, 1365.129
304.709, 1277.580
306.069, 1260.779
307.428, 1017.000
308.788, 1135.007
310.147, 915.810
311.507, 1083.915
312.865, 927.898
314.224, 921.753
315.583, 999.468
316.941, 949.042
318.299, 965.586
319.657, 908.114
321.015, 949.632
322.372, 988.147
323.729, 988.667
325.086, 1039.188
326.443, 1080.714
327.800, 1399.062
329.156, 1724.176
330.512, 2553.291
331.868, 3548.222
333.224, 3525.184
334.579, 2933.902
335.935, 1967.176
337.290, 1410.974
338.645, 1137.477
339.999, 935.085
341.354, 867.059
342.708, 689.109
344.062, 741.538
345.416, 709.880
346.769, 578.573
348.123, 702.258
349.476, 616.895
350.829, 754.740
352.182, 595.722
353.534, 604.926
354.887, 700.463
356.239, 541.255
357.591, 640.402
358.942, 546.036
360.294, 588.732
361.645, 494.293
362.996, 569.029
364.347, 562.976
365.698, 637.655
367.048, 742.360
368.398, 783.466
369.748, 1138.091
371.098, 1415.052
372.448, 1702.715
373.797, 2062.959
375.146, 1839.321
376.495, 1485.054
377.844, 1029.430
379.192, 707.720
380.540, 583.303
381.889, 403.187
383.236, 397.088
384.584, 320.651
385.932, 386.834
387.279, 327.104
388.626, 352.593
389.973, 423.036
391.319, 320.476
392.666, 391.915
394.012, 532.352
395.358, 611.787
396.704, 807.221
398.049, 1018.658
399.394, 1573.095
400.740, 2158.530
402.084, 3069.967
403.429, 3681.402
404.774, 3304.836
406.118, 2573.268
407.462, 1698.699
408.806, 1169.127
410.150, 877.554
411.493, 605.978
412.836, 498.400
414.179, 391.819
415.522, 334.236
416.865, 327.650
418.207, 224.354
419.549, 296.989
420.891, 228.016
422.233, 245.840
423.575, 79.370
424.916, 226.755
426.257, 148.419
427.598, 78.594
428.939, 121.424
430.279, 111.468
431.619, 103.991
432.959, 96.489
434.299, 111.625
435.639, 177.806
436.978, 171.795
438.318, 308.592
439.657, 368.271
440.996, 519.021
442.334, 511.859
443.673, 397.815
445.011, 361.666
446.349, 178.474
447.687, 142.983
449.024, 130.296
450.361, 219.755
451.699, 285.478
453.036, 347.611
454.372, 611.087
455.709, 1137.329
457.045, 1116.458
458.381, 1027.540
459.717, 872.918
461.053, 623.162
462.388, 426.467
463.724, 412.390
465.059, 393.400
466.394, 269.213
467.728, 374.336
469.063, 430.952
470.397, 501.551
471.731, 424.520
473.065, 406.316
474.398, 508.212
475.732, 507.124
477.065, 648.854
478.398, 693.366
479.731, 925.863
481.063, 1228.346
482.396, 1370.814
483.728, 1261.267
485.060, 1193.706
486.391, 988.130
487.723, 1056.539
489.054, 1372.933
490.385, 1477.314
491.716, 1083.682
493.047, 866.047
494.377, 522.399
495.708, 311.756
497.038, 230.103
498.368, 169.441
499.697, 153.794
501.027, 94.134
502.356, 227.490
503.685, 194.957
505.014, 106.324
506.342, 228.545
507.671, 297.917
508.999, 349.313
510.327, 452.120
511.655, 495.543
512.982, 890.948
514.310, 1317.766
515.637, 1968.149
516.964, 3112.601
518.291, 4451.959
519.617, 6099.321
520.944, 5914.694
522.270, 4741.058
523.596, 3260.409
524.921, 2034.750
526.247, 1305.086
527.572, 764.425
528.897, 539.767
530.222, 329.120
531.547, 232.475
532.871, 272.837
534.196, 75.209
535.520, 168.583
536.844, 55.967
538.167, 82.354
539.491, 106.725
540.814, 49.919
542.137, 103.384
543.460, 30.708
544.783, 112.971
546.105, 147.214
547.427, 128.439
548.749, 347.645
550.071, 300.831
551.393, 570.016
552.714, 769.165
554.035, 1107.294
555.356, 1773.406
556.677, 2277.304
557.998, 3191.377
559.318, 4045.430
560.638, 4272.802
561.958, 4258.817
563.278, 3289.812
564.597, 2632.788
565.917, 1908.744
567.236, 1365.680
568.555, 1055.596
569.874, 564.493
571.192, 612.369
572.511, 1294.226
573.829, 312.062
575.147, 187.878
576.464, 111.675
577.782, 123.449
579.099, 48.200
580.416, 69.925
581.733, 15.626
583.050, 19.896
584.366, 9.726
585.683, 16.686
586.999, 55.642
588.315, 1.123
589.630, 38.478
590.946, 100.817
592.261, 637.060
593.576, 24.346
594.891, 62.304
596.206, 139.024
597.520, 9.856
598.834, 106.732
600.148, 28.703
601.462, 46.726
602.776, 156.813
604.089, 13.021
605.402, 72.273
606.715, 5.762
608.028, 24.352
609.341, 33.228
610.653, 15.779
611.965, 9.699
613.277, 65.779
614.589, 20.766
615.901, 20.358
617.212, 44.000
618.523, 7.666
619.834, 45.626
621.145, 35.105
622.456, 20.893
623.766, 18.272
625.076, 9.407
626.386, 594.511
627.696, 490.595
629.006, 62.663
630.315, 98.708
631.624, 69.734
632.933, 60.739
634.242, 101.818
635.551, 211.783
636.859, 294.729
638.167, 364.659
639.475, 617.570
640.783, 770.465
642.090, 1056.342
643.398, 1026.201
644.705, 991.042
646.012, 1040.867
647.318, 777.675
648.625, 568.465
649.931, 488.577
651.237, 439.333
652.543, 385.703
653.849, 252.425
655.155, 189.130
656.460, 256.655
657.765, 140.165
659.070, 160.487
660.375, 111.169
661.679, 147.787
662.984, 32.032
664.288, 131.606
665.592, 215.497
666.895, 49.305
668.199, 122.822
669.502, 138.214
670.805, 50.695
672.108, 188.671
673.411, 108.355
674.713, 156.779
676.016, 161.292
677.318, 173.680
678.620, 255.050
679.921, 213.568
681.223, 318.902
682.524, 304.062
683.825, 227.362
685.126, 408.645
686.427, 355.632
687.727, 306.878
689.028, 328.108
690.328, 184.320
691.628, 296.041
692.927, 145.134
694.227, 308.711
695.526, 191.410
696.825, 202.192
698.124, 178.951
699.423, 87.687
700.721, 240.944
702.020, 183.685
703.318, 101.554
704.616, 260.327
705.913, 138.334
707.211, 82.325
708.508, 124.299
709.805, 115.258
711.102, 241.200
712.399, 27.127
713.695, 122.030
714.992, 164.918
716.288, 39.790
717.584, 288.644
718.879, 162.482
720.175, 269.305
721.470, 139.114
722.765, 173.908
724.060, 220.688
725.355, 154.453
726.649, 254.204
727.944, 241.941
729.238, 153.671
730.532, 339.387
731.825, 257.090
733.119, 256.471
734.412, 243.889
735.705, 173.882
736.998, 319.044
738.291, 202.468
739.584, 248.001
740.876, 221.222
742.168, 187.908
743.460, 309.906
744.752, 244.656
746.043, 215.902
747.334, 267.140
748.626, 179.708
749.916, 278.200
751.207, 198.851
752.498, 181.677
753.788, 246.590
755.078, 134.405
756.368, 245.106
757.658, 183.662
758.947, 91.294
760.237, 178.942
761.526, 157.861
762.815, 200.956
764.104, 193.878
765.392, 188.511
766.680, 224.708
767.969, 133.537
769.257, 211.577
770.544, 163.705
771.832, 174.857
773.119, 203.690
774.406, 64.638
775.693, 146.503
776.980, 76.730
778.267, 184.851
779.553, 148.150
780.839, 21.122
782.125, 186.583
783.411, 89.044
784.697, 151.119
785.982, 86.351
787.267, 48.466
788.552, 20.451
789.837, 55.794
791.122, 73.244
792.406, 108.694
793.690, 23.144
794.974, 133.595
796.258, 104.047
797.542, 78.500
798.825, 155.955
800.108, 21.411
801.391, 91.868
802.674, 111.327
803.957, 48.212
805.239, 127.230
806.522, 74.325
807.804, 86.089
809.085, 93.506
810.367, 61.074
811.649, 38.323
812.930, 84.276
814.211, 3.093
815.492, 37.362
816.772, 92.746
818.053, 133.283
819.333, 29.324
820.613, 3.940
821.893, 56.026
823.173, 82.605
824.452, 121.754
825.732, 34.310
827.011, 3.953
828.290, 68.325
829.568, 68.312
830.847, 144.031
832.125, 27.379
833.403, 2.267
834.681, 102.091
835.959, 20.545
837.236, 46.818
838.514, 49.188
839.791, 41.436
841.068, 180.934
842.345, 128.309
843.621, 214.691
844.898, 250.083
846.174, 192.483
847.450, 431.894
848.726, 345.313
850.001, 509.745
851.277, 629.186
852.552, 497.655
853.827, 805.096
855.102, 646.589
856.376, 693.093
857.651, 801.606
858.925, 616.132
860.199, 616.668
861.473, 414.196
862.746, 354.752
864.020, 511.318
865.293, 271.896
866.566, 225.677
867.839, 286.275
869.112, 219.886
870.384, 287.169
871.656, 170.803
872.928, 247.449
874.200, 261.107
875.472, 195.777
876.744, 352.461
878.015, 289.156
879.286, 256.865
880.557, 373.587
881.828, 293.508
883.098, 469.782
884.369, 583.520
885.639, 638.015
886.909, 541.844
888.178, 453.783
889.448, 579.605
890.717, 658.444
891.987, 656.304
893.256, 825.190
894.524, 675.401
895.793, 1018.353
897.061, 1060.321
898.330, 958.973
899.598, 1381.009
900.865, 1378.059
902.133, 1423.126
903.401, 1853.213
904.668, 1840.157
905.935, 2197.347
907.202, 2384.564
908.468, 2769.001
909.735, 3267.305
911.001, 3431.646
912.267, 4308.057
913.533, 4907.494
914.799, 5590.387
916.064, 6846.896
917.330, 7767.441
918.595, 9084.013
919.860, 10535.608
921.124, 11691.233
922.389, 13415.878
923.653, 14464.553
924.918, 14967.273
926.182, 15957.014
927.445, 15185.787
928.709, 15483.579
929.972, 15496.405
931.236, 15157.268
932.499, 16906.148
933.761, 18331.062
935.024, 20123.992
936.286, 21454.939
937.549, 19454.910
938.811, 17754.891
940.073, 14218.907
941.334, 11325.841
942.596, 9291.893
943.857, 7375.961
945.118, 6292.049
946.379, 5115.154
947.640, 4386.279
948.900, 3965.425
950.161, 3033.590
951.421, 2905.774
952.681, 2525.977
953.940, 2239.200
955.200, 2148.443
956.459, 1769.368
957.719, 1670.652
958.978, 1552.336
960.236, 1423.672
961.495, 1512.029
962.753, 1281.473
964.012, 1275.871
965.270, 1330.213
966.527, 1257.607
967.785, 1291.698
969.043, 1286.192
970.300, 1320.711
971.557, 1549.918
972.814, 1520.213
974.071, 1826.799
975.327, 2199.514
976.583, 2487.145
977.840, 3447.283
979.095, 3921.717
980.351, 5198.418
981.607, 6887.034
982.862, 7662.779
984.117, 9125.546
985.372, 8638.173
986.627, 7393.987
987.882, 6253.982
989.136, 4503.844
990.390, 3448.728
991.644, 2637.915
992.898, 1868.848
994.152, 1588.804
995.405, 1132.783
996.659, 1010.790
997.912, 853.820
999.165, 517.873
1000.417, 819.951
1001.670, 470.052
1002.922, 455.177
1004.174, 530.324
1005.426, 253.496
1006.678, 338.691
1007.930, 259.911
1009.181, 163.153
1010.432, 283.420
1011.683, 61.708
1012.934, 273.021
1014.185, 211.359
1015.435, 103.721
1016.685, 245.130
1017.935, 81.567
1019.185, 89.029
1020.435, 194.515
1021.684, 71.026
1022.934, 215.562
1024.183, 246.120
1025.432, 71.702
1026.680, 236.310
1027.929, 144.940
1029.177, 146.596
1030.425, 195.276
1031.673, 54.021
1032.921, 337.691
1034.169, 51.427
1035.416, 112.185
1036.663, 196.967
1037.911, 9.231
1039.157, 167.592
1040.404, 205.443
1041.650, 11.316
1042.897, 195.209
1044.143, 73.595
1045.389, 57.318
1046.634, 226.247
1047.880, 57.035
1049.125, 212.930
1050.371, 122.906
1051.615, 56.898
1052.860, 135.912
1054.105, 85.051
1055.349, 95.987
1056.593, 124.048
1057.837, 43.867
1059.081, 343.233
1060.325, 44.356
1061.568, 55.500
1062.812, 212.665
1064.055, 50.147
1065.298, 263.055
1066.540, 151.279
1067.783, 38.213
1069.025, 412.480
1070.267, 53.771
1071.509, 140.082
1072.751, 232.415
1073.993, 11.794
1075.234, 374.170
1076.475, 220.568
1077.716, 133.988
1078.957, 322.429
1080.198, 94.892
1081.438, 286.366
1082.679, 310.861
1083.919, 53.845
1085.159, 388.382
1086.398, 175.941
1087.638, 195.728
1088.877, 411.329
1090.116, 120.953
1091.355, 401.604
1092.594, 253.276
1093.833, 153.971
1095.071, 381.687
1096.309, 124.423
1097.547, 249.182
1098.785, 255.962
1100.023, 31.764
1101.260, 341.587
1102.498, 178.433
1103.735, 189.299
1104.972, 486.188
1106.208, 160.108
1107.445, 213.860
1108.681, 361.840
1109.918, 84.842
1111.154, 374.863
1112.389, 193.921
1113.625, 62.999
1114.860, 323.116
1116.096, 49.743
1117.331, 323.643
1118.566, 299.789
1119.800, 101.958
1121.035, 608.139
1122.269, 274.343
1123.503, 336.568
1124.737, 519.833
1125.971, 120.121
1127.205, 457.479
1128.438, 326.819
1129.671, 56.183
1130.904, 495.563
1132.137, 34.968
1133.370, 278.359
1134.602, 455.774
1135.834, 57.211
1137.066, 424.126
1138.298, 228.604
1139.530, 242.103
1140.762, 602.035
1141.993, 92.582
1143.224, 360.151
1144.455, 291.504
1145.686, 177.116
1146.917, 519.752
1148.147, 231.409
1149.377, 294.088
1150.607, 616.744
1151.837, 280.422
1153.067, 537.119
1154.296, 562.863
1155.526, 418.562
1156.755, 969.280
1157.984, 793.020
1159.213, 809.779
1160.441, 1543.557
1161.670, 1311.354
1162.898, 1584.174
1164.126, 1784.928
1165.354, 1342.777
1166.581, 1697.639
1167.809, 1226.521
1169.036, 1060.400
1170.263, 1227.329
1171.490, 551.248
1172.717, 838.188
1173.943, 663.234
1175.170, 326.220
1176.396, 711.230
1177.622, 292.452
1178.848, 310.227
1180.073, 554.557
1181.299, 149.324
1182.524, 385.082
1183.749, 417.810
1184.974, 52.479
1186.199, 559.004
1187.423, 169.747
1188.648, 108.391
1189.872, 416.677
1191.096, 70.373
1192.320, 289.237
1193.543, 267.480
1194.767, 41.590
1195.990, 374.373
1197.213, 75.429
1198.436, 109.200
1199.659, 447.220
1200.881, 11.271
1202.104, 308.832
1203.326, 354.924
1204.548, 9.037
1205.770, 402.183
1206.991, 137.327
1208.213, 140.504
1209.434, 408.709
1210.655, 25.946
1211.876, 213.206
1213.096, 425.496
1214.317, 37.186
1215.537, 520.162
1216.757, 258.540
1217.977, 81.948
1219.197, 526.386
1220.417, 60.147
1221.636, 307.350
1222.855, 424.860
1224.074, 42.383
1225.293, 433.934
1226.512, 237.513
1227.731, 137.932
1228.949, 495.514
1230.167, 7.877
1231.385, 307.758
1232.603, 410.420
1233.820, 0.895
1235.038, 503.817
1236.255, 166.555
1237.472, 134.314
1238.689, 394.097
1239.906, 134.898
1241.122, 393.721
1242.338, 342.560
1243.555, 18.425
1244.771, 406.313
1245.986, 188.226
1247.202, 25.163
1248.417, 439.127
1249.633, 183.115
1250.848, 191.085
1252.063, 550.037
1253.277, 36.990
1254.492, 395.007
1255.706, 300.025
1256.920, 149.065
1258.134, 478.128
1259.348, 132.243
1260.562, 284.394
1261.775, 456.582
1262.988, 20.207
1264.201, 381.461
1265.414, 405.713
1266.627, 131.345
1267.839, 454.687
1269.052, 101.078
1270.264, 184.538
1271.476, 540.036
1272.688, 32.573
1273.899, 301.149
1275.111, 366.764
1276.322, 80.348
1277.533, 425.957
1278.744, 112.993
1279.955, 190.507
1281.165, 570.051
1282.376, 16.647
1283.586, 234.021
1284.796, 407.677
1286.006, 22.772
1287.215, 478.471
1288.425, 244.194
1289.634, 15.946
1290.843, 516.724
1292.052, 133.528
1293.261, 184.358
1294.469, 568.212
1295.678, 181.072
1296.886, 527.676
1298.094, 445.287
1299.302, 93.900
1300.509, 564.591
1301.717, 256.196
1302.924, 237.863
1304.131, 507.513
1305.338, 129.938
1306.545, 378.603
1307.752, 444.495
1308.958, 63.445
1310.164, 598.135
1311.370, 320.798
1312.576, 262.712
1313.782, 599.680
1314.987, 128.228
1316.193, 479.997
1317.398, 570.060
1318.603, 128.218
1319.807, 469.975
1321.012, 479.835
1322.216, 118.812
1323.421, 584.710
1324.625, 190.371
1325.829, 238.896
1327.032, 612.059
1328.236, 128.995
1329.439, 383.698
1330.642, 466.850
1331.845, 2.253
1333.048, 487.791
1334.251, 212.959
1335.453, 0.000
##END=



