##NAMES=Topaz
##RRUFFID=R050200
##IDEAL CHEMISTRY=Al_2_SiO_4_F_2_
##LOCALITY=Jos Plateau, Nigeria
##OWNER=RRUFF
##SOURCE=Marcus Origlieri
##DESCRIPTION=Colorless water-worn single crystal
##STATUS=The identification of this mineral has been confirmed by X-ray diffraction and chemical analysis
##URL=rruff.info/R050200
##MEASURED CHEMISTRY=Al_2.000_Si_1.000_O_4.000_F_1.488_(OH)_0.512_
##PIN_ID=L00468
##ORIENTATION=Laser parallel to b* (0 1 0). Fiducial mark perpendicular to laser is parallel to c [0 0 1]
107.995, 0.000
109.387, 16.973
110.777, 0.458
112.168, 112.844
113.559, 79.644
114.949, 158.198
116.339, 233.051
117.729, 243.196
119.119, 108.519
120.508, 37.211
121.897, 42.870
123.286, 173.674
124.675, 101.288
126.063, 101.539
127.452, 50.019
128.840, 30.057
130.228, 47.708
131.615, 39.053
133.003, 46.153
134.390, 38.056
135.777, 15.203
137.164, 81.795
138.550, 0.083
139.937, 120.220
141.323, 45.961
142.709, 69.824
144.094, 80.909
145.480, 368.744
146.865, 937.445
148.250, 1711.791
149.635, 2608.858
151.019, 3476.989
152.403, 4357.184
153.788, 4132.437
155.171, 2977.741
156.555, 1819.092
157.939, 1138.482
159.322, 584.908
160.705, 319.365
162.088, 227.851
163.470, 189.362
164.853, 176.896
166.235, 56.452
167.617, 49.024
168.998, 58.615
170.380, 62.226
171.761, 41.917
173.142, 45.662
174.523, 90.450
175.904, 17.762
177.284, 15.038
178.664, 44.149
180.044, 3.337
181.424, 22.474
182.803, 11.718
184.183, 25.089
185.562, 73.895
186.940, 44.700
188.319, 129.525
189.698, 119.480
191.076, 168.634
192.454, 127.871
193.831, 172.181
195.209, 247.495
196.586, 213.811
197.963, 259.123
199.340, 278.425
200.717, 338.718
202.093, 311.999
203.470, 405.266
204.846, 403.511
206.221, 553.732
207.597, 675.941
208.972, 474.141
210.347, 249.330
211.722, 206.509
213.097, 82.681
214.472, 214.844
215.846, 115.999
217.220, 178.146
218.594, 234.287
219.967, 258.420
221.341, 361.544
222.714, 403.662
224.087, 665.772
225.460, 916.856
226.832, 1218.891
228.204, 1953.914
229.577, 3133.257
230.948, 5796.261
232.320, 11057.638
233.692, 18826.166
235.063, 27272.766
236.434, 36081.113
237.805, 42517.855
239.175, 40152.199
240.545, 30055.109
241.916, 19212.020
243.286, 12056.927
244.655, 7233.950
246.025, 4577.696
247.394, 3041.884
248.763, 2197.778
250.132, 1846.669
251.501, 1536.561
252.869, 1557.452
254.237, 1607.344
255.605, 1848.237
256.973, 2545.129
258.340, 3993.023
259.708, 7614.918
261.075, 14397.813
262.442, 23409.713
263.808, 33087.609
265.175, 43220.500
266.541, 46877.457
267.907, 37565.602
269.273, 24314.590
270.639, 14757.948
272.004, 9358.731
273.369, 6485.631
274.734, 5576.023
276.099, 6415.262
277.463, 9103.971
278.828, 14062.654
280.192, 21291.225
281.556, 30041.775
282.919, 38089.250
284.283, 43042.723
285.646, 38869.086
287.009, 28597.156
288.372, 19081.311
289.734, 11899.461
291.097, 7365.598
292.459, 4960.636
293.821, 3374.559
295.183, 2409.570
296.544, 1788.540
297.905, 1454.535
299.266, 1146.494
300.627, 1047.963
301.988, 841.476
303.348, 742.516
304.709, 617.597
306.069, 568.579
307.428, 441.599
308.788, 399.538
310.147, 363.493
311.507, 386.424
312.865, 343.371
314.224, 329.321
315.583, 358.291
316.941, 332.248
318.299, 227.207
319.657, 251.168
321.015, 231.133
322.372, 354.099
323.729, 457.067
325.086, 577.036
326.443, 740.008
327.800, 1178.980
329.156, 1498.955
330.512, 1745.859
331.868, 1833.738
333.224, 1502.660
334.579, 999.602
335.935, 751.462
337.290, 471.341
338.645, 419.319
339.999, 302.711
341.354, 266.424
342.708, 197.197
344.062, 203.550
345.416, 126.631
346.769, 148.494
348.123, 93.306
349.476, 11.283
350.829, 89.213
352.182, 107.188
353.534, 17.163
354.887, 39.135
356.239, 21.896
357.591, 19.063
358.942, 21.018
360.294, 2.971
361.645, 4.918
362.996, 75.863
364.347, 28.195
365.698, 45.734
367.048, 61.662
368.398, 1.586
369.748, 120.506
371.098, 184.424
372.448, 79.341
373.797, 60.255
375.146, 91.168
376.495, 71.079
377.844, 46.693
379.192, 46.017
380.540, 2.118
381.889, 13.833
383.236, 32.782
384.584, 22.729
385.932, 56.672
387.279, 153.614
388.626, 170.559
389.973, 156.532
391.319, 295.526
392.666, 428.518
394.012, 637.511
395.358, 1182.501
396.704, 1875.478
398.049, 2947.485
399.394, 3787.490
400.740, 4841.489
402.084, 5248.483
403.429, 4829.496
404.774, 3888.521
406.118, 2696.545
407.462, 1800.568
408.806, 1213.584
410.150, 859.597
411.493, 685.609
412.836, 475.628
414.179, 336.646
415.522, 345.662
416.865, 263.675
418.207, 185.688
419.549, 91.719
420.891, 44.015
422.233, 62.776
423.575, 24.198
424.916, 17.817
426.257, 52.829
427.598, 56.162
428.939, 64.828
430.279, 63.188
431.619, 7.759
432.959, 130.315
434.299, 4.467
435.639, 53.631
436.978, 62.168
438.318, 58.037
439.657, 16.717
440.996, 26.467
442.334, 20.211
443.673, 28.949
445.011, 20.699
446.349, 23.443
447.687, 202.184
449.024, 418.921
450.361, 562.654
451.699, 1023.385
453.036, 1514.111
454.372, 1955.838
455.709, 2039.563
457.045, 1994.295
458.381, 1515.024
459.717, 1043.752
461.053, 648.476
462.388, 519.203
463.724, 378.927
465.059, 190.650
466.394, 138.370
467.728, 168.086
469.063, 97.799
470.397, 76.510
471.731, 133.217
473.065, 97.921
474.398, 132.622
475.732, 49.320
477.065, 104.015
478.398, 162.706
479.731, 238.395
481.063, 342.079
482.396, 452.761
483.728, 646.439
485.060, 1002.114
486.391, 1367.786
487.723, 1662.454
489.054, 1917.119
490.385, 1826.779
491.716, 1270.437
493.047, 914.092
494.377, 592.744
495.708, 262.392
497.038, 251.037
498.368, 125.678
499.697, 163.316
501.027, 156.957
502.356, 94.595
503.685, 68.244
505.014, 5.891
506.342, 113.533
507.671, 69.175
508.999, 122.814
510.327, 41.206
511.655, 122.837
512.982, 266.465
514.310, 377.896
515.637, 524.426
516.964, 751.272
518.291, 790.612
519.617, 843.778
520.944, 830.435
522.270, 781.736
523.596, 587.333
524.921, 456.769
526.247, 349.301
527.572, 201.887
528.897, 321.126
530.222, 307.704
531.547, 274.279
532.871, 256.020
534.196, 248.587
535.520, 284.149
536.844, 288.715
538.167, 233.738
539.491, 318.877
540.814, 291.916
542.137, 466.303
543.460, 515.737
544.783, 487.124
546.105, 735.650
547.427, 880.176
548.749, 1067.655
550.071, 1363.640
551.393, 1794.150
552.714, 2415.328
554.035, 3261.826
555.356, 4428.319
556.677, 5561.070
557.998, 6620.554
559.318, 7167.770
560.638, 6866.240
561.958, 5886.333
563.278, 4709.919
564.597, 3518.372
565.917, 2655.817
567.236, 2018.258
568.555, 1440.706
569.874, 1279.133
571.192, 946.389
572.511, 747.804
573.829, 571.213
575.147, 561.615
576.464, 420.010
577.782, 397.336
579.099, 285.719
580.416, 316.040
581.733, 341.409
583.050, 303.770
584.366, 277.954
585.683, 216.285
586.999, 215.549
588.315, 237.224
589.630, 215.595
590.946, 201.647
592.261, 212.268
593.576, 166.942
594.891, 124.018
596.206, 101.320
597.520, 108.449
598.834, 102.934
600.148, 102.094
601.462, 133.223
602.776, 215.097
604.089, 163.220
605.402, 237.420
606.715, 252.680
608.028, 285.936
609.341, 302.186
610.653, 368.430
611.965, 279.382
613.277, 319.616
614.589, 203.209
615.901, 170.434
617.212, 230.653
618.523, 157.635
619.834, 187.075
621.145, 179.278
622.456, 183.476
623.766, 306.669
625.076, 255.856
626.386, 304.040
627.696, 100.216
629.006, 257.389
630.315, 187.556
631.624, 264.718
632.933, 360.875
634.242, 373.011
635.551, 476.159
636.859, 560.300
638.167, 954.438
639.475, 991.570
640.783, 1396.697
642.090, 1643.820
643.398, 1719.938
644.705, 1615.050
646.012, 1334.159
647.318, 1249.262
648.625, 884.361
649.931, 754.455
651.237, 606.543
652.543, 508.629
653.849, 437.710
655.155, 296.786
656.460, 372.857
657.765, 156.924
659.070, 171.987
660.375, 302.045
661.679, 131.100
662.984, 150.857
664.288, 72.903
665.592, 156.945
666.895, 87.981
668.199, 118.982
669.502, 70.012
670.805, 119.039
672.108, 44.061
673.411, 35.081
674.713, 139.103
676.016, 71.123
677.318, 120.140
678.620, 124.155
679.921, 126.167
681.223, 102.175
682.524, 116.355
683.825, 129.199
685.126, 123.207
686.427, 71.212
687.727, 61.214
689.028, 15.213
690.328, 120.207
691.628, 80.197
692.927, 25.184
694.227, 105.832
695.526, 60.213
696.825, 108.958
698.124, 17.831
699.423, 38.701
700.721, 136.568
702.020, 78.434
703.318, 3.703
704.616, 98.853
705.913, 75.419
707.211, 118.673
708.508, 0.408
709.805, 24.134
711.102, 121.857
712.399, 121.422
713.695, 48.226
714.992, 18.128
716.288, 44.499
717.584, 64.875
718.879, 41.292
720.175, 29.261
721.470, 38.812
722.765, 28.362
724.060, 9.910
725.355, 52.456
726.649, 23.000
727.944, 113.525
729.238, 14.049
730.532, 38.572
731.825, 88.093
733.119, 74.386
734.412, 85.090
735.705, 14.566
736.998, 38.041
738.291, 15.515
739.584, 80.997
740.876, 51.479
742.168, 16.960
743.460, 19.541
744.752, 7.055
746.043, 98.443
747.334, 11.943
748.626, 13.521
749.916, 73.011
751.207, 25.560
752.498, 63.109
753.788, 6.324
755.078, 69.240
756.368, 54.805
757.658, 62.630
758.947, 71.904
760.237, 0.561
761.526, 94.974
762.815, 10.510
764.104, 7.046
765.392, 29.584
766.680, 15.878
767.969, 7.180
769.257, 44.812
770.544, 50.701
771.832, 56.215
773.119, 142.731
774.406, 113.248
775.693, 120.370
776.980, 109.287
778.267, 82.809
779.553, 99.333
780.839, 83.859
782.125, 151.387
783.411, 38.917
784.697, 58.449
785.982, 72.983
787.267, 137.520
788.552, 10.063
789.837, 159.610
791.122, 55.159
792.406, 71.711
793.690, 184.266
794.974, 94.823
796.258, 67.383
797.542, 142.948
798.825, 170.517
800.108, 119.088
801.391, 113.663
802.674, 111.241
803.957, 35.822
805.239, 55.407
806.522, 71.995
807.804, 53.009
809.085, 57.547
810.367, 59.804
811.649, 82.440
812.930, 73.081
814.211, 84.379
815.492, 189.372
816.772, 124.023
818.053, 87.681
819.333, 168.343
820.613, 310.009
821.893, 138.679
823.173, 169.354
824.452, 207.033
825.732, 22.717
827.011, 172.406
828.290, 173.099
829.568, 90.796
830.847, 291.499
832.125, 251.207
833.403, 196.920
834.681, 231.640
835.959, 267.366
837.236, 303.117
838.514, 333.873
839.791, 379.656
841.068, 364.444
842.345, 480.241
843.621, 573.877
844.898, 427.691
846.174, 703.511
847.450, 652.344
848.726, 712.675
850.001, 863.170
851.277, 973.218
852.552, 901.564
853.827, 971.490
855.102, 921.331
856.376, 920.225
857.651, 982.122
858.925, 921.070
860.199, 767.514
861.473, 740.436
862.746, 714.690
864.020, 641.550
865.293, 577.573
866.566, 601.262
867.839, 507.224
869.112, 578.455
870.384, 513.434
871.656, 495.792
872.928, 603.661
874.200, 449.668
875.472, 510.684
876.744, 555.708
878.015, 448.728
879.286, 568.771
880.557, 732.989
881.828, 537.060
883.098, 595.140
884.369, 611.230
885.639, 572.330
886.909, 611.504
888.178, 570.624
889.448, 688.754
890.717, 687.895
891.987, 666.045
893.256, 699.206
894.524, 705.377
895.793, 827.559
897.061, 831.467
898.330, 900.151
899.598, 1019.365
900.865, 1054.602
902.133, 1072.028
903.401, 1263.298
904.668, 1384.578
905.935, 1357.873
907.202, 1675.804
908.468, 1740.129
909.735, 1992.464
911.001, 2074.101
912.267, 2401.461
913.533, 2858.768
914.799, 3100.160
916.064, 3722.566
917.330, 3994.983
918.595, 4530.410
919.860, 5359.139
921.124, 6058.589
922.389, 6689.684
923.653, 7428.157
924.918, 8292.641
926.182, 8799.132
927.445, 9960.640
928.709, 11210.169
929.972, 13058.707
931.236, 16202.260
932.499, 20113.818
933.761, 24013.395
935.024, 27976.980
936.286, 30053.582
937.549, 27831.193
938.811, 24451.826
940.073, 19512.461
941.334, 14982.118
942.596, 12037.783
943.857, 9408.460
945.118, 7219.148
946.379, 5988.848
947.640, 5123.559
948.900, 4308.719
950.161, 3554.452
951.421, 3103.196
952.681, 2788.951
953.940, 2308.718
955.200, 2033.494
956.459, 1913.313
957.719, 1809.111
958.978, 1623.688
960.236, 1450.614
961.495, 1530.665
962.753, 1285.776
964.012, 1228.637
965.270, 1295.509
966.527, 1206.392
967.785, 1192.285
969.043, 1185.189
970.300, 1095.104
971.557, 1166.029
972.814, 1082.970
974.071, 1264.922
975.327, 1323.882
976.583, 1590.854
977.840, 1742.842
979.095, 2139.845
980.351, 2334.857
981.607, 2836.880
982.862, 3094.912
984.117, 3563.956
985.372, 3109.494
986.627, 2894.558
987.882, 2379.415
989.136, 1782.498
990.390, 1645.566
991.644, 1278.669
992.898, 988.409
994.152, 910.588
995.405, 749.982
996.659, 726.125
997.912, 704.396
999.165, 632.572
1000.417, 626.125
1001.670, 593.038
1002.922, 541.294
1004.174, 543.696
1005.426, 414.970
1006.678, 417.253
1007.930, 455.544
1009.181, 346.847
1010.432, 330.189
1011.683, 272.563
1012.934, 288.946
1014.185, 342.341
1015.435, 312.744
1016.685, 248.155
1017.935, 322.623
1019.185, 293.101
1020.435, 162.596
1021.684, 299.100
1022.934, 325.634
1024.183, 175.188
1025.432, 351.754
1026.680, 204.326
1027.929, 337.905
1029.177, 202.493
1030.425, 249.088
1031.673, 207.446
1032.921, 153.078
1034.169, 247.703
1035.416, 201.138
1036.663, 164.975
1037.911, 207.642
1039.157, 270.315
1040.404, 266.997
1041.650, 305.685
1042.897, 324.164
1044.143, 225.103
1045.389, 312.836
1046.634, 245.577
1047.880, 145.337
1049.125, 190.106
1050.371, 294.831
1051.615, 85.632
1052.860, 241.155
1054.105, 195.982
1055.349, 171.688
1056.593, 131.495
1057.837, 120.062
1059.081, 102.692
1060.325, 115.790
1061.568, 108.686
1062.812, 142.961
1064.055, 201.699
1065.298, 188.919
1066.540, 115.810
1067.783, 73.735
1069.025, 104.608
1070.267, 49.562
1071.509, 8.446
1072.751, 174.346
1073.993, 24.249
1075.234, 136.171
1076.475, 73.085
1077.716, 50.651
1078.957, 169.569
1080.198, 270.489
1081.438, 156.412
1082.679, 237.997
1083.919, 45.927
1085.159, 76.933
1086.398, 34.123
1087.638, 69.425
1088.877, 33.635
1090.116, 25.297
1091.355, 76.231
1092.594, 10.168
1093.833, 107.106
1095.071, 11.047
1096.309, 133.989
1097.547, 18.066
1098.785, 13.873
1100.023, 59.815
1101.260, 88.759
1102.498, 69.061
1103.735, 8.655
1104.972, 1.351
1106.208, 29.597
1107.445, 24.399
1108.681, 31.388
1109.918, 9.456
1111.154, 98.793
1112.389, 35.183
1113.625, 113.834
1114.860, 29.768
1116.096, 64.804
1117.331, 35.785
1118.566, 58.669
1119.800, 33.642
1121.035, 63.490
1122.269, 243.441
1123.503, 225.324
1124.737, 110.206
1125.971, 110.458
1127.205, 1.337
1128.438, 106.074
1129.671, 4.950
1130.904, 172.826
1132.137, 2.773
1133.370, 12.349
1134.602, 5.517
1135.834, 81.619
1137.066, 17.201
1138.298, 83.843
1139.530, 101.932
1140.762, 13.107
1141.993, 20.247
1143.224, 5.357
1144.455, 33.570
1145.686, 50.652
1146.917, 45.512
1148.147, 12.468
1149.377, 24.174
1150.607, 112.876
1151.837, 33.427
1153.067, 77.249
1154.296, 125.921
1155.526, 92.255
1156.755, 165.254
1157.984, 147.025
1159.213, 198.683
1160.441, 300.361
1161.670, 460.076
1162.898, 422.720
1164.126, 483.358
1165.354, 519.462
1166.581, 484.092
1167.809, 455.000
1169.036, 383.929
1170.263, 265.151
1171.490, 287.777
1172.717, 101.703
1173.943, 79.301
1175.170, 37.892
1176.396, 82.478
1177.622, 141.058
1178.848, 18.369
1180.073, 31.304
1181.299, 93.966
1182.524, 93.505
1183.749, 125.107
1184.974, 43.635
1186.199, 47.154
1187.423, 65.667
1188.648, 98.257
1189.872, 103.089
1191.096, 105.071
1192.320, 72.855
1193.543, 87.877
1194.767, 59.462
1195.990, 65.974
1197.213, 30.570
1198.436, 49.853
1199.659, 26.525
1200.881, 48.858
1202.104, 3.233
1203.326, 108.593
1204.548, 13.057
1205.770, 108.270
1206.991, 4.747
1208.213, 49.048
1209.434, 3.659
1210.655, 5.615
1211.876, 18.872
1213.096, 58.377
1214.317, 51.458
1215.537, 71.842
1216.757, 49.062
1217.977, 84.272
1219.197, 74.633
1220.417, 107.828
1221.636, 66.016
1222.855, 69.195
1224.074, 20.532
1225.293, 88.612
1226.512, 73.750
1227.731, 158.878
1228.949, 14.999
1230.167, 113.371
1231.385, 57.469
1232.603, 31.556
1233.820, 14.369
1235.038, 112.787
1236.255, 125.845
1237.472, 99.878
1238.689, 85.892
1239.906, 99.363
1241.122, 121.897
1242.338, 124.888
1243.555, 133.781
1244.771, 159.736
1245.986, 136.372
1247.202, 122.329
1248.417, 80.271
1249.633, 91.785
1250.848, 71.780
1252.063, 104.016
1253.277, 70.917
1254.492, 67.046
1255.706, 92.818
1256.920, 37.468
1258.134, 0.944
1259.348, 105.895
1260.562, 79.727
1261.775, 44.549
1262.988, 58.360
1264.201, 120.163
1265.414, 60.943
1266.627, 7.708
1267.839, 66.460
1269.052, 160.203
1270.264, 206.938
1271.476, 0.664
1272.688, 208.376
1273.899, 11.073
1275.111, 157.742
1276.322, 118.398
1277.533, 69.043
1278.744, 85.677
1279.955, 189.816
1281.165, 143.432
1282.376, 179.252
1283.586, 50.847
1284.796, 120.456
1286.006, 38.033
1287.215, 55.938
1288.425, 45.394
1289.634, 37.628
1290.843, 30.888
1292.052, 14.618
1293.261, 27.917
1294.469, 80.356
1295.678, 120.785
1296.886, 150.204
1298.094, 168.665
1299.302, 79.875
1300.509, 176.267
1301.717, 81.647
1302.924, 50.018
1304.131, 100.379
1305.338, 70.730
1306.545, 61.071
1307.752, 113.403
1308.958, 78.723
1310.164, 39.965
1311.370, 195.322
1312.576, 8.601
1313.782, 167.867
1314.987, 8.123
1316.193, 74.368
1317.398, 22.604
1318.603, 123.828
1319.807, 106.044
1321.012, 147.251
1322.216, 91.448
1323.421, 93.166
1324.625, 49.066
1325.829, 50.223
1327.032, 82.382
1328.236, 61.533
1329.439, 102.434
1330.642, 93.837
1331.845, 144.931
1333.048, 59.047
1334.251, 21.153
1335.453, 65.748
1336.656, 2.321
1337.858, 9.379
1339.060, 3.571
1340.261, 67.467
1341.463, 82.497
1342.664, 93.569
1343.866, 31.567
1345.067, 96.847
1346.267, 137.820
1347.468, 81.915
1348.669, 221.909
1349.869, 75.945
1351.069, 33.929
1352.269, 183.022
1353.469, 74.946
1354.668, 199.771
1355.868, 178.854
1357.067, 18.551
1358.266, 203.485
1359.465, 186.385
1360.664, 69.372
1361.862, 124.278
1363.061, 32.468
1364.259, 101.420
1365.457, 118.369
1366.655, 72.682
1367.852, 45.629
1369.050, 101.062
1370.247, 105.254
1371.444, 152.226
1372.641, 219.145
1373.838, 16.401
1375.035, 135.408
1376.231, 100.046
1377.427, 251.593
1378.623, 39.754
1379.819, 62.241
1381.015, 63.372
1382.211, 181.566
1383.406, 111.745
1384.601, 193.908
1385.796, 99.058
1386.991, 132.185
1388.185, 101.251
1389.380, 145.293
1390.574, 174.313
1391.768, 189.653
1392.962, 140.758
1394.156, 240.574
1395.350, 161.549
1396.543, 153.443
1397.736, 208.475
1398.929, 102.921
1400.122, 268.915
1401.315, 168.790
1402.507, 128.729
1403.700, 209.688
1404.892, 135.519
1406.084, 208.181
1407.276, 297.796
1408.467, 58.491
1409.659, 212.155
1410.850, 202.115
1412.041, 197.087
1413.232, 318.049
1414.423, 211.853
1415.614, 285.666
1416.804, 227.591
1417.994, 240.821
1419.184, 193.858
1420.374, 245.821
1421.564, 232.177
1422.753, 254.966
1423.943, 228.741
1425.132, 238.336
1426.321, 278.854
1427.510, 263.613
1428.698, 253.238
1429.887, 301.818
1431.075, 210.419
1432.263, 177.181
1433.451, 281.741
1434.639, 283.995
1435.827, 238.589
1437.014, 261.190
1438.201, 329.534
1439.388, 328.135
1440.575, 185.320
1441.762, 358.927
1442.949, 359.519
1444.135, 287.815
1445.321, 417.370
1446.507, 345.732
1447.693, 317.271
1448.879, 316.289
1450.064, 348.800
1451.250, 349.028
1452.435, 428.597
1453.620, 395.125
1454.805, 326.626
1455.989, 346.104
1457.174, 194.556
1458.358, 336.019
1459.542, 363.460
1460.726, 281.900
1461.910, 295.356
1463.093, 158.803
1464.277, 233.226
1465.460, 269.633
1466.643, 152.100
1467.826, 334.561
1469.009, 183.996
1470.191, 208.410
1471.373, 228.916
1472.556, 265.440
1473.738, 87.955
1474.919, 293.460
1476.101, 149.952
1477.283, 213.673
1478.464, 77.478
1479.645, 230.300
1480.826, 152.133
1482.007, 260.983
1483.187, 130.851
1484.368, 209.739
1485.548, 151.650
1486.728, 160.596
1487.908, 148.571
1489.088, 113.324
1490.268, 120.838
1491.447, 90.678
1492.626, 117.790
1493.805, 174.949
1494.984, 196.162
1496.163, 1.568
1497.341, 187.768
1498.520, 25.173
1499.698, 98.657
1500.876, 59.215
1502.054, 42.842
1503.232, 45.543
1504.409, 7.331
1505.586, 79.213
1506.763, 152.199
1507.940, 2.304
1509.117, 70.536
1510.294, 9.279
1511.470, 14.729
1512.647, 54.421
1513.823, 130.345
1514.999, 91.817
1516.174, 35.771
1517.350, 107.003
1518.526, 9.714
1519.701, 102.369
1520.876, 0.176
1522.051, 0.000
##END=



