##NAMES=Topaz
##RRUFFID=R040121
##IDEAL CHEMISTRY=Al_2_SiO_4_F_2_
##LOCALITY=Tepetate, San Luis Potosi, Mexico
##OWNER=RRUFF
##SOURCE=University of Arizona Mineral Museum
##DESCRIPTION=Fragments of a prismatic single crystal
##STATUS=The identification of this mineral has been confirmed by X-ray diffraction and chemical analysis
##URL=rruff.info/R040121
##MEASURED CHEMISTRY=Al_2.00_(Si_0.99_Al_0.02_)(F_0.82_(OH)_0.18_)_2_
##PIN_ID=L00170
##ORIENTATION=Laser parallel to -c* (0 0 -1). Fiducial mark perpendicular to laser is parallel to a [1 0 0]
93.375, 0.000
94.768, 41.477
96.161, 78.018
97.554, 66.154
98.947, 94.656
100.340, 88.488
101.732, 62.119
103.124, 105.129
104.516, 145.486
105.908, 219.189
107.300, 138.250
108.691, 236.841
110.082, 223.246
111.473, 392.723
112.864, 586.178
114.254, 732.030
115.644, 1123.547
117.034, 1283.722
118.424, 1156.256
119.813, 941.776
121.203, 644.569
122.592, 361.693
123.981, 174.817
125.369, 164.423
126.758, 55.319
128.146, 1.740
129.534, 110.754
130.922, 41.614
132.309, 137.485
133.696, 54.207
135.083, 149.544
136.470, 53.256
137.857, 201.978
139.243, 275.458
140.630, 225.750
142.016, 276.181
143.401, 391.829
144.787, 391.811
146.172, 623.741
147.557, 841.694
148.942, 1112.838
150.327, 1501.159
151.711, 1948.092
153.096, 2726.190
154.480, 2932.742
155.863, 2154.931
157.247, 1217.360
158.630, 784.585
160.013, 607.191
161.396, 473.363
162.779, 384.777
164.161, 293.231
165.544, 198.721
166.926, 171.190
168.308, 108.582
169.689, 123.880
171.070, 91.092
172.452, 129.223
173.833, 16.277
175.213, 70.262
176.594, 18.327
177.974, 109.892
179.354, 51.907
180.734, 2.677
182.114, 4.087
183.493, 56.851
184.872, 43.543
186.251, 39.041
187.630, 68.392
189.008, 31.617
190.387, 86.760
191.765, 71.856
193.143, 60.954
194.520, 12.890
195.898, 32.325
197.275, 13.619
198.652, 53.008
200.029, 16.509
201.405, 50.913
202.782, 18.792
204.158, 107.424
205.534, 76.571
206.909, 38.645
208.285, 35.644
209.660, 41.551
211.035, 17.661
212.410, 13.016
213.784, 32.467
215.159, 14.779
216.533, 46.918
217.907, 85.880
219.281, 125.696
220.654, 111.336
222.027, 165.743
223.400, 236.913
224.773, 302.844
226.146, 432.518
227.518, 673.045
228.891, 1002.518
230.263, 1683.547
231.634, 2852.201
233.006, 4724.271
234.377, 7316.240
235.748, 10372.312
237.119, 14164.529
238.490, 19947.959
239.860, 20339.600
241.231, 14218.285
242.601, 8314.595
243.970, 5100.903
245.340, 3264.220
246.709, 2220.546
248.079, 1764.882
249.448, 1333.230
250.816, 1234.590
252.185, 1269.963
253.553, 1306.350
254.921, 1528.750
256.289, 1880.164
257.657, 2880.591
259.024, 4650.875
260.391, 7988.730
261.758, 12823.101
263.125, 19203.195
264.492, 27601.914
265.858, 38886.000
267.224, 45503.633
268.590, 33326.648
269.956, 19567.055
271.321, 11564.997
272.687, 7645.219
274.052, 5856.074
275.416, 5480.808
276.781, 6271.103
278.146, 8968.730
279.510, 14166.808
280.874, 20849.367
282.237, 30640.438
283.601, 42328.059
284.964, 55259.258
286.327, 54988.160
287.690, 37461.137
289.053, 22257.000
290.416, 13712.450
291.778, 8718.539
293.140, 5887.044
294.502, 3834.846
295.863, 2709.426
297.225, 2041.542
298.586, 1640.302
299.947, 1490.548
301.308, 1262.420
302.668, 1131.219
304.029, 1125.890
305.389, 1056.445
306.749, 1036.750
308.108, 1018.320
309.468, 1011.583
310.827, 1024.268
312.186, 1059.083
313.545, 1089.040
314.903, 1111.870
316.262, 1187.576
317.620, 1332.120
318.978, 1367.548
320.336, 1678.880
321.693, 2118.140
323.051, 3192.761
324.408, 5102.447
325.765, 8555.550
327.121, 12932.294
328.478, 19104.369
329.834, 27571.678
331.190, 37792.734
332.546, 35721.977
333.902, 24599.521
335.257, 13817.605
336.612, 8445.316
337.967, 5414.770
339.322, 3473.159
340.677, 2251.968
342.031, 1594.298
343.385, 1270.384
344.739, 1054.542
346.093, 917.734
347.446, 729.559
348.799, 638.411
350.153, 588.684
351.505, 545.051
352.858, 555.727
354.210, 596.051
355.563, 565.210
356.915, 594.010
358.267, 592.423
359.618, 376.262
360.969, 356.224
362.321, 157.806
363.672, 204.529
365.022, 144.052
366.373, 103.358
367.723, 68.026
369.073, 24.139
370.423, 19.894
371.773, 65.626
373.122, 16.271
374.471, 57.615
375.821, 33.650
377.169, 50.585
378.518, 22.403
379.866, 114.908
381.215, 85.871
382.563, 141.811
383.910, 195.622
385.258, 221.913
386.605, 415.702
387.952, 366.805
389.299, 596.494
390.646, 803.211
391.992, 1048.247
393.339, 1551.294
394.685, 2542.337
396.031, 4582.402
397.376, 7495.481
398.722, 12070.603
400.067, 17765.762
401.412, 25171.957
402.757, 30322.189
404.101, 24857.449
405.446, 15841.743
406.790, 9711.057
408.134, 6134.385
409.478, 4012.745
410.821, 2755.114
412.165, 1808.484
413.508, 1319.862
414.851, 1030.237
416.193, 748.609
417.536, 615.978
418.878, 436.344
420.220, 419.707
421.562, 288.992
422.904, 238.200
424.245, 172.333
425.586, 132.391
426.927, 146.375
428.268, 96.288
429.609, 123.130
430.949, 146.904
432.289, 129.614
433.629, 114.260
434.969, 128.846
436.309, 214.373
437.648, 200.847
438.987, 316.269
440.326, 325.643
441.665, 459.971
443.003, 710.255
444.342, 964.497
445.680, 1492.699
447.018, 2409.861
448.355, 4030.986
449.693, 7259.078
451.030, 12350.140
452.367, 19409.178
453.704, 28265.188
455.041, 40162.180
456.377, 42735.160
457.713, 32235.115
459.049, 19027.059
460.385, 11609.987
461.721, 7218.899
463.056, 4665.802
464.391, 3007.690
465.726, 2070.566
467.061, 1441.435
468.395, 1152.295
469.730, 928.147
471.064, 700.990
472.398, 549.578
473.731, 479.643
475.065, 351.448
476.398, 337.237
477.731, 344.013
479.064, 240.774
480.397, 236.523
481.729, 172.258
483.062, 123.980
484.394, 163.691
485.725, 275.396
487.057, 299.095
488.389, 500.792
489.720, 645.488
491.051, 794.188
492.382, 782.890
493.712, 518.601
495.043, 351.316
496.373, 256.039
497.703, 82.767
499.032, 40.684
500.362, 71.251
501.691, 0.007
503.020, 40.239
504.349, 24.511
505.678, 26.728
507.007, 52.041
508.335, 26.835
509.663, 13.774
510.991, 48.750
512.319, 67.663
513.646, 60.677
514.973, 102.831
516.300, 132.230
517.627, 123.797
518.954, 111.259
520.280, 151.943
521.607, 140.459
522.933, 183.234
524.259, 126.535
525.584, 76.454
526.910, 42.186
528.235, 110.508
529.560, 97.101
530.885, 112.704
532.209, 59.826
533.534, 126.092
534.858, 24.912
536.182, 68.851
537.506, 117.449
538.829, 92.003
540.152, 100.786
541.476, 205.079
542.799, 281.126
544.121, 385.178
545.444, 414.870
546.766, 512.407
548.088, 538.784
549.410, 498.073
550.732, 500.667
552.053, 597.413
553.375, 674.359
554.696, 838.417
556.017, 1133.122
557.337, 1612.197
558.658, 2098.323
559.978, 2409.394
561.298, 2416.393
562.618, 2417.606
563.938, 2042.607
565.257, 1649.042
566.576, 1138.709
567.895, 962.882
569.214, 834.059
570.533, 739.920
571.851, 568.164
573.170, 589.654
574.488, 513.067
575.805, 423.447
577.123, 381.797
578.440, 378.114
579.758, 438.400
581.075, 415.654
582.391, 555.859
583.708, 583.764
585.024, 600.492
586.341, 634.241
587.657, 670.822
588.972, 622.427
590.288, 639.106
591.603, 575.691
592.918, 635.189
594.233, 673.725
595.548, 738.596
596.863, 715.389
598.177, 713.253
599.491, 799.088
600.805, 836.894
602.119, 803.671
603.432, 757.420
604.746, 760.141
606.059, 704.835
607.372, 720.499
608.685, 728.137
609.997, 658.746
611.309, 750.327
612.621, 807.880
613.933, 887.406
615.245, 1046.142
616.557, 1267.375
617.868, 1409.818
619.179, 1598.233
620.490, 1839.620
621.801, 2193.979
623.111, 2441.312
624.421, 2735.616
625.731, 2617.895
627.041, 2617.144
628.351, 2287.365
629.660, 1938.560
630.970, 1853.726
632.279, 1469.866
633.588, 1445.978
634.896, 1364.062
636.205, 1605.119
637.513, 1744.148
638.821, 2080.150
640.129, 2547.117
641.437, 3020.860
642.744, 3561.748
644.051, 3746.640
645.358, 3747.506
646.665, 3396.345
647.972, 2881.157
649.278, 2597.941
650.584, 2333.698
651.890, 2073.428
653.196, 1819.131
654.502, 1639.806
655.807, 1367.136
657.113, 1143.267
658.418, 987.503
659.722, 702.397
661.027, 557.571
662.331, 396.543
663.636, 328.967
664.940, 265.009
666.244, 203.923
667.547, 198.757
668.851, 218.714
670.154, 197.725
671.457, 170.682
672.760, 117.789
674.062, 82.990
675.365, 108.126
676.667, 53.181
677.969, 22.332
679.271, 21.433
680.572, 33.503
681.874, 47.356
683.175, 1.026
684.476, 90.561
685.777, 81.985
687.077, 82.585
688.378, 24.237
689.678, 66.183
690.978, 83.955
692.278, 177.268
693.577, 49.583
694.877, 146.785
696.176, 33.258
697.475, 91.771
698.774, 36.971
700.072, 68.812
701.371, 11.434
702.669, 52.732
703.967, 67.106
705.265, 14.438
706.562, 25.057
707.860, 44.612
709.157, 1.235
710.454, 99.904
711.751, 79.669
713.047, 182.520
714.344, 168.817
715.640, 121.628
716.936, 129.853
718.232, 119.187
719.527, 45.622
720.823, 70.120
722.118, 43.693
723.413, 85.326
724.708, 23.039
726.002, 38.200
727.297, 10.585
728.591, 104.591
729.885, 231.747
731.179, 134.884
732.472, 145.001
733.766, 142.100
735.059, 158.179
736.352, 154.241
737.645, 119.285
738.937, 128.310
740.230, 78.320
741.522, 95.314
742.814, 58.293
744.106, 170.257
745.397, 194.206
746.689, 160.141
747.980, 159.062
749.271, 164.970
750.562, 179.865
751.853, 164.746
753.143, 183.613
754.433, 227.465
755.723, 103.304
757.013, 167.130
758.303, 97.943
759.592, 177.743
760.881, 195.530
762.170, 249.304
763.459, 288.067
764.748, 240.819
766.036, 409.560
767.325, 257.289
768.613, 361.007
769.901, 365.716
771.188, 344.414
772.476, 342.103
773.763, 362.611
775.050, 404.451
776.337, 393.112
777.624, 411.764
778.910, 388.408
780.196, 440.043
781.482, 411.671
782.768, 448.292
784.054, 450.905
785.339, 459.512
786.625, 470.112
787.910, 475.177
789.195, 503.292
790.479, 520.874
791.764, 603.450
793.048, 699.021
794.332, 754.587
795.616, 816.149
796.900, 822.707
798.183, 729.262
799.467, 731.813
800.750, 840.360
802.033, 851.905
803.316, 908.447
804.598, 783.987
805.880, 918.524
807.163, 888.059
808.445, 1001.593
809.726, 914.125
811.008, 1040.658
812.289, 1012.192
813.570, 1126.728
814.851, 1232.266
816.132, 1134.811
817.413, 1264.358
818.693, 1352.911
819.973, 1332.468
821.253, 1454.905
822.533, 1720.332
823.813, 1746.851
825.092, 1918.292
826.371, 2020.631
827.650, 2211.758
828.929, 2384.387
830.208, 2639.857
831.486, 2790.746
832.764, 3014.763
834.042, 3269.755
835.320, 3578.450
836.598, 3956.299
837.875, 4228.224
839.152, 4746.430
840.429, 5530.232
841.706, 6178.059
842.983, 7354.616
844.259, 8825.626
845.536, 10516.577
846.812, 12843.758
848.088, 15433.044
849.363, 18882.320
850.639, 23390.828
851.914, 27783.777
853.189, 32334.256
854.464, 36106.004
855.739, 37584.277
857.013, 35565.062
858.288, 32183.023
859.562, 28135.109
860.836, 23853.881
862.110, 19196.496
863.383, 16256.907
864.656, 13288.203
865.930, 11001.843
867.203, 9274.107
868.475, 7989.320
869.748, 6832.578
871.020, 6219.415
872.292, 5505.017
873.564, 5155.334
874.836, 4620.216
876.108, 4287.859
877.379, 4193.994
878.650, 3908.121
879.922, 3742.561
881.192, 3516.613
882.463, 3547.417
883.733, 3347.296
885.004, 3319.202
886.274, 3246.138
887.544, 3354.103
888.813, 3330.097
890.083, 3487.121
891.352, 3506.174
892.621, 3587.257
893.890, 3683.356
895.159, 3745.500
896.427, 3862.625
897.695, 4089.281
898.964, 4396.134
900.232, 4640.461
901.499, 4923.826
902.767, 5283.221
904.034, 5547.647
905.301, 5952.107
906.568, 6447.597
907.835, 6861.119
909.102, 7389.674
910.368, 7932.262
911.634, 8805.891
912.900, 9762.565
914.166, 11089.306
915.432, 12406.077
916.697, 13840.880
917.962, 16344.720
919.227, 18612.590
920.492, 21532.494
921.757, 24566.434
923.021, 27799.406
924.285, 30834.414
925.550, 33092.453
926.813, 34744.531
928.077, 34724.641
929.341, 33693.777
930.604, 32048.961
931.867, 29078.176
933.130, 27039.428
934.393, 25693.707
935.655, 23301.031
936.918, 21634.387
938.180, 18868.777
939.442, 15823.204
940.703, 13184.664
941.965, 10996.163
943.226, 8956.694
944.488, 7794.263
945.749, 6697.868
947.009, 5971.511
948.270, 5330.188
949.530, 4754.900
950.791, 4316.650
952.051, 3933.437
953.311, 3422.259
954.570, 3329.118
955.830, 2909.014
957.089, 2653.945
958.348, 2456.914
959.607, 2156.920
960.866, 2059.962
962.124, 1885.042
963.383, 1742.158
964.641, 1702.311
965.899, 1538.500
967.156, 1449.728
968.414, 1414.992
969.671, 1191.292
970.928, 1127.631
972.185, 990.005
973.442, 882.418
974.699, 918.868
975.955, 788.355
977.211, 651.880
978.468, 684.443
979.723, 519.046
980.979, 552.688
982.234, 647.369
983.490, 502.090
984.745, 605.856
986.000, 650.669
987.254, 645.542
988.509, 758.275
989.763, 650.261
991.017, 574.562
992.271, 454.835
993.525, 513.834
994.779, 569.872
996.032, 654.061
997.285, 880.796
998.538, 1117.476
999.791, 1995.003
1001.044, 2653.487
1002.296, 3189.956
1003.548, 2894.320
1004.800, 2109.169
1006.052, 1719.052
1007.304, 1588.450
1008.555, 1536.835
1009.807, 1625.019
1011.058, 1663.042
1012.309, 1590.110
1013.559, 1403.229
1014.810, 1239.387
1016.060, 1217.610
1017.310, 1159.893
1018.560, 1043.261
1019.810, 1178.710
1021.060, 1262.229
1022.309, 1187.817
1023.558, 1249.473
1024.807, 1221.177
1026.056, 1007.934
1027.305, 917.737
1028.553, 768.596
1029.801, 757.496
1031.049, 582.421
1032.297, 427.383
1033.545, 424.370
1034.793, 308.383
1036.040, 274.420
1037.287, 255.484
1038.534, 195.571
1039.781, 225.683
1041.027, 185.820
1042.274, 166.980
1043.520, 142.165
1044.766, 113.374
1046.012, 76.375
1047.257, 101.598
1048.503, 158.004
1049.748, 176.543
1050.993, 163.897
1052.238, 206.117
1053.483, 111.498
1054.727, 112.902
1055.971, 88.328
1057.216, 67.775
1058.459, 87.245
1059.703, 84.521
1060.947, 89.954
1062.190, 129.193
1063.433, 115.943
1064.676, 149.535
1065.919, 165.146
1067.162, 295.777
1068.404, 169.438
1069.646, 341.119
1070.888, 401.830
1072.130, 362.558
1073.372, 300.304
1074.613, 534.077
1075.855, 444.875
1077.096, 491.689
1078.337, 624.521
1079.578, 657.370
1080.818, 804.235
1082.059, 888.118
1083.299, 931.017
1084.539, 834.931
1085.779, 907.860
1087.018, 598.806
1088.258, 624.765
1089.497, 499.740
1090.736, 389.729
1091.975, 397.733
1093.213, 292.751
1094.452, 314.782
1095.690, 143.828
1096.928, 152.886
1098.166, 175.958
1099.404, 167.042
1100.642, 156.056
1101.879, 151.739
1103.116, 110.369
1104.353, 142.500
1105.590, 122.644
1106.827, 162.796
1108.063, 225.959
1109.299, 299.133
1110.536, 307.315
1111.771, 300.391
1113.007, 212.708
1114.243, 221.917
1115.478, 145.134
1116.713, 96.359
1117.948, 76.592
1119.183, 89.831
1120.418, 120.078
1121.652, 417.331
1122.886, 397.589
1124.120, 375.854
1125.354, 159.124
1126.588, 259.399
1127.821, 102.680
1129.055, 178.963
1130.288, 133.252
1131.521, 50.549
1132.753, 77.849
1133.986, 73.152
1135.218, 155.457
1136.450, 55.234
1137.682, 42.050
1138.914, 108.665
1140.146, 105.438
1141.377, 114.286
1142.609, 176.216
1143.840, 48.266
1145.071, 150.413
1146.301, 146.682
1147.532, 126.063
1148.762, 186.533
1149.992, 216.080
1151.222, 84.683
1152.452, 106.307
1153.682, 152.958
1154.911, 79.652
1156.140, 93.368
1157.369, 88.110
1158.598, 35.122
1159.827, 40.355
1161.055, 94.590
1162.284, 68.826
1163.512, 69.063
1164.740, 121.300
1165.967, 124.461
1167.195, 130.752
1168.422, 155.931
1169.650, 170.583
1170.877, 194.228
1172.103, 212.373
1173.330, 266.512
1174.557, 277.636
1175.783, 279.508
1177.009, 265.451
1178.235, 252.797
1179.461, 214.837
1180.686, 178.869
1181.912, 194.892
1183.137, 231.908
1184.362, 68.914
1185.587, 138.910
1186.811, 151.897
1188.036, 92.874
1189.260, 119.840
1190.484, 163.795
1191.708, 114.738
1192.932, 19.326
1194.155, 30.878
1195.378, 39.055
1196.602, 8.039
1197.825, 36.920
1199.047, 84.521
1200.270, 161.546
1201.492, 170.898
1202.715, 137.701
1203.937, 160.502
1205.159, 112.487
1206.380, 124.143
1207.602, 26.836
1208.823, 6.315
1210.044, 45.644
1211.265, 136.925
1212.486, 140.494
1213.707, 151.409
1214.927, 263.697
1216.147, 211.334
1217.367, 361.572
1218.587, 324.068
1219.807, 309.575
1221.027, 268.024
1222.246, 263.019
1223.465, 140.727
1224.684, 242.307
1225.903, 273.848
1227.121, 260.260
1228.340, 409.974
1229.558, 376.361
1230.776, 332.736
1231.994, 361.101
1233.212, 458.454
1234.429, 567.796
1235.646, 673.127
1236.864, 788.446
1238.081, 774.754
1239.297, 825.051
1240.514, 834.332
1241.730, 754.597
1242.947, 701.820
1244.163, 616.022
1245.378, 737.207
1246.594, 651.376
1247.810, 745.531
1249.025, 772.590
1250.240, 838.628
1251.455, 821.600
1252.670, 839.503
1253.885, 722.349
1255.099, 745.136
1256.313, 715.947
1257.527, 689.741
1258.741, 702.444
1259.955, 731.119
1261.168, 746.799
1262.382, 779.414
1263.595, 904.996
1264.808, 835.542
1266.021, 991.054
1267.233, 1077.526
1268.446, 1125.963
1269.658, 1178.368
1270.870, 1252.743
1272.082, 1315.085
1273.294, 1350.398
1274.505, 1379.682
1275.716, 1341.937
1276.928, 1287.986
1278.139, 1290.191
1279.349, 1286.374
1280.560, 1193.538
1281.770, 1143.571
1282.981, 1029.187
1284.191, 1023.071
1285.401, 941.190
1286.610, 911.772
1287.820, 875.391
1289.029, 846.723
1290.239, 898.387
1291.448, 879.114
1292.656, 861.893
1293.865, 1009.771
1295.073, 1156.597
1296.282, 1054.979
1297.490, 1041.332
1298.698, 1038.658
1299.906, 921.955
1301.113, 885.223
1302.320, 893.461
1303.528, 828.670
1304.735, 893.850
1305.942, 911.001
1307.148, 1049.120
1308.355, 990.209
1309.561, 1231.267
1310.767, 1171.292
1311.973, 1273.667
1313.179, 1147.035
1314.384, 1375.668
1315.590, 1215.348
1316.795, 1190.983
1318.000, 1266.578
1319.205, 1308.864
1320.410, 1321.312
1321.614, 1309.813
1322.819, 1312.740
1324.023, 1225.843
1325.227, 1078.883
1326.431, 1001.839
1327.634, 793.732
1328.838, 721.572
1330.041, 650.355
1331.244, 474.083
1332.447, 372.756
1333.650, 248.371
1334.852, 183.062
1336.055, 122.277
1337.257, 117.856
1338.459, 59.228
1339.661, 75.536
1340.862, 78.780
1342.064, 15.962
1343.265, 27.083
1344.466, 66.138
1345.667, 49.130
1346.868, 67.170
1348.068, 103.919
1349.269, 68.716
1350.469, 137.445
1351.669, 130.107
1352.869, 72.701
1354.069, 106.209
1355.268, 54.355
1356.468, 140.032
1357.667, 44.434
1358.866, 20.875
1360.065, 84.334
1361.263, 20.840
1362.462, 131.383
1363.660, 109.605
1364.858, 8.238
1366.056, 5.147
1367.254, 166.875
1368.451, 83.829
1369.649, 90.710
1370.846, 200.572
1372.043, 55.660
1373.240, 189.761
1374.436, 273.846
1375.633, 285.235
1376.829, 272.608
1378.025, 265.973
1379.221, 399.334
1380.417, 370.699
1381.613, 331.073
1382.808, 440.464
1384.003, 406.904
1385.199, 461.181
1386.393, 344.091
1387.588, 356.176
1388.783, 438.455
1389.977, 383.026
1391.171, 367.718
1392.365, 350.506
1393.559, 374.926
1394.753, 279.781
1395.946, 238.338
1397.140, 153.218
1398.333, 158.224
1399.526, 98.852
1400.719, 60.872
1401.911, 88.154
1403.104, 135.104
1404.296, 78.670
1405.488, 245.789
1406.680, 102.418
1407.872, 247.734
1409.063, 241.768
1410.255, 166.157
1411.446, 241.127
1412.637, 89.751
1413.828, 83.381
1415.018, 196.041
1416.209, 134.714
1417.399, 186.918
1418.589, 135.643
1419.779, 5.258
1420.969, 115.372
1422.159, 84.378
1423.348, 150.910
1424.537, 61.162
1425.726, 0.014
1426.915, 81.881
1428.104, 0.000
##END=



