##NAMES=Topaz
##RRUFFID=R040121
##IDEAL CHEMISTRY=Al_2_SiO_4_F_2_
##LOCALITY=Tepetate, San Luis Potosi, Mexico
##OWNER=RRUFF
##SOURCE=University of Arizona Mineral Museum
##DESCRIPTION=Fragments of a prismatic single crystal
##STATUS=The identification of this mineral has been confirmed by X-ray diffraction and chemical analysis
##URL=rruff.info/R040121
##MEASURED CHEMISTRY=Al_2.00_(Si_0.99_Al_0.02_)(F_0.82_(OH)_0.18_)_2_
##PIN_ID=L00170
##ORIENTATION=Laser parallel to -c* (0 0 -1). Fiducial mark perpendicular to laser is parallel to a [1 0 0]
94.768, 0.000
96.161, 152.762
97.554, 58.014
98.947, 142.024
100.340, 165.804
101.732, 115.965
103.124, 140.896
104.516, 186.904
105.908, 318.910
107.300, 149.796
108.691, 282.017
110.082, 301.588
111.473, 259.439
112.864, 426.337
114.254, 625.283
115.644, 775.832
117.034, 856.739
118.424, 834.266
119.813, 912.297
121.203, 606.223
122.592, 384.227
123.981, 174.693
125.369, 128.338
126.758, 24.169
128.146, 46.576
129.534, 27.120
130.922, 6.021
132.309, 72.283
133.696, 92.378
135.083, 163.104
136.470, 168.334
137.857, 141.170
139.243, 211.969
140.630, 170.523
142.016, 340.115
143.401, 372.890
144.787, 452.444
146.172, 577.944
147.557, 869.221
148.942, 1099.766
150.327, 1409.498
151.711, 1942.916
153.096, 2732.828
154.480, 2675.217
155.863, 1890.861
157.247, 1153.090
158.630, 840.906
160.013, 548.853
161.396, 410.280
162.779, 342.473
164.161, 284.623
165.544, 285.803
166.926, 205.919
168.308, 159.916
169.689, 131.807
171.070, 183.587
172.452, 72.263
173.833, 112.838
175.213, 102.318
176.594, 29.713
177.974, 44.250
179.354, 24.604
180.734, 53.091
182.114, 13.672
183.493, 1.009
184.872, 38.938
186.251, 41.557
187.630, 63.928
189.008, 38.113
190.387, 42.169
191.765, 43.151
193.143, 42.120
194.520, 30.131
195.898, 71.224
197.275, 50.413
198.652, 39.696
200.029, 37.494
201.405, 14.011
202.782, 30.867
204.158, 29.520
205.534, 69.087
206.909, 9.453
208.285, 66.417
209.660, 87.192
211.035, 59.176
212.410, 96.279
213.784, 46.548
215.159, 65.617
216.533, 108.485
217.907, 172.147
219.281, 162.589
220.654, 204.781
222.027, 390.733
223.400, 467.414
224.773, 640.802
226.146, 886.926
227.518, 1579.798
228.891, 2573.406
230.263, 4269.798
231.634, 7301.985
233.006, 12184.412
234.377, 18661.045
235.748, 22654.893
237.119, 25615.602
238.490, 25069.295
239.860, 29090.424
241.231, 19670.725
242.601, 11657.469
243.970, 6894.795
245.340, 4308.026
246.709, 2963.248
248.079, 2104.464
249.448, 1644.674
250.816, 1425.880
252.185, 1330.082
253.553, 1483.280
254.921, 1718.477
256.289, 2179.670
257.657, 3229.447
259.024, 5513.047
260.391, 9655.297
261.758, 15228.970
263.125, 23026.971
264.492, 34328.730
265.858, 48470.715
267.224, 52127.926
268.590, 36165.855
269.956, 21930.646
271.321, 13172.244
272.687, 9209.211
274.052, 7778.274
275.416, 7482.039
276.781, 6742.740
278.146, 6518.578
279.510, 8105.519
280.874, 10861.030
282.237, 15155.467
283.601, 21276.184
284.964, 27117.652
286.327, 25418.680
287.690, 17069.693
289.053, 10292.402
290.416, 6397.369
291.778, 4064.870
293.140, 2841.130
294.502, 1858.611
295.863, 1444.766
297.225, 1125.747
298.586, 1019.402
299.947, 869.171
301.308, 807.426
302.668, 714.824
304.029, 755.184
305.389, 699.440
306.749, 684.362
308.108, 721.885
309.468, 571.257
310.827, 659.621
312.186, 625.869
313.545, 762.092
314.903, 670.021
316.262, 705.994
317.620, 706.745
318.978, 773.333
320.336, 835.001
321.693, 1033.511
323.051, 1378.958
324.408, 2121.681
325.765, 3420.843
327.121, 5187.214
328.478, 7666.118
329.834, 11443.052
331.190, 15379.323
332.546, 14192.050
333.902, 9632.459
335.257, 5733.551
336.612, 3569.013
337.967, 2411.259
339.322, 1642.377
340.677, 1285.873
342.031, 981.913
343.385, 785.596
344.739, 655.981
346.093, 679.509
347.446, 649.031
348.799, 756.113
350.153, 888.093
351.505, 1121.730
352.858, 1678.043
354.210, 2393.160
355.563, 3627.269
356.915, 5630.496
358.267, 6018.527
359.618, 4168.042
360.969, 2409.914
362.321, 1262.511
363.672, 808.016
365.022, 534.928
366.373, 328.347
367.723, 217.772
369.073, 130.908
370.423, 147.743
371.773, 95.890
373.122, 160.318
374.471, 178.223
375.821, 261.813
377.169, 457.793
378.518, 558.050
379.866, 804.881
381.215, 995.255
382.563, 864.587
383.910, 575.290
385.258, 475.047
386.605, 483.142
387.952, 344.995
389.299, 462.894
390.646, 424.854
391.992, 519.818
393.339, 643.798
394.685, 1063.791
396.031, 1843.801
397.376, 2729.812
398.722, 4561.849
400.067, 6765.892
401.412, 9809.976
402.757, 11596.073
404.101, 9306.189
405.446, 5946.328
406.790, 3684.479
408.134, 2302.629
409.478, 1466.793
410.821, 973.959
412.165, 640.117
413.508, 523.265
414.851, 475.405
416.193, 295.956
417.536, 361.650
418.878, 119.756
420.220, 90.843
421.562, 13.905
422.904, 38.857
424.245, 64.702
425.586, 6.556
426.927, 10.081
428.268, 74.374
429.609, 108.939
430.949, 60.372
432.289, 14.409
433.629, 23.282
434.969, 46.246
436.309, 22.305
437.648, 54.450
438.987, 8.330
440.326, 66.033
441.665, 25.664
443.003, 142.240
444.342, 176.753
445.680, 354.218
447.018, 718.630
448.355, 1226.995
449.693, 2216.313
451.030, 3794.591
452.367, 6170.829
453.704, 9382.034
455.041, 13446.209
456.377, 14004.354
457.713, 10192.478
459.049, 6089.570
460.385, 3764.638
461.721, 2404.681
463.056, 1487.699
464.391, 946.417
465.726, 740.296
467.061, 533.938
468.395, 392.510
469.730, 385.234
471.064, 318.325
472.398, 337.782
473.731, 230.091
475.065, 256.932
476.398, 199.405
477.731, 200.016
479.064, 203.621
480.397, 152.361
481.729, 163.075
483.062, 135.763
484.394, 246.430
485.725, 234.084
487.057, 425.728
488.389, 575.366
489.720, 778.999
491.051, 1033.628
492.382, 1266.256
493.712, 1386.882
495.043, 1384.511
496.373, 1183.138
497.703, 873.770
499.032, 653.404
500.362, 518.040
501.691, 455.685
503.020, 433.336
504.349, 454.073
505.678, 391.962
507.007, 494.011
508.335, 543.341
509.663, 729.519
510.991, 976.915
512.319, 1299.227
513.646, 1973.816
514.973, 2893.318
516.300, 4317.817
517.627, 5882.390
518.954, 7465.807
520.280, 8207.370
521.607, 6835.162
522.933, 4835.316
524.259, 3227.227
525.584, 2183.385
526.910, 1563.893
528.235, 1096.337
529.560, 889.196
530.885, 696.953
532.209, 560.112
533.534, 471.007
534.858, 460.174
536.182, 468.233
537.506, 475.703
538.829, 513.904
540.152, 707.910
541.476, 1095.970
542.799, 1473.822
544.121, 2373.233
545.444, 3309.104
546.766, 4000.451
548.088, 3552.494
549.410, 2543.747
550.732, 1805.697
552.053, 1359.637
553.375, 1203.235
554.696, 1333.004
556.017, 1582.919
557.337, 2058.084
558.658, 2606.828
559.978, 3113.455
561.298, 3399.611
562.618, 3163.322
563.938, 2660.160
565.257, 2096.042
566.576, 1483.445
567.895, 1266.017
569.214, 1022.073
570.533, 879.824
571.851, 670.478
573.170, 684.096
574.488, 597.435
575.805, 562.226
577.123, 508.424
578.440, 565.500
579.758, 557.766
581.075, 550.453
582.391, 735.177
583.708, 746.133
585.024, 686.583
586.341, 800.995
587.657, 763.495
588.972, 694.995
590.288, 574.830
591.603, 506.071
592.918, 554.220
594.233, 489.544
595.548, 546.639
596.863, 527.933
598.177, 499.368
599.491, 581.855
600.805, 515.455
602.119, 456.232
603.432, 567.914
604.746, 576.445
606.059, 481.900
607.372, 495.374
608.685, 533.895
609.997, 502.311
611.309, 492.699
612.621, 599.058
613.933, 720.388
615.245, 813.691
616.557, 913.965
617.868, 1006.211
619.179, 1062.429
620.490, 1121.618
621.801, 1375.780
623.111, 1414.915
624.421, 1577.021
625.731, 1415.102
627.041, 1472.156
628.351, 1296.182
629.660, 1176.184
630.970, 1241.160
632.279, 1143.777
633.588, 1137.487
634.896, 1067.938
636.205, 1091.373
637.513, 1159.144
638.821, 1167.002
640.129, 1354.225
641.437, 1489.314
642.744, 1586.848
644.051, 1608.310
645.358, 1596.987
646.665, 1514.637
647.972, 1341.259
649.278, 1227.854
650.584, 1066.422
651.890, 1015.962
653.196, 909.475
654.502, 759.959
655.807, 638.417
657.113, 592.846
658.418, 479.249
659.722, 345.623
661.027, 245.969
662.331, 209.287
663.636, 173.575
664.940, 107.832
666.244, 148.056
667.547, 100.248
668.851, 125.406
670.154, 62.531
671.457, 87.620
672.760, 91.675
674.062, 77.696
675.365, 2.318
676.667, 87.614
677.969, 37.512
679.271, 2.373
680.572, 31.182
681.874, 1.953
683.175, 32.328
684.476, 22.674
685.777, 35.080
687.077, 32.090
688.378, 26.079
689.678, 33.667
690.978, 20.317
692.278, 61.024
693.577, 84.191
694.877, 65.627
696.176, 22.471
697.475, 80.468
698.774, 2.501
700.072, 39.575
701.371, 31.721
702.669, 87.929
703.967, 27.230
705.265, 24.589
706.562, 38.006
707.860, 69.488
709.157, 81.051
710.454, 132.699
711.751, 72.461
713.047, 157.304
714.344, 56.271
715.640, 151.310
716.936, 65.469
718.232, 75.703
719.527, 111.017
720.823, 49.428
722.118, 9.903
723.413, 63.421
724.708, 24.010
726.002, 63.352
727.297, 75.688
728.591, 72.999
729.885, 128.284
731.179, 183.545
732.472, 103.787
733.766, 121.007
735.059, 37.208
736.352, 89.391
737.645, 96.556
738.937, 57.707
740.230, 81.839
741.522, 25.042
742.814, 6.958
744.106, 14.111
745.397, 38.178
746.689, 59.228
747.980, 32.265
749.271, 86.290
750.562, 33.306
751.853, 55.689
753.143, 32.277
754.433, 69.231
755.723, 59.829
757.013, 60.068
758.303, 53.049
759.592, 81.792
760.881, 18.383
762.170, 112.415
763.459, 47.197
764.748, 110.962
766.036, 121.712
767.325, 71.448
768.613, 56.167
769.901, 137.873
771.188, 147.563
772.476, 147.240
773.763, 133.902
775.050, 146.551
776.337, 148.686
777.624, 126.810
778.910, 163.419
780.196, 171.016
781.482, 169.654
782.768, 113.171
784.054, 145.731
785.339, 156.279
786.625, 151.816
787.910, 185.343
789.195, 174.859
790.479, 209.367
791.764, 249.477
793.048, 300.357
794.332, 325.840
795.616, 403.315
796.900, 399.784
798.183, 277.245
799.467, 447.697
800.750, 394.141
802.033, 248.575
803.316, 433.002
804.598, 325.420
805.880, 404.831
807.163, 380.235
808.445, 328.630
809.726, 393.020
811.008, 395.402
812.289, 392.777
813.570, 490.146
814.851, 445.510
816.132, 516.803
817.413, 518.942
818.693, 647.934
819.973, 617.651
821.253, 727.540
822.533, 731.229
823.813, 715.026
825.092, 829.562
826.371, 863.207
827.650, 952.871
828.929, 1119.481
830.208, 1266.262
831.486, 1306.921
832.764, 1300.373
834.042, 1432.480
835.320, 1597.831
836.598, 1768.938
837.875, 1897.912
839.152, 2111.508
840.429, 2516.363
841.706, 2721.460
842.983, 3124.978
844.259, 3812.089
845.536, 4516.104
846.812, 5316.622
848.088, 6346.599
849.363, 7852.968
850.639, 9510.571
851.914, 11233.152
853.189, 13035.975
854.464, 14540.264
855.739, 15083.124
857.013, 14335.526
858.288, 13074.799
859.562, 11662.286
860.836, 9879.979
862.110, 8168.743
863.383, 7010.830
864.656, 5779.729
865.930, 4983.465
867.203, 4954.932
868.475, 4194.352
869.748, 4011.771
871.020, 3549.194
872.292, 3007.045
873.564, 2696.752
874.836, 2558.398
876.108, 2474.507
877.379, 2448.429
878.650, 2410.852
879.922, 2326.561
881.192, 2318.353
882.463, 2356.165
883.733, 2366.239
885.004, 2345.412
886.274, 2368.447
887.544, 2627.584
888.813, 2642.402
890.083, 2834.471
891.352, 2960.603
892.621, 3144.604
893.890, 3354.737
895.159, 3628.045
896.427, 3971.389
897.695, 4318.360
898.964, 4712.663
900.232, 5166.719
901.499, 5615.893
902.767, 6159.326
904.034, 6735.572
905.301, 7364.791
906.568, 8064.102
907.835, 8507.603
909.102, 8971.821
910.368, 9473.354
911.634, 10281.135
912.900, 10930.818
914.166, 11956.589
915.432, 12985.340
916.697, 14613.537
917.962, 16387.838
919.227, 18663.656
920.492, 21098.500
921.757, 24006.365
923.021, 27118.256
924.285, 29756.168
925.550, 32137.107
926.813, 33372.074
928.077, 33285.059
929.341, 32151.066
930.604, 29979.109
931.867, 26873.170
933.130, 24266.256
934.393, 22196.363
935.655, 20111.500
936.918, 18748.660
938.180, 16725.848
939.442, 14589.059
940.703, 12841.294
941.965, 11011.558
943.226, 9368.843
944.488, 8079.155
945.749, 7342.493
947.009, 6319.856
948.270, 5469.246
949.530, 5138.661
950.791, 4645.101
952.051, 4178.568
953.311, 3722.062
954.570, 3425.440
955.830, 3187.126
957.089, 2933.696
958.348, 2656.294
959.607, 2479.919
960.866, 2342.569
962.124, 2154.429
963.383, 2050.800
964.641, 1881.681
965.899, 1848.438
967.156, 1743.222
968.414, 1659.034
969.671, 1627.873
970.928, 1386.740
972.185, 1259.637
973.442, 1167.562
974.699, 1161.518
975.955, 983.503
977.211, 897.519
978.468, 919.563
979.723, 854.639
980.979, 851.745
982.234, 1015.889
983.490, 831.064
984.745, 1052.270
986.000, 1170.514
987.254, 1094.790
988.509, 1129.368
989.763, 983.729
991.017, 877.491
992.271, 863.410
993.525, 897.839
994.779, 940.749
996.032, 1048.995
997.285, 1199.752
998.538, 1462.118
999.791, 2131.078
1001.044, 2562.264
1002.296, 3113.529
1003.548, 3151.846
1004.800, 3181.748
1006.052, 3365.075
1007.304, 3774.554
1008.555, 4559.452
1009.807, 5043.782
1011.058, 5190.855
1012.309, 4947.968
1013.559, 4525.130
1014.810, 3733.340
1016.060, 3306.615
1017.310, 2828.938
1018.560, 2400.330
1019.810, 2274.764
1021.060, 2181.267
1022.309, 1876.813
1023.558, 1740.407
1024.807, 1498.057
1026.056, 1286.746
1027.305, 1080.463
1028.553, 924.390
1029.801, 894.014
1031.049, 693.825
1032.297, 635.656
1033.545, 619.505
1034.793, 494.375
1036.040, 440.262
1037.287, 370.167
1038.534, 356.089
1039.781, 415.032
1041.027, 297.993
1042.274, 294.019
1043.520, 340.015
1044.766, 248.031
1046.012, 254.208
1047.257, 274.645
1048.503, 392.420
1049.748, 282.783
1050.993, 303.349
1052.238, 406.487
1053.483, 156.640
1054.727, 135.812
1055.971, 255.013
1057.216, 112.230
1058.459, 137.463
1059.703, 131.868
1060.947, 128.786
1062.190, 154.484
1063.433, 188.591
1064.676, 174.649
1065.919, 223.122
1067.162, 409.503
1068.404, 256.899
1069.646, 248.312
1070.888, 447.744
1072.130, 386.207
1073.372, 401.683
1074.613, 474.183
1075.855, 537.734
1077.096, 534.377
1078.337, 707.080
1079.578, 800.769
1080.818, 911.346
1082.059, 890.923
1083.299, 1015.504
1084.539, 949.096
1085.779, 925.698
1087.018, 781.311
1088.258, 669.935
1089.497, 496.568
1090.736, 413.211
1091.975, 322.864
1093.213, 290.527
1094.452, 283.199
1095.690, 165.880
1096.928, 151.571
1098.166, 182.271
1099.404, 108.979
1100.642, 142.695
1101.879, 232.420
1103.116, 38.153
1104.353, 226.893
1105.590, 191.641
1106.827, 284.396
1108.063, 254.158
1109.299, 343.926
1110.536, 331.700
1111.771, 174.480
1113.007, 263.267
1114.243, 206.060
1115.478, 131.858
1116.713, 203.661
1117.948, 154.469
1119.183, 131.280
1120.418, 199.096
1121.652, 452.915
1122.886, 623.737
1124.120, 474.563
1125.354, 299.393
1126.588, 238.224
1127.821, 84.057
1129.055, 215.892
1130.288, 137.729
1131.521, 123.568
1132.753, 83.408
1133.986, 104.248
1135.218, 119.091
1136.450, 6.067
1137.682, 74.770
1138.914, 76.395
1140.146, 124.625
1141.377, 82.949
1142.609, 168.359
1143.840, 155.894
1145.071, 98.546
1146.301, 122.293
1147.532, 178.146
1148.762, 148.071
1149.992, 132.035
1151.222, 131.033
1152.452, 107.068
1153.682, 144.131
1154.911, 97.235
1156.140, 54.366
1157.369, 11.514
1158.598, 76.331
1159.827, 157.176
1161.055, 117.021
1162.284, 118.866
1163.512, 62.710
1164.740, 140.553
1165.967, 105.394
1167.195, 165.208
1168.422, 210.993
1169.650, 220.937
1170.877, 295.537
1172.103, 257.303
1173.330, 331.063
1174.557, 301.792
1175.783, 311.488
1177.009, 250.177
1178.235, 294.859
1179.461, 195.534
1180.686, 109.201
1181.912, 155.859
1183.137, 144.506
1184.362, 96.144
1185.587, 79.772
1186.811, 66.430
1188.036, 191.003
1189.260, 57.604
1190.484, 126.192
1191.708, 149.771
1192.932, 46.339
1194.155, 36.456
1195.378, 7.102
1196.602, 1.376
1197.825, 13.104
1199.047, 159.894
1200.270, 194.340
1201.492, 205.827
1202.715, 189.246
1203.937, 242.650
1205.159, 160.062
1206.380, 61.557
1207.602, 16.043
1208.823, 3.457
1210.044, 18.105
1211.265, 41.856
1212.486, 76.205
1213.707, 157.558
1214.927, 162.167
1216.147, 206.132
1217.367, 263.897
1218.587, 248.297
1219.807, 208.943
1221.027, 133.650
1222.246, 113.884
1223.465, 95.733
1224.684, 86.857
1225.903, 93.290
1227.121, 124.399
1228.340, 128.497
1229.558, 173.584
1230.776, 250.661
1231.994, 309.727
1233.212, 359.783
1234.429, 408.828
1235.646, 525.863
1236.864, 756.887
1238.081, 668.901
1239.297, 661.905
1240.514, 782.888
1241.730, 671.859
1242.947, 642.816
1244.163, 532.761
1245.378, 687.695
1246.594, 639.616
1247.810, 717.524
1249.025, 740.390
1250.240, 868.217
1251.455, 688.988
1252.670, 800.707
1253.885, 667.460
1255.099, 703.039
1256.313, 514.647
1257.527, 612.202
1258.741, 608.163
1259.955, 547.729
1261.168, 592.276
1262.382, 664.717
1263.595, 742.129
1264.808, 760.511
1266.021, 885.861
1267.233, 878.176
1268.446, 1043.458
1269.658, 926.801
1270.870, 1072.023
1272.082, 1143.196
1273.294, 1174.333
1274.505, 1219.514
1275.716, 1258.588
1276.928, 1109.641
1278.139, 1228.771
1279.349, 1012.767
1280.560, 1005.058
1281.770, 971.983
1282.981, 841.416
1284.191, 850.895
1285.401, 777.211
1286.610, 743.771
1287.820, 748.545
1289.029, 708.974
1290.239, 680.690
1291.448, 700.799
1292.656, 793.138
1293.865, 829.686
1295.073, 1004.722
1296.282, 921.734
1297.490, 886.720
1298.698, 906.679
1299.906, 693.612
1301.113, 729.520
1302.320, 694.399
1303.528, 701.252
1304.735, 620.079
1305.942, 708.877
1307.148, 741.647
1308.355, 749.390
1309.561, 1005.045
1310.767, 981.729
1311.973, 1117.798
1313.179, 1050.412
1314.384, 1163.054
1315.590, 971.470
1316.795, 1009.852
1318.000, 1015.015
1319.205, 1017.004
1320.410, 1014.206
1321.614, 1016.138
1322.819, 1070.160
1324.023, 888.095
1325.227, 936.942
1326.431, 740.506
1327.634, 566.803
1328.838, 582.454
1330.041, 438.092
1331.244, 305.682
1332.447, 249.221
1333.650, 201.708
1334.852, 127.143
1336.055, 120.522
1337.257, 89.422
1338.459, 17.114
1339.661, 80.323
1340.862, 83.476
1342.064, 101.104
1343.265, 32.604
1344.466, 128.575
1345.667, 73.487
1346.868, 102.339
1348.068, 97.130
1349.269, 79.860
1350.469, 55.526
1351.669, 53.131
1352.869, 63.672
1354.069, 50.672
1355.268, 10.451
1356.468, 56.902
1357.667, 2.512
1358.866, 19.556
1360.065, 3.475
1361.263, 9.709
1362.462, 51.609
1363.660, 16.437
1364.858, 24.575
1366.056, 64.358
1367.254, 82.233
1368.451, 85.050
1369.649, 118.810
1370.846, 120.700
1372.043, 145.653
1373.240, 237.568
1374.436, 177.658
1375.633, 155.807
1376.829, 259.942
1378.025, 273.084
1379.221, 339.234
1380.417, 353.391
1381.613, 335.559
1382.808, 385.744
1384.003, 431.721
1385.199, 382.840
1386.393, 302.923
1387.588, 312.971
1388.783, 311.197
1389.977, 301.636
1391.171, 198.254
1392.365, 262.552
1393.559, 248.621
1394.753, 117.711
1395.946, 55.395
1397.140, 24.039
1398.333, 108.303
1399.526, 45.413
1400.719, 52.322
1401.911, 0.013
1403.104, 37.362
1404.296, 34.743
1405.488, 154.058
1406.680, 97.389
1407.872, 103.273
1409.063, 194.570
1410.255, 136.441
1411.446, 136.613
1412.637, 17.703
1413.828, 159.319
1415.018, 175.909
1416.209, 87.096
1417.399, 15.774
1418.589, 132.331
1419.779, 29.955
1420.969, 7.440
1422.159, 26.321
1423.348, 1.271
1424.537, 19.976
1425.726, 22.662
1426.915, 0.000
##END=



