##NAMES=Topaz
##RRUFFID=R040121
##IDEAL CHEMISTRY=Al_2_SiO_4_F_2_
##LOCALITY=Tepetate, San Luis Potosi, Mexico
##OWNER=RRUFF
##SOURCE=University of Arizona Mineral Museum
##DESCRIPTION=Fragments of a prismatic single crystal
##STATUS=The identification of this mineral has been confirmed by X-ray diffraction and chemical analysis
##URL=rruff.info/R040121
##MEASURED CHEMISTRY=Al_2.00_(Si_0.99_Al_0.02_)(F_0.82_(OH)_0.18_)_2_
##PIN_ID=L00473
##ORIENTATION=Laser parallel to a* (1 0 0). Fiducial mark perpendicular to laser is parallel to b [0 1 0]
93.375, 0.000
94.768, 0.801
96.161, 64.867
97.554, 85.325
98.947, 94.527
100.340, 57.069
101.732, 143.292
103.124, 81.690
104.516, 141.377
105.908, 165.023
107.300, 145.069
108.691, 199.802
110.082, 162.443
111.473, 220.025
112.864, 443.759
114.254, 990.681
115.644, 1656.403
117.034, 1771.622
118.424, 1191.082
119.813, 723.379
121.203, 268.395
122.592, 158.140
123.981, 130.657
125.369, 10.979
126.758, 18.133
128.146, 40.144
129.534, 113.032
130.922, 35.001
132.309, 34.294
133.696, 9.409
135.083, 44.690
136.470, 39.663
137.857, 90.585
139.243, 62.729
140.630, 91.801
142.016, 68.581
143.401, 185.239
144.787, 336.237
146.172, 654.083
147.557, 1182.803
148.942, 1782.086
150.327, 2752.404
151.711, 4046.754
153.096, 5627.133
154.480, 5806.538
155.863, 4239.967
157.247, 2469.418
158.630, 1427.884
160.013, 870.369
161.396, 515.876
162.779, 391.402
164.161, 346.939
165.544, 243.520
166.926, 73.207
168.308, 117.907
169.689, 47.612
171.070, 116.320
172.452, 72.030
173.833, 46.743
175.213, 31.458
176.594, 43.816
177.974, 19.940
179.354, 46.728
180.734, 40.457
182.114, 21.614
183.493, 16.252
184.872, 32.158
186.251, 27.146
187.630, 8.739
189.008, 33.440
190.387, 75.619
191.765, 5.796
193.143, 15.959
194.520, 33.115
195.898, 53.264
197.275, 52.389
198.652, 44.458
200.029, 96.521
201.405, 34.586
202.782, 93.667
204.158, 148.766
205.534, 169.871
206.909, 105.973
208.285, 172.069
209.660, 206.162
211.035, 99.250
212.410, 163.334
213.784, 150.414
215.159, 176.489
216.533, 235.559
217.907, 288.603
219.281, 372.620
220.654, 370.588
222.027, 453.547
223.400, 618.487
224.773, 741.439
226.146, 977.530
227.518, 1334.770
228.891, 1971.894
230.263, 3438.932
231.634, 6580.927
233.006, 11698.837
234.377, 18226.748
235.748, 27561.996
237.119, 40999.184
238.490, 56102.617
239.860, 56381.859
241.231, 40660.969
242.601, 24385.971
243.970, 14073.987
245.340, 8390.847
246.709, 5412.710
248.079, 3778.576
249.448, 2604.445
250.816, 2171.316
252.185, 1981.188
253.553, 1955.063
254.921, 2182.940
256.289, 2575.818
257.657, 3546.700
259.024, 5835.623
260.391, 10385.370
261.758, 16556.211
263.125, 24887.041
264.492, 38017.859
265.858, 53465.641
267.224, 60838.387
268.590, 45488.262
269.956, 27915.072
271.321, 15703.705
272.687, 9631.521
274.052, 6776.146
275.416, 5895.824
276.781, 6648.667
278.146, 9160.125
279.510, 14559.450
280.874, 21280.170
282.237, 31708.992
283.601, 44983.230
284.964, 56076.508
286.327, 54739.691
287.690, 37605.871
289.053, 22712.055
290.416, 13384.683
291.778, 8077.452
293.140, 5225.449
294.502, 3289.609
295.863, 2288.565
297.225, 1689.514
298.586, 1316.211
299.947, 1081.093
301.308, 847.537
302.668, 746.480
304.029, 729.308
305.389, 660.233
306.749, 524.066
308.108, 544.088
309.468, 511.106
310.827, 510.978
312.186, 498.998
313.545, 632.218
314.903, 602.435
316.262, 612.537
317.620, 565.510
318.978, 510.506
320.336, 367.483
321.693, 391.463
323.051, 469.444
324.408, 386.427
325.765, 586.410
327.121, 770.396
328.478, 1119.383
329.834, 1565.371
331.190, 2037.318
332.546, 1967.307
333.902, 1416.154
335.257, 943.145
336.612, 613.100
337.967, 413.953
339.322, 308.720
340.677, 254.211
342.031, 235.893
343.385, 214.758
344.739, 246.520
346.093, 122.484
347.446, 117.148
348.799, 57.957
350.153, 90.727
351.505, 97.560
352.858, 68.378
354.210, 54.364
355.563, 69.910
356.915, 25.593
358.267, 27.414
359.618, 25.317
360.969, 64.217
362.321, 16.097
363.672, 97.088
365.022, 31.926
366.373, 39.915
367.723, 88.900
369.073, 92.892
370.423, 65.881
371.773, 78.467
373.122, 84.909
374.471, 50.922
375.821, 1.933
377.169, 19.028
378.518, 5.999
379.866, 39.958
381.215, 2.921
382.563, 15.128
383.910, 15.177
385.258, 55.228
386.605, 8.284
387.952, 24.353
389.299, 65.419
390.646, 22.484
391.992, 171.545
393.339, 276.604
394.685, 551.662
396.031, 1204.718
397.376, 1999.773
398.722, 3319.825
400.067, 5253.868
401.412, 7633.894
402.757, 9286.930
404.101, 7869.963
405.446, 5066.000
406.790, 3191.037
408.134, 2006.073
409.478, 1401.108
410.821, 877.142
412.165, 606.173
413.508, 480.203
414.851, 391.234
416.193, 274.265
417.536, 262.293
418.878, 229.319
420.220, 208.343
421.562, 175.706
422.904, 129.410
424.245, 120.445
425.586, 90.473
426.927, 95.514
428.268, 73.800
429.609, 19.579
430.949, 26.601
432.289, 66.616
433.629, 9.626
434.969, 43.629
436.309, 28.375
437.648, 15.402
438.987, 57.438
440.326, 40.513
441.665, 80.616
443.003, 18.769
444.342, 52.059
445.680, 39.896
447.018, 179.729
448.355, 155.559
449.693, 424.385
451.030, 755.207
452.367, 1315.027
453.704, 1993.845
455.041, 2977.672
456.377, 3148.496
457.713, 2406.318
459.049, 1399.141
460.385, 785.966
461.721, 465.788
463.056, 299.621
464.391, 114.451
465.726, 208.278
467.061, 122.102
468.395, 9.078
469.730, 44.730
471.064, 22.467
472.398, 44.317
473.731, 11.904
475.065, 7.859
476.398, 26.616
477.731, 83.368
479.064, 53.116
480.397, 94.859
481.729, 127.598
483.062, 218.333
484.394, 356.064
485.725, 554.792
487.057, 990.514
488.389, 1512.232
489.720, 2150.946
491.051, 2575.655
492.382, 2363.359
493.712, 1672.060
495.043, 1005.757
496.373, 647.449
497.703, 405.136
499.032, 168.819
500.362, 126.499
501.691, 140.188
503.020, 78.875
504.349, 73.557
505.678, 132.249
507.007, 72.943
508.335, 76.635
509.663, 192.316
510.991, 268.000
512.319, 104.683
513.646, 253.464
514.973, 378.122
516.300, 560.793
517.627, 772.407
518.954, 962.959
520.280, 994.482
521.607, 972.224
522.933, 756.700
524.259, 591.369
525.584, 348.901
526.910, 322.462
528.235, 222.553
529.560, 309.174
530.885, 163.653
532.209, 233.886
533.534, 250.490
534.858, 222.070
536.182, 277.469
537.506, 231.652
538.829, 280.974
540.152, 240.224
541.476, 391.225
542.799, 302.646
544.121, 475.073
545.444, 544.923
546.766, 509.827
548.088, 749.222
549.410, 932.745
550.732, 1146.118
552.053, 1484.733
553.375, 1979.234
554.696, 2799.737
556.017, 4024.224
557.337, 5621.701
558.658, 7576.872
559.978, 9314.481
561.298, 10632.176
562.618, 9695.624
563.938, 7743.354
565.257, 5703.635
566.576, 3971.085
567.895, 2892.562
569.214, 2186.975
570.533, 1597.385
571.851, 1136.778
573.170, 1093.937
574.488, 779.315
575.805, 667.686
577.123, 588.049
578.440, 491.418
579.758, 456.078
581.075, 295.868
582.391, 393.482
583.708, 407.805
585.024, 310.458
586.341, 350.764
587.657, 293.674
588.972, 251.046
590.288, 229.339
591.603, 209.611
592.918, 202.653
594.233, 274.846
595.548, 267.914
596.863, 287.599
598.177, 305.185
599.491, 274.795
600.805, 281.641
602.119, 219.247
603.432, 265.574
604.746, 327.688
606.059, 272.970
607.372, 273.152
608.685, 362.322
609.997, 357.485
611.309, 492.640
612.621, 504.036
613.933, 550.175
615.245, 420.307
616.557, 507.499
617.868, 407.615
619.179, 475.784
620.490, 354.885
621.801, 526.978
623.111, 513.062
624.421, 622.141
625.731, 566.210
627.041, 642.285
628.351, 531.515
629.660, 448.652
630.970, 505.634
632.279, 456.412
633.588, 402.188
634.896, 481.074
636.205, 670.084
637.513, 713.066
638.821, 1054.062
640.129, 1407.050
641.437, 1871.031
642.744, 2218.005
644.051, 2467.972
645.358, 2542.931
646.665, 2124.883
647.972, 1771.829
649.278, 1389.768
650.584, 1035.699
651.890, 940.623
653.196, 637.541
654.502, 669.452
655.807, 428.355
657.113, 426.253
658.418, 389.144
659.722, 306.027
661.027, 240.904
662.331, 219.773
663.636, 166.080
664.940, 155.807
666.244, 119.343
667.547, 112.187
668.851, 119.023
670.154, 31.853
671.457, 129.676
672.760, 141.492
674.062, 1.301
675.365, 50.094
676.667, 62.881
677.969, 31.337
679.271, 77.410
680.572, 45.152
681.874, 85.887
683.175, 85.617
684.476, 6.658
685.777, 95.046
687.077, 77.256
688.378, 6.387
689.678, 107.017
690.978, 44.641
692.278, 97.740
693.577, 91.813
694.877, 38.632
696.176, 24.109
697.475, 47.601
698.774, 32.871
700.072, 3.662
701.371, 8.209
702.669, 44.774
703.967, 65.626
705.265, 102.022
706.562, 62.414
707.860, 12.802
709.157, 131.185
710.454, 30.563
711.751, 45.937
713.047, 38.307
714.344, 2.293
715.640, 7.940
716.936, 27.622
718.232, 8.296
719.527, 3.017
720.823, 6.678
722.118, 18.661
723.413, 9.282
724.708, 22.190
726.002, 19.473
727.297, 20.958
728.591, 7.971
729.885, 42.294
731.179, 21.557
732.472, 68.817
733.766, 12.075
735.059, 50.670
736.352, 21.446
737.645, 19.239
738.937, 11.954
740.230, 68.855
741.522, 25.296
742.814, 88.444
744.106, 7.592
745.397, 41.738
746.689, 52.883
747.980, 58.027
749.271, 65.170
750.562, 54.312
751.853, 34.537
753.143, 6.399
754.433, 8.248
755.723, 3.089
757.013, 74.090
758.303, 56.724
759.592, 53.434
760.881, 3.410
762.170, 1.745
763.459, 23.899
764.748, 25.053
766.036, 4.207
767.325, 61.640
768.613, 94.484
769.901, 78.608
771.188, 27.267
772.476, 110.847
773.763, 3.039
775.050, 132.076
776.337, 68.190
777.624, 25.305
778.910, 99.420
780.196, 105.537
781.482, 4.346
782.768, 11.224
784.054, 3.896
785.339, 63.027
786.625, 12.158
787.910, 74.296
789.195, 106.438
790.479, 70.581
791.764, 130.726
793.048, 74.873
794.332, 25.021
795.616, 88.171
796.900, 95.323
798.183, 49.477
799.467, 54.632
800.750, 52.791
802.033, 99.951
803.316, 180.113
804.598, 159.675
805.880, 161.454
807.163, 157.631
808.445, 117.811
809.726, 110.994
811.008, 221.180
812.289, 106.369
813.570, 195.560
814.851, 146.755
816.132, 128.954
817.413, 113.156
818.693, 209.361
819.973, 138.570
821.253, 156.783
822.533, 215.000
823.813, 186.220
825.092, 276.342
826.371, 251.570
827.650, 231.802
828.929, 306.956
830.208, 257.181
831.486, 218.425
832.764, 239.584
834.042, 275.837
835.320, 280.070
836.598, 378.333
837.875, 405.631
839.152, 358.471
840.429, 430.780
841.706, 497.243
842.983, 440.952
844.259, 681.292
845.536, 654.636
846.812, 776.915
848.088, 715.299
849.363, 881.365
850.639, 1085.381
851.914, 1200.961
853.189, 1243.373
854.464, 1375.462
855.739, 1434.041
857.013, 1489.904
858.288, 1505.432
859.562, 1483.977
860.836, 1374.530
862.110, 1172.983
863.383, 1225.562
864.656, 997.158
865.930, 927.773
867.203, 911.404
868.475, 799.353
869.748, 770.955
871.020, 748.290
872.292, 694.963
873.564, 689.357
874.836, 702.203
876.108, 666.879
877.379, 698.808
878.650, 744.246
879.922, 724.975
881.192, 759.722
882.463, 732.714
883.733, 683.486
885.004, 721.268
886.274, 796.059
887.544, 887.843
888.813, 752.341
890.083, 866.709
891.352, 932.271
892.621, 913.125
893.890, 1015.650
895.159, 941.524
896.427, 991.409
897.695, 1189.303
898.964, 1181.211
900.232, 1180.128
901.499, 1359.062
902.767, 1457.006
904.034, 1379.963
905.301, 1693.019
906.568, 1866.720
907.835, 1863.363
909.102, 2017.252
910.368, 2181.262
911.634, 2477.128
912.900, 2798.157
914.166, 3137.104
915.432, 3614.097
916.697, 3962.222
917.962, 4708.302
919.227, 5245.391
920.492, 5947.249
921.757, 6847.364
923.021, 7974.488
924.285, 8894.556
925.550, 9857.702
926.813, 10603.803
928.077, 11259.972
929.341, 12129.156
930.604, 13312.346
931.867, 15005.551
933.130, 18391.764
934.393, 23499.916
935.655, 29461.916
936.918, 35616.172
938.180, 37017.426
939.442, 33874.699
940.703, 28331.973
941.965, 21875.271
943.226, 16543.572
944.488, 13107.885
945.749, 10340.206
947.009, 8032.537
948.270, 6542.883
949.530, 5441.235
950.791, 4638.601
952.051, 3981.974
953.311, 3280.359
954.570, 3127.780
955.830, 2642.187
957.089, 2391.111
958.348, 2094.537
959.607, 1932.974
960.866, 1745.424
962.124, 1615.885
963.383, 1514.413
964.641, 1407.896
965.899, 1366.390
967.156, 1292.941
968.414, 1168.571
969.671, 1188.095
970.928, 1013.643
972.185, 1016.272
973.442, 905.824
974.699, 933.387
975.955, 871.959
977.211, 783.540
978.468, 887.132
979.723, 744.831
980.979, 692.447
982.234, 860.072
983.490, 566.707
984.745, 873.396
986.000, 727.161
987.254, 657.948
988.509, 687.723
989.763, 642.598
991.017, 618.306
992.271, 627.574
993.525, 558.697
994.779, 610.639
996.032, 556.428
997.285, 644.426
998.538, 569.294
999.791, 904.631
1001.044, 899.040
1002.296, 1109.765
1003.548, 1040.241
1004.800, 908.784
1006.052, 842.254
1007.304, 944.352
1008.555, 1018.893
1009.807, 1086.306
1011.058, 911.441
1012.309, 864.401
1013.559, 721.555
1014.810, 531.279
1016.060, 552.351
1017.310, 532.039
1018.560, 410.167
1019.810, 507.283
1021.060, 542.438
1022.309, 484.580
1023.558, 538.797
1024.807, 508.159
1026.056, 375.198
1027.305, 349.243
1028.553, 272.689
1029.801, 362.851
1031.049, 234.907
1032.297, 246.730
1033.545, 420.797
1034.793, 295.967
1036.040, 233.040
1037.287, 297.260
1038.534, 340.623
1039.781, 322.784
1041.027, 283.621
1042.274, 246.962
1043.520, 296.083
1044.766, 199.271
1046.012, 234.543
1047.257, 158.708
1048.503, 283.661
1049.748, 130.851
1050.993, 249.523
1052.238, 291.714
1053.483, 280.584
1054.727, 323.049
1055.971, 285.080
1057.216, 281.491
1058.459, 221.708
1059.703, 204.819
1060.947, 237.529
1062.190, 178.766
1063.433, 159.507
1064.676, 212.327
1065.919, 146.639
1067.162, 365.879
1068.404, 236.138
1069.646, 175.115
1070.888, 249.398
1072.130, 138.690
1073.372, 185.981
1074.613, 264.371
1075.855, 129.017
1077.096, 184.660
1078.337, 255.027
1079.578, 206.325
1080.818, 269.621
1082.059, 306.918
1083.299, 316.214
1084.539, 305.673
1085.779, 272.165
1087.018, 176.686
1088.258, 226.978
1089.497, 107.268
1090.736, 106.557
1091.975, 202.843
1093.213, 85.126
1094.452, 158.408
1095.690, 37.689
1096.928, 88.967
1098.166, 92.242
1099.404, 118.515
1100.642, 78.784
1101.879, 133.051
1103.116, 7.313
1104.353, 80.572
1105.590, 37.173
1106.827, 67.062
1108.063, 74.297
1109.299, 123.261
1110.536, 89.662
1111.771, 10.316
1113.007, 48.528
1114.243, 125.848
1115.478, 16.049
1116.713, 2.244
1117.948, 56.433
1119.183, 28.615
1120.418, 12.790
1121.652, 215.959
1122.886, 138.122
1124.120, 249.276
1125.354, 88.425
1126.588, 133.565
1127.821, 18.699
1129.055, 88.825
1130.288, 99.943
1131.521, 111.053
1132.753, 40.154
1133.986, 26.248
1135.218, 24.330
1136.450, 111.595
1137.682, 10.408
1138.914, 139.403
1140.146, 37.611
1141.377, 1.658
1142.609, 16.282
1143.840, 11.543
1145.071, 9.370
1146.301, 74.744
1147.532, 1.907
1148.762, 34.106
1149.992, 38.346
1151.222, 17.622
1152.452, 65.909
1153.682, 32.255
1154.911, 41.625
1156.140, 16.024
1157.369, 29.438
1158.598, 31.130
1159.827, 91.690
1161.055, 23.766
1162.284, 64.246
1163.512, 56.655
1164.740, 14.860
1165.967, 21.392
1167.195, 53.041
1168.422, 46.465
1169.650, 53.882
1170.877, 39.287
1172.103, 15.674
1173.330, 98.049
1174.557, 136.414
1175.783, 59.771
1177.009, 21.884
1178.235, 166.438
1179.461, 11.257
1180.686, 99.028
1181.912, 70.304
1183.137, 174.801
1184.362, 62.174
1185.587, 31.523
1186.811, 82.751
1188.036, 40.032
1189.260, 46.190
1190.484, 113.388
1191.708, 90.823
1192.932, 71.978
1194.155, 114.273
1195.378, 12.479
1196.602, 103.883
1197.825, 0.214
1199.047, 113.604
1200.270, 18.999
1201.492, 125.107
1202.715, 92.141
1203.937, 69.479
1205.159, 146.449
1206.380, 51.551
1207.602, 95.820
1208.823, 159.792
1210.044, 31.913
1211.265, 31.073
1212.486, 111.292
1213.707, 17.479
1214.927, 151.866
1216.147, 26.741
1217.367, 142.038
1218.587, 151.742
1219.807, 154.571
1221.027, 111.893
1222.246, 58.955
1223.465, 59.880
1224.684, 119.658
1225.903, 178.425
1227.121, 163.032
1228.340, 197.148
1229.558, 152.877
1230.776, 100.595
1231.994, 93.299
1233.212, 86.991
1234.429, 152.672
1235.646, 202.341
1236.864, 284.996
1238.081, 283.085
1239.297, 154.267
1240.514, 268.885
1241.730, 212.487
1242.947, 177.022
1244.163, 297.531
1245.378, 267.111
1246.594, 334.548
1247.810, 306.474
1249.025, 261.334
1250.240, 241.673
1251.455, 213.966
1252.670, 221.719
1253.885, 163.104
1255.099, 42.251
1256.313, 108.376
1257.527, 64.140
1258.741, 255.458
1259.955, 125.484
1261.168, 182.604
1262.382, 288.524
1263.595, 172.351
1264.808, 182.262
1266.021, 225.123
1267.233, 155.040
1268.446, 272.851
1269.658, 236.628
1270.870, 237.419
1272.082, 273.128
1273.294, 296.809
1274.505, 285.443
1275.716, 275.062
1276.928, 261.653
1278.139, 244.696
1279.349, 233.760
1280.560, 207.110
1281.770, 220.470
1282.981, 196.816
1284.191, 217.316
1285.401, 204.945
1286.610, 184.766
1287.820, 227.924
1289.029, 89.401
1290.239, 220.318
1291.448, 161.802
1292.656, 219.314
1293.865, 185.874
1295.073, 191.821
1296.282, 229.882
1297.490, 209.033
1298.698, 259.389
1299.906, 254.152
1301.113, 194.357
1302.320, 187.682
1303.528, 209.714
1304.735, 147.301
1305.942, 230.030
1307.148, 184.537
1308.355, 41.909
1309.561, 319.208
1310.767, 240.243
1311.973, 436.963
1313.179, 144.258
1314.384, 363.409
1315.590, 203.682
1316.795, 206.030
1318.000, 129.322
1319.205, 275.053
1320.410, 270.759
1321.614, 211.668
1322.819, 238.258
1324.023, 229.809
1325.227, 297.728
1326.431, 292.528
1327.634, 68.160
1328.838, 93.929
1330.041, 97.512
1331.244, 170.160
1332.447, 132.542
1333.650, 115.511
1334.852, 119.053
1336.055, 59.564
1337.257, 159.041
1338.459, 42.514
1339.661, 105.898
1340.862, 57.277
1342.064, 16.625
1343.265, 20.046
1344.466, 52.065
1345.667, 108.318
1346.868, 131.356
1348.068, 4.550
1349.269, 103.722
1350.469, 96.865
1351.669, 55.983
1352.869, 121.077
1354.069, 81.838
1355.268, 28.804
1356.468, 54.224
1357.667, 56.232
1358.866, 32.340
1360.065, 187.450
1361.263, 16.915
1362.462, 7.768
1363.660, 242.518
1364.858, 31.952
1366.056, 59.444
1367.254, 90.020
1368.451, 174.585
1369.649, 138.139
1370.846, 179.769
1372.043, 67.296
1373.240, 175.884
1374.436, 126.450
1375.633, 183.046
1376.829, 125.637
1378.025, 147.223
1379.221, 198.848
1380.417, 247.836
1381.613, 135.803
1382.808, 267.403
1384.003, 277.850
1385.199, 156.639
1386.393, 128.090
1387.588, 165.858
1388.783, 77.979
1389.977, 172.666
1391.171, 156.097
1392.365, 196.385
1393.559, 215.380
1394.753, 218.597
1395.946, 150.645
1397.140, 42.692
1398.333, 94.390
1399.526, 75.149
1400.719, 148.298
1401.911, 79.804
1403.104, 154.938
1404.296, 44.855
1405.488, 92.431
1406.680, 83.629
1407.872, 113.426
1409.063, 148.740
1410.255, 24.313
1411.446, 172.164
1412.637, 104.647
1413.828, 45.099
1415.018, 89.515
1416.209, 101.890
1417.399, 32.350
1418.589, 170.501
1419.779, 158.713
1420.969, 124.983
1422.159, 167.935
1423.348, 94.889
1424.537, 118.503
1425.726, 102.479
1426.915, 1.009
1428.104, 2.106
1429.293, 85.771
1430.481, 0.054
1431.669, 0.000
##END=



