##NAMES=Topaz
##RRUFFID=R040121
##IDEAL CHEMISTRY=Al_2_SiO_4_F_2_
##LOCALITY=Tepetate, San Luis Potosi, Mexico
##OWNER=RRUFF
##SOURCE=University of Arizona Mineral Museum
##DESCRIPTION=Fragments of a prismatic single crystal
##STATUS=The identification of this mineral has been confirmed by X-ray diffraction and chemical analysis
##URL=rruff.info/R040121
##MEASURED CHEMISTRY=Al_2.00_(Si_0.99_Al_0.02_)(F_0.82_(OH)_0.18_)_2_
##PIN_ID=L00213
##ORIENTATION=Laser parallel to -b* (0 -1 0). Fiducial mark perpendicular to laser is parallel to -c [0 0 -1]
90.587, 0.000
91.981, 57.354
93.375, 54.797
94.768, 1.429
96.161, 31.339
97.554, 109.816
98.947, 49.004
100.340, 45.117
101.732, 24.763
103.124, 18.825
104.516, 67.260
105.908, 216.360
107.300, 212.052
108.691, 198.676
110.082, 64.067
111.473, 169.000
112.864, 322.021
114.254, 616.620
115.644, 791.907
117.034, 925.685
118.424, 865.349
119.813, 571.605
121.203, 398.880
122.592, 265.334
123.981, 144.880
125.369, 28.942
126.758, 33.833
128.146, 79.174
129.534, 115.672
130.922, 124.389
132.309, 100.967
133.696, 41.582
135.083, 88.576
136.470, 105.198
137.857, 111.253
139.243, 179.732
140.630, 164.281
142.016, 109.797
143.401, 174.944
144.787, 127.714
146.172, 275.938
147.557, 432.658
148.942, 705.072
150.327, 1366.865
151.711, 2086.427
153.096, 2597.814
154.480, 1875.631
155.863, 874.229
157.247, 439.192
158.630, 208.151
160.013, 160.105
161.396, 112.059
162.779, 110.001
164.161, 20.947
165.544, 46.896
166.926, 35.166
168.308, 23.241
169.689, 28.670
171.070, 52.569
172.452, 3.545
173.833, 5.356
175.213, 13.350
176.594, 65.575
177.974, 53.573
179.354, 12.792
180.734, 30.900
182.114, 7.528
183.493, 5.898
184.872, 10.364
186.251, 18.859
187.630, 38.380
189.008, 19.926
190.387, 46.565
191.765, 39.125
193.143, 16.942
194.520, 36.651
195.898, 17.344
197.275, 18.027
198.652, 70.693
200.029, 38.329
201.405, 45.941
202.782, 3.582
204.158, 96.153
205.534, 100.702
206.909, 99.230
208.285, 136.734
209.660, 107.208
211.035, 51.638
212.410, 63.973
213.784, 102.253
215.159, 29.477
216.533, 154.628
217.907, 146.716
219.281, 178.731
220.654, 136.732
222.027, 230.834
223.400, 245.011
224.773, 332.883
226.146, 433.782
227.518, 575.653
228.891, 835.878
230.263, 1383.844
231.634, 2643.723
233.006, 4981.455
234.377, 9538.231
235.748, 17649.412
237.119, 28434.725
238.490, 34731.871
239.860, 26388.807
241.231, 14310.516
242.601, 7191.163
243.970, 3971.803
245.340, 2411.439
246.709, 1595.071
248.079, 1313.699
249.448, 1000.324
250.816, 929.946
252.185, 908.565
253.553, 953.181
254.921, 1154.794
256.289, 1416.690
257.657, 2006.587
259.024, 3436.320
260.391, 6464.920
261.758, 12085.527
263.125, 23432.010
264.492, 40993.531
265.858, 54389.004
267.224, 47039.508
268.590, 25485.537
269.956, 12245.698
271.321, 6218.952
272.687, 3544.180
274.052, 2451.096
275.416, 1955.171
276.781, 1841.931
278.146, 2154.690
279.510, 3191.248
280.874, 5156.798
282.237, 8432.141
283.601, 12022.793
284.964, 13027.237
286.327, 9545.462
287.690, 5170.090
289.053, 2700.411
290.416, 1653.154
291.778, 1009.734
293.140, 761.116
294.502, 576.292
295.863, 451.840
297.225, 404.012
298.586, 326.484
299.947, 250.250
301.308, 274.856
302.668, 254.084
304.029, 282.232
305.389, 250.911
306.749, 209.369
308.108, 274.144
309.468, 194.803
310.827, 223.608
312.186, 167.523
313.545, 269.350
314.903, 193.327
316.262, 216.062
317.620, 208.773
318.978, 222.477
320.336, 242.174
321.693, 249.866
323.051, 383.508
324.408, 405.948
325.765, 777.188
327.121, 1353.418
328.478, 2385.689
329.834, 3837.398
331.190, 4592.695
332.546, 3435.764
333.902, 2081.236
335.257, 1056.043
336.612, 665.417
337.967, 532.321
339.322, 331.517
340.677, 304.060
342.031, 233.896
343.385, 210.112
344.739, 226.886
346.093, 154.143
347.446, 132.184
348.799, 159.387
350.153, 147.789
351.505, 103.479
352.858, 110.907
354.210, 104.694
355.563, 138.392
356.915, 165.771
358.267, 120.435
359.618, 140.820
360.969, 120.219
362.321, 127.189
363.672, 96.870
365.022, 71.627
366.373, 109.685
367.723, 100.784
369.073, 97.896
370.423, 186.998
371.773, 223.252
373.122, 211.377
374.471, 232.162
375.821, 109.049
377.169, 98.147
378.518, 42.713
379.866, 46.023
381.215, 60.296
382.563, 51.699
383.910, 83.930
385.258, 96.365
386.605, 79.799
387.952, 103.935
389.299, 124.693
390.646, 118.140
391.992, 115.582
393.339, 117.024
394.685, 147.463
396.031, 344.905
397.376, 438.344
398.722, 919.794
400.067, 1727.237
401.412, 2593.702
402.757, 2767.176
404.101, 1970.654
405.446, 1106.131
406.790, 644.608
408.134, 434.091
409.478, 370.573
410.821, 231.058
412.165, 199.539
413.508, 169.020
414.851, 178.497
416.193, 126.969
417.536, 109.437
418.878, 89.887
420.220, 107.318
421.562, 108.433
422.904, 98.583
424.245, 133.517
425.586, 76.884
426.927, 65.233
428.268, 37.573
429.609, 27.105
430.949, 75.185
432.289, 30.458
433.629, 17.286
434.969, 64.943
436.309, 9.156
437.648, 56.353
438.987, 25.534
440.326, 47.700
441.665, 28.852
443.003, 57.992
444.342, 2.865
445.680, 7.270
447.018, 40.402
448.355, 70.480
449.693, 34.413
451.030, 3.622
452.367, 16.356
453.704, 42.354
455.041, 9.380
456.377, 29.577
457.713, 63.524
459.049, 23.462
460.385, 29.606
461.721, 81.302
463.056, 6.797
464.391, 9.092
465.726, 112.971
467.061, 77.844
468.395, 61.712
469.730, 34.574
471.064, 112.429
472.398, 57.807
473.731, 74.997
475.065, 35.917
476.398, 88.741
477.731, 135.559
479.064, 195.370
480.397, 117.175
481.729, 262.973
483.062, 166.764
484.394, 145.549
485.725, 180.328
487.057, 186.103
488.389, 262.872
489.720, 345.641
491.051, 413.408
492.382, 289.186
493.712, 224.973
495.043, 188.757
496.373, 146.539
497.703, 161.323
499.032, 164.108
500.362, 254.893
501.691, 265.697
503.020, 284.497
504.349, 353.512
505.678, 367.320
507.007, 433.202
508.335, 574.860
509.663, 691.671
510.991, 957.500
512.319, 1368.298
513.646, 2141.092
514.973, 3345.798
516.300, 5420.593
517.627, 8319.389
518.954, 10689.144
520.280, 10771.378
521.607, 8024.191
522.933, 4947.169
524.259, 2806.921
525.584, 1745.543
526.910, 1178.297
528.235, 968.008
529.560, 905.722
530.885, 506.521
532.209, 424.272
533.534, 419.272
534.858, 308.039
536.182, 272.618
537.506, 204.250
538.829, 210.651
540.152, 133.062
541.476, 211.528
542.799, 126.267
544.121, 185.892
545.444, 208.677
546.766, 200.899
548.088, 184.577
549.410, 225.931
550.732, 322.596
552.053, 418.804
553.375, 536.506
554.696, 770.827
556.017, 1129.869
557.337, 1656.311
558.658, 2369.972
559.978, 2989.228
561.298, 3363.903
562.618, 2913.572
563.938, 2216.714
565.257, 1631.032
566.576, 1112.073
567.895, 870.162
569.214, 744.386
570.533, 555.926
571.851, 497.483
573.170, 354.005
574.488, 343.518
575.805, 266.022
577.123, 266.517
578.440, 255.927
579.758, 254.615
581.075, 225.623
582.391, 270.046
583.708, 225.496
585.024, 188.815
586.341, 263.884
587.657, 202.023
588.972, 290.461
590.288, 213.744
591.603, 99.833
592.918, 164.860
594.233, 147.081
595.548, 212.037
596.863, 212.208
598.177, 142.243
599.491, 148.366
600.805, 168.790
602.119, 176.011
603.432, 178.374
604.746, 180.542
606.059, 176.982
607.372, 164.576
608.685, 164.425
609.997, 165.271
611.309, 238.239
612.621, 221.854
613.933, 273.245
615.245, 247.219
616.557, 271.436
617.868, 292.374
619.179, 283.469
620.490, 271.638
621.801, 367.152
623.111, 371.000
624.421, 461.206
625.731, 472.342
627.041, 481.705
628.351, 344.650
629.660, 335.829
630.970, 350.862
632.279, 209.962
633.588, 243.895
634.896, 202.043
636.205, 288.190
637.513, 188.330
638.821, 273.464
640.129, 261.591
641.437, 385.712
642.744, 324.827
644.051, 346.935
645.358, 358.038
646.665, 323.133
647.972, 306.223
649.278, 312.307
650.584, 256.385
651.890, 258.988
653.196, 275.521
654.502, 230.581
655.807, 180.633
657.113, 158.680
658.418, 98.721
659.722, 153.756
661.027, 15.785
662.331, 63.804
663.636, 2.182
664.940, 15.184
666.244, 95.791
667.547, 44.760
668.851, 18.722
670.154, 26.678
671.457, 40.627
672.760, 72.572
674.062, 67.510
675.365, 42.442
676.667, 6.369
677.969, 28.285
679.271, 12.194
680.572, 17.262
681.874, 22.197
683.175, 28.883
684.476, 28.768
685.777, 23.647
687.077, 28.521
688.378, 62.389
689.678, 8.251
690.978, 30.107
692.278, 4.043
693.577, 78.793
694.877, 48.342
696.176, 37.454
697.475, 51.280
698.774, 11.899
700.072, 13.907
701.371, 10.292
702.669, 66.505
703.967, 15.236
705.265, 19.063
706.562, 52.693
707.860, 17.592
709.157, 12.104
710.454, 20.204
711.751, 0.469
713.047, 54.867
714.344, 10.761
715.640, 100.615
716.936, 44.051
718.232, 28.517
719.527, 4.006
720.823, 7.503
722.118, 36.012
723.413, 4.545
724.708, 24.086
726.002, 33.354
727.297, 14.208
728.591, 39.217
729.885, 60.640
731.179, 35.060
732.472, 27.478
733.766, 10.894
735.059, 1.693
736.352, 8.284
737.645, 23.118
738.937, 43.517
740.230, 4.916
741.522, 31.688
742.814, 34.692
744.106, 86.071
745.397, 57.458
746.689, 26.844
747.980, 73.230
749.271, 22.622
750.562, 30.014
751.853, 6.407
753.143, 35.799
754.433, 2.193
755.723, 10.414
757.013, 73.023
758.303, 33.668
759.592, 51.325
760.881, 23.996
762.170, 23.317
763.459, 12.660
764.748, 17.013
766.036, 93.369
767.325, 31.270
768.613, 132.094
769.901, 67.462
771.188, 5.169
772.476, 69.200
773.763, 84.572
775.050, 43.954
776.337, 89.338
777.624, 93.726
778.910, 47.116
780.196, 13.508
781.482, 13.098
782.768, 80.295
784.054, 57.690
785.339, 44.086
786.625, 85.485
787.910, 49.887
789.195, 32.291
790.479, 42.697
791.764, 14.056
793.048, 47.516
794.332, 4.928
795.616, 85.343
796.900, 127.761
798.183, 96.181
799.467, 138.604
800.750, 36.030
802.033, 145.458
803.316, 116.890
804.598, 32.324
805.880, 148.761
807.163, 127.202
808.445, 140.646
809.726, 195.093
811.008, 59.543
812.289, 80.997
813.570, 135.455
814.851, 163.916
816.132, 149.164
817.413, 119.635
818.693, 150.042
819.973, 140.657
821.253, 187.151
822.533, 224.628
823.813, 192.003
825.092, 176.420
826.371, 196.903
827.650, 257.419
828.929, 292.940
830.208, 297.454
831.486, 307.288
832.764, 268.008
834.042, 296.346
835.320, 286.788
836.598, 313.258
837.875, 313.765
839.152, 284.279
840.429, 444.802
841.706, 451.375
842.983, 409.011
844.259, 577.414
845.536, 551.052
846.812, 592.824
848.088, 696.500
849.363, 841.181
850.639, 958.869
851.914, 977.575
853.189, 1166.975
854.464, 1320.625
855.739, 1430.191
857.013, 1379.253
858.288, 1362.979
859.562, 1306.090
860.836, 1213.899
862.110, 1058.175
863.383, 1042.959
864.656, 918.124
865.930, 891.568
867.203, 820.611
868.475, 793.437
869.748, 751.666
871.020, 756.475
872.292, 783.293
873.564, 701.637
874.836, 776.806
876.108, 697.253
877.379, 777.653
878.650, 745.918
879.922, 838.871
881.192, 820.807
882.463, 898.779
883.733, 861.762
885.004, 915.754
886.274, 976.756
887.544, 1069.768
888.813, 1077.583
890.083, 1139.079
891.352, 1278.125
892.621, 1341.183
893.890, 1377.258
895.159, 1454.536
896.427, 1542.577
897.695, 1628.299
898.964, 1762.946
900.232, 1864.113
901.499, 2011.292
902.767, 2191.481
904.034, 2398.659
905.301, 2653.499
906.568, 2907.118
907.835, 3244.351
909.102, 3557.209
910.368, 3894.396
911.634, 4387.071
912.900, 4951.719
914.166, 5842.027
915.432, 6647.349
916.697, 7612.681
917.962, 9090.023
919.227, 10611.379
920.492, 12251.461
921.757, 14247.837
923.021, 16171.228
924.285, 17999.518
925.550, 19486.936
926.813, 20106.363
928.077, 19889.805
929.341, 19099.254
930.604, 17681.715
931.867, 15509.189
933.130, 13665.675
934.393, 12518.870
935.655, 11085.379
936.918, 10645.897
938.180, 9791.429
939.442, 8865.975
940.703, 7930.531
941.965, 6861.101
943.226, 5717.681
944.488, 4971.272
945.749, 4459.875
947.009, 3843.488
948.270, 3445.112
949.530, 3005.748
950.791, 2726.395
952.051, 2356.053
953.311, 2117.739
954.570, 1987.419
955.830, 1745.110
957.089, 1705.812
958.348, 1453.524
959.607, 1445.251
960.866, 1298.989
962.124, 1189.738
963.383, 1174.498
964.641, 1154.269
965.899, 1032.051
967.156, 1029.845
968.414, 954.243
969.671, 966.060
970.928, 950.024
972.185, 979.875
973.442, 942.737
974.699, 1063.609
975.955, 1022.493
977.211, 1053.387
978.468, 1276.292
979.723, 1313.206
980.979, 1602.132
982.234, 2096.067
983.490, 2247.015
984.745, 2634.973
986.000, 2595.943
987.254, 2361.924
988.509, 2086.914
989.763, 1741.915
991.017, 1354.488
992.271, 1112.761
993.525, 902.035
994.779, 786.760
996.032, 586.811
997.285, 749.912
998.538, 536.985
999.791, 721.157
1001.044, 756.269
1002.296, 855.246
1003.548, 696.365
1004.800, 568.556
1006.052, 450.722
1007.304, 297.958
1008.555, 336.992
1009.807, 368.779
1011.058, 268.906
1012.309, 266.804
1013.559, 256.144
1014.810, 265.430
1016.060, 267.598
1017.310, 278.884
1018.560, 290.186
1019.810, 312.464
1021.060, 333.777
1022.309, 356.229
1023.558, 362.706
1024.807, 305.190
1026.056, 297.693
1027.305, 259.228
1028.553, 230.786
1029.801, 257.741
1031.049, 212.155
1032.297, 206.675
1033.545, 268.192
1034.793, 158.647
1036.040, 224.089
1037.287, 233.701
1038.534, 164.070
1039.781, 239.531
1041.027, 133.121
1042.274, 208.761
1043.520, 227.848
1044.766, 157.432
1046.012, 169.767
1047.257, 166.593
1048.503, 180.394
1049.748, 162.967
1050.993, 163.710
1052.238, 160.405
1053.483, 143.236
1054.727, 199.833
1055.971, 190.484
1057.216, 199.180
1058.459, 151.926
1059.703, 177.669
1060.947, 244.883
1062.190, 190.699
1063.433, 216.051
1064.676, 237.760
1065.919, 228.598
1067.162, 290.233
1068.404, 202.875
1069.646, 291.740
1070.888, 317.087
1072.130, 414.231
1073.372, 387.890
1074.613, 384.580
1075.855, 330.424
1077.096, 299.145
1078.337, 282.813
1079.578, 303.483
1080.818, 318.302
1082.059, 344.976
1083.299, 300.651
1084.539, 222.478
1085.779, 290.293
1087.018, 203.973
1088.258, 166.951
1089.497, 207.642
1090.736, 105.326
1091.975, 152.013
1093.213, 103.701
1094.452, 102.389
1095.690, 99.077
1096.928, 98.765
1098.166, 118.453
1099.404, 65.140
1100.642, 103.827
1101.879, 0.384
1103.116, 25.301
1104.353, 95.984
1105.590, 56.667
1106.827, 83.348
1108.063, 57.622
1109.299, 154.300
1110.536, 63.127
1111.771, 39.803
1113.007, 132.607
1114.243, 32.462
1115.478, 15.132
1116.713, 18.086
1117.948, 6.572
1119.183, 43.774
1120.418, 48.858
1121.652, 219.487
1122.886, 306.112
1124.120, 275.733
1125.354, 175.351
1126.588, 125.965
1127.821, 71.574
1129.055, 52.181
1130.288, 15.512
1131.521, 51.383
1132.753, 17.978
1133.986, 41.568
1135.218, 151.153
1136.450, 23.732
1137.682, 79.354
1138.914, 74.079
1140.146, 84.558
1141.377, 52.088
1142.609, 58.654
1143.840, 27.945
1145.071, 18.338
1146.301, 37.730
1147.532, 9.207
1148.762, 26.583
1149.992, 43.064
1151.222, 31.250
1152.452, 18.540
1153.682, 76.173
1154.911, 15.091
1156.140, 56.648
1157.369, 20.317
1158.598, 25.086
1159.827, 36.868
1161.055, 13.361
1162.284, 28.557
1163.512, 58.751
1164.740, 66.940
1165.967, 65.000
1167.195, 84.298
1168.422, 50.461
1169.650, 21.589
1170.877, 20.693
1172.103, 21.791
1173.330, 20.880
1174.557, 18.294
1175.783, 87.038
1177.009, 0.085
1178.235, 64.119
1179.461, 35.145
1180.686, 38.163
1181.912, 55.172
1183.137, 87.271
1184.362, 22.266
1185.587, 0.754
1186.811, 84.461
1188.036, 35.421
1189.260, 25.514
1190.484, 10.401
1191.708, 45.998
1192.932, 76.598
1194.155, 16.546
1195.378, 35.431
1196.602, 59.485
1197.825, 25.377
1199.047, 34.542
1200.270, 22.251
1201.492, 67.564
1202.715, 56.047
1203.937, 47.192
1205.159, 37.465
1206.380, 40.249
1207.602, 20.866
1208.823, 1.856
1210.044, 11.588
1211.265, 67.497
1212.486, 40.178
1213.707, 92.944
1214.927, 172.902
1216.147, 41.550
1217.367, 163.395
1218.587, 49.020
1219.807, 108.856
1221.027, 9.649
1222.246, 51.306
1223.465, 81.885
1224.684, 172.607
1225.903, 154.491
1227.121, 61.847
1228.340, 125.544
1229.558, 116.192
1230.776, 63.709
1231.994, 67.294
1233.212, 110.791
1234.429, 7.615
1235.646, 100.088
1236.864, 146.760
1238.081, 152.848
1239.297, 163.289
1240.514, 138.784
1241.730, 217.177
1242.947, 106.556
1244.163, 119.922
1245.378, 187.247
1246.594, 241.538
1247.810, 83.854
1249.025, 144.093
1250.240, 126.390
1251.455, 163.586
1252.670, 113.746
1253.885, 32.198
1255.099, 116.318
1256.313, 76.463
1257.527, 136.627
1258.741, 81.688
1259.955, 69.816
1261.168, 126.979
1262.382, 86.969
1263.595, 118.340
1264.808, 180.266
1266.021, 145.036
1267.233, 125.986
1268.446, 181.842
1269.658, 178.674
1270.870, 239.546
1272.082, 215.321
1273.294, 238.636
1274.505, 242.404
1275.716, 272.093
1276.928, 137.938
1278.139, 176.651
1279.349, 131.438
1280.560, 233.020
1281.770, 235.626
1282.981, 107.118
1284.191, 149.579
1285.401, 176.364
1286.610, 161.369
1287.820, 147.587
1289.029, 55.674
1290.239, 147.489
1291.448, 114.241
1292.656, 81.096
1293.865, 197.803
1295.073, 275.228
1296.282, 102.188
1297.490, 149.925
1298.698, 159.321
1299.906, 152.902
1301.113, 108.467
1302.320, 75.886
1303.528, 155.140
1304.735, 183.339
1305.942, 92.035
1307.148, 196.404
1308.355, 99.745
1309.561, 200.999
1310.767, 210.348
1311.973, 223.406
1313.179, 253.590
1314.384, 200.604
1315.590, 206.742
1316.795, 221.433
1318.000, 104.127
1319.205, 230.915
1320.410, 260.515
1321.614, 113.589
1322.819, 222.465
1324.023, 134.088
1325.227, 123.650
1326.431, 222.235
1327.634, 65.630
1328.838, 89.064
1330.041, 100.792
1331.244, 37.284
1332.447, 108.743
1333.650, 57.189
1334.852, 53.890
1336.055, 7.555
1337.257, 14.968
1338.459, 34.463
1339.661, 52.932
1340.862, 73.210
1342.064, 76.623
1343.265, 26.009
1344.466, 14.600
1345.667, 8.530
1346.868, 74.228
1348.068, 105.282
1349.269, 13.513
1350.469, 82.752
1351.669, 55.968
1352.869, 111.159
1354.069, 83.323
1355.268, 20.541
1356.468, 128.570
1357.667, 65.658
1358.866, 6.366
1360.065, 97.808
1361.263, 39.698
1362.462, 101.985
1363.660, 38.063
1364.858, 43.435
1366.056, 72.905
1367.254, 150.329
1368.451, 52.508
1369.649, 75.786
1370.846, 71.083
1372.043, 51.349
1373.240, 60.604
1374.436, 144.033
1375.633, 71.483
1376.829, 140.914
1378.025, 26.447
1379.221, 204.978
1380.417, 42.232
1381.613, 7.753
1382.808, 173.571
1384.003, 76.234
1385.199, 127.786
1386.393, 150.833
1387.588, 112.736
1388.783, 152.708
1389.977, 91.511
1391.171, 69.718
1392.365, 108.998
1393.559, 67.746
1394.753, 83.149
1395.946, 123.188
1397.140, 11.619
1398.333, 71.863
1399.526, 57.801
1400.719, 48.008
1401.911, 86.138
1403.104, 45.364
1404.296, 31.341
1405.488, 78.711
1406.680, 69.391
1407.872, 92.224
1409.063, 84.057
1410.255, 42.164
1411.446, 127.492
1412.637, 67.455
1413.828, 41.265
1415.018, 73.256
1416.209, 135.103
1417.399, 4.649
1418.589, 92.736
1419.779, 15.336
1420.969, 35.188
1422.159, 15.931
1423.348, 95.420
1424.537, 40.917
1425.726, 41.353
1426.915, 31.453
1428.104, 38.062
1429.293, 59.100
1430.481, 0.167
1431.669, 0.000
##END=



