##NAMES=Tremolite
##RRUFFID=R050167
##IDEAL CHEMISTRY=[box]Ca_2_Mg_5_Si_8_O_22_(OH)_2_
##LOCALITY=Hunza Valley, Afghanistan
##OWNER=RRUFF
##SOURCE=Marcus Origlieri
##DESCRIPTION=Green tabular crystals
##STATUS=The identification of this mineral has been confirmed by X-ray diffraction and chemical analysis
##URL=rruff.info/R050167
##MEASURED CHEMISTRY=  ([box]_0.90_Na_0.10_)(Ca_0.98_Mg_0.01_Fe^2+^_0.01_)_2_(Mg_0.94_Al_0.06_)_5_(Si_0.95_Al_0.05_)_8_O_22_((OH)_0.98_F_0.02_)_2_
##PIN_ID=L00522
##ORIENTATION=Laser parallel to -a* (-1 0 0). Fiducial mark perpendicular to laser is parallel to b [0 1 0]
84.529, 0.000
85.929, 4.314
87.329, 3.916
88.728, 6.976
90.128, 0.634
91.527, 20.636
92.926, 53.979
94.324, 74.804
95.723, 91.838
97.121, 188.157
98.519, 232.148
99.917, 363.379
101.314, 456.388
102.712, 663.989
104.109, 828.499
105.505, 1114.900
106.902, 1392.157
108.298, 1710.228
109.694, 2179.064
111.090, 2781.621
112.486, 3509.857
113.881, 4470.735
115.277, 5855.219
116.672, 7568.386
118.066, 9366.845
119.461, 11659.782
120.855, 13243.057
122.249, 14306.909
123.643, 13591.309
125.036, 11326.221
126.430, 9051.622
127.823, 6529.473
129.216, 4681.733
130.608, 3259.377
132.001, 2355.376
133.393, 1713.711
134.785, 1203.364
136.176, 947.321
137.568, 722.568
138.959, 514.095
140.350, 425.896
141.741, 338.962
143.131, 284.290
144.521, 197.867
145.911, 134.685
147.301, 68.733
148.691, 27.994
150.080, 58.501
151.469, 88.783
152.858, 126.842
154.247, 54.686
155.635, 76.678
157.024, 239.244
158.411, 547.004
159.799, 768.953
161.187, 910.084
162.574, 909.392
163.961, 840.873
165.348, 848.520
166.734, 817.331
168.121, 955.257
169.507, 1326.166
170.893, 2065.082
172.278, 3041.029
173.664, 4401.020
175.049, 6210.068
176.434, 7907.178
177.819, 9290.354
179.203, 9463.609
180.587, 8246.938
181.971, 6661.346
183.355, 4851.837
184.739, 3527.415
186.122, 2510.079
187.505, 1938.835
188.888, 1444.688
190.271, 1133.637
191.653, 994.682
193.035, 786.842
194.417, 713.115
195.799, 533.501
197.180, 518.045
198.562, 390.721
199.943, 356.516
201.324, 302.375
202.704, 320.258
204.084, 417.216
205.465, 474.255
206.844, 531.375
208.224, 743.574
209.603, 969.852
210.983, 1205.207
212.362, 1555.641
213.740, 2020.194
215.119, 2430.954
216.497, 3120.938
217.875, 3933.098
219.253, 4813.341
220.631, 5765.646
222.008, 6258.014
223.385, 6388.441
224.762, 5874.928
226.139, 4970.473
227.515, 4518.077
228.891, 4130.738
230.267, 4210.454
231.643, 4382.227
233.018, 4753.053
234.394, 4771.933
235.769, 4500.866
237.144, 3979.852
238.518, 3250.888
239.893, 2669.975
241.267, 2266.110
242.641, 2000.293
244.014, 1899.530
245.388, 1960.830
246.761, 2338.204
248.134, 2639.664
249.507, 3034.192
250.879, 3200.803
252.252, 3130.652
253.624, 2766.883
254.996, 2259.322
256.367, 1937.261
257.739, 1484.459
259.110, 1160.889
260.481, 975.522
261.852, 770.340
263.222, 654.327
264.592, 502.470
265.962, 401.759
267.332, 308.180
268.702, 290.718
270.071, 159.367
271.440, 152.123
272.809, 87.982
274.178, 24.945
275.546, 78.006
276.915, 69.170
278.283, 73.432
279.650, 130.801
281.018, 125.279
282.385, 290.849
283.752, 350.455
285.119, 662.150
286.486, 872.875
287.852, 1043.692
289.218, 1250.211
290.584, 1195.221
291.950, 1192.726
293.316, 978.910
294.681, 920.138
296.046, 878.429
297.411, 876.654
298.775, 1037.733
300.140, 1073.126
301.504, 1340.660
302.868, 1421.410
304.231, 1324.174
305.595, 1157.706
306.958, 1035.809
308.321, 733.549
309.684, 639.372
311.047, 509.264
312.409, 427.675
313.771, 358.083
315.133, 301.346
316.495, 274.464
317.856, 301.401
319.217, 285.575
320.578, 368.769
321.939, 498.001
323.299, 646.271
324.660, 820.580
326.020, 1047.923
327.380, 1395.302
328.739, 1806.716
330.099, 2205.165
331.458, 2497.645
332.817, 2533.158
334.176, 2317.704
335.534, 1919.282
336.892, 1656.893
338.251, 1422.812
339.608, 1237.521
340.966, 1256.084
342.323, 1091.130
343.681, 1136.995
345.037, 1123.517
346.394, 1062.320
347.751, 1079.427
349.107, 1068.220
350.463, 1132.140
351.819, 1066.074
353.174, 1108.033
354.530, 1098.018
355.885, 1092.027
357.240, 1132.061
358.594, 1193.119
359.949, 1452.199
361.303, 1657.302
362.657, 2087.427
364.011, 2739.571
365.365, 3455.738
366.718, 4425.925
368.071, 5252.131
369.424, 6065.357
370.777, 6311.600
372.129, 6081.866
373.481, 5533.148
374.833, 4800.448
376.185, 4266.765
377.537, 3738.099
378.888, 3368.449
380.239, 3253.814
381.590, 3182.192
382.941, 3355.584
384.291, 3679.989
385.642, 4197.407
386.992, 4950.836
388.341, 6130.279
389.691, 7721.734
391.040, 9571.200
392.389, 11670.678
393.738, 12850.162
395.087, 12839.661
396.435, 11669.169
397.784, 9518.722
399.132, 7348.250
400.479, 5587.758
401.827, 4191.028
403.174, 3323.312
404.521, 2704.179
405.868, 2573.527
407.215, 2484.048
408.561, 2479.022
409.908, 2755.277
411.254, 3160.468
412.599, 3611.113
413.945, 4135.316
415.290, 4670.978
416.636, 4768.732
417.980, 4647.555
419.325, 4395.289
420.670, 3676.045
422.014, 3209.821
423.358, 2562.615
424.702, 2139.427
426.045, 1776.256
427.389, 1393.101
428.732, 1219.961
430.075, 1029.836
431.417, 1004.725
432.760, 916.628
434.102, 769.565
435.444, 798.321
436.786, 625.913
438.127, 485.157
439.469, 306.065
440.810, 228.092
442.151, 175.767
443.492, 92.088
444.832, 74.061
446.172, 2.993
447.512, 5.420
448.852, 18.854
450.192, 17.439
451.531, 24.823
452.870, 10.494
454.209, 1.983
455.548, 9.662
456.887, 8.859
458.225, 19.003
459.563, 13.989
460.901, 18.983
462.238, 5.015
463.576, 42.989
464.913, 0.987
466.250, 15.040
467.587, 81.077
468.923, 16.155
470.259, 54.244
471.596, 16.638
472.931, 43.481
474.267, 11.625
475.603, 0.779
476.938, 46.065
478.273, 63.914
479.608, 90.773
480.942, 193.633
482.276, 247.489
483.611, 429.345
484.944, 537.197
486.278, 650.045
487.612, 679.888
488.945, 551.727
490.278, 554.561
491.611, 405.390
492.943, 284.219
494.276, 222.042
495.608, 85.860
496.940, 64.677
498.271, 12.488
499.603, 20.712
500.934, 33.939
502.265, 122.201
503.596, 53.543
504.927, 142.930
506.257, 66.410
507.587, 69.944
508.917, 47.533
510.247, 35.832
511.577, 41.188
512.906, 65.533
514.235, 165.868
515.564, 139.193
516.892, 180.508
518.221, 132.812
519.549, 139.105
520.877, 114.387
522.205, 109.658
523.533, 67.918
524.860, 57.166
526.187, 104.402
527.514, 83.627
528.841, 122.840
530.167, 135.040
531.493, 131.228
532.820, 150.403
534.145, 193.565
535.471, 127.715
536.796, 173.851
538.122, 196.975
539.447, 189.085
540.771, 141.185
542.096, 167.271
543.420, 142.344
544.744, 143.405
546.068, 132.452
547.392, 138.492
548.715, 132.518
550.039, 157.531
551.362, 88.531
552.684, 153.516
554.007, 145.505
555.329, 108.479
556.652, 76.450
557.973, 111.409
559.295, 35.358
560.617, 44.295
561.938, 45.213
563.259, 7.113
564.580, 46.000
565.901, 2.137
567.221, 7.686
568.541, 53.480
569.861, 26.254
571.181, 89.998
572.501, 60.725
573.820, 105.430
575.139, 91.118
576.458, 88.788
577.777, 140.439
579.095, 142.073
580.414, 190.689
581.732, 216.287
583.049, 221.868
584.367, 294.430
585.685, 241.975
587.002, 221.500
588.319, 202.008
589.636, 116.496
590.952, 169.966
592.268, 112.417
593.585, 67.848
594.900, 76.252
596.216, 24.630
597.532, 33.969
598.847, 22.729
600.162, 32.492
601.477, 26.323
602.792, 36.221
604.106, 13.809
605.420, 74.292
606.734, 5.600
608.048, 1.442
609.361, 55.382
610.675, 85.324
611.988, 25.580
613.301, 86.192
614.614, 115.803
615.926, 67.392
617.238, 187.084
618.550, 204.959
619.862, 265.560
621.174, 284.057
622.485, 317.372
623.797, 366.707
625.108, 363.306
626.418, 439.366
627.729, 483.818
629.039, 513.216
630.349, 588.938
631.659, 603.803
632.969, 674.280
634.279, 734.234
635.588, 870.511
636.897, 994.769
638.206, 1068.007
639.515, 1190.225
640.823, 1374.395
642.131, 1490.618
643.439, 1712.142
644.747, 1933.281
646.055, 2179.427
647.362, 2517.925
648.669, 2807.096
649.976, 3286.458
651.283, 3526.798
652.589, 4098.817
653.896, 4562.475
655.202, 5180.454
656.508, 5834.334
657.814, 6524.340
659.119, 7646.399
660.424, 8755.046
661.729, 10227.826
663.034, 12854.958
664.339, 15286.819
665.643, 19128.389
666.947, 24021.281
668.251, 30108.053
669.555, 37774.820
670.859, 44041.582
672.162, 50358.328
673.465, 52245.020
674.768, 49851.734
676.071, 44798.410
677.373, 37055.074
678.676, 29951.723
679.978, 23508.354
681.280, 18534.961
682.581, 14831.561
683.883, 11738.139
685.184, 9894.699
686.485, 7931.243
687.786, 6707.770
689.087, 5815.279
690.387, 4963.771
691.687, 4404.248
692.987, 3803.706
694.287, 3294.148
695.586, 3127.574
696.886, 2692.766
698.185, 2588.158
699.484, 2346.532
700.783, 2123.227
702.081, 1980.725
703.379, 1806.416
704.677, 1746.989
705.975, 1658.432
707.273, 1585.996
708.570, 1433.386
709.868, 1370.602
711.165, 1369.077
712.462, 1262.795
713.758, 1164.986
715.055, 1168.125
716.351, 1144.263
717.647, 1116.305
718.943, 1129.023
720.238, 1066.232
721.533, 1086.688
722.829, 1038.237
724.124, 1074.807
725.418, 1055.858
726.713, 1009.638
728.007, 1073.612
729.301, 1090.079
730.595, 1064.098
731.889, 1081.998
733.182, 1120.837
734.476, 1198.772
735.769, 1146.693
737.061, 1351.598
738.354, 1447.489
739.647, 1552.364
740.939, 1663.224
742.231, 1779.070
743.523, 1783.902
744.814, 1866.719
746.106, 2064.521
747.397, 2254.310
748.688, 2237.062
749.978, 2266.996
751.269, 2162.090
752.559, 2023.529
753.849, 1753.303
755.139, 1515.953
756.429, 1355.951
757.719, 1128.300
759.008, 918.992
760.297, 784.707
761.586, 691.950
762.875, 624.167
764.163, 513.106
765.451, 381.482
766.739, 389.431
768.027, 283.578
769.315, 247.515
770.602, 244.929
771.890, 217.394
773.177, 233.973
774.463, 166.548
775.750, 192.120
777.036, 168.684
778.323, 97.251
779.609, 133.811
780.894, 132.368
782.180, 88.938
783.465, 106.505
784.750, 3.079
786.035, 155.641
787.320, 134.207
788.605, 94.771
789.889, 111.331
791.173, 83.884
792.457, 99.430
793.741, 97.970
795.024, 9.496
796.307, 48.021
797.591, 0.469
798.873, 78.031
800.156, 50.525
801.439, 1.987
802.721, 34.490
804.003, 17.040
805.285, 0.588
806.566, 54.855
807.848, 23.708
809.129, 68.709
810.410, 5.120
811.691, 28.527
812.971, 58.937
814.252, 38.355
815.532, 54.804
816.812, 78.267
818.092, 91.767
819.371, 59.285
820.651, 65.822
821.930, 96.372
823.209, 135.917
824.488, 55.459
825.766, 102.997
827.045, 124.530
828.323, 142.060
829.601, 192.586
830.878, 185.109
832.156, 168.627
833.433, 153.142
834.710, 212.654
835.987, 221.163
837.264, 189.668
838.540, 203.170
839.817, 134.669
841.093, 177.165
842.369, 140.658
843.644, 82.147
844.920, 122.635
846.195, 97.121
847.470, 97.604
848.745, 46.086
850.020, 17.432
851.294, 64.041
852.568, 43.513
853.842, 6.018
855.116, 3.447
856.390, 29.090
857.663, 3.642
858.936, 3.802
860.209, 4.754
861.482, 7.687
862.755, 71.875
864.027, 3.470
865.299, 49.063
866.571, 24.679
867.843, 23.302
869.115, 56.934
870.386, 15.587
871.657, 31.243
872.928, 96.906
874.199, 2.396
875.470, 10.298
876.740, 41.984
878.010, 17.673
879.280, 8.365
880.550, 46.948
881.820, 23.264
883.089, 23.583
884.358, 91.902
885.627, 45.234
886.896, 147.568
888.164, 154.905
889.433, 62.245
890.701, 154.588
891.969, 119.933
893.236, 189.283
894.504, 220.640
895.771, 201.033
897.038, 217.427
898.305, 165.827
899.572, 293.229
900.838, 284.633
902.105, 208.067
903.371, 331.507
904.637, 354.953
905.902, 348.412
907.168, 357.882
908.433, 396.402
909.698, 488.954
910.963, 520.532
912.228, 551.152
913.492, 591.794
914.757, 617.480
916.021, 741.188
917.285, 848.916
918.548, 893.684
919.812, 1218.457
921.075, 1245.244
922.338, 1475.061
923.601, 1753.878
924.864, 2030.704
926.126, 2396.534
927.388, 2691.366
928.650, 3009.199
929.912, 3335.034
931.174, 3094.871
932.435, 3115.715
933.697, 2686.560
934.958, 2291.408
936.218, 1987.258
937.479, 1647.743
938.739, 1287.594
940.000, 1150.446
941.260, 973.300
942.520, 962.154
943.779, 836.011
945.039, 842.869
946.298, 717.731
947.557, 640.624
948.816, 678.444
950.074, 636.943
951.333, 601.808
952.591, 576.647
953.849, 366.114
955.107, 486.892
956.365, 354.459
957.622, 334.026
958.879, 367.897
960.136, 306.111
961.393, 301.984
962.650, 319.655
963.906, 259.426
965.162, 240.299
966.418, 263.117
967.674, 244.989
968.930, 318.862
970.185, 203.736
971.441, 302.607
972.696, 189.479
973.950, 316.350
975.205, 298.217
976.459, 289.084
977.714, 307.949
978.968, 292.054
980.222, 371.916
981.475, 281.774
982.729, 339.631
983.982, 279.485
985.235, 302.603
986.488, 251.452
987.740, 353.369
988.993, 300.347
990.245, 321.231
991.497, 409.070
992.749, 363.926
994.000, 400.763
995.252, 423.013
996.503, 441.911
997.754, 544.041
999.005, 576.267
1000.256, 675.531
1001.506, 721.158
1002.756, 663.252
1004.006, 933.145
1005.256, 961.031
1006.506, 993.822
1007.755, 1166.834
1009.005, 1224.604
1010.254, 1429.769
1011.502, 1390.058
1012.751, 1522.139
1014.000, 1583.469
1015.248, 1611.443
1016.496, 1625.249
1017.744, 1833.869
1018.991, 1758.171
1020.239, 2005.436
1021.486, 2107.169
1022.733, 2325.193
1023.980, 2829.164
1025.227, 2990.574
1026.473, 3723.295
1027.719, 4031.851
1028.965, 4301.675
1030.211, 4376.540
1031.457, 3932.931
1032.702, 3411.233
1033.948, 3168.435
1035.193, 2535.043
1036.438, 2492.274
1037.682, 2026.930
1038.927, 1878.339
1040.171, 1777.946
1041.415, 1505.472
1042.659, 1604.241
1043.903, 1553.933
1045.146, 1564.898
1046.390, 1683.986
1047.633, 1719.294
1048.876, 1753.453
1050.118, 1956.660
1051.361, 2020.391
1052.603, 2246.564
1053.845, 2338.010
1055.087, 2379.386
1056.329, 2790.719
1057.571, 2778.681
1058.812, 3006.988
1060.053, 3065.390
1061.294, 2931.895
1062.535, 3102.266
1063.775, 3102.692
1065.016, 3259.921
1066.256, 3569.234
1067.496, 3670.725
1068.736, 3762.980
1069.975, 3799.065
1071.214, 3385.798
1072.454, 3114.564
1073.693, 2521.497
1074.931, 2144.266
1076.170, 1908.967
1077.408, 1503.929
1078.647, 1391.837
1079.885, 1119.573
1081.122, 985.009
1082.360, 940.715
1083.597, 795.811
1084.835, 739.727
1086.072, 713.533
1087.308, 482.194
1088.545, 590.046
1089.781, 494.676
1091.018, 473.485
1092.254, 465.392
1093.490, 371.407
1094.725, 370.896
1095.961, 452.361
1097.196, 358.114
1098.431, 312.775
1099.666, 361.085
1100.900, 304.076
1102.135, 406.462
1103.369, 230.444
1104.603, 362.095
1105.837, 335.153
1107.071, 224.888
1108.304, 327.959
1109.538, 251.042
1110.771, 250.319
1112.004, 258.704
1113.236, 246.108
1114.469, 285.513
1115.701, 168.620
1116.933, 268.030
1118.165, 247.747
1119.397, 172.515
1120.629, 231.121
1121.860, 236.247
1123.091, 150.111
1124.322, 213.258
1125.553, 236.223
1126.783, 87.926
1128.014, 151.313
1129.244, 152.025
1130.474, 201.940
1131.704, 185.792
1132.933, 87.487
1134.163, 194.551
1135.392, 136.287
1136.621, 121.698
1137.850, 144.967
1139.079, 165.533
1140.307, 152.832
1141.535, 168.719
1142.763, 59.252
1143.991, 144.212
1145.219, 89.087
1146.446, 66.887
1147.674, 57.561
1148.901, 22.860
1150.128, 98.506
1151.354, 147.565
1152.581, 68.807
1153.807, 134.393
1155.033, 32.197
1156.259, 114.711
1157.485, 49.298
1158.710, 1.602
1159.936, 74.209
1161.161, 52.587
1162.386, 13.348
1163.611, 50.179
1164.835, 0.838
1166.060, 61.381
1167.284, 73.735
1168.508, 39.640
1169.732, 41.534
1170.955, 34.772
1172.179, 8.312
1173.402, 91.198
1174.625, 20.005
1175.848, 15.622
1177.070, 72.541
1178.293, 27.897
1179.515, 39.480
1180.737, 63.375
1181.959, 31.390
1183.181, 64.477
1184.402, 1.122
1185.624, 26.515
1186.845, 3.061
1188.066, 12.447
1189.286, 0.598
1190.507, 15.192
1191.727, 114.977
1192.947, 91.312
1194.167, 8.406
1195.387, 73.662
1196.607, 60.706
1197.826, 94.347
1199.045, 65.227
1200.264, 20.233
1201.483, 27.852
1202.702, 32.324
1203.920, 81.617
1205.138, 7.389
1206.356, 21.877
1207.574, 42.335
1208.792, 8.335
1210.009, 9.084
1211.227, 5.952
1212.444, 28.086
1213.661, 10.092
1214.877, 33.079
1216.094, 55.056
1217.310, 77.756
1218.526, 125.028
1219.742, 81.780
1220.958, 1.872
1222.173, 134.494
1223.389, 76.716
1224.604, 86.874
1225.819, 124.447
1227.034, 7.059
1228.248, 125.474
1229.463, 44.404
1230.677, 69.771
1231.891, 92.162
1233.105, 123.814
1234.318, 74.304
1235.532, 123.271
1236.745, 81.347
1237.958, 59.540
1239.171, 44.637
1240.384, 9.745
1241.596, 146.901
1242.809, 75.086
1244.021, 93.396
1245.233, 172.933
1246.444, 37.334
1247.656, 150.215
1248.867, 36.895
1250.079, 79.358
1251.290, 218.282
1252.500, 61.568
1253.711, 25.353
1254.921, 201.686
1256.132, 150.339
1257.342, 120.041
1258.552, 110.112
1259.761, 116.618
1260.971, 183.540
1262.180, 105.751
1263.389, 55.071
1264.598, 250.350
1265.807, 63.301
1267.015, 154.558
1268.223, 211.260
1269.432, 138.362
1270.640, 176.181
1271.847, 232.922
1273.055, 74.001
1274.262, 219.943
1275.470, 165.587
1276.677, 176.272
1277.883, 207.925
1279.090, 113.215
1280.296, 186.272
1281.503, 262.441
1282.709, 66.883
1283.915, 208.444
1285.120, 57.479
1286.326, 118.936
1287.531, 197.007
1288.736, 88.481
1289.941, 101.940
1291.146, 112.437
1292.350, 134.986
1293.555, 218.202
1294.759, 128.260
1295.963, 56.582
1297.167, 210.118
1298.370, 120.193
1299.574, 76.905
1300.777, 123.866
1301.980, 17.929
1303.183, 159.307
1304.386, 85.707
1305.588, 124.420
1306.790, 194.963
1307.993, 83.530
1309.195, 196.951
1310.396, 132.106
1311.598, 93.438
1312.799, 193.759
1314.000, 187.883
1315.201, 97.947
1316.402, 284.921
1317.603, 168.601
1318.803, 178.626
1320.003, 216.516
1321.203, 135.047
1322.403, 282.800
1323.603, 196.398
1324.802, 111.886
1326.002, 267.398
1327.201, 93.477
1328.400, 134.862
1329.599, 183.750
1330.797, 136.816
1331.995, 163.621
1333.194, 266.918
1334.392, 136.408
1335.589, 166.909
1336.787, 116.202
1337.985, 15.165
1339.182, 144.915
1340.379, 139.878
1341.576, 152.510
1342.772, 211.569
1343.969, 97.095
1345.165, 178.280
1346.361, 201.572
1347.557, 66.729
1348.753, 220.189
1349.949, 196.235
1351.144, 69.119
1352.339, 229.844
1353.534, 12.623
1354.729, 164.266
1355.924, 172.035
1357.118, 27.649
1358.312, 112.012
1359.506, 146.542
1360.700, 84.170
1361.894, 152.087
1363.088, 151.922
1364.281, 16.495
1365.474, 157.189
1366.667, 52.118
1367.860, 38.255
1369.052, 133.399
1370.245, 7.769
1371.437, 114.109
1372.629, 38.264
1373.821, 5.298
1375.013, 112.914
1376.204, 55.588
1377.395, 71.181
1378.586, 186.114
1379.777, 26.160
1380.968, 111.967
1382.159, 125.045
1383.349, 111.878
1384.539, 90.254
1385.729, 72.269
1386.919, 52.694
1388.109, 215.467
1389.298, 33.364
1390.487, 12.626
1391.676, 143.035
1392.865, 18.944
1394.054, 68.517
1395.242, 225.909
1396.431, 1.644
1397.619, 174.270
1398.807, 87.378
1399.995, 69.411
1401.182, 264.991
1402.370, 77.111
1403.557, 30.028
1404.744, 137.370
1405.931, 4.142
1407.118, 98.206
1408.304, 164.891
1409.490, 77.367
1410.676, 198.142
1411.862, 91.298
1413.048, 147.108
1414.234, 153.570
1415.419, 38.870
1416.604, 82.965
1417.789, 142.924
1418.974, 6.841
1420.159, 118.343
1421.343, 130.263
1422.528, 36.252
1423.712, 181.776
1424.896, 89.891
1426.079, 72.217
1427.263, 285.557
1428.446, 74.847
1429.629, 159.710
1430.812, 319.003
1431.995, 50.081
1433.178, 207.468
1434.360, 142.960
1435.543, 23.962
1436.725, 366.452
1437.907, 227.793
1439.088, 173.019
1440.270, 346.275
1441.451, 70.157
1442.632, 133.346
1443.813, 342.485
1444.994, 41.567
1446.175, 304.669
1447.355, 219.515
1448.535, 178.950
1449.715, 399.280
1450.895, 262.802
1452.075, 135.896
1453.255, 416.931
1454.434, 202.162
1455.613, 256.989
1456.792, 407.065
1457.971, 212.343
1459.149, 309.844
1460.328, 323.092
1461.506, 78.404
1462.684, 380.642
1463.862, 229.298
1465.040, 115.957
1466.217, 763.899
1467.395, 202.807
1468.572, 221.188
1469.749, 402.491
1470.925, 152.279
1472.102, 187.322
1473.278, 377.306
1474.455, 26.169
1475.631, 363.016
1476.807, 144.697
1477.982, 86.972
1479.158, 269.120
1480.333, 94.874
1481.508, 62.037
1482.683, 275.173
1483.858, 105.507
1485.033, 247.431
1486.207, 206.202
1487.381, 81.164
1488.555, 183.051
1489.729, 180.209
1490.903, 118.760
1492.076, 232.925
1493.250, 99.156
1494.423, 123.406
1495.596, 289.296
1496.769, 156.539
1497.941, 141.245
1499.114, 224.793
1500.286, 170.996
1501.458, 127.354
1502.630, 152.856
1503.802, 14.552
1504.973, 343.889
1506.145, 195.024
1507.316, 135.622
1508.487, 252.810
1509.657, 106.055
1510.828, 28.501
1511.999, 50.807
