##NAMES=Tremolite
##RRUFFID=R050173
##IDEAL CHEMISTRY=[box]Ca_2_Mg_5_Si_8_O_22_(OH)_2_
##LOCALITY=Fort Dauphin, Madagascar
##OWNER=RRUFF
##SOURCE=Marcus Origlieri
##DESCRIPTION=Mass of colorless acicular crystals
##STATUS=The identification of this mineral has been confirmed by X-ray diffraction and chemical analysis
##URL=rruff.info/R050173
##MEASURED CHEMISTRY=[box]Ca_2.00_Mg_5.00_Si_8.00_O_22_(OH)_2_
##PIN_ID=L00129
##ORIENTATION=Laser parallel to -b* (0 -1 0). Fiducial mark perpendicular to laser is parallel to -c [0 0 -1]
82.787, 0.000
84.184, 79.669
85.581, 213.785
86.978, 193.555
88.374, 190.086
89.770, 255.482
91.166, 234.222
92.562, 214.938
93.958, 61.919
95.353, 10.251
96.748, 9.664
98.143, 21.531
99.538, 23.662
100.932, 24.256
102.326, 89.263
103.720, 140.469
105.114, 154.209
106.508, 133.473
107.901, 218.788
109.294, 365.354
110.687, 545.838
112.079, 922.945
113.472, 1271.497
114.864, 1725.337
116.256, 2318.317
117.647, 3187.322
119.039, 4214.264
120.430, 5111.076
121.821, 5677.729
123.211, 5734.488
124.602, 5241.035
125.992, 4497.313
127.382, 3673.708
128.772, 2670.155
130.162, 1800.904
131.551, 1140.625
132.940, 801.438
134.329, 527.688
135.718, 458.952
137.106, 501.338
138.494, 567.724
139.882, 491.208
141.270, 498.091
142.657, 541.589
144.045, 467.605
145.432, 454.903
146.819, 389.476
148.205, 371.366
149.592, 554.614
150.978, 724.253
152.364, 1554.313
153.749, 3441.823
155.135, 6647.810
156.520, 10213.294
157.905, 11578.299
159.290, 11962.851
160.674, 9758.330
162.059, 5698.650
163.443, 2794.176
164.826, 1615.890
166.210, 1363.294
167.593, 1301.542
168.977, 1915.214
170.360, 3042.810
171.742, 5686.374
173.125, 9901.429
174.507, 14892.810
175.889, 18188.305
177.271, 18767.863
178.652, 16637.283
180.034, 11451.553
181.415, 6331.091
182.796, 3650.299
184.176, 2497.109
185.557, 2066.868
186.937, 1781.436
188.317, 1868.010
189.697, 1976.561
191.076, 2117.040
192.456, 2202.528
193.835, 2339.016
195.213, 2637.502
196.592, 2756.300
197.970, 3015.946
199.349, 3389.733
200.726, 3552.861
202.104, 3651.430
203.482, 3909.086
204.859, 4047.066
206.236, 3981.187
207.613, 4134.944
208.989, 4088.672
210.366, 4412.368
211.742, 4586.036
213.118, 4949.665
214.493, 6043.249
215.869, 8106.770
217.244, 12140.219
218.619, 17163.590
219.994, 22036.883
221.368, 24010.096
222.742, 22633.230
224.117, 17566.291
225.490, 11189.271
226.864, 6742.174
228.237, 4344.998
229.611, 3204.745
230.984, 2469.421
232.356, 1985.032
233.729, 1516.583
235.101, 1019.077
236.473, 773.515
237.845, 549.904
239.216, 384.247
240.588, 346.534
241.959, 421.768
243.330, 473.952
244.701, 742.100
246.071, 1097.222
247.441, 1493.305
248.811, 1631.180
250.181, 1537.231
251.551, 1168.369
252.920, 794.541
254.289, 520.731
255.658, 327.873
257.027, 270.019
258.395, 286.113
259.763, 422.194
261.131, 449.955
262.499, 544.834
263.867, 278.175
265.234, 250.795
266.601, 76.702
267.968, 115.948
269.334, 155.111
270.701, 223.544
272.067, 207.139
273.433, 189.894
274.799, 219.805
276.164, 148.889
277.530, 175.129
278.895, 167.460
280.260, 126.042
281.624, 134.783
282.989, 39.312
284.353, 151.287
285.717, 304.161
287.080, 635.942
288.444, 748.640
289.807, 668.257
291.170, 508.793
292.533, 372.241
293.896, 374.599
295.258, 497.856
296.620, 809.998
297.982, 1263.016
299.344, 1908.908
300.705, 2253.677
302.067, 2301.328
303.428, 1933.864
304.789, 1483.290
306.149, 976.606
307.510, 684.815
308.870, 540.917
310.230, 422.911
311.589, 395.797
312.949, 250.579
314.308, 268.252
315.667, 246.819
317.026, 297.280
318.385, 198.643
319.743, 265.900
321.101, 394.060
322.459, 292.129
323.817, 369.106
325.174, 605.989
326.532, 754.763
327.889, 1070.443
329.246, 1488.049
330.602, 1769.583
331.958, 1674.046
333.315, 1465.431
334.671, 1166.708
336.026, 1142.043
337.382, 1331.384
338.737, 1738.609
340.092, 2213.496
341.447, 2668.441
342.802, 2734.812
344.156, 2501.841
345.510, 2080.720
346.864, 1893.805
348.218, 2086.962
349.571, 2254.624
350.925, 2449.311
352.278, 2456.866
353.630, 2162.359
354.983, 1697.812
356.336, 1279.225
357.688, 1019.596
359.040, 826.926
360.391, 839.206
361.743, 911.423
363.094, 1170.559
364.445, 1427.616
365.796, 2158.590
367.147, 2466.495
368.497, 2671.343
369.847, 2421.152
371.197, 2130.923
372.547, 1854.654
373.897, 1672.348
375.246, 1523.549
376.595, 1304.271
377.944, 1120.591
379.293, 1080.870
380.641, 1008.403
381.989, 1059.521
383.337, 1231.973
384.685, 1415.378
386.032, 1747.729
387.380, 2482.114
388.727, 3806.908
390.074, 5562.426
391.421, 7662.174
392.767, 8531.539
394.113, 7840.726
395.459, 6069.657
396.805, 4218.719
398.151, 2640.132
399.496, 1731.768
400.841, 1337.990
402.186, 995.792
403.531, 911.393
404.875, 829.640
406.219, 888.772
407.564, 975.844
408.907, 1135.604
410.251, 1436.303
411.594, 1792.836
412.937, 2212.362
414.280, 2546.622
415.623, 2408.859
416.966, 2159.117
418.308, 1783.231
419.650, 1375.558
420.992, 1008.997
422.334, 877.576
423.675, 700.315
425.016, 636.332
426.357, 555.417
427.698, 580.045
429.038, 581.681
430.379, 657.078
431.719, 775.600
433.059, 964.120
434.399, 1101.610
435.738, 1059.927
437.077, 897.799
438.416, 721.490
439.755, 523.622
441.094, 531.878
442.432, 510.893
443.770, 651.020
445.108, 779.841
446.446, 903.470
447.783, 1140.292
449.121, 1310.944
450.458, 1434.430
451.795, 1868.206
453.131, 2385.084
454.468, 3349.242
455.804, 4572.029
457.140, 6616.692
458.476, 9322.375
459.811, 12428.001
461.146, 14993.584
462.482, 15789.122
463.816, 14644.615
465.151, 11970.068
466.486, 9225.475
467.820, 6760.838
469.154, 5015.660
470.488, 3771.872
471.821, 2964.439
473.155, 2359.736
474.488, 2019.483
475.821, 1678.408
477.154, 1492.013
478.486, 2048.216
479.818, 1460.931
481.150, 1544.659
482.482, 1442.638
483.814, 1012.614
485.145, 872.304
486.477, 788.269
487.808, 640.817
489.138, 574.580
490.469, 552.313
491.799, 446.009
493.129, 442.670
494.459, 389.295
495.789, 331.886
497.119, 307.439
498.448, 305.957
499.777, 322.457
501.106, 209.922
502.434, 248.354
503.763, 236.753
505.091, 184.145
506.419, 295.505
507.747, 241.848
509.074, 353.175
510.402, 323.487
511.729, 373.775
513.056, 467.062
514.383, 511.325
515.709, 550.567
517.035, 483.786
518.361, 536.979
519.687, 545.154
521.013, 414.305
522.338, 479.432
523.663, 453.557
524.988, 625.663
526.313, 680.750
527.638, 674.816
528.962, 734.858
530.286, 680.883
531.610, 423.885
532.934, 360.879
534.257, 164.862
535.581, 267.818
536.904, 113.750
538.227, 111.656
539.549, 39.532
540.872, 127.377
542.194, 36.202
543.516, 35.997
544.838, 37.762
546.159, 18.500
547.480, 16.794
548.802, 7.108
550.123, 18.455
551.443, 3.838
552.764, 10.747
554.084, 60.315
555.404, 18.856
556.724, 14.634
558.044, 24.157
559.363, 32.285
560.682, 43.301
562.001, 130.923
563.320, 49.623
564.639, 43.364
565.957, 44.141
567.275, 0.046
568.593, 1.212
569.911, 20.359
571.228, 5.481
572.546, 52.574
573.863, 40.687
575.180, 62.800
576.496, 39.695
577.813, 62.693
579.129, 61.677
580.445, 46.562
581.761, 16.593
583.076, 25.442
584.392, 33.009
585.707, 36.235
587.022, 37.436
588.337, 40.917
589.651, 114.707
590.966, 19.691
592.280, 9.755
593.594, 58.104
594.907, 15.908
596.221, 31.637
597.534, 8.688
598.847, 74.001
600.160, 16.464
601.473, 78.984
602.785, 40.565
604.097, 24.163
605.409, 95.759
606.721, 122.456
608.033, 21.226
609.344, 95.944
610.655, 136.860
611.966, 87.488
613.277, 166.140
614.588, 134.769
615.898, 173.460
617.208, 199.301
618.518, 189.265
619.828, 270.793
621.137, 238.022
622.446, 359.713
623.755, 412.585
625.064, 342.029
626.373, 381.978
627.681, 348.073
628.990, 489.784
630.298, 452.617
631.605, 516.056
632.913, 623.865
634.220, 681.402
635.527, 740.167
636.834, 986.610
638.141, 921.062
639.448, 963.460
640.754, 1229.821
642.060, 1396.266
643.366, 1571.846
644.672, 1722.720
645.977, 2105.827
647.283, 2581.668
648.588, 2907.354
649.892, 3538.118
651.197, 3961.688
652.502, 4295.339
653.806, 4378.688
655.110, 4572.208
656.414, 4599.721
657.717, 5003.049
659.021, 5676.812
660.324, 6499.751
661.627, 7678.867
662.930, 9541.645
664.232, 12237.427
665.534, 15823.354
666.837, 22089.031
668.138, 29762.580
669.440, 41131.402
670.742, 51254.848
672.043, 56479.070
673.344, 54142.516
674.645, 46625.645
675.946, 35920.180
677.246, 26193.420
678.546, 19296.701
679.846, 13935.070
681.146, 10719.141
682.446, 8553.404
683.745, 6836.610
685.045, 5849.867
686.344, 5143.944
687.642, 4437.242
688.941, 4203.696
690.239, 3599.179
691.538, 3391.844
692.836, 2994.935
694.133, 2507.331
695.431, 2215.577
696.728, 1923.324
698.025, 1657.402
699.322, 1485.555
700.619, 1364.456
701.916, 1179.083
703.212, 1103.712
704.508, 1071.723
705.804, 862.332
707.100, 858.683
708.395, 851.243
709.690, 726.060
710.985, 695.209
712.280, 668.127
713.575, 648.562
714.869, 514.771
716.164, 578.436
717.458, 522.029
718.751, 355.339
720.045, 414.264
721.338, 401.985
722.632, 310.791
723.925, 377.207
725.217, 289.150
726.510, 305.586
727.802, 360.962
729.095, 284.676
730.386, 336.284
731.678, 241.014
732.970, 371.680
734.261, 411.500
735.552, 321.018
736.843, 425.551
738.134, 448.827
739.424, 462.199
740.715, 544.499
742.005, 453.807
743.295, 546.969
744.584, 393.335
745.874, 523.955
747.163, 762.169
748.452, 697.332
749.741, 856.643
751.030, 889.417
752.318, 844.720
753.607, 618.836
754.895, 409.213
756.182, 351.336
757.470, 201.707
758.758, 308.902
760.045, 217.015
761.332, 138.412
762.619, 116.905
763.905, 123.958
765.192, 72.306
766.478, 137.808
767.764, 129.087
769.050, 132.680
770.335, 114.707
771.621, 74.713
772.906, 41.288
774.191, 65.838
775.475, 45.365
776.760, 94.868
778.044, 47.350
779.329, 145.808
780.613, 21.246
781.896, 129.341
783.180, 71.978
784.463, 40.273
785.746, 132.545
787.029, 43.796
788.312, 108.024
789.594, 170.229
790.877, 17.416
792.159, 127.577
793.441, 139.717
794.722, 146.837
796.004, 125.936
797.285, 92.013
798.566, 19.068
799.847, 6.098
801.128, 8.900
802.408, 53.067
803.689, 30.009
804.969, 72.927
806.249, 49.823
807.528, 80.694
808.808, 15.543
810.087, 60.631
811.366, 73.136
812.645, 2.118
813.923, 89.600
815.202, 90.703
816.480, 61.922
817.758, 32.471
819.036, 38.908
820.314, 27.393
821.591, 15.078
822.868, 79.477
824.145, 43.898
825.422, 1.750
826.699, 34.629
827.975, 108.104
829.251, 8.597
830.527, 72.832
831.803, 60.316
833.079, 74.459
834.354, 1.302
835.629, 5.130
836.904, 59.967
838.179, 44.042
839.454, 2.811
840.728, 25.214
842.002, 45.781
843.276, 29.573
844.550, 33.338
845.824, 32.236
847.097, 42.112
848.370, 73.971
849.643, 118.813
850.916, 18.359
852.188, 15.433
853.461, 72.205
854.733, 0.959
856.005, 115.689
857.277, 51.598
858.548, 62.069
859.820, 55.719
861.091, 84.353
862.362, 42.027
863.633, 20.546
864.903, 32.099
866.173, 50.633
867.444, 38.152
868.713, 99.658
869.983, 14.149
871.253, 42.630
872.522, 105.121
873.791, 7.606
875.060, 14.910
876.329, 21.448
877.597, 31.017
878.866, 1.621
880.134, 124.760
881.402, 89.158
882.670, 100.525
883.937, 91.893
885.204, 82.248
886.472, 66.592
887.739, 135.920
889.005, 115.391
890.272, 145.044
891.538, 128.828
892.804, 176.106
894.070, 179.373
895.336, 175.629
896.601, 140.878
897.867, 255.114
899.132, 277.338
900.397, 230.551
901.662, 211.752
902.926, 242.952
904.190, 311.144
905.455, 320.329
906.718, 278.504
907.982, 438.665
909.246, 370.815
910.509, 514.952
911.772, 589.076
913.035, 520.186
914.298, 677.171
915.560, 861.053
916.823, 934.953
918.085, 1086.626
919.347, 1498.561
920.608, 1867.443
921.870, 2306.328
923.131, 3035.121
924.392, 4143.730
925.653, 5482.186
926.914, 7180.729
928.175, 8319.171
929.435, 8647.806
930.695, 7876.226
931.955, 6605.043
933.215, 4903.326
934.474, 3783.430
935.734, 2951.893
936.993, 2270.207
938.252, 1948.894
939.511, 1607.196
940.769, 1635.755
942.027, 1694.537
943.286, 1832.686
944.544, 1911.280
945.801, 1909.914
947.059, 1978.562
948.316, 1437.109
949.573, 1245.500
950.830, 1023.570
952.087, 762.380
953.344, 546.465
954.600, 563.638
955.856, 471.700
957.112, 496.008
958.368, 485.128
959.623, 359.363
960.879, 266.345
962.134, 341.823
963.389, 261.091
964.644, 216.534
965.898, 249.083
967.153, 181.318
968.407, 229.151
969.661, 189.652
970.915, 195.759
972.168, 205.525
973.422, 248.317
974.675, 169.881
975.928, 157.173
977.181, 103.393
978.433, 74.862
979.686, 150.690
980.938, 80.966
982.190, 62.607
983.442, 212.823
984.693, 152.941
985.945, 104.375
987.196, 171.653
988.447, 162.056
989.698, 92.439
990.949, 198.033
992.199, 203.412
993.449, 50.500
994.699, 147.084
995.949, 119.912
997.199, 152.884
998.448, 244.280
999.697, 330.774
1000.947, 241.920
1002.195, 365.228
1003.444, 252.867
1004.693, 330.839
1005.941, 387.902
1007.189, 325.860
1008.437, 259.961
1009.684, 397.672
1010.932, 395.347
1012.179, 523.131
1013.426, 517.771
1014.673, 535.264
1015.920, 722.796
1017.166, 950.481
1018.413, 958.631
1019.659, 1036.941
1020.905, 1044.820
1022.151, 1242.678
1023.396, 1511.057
1024.641, 1831.133
1025.887, 2108.033
1027.132, 2134.981
1028.376, 2280.499
1029.621, 2089.520
1030.865, 1702.850
1032.109, 1581.604
1033.353, 1211.009
1034.597, 1200.135
1035.841, 1078.721
1037.084, 1307.083
1038.327, 1286.157
1039.570, 1194.157
1040.813, 1472.795
1042.056, 1641.208
1043.298, 1800.067
1044.540, 2048.812
1045.782, 2357.484
1047.024, 2765.955
1048.266, 3644.487
1049.507, 4533.072
1050.748, 5911.730
1051.990, 7660.401
1053.230, 10369.416
1054.471, 15178.129
1055.711, 20696.848
1056.952, 27815.121
1058.192, 32003.451
1059.432, 31391.951
1060.671, 26340.039
1061.911, 19038.064
1063.150, 13406.344
1064.389, 9614.805
1065.628, 7123.145
1066.867, 5762.068
1068.105, 4620.475
1069.344, 3768.388
1070.582, 3186.529
1071.820, 2624.262
1073.058, 2092.422
1074.295, 1840.384
1075.532, 1608.441
1076.770, 1426.596
1078.007, 1274.343
1079.243, 1082.562
1080.480, 1050.541
1081.716, 988.368
1082.953, 1076.083
1084.189, 943.948
1085.424, 1081.699
1086.660, 779.816
1087.895, 737.735
1089.131, 715.874
1090.366, 513.521
1091.601, 451.178
1092.835, 458.805
1094.070, 397.136
1095.304, 334.488
1096.538, 372.649
1097.772, 330.234
1099.005, 297.956
1100.239, 245.650
1101.472, 143.360
1102.705, 261.254
1103.938, 208.868
1105.171, 136.828
1106.404, 264.553
1107.636, 202.537
1108.868, 150.071
1110.100, 27.412
1111.332, 134.905
1112.563, 112.117
1113.795, 79.406
1115.026, 96.728
1116.257, 5.997
1117.488, 241.285
1118.718, 358.381
1119.949, 385.628
1121.179, 322.993
1122.409, 200.317
1123.639, 77.902
1124.868, 145.415
1126.098, 22.468
1127.327, 90.380
1128.556, 36.713
1129.785, 14.243
1131.014, 100.829
1132.242, 95.727
1133.470, 86.003
1134.699, 72.083
1135.927, 50.291
1137.154, 37.281
1138.382, 24.315
1139.609, 27.124
1140.836, 54.232
1142.063, 161.152
1143.290, 42.197
1144.517, 125.010
1145.743, 31.709
1146.969, 38.958
1148.195, 166.495
1149.421, 133.388
1150.647, 179.838
1151.872, 156.680
1153.097, 287.504
1154.322, 364.114
1155.547, 490.776
1156.772, 587.645
1157.996, 714.135
1159.221, 551.384
1160.445, 577.895
1161.669, 374.220
1162.892, 281.015
1164.116, 198.013
1165.339, 75.945
1166.562, 108.409
1167.785, 124.364
1169.008, 165.355
1170.231, 101.888
1171.453, 40.400
1172.675, 68.162
1173.897, 56.347
1175.119, 116.047
1176.341, 25.877
1177.562, 78.225
1178.783, 7.423
1180.004, 16.406
1181.225, 10.784
1182.446, 34.448
1183.666, 70.665
1184.887, 3.818
1186.107, 201.448
1187.327, 78.050
1188.546, 113.809
1189.766, 30.082
1190.985, 56.452
1192.204, 72.134
1193.423, 108.849
1194.642, 105.921
1195.861, 91.025
1197.079, 82.505
1198.297, 78.057
1199.515, 20.273
1200.733, 74.414
1201.951, 73.357
1203.168, 174.641
1204.385, 158.750
1205.602, 113.521
1206.819, 207.596
1208.036, 221.425
1209.253, 156.936
1210.469, 110.816
1211.685, 135.037
1212.901, 19.169
1214.117, 113.616
1215.332, 227.297
1216.548, 173.851
1217.763, 267.371
1218.978, 161.227
1220.193, 204.744
1221.407, 178.258
1222.622, 152.934
1223.836, 245.889
1225.050, 129.310
1226.264, 182.812
1227.477, 217.849
1228.691, 240.847
1229.904, 263.844
1231.117, 176.840
1232.330, 139.513
1233.543, 182.172
1234.755, 124.702
1235.968, 237.196
1237.180, 229.694
1238.392, 232.193
1239.604, 64.280
1240.815, 286.244
1242.027, 89.308
1243.238, 221.545
1244.449, 183.854
1245.660, 186.907
1246.871, 179.128
1248.081, 130.778
1249.291, 193.265
1250.501, 104.766
1251.711, 154.729
1252.921, 87.470
1254.131, 188.329
1255.340, 230.694
1256.549, 191.744
1257.758, 252.403
1258.967, 228.331
1260.175, 214.105
1261.384, 224.959
1262.592, 215.242
1263.800, 256.035
1265.008, 216.631
1266.216, 184.989
1267.423, 187.931
1268.630, 133.071
1269.838, 143.631
1271.044, 233.979
1272.251, 173.649
1273.458, 209.098
1274.664, 78.078
1275.870, 256.874
1277.076, 235.927
1278.282, 135.366
1279.488, 165.207
1280.693, 23.817
1281.898, 182.991
1283.103, 141.543
1284.308, 60.317
1285.513, 129.147
1286.717, 107.354
1287.922, 225.754
1289.126, 92.063
1290.330, 190.111
1291.534, 77.640
1292.737, 45.057
1293.940, 112.910
1295.144, 210.541
1296.347, 108.372
1297.549, 34.080
1298.752, 143.579
1299.955, 121.126
1301.157, 88.611
1302.359, 145.970
1303.561, 43.241
1304.762, 120.416
1305.964, 157.503
1307.165, 74.485
1308.366, 51.654
1309.567, 8.372
1310.768, 65.521
1311.969, 190.576
1313.169, 43.348
1314.369, 72.760
1315.569, 8.636
1316.769, 7.949
1317.969, 2.538
1319.168, 27.341
1320.368, 2.023
1321.567, 3.293
1322.766, 131.840
1323.965, 56.370
1325.163, 110.193
1326.361, 184.145
1327.560, 38.429
1328.758, 109.304
1329.955, 143.100
1331.153, 17.780
1332.351, 61.824
1333.548, 25.913
1334.745, 19.547
1335.942, 53.170
1337.139, 6.760
1338.335, 0.396
1339.531, 83.914
1340.728, 72.728
1341.923, 40.449
1343.119, 86.491
1344.315, 226.116
1345.510, 9.094
1346.706, 211.780
1347.901, 184.800
1349.095, 67.660
1350.290, 160.232
1351.485, 203.104
1352.679, 15.942
1353.873, 158.409
1355.067, 91.049
1356.261, 93.240
1357.454, 54.597
1358.648, 136.361
1359.841, 11.491
1361.034, 140.315
1362.227, 82.422
1363.420, 113.987
1364.612, 105.639
1365.804, 17.079
1366.996, 188.305
1368.188, 89.824
1369.380, 70.756
1370.572, 1.790
1371.763, 112.863
1372.954, 103.944
1374.145, 95.031
1375.336, 129.734
1376.527, 116.275
1377.717, 126.545
1378.907, 116.721
1380.098, 107.298
1381.287, 97.785
1382.477, 158.347
1383.667, 167.942
1384.856, 33.014
1386.045, 98.065
1387.234, 83.545
1388.423, 27.197
1389.612, 81.174
1390.800, 155.075
1391.988, 49.470
1393.176, 173.994
1394.364, 258.197
1395.552, 112.417
1396.740, 286.179
1397.927, 39.384
1399.114, 102.662
1400.301, 265.862
1401.488, 218.652
1402.675, 111.574
1403.861, 132.867
1405.047, 135.270
1406.233, 170.468
1407.419, 202.566
1408.605, 84.237
1409.791, 284.486
1410.976, 33.839
1412.161, 82.098
1413.346, 143.135
1414.531, 163.745
1415.715, 183.467
1416.900, 393.666
1418.084, 671.090
1419.268, 333.396
1420.452, 166.331
1421.636, 70.382
1422.819, 291.666
1424.003, 95.370
1425.186, 203.949
1426.369, 373.414
1427.552, 31.141
1428.734, 228.152
1429.917, 334.389
1431.099, 290.028
1432.281, 282.528
1433.463, 279.862
1434.645, 244.619
1435.826, 290.285
1437.008, 318.756
1438.189, 205.588
1439.370, 261.018
1440.551, 217.875
1441.731, 413.309
1442.912, 205.234
1444.092, 361.383
1445.272, 317.492
1446.452, 261.867
1447.632, 276.805
1448.811, 418.971
1449.991, 134.170
1451.170, 299.904
1452.349, 355.508
1453.528, 220.438
1454.706, 276.494
1455.885, 299.250
1457.063, 151.012
1458.241, 554.914
1459.419, 167.793
1460.597, 212.395
1461.775, 385.066
1462.952, 178.820
1464.129, 351.918
1465.306, 234.211
1466.483, 237.426
1467.660, 179.861
1468.836, 299.203
1470.012, 89.395
1471.189, 453.650
1472.365, 327.900
1473.540, 157.891
1474.716, 430.035
1475.891, 383.318
1477.067, 212.451
1478.242, 296.078
1479.416, 169.795
1480.591, 213.812
1481.766, 247.342
1482.940, 200.961
1484.114, 314.430
1485.288, 377.947
1486.462, 61.375
1487.635, 413.750
1488.809, 156.980
1489.982, 220.062
1491.155, 332.518
1492.328, 95.322
1493.501, 268.293
1494.673, 161.229
1495.846, 4.178
1497.018, 197.430
1498.190, 186.295
1499.362, 298.389
1500.533, 140.494
1501.705, 192.678
1502.876, 166.316
1504.047, 113.502
1505.218, 148.043
1506.389, 58.021
1507.560, 99.025
1508.730, 69.760
1509.900, 90.117
