##NAMES=Tremolite
##RRUFFID=R050167
##IDEAL CHEMISTRY=[box]Ca_2_Mg_5_Si_8_O_22_(OH)_2_
##LOCALITY=Hunza Valley, Afghanistan
##OWNER=RRUFF
##SOURCE=Marcus Origlieri
##DESCRIPTION=Green tabular crystals
##STATUS=The identification of this mineral has been confirmed by X-ray diffraction and chemical analysis
##URL=rruff.info/R050167
##MEASURED CHEMISTRY=  ([box]_0.90_Na_0.10_)(Ca_0.98_Mg_0.01_Fe^2+^_0.01_)_2_(Mg_0.94_Al_0.06_)_5_(Si_0.95_Al_0.05_)_8_O_22_((OH)_0.98_F_0.02_)_2_
##PIN_ID=L00357
##ORIENTATION=Laser parallel to b* (0 1 0). Fiducial mark perpendicular to laser is parallel to c [0 0 1]
69.684, 0.000
71.083, 0.333
72.482, 68.298
73.881, 148.485
75.280, 151.603
76.678, 144.773
78.076, 144.500
79.474, 129.721
80.872, 70.989
82.270, 88.283
83.667, 74.241
85.064, 107.390
86.461, 55.331
87.858, 12.061
89.254, 36.245
90.650, 30.402
92.046, 58.992
93.442, 36.550
94.838, 76.092
96.233, 59.651
97.628, 41.297
99.023, 33.024
100.418, 69.817
101.812, 36.664
103.206, 93.558
104.600, 46.269
105.994, 143.416
107.387, 212.849
108.781, 395.472
110.174, 569.072
111.566, 865.095
112.959, 960.936
114.351, 1072.693
115.744, 1145.893
117.136, 1317.924
118.527, 1435.917
119.919, 1730.741
121.310, 1966.706
122.701, 2332.128
124.092, 2311.952
125.482, 2154.762
126.873, 1848.537
128.263, 1347.280
129.653, 1015.998
131.042, 684.694
132.432, 404.374
133.821, 273.044
135.210, 128.704
136.599, 126.355
137.987, 48.002
139.376, 22.649
140.764, 1.300
142.152, 3.956
143.539, 21.383
144.927, 32.718
146.314, 17.948
147.701, 24.616
149.088, 103.282
150.474, 115.947
151.861, 240.609
153.247, 396.274
154.633, 800.956
156.018, 1660.651
157.404, 3234.353
158.789, 5954.054
160.174, 9092.752
161.559, 12073.444
162.943, 12854.101
164.327, 11004.728
165.711, 8095.355
167.095, 5989.983
168.479, 4575.610
169.862, 3880.520
171.246, 3880.392
172.628, 4619.799
174.011, 5964.461
175.394, 8063.073
176.776, 10773.872
178.158, 13735.913
179.540, 15376.142
180.922, 15286.346
182.303, 13286.571
183.684, 10276.820
185.065, 7617.092
186.446, 5462.419
187.826, 3989.764
189.207, 2850.147
190.587, 2314.536
191.967, 1915.959
193.346, 1719.423
194.726, 1552.958
196.105, 1542.520
197.484, 1487.089
198.862, 1368.662
200.241, 1170.235
201.619, 1100.809
202.997, 1142.401
204.375, 1192.021
205.753, 1286.713
207.130, 1472.482
208.507, 1697.306
209.884, 1937.153
211.261, 2278.022
212.638, 2702.905
214.014, 3377.778
215.390, 4230.638
216.766, 5524.485
218.141, 7218.313
219.517, 9603.126
220.892, 12623.919
222.267, 15004.697
223.642, 17215.457
225.016, 17246.191
226.391, 15816.916
227.765, 13167.620
229.139, 10298.307
230.512, 8028.974
231.886, 6067.623
233.259, 4743.254
234.632, 3620.868
236.005, 2866.299
237.377, 2267.676
238.749, 1794.987
240.122, 1551.228
241.493, 1284.350
242.865, 1155.404
244.237, 1038.411
245.608, 1085.129
246.979, 1247.757
248.350, 1420.477
249.720, 1601.165
251.090, 1840.896
252.461, 1909.544
253.830, 1693.731
255.200, 1523.187
256.570, 1225.730
257.939, 909.442
259.308, 746.068
260.677, 585.821
262.045, 464.561
263.414, 373.231
264.782, 295.874
266.150, 208.630
267.517, 121.297
268.885, 60.052
270.252, 28.762
271.619, 15.498
272.986, 22.834
274.353, 17.178
275.719, 40.529
277.085, 41.815
278.451, 39.268
279.817, 34.656
281.182, 54.056
282.548, 44.474
283.913, 11.897
285.278, 68.961
286.642, 99.908
288.007, 253.793
289.371, 368.903
290.735, 491.936
292.099, 513.043
293.462, 534.023
294.826, 593.319
296.189, 650.398
297.552, 808.689
298.914, 975.772
300.277, 1315.877
301.639, 1817.941
303.001, 2180.169
304.363, 2345.276
305.724, 2404.453
307.086, 2157.685
308.447, 1867.731
309.808, 1559.281
311.168, 1307.724
312.529, 1183.282
313.889, 976.254
315.249, 846.604
316.609, 770.958
317.969, 693.847
319.328, 624.045
320.687, 580.917
322.046, 569.038
323.405, 616.726
324.764, 682.554
326.122, 656.141
327.480, 812.685
328.838, 986.377
330.196, 1197.884
331.553, 1461.795
332.910, 1655.921
334.267, 1767.516
335.624, 1654.790
336.981, 1570.835
338.337, 1474.782
339.693, 1425.059
341.049, 1489.162
342.405, 1516.197
343.760, 1628.974
345.116, 1524.006
346.471, 1531.700
347.826, 1381.932
349.180, 1251.227
350.535, 1171.657
351.889, 1141.789
353.243, 1144.239
354.597, 986.544
355.950, 965.876
357.304, 864.094
358.657, 759.292
360.010, 724.429
361.362, 648.379
362.715, 666.368
364.067, 683.321
365.419, 688.241
366.771, 755.176
368.123, 922.006
369.474, 1000.846
370.825, 1151.650
372.176, 1226.439
373.527, 1269.214
374.877, 1234.973
376.228, 1185.718
377.578, 1083.448
378.928, 1109.164
380.277, 1067.864
381.627, 1060.611
382.976, 1144.282
384.325, 1198.937
385.674, 1367.578
387.023, 1599.203
388.371, 1963.813
389.719, 2424.409
391.067, 3121.061
392.415, 3937.626
393.762, 4977.177
395.110, 5633.859
396.457, 5889.395
397.804, 5215.032
399.150, 4271.578
400.497, 3273.202
401.843, 2564.886
403.189, 1863.320
404.535, 1466.064
405.881, 1143.711
407.226, 979.240
408.571, 988.912
409.916, 962.496
411.261, 1021.047
412.605, 1113.531
413.950, 1347.061
415.294, 1492.714
416.638, 1718.260
417.981, 1845.794
419.325, 1707.217
420.668, 1555.485
422.011, 1360.850
423.354, 1139.310
424.697, 1019.616
426.039, 799.985
427.381, 654.182
428.723, 535.496
430.065, 499.664
431.406, 446.697
432.748, 482.476
434.089, 461.181
435.430, 488.507
436.770, 456.249
438.111, 453.682
439.451, 420.864
440.791, 356.330
442.131, 229.882
443.471, 189.319
444.810, 169.200
446.149, 100.055
447.488, 77.907
448.827, 91.845
450.166, 40.731
451.504, 53.560
452.842, 39.546
454.180, 63.150
455.518, 17.913
456.855, 40.653
458.193, 17.371
459.530, 4.935
460.867, 21.272
462.203, 39.351
463.540, 17.952
464.876, 18.530
466.212, 10.911
467.548, 11.457
468.883, 9.144
470.219, 13.347
471.554, 13.858
472.889, 0.607
474.224, 19.957
475.558, 8.442
476.892, 42.180
478.227, 34.854
479.561, 15.424
480.894, 52.677
482.228, 19.915
483.561, 92.128
484.894, 56.325
486.227, 111.509
487.559, 119.674
488.892, 81.824
490.224, 123.954
491.556, 35.066
492.888, 14.154
494.220, 15.777
495.551, 6.267
496.882, 7.703
498.213, 54.694
499.544, 44.732
500.874, 42.812
502.205, 57.933
503.535, 22.105
504.865, 26.314
506.194, 28.440
507.524, 29.829
508.853, 0.857
510.182, 1.486
511.511, 12.861
512.840, 57.728
514.168, 89.294
515.496, 79.840
516.824, 104.363
518.152, 105.866
519.480, 117.349
520.807, 158.812
522.134, 146.256
523.461, 151.680
524.788, 156.086
526.114, 149.472
527.441, 177.840
528.767, 165.189
530.093, 231.519
531.418, 259.832
532.744, 239.125
534.069, 199.401
535.394, 239.658
536.719, 233.896
538.044, 195.117
539.368, 184.319
540.693, 153.502
542.017, 189.667
543.340, 172.814
544.664, 174.942
545.987, 182.052
547.311, 187.143
548.634, 186.217
549.956, 149.272
551.279, 181.308
552.601, 170.326
553.923, 130.326
555.245, 161.306
556.567, 133.268
557.889, 150.211
559.210, 127.135
560.531, 108.041
561.852, 165.926
563.173, 84.794
564.493, 103.647
565.813, 127.481
567.133, 89.297
568.453, 106.098
569.773, 109.880
571.092, 121.642
572.412, 106.385
573.731, 73.108
575.049, 94.810
576.368, 96.492
577.686, 119.154
579.005, 151.796
580.323, 124.420
581.640, 97.025
582.958, 129.611
584.275, 110.177
585.593, 146.724
586.909, 114.253
588.226, 144.762
589.543, 131.254
590.859, 197.727
592.175, 155.185
593.491, 163.626
594.807, 135.057
596.122, 92.478
597.438, 127.890
598.753, 93.298
600.068, 136.698
601.382, 107.092
602.697, 139.483
604.011, 165.860
605.325, 122.937
606.639, 127.903
607.952, 141.908
609.266, 159.665
610.579, 262.474
611.892, 208.214
613.205, 268.118
614.518, 292.742
615.830, 294.646
617.142, 370.302
618.454, 349.199
619.766, 454.024
621.078, 455.893
622.389, 451.528
623.700, 602.774
625.011, 575.130
626.322, 643.753
627.632, 664.449
628.943, 713.111
630.253, 754.109
631.563, 741.132
632.872, 926.059
634.182, 946.531
635.491, 1019.757
636.800, 1164.508
638.109, 1184.853
639.418, 1293.746
640.726, 1493.057
642.035, 1667.545
643.343, 1812.354
644.651, 1991.201
645.958, 2282.126
647.266, 2495.803
648.573, 2847.840
649.880, 3271.193
651.187, 3601.788
652.494, 4121.443
653.800, 4488.155
655.106, 4936.510
656.412, 5466.407
657.718, 6077.659
659.024, 6573.431
660.329, 7491.027
661.634, 8545.460
662.939, 9839.473
664.244, 11564.877
665.549, 14347.527
666.853, 17242.064
668.157, 21486.428
669.461, 27270.014
670.765, 33415.250
672.069, 41130.473
673.372, 46035.652
674.675, 48320.910
675.978, 47226.172
677.281, 40931.621
678.583, 34367.074
679.886, 27422.471
681.188, 21127.875
682.490, 16763.279
683.792, 13038.646
685.093, 10534.093
686.394, 8359.503
687.696, 7134.925
688.997, 5872.334
690.297, 5053.729
691.598, 4458.112
692.898, 3781.482
694.198, 3331.840
695.498, 2957.186
696.798, 2550.521
698.097, 2401.780
699.397, 2060.090
700.696, 1874.388
701.995, 1772.674
703.293, 1443.948
704.592, 1416.210
705.890, 1276.460
707.188, 1258.629
708.486, 1155.856
709.784, 1074.072
711.081, 937.131
712.378, 924.309
713.675, 883.372
714.972, 857.547
716.269, 750.553
717.565, 709.646
718.862, 680.854
720.158, 615.934
721.453, 617.804
722.749, 542.067
724.045, 560.316
725.340, 559.168
726.635, 522.028
727.930, 555.927
729.224, 496.754
730.519, 457.433
731.813, 446.194
733.107, 394.954
734.401, 438.800
735.694, 421.774
736.988, 416.626
738.281, 363.355
739.574, 345.213
740.867, 411.981
742.160, 367.894
743.452, 410.665
744.744, 412.555
746.036, 361.381
747.328, 483.301
748.620, 461.213
749.911, 514.116
751.202, 472.929
752.493, 444.559
753.784, 419.329
755.075, 369.101
756.365, 362.741
757.655, 309.404
758.945, 229.196
760.235, 272.032
761.525, 139.742
762.814, 121.468
764.103, 114.248
765.392, 97.058
766.681, 77.863
767.969, 62.842
769.258, 48.197
770.546, 26.243
771.834, 29.023
773.122, 14.798
774.409, 20.571
775.697, 13.346
776.984, 17.115
778.271, 5.122
779.558, 43.372
780.844, 48.647
782.131, 32.951
783.417, 20.280
784.703, 42.621
785.989, 16.013
787.274, 1.645
788.560, 15.723
789.845, 26.894
791.130, 6.520
792.415, 23.154
793.699, 17.217
794.983, 36.395
796.268, 7.997
797.552, 33.402
798.835, 16.168
800.119, 15.268
801.402, 18.279
802.686, 0.821
803.969, 30.354
805.251, 22.117
806.534, 47.604
807.816, 44.115
809.098, 51.738
810.380, 44.214
811.662, 40.436
812.944, 47.372
814.225, 27.970
815.506, 21.510
816.787, 19.174
818.068, 1.782
819.349, 4.604
820.629, 9.997
821.909, 13.390
823.189, 23.785
824.469, 26.185
825.749, 75.581
827.028, 53.975
828.307, 64.366
829.586, 59.756
830.865, 16.143
832.144, 125.525
833.422, 115.905
834.700, 96.283
835.978, 133.657
837.256, 132.028
838.534, 141.012
839.811, 154.761
841.088, 156.124
842.365, 131.484
843.642, 125.842
844.919, 137.198
846.195, 145.550
847.472, 152.901
848.748, 170.250
850.023, 138.597
851.299, 159.942
852.575, 91.285
853.850, 98.627
855.125, 131.971
856.400, 129.312
857.674, 45.654
858.949, 59.995
860.223, 42.337
861.497, 79.679
862.771, 57.021
864.045, 51.361
865.318, 42.701
866.591, 33.041
867.864, 20.382
869.137, 37.722
870.410, 0.939
871.682, 17.408
872.955, 28.246
874.227, 81.089
875.499, 6.573
876.770, 32.240
878.042, 65.083
879.313, 38.408
880.584, 57.735
881.855, 89.062
883.126, 78.392
884.396, 161.723
885.667, 94.059
886.937, 197.396
888.207, 163.741
889.476, 294.086
890.746, 245.434
892.015, 261.783
893.284, 321.134
894.553, 289.489
895.822, 381.862
897.090, 450.237
898.359, 424.616
899.627, 506.999
900.895, 449.383
902.163, 480.789
903.430, 565.197
904.698, 540.606
905.965, 559.029
907.232, 609.453
908.499, 619.880
909.765, 747.308
911.032, 855.743
912.298, 873.186
913.564, 1068.630
914.830, 1090.081
916.095, 1243.552
917.361, 1406.025
918.626, 1588.517
919.891, 1909.981
921.156, 2113.386
922.420, 2496.748
923.685, 2823.022
924.949, 3291.315
926.213, 3944.551
927.477, 4487.814
928.740, 5204.065
930.004, 5801.336
931.267, 6063.987
932.530, 6265.313
933.793, 5675.323
935.056, 5054.331
936.318, 4313.147
937.581, 3395.576
938.843, 3026.871
940.104, 2432.957
941.366, 2079.097
942.628, 1892.456
943.889, 1705.733
945.150, 1607.082
946.411, 1580.188
947.672, 1480.603
948.932, 1486.253
950.193, 1443.422
951.453, 1385.772
952.713, 1319.067
953.973, 1152.437
955.232, 1156.610
956.491, 946.039
957.751, 885.986
959.010, 897.382
960.268, 837.015
961.527, 744.187
962.785, 696.851
964.044, 620.271
965.302, 574.846
966.559, 509.997
967.817, 493.112
969.075, 500.375
970.332, 459.560
971.589, 451.940
972.846, 367.348
974.102, 427.774
975.359, 459.248
976.615, 430.742
977.871, 373.363
979.127, 329.981
980.383, 348.606
981.638, 359.287
982.893, 347.761
984.149, 347.390
985.404, 342.165
986.658, 374.796
987.913, 379.428
989.167, 343.060
990.421, 316.695
991.675, 369.420
992.929, 316.240
994.183, 409.918
995.436, 371.821
996.689, 351.462
997.942, 384.306
999.195, 348.235
1000.448, 435.877
1001.700, 442.814
1002.952, 408.626
1004.204, 510.521
1005.456, 492.970
1006.708, 529.834
1007.959, 633.969
1009.210, 524.984
1010.461, 619.375
1011.712, 729.336
1012.963, 688.437
1014.213, 869.280
1015.464, 825.412
1016.714, 803.264
1017.964, 887.435
1019.214, 877.440
1020.463, 1091.133
1021.712, 1076.878
1022.962, 1144.861
1024.210, 1274.602
1025.459, 1261.796
1026.708, 1467.341
1027.956, 1443.294
1029.204, 1669.355
1030.452, 1809.443
1031.700, 1874.574
1032.948, 2001.768
1034.195, 2147.966
1035.442, 2205.296
1036.689, 2578.502
1037.936, 2582.879
1039.183, 2866.922
1040.429, 3146.154
1041.676, 3333.162
1042.922, 3865.204
1044.168, 4173.735
1045.413, 4667.743
1046.659, 5405.955
1047.904, 5895.507
1049.149, 6911.033
1050.394, 7996.277
1051.639, 8955.925
1052.884, 10401.125
1054.128, 11836.251
1055.372, 13563.878
1056.616, 15178.940
1057.860, 16394.012
1059.104, 17899.031
1060.347, 18544.963
1061.590, 17901.439
1062.833, 17066.352
1064.076, 14962.538
1065.319, 12831.854
1066.561, 11066.972
1067.803, 9286.080
1069.046, 7921.137
1070.287, 6445.977
1071.529, 5315.559
1072.771, 4360.354
1074.012, 3559.052
1075.253, 3022.856
1076.494, 2492.505
1077.735, 2016.970
1078.975, 1869.880
1080.216, 1578.776
1081.456, 1403.795
1082.696, 1291.885
1083.936, 1052.834
1085.175, 972.654
1086.415, 966.382
1087.654, 734.396
1088.893, 774.111
1090.132, 675.934
1091.371, 655.203
1092.609, 678.940
1093.847, 428.383
1095.085, 526.820
1096.323, 581.645
1097.561, 412.856
1098.799, 526.622
1100.036, 386.445
1101.273, 409.060
1102.510, 386.465
1103.747, 351.201
1104.983, 413.032
1106.220, 380.378
1107.456, 369.747
1108.692, 358.646
1109.928, 304.208
1111.163, 331.138
1112.399, 353.733
1113.634, 213.295
1114.869, 252.156
1116.104, 235.725
1117.339, 175.443
1118.573, 246.135
1119.808, 205.742
1121.042, 315.636
1122.276, 279.961
1123.509, 281.643
1124.743, 252.441
1125.976, 237.794
1127.210, 126.478
1128.443, 107.179
1129.675, 70.500
1130.908, 128.384
1132.141, 192.767
1133.373, 51.953
1134.605, 166.449
1135.837, 111.806
1137.068, 93.280
1138.300, 164.030
1139.531, 71.228
1140.762, 49.772
1141.993, 85.300
1143.224, 32.455
1144.455, 152.997
1145.685, 48.924
1146.915, 30.334
1148.145, 102.019
1149.375, 30.901
1150.605, 62.241
1151.834, 43.619
1153.063, 13.454
1154.292, 56.826
1155.521, 1.201
1156.750, 22.970
1157.978, 9.019
1159.207, 45.030
1160.435, 13.732
1161.663, 77.552
1162.891, 9.567
1164.118, 77.902
1165.345, 1.016
1166.573, 27.945
1167.800, 118.900
1169.026, 33.398
1170.253, 34.374
1171.480, 43.964
1172.706, 2.677
1173.932, 86.531
1175.158, 5.805
1176.383, 36.717
1177.609, 32.345
1178.834, 22.730
1180.059, 8.912
1181.284, 8.505
1182.509, 1.969
1183.734, 7.540
1184.958, 19.766
1186.182, 47.277
1187.406, 3.432
1188.630, 55.646
1189.854, 47.674
1191.077, 4.616
1192.301, 59.759
1193.524, 8.403
1194.747, 4.104
1195.969, 3.420
1197.192, 6.482
1198.414, 68.398
1199.636, 12.137
1200.858, 27.916
1202.080, 35.502
1203.302, 41.469
1204.523, 40.979
1205.744, 52.421
1206.966, 7.593
1208.186, 15.884
1209.407, 75.327
1210.628, 10.476
1211.848, 60.139
1213.068, 26.230
1214.288, 56.562
1215.508, 38.422
1216.727, 88.821
1217.947, 47.679
1219.166, 97.215
1220.385, 1.484
1221.604, 92.575
1222.822, 128.269
1224.041, 45.158
1225.259, 64.080
1226.477, 65.910
1227.695, 36.026
1228.913, 26.792
1230.130, 57.457
1231.348, 95.653
1232.565, 117.158
1233.782, 59.859
1234.999, 4.722
1236.215, 102.071
1237.432, 22.235
1238.648, 122.580
1239.864, 196.313
1241.080, 12.964
1242.296, 97.206
1243.511, 25.789
1244.726, 5.213
1245.942, 94.367
1247.156, 8.702
1248.371, 190.590
1249.586, 108.631
1250.800, 84.894
1252.014, 204.218
1253.228, 16.340
1254.442, 65.859
1255.656, 146.710
1256.869, 59.882
1258.083, 139.781
1259.296, 147.342
1260.509, 76.652
1261.722, 145.406
1262.934, 108.061
1264.147, 112.946
1265.359, 130.550
1266.571, 59.013
1267.783, 192.148
1268.994, 103.481
1270.206, 6.830
1271.417, 175.829
1272.628, 92.968
1273.839, 86.056
1275.050, 173.220
1276.260, 49.140
1277.471, 152.734
1278.681, 195.687
1279.891, 118.040
1281.101, 147.383
1282.310, 115.145
1283.520, 56.550
1284.729, 174.083
1285.938, 86.858
1287.147, 87.367
1288.356, 171.885
1289.564, 74.128
1290.773, 216.898
1291.981, 96.123
1293.189, 48.371
1294.397, 213.832
1295.604, 98.824
1296.812, 85.828
1298.019, 187.881
1299.226, 4.762
1300.433, 164.560
1301.640, 111.150
1302.846, 33.187
1304.053, 127.371
1305.259, 30.994
1306.465, 24.407
1307.671, 116.990
1308.876, 55.227
1310.082, 80.699
1311.287, 117.844
1312.492, 105.003
1313.697, 159.816
1314.902, 131.032
1316.106, 24.068
1317.310, 133.084
1318.515, 91.874
1319.719, 130.965
1320.922, 158.496
1322.126, 18.270
1323.329, 177.025
1324.533, 35.841
1325.736, 112.322
1326.939, 121.082
1328.141, 70.323
1329.344, 119.619
1330.546, 208.746
1331.748, 174.089
1332.950, 152.179
1334.152, 188.633
1335.354, 48.797
1336.555, 212.418
1337.757, 119.497
1338.958, 54.304
1340.159, 269.843
1341.359, 20.223
1342.560, 92.823
1343.760, 240.057
1344.960, 143.595
1346.160, 182.154
1347.360, 75.843
1348.560, 21.349
1349.759, 184.795
1350.959, 59.562
1352.158, 101.021
1353.357, 252.881
1354.555, 1.756
1355.754, 155.277
1356.952, 126.120
1358.151, 155.104
1359.349, 187.041
1360.546, 79.019
1361.744, 55.110
1362.941, 170.406
1364.139, 64.364
1365.336, 110.346
1366.533, 188.161
1367.730, 21.070
1368.926, 44.101
1370.123, 116.618
1371.319, 49.082
1372.515, 112.367
1373.711, 4.260
1374.906, 37.471
1376.102, 145.890
1377.297, 62.690
1378.492, 49.669
1379.687, 152.566
1380.882, 8.109
1382.077, 138.225
1383.271, 49.288
1384.465, 54.666
1385.659, 137.517
1386.853, 54.723
1388.047, 77.651
1389.240, 133.767
1390.434, 82.738
1391.627, 180.737
1392.820, 136.788
1394.013, 16.709
1395.205, 177.580
1396.398, 91.863
1397.590, 27.635
1398.782, 139.270
1399.974, 58.458
1401.166, 111.175
1402.357, 215.553
1403.549, 30.620
1404.740, 119.357
1405.931, 134.371
1407.122, 70.651
1408.313, 128.460
1409.503, 152.882
1410.693, 24.171
1411.883, 160.895
1413.073, 138.238
1414.263, 18.640
1415.453, 164.360
1416.642, 8.264
1417.831, 138.467
1419.020, 227.435
1420.209, 5.718
1421.398, 157.439
1422.587, 36.165
1423.775, 48.958
1424.963, 208.223
1426.151, 31.340
1427.339, 16.404
1428.526, 113.636
1429.714, 3.673
1430.901, 205.159
1432.088, 188.991
1433.275, 93.198
1434.462, 186.717
1435.648, 127.252
1436.835, 1.889
1438.021, 229.938
1439.207, 8.527
1440.393, 136.646
1441.579, 280.167
1442.764, 58.564
1443.949, 221.439
1445.135, 266.980
1446.320, 82.746
1447.504, 232.202
1448.689, 201.757
1449.873, 149.987
1451.058, 195.827
1452.242, 143.958
1453.426, 125.163
1454.609, 207.688
1455.793, 58.875
1456.976, 253.858
1458.159, 226.932
1459.342, 153.387
1460.525, 288.763
1461.708, 264.994
1462.890, 117.260
1464.073, 311.275
1465.255, 114.953
1466.437, 76.045
1467.619, 375.835
1468.800, 43.304
1469.982, 176.164
1471.163, 295.395
1472.344, 103.900
1473.525, 289.690
1474.706, 186.041
1475.886, 65.051
1477.066, 357.390
1478.247, 157.047
1479.427, 161.248
1480.607, 320.450
1481.786, 73.494
1482.966, 144.869
1484.145, 284.895
1485.324, 80.353
1486.503, 192.949
1487.682, 189.214
1488.860, 19.902
1490.039, 285.294
1491.217, 185.389
1492.395, 24.123
1493.573, 289.571
1494.751, 129.519
1495.928, 137.230
1497.106, 223.678
1498.283, 109.299
1499.460, 162.156
1500.637, 328.229
1501.814, 79.415
1502.990, 310.880
1504.166, 165.956
1505.342, 111.945
