##NAMES=Trilithionite
##RRUFFID=R040105
##IDEAL CHEMISTRY=KLi_1.5_Al_1.5_(Si_3_Al)O_10_F_2_
##LOCALITY=Brown Derby mine, Ohio City, Gunnison County, Colorado, USA
##OWNER=RRUFF
##SOURCE=University of Arizona Mineral Museum
##DESCRIPTION=Purple hexagonal tablet
##STATUS=The identification of this mineral has been confirmed by X-ray diffraction and chemical analysis
##URL=rruff.info/R040105
##MEASURED CHEMISTRY=(K_0.82_Li_0.14_Na_0.04_)(Li_0.53_Al_0.42_Mn_0.05_)_3_(Si_0.84_Al_0.17_)_4_O_10_((OH)_0.59_F_0.41_)_2_
##PIN_ID=L00110
##ORIENTATION=Laser parallel to a* (1 0 0). Fiducial mark perpendicular to laser is parallel to b [0 1 0]
139.0430, 0.0000000E+00
140.2710, 0.7402340
141.5000, 137.8203
142.7280, 120.5801
143.9560, 194.4727
145.1840, 100.3496
146.4120, 45.92969
147.6390, 31.25000
148.8670, 80.45703
150.0940, 92.76562
151.3210, 100.0645
152.5490, 160.3105
153.7750, 92.22461
155.0020, 154.0762
156.2290, 51.76562
157.4550, 16.20703
158.6810, 58.31445
159.9080, 137.0215
161.1340, 330.2637
162.3590, 408.9863
163.5850, 509.1445
164.8110, 687.7051
166.0360, 710.6680
167.2610, 812.0352
168.4860, 1018.775
169.7110, 1103.867
170.9360, 1286.270
172.1610, 1331.945
173.3850, 1705.873
174.6100, 1559.023
175.8340, 1874.387
177.0580, 1752.945
178.2820, 2058.680
179.5050, 2197.568
180.7290, 2306.598
181.9520, 2291.756
183.1760, 2302.033
184.3990, 2286.426
185.6220, 2176.920
186.8450, 2185.904
188.0670, 1919.195
189.2900, 2050.992
190.5120, 1918.172
191.7340, 1687.588
192.9560, 1676.193
194.1780, 1248.258
195.4000, 1265.381
196.6220, 1281.514
197.8430, 1343.893
199.0640, 1147.273
200.2860, 1377.654
201.5070, 1289.035
202.7270, 1042.416
203.9480, 1074.801
205.1690, 1199.188
206.3890, 976.5742
207.6090, 745.9668
208.8290, 916.3574
210.0490, 750.7500
211.2690, 829.1875
212.4890, 750.8281
213.7080, 941.4355
214.9280, 837.0137
216.1470, 723.5566
217.3660, 902.0332
218.5850, 944.4941
219.8030, 780.9414
221.0220, 952.3848
222.2400, 840.8203
223.4590, 928.2520
224.6770, 936.7168
225.8950, 965.2109
227.1120, 1025.705
228.3300, 1046.203
229.5480, 1216.707
230.7650, 1210.213
231.9820, 1302.938
233.1990, 1484.242
234.4160, 1428.766
235.6330, 1565.295
236.8490, 1614.832
238.0660, 1763.234
239.2820, 1901.773
240.4980, 1832.410
241.7140, 2033.414
242.9300, 1957.607
244.1460, 2017.479
245.3610, 2080.842
246.5770, 2155.008
247.7920, 2297.836
249.0070, 2388.211
250.2220, 2506.393
251.4370, 2623.617
252.6510, 2738.062
253.8660, 2872.689
255.0800, 2942.123
256.2940, 2753.576
257.5080, 2965.113
258.7220, 2900.455
259.9360, 3114.840
261.1490, 3178.252
262.3630, 3018.670
263.5760, 2781.090
264.7890, 2864.553
266.0020, 2648.053
267.2150, 2409.547
268.4270, 2299.033
269.6400, 1917.518
270.8520, 1819.998
272.0640, 1672.469
273.2760, 1521.930
274.4880, 1413.387
275.7000, 1345.832
276.9120, 1228.748
278.1230, 973.6953
279.3340, 999.1191
280.5450, 848.5332
281.7560, 618.1660
282.9670, 716.4082
284.1780, 670.4395
285.3880, 402.5625
286.5980, 637.4766
287.8090, 690.2520
289.0190, 471.0312
290.2290, 412.7988
291.4380, 425.4648
292.6480, 447.2109
293.8570, 430.1406
295.0670, 404.9531
296.2760, 436.6465
297.4850, 338.8750
298.6930, 309.0059
299.9020, 313.1855
301.1110, 529.5098
302.3190, 375.7852
303.5270, 471.1035
304.7350, 336.4668
305.9430, 219.8613
307.1510, 274.2910
308.3580, 191.8906
309.5660, 294.3613
310.7730, 205.8750
311.9800, 315.4277
313.1870, 338.0059
314.3940, 263.6035
315.6010, 208.2188
316.8070, 289.8516
318.0130, 274.4980
319.2200, 152.1582
320.4260, 250.8320
321.6310, 99.51758
322.8370, 254.2109
324.0430, 162.9160
325.2480, 330.6289
326.4540, 231.3516
327.6590, 235.0820
328.8640, 17.82031
330.0680, 167.5879
331.2730, 81.35742
332.4780, 193.1348
333.6820, 152.9160
334.8860, 102.7012
336.0900, 14.51172
337.2940, 223.2715
338.4980, 187.0586
339.7010, 159.8418
340.9050, 99.36914
342.1080, 145.3906
343.3110, 104.6445
344.5140, 107.3008
345.7170, 11.97266
346.9200, 279.7461
348.1220, 58.54102
349.3240, 125.4043
350.5270, 30.10742
351.7290, 93.57812
352.9310, 8.2030997E-02
354.1320, 62.26172
355.3340, 95.50195
356.5350, 11.58398
357.7370, 38.81250
358.9380, 14.03125
360.1390, 41.38477
361.3400, 56.07617
362.5400, 149.6484
363.7410, 107.6445
364.9410, 33.85742
366.1410, 11.41016
367.3410, 76.08789
368.5410, 133.8672
369.7410, 75.62500
370.9400, 49.75781
372.1400, 152.6289
373.3390, 61.48438
374.5380, 55.56055
375.7370, 281.3379
376.9360, 396.8730
378.1350, 290.8203
379.3330, 291.2285
380.5310, 251.9570
381.7300, 276.7480
382.9280, 257.4648
384.1260, 342.1055
385.3230, 384.4512
386.5210, 393.4551
387.7180, 429.0195
388.9160, 438.6953
390.1130, 405.9414
391.3100, 421.1484
392.5060, 306.2910
393.7030, 546.5488
394.9000, 347.6543
396.0960, 434.8789
397.2920, 546.0566
398.4880, 542.1406
399.6840, 541.5332
400.8800, 563.5449
402.0750, 555.5488
403.2710, 612.5430
404.4660, 578.5293
405.6610, 416.5059
406.8560, 590.4707
408.0510, 614.4277
409.2450, 395.3770
410.4400, 388.3164
411.6340, 403.2422
412.8280, 238.1602
414.0220, 360.0703
415.2160, 429.9688
416.4100, 207.8574
417.6030, 221.7344
418.7970, 349.6055
419.9900, 292.4648
421.1830, 209.3125
422.3760, 76.15234
423.5690, 140.9824
424.7610, 49.19922
425.9540, 112.4102
427.1460, 15.31055
428.3380, 200.9746
429.5300, 40.62891
430.7220, 180.2793
431.9140, 261.9219
433.1050, 86.55469
434.2970, 204.1836
435.4880, 357.8047
436.6790, 264.4219
437.8700, 183.0410
439.0610, 274.9102
440.2510, 103.6719
441.4420, 212.2637
442.6320, 330.1777
443.8220, 121.7559
445.0120, 441.3398
446.2020, 261.5371
447.3910, 233.2031
448.5810, 162.7441
449.7700, 272.2715
450.9600, 114.7891
452.1490, 32.30859
453.3370, 357.1504
454.5260, 338.8320
455.7150, 405.7852
456.9030, 164.5820
458.0910, 162.9961
459.2800, 171.1738
460.4670, 269.8145
461.6550, 203.1934
462.8430, 202.8145
464.0300, 174.1680
465.2180, 210.0391
466.4050, 422.8398
467.5920, 304.3848
468.7790, 320.8828
469.9650, 343.1719
471.1520, 263.9629
472.3380, 389.5918
473.5250, 480.8457
474.7110, 377.0820
475.8970, 501.3066
477.0820, 398.5137
478.2680, 400.7109
479.4540, 429.7852
480.6390, 314.9512
481.8240, 324.3301
483.0090, 323.8809
484.1940, 227.3516
485.3780, 121.6992
486.5630, 115.1523
487.7470, 181.6426
488.9320, 192.1855
490.1160, 182.5742
491.3000, 106.6484
492.4830, 163.9141
493.6670, 5.300781
494.8500, 181.0098
496.0340, 230.4043
497.2170, 136.6699
498.4000, 87.06641
499.5820, 12.71875
500.7650, 145.3066
501.9480, 67.96484
503.1300, 131.7910
504.3120, 207.5801
505.4940, 57.35547
506.6760, 97.88477
507.8580, 267.6621
509.0390, 9.900391
510.2210, 40.72461
511.4020, 167.4824
512.5830, 69.92188
513.7640, 60.49805
514.9450, 63.33398
516.1250, 18.75977
517.3060, 79.13281
518.4860, 13.40430
519.6660, 35.39453
520.8460, 43.56250
522.0260, 83.80859
523.2060, 68.16016
524.3850, 82.49805
525.5650, 98.81836
526.7440, 233.1230
527.9230, 101.4141
529.1020, 76.69727
530.2810, 105.0000
531.4590, 223.2402
532.6380, 222.4707
533.8160, 334.6895
534.9940, 126.8965
536.1720, 265.0898
537.3500, 132.2715
538.5270, 140.4492
539.7050, 161.6445
540.8820, 74.83203
542.0590, 242.0039
543.2360, 425.1641
544.4130, 367.3125
545.5900, 336.4492
546.7660, 244.5742
547.9430, 285.6895
549.1190, 469.7949
550.2950, 600.9023
551.4710, 751.0059
552.6470, 617.1016
553.8220, 635.1836
554.9980, 520.2559
556.1730, 748.3125
557.3480, 710.3789
558.5230, 710.4316
559.6980, 890.4785
560.8730, 833.5449
562.0470, 700.6758
563.2220, 823.7949
564.3960, 905.6758
565.5700, 941.7656
566.7440, 741.0312
567.9170, 723.3047
569.0910, 644.4531
570.2640, 818.5234
571.4380, 475.1816
572.6110, 648.2207
573.7840, 681.2441
574.9570, 220.0625
576.1290, 532.0801
577.3020, 261.1016
578.4740, 284.1113
579.6460, 102.1094
580.8180, 126.0977
581.9900, 343.9180
583.1620, 86.91016
584.3330, 215.8848
585.5040, 161.7500
586.6760, 16.69336
587.8470, 5.363281
589.0180, 295.5527
590.1880, 269.4551
591.3590, 198.3379
592.5290, 75.06641
593.7000, 166.9375
594.8700, 56.23047
596.0400, 44.55273
597.2090, 79.31641
598.3790, 223.0605
599.5490, 162.8105
600.7180, 220.5508
601.8870, 204.2695
603.0560, 108.9785
604.2250, 270.6680
605.3940, 366.3438
606.5620, 224.0020
607.7300, 117.6445
608.8990, 126.2715
610.0670, 257.8887
611.2350, 50.49023
612.4020, 73.93164
613.5700, 187.5859
614.7370, 442.0859
615.9050, 376.5703
617.0720, 264.0391
618.2390, 328.1602
619.4060, 61.92773
620.5720, 208.3691
621.7390, 122.7949
622.9050, 10.79688
624.0710, 277.5801
625.2370, 120.9648
626.4030, 83.12695
627.5690, 80.28711
628.7340, 163.2246
629.9000, 99.57031
631.0650, 110.0117
632.2300, 173.1328
633.3950, 33.42383
634.5600, 112.0781
635.7240, 24.47461
636.8890, 35.26172
638.0530, 130.3945
639.2170, 185.3379
640.3810, 78.21289
641.5450, 201.3867
642.7080, 346.8281
643.8720, 180.9043
645.0350, 248.0762
646.1980, 217.7988
647.3610, 280.2793
648.5240, 262.8730
649.6870, 356.4258
650.8490, 224.0039
652.0120, 221.1113
653.1740, 168.5547
654.3360, 92.45117
655.4980, 236.1172
656.6600, 358.5391
657.8210, 341.9121
658.9830, 354.0664
660.1440, 339.6816
661.3050, 342.8770
662.4660, 300.3887
663.6270, 322.2441
664.7870, 278.8379
665.9480, 204.0723
667.1080, 394.6504
668.2680, 431.2285
669.4280, 445.2109
670.5880, 348.1035
671.7480, 615.1523
672.9070, 473.4629
674.0670, 546.0371
675.2260, 509.6797
676.3850, 719.0605
677.5440, 937.1699
678.7030, 640.7754
679.8610, 842.2539
681.0200, 852.7324
682.1780, 1048.754
683.3360, 1268.746
684.4940, 1114.674
685.6520, 1307.156
686.8090, 1441.627
687.9670, 1703.609
689.1240, 1750.250
690.2810, 1978.621
691.4380, 2286.100
692.5950, 2491.365
693.7520, 2925.684
694.9080, 3373.090
696.0650, 3396.938
697.2210, 4181.443
698.3770, 4442.818
699.5330, 4823.984
700.6880, 5632.367
701.8440, 6192.152
702.9990, 6989.096
704.1550, 7305.336
705.3100, 8171.746
706.4650, 8709.980
707.6190, 9231.582
708.7740, 9284.764
709.9290, 8846.943
711.0830, 8828.100
712.2370, 8125.232
713.3910, 7137.928
714.5450, 6569.520
715.6980, 5693.559
716.8520, 4995.627
718.0050, 4001.355
719.1580, 3716.619
720.3110, 3095.439
721.4640, 2772.279
722.6170, 2378.291
723.7700, 2063.162
724.9220, 1827.078
726.0740, 1546.521
727.2260, 1367.348
728.3780, 1185.713
729.5300, 1277.477
730.6810, 954.1855
731.8330, 946.4766
732.9840, 650.1484
734.1350, 956.2012
735.2860, 817.4980
736.4370, 986.7188
737.5880, 817.6270
738.7380, 630.6348
739.8880, 459.4004
741.0390, 445.4922
742.1890, 800.8379
743.3380, 495.9961
744.4880, 691.3945
745.6380, 798.7637
746.7870, 688.2715
747.9360, 577.6895
749.0850, 758.1836
750.2340, 673.9258
751.3830, 634.2109
752.5310, 583.4102
753.6800, 712.5859
754.8280, 668.1855
755.9760, 695.6094
757.1240, 582.4199
758.2720, 550.4746
759.4190, 465.5039
760.5670, 463.2402
761.7140, 593.6113
762.8610, 463.5586
764.0080, 477.9414
765.1550, 439.4355
766.3020, 130.3379
767.4480, 451.1816
768.5950, 228.7598
769.7410, 268.5234
770.8870, 530.8555
772.0330, 310.1211
773.1780, 242.9805
774.3240, 276.1875
775.4690, 139.8633
776.6140, 630.6602
777.7590, 456.7734
778.9040, 489.8984
780.0490, 394.4961
781.1940, 330.0234
782.3380, 429.5195
783.4820, 273.9961
784.6260, 390.6523
785.7700, 254.2188
786.9140, 308.0391
788.0580, 394.5430
789.2010, 368.9062
790.3450, 375.2422
791.4880, 214.5703
792.6310, 363.5469
793.7730, 502.2344
794.9160, 104.4766
796.0590, 208.6875
797.2010, 233.2539
798.3430, 9.437500
799.4850, 241.5664
800.6270, 194.6680
801.7690, 320.7422
802.9100, 124.7812
804.0520, 98.78906
805.1930, 55.76172
806.3340, 111.3008
807.4750, 21.97266
808.6160, 33.59766
809.7560, 139.3516
810.8970, 73.07422
812.0370, 254.9414
813.1770, 108.6016
814.3170, 0.7812500
815.4570, 88.20703
816.5960, 71.26172
817.7360, 34.69922
818.8750, 169.3477
820.0140, 171.1953
821.1530, 181.5234
822.2920, 57.82422
823.4310, 56.08594
824.5690, 21.31250
825.7070, 11.50391
826.8460, 7.679688
827.9840, 44.68750
829.1220, 65.71875
830.2590, 56.71484
831.3970, 256.6758
832.5340, 47.19531
833.6710, 228.6562
834.8080, 7.480469
835.9450, 85.74609
837.0820, 265.0664
838.2190, 138.4258
839.3550, 92.87891
840.4910, 264.2969
841.6270, 207.6875
842.7630, 249.0547
843.8990, 162.4609
845.0350, 90.24219
846.1700, 264.9609
847.3060, 354.1328
848.4410, 276.2773
849.5760, 37.60547
850.7100, 125.4375
851.8450, 44.54688
852.9800, 236.3984
854.1140, 72.31250
855.2480, 6.808594
856.3820, 30.01953
857.5160, 77.18750
858.6500, 135.5156
859.7830, 259.1914
860.9170, 216.8359
862.0500, 36.54688
863.1830, 200.0117
864.3160, 91.54688
865.4480, 227.0508
866.5810, 241.5195
867.7130, 320.9648
868.8460, 310.3906
869.9780, 75.78906
871.1100, 182.1719
872.2410, 261.5273
873.3730, 58.13672
874.5050, 105.1250
875.6360, 161.3555
876.7670, 130.5625
877.8980, 129.7344
879.0290, 43.87891
880.1590, 304.9961
881.2900, 228.0898
882.4200, 121.1602
883.5500, 13.80078
884.6800, 162.1914
885.8100, 259.1602
886.9400, 109.1094
888.0690, 247.0508
889.1990, 320.9727
890.3280, 96.86719
891.4570, 130.7422
892.5860, 30.58203
893.7140, 68.60547
894.8430, 254.1367
895.9710, 98.85547
897.1000, 115.5508
898.2280, 258.2266
899.3560, 11.12109
900.4830, 240.4961
901.6110, 83.08984
902.7380, 171.0820
903.8660, 161.6328
904.9930, 118.9883
906.1200, 37.48828
907.2460, 143.9688
908.3730, 74.42188
909.5000, 133.7461
910.6260, 384.1602
911.7520, 80.03125
912.8780, 14.58984
914.0040, 177.7539
915.1290, 156.0781
916.2550, 202.2031
917.3800, 248.4844
918.5050, 166.7461
919.6300, 117.9883
920.7550, 137.8477
921.8800, 68.34766
923.0040, 138.5234
924.1290, 175.6758
925.2530, 170.8125
926.3770, 163.9258
927.5010, 235.7969
928.6250, 58.89453
929.7480, 318.9648
930.8720, 241.3320
931.9950, 63.12109
933.1180, 145.9961
934.2410, 263.0195
935.3640, 297.8984
936.4860, 169.5625
937.6090, 265.5078
938.7310, 193.8555
939.8530, 178.0742
940.9750, 242.0195
942.0970, 192.4180
943.2180, 61.40625
944.3400, 138.0117
945.4610, 219.3203
946.5820, 79.33203
947.7030, 269.0938
948.8240, 202.6016
949.9450, 262.4648
951.0650, 149.2109
952.1860, 124.1367
953.3060, 44.66016
954.4260, 2.019531
955.5460, 203.2891
956.6650, 146.6328
957.7850, 312.3828
958.9040, 419.1172
960.0230, 203.2969
961.1420, 119.7852
962.2610, 509.5156
963.3800, 307.1016
964.4990, 144.8633
965.6170, 224.5391
966.7350, 89.91016
967.8530, 265.1484
968.9710, 143.5156
970.0890, 91.98047
971.2070, 94.61719
972.3240, 362.0078
973.4410, 245.9688
974.5580, 334.7305
975.6750, 244.1719
976.7920, 107.4062
977.9090, 22.80469
979.0250, 189.8398
980.1410, 421.2695
981.2580, 112.6680
982.3740, 412.0547
983.4890, 337.4414
984.6050, 268.2266
985.7200, 668.0781
986.8360, 166.4609
987.9510, 148.7812
989.0660, 54.41406
990.1810, 108.2188
991.2950, 252.5312
992.4100, 394.9570
993.5240, 436.8438
994.6390, 159.1719
995.7530, 290.4062
996.8660, 277.4961
997.9800, 176.6953
999.0940, 306.4883
1000.207, 317.8672
1001.320, 150.2852
1002.433, 386.7344
1003.546, 566.1875
1004.659, 252.9922
1005.772, 346.2461
1006.884, 387.6836
1007.996, 567.7812
1009.108, 423.7188
1010.220, 50.89062
1011.332, 173.9609
1012.444, 424.0781
1013.555, 395.8789
1014.666, 599.4141
1015.777, 502.9375
1016.888, 329.0742
1017.999, 21.30078
1019.110, 404.6250
1020.220, 530.1562
1021.331, 487.2695
1022.441, 261.8867
1023.551, 437.4336
1024.661, 77.51953
1025.770, 428.7539
1026.880, 338.5703
1027.989, 388.6484
1029.098, 309.1875
1030.207, 380.3164
1031.316, 119.5156
1032.425, 330.0625
1033.533, 219.9062
1034.642, 416.4531
1035.750, 465.5469
1036.858, 263.0234
1037.966, 336.4609
1039.073, 247.7266
1040.181, 399.6641
1041.288, 323.0508
1042.396, 433.1562
1043.503, 358.5117
1044.610, 154.0742
1045.716, 478.2266
1046.823, 160.2578
1047.929, 212.8320
1049.036, 53.66797
1050.142, 179.9023
1051.248, 257.4766
1052.353, 398.0391
1053.459, 318.4023
1054.564, 417.8633
1055.670, 464.2969
1056.775, 715.5117
1057.880, 489.1055
1058.985, 586.7031
1060.089, 417.3008
1061.194, 245.0156
1062.298, 498.2070
1063.402, 629.8203
1064.506, 879.4336
1065.610, 990.7656
1066.713, 894.3672
1067.817, 622.0000
1068.920, 716.6406
1070.023, 754.2969
1071.126, 625.4062
1072.229, 929.0664
1073.332, 782.7383
1074.435, 698.5430
1075.537, 918.2617
1076.639, 440.7305
1077.741, 994.5352
1078.843, 894.2969
1079.945, 897.8828
1081.046, 788.6484
1082.148, 841.4258
1083.249, 993.2148
1084.350, 800.0469
1085.451, 1001.887
1086.551, 840.5859
1087.652, 654.9609
1088.752, 876.8281
1089.853, 764.7031
1090.953, 1003.578
1092.053, 964.4688
1093.152, 703.3711
1094.252, 978.2891
1095.351, 893.2305
1096.451, 1201.180
1097.550, 841.1289
1098.649, 818.0977
1099.748, 640.8672
1100.846, 962.8672
1101.945, 982.8711
1103.043, 1014.891
1104.141, 1039.949
1105.239, 1059.645
1106.337, 1085.211
1107.434, 1120.922
1108.532, 1093.285
1109.629, 1166.086
1110.726, 1098.891
1111.823, 1237.078
1112.920, 1070.301
1114.017, 1109.531
1115.113, 1027.773
1116.210, 942.0195
1117.306, 1016.281
1118.402, 1115.562
1119.498, 985.5000
1120.593, 1231.809
1121.689, 1184.125
1122.784, 1274.465
1123.879, 1172.805
1124.974, 1300.188
1126.069, 1497.582
1127.164, 1071.281
1128.259, 1441.133
1129.353, 1305.754
1130.447, 1280.398
1131.541, 1503.902
1132.635, 1180.840
1133.729, 1368.418
1134.822, 1082.227
1135.916, 1154.043
1137.009, 831.5039
1138.102, 948.9688
1139.195, 633.4375
1140.288, 945.9844
1141.380, 655.4883
1142.473, 417.2891
1143.565, 407.5820
1144.657, 684.5000
1145.749, 537.0195
1146.841, 211.6523
1147.932, 490.1719
1149.024, 162.6992
1150.115, 340.7305
1151.206, 117.2773
1152.297, 322.8242
1153.388, 2.753906
1154.479, 330.8008
1155.569, 176.3555
1156.659, 245.9062
1157.750, 335.4648
1158.839, 155.0312
1159.929, 342.9609
1161.019, 170.8984
1162.108, 77.48828
1163.198, 205.0859
1164.287, 159.7070
1165.376, 254.4336
1166.465, 172.0625
1167.553, 43.69922
1168.642, 371.3320
1169.730, 237.9688
1170.818, 49.60938
1171.906, 354.2539
1172.994, 279.8984
1174.082, 139.5469
1175.170, 200.1914
1176.257, 366.8398
1177.344, 86.16016
1178.431, 222.8164
1179.518, 309.4805
1180.605, 140.6094
1181.691, 100.2773
1182.778, 54.07812
1183.864, 114.7461
1184.950, 340.4102
1186.036, 238.0781
1187.122, 281.6328
1188.207, 648.4336
1189.292, 134.1133
1190.378, 111.7930
1191.463, 79.52344
1192.548, 221.1875
1193.632, 170.8359
1194.717, 46.47656
1195.801, 41.87500
1196.886, 341.7500
1197.970, 348.3828
1199.054, 163.0078
1200.137, 78.43359
1201.221, 63.94141
1202.305, 107.6562
1203.388, 82.25391
1204.471, 13.84766
1205.554, 237.4414
1206.637, 305.0312
1207.719, 32.62109
1208.802, 238.2148
1209.884, 228.8047
1210.966, 114.3906
1212.048, 408.9766
1213.130, 415.5625
1214.212, 272.1484
1215.293, 394.7305
1216.374, 15.69141
1217.456, 360.8789
1218.536, 69.64844
1219.617, 182.2148
1220.698, 101.7812
1221.778, 162.3438
1222.859, 104.9023
1223.939, 202.4688
1225.019, 200.6953
1226.099, 369.8984
1227.178, 202.5234
1228.258, 406.0742
1229.337, 327.8594
1230.417, 125.4258
1231.496, 179.9844
1232.574, 181.5742
1233.653, 239.1289
1234.732, 214.6836
1235.810, 92.23047
1236.888, 2.777344
1237.966, 25.24609
1239.044, 53.07812
1240.122, 18.41406
1241.199, 263.3984
1242.277, 176.9180
1243.354, 308.4297
1244.431, 163.9414
1245.508, 195.4492
1246.585, 620.9531
1247.661, 549.4492
1248.738, 3.941406
1249.814, 396.4258
1250.890, 173.9023
1251.966, 171.3750
1253.042, 308.8398
1254.117, 163.3008
1255.193, 86.75391
1256.268, 18.20703
1257.343, 106.3555
1258.418, 45.01562
1259.493, 165.5820
1260.567, 67.32031
1261.642, 8.593750
1262.716, 131.3945
1263.790, 17.72266
1264.864, 17.82422
1265.938, 265.9180
1267.011, 114.0391
1268.085, 285.2695
1269.158, 86.37891
1270.231, 193.4844
1271.304, 52.42188
1272.377, 187.3672
1273.450, 101.4297
1274.522, 130.4375
1275.594, 76.30078
1276.666, 166.2031
1277.738, 174.0547
1278.810, 22.07422
1279.882, 209.7422
1280.953, 306.5469
1282.025, 27.64844
1283.096, 226.0430
1284.167, 205.8047
1285.238, 258.5586
1286.308, 229.3125
1287.379, 161.1562
1288.449, 29.89453
1289.519, 28.62500
1290.589, 270.3477
1291.659, 129.0703
1292.729, 198.5312
1293.798, 96.24219
1294.868, 143.9414
1295.937, 132.6367
1297.006, 136.0859
1298.075, 382.1211
1299.143, 241.7969
1300.212, 234.4609
1301.280, 399.1211
1302.348, 256.7734
1303.416, 253.4141
1304.484, 329.0586
1305.552, 16.83984
1306.620, 153.4609
1307.687, 315.0703
