##NAMES=Trilithionite
##RRUFFID=R040105
##IDEAL CHEMISTRY=KLi_1.5_Al_1.5_(Si_3_Al)O_10_F_2_
##LOCALITY=Brown Derby mine, Ohio City, Gunnison County, Colorado, USA
##OWNER=RRUFF
##SOURCE=University of Arizona Mineral Museum
##DESCRIPTION=Purple hexagonal tablet
##STATUS=The identification of this mineral has been confirmed by X-ray diffraction and chemical analysis
##URL=rruff.info/R040105
##MEASURED CHEMISTRY=(K_0.82_Li_0.14_Na_0.04_)(Li_0.53_Al_0.42_Mn_0.05_)_3_(Si_0.84_Al_0.17_)_4_O_10_((OH)_0.59_F_0.41_)_2_
##PIN_ID=L01598
##ORIENTATION=Laser parallel to c* (0 0 1). Fiducial mark perpendicular to laser is parallel to -a [-1 0 0]
151.3210, 0.0000000E+00
152.5490, 32.36816
153.7750, 51.27539
155.0020, 24.64551
156.2290, 17.13379
157.4550, 10.58398
158.6810, 7.639648
159.9080, 25.38281
161.1340, 5.262695
162.3590, 97.70020
163.5850, 64.45117
164.8110, 136.4307
166.0360, 286.5791
167.2610, 424.7715
168.4860, 563.4512
169.7110, 595.7051
170.9360, 892.1729
172.1610, 1081.156
173.3850, 1272.568
174.6100, 1327.368
175.8340, 1495.708
177.0580, 1639.847
178.2820, 2010.751
179.5050, 1737.249
180.7290, 1941.192
181.9520, 1912.465
183.1760, 1806.973
184.3990, 1666.641
185.6220, 1513.411
186.8450, 1489.232
188.0670, 1990.068
189.2900, 2243.893
190.5120, 1131.690
191.7340, 2169.447
192.9560, 1375.438
194.1780, 819.8203
195.4000, 669.4727
196.6220, 735.2393
197.8430, 682.6445
199.0640, 697.2861
200.2860, 746.1465
201.5070, 568.7070
202.7270, 729.0723
203.9480, 751.2451
205.1690, 499.9600
206.3890, 393.1885
207.6090, 171.9404
208.8290, 276.2451
210.0490, 255.1338
211.2690, 265.6250
212.4890, 391.7412
213.7080, 324.4990
214.9280, 576.9141
216.1470, 474.0010
217.3660, 432.7754
218.5850, 462.2490
219.8030, 587.4316
221.0220, 671.3369
222.2400, 789.9766
223.4590, 648.3564
224.6770, 804.5215
225.8950, 892.5576
227.1120, 854.4551
228.3300, 1039.212
229.5480, 1275.853
230.7650, 1227.390
231.9820, 1504.830
233.1990, 1776.178
234.4160, 1986.436
235.6330, 2201.609
236.8490, 2345.035
238.0660, 2509.144
239.2820, 2650.731
240.4980, 3155.303
241.7140, 3453.675
242.9300, 3589.982
244.1460, 3982.714
245.3610, 4282.412
246.5770, 4646.668
247.7920, 4989.422
249.0070, 5561.199
250.2220, 5705.553
251.4370, 6250.521
252.6510, 6656.678
253.8660, 6949.506
255.0800, 7675.024
256.2940, 7904.842
257.5080, 8343.145
258.7220, 8877.065
259.9360, 9230.026
261.1490, 9423.526
262.3630, 9261.076
263.5760, 8717.651
264.7890, 8335.206
266.0020, 7674.766
267.2150, 7063.293
268.4270, 6322.785
269.6400, 5886.244
270.8520, 5176.662
272.0640, 4668.041
273.2760, 4055.370
274.4880, 3730.643
275.7000, 3334.852
276.9120, 3055.997
278.1230, 2905.082
279.3340, 2531.105
280.5450, 2356.067
281.7560, 2077.970
282.9670, 1980.814
284.1780, 1902.601
285.3880, 1564.330
286.5980, 1585.004
287.8090, 1525.623
289.0190, 1428.189
290.2290, 1249.701
291.4380, 1349.161
292.6480, 1166.569
293.8570, 1210.928
295.0670, 1158.237
296.2760, 1086.496
297.4850, 954.5225
298.6930, 1110.316
299.9020, 1287.859
301.1110, 1101.869
302.3190, 963.1680
303.5270, 1050.752
304.7350, 1242.003
305.9430, 971.6035
307.1510, 882.2363
308.3580, 865.8926
309.5660, 669.5664
310.7730, 690.2510
311.9800, 626.9404
313.1870, 688.6309
314.3940, 701.3154
315.6010, 743.9941
316.8070, 630.6602
318.0130, 592.3125
319.2200, 467.9473
320.4260, 423.5654
321.6310, 380.1611
322.8370, 471.7314
324.0430, 414.2734
325.2480, 286.7832
326.4540, 219.2568
327.6590, 368.6904
328.8640, 127.0859
330.0680, 398.4346
331.2730, 167.7441
332.4780, 22.00879
333.6820, 23.78906
334.8860, 82.33984
336.0900, 109.4141
337.2940, 129.4395
338.4980, 158.5840
339.7010, 133.7178
340.9050, 71.95508
342.1080, 211.2822
343.3110, 168.7354
344.5140, 210.3105
345.7170, 45.03125
346.9200, 204.8574
348.1220, 100.8359
349.3240, 82.05957
350.5270, 194.1260
351.7290, 106.3506
352.9310, 31.52734
354.1320, 2.672852
355.3340, 79.65918
356.5350, 139.7822
357.7370, 96.29883
358.9380, 238.9531
360.1390, 291.1084
361.3400, 252.1465
362.5400, 367.2295
363.7410, 303.5898
364.9410, 384.4951
366.1410, 420.3848
367.3410, 452.0117
368.5410, 558.3203
369.7410, 535.0830
370.9400, 720.6406
372.1400, 796.2334
373.3390, 984.5918
374.5380, 1057.039
375.7370, 1047.499
376.9360, 1041.307
378.1350, 999.2441
379.3330, 1056.715
380.5310, 1093.854
381.7300, 1159.108
382.9280, 1336.311
384.1260, 1392.459
385.3230, 1720.551
386.5210, 1568.590
387.7180, 1896.499
388.9160, 2037.331
390.1130, 1979.004
391.3100, 2186.469
392.5060, 2299.662
393.7030, 2628.640
394.9000, 2468.387
396.0960, 2836.973
397.2920, 2808.399
398.4880, 2975.743
399.6840, 3030.035
400.8800, 3130.297
402.0750, 3225.532
403.2710, 3259.740
404.4660, 3396.928
405.6610, 3123.095
406.8560, 3334.243
408.0510, 3154.370
409.2450, 3029.479
410.4400, 3065.568
411.6340, 2793.638
412.8280, 2574.689
414.0220, 2497.721
415.2160, 2255.734
416.4100, 2066.729
417.6030, 1922.707
418.7970, 1902.665
419.9900, 1756.606
421.1830, 1536.531
422.3760, 1694.438
423.5690, 1443.329
424.7610, 1396.203
425.9540, 1423.062
427.1460, 1270.904
428.3380, 1289.731
429.5300, 1351.544
430.7220, 1386.340
431.9140, 1411.732
433.1050, 1354.889
434.2970, 1417.644
435.4880, 1557.382
436.6790, 1475.108
437.8700, 1323.821
439.0610, 1490.521
440.2510, 1305.208
441.4420, 1473.867
442.6320, 1323.500
443.8220, 1202.105
445.0120, 1091.689
446.2020, 1311.247
447.3910, 1271.783
448.5810, 1151.295
449.7700, 1384.781
450.9600, 1156.242
452.1490, 1196.676
453.3370, 1206.082
454.5260, 1173.464
455.7150, 1218.819
456.9030, 1129.146
458.0910, 1241.449
459.2800, 1342.725
460.4670, 1169.973
461.6550, 1205.197
462.8430, 1323.395
464.0300, 1159.561
465.2180, 1191.514
466.4050, 1381.633
467.5920, 1296.667
468.7790, 1500.137
469.9650, 1487.166
471.1520, 1611.918
472.3380, 1538.870
473.5250, 1641.688
474.7110, 1685.115
475.8970, 1730.878
477.0820, 1666.844
478.2680, 1530.705
479.4540, 1503.948
480.6390, 1428.883
481.8240, 1282.210
483.0090, 1202.057
484.1940, 1017.740
485.3780, 933.6426
486.5630, 734.1826
487.7470, 685.0830
488.9320, 709.3301
490.1160, 458.5225
491.3000, 400.2217
492.4830, 313.7441
493.6670, 91.55664
494.8500, 37.86426
496.0340, 31.04297
497.2170, 115.3301
498.4000, 31.21094
499.5820, 146.7793
500.7650, 37.41699
501.9480, 55.90332
503.1300, 89.43555
504.3120, 92.08203
505.4940, 38.22363
506.6760, 188.6562
507.8580, 41.11523
509.0390, 50.96875
510.2210, 44.95117
511.4020, 28.15430
512.5830, 128.7490
513.7640, 58.28711
514.9450, 96.68262
516.1250, 30.69629
517.3060, 43.27539
518.4860, 11.75879
519.6660, 74.80078
520.8460, 244.1250
522.0260, 204.0488
523.2060, 290.9688
524.3850, 179.8848
525.5650, 124.7979
526.7440, 350.7666
527.9230, 585.7314
529.1020, 210.7617
530.2810, 608.7949
531.4590, 447.8955
532.6380, 508.9961
533.8160, 665.1494
534.9940, 636.3730
536.1720, 859.6201
537.3500, 911.9502
538.5270, 969.3232
539.7050, 868.7510
540.8820, 1114.248
542.0590, 1227.779
543.2360, 1201.364
544.4130, 1441.967
545.5900, 1524.609
546.7660, 1539.260
547.9430, 1586.917
549.1190, 1703.232
550.2950, 1815.386
551.4710, 1973.032
552.6470, 2125.787
553.8220, 2332.547
554.9980, 2485.338
556.1730, 2544.135
557.3480, 2529.941
558.5230, 2786.754
559.6980, 2935.575
560.8730, 2838.404
562.0470, 2988.242
563.2220, 2904.086
564.3960, 3038.939
565.5700, 2816.802
566.7440, 2887.671
567.9170, 2577.550
569.0910, 2347.438
570.2640, 2278.334
571.4380, 1973.240
572.6110, 1841.153
573.7840, 1607.077
574.9570, 1455.010
576.1290, 1350.951
577.3020, 1266.901
578.4740, 1053.862
579.6460, 984.8320
580.8180, 775.8115
581.9900, 732.8008
583.1620, 772.7998
584.3330, 732.8086
585.5040, 614.8271
586.6760, 549.8564
587.8470, 545.8955
589.0180, 438.9463
590.1880, 590.0059
591.3590, 570.0781
592.5290, 539.1602
593.7000, 577.2529
594.8700, 558.2266
596.0400, 631.4727
597.2090, 583.5986
598.3790, 648.4170
599.5490, 701.8867
600.7180, 698.0488
601.8870, 725.2227
603.0560, 743.4072
604.2250, 777.6045
605.3940, 1006.813
606.5620, 845.0371
607.7300, 891.2725
608.8990, 1082.521
610.0670, 986.7842
611.2350, 1018.066
612.4020, 816.3604
613.5700, 911.6777
614.7370, 1109.010
615.9050, 1069.359
617.0720, 1137.695
618.2390, 968.1836
619.4060, 1141.646
620.5720, 1010.135
621.7390, 1016.645
622.9050, 1009.240
624.0710, 1094.912
625.2370, 979.6484
626.4030, 996.4844
627.5690, 920.4062
628.7340, 1033.430
629.9000, 606.5078
631.0650, 725.6836
632.2300, 560.9316
633.3950, 693.2070
634.5600, 473.4707
635.7240, 457.6406
636.8890, 327.7305
638.0530, 187.2988
639.2170, 408.5449
640.3810, 332.3340
641.5450, 516.4570
642.7080, 423.0410
643.8720, 429.7051
645.0350, 442.2891
646.1980, 635.5625
647.3610, 463.2578
648.5240, 562.9375
649.6870, 584.8496
650.8490, 500.0527
652.0120, 558.6914
653.1740, 554.6680
654.3360, 603.5039
655.4980, 589.5469
656.6600, 729.4746
657.8210, 709.3633
658.9830, 733.8828
660.1440, 732.2441
661.3050, 761.3633
662.4660, 754.7988
663.6270, 797.6914
664.7870, 800.4180
665.9480, 913.7207
667.1080, 1064.760
668.2680, 1186.307
669.4280, 1263.416
670.5880, 1150.996
671.7480, 1481.178
672.9070, 1553.457
674.0670, 1814.223
675.2260, 2085.236
676.3850, 2059.158
677.5440, 2357.465
678.7030, 2520.516
679.8610, 2688.947
681.0200, 2901.148
682.1780, 3327.113
683.3360, 3838.730
684.4940, 4301.117
685.6520, 4708.678
686.8090, 5184.115
687.9670, 5711.385
689.1240, 6469.777
690.2810, 7206.928
691.4380, 8041.307
692.5950, 8663.625
693.7520, 10009.75
694.9080, 11308.08
696.0650, 12624.42
697.2210, 14415.77
698.3770, 16112.13
699.5330, 18330.50
700.6880, 20771.87
701.8440, 23202.25
702.9990, 25756.64
704.1550, 28490.04
705.3100, 30588.45
706.4650, 32751.88
707.6190, 33439.29
708.7740, 33263.72
709.9290, 32216.15
711.0830, 29821.60
712.2370, 26594.05
713.3910, 23507.51
714.5450, 20373.97
715.6980, 17200.44
716.8520, 14743.91
718.0050, 12703.39
719.1580, 10652.88
720.3110, 9079.363
721.4640, 8028.861
722.6170, 6911.361
723.7700, 6017.865
724.9220, 5117.379
726.0740, 4575.895
727.2260, 4080.414
728.3780, 3741.941
729.5300, 3407.471
730.6810, 3109.004
731.8330, 2617.543
732.9840, 2530.088
734.1350, 2150.635
735.2860, 2076.188
736.4370, 2040.742
737.5880, 1799.303
738.7380, 1687.869
739.8880, 1743.438
741.0390, 1699.008
742.1890, 1827.586
743.3380, 1656.164
744.4880, 1685.750
745.6380, 1627.336
746.7870, 1744.928
747.9360, 1689.520
749.0850, 1533.117
750.2340, 1739.715
751.3830, 1673.318
752.5310, 1578.924
753.6800, 1534.533
754.8280, 1303.145
755.9760, 1506.756
757.1240, 1077.371
758.2720, 1136.988
759.4190, 1104.607
760.5670, 940.2266
761.7140, 950.8496
762.8610, 874.4707
764.0080, 709.0938
765.1550, 794.7188
766.3020, 529.3418
767.4480, 393.9648
768.5950, 584.5879
769.7410, 482.2070
770.8870, 308.8242
772.0330, 412.4414
773.1780, 528.0566
774.3240, 450.6699
775.4690, 411.2891
776.6140, 366.9297
777.7590, 491.5762
778.9040, 343.2559
780.0490, 629.9395
781.1940, 516.6172
782.3380, 524.3145
783.4820, 292.0234
784.6260, 663.7383
785.7700, 232.4922
786.9140, 446.2441
788.0580, 222.0000
789.2010, 400.7598
790.3450, 339.5156
791.4880, 442.2930
792.6310, 148.0664
793.7730, 258.8555
794.9160, 114.6426
796.0590, 230.4277
797.2010, 90.21094
798.3430, 36.99805
799.4850, 136.7793
800.6270, 58.55859
801.7690, 78.32812
802.9100, 181.9062
804.0520, 97.73438
805.1930, 215.6270
806.3340, 20.86914
807.4750, 217.6484
808.6160, 71.68945
809.7560, 159.9785
810.8970, 214.7578
812.0370, 42.67969
813.1770, 247.6523
814.3170, 109.7852
815.4570, 137.0078
816.5960, 206.3301
817.7360, 58.79102
818.8750, 134.3145
820.0140, 0.9375000
821.1530, 76.59180
822.2920, 44.68359
823.4310, 52.94727
824.5690, 202.2031
825.7070, 75.54883
826.8460, 87.37109
827.9840, 71.73047
829.1220, 195.6562
830.2590, 37.25977
831.3970, 173.7480
832.5340, 133.7773
833.6710, 228.9883
834.8080, 228.0039
835.9450, 280.0098
837.0820, 228.0117
838.2190, 289.6250
839.3550, 426.9941
840.4910, 358.9219
841.6270, 488.7500
842.7630, 496.7168
843.8990, 548.6758
845.0350, 546.6270
846.1700, 663.4277
847.3060, 537.3672
848.4410, 543.2969
849.5760, 781.2207
850.7100, 619.1367
851.8450, 531.0449
852.9800, 646.9473
854.1140, 562.8418
855.2480, 492.7285
856.3820, 589.6074
857.5160, 700.4805
858.6500, 522.3438
859.7830, 999.2012
860.9170, 919.0488
862.0500, 909.8887
863.1830, 923.7246
864.3160, 794.5508
865.4480, 751.3691
866.5810, 679.1797
867.7130, 762.9844
868.8460, 693.7793
869.9780, 776.5664
871.1100, 761.3477
872.2410, 554.1230
873.3730, 520.8867
874.5050, 500.6465
875.6360, 728.3965
876.7670, 473.1387
877.8980, 687.8750
879.0290, 818.6016
880.1590, 510.3223
881.2900, 405.0352
882.4200, 679.7383
883.5500, 457.4375
884.6800, 606.1289
885.8100, 503.8164
886.9400, 574.4941
888.0690, 709.1641
889.1990, 499.8262
890.3280, 755.4824
891.4570, 829.1289
892.5860, 724.7676
893.7140, 770.4102
894.8430, 751.9531
895.9710, 590.6680
897.1000, 763.2891
898.2280, 713.9004
899.3560, 789.5098
900.4830, 694.1113
901.6110, 767.7051
902.7380, 702.2949
903.8660, 715.8789
904.9930, 672.4648
906.1200, 843.0605
907.2460, 843.6543
908.3730, 722.2383
909.5000, 780.8184
910.6260, 681.3906
911.7520, 825.9570
912.8780, 889.5156
914.0040, 712.0664
915.1290, 826.6074
916.2550, 753.1445
917.3800, 734.6758
918.5050, 741.1992
919.6300, 611.7168
920.7550, 897.2344
921.8800, 754.7500
923.0040, 859.2539
924.1290, 519.7734
925.2530, 639.3145
926.3770, 595.8496
927.5010, 707.3750
928.6250, 757.9219
929.7480, 585.4961
930.8720, 825.0605
931.9950, 872.6465
933.1180, 626.2344
934.2410, 659.6426
935.3640, 500.2129
936.4860, 683.6855
937.6090, 384.2305
938.7310, 659.5234
939.8530, 362.0918
940.9750, 437.1855
942.0970, 621.9414
943.2180, 407.8164
944.3400, 492.3145
945.4610, 379.7246
946.5820, 492.6582
947.7030, 445.3555
948.8240, 189.1602
949.9450, 265.6094
951.0650, 375.3438
952.1860, 399.7188
953.3060, 463.3359
954.4260, 415.2012
955.5460, 606.4238
956.6650, 360.8906
957.7850, 367.1895
958.9040, 136.6230
960.0230, 265.2402
961.1420, 282.7383
962.2610, 296.5098
963.3800, 59.91406
964.4990, 101.7500
965.6170, 40.40039
966.7350, 70.25781
967.8530, 69.08008
968.9710, 142.5645
970.0890, 47.21289
971.2070, 68.86328
972.3240, 58.51758
973.4410, 13.41602
974.5580, 40.16016
975.6750, 37.50586
976.7920, 45.14258
977.9090, 32.79492
979.0250, 24.45117
980.1410, 37.88867
981.2580, 49.76367
982.3740, 56.41992
983.4890, 160.0820
984.6050, 183.9473
985.7200, 74.41797
986.8360, 277.0918
987.9510, 114.7676
989.0660, 194.4473
990.1810, 120.1309
991.2950, 281.8184
992.4100, 107.5098
993.5240, 43.20703
994.6390, 72.90820
995.7530, 233.6113
996.8660, 272.3184
997.9800, 391.0293
999.0940, 387.7441
1000.207, 495.4648
1001.320, 922.1914
1002.433, 1243.920
1003.546, 1398.652
1004.659, 1025.391
1005.772, 547.1309
1006.884, 385.8770
1007.996, 404.6250
1009.108, 409.3789
1010.220, 346.1387
1011.332, 514.9004
1012.444, 462.2988
1013.555, 367.4414
1014.666, 478.2188
1015.777, 641.9980
1016.888, 645.7344
1017.999, 509.5781
1019.110, 649.7344
1020.220, 508.5352
1021.331, 562.3379
1022.441, 579.1445
1023.551, 674.9590
1024.661, 754.7773
1025.770, 743.4785
1026.880, 681.4434
1027.989, 715.2754
1029.098, 648.1113
1030.207, 581.9551
1031.316, 592.8027
1032.425, 299.7559
1033.533, 529.6133
1034.642, 272.4727
1035.750, 585.2812
1036.858, 411.1523
1037.966, 436.5098
1039.073, 451.6016
1040.181, 544.4727
1041.288, 534.8730
1042.396, 570.3867
1043.503, 597.3047
1044.610, 493.2051
1045.716, 591.1133
1046.823, 498.0254
1047.929, 617.9414
1049.036, 585.4805
1050.142, 559.4062
1051.248, 727.3359
1052.353, 908.2715
1053.459, 839.5605
1054.564, 973.2480
1055.670, 985.3281
1056.775, 1069.295
1057.880, 1207.814
1058.985, 1296.775
1060.089, 1234.742
1061.194, 1149.500
1062.298, 1709.494
1063.402, 1594.682
1064.506, 1744.438
1065.610, 1618.852
1066.713, 1649.836
1067.817, 1725.822
1068.920, 1774.814
1070.023, 1770.654
1071.126, 1858.807
1072.229, 1947.863
1073.332, 2009.918
1074.435, 2122.322
1075.537, 2296.459
1076.639, 2517.668
1077.741, 2347.877
1078.843, 2385.143
1079.945, 2582.480
1081.046, 2803.146
1082.148, 2697.203
1083.249, 2848.291
1084.350, 2859.217
1085.451, 2841.816
1086.551, 2660.445
1087.652, 2603.123
1088.752, 2746.893
1089.853, 2727.617
1090.953, 2739.346
1092.053, 2729.078
1093.152, 2527.811
1094.252, 2484.066
1095.351, 2571.613
1096.451, 2137.172
1097.550, 2100.975
1098.649, 2205.830
1099.748, 2274.658
1100.846, 2237.361
1101.945, 2270.301
1103.043, 2103.021
1104.141, 2221.852
1105.239, 2161.684
1106.337, 2126.514
1107.434, 2162.400
1108.532, 2206.379
1109.629, 1999.213
1110.726, 2170.047
1111.823, 2240.883
1112.920, 2129.859
1114.017, 2004.693
1115.113, 2179.531
1116.210, 2000.367
1117.306, 2141.205
1118.402, 2062.043
1119.498, 1878.881
1120.593, 2093.719
1121.689, 1876.559
1122.784, 2063.398
1123.879, 1809.238
1124.974, 1777.080
1126.069, 1819.920
1127.164, 1641.762
1128.259, 1673.604
1129.353, 1420.443
1130.447, 1231.287
1131.541, 1311.131
1132.635, 1050.975
1133.729, 997.8203
1134.822, 955.6621
1135.916, 1063.508
1137.009, 848.3535
1138.102, 776.1973
1139.195, 742.0449
1140.288, 495.8906
1141.380, 540.7383
1142.473, 342.5840
1143.565, 511.4316
1144.657, 383.2773
1145.749, 319.1250
1146.841, 445.9707
1147.932, 270.8203
1149.024, 300.4258
1150.115, 1.486328
1151.206, 286.3555
1152.297, 115.1953
1153.388, 198.0391
1154.479, 218.8828
1155.569, 86.72461
1156.659, 181.5645
1157.750, 27.59375
1158.839, 38.22852
1159.929, 39.05078
1161.019, 112.8711
1162.108, 141.8242
1163.198, 11.48438
1164.287, 175.3262
1165.376, 77.13477
1166.465, 8.056641
1167.553, 21.74219
1168.642, 16.45898
1169.730, 59.67578
1170.818, 7.931641
1171.906, 7.802734
1172.994, 51.53320
1174.082, 12.26367
1175.170, 56.17188
1176.257, 36.72070
1177.344, 54.44922
1178.431, 99.17578
1179.518, 9.5702998E-02
1180.605, 77.62305
1181.691, 82.33984
1182.778, 111.0586
1183.864, 27.22461
1184.950, 3.527344
1186.036, 140.1562
1187.122, 53.16016
1188.207, 109.5137
1189.292, 162.0684
1190.378, 105.6484
1191.463, 96.77344
1192.548, 116.2539
1193.632, 10.19531
1194.717, 80.36133
1195.801, 26.96680
1196.886, 171.4023
1197.970, 40.77148
1199.054, 159.1387
1200.137, 1.494141
1201.221, 70.13672
1202.305, 198.1719
1203.388, 67.51562
1204.471, 8.251953
1205.554, 62.99805
1206.637, 78.24414
1207.719, 101.4922
1208.802, 103.7363
1209.884, 67.97852
1210.966, 8.220703
1212.048, 61.54688
1213.130, 61.35547
1214.212, 26.20898
1215.293, 199.9141
1216.374, 171.0312
1217.456, 161.1465
1218.536, 15.25781
1219.617, 205.3652
1220.698, 167.4668
1221.778, 193.5684
1222.859, 306.6621
1223.939, 60.24609
1225.019, 96.19531
1226.099, 14.21289
1227.178, 37.76367
1228.258, 157.7344
1229.337, 80.70898
1230.417, 15.67773
1231.496, 256.6504
1232.574, 87.62109
1233.653, 374.5879
1234.732, 276.5508
1235.810, 267.5098
1236.888, 214.4648
1237.966, 227.4219
1239.044, 109.3789
1240.122, 296.3301
1241.199, 210.2832
1242.277, 165.2285
1243.354, 80.17578
1244.431, 330.1211
1245.508, 406.0645
1246.585, 335.0117
1247.661, 432.9199
1248.738, 492.9121
1249.814, 402.8613
1250.890, 346.8047
1251.966, 313.7500
1253.042, 517.6895
1254.117, 273.6445
1255.193, 402.5996
1256.268, 245.5664
1257.343, 259.5352
1258.418, 470.4961
1259.493, 222.4746
1260.567, 534.4531
1261.642, 390.4277
1262.716, 572.4004
1263.790, 594.3691
1264.864, 480.3398
1265.938, 484.3066
1267.011, 659.2715
1268.085, 575.2344
1269.158, 579.1953
1270.231, 524.1562
1271.304, 570.1172
1272.377, 660.0762
1273.450, 651.0312
1274.522, 567.9863
1275.594, 768.9414
1276.666, 581.8984
1277.738, 808.8496
1278.810, 602.8008
1279.882, 562.3867
1280.953, 784.3359
1282.025, 641.2812
1283.096, 972.2266
1284.167, 717.1699
1285.238, 720.1113
1286.308, 899.0547
1287.379, 620.9766
1288.449, 1025.916
1289.519, 983.8535
1290.589, 895.7910
1291.659, 1002.729
1292.729, 1149.564
1293.798, 1218.500
1294.868, 1329.434
1295.937, 1406.604
1297.006, 1503.357
1298.075, 1598.805
1299.143, 1611.521
1300.212, 1824.465
1301.280, 1714.262
1302.348, 1769.188
1303.416, 2036.090
1304.484, 1909.014
1305.552, 1708.932
1306.620, 1708.852
1307.687, 1615.768
1308.754, 1709.061
1309.821, 1776.975
1310.888, 1517.891
1311.955, 1481.805
1313.021, 1554.367
1314.088, 1368.402
1315.154, 1168.314
1316.220, 1106.205
1317.286, 1031.996
1318.352, 1139.451
