##NAMES=Trilithionite
##RRUFFID=R040105
##IDEAL CHEMISTRY=KLi_1.5_Al_1.5_(Si_3_Al)O_10_F_2_
##LOCALITY=Brown Derby mine, Ohio City, Gunnison County, Colorado, USA
##OWNER=RRUFF
##SOURCE=University of Arizona Mineral Museum
##DESCRIPTION=Purple hexagonal tablet
##STATUS=The identification of this mineral has been confirmed by X-ray diffraction and chemical analysis
##URL=rruff.info/R040105
##MEASURED CHEMISTRY=(K_0.82_Li_0.14_Na_0.04_)(Li_0.53_Al_0.42_Mn_0.05_)_3_(Si_0.84_Al_0.17_)_4_O_10_((OH)_0.59_F_0.41_)_2_
##PIN_ID=L00110
##ORIENTATION=Laser parallel to a* (1 0 0). Fiducial mark perpendicular to laser is parallel to b [0 1 0]
139.0430, 0.0000000E+00
140.2710, 95.79492
141.5000, 243.7168
142.7280, 378.0137
143.9560, 412.8867
145.1840, 321.6602
146.4120, 30.01172
147.6390, 133.7246
148.8670, 17.28125
150.0940, 10.73633
151.3210, 74.34375
152.5490, 39.26562
153.7750, 286.8379
155.0020, 46.90039
156.2290, 276.2871
157.4550, 269.8613
158.6810, 274.4863
159.9080, 394.0449
161.1340, 563.5273
162.3590, 863.5723
163.5850, 1061.398
164.8110, 1373.938
166.0360, 1683.143
167.2610, 2094.994
168.4860, 2339.479
169.7110, 2790.516
170.9360, 3270.039
172.1610, 3666.990
173.3850, 4364.312
174.6100, 4758.967
175.8340, 5315.922
177.0580, 5865.152
178.2820, 6090.629
179.5050, 6296.316
180.7290, 6495.195
181.9520, 6664.246
183.1760, 6388.457
184.3990, 6084.822
185.6220, 5942.328
186.8450, 5764.168
188.0670, 5111.422
189.2900, 4987.559
190.5120, 4359.891
191.7340, 4265.367
192.9560, 4098.947
194.1780, 3732.969
195.4000, 3743.771
196.6220, 3320.701
197.8430, 3164.566
199.0640, 3024.371
200.2860, 2982.113
201.5070, 2826.799
202.7270, 2689.432
203.9480, 2705.012
205.1690, 2564.541
206.3890, 2412.025
207.6090, 2512.465
208.8290, 2556.859
210.0490, 2410.213
211.2690, 2458.531
212.4890, 2559.088
213.7080, 2638.607
214.9280, 2691.521
216.1470, 2587.414
217.3660, 2776.680
218.5850, 2768.883
219.8030, 2747.055
221.0220, 2867.826
222.2400, 2935.150
223.4590, 2997.477
224.6770, 3196.594
225.8950, 3266.703
227.1120, 3409.809
228.3300, 3586.910
229.5480, 3895.186
230.7650, 3815.457
231.9820, 4020.727
233.1990, 4441.914
234.4160, 4610.828
235.6330, 4593.945
236.8490, 4752.234
238.0660, 5112.273
239.2820, 5004.346
240.4980, 5286.984
241.7140, 5407.207
242.9300, 5407.438
244.1460, 5501.465
245.3610, 5561.387
246.5770, 5885.371
247.7920, 6121.277
249.0070, 6003.875
250.2220, 5968.078
251.4370, 6125.719
252.6510, 6157.949
253.8660, 6323.301
255.0800, 6230.791
256.2940, 6509.193
257.5080, 6388.652
258.7220, 6540.982
259.9360, 6730.316
261.1490, 6490.652
262.3630, 6175.982
263.5760, 6033.311
264.7890, 5530.637
266.0020, 5386.951
267.2150, 5026.262
268.4270, 4505.561
269.6400, 4000.850
270.8520, 3697.129
272.0640, 3317.396
273.2760, 2958.652
274.4880, 2634.898
275.7000, 2420.133
276.9120, 2210.357
278.1230, 2078.570
279.3340, 1986.771
280.5450, 1722.963
281.7560, 1681.205
282.9670, 1494.582
284.1780, 1387.553
285.3880, 1272.627
286.5980, 1219.314
287.8090, 1093.766
289.0190, 1036.768
290.2290, 971.9023
291.4380, 935.6973
292.6480, 874.3223
293.8570, 878.2129
295.0670, 873.7461
296.2760, 846.0312
297.4850, 630.2754
298.6930, 766.5859
299.9020, 774.0039
301.1110, 909.6211
302.3190, 685.5352
303.5270, 561.2773
304.7350, 633.9492
305.9430, 593.6758
307.1510, 540.4473
308.3580, 632.2617
309.5660, 504.2324
310.7730, 596.1230
311.9800, 436.0469
313.1870, 273.0000
314.3940, 489.9805
315.6010, 398.9844
316.8070, 260.0117
318.0130, 286.5762
319.2200, 306.6367
320.4260, 137.9551
321.6310, 248.0449
322.8370, 104.1465
324.0430, 211.2578
325.2480, 386.3809
326.4540, 6.406250
327.6590, 93.26953
328.8640, 24.15625
330.0680, 55.95703
331.2730, 139.0742
332.4780, 65.80469
333.6820, 34.70117
334.8860, 43.38867
336.0900, 254.5293
337.2940, 68.47852
338.4980, 52.51562
339.7010, 93.46289
340.9050, 183.4336
342.1080, 87.60742
343.3110, 52.31445
344.5140, 9.224609
345.7170, 12.26172
346.9200, 33.14648
348.1220, 25.02148
349.3240, 47.16602
350.5270, 32.79297
351.7290, 58.80273
352.9310, 70.52539
354.1320, 128.7266
355.3340, 46.02344
356.5350, 114.2207
357.7370, 50.05273
358.9380, 156.6445
360.1390, 275.5332
361.3400, 57.93750
362.5400, 104.3750
363.7410, 88.14062
364.9410, 123.2793
366.1410, 112.8340
367.3410, 100.1582
368.5410, 79.63281
369.7410, 153.3809
370.9400, 101.6738
372.1400, 229.2793
373.3390, 92.71289
374.5380, 128.1348
375.7370, 210.5469
376.9360, 259.9473
378.1350, 363.3301
379.3330, 356.6367
380.5310, 397.9551
381.7300, 317.2012
382.9280, 238.3359
384.1260, 148.4375
385.3230, 399.5312
386.5210, 505.5781
387.7180, 441.6113
388.9160, 208.6328
390.1130, 333.6465
391.3100, 245.6172
392.5060, 494.5273
393.7030, 553.4023
394.9000, 566.3516
396.0960, 707.8398
397.2920, 657.5078
398.4880, 590.1719
399.6840, 715.8281
400.8800, 467.4766
402.0750, 783.1191
403.2710, 620.7520
404.4660, 552.3770
405.6610, 713.0000
406.8560, 502.6152
408.0510, 652.2246
409.2450, 602.8262
410.4400, 653.4238
411.6340, 406.0117
412.8280, 206.5957
414.0220, 333.1719
415.2160, 255.7422
416.4100, 278.3086
417.6030, 194.8711
418.7970, 162.4258
419.9900, 149.1758
421.1830, 317.5195
422.3760, 103.0605
423.5690, 107.5957
424.7610, 77.12500
425.9540, 155.3516
427.1460, 21.88672
428.3380, 163.4883
429.5300, 179.8535
430.7220, 67.21484
431.9140, 159.5723
433.1050, 65.92773
434.2970, 162.2793
435.4880, 225.6309
436.6790, 195.0000
437.8700, 97.36719
439.0610, 161.7305
440.2510, 264.0977
441.4420, 99.46094
442.6320, 301.8164
443.8220, 81.16797
445.0120, 37.51562
446.2020, 81.85156
447.3910, 157.1777
448.5810, 164.5000
449.7700, 200.8164
450.9600, 157.1270
452.1490, 82.43164
453.3370, 233.7246
454.5260, 117.0137
455.7150, 344.2930
456.9030, 222.5645
458.0910, 323.8320
459.2800, 157.0879
460.4670, 166.6621
461.6550, 235.4707
462.8430, 48.59961
464.0300, 154.7129
465.2180, 369.8203
466.4050, 213.9199
467.5920, 162.0098
468.7790, 85.09180
469.9650, 277.5723
471.1520, 382.6543
472.3380, 466.0352
473.5250, 451.8066
474.7110, 484.2070
475.8970, 302.7617
477.0820, 376.3164
478.2680, 293.2598
479.4540, 88.93750
480.6390, 142.9414
481.8240, 190.2246
483.0090, 301.2129
484.1940, 189.1973
485.3780, 120.1719
486.5630, 143.0801
487.7470, 26.79688
488.9320, 181.5176
490.1160, 107.3164
491.3000, 164.0723
492.4830, 44.91016
493.6670, 17.68164
494.8500, 118.4473
496.0340, 63.00000
497.2170, 119.7637
498.4000, 183.5430
499.5820, 87.19336
500.7650, 108.3711
501.9480, 69.90039
503.1300, 136.9062
504.3120, 101.3418
505.4940, 17.84375
506.6760, 125.5293
507.8580, 100.9160
509.0390, 47.35352
510.2210, 95.13281
511.4020, 56.47070
512.5830, 80.04297
513.7640, 100.4922
514.9450, 12.00000
516.1250, 170.4004
517.3060, 200.9043
518.4860, 115.4043
519.6660, 131.9004
520.8460, 153.3965
522.0260, 163.9121
523.2060, 185.4277
524.3850, 175.9414
525.5650, 193.3672
526.7440, 182.8906
527.9230, 224.4844
529.1020, 214.0020
530.2810, 255.5215
531.4590, 261.3691
532.6380, 255.1738
533.8160, 262.1094
534.9940, 234.6465
536.1720, 191.4062
537.3500, 168.8750
538.5270, 174.3496
539.7050, 173.9355
540.8820, 247.5234
542.0590, 337.1641
543.2360, 97.80469
544.4130, 187.4473
545.5900, 502.0938
546.7660, 591.7383
547.9430, 341.3906
549.1190, 573.0957
550.2950, 585.8066
551.4710, 548.5625
552.6470, 686.3828
553.8220, 583.2090
554.9980, 648.0352
556.1730, 979.8828
557.3480, 836.7461
558.5230, 1018.613
559.6980, 1365.480
560.8730, 968.3828
562.0470, 1358.285
563.2220, 1270.227
564.3960, 1254.113
565.5700, 1168.025
566.7440, 1246.816
567.9170, 895.6758
569.0910, 1002.926
570.2640, 1114.916
571.4380, 795.9102
572.6110, 678.7051
573.7840, 644.7051
574.9570, 550.5508
576.1290, 619.6016
577.3020, 492.6641
578.4740, 344.7324
579.6460, 453.7344
580.8180, 178.8086
581.9900, 252.8828
583.1620, 32.91211
584.3330, 26.99414
585.5040, 158.9512
586.6760, 211.6836
587.8470, 240.6523
589.0180, 111.7422
590.1880, 113.8359
591.3590, 126.9297
592.5290, 35.02539
593.7000, 147.0117
594.8700, 159.1133
596.0400, 96.21875
597.2090, 47.32617
598.3790, 104.4336
599.5490, 86.54688
600.7180, 222.6582
601.8870, 464.2539
603.0560, 291.3691
604.2250, 326.2480
605.3940, 127.3691
606.5620, 199.5195
607.7300, 225.6719
608.8990, 319.8301
610.0670, 211.9141
611.2350, 222.0820
612.4020, 633.2793
613.5700, 354.1699
614.7370, 894.7051
615.9050, 174.9297
617.0720, 267.1758
618.2390, 360.4395
619.4060, 214.7070
620.5720, 347.0469
621.7390, 71.39648
622.9050, 173.7676
624.0710, 428.1406
625.2370, 205.5352
626.4030, 123.9902
627.5690, 155.4434
628.7340, 182.7656
629.9000, 305.2285
631.0650, 208.6973
632.2300, 219.1641
633.3950, 443.5801
634.5600, 182.8848
635.7240, 77.52148
636.8890, 180.0488
638.0530, 355.6172
639.2170, 293.7285
640.3810, 286.3027
641.5450, 202.8965
642.7080, 208.3574
643.8720, 155.9199
645.0350, 148.0781
646.1980, 116.4961
647.3610, 179.6113
648.5240, 248.3008
649.6870, 362.2148
650.8490, 424.9707
652.0120, 482.4492
653.1740, 515.2402
654.3360, 495.9766
655.4980, 539.7441
656.6600, 442.5215
657.8210, 454.2969
658.9830, 494.0781
660.1440, 688.8750
661.3050, 739.8516
662.4660, 794.8984
663.6270, 740.7031
664.7870, 804.9375
665.9480, 880.8750
667.1080, 869.6836
668.2680, 733.6914
669.4280, 771.5039
670.5880, 886.3164
671.7480, 1012.398
672.9070, 1114.215
674.0670, 1120.234
675.2260, 1169.633
676.3850, 1225.082
677.5440, 1205.199
678.7030, 1285.816
679.8610, 1338.543
681.0200, 1448.691
682.1780, 1535.574
683.3360, 1690.047
684.4940, 1865.230
685.6520, 2068.035
686.8090, 2240.238
687.9670, 2382.887
689.1240, 2794.953
690.2810, 3016.477
691.4380, 3468.469
692.5950, 3866.551
693.7520, 4287.371
694.9080, 4647.383
696.0650, 5066.605
697.2210, 5852.945
698.3770, 6482.746
699.5330, 7609.719
700.6880, 8409.016
701.8440, 9080.391
702.9990, 10240.84
704.1550, 11116.98
705.3100, 12312.43
706.4650, 12633.73
707.6190, 13464.04
708.7740, 13565.64
709.9290, 13194.81
711.0830, 12901.70
712.2370, 11886.03
713.3910, 10770.07
714.5450, 9656.156
715.6980, 8198.172
716.8520, 7152.477
718.0050, 5907.207
719.1580, 5292.391
720.3110, 4178.430
721.4640, 3679.633
722.6170, 3375.594
723.7700, 2754.664
724.9220, 2489.324
726.0740, 2216.984
727.2260, 1839.629
728.3780, 1795.262
729.5300, 1485.887
730.6810, 1506.496
731.8330, 1172.371
732.9840, 1178.301
734.1350, 1211.250
735.2860, 936.9023
736.4370, 976.6836
737.5880, 1028.336
738.7380, 776.0273
739.8880, 854.5859
741.0390, 810.1406
742.1890, 719.6797
743.3380, 710.5977
744.4880, 725.0312
745.6380, 746.5234
746.7870, 761.5156
747.9360, 823.7656
749.0850, 838.4805
750.2340, 786.3906
751.3830, 868.8203
752.5310, 806.8047
753.6800, 818.6562
754.8280, 786.7812
755.9760, 746.9609
757.1240, 701.3242
758.2720, 630.1133
759.4190, 613.3125
760.5670, 466.3086
761.7140, 570.1094
762.8610, 444.7031
764.0080, 515.8086
765.1550, 587.0547
766.3020, 548.7656
767.4480, 437.9688
768.5950, 455.1641
769.7410, 575.3359
770.8870, 187.7422
772.0330, 483.1055
773.1780, 580.2227
774.3240, 454.0508
775.4690, 207.5352
776.6140, 259.6367
777.7590, 367.7656
778.9040, 414.8750
780.0490, 514.3516
781.1940, 362.8086
782.3380, 154.8750
783.4820, 494.9219
784.6260, 300.9531
785.7700, 416.9844
786.9140, 578.0273
788.0580, 253.0586
789.2010, 340.3281
790.3450, 286.4180
791.4880, 310.7539
792.6310, 301.7109
793.7730, 322.0312
794.9160, 295.2930
796.0590, 185.2500
797.2010, 226.2812
798.3430, 58.86719
799.4850, 110.9141
800.6270, 344.6680
801.7690, 90.40625
802.9100, 120.4492
804.0520, 279.4531
805.1930, 7.351563
806.3340, 276.9766
807.4750, 199.5859
808.6160, 40.83203
809.7560, 307.6914
810.8970, 130.1875
812.0370, 51.26953
813.1770, 127.1367
814.3170, 55.48047
815.4570, 305.8281
816.5960, 158.1172
817.7360, 160.4570
818.8750, 166.6758
820.0140, 38.79297
821.1530, 95.87891
822.2920, 302.9336
823.4310, 90.96875
824.5690, 168.8516
825.7070, 138.0273
826.8460, 134.5664
827.9840, 205.6211
829.1220, 135.7266
830.2590, 294.2734
831.3970, 30.19531
832.5340, 17.73438
833.6710, 69.67578
834.8080, 249.0547
835.9450, 77.58984
837.0820, 76.67578
838.2190, 84.08594
839.3550, 11.06250
840.4910, 106.1641
841.6270, 48.34766
842.7630, 66.39453
843.8990, 73.46094
845.0350, 55.54688
846.1700, 109.3633
847.3060, 174.2500
848.4410, 64.10938
849.5760, 127.0625
850.7100, 119.6562
851.8450, 0.3476560
852.9800, 61.98828
854.1140, 232.5977
855.2480, 85.18750
856.3820, 116.7422
857.5160, 74.27344
858.6500, 129.4023
859.7830, 102.2461
860.9170, 274.6914
862.0500, 291.1133
863.1830, 281.5078
864.3160, 358.3594
865.4480, 228.2305
866.5810, 398.5547
867.7130, 126.8516
868.8460, 110.1250
869.9780, 103.3711
871.1100, 169.5898
872.2410, 135.7852
873.3730, 162.8320
874.5050, 151.0977
875.6360, 179.2109
876.7670, 214.3047
877.8980, 219.3750
879.0290, 96.41797
880.1590, 61.56250
881.2900, 74.37891
882.4200, 127.2891
883.5500, 56.17578
884.6800, 126.0352
885.8100, 75.82031
886.9400, 193.6758
888.0690, 48.46094
889.1990, 8.214844
890.3280, 92.93359
891.4570, 104.6250
892.5860, 24.28906
893.7140, 74.43359
894.8430, 22.52734
895.9710, 31.10156
897.1000, 57.64453
898.2280, 39.83203
899.3560, 80.37891
900.4830, 196.9922
901.6110, 60.34375
902.7380, 321.6719
903.8660, 212.9766
904.9930, 274.2539
906.1200, 112.5117
907.2460, 118.7422
908.3730, 282.9531
909.5000, 64.85938
910.6260, 80.25391
911.7520, 382.3398
912.8780, 280.4102
914.0040, 283.4531
915.1290, 73.53125
916.2550, 76.58594
917.3800, 225.6758
918.5050, 220.7344
919.6300, 174.7773
920.7550, 211.7969
921.8800, 174.7930
923.0040, 188.7656
924.1290, 96.72266
925.2530, 135.6016
926.3770, 71.55859
927.5010, 174.4414
928.6250, 64.30469
929.7480, 71.14062
930.8720, 138.9531
931.9950, 47.25391
933.1180, 179.4805
934.2410, 250.0234
935.3640, 260.4688
936.4860, 206.1367
937.6090, 64.45312
938.7310, 67.86328
939.8530, 86.47266
940.9750, 207.8633
942.0970, 160.4258
943.2180, 314.9922
944.3400, 339.2695
945.4610, 246.8008
946.5820, 116.1055
947.7030, 281.6016
948.8240, 182.8516
949.9450, 214.0039
951.0650, 308.4336
952.1860, 80.75000
953.3060, 478.1992
954.4260, 291.5039
955.5460, 484.2070
956.6650, 195.1797
957.7850, 361.5117
958.9040, 132.5742
960.0230, 177.8516
961.1420, 8.164063
962.2610, 27.34766
963.3800, 22.63281
964.4990, 189.2773
965.6170, 263.4219
966.7350, 565.3672
967.8530, 279.0781
968.9710, 423.6562
970.0890, 323.7539
971.2070, 220.6562
972.3240, 281.2266
973.4410, 332.6953
974.5580, 559.0781
975.6750, 8.738281
976.7920, 360.0820
977.9090, 18.55078
979.0250, 162.0391
980.1410, 365.2422
981.2580, 372.8633
982.3740, 455.6680
983.4890, 404.1602
984.6050, 433.8867
985.7200, 328.5508
986.8360, 226.2695
987.9510, 320.6797
989.0660, 435.6445
990.1810, 249.1445
991.2950, 486.7656
992.4100, 283.2070
993.5240, 428.8672
994.6390, 74.41016
995.7530, 524.3320
996.8660, 243.2500
997.9800, 591.2305
999.0940, 391.2266
1000.207, 302.2109
1001.320, 354.1992
1002.433, 287.9141
1003.546, 321.5508
1004.659, 189.1562
1005.772, 401.0352
1006.884, 579.7695
1007.996, 418.6094
1009.108, 419.3984
1010.220, 244.3047
1011.332, 456.2461
1012.444, 409.1836
1013.555, 62.74219
1014.666, 195.8438
1015.777, 305.3867
1016.888, 90.14453
1017.999, 578.6133
1019.110, 450.3672
1020.220, 526.9062
1021.331, 299.9023
1022.441, 523.3320
1023.551, 562.8750
1024.661, 660.4844
1025.770, 485.1406
1026.880, 225.2734
1027.989, 682.8047
1029.098, 260.9180
1030.207, 209.1992
1031.316, 399.6680
1032.425, 518.3359
1033.533, 399.5469
1034.642, 417.5273
1035.750, 667.0234
1036.858, 221.0078
1037.966, 893.9844
1039.073, 527.9609
1040.181, 354.6797
1041.288, 667.4336
1042.396, 600.4062
1043.503, 546.6914
1044.610, 669.2930
1045.716, 952.2656
1046.823, 689.2422
1047.929, 845.1133
1049.036, 836.8359
1050.142, 555.1523
1051.248, 935.1289
1052.353, 808.1016
1053.459, 1047.070
1054.564, 1099.039
1055.670, 869.0117
1056.775, 814.9844
1057.880, 832.6914
1058.985, 1295.570
1060.089, 1090.184
1061.194, 1258.160
1062.298, 1095.750
1063.402, 1022.375
1064.506, 1382.285
1065.610, 1194.098
1066.713, 1222.078
1067.817, 1184.098
1068.920, 1349.117
1070.023, 1442.133
1071.126, 1321.824
1072.229, 1490.641
1073.332, 1183.465
1074.435, 1219.504
1075.537, 1421.148
1076.639, 1201.195
1077.741, 1458.266
1078.843, 1494.328
1079.945, 1658.332
1081.046, 1621.426
1082.148, 1546.523
1083.249, 1454.645
1084.350, 1523.773
1085.451, 1656.746
1086.551, 1681.930
1087.652, 1475.117
1088.752, 1760.305
1089.853, 2058.512
1090.953, 1718.727
1092.053, 1514.523
1093.152, 1464.797
1094.252, 1577.520
1095.351, 1630.629
1096.451, 1583.316
1097.550, 1714.719
1098.649, 1708.121
1099.748, 1636.590
1100.846, 1680.035
1101.945, 1777.488
1103.043, 2101.945
1104.141, 1935.438
1105.239, 1986.934
1106.337, 2156.727
1107.434, 2049.273
1108.532, 2093.723
1109.629, 2102.285
1110.726, 2012.797
1111.823, 2153.367
1112.920, 2120.965
1114.017, 2344.574
1115.113, 2261.180
1116.210, 2389.555
1117.306, 2473.215
1118.402, 2501.277
1119.498, 2592.797
1120.593, 2672.488
1121.689, 2796.184
1122.784, 2948.887
1123.879, 2957.594
1124.974, 2696.297
1126.069, 2942.016
1127.164, 2922.742
1128.259, 3117.477
1129.353, 2993.734
1130.447, 3062.051
1131.541, 3064.203
1132.635, 3030.887
1133.729, 2937.633
1134.822, 2646.383
1135.916, 2348.137
1137.009, 2292.898
1138.102, 1910.660
1139.195, 1786.102
1140.288, 1667.199
1141.380, 1439.973
1142.473, 1251.879
1143.565, 1078.910
1144.657, 955.4141
1145.749, 819.9766
1146.841, 810.7930
1147.932, 701.6172
1149.024, 685.7188
1150.115, 526.3164
1151.206, 539.1445
1152.297, 502.9844
1153.388, 396.8320
1154.479, 351.6797
1155.569, 297.5312
1156.659, 223.3828
1157.750, 396.2461
1158.839, 98.10938
1159.929, 171.9727
1161.019, 431.8477
1162.108, 233.9727
1163.198, 126.8086
1164.287, 3.707031
1165.376, 256.6641
1166.465, 378.5977
1167.553, 169.5352
1168.642, 301.4688
1169.730, 168.4062
1170.818, 211.3477
1171.906, 134.2891
1172.994, 128.2344
1174.082, 251.1836
1175.170, 204.1602
1176.257, 357.1328
1177.344, 321.1133
1178.431, 203.9102
1179.518, 25.03125
1180.605, 216.1641
1181.691, 238.6016
1182.778, 138.3594
1183.864, 77.12500
1184.950, 283.8945
1186.036, 167.6602
1187.122, 193.4297
1188.207, 135.1992
1189.292, 183.5039
1190.378, 180.2773
1191.463, 213.4844
1192.548, 257.8281
1193.632, 297.6094
1194.717, 185.3867
1195.801, 189.8633
1196.886, 130.6641
1197.970, 215.9023
1199.054, 268.7070
1200.137, 67.50391
1201.221, 185.3086
1202.305, 25.38672
1203.388, 44.19531
1204.471, 391.0000
1205.554, 77.89062
1206.637, 316.8711
1207.719, 93.63281
1208.802, 294.3945
1209.884, 61.16016
1210.966, 129.8828
1212.048, 163.6836
1213.130, 218.4453
1214.212, 123.6562
1215.293, 206.4219
1216.374, 166.1797
1217.456, 403.9453
1218.536, 352.7031
1219.617, 115.7070
1220.698, 241.4688
1221.778, 24.77344
1222.859, 256.3203
1223.939, 206.4492
1225.019, 241.5273
1226.099, 53.30078
1227.178, 183.0742
1228.258, 262.8516
1229.337, 61.62500
1230.417, 268.3945
1231.496, 344.1602
1232.574, 113.9219
1233.653, 312.6836
1234.732, 191.4453
1235.810, 13.21094
1236.888, 317.9766
1237.966, 511.7422
1239.044, 310.5000
1240.122, 122.2617
1241.199, 620.0195
1242.277, 226.7695
1243.354, 167.5156
1244.431, 311.2617
1245.508, 130.9961
1246.585, 283.6875
1247.661, 107.3633
1248.738, 31.03906
1249.814, 184.7070
1250.890, 151.3789
1251.966, 311.0391
1253.042, 387.6992
1254.117, 163.3594
1255.193, 290.0156
1256.268, 206.9102
1257.343, 117.5586
1258.418, 250.7695
1259.493, 44.26953
1260.567, 52.19141
1261.642, 37.34766
1262.716, 162.0859
1263.790, 190.6797
1264.864, 207.4102
1265.938, 277.8438
1267.011, 306.2773
1268.085, 225.6992
1269.158, 229.1211
1270.231, 419.6953
1271.304, 72.11328
1272.377, 43.52344
1273.450, 4.066406
1274.522, 306.3359
1275.594, 300.5195
1276.666, 176.7305
1277.738, 248.9375
1278.810, 98.19531
1279.882, 269.3945
1280.953, 191.5859
1282.025, 105.7734
1283.096, 258.9609
1284.167, 228.1406
1285.238, 268.3164
1286.308, 170.4883
1287.379, 173.8359
1288.449, 285.8164
1289.519, 125.9805
1290.589, 1.855469
1291.659, 13.70703
1292.729, 134.4180
1293.798, 108.4609
1294.868, 414.5742
1295.937, 411.6875
1297.006, 140.8164
1298.075, 366.9414
1299.143, 407.0664
1300.212, 337.1758
1301.280, 364.2930
1302.348, 209.6133
1303.416, 321.0391
1304.484, 399.1406
1305.552, 367.2344
1306.620, 446.8750
1307.687, 493.5078
