##NAMES=Trilithionite
##RRUFFID=R040101
##IDEAL CHEMISTRY=KLi_1.5_Al_1.5_(Si_3_Al)O_10_F_2_
##LOCALITY=Zambezi Region, Mozambique
##OWNER=RRUFF
##SOURCE=University of Arizona Mineral Museum
##DESCRIPTION=Aggregate of purple hexagonal plates, polytype is 2M1
##STATUS=The identification of this mineral has been confirmed by X-ray diffraction and chemical analysis
##URL=rruff.info/R040101
##MEASURED CHEMISTRY=(K_0.84_Li_0.13_Na_0.02_)(Li_0.54_Al_0.44_Mn_0.02_)_3_(Si_0.82_Al_0.18_)_4_O_10_F_2.00_
##PIN_ID=L00533
##ORIENTATION=Laser parallel to -b* (0 -1 0). Fiducial mark perpendicular to laser is parallel to c [0 0 1]
119.119, 0.000
120.508, 0.111
121.897, 38.670
123.286, 222.594
124.675, 83.377
126.063, 196.730
127.452, 255.719
128.840, 290.547
130.228, 344.537
131.615, 44.902
133.003, 238.539
134.390, 60.258
135.777, 133.881
137.164, 130.738
138.550, 119.262
139.937, 35.232
141.323, 80.666
142.709, 56.857
144.094, 43.240
145.480, 84.719
146.865, 112.219
148.250, 27.672
149.635, 180.027
151.019, 143.246
152.403, 145.279
153.788, 219.090
155.171, 215.641
156.555, 686.895
157.939, 613.816
159.322, 700.377
160.705, 1132.551
162.088, 1189.293
163.470, 1692.566
164.853, 2177.326
166.235, 2374.541
167.617, 2957.170
168.998, 3455.195
170.380, 4173.600
171.761, 4867.365
173.142, 5749.480
174.523, 7004.945
175.904, 8066.779
177.284, 9129.988
178.664, 10477.582
180.044, 11795.551
181.424, 12737.879
182.803, 13076.547
184.183, 13435.545
185.562, 13224.863
186.940, 13024.482
188.319, 12599.395
189.698, 12420.592
191.076, 12137.061
192.454, 12281.793
193.831, 12529.783
195.209, 12449.023
196.586, 12783.504
197.963, 12335.215
199.340, 11820.156
200.717, 11006.322
202.093, 10143.688
203.470, 8994.148
204.846, 7988.682
206.221, 7129.271
207.597, 6603.980
208.972, 6148.518
210.347, 5989.391
211.722, 5793.082
213.097, 5735.816
214.472, 5805.637
215.846, 5988.551
217.220, 5722.562
218.594, 5622.676
219.967, 5367.895
221.341, 5047.223
222.714, 4932.664
224.087, 4510.217
225.460, 4626.895
226.832, 4464.756
228.204, 4671.910
229.577, 4748.477
230.948, 4869.578
232.320, 5008.949
233.692, 5482.605
235.063, 5754.578
236.434, 6220.854
237.805, 6693.455
239.175, 7181.131
240.545, 7763.875
241.916, 8858.699
243.286, 9385.605
244.655, 10289.582
246.025, 10902.633
247.394, 11269.758
248.763, 11878.957
250.132, 11974.234
251.501, 13024.580
252.869, 13449.006
254.237, 14906.506
255.605, 16113.080
256.973, 18074.732
258.340, 20489.457
259.708, 22729.262
261.075, 25146.131
262.442, 26653.082
263.808, 27439.102
265.175, 26818.199
266.541, 25387.369
267.907, 22589.611
269.273, 19405.918
270.639, 16392.307
272.004, 13045.758
273.369, 11205.285
274.734, 9263.881
276.099, 7546.574
277.463, 6163.371
278.828, 5614.234
280.192, 4851.215
281.556, 3969.266
282.919, 3796.381
284.283, 3113.656
285.646, 3244.715
287.009, 2461.668
288.372, 2185.586
289.734, 2503.934
291.097, 2138.211
292.459, 2067.506
293.821, 2165.336
295.183, 1944.135
296.544, 2159.273
297.905, 1773.500
299.266, 2119.150
300.627, 1922.607
301.988, 1704.617
303.348, 1857.596
304.709, 1608.477
306.069, 1538.783
307.428, 1743.248
308.788, 1542.861
310.147, 1275.619
311.507, 1499.518
312.865, 1208.551
314.224, 1136.717
315.583, 725.008
316.941, 984.424
318.299, 1048.959
319.657, 768.611
321.015, 902.377
322.372, 809.252
323.729, 689.234
325.086, 616.322
326.443, 743.512
327.800, 485.801
329.156, 631.404
330.512, 390.885
331.868, 380.459
333.224, 515.088
334.579, 577.209
335.935, 326.406
337.290, 421.852
338.645, 226.527
339.999, 269.398
341.354, 551.221
342.708, 289.867
344.062, 406.533
345.416, 334.932
346.769, 271.895
348.123, 105.350
349.476, 174.379
350.829, 251.795
352.182, 286.619
353.534, 315.820
354.887, 370.689
356.239, 525.619
357.591, 545.609
358.942, 659.658
360.294, 509.766
361.645, 646.512
362.996, 669.504
364.347, 811.779
365.698, 845.111
367.048, 963.498
368.398, 1168.939
369.748, 1131.432
371.098, 1275.980
372.448, 1437.586
373.797, 1564.240
375.146, 1444.951
376.495, 1685.719
377.844, 2168.539
379.192, 1732.410
380.540, 2541.338
381.889, 1983.318
383.236, 2099.355
384.584, 2250.441
385.932, 2103.582
387.279, 2329.773
388.626, 2235.016
389.973, 2662.309
391.319, 2442.654
392.666, 2718.047
394.012, 2862.482
395.358, 2916.965
396.704, 3235.488
398.049, 3469.055
399.394, 4010.664
400.740, 3825.312
402.084, 4133.998
403.429, 4676.721
404.774, 4565.482
406.118, 4881.285
407.462, 4496.121
408.806, 4314.996
410.150, 4409.910
411.493, 4277.859
412.836, 4103.844
414.179, 3922.865
415.522, 3616.643
416.865, 3272.014
418.207, 2925.141
419.549, 2604.303
420.891, 2233.500
422.233, 2041.730
423.575, 1982.992
424.916, 1672.092
426.257, 1434.623
427.598, 1398.988
428.939, 946.385
430.279, 1141.361
431.619, 887.820
432.959, 753.312
434.299, 655.834
435.639, 738.541
436.978, 492.926
438.318, 633.900
439.657, 437.543
440.996, 501.215
442.334, 503.914
443.673, 398.910
445.011, 277.666
446.349, 539.459
447.687, 467.297
449.024, 307.176
450.361, 390.102
451.699, 212.072
453.036, 201.090
454.372, 7.848
455.709, 15.461
457.045, 106.584
458.381, 93.592
459.717, 39.186
461.053, 112.072
462.388, 58.375
463.724, 117.762
465.059, 325.191
466.394, 222.672
467.728, 416.193
469.063, 633.756
470.397, 345.359
471.731, 352.998
473.065, 641.674
474.398, 587.391
475.732, 934.139
477.065, 576.926
478.398, 629.748
479.731, 653.604
481.063, 739.496
482.396, 725.418
483.728, 514.375
485.060, 399.361
486.391, 145.381
487.723, 128.432
489.054, 4.512
490.385, 22.621
491.716, 59.756
493.047, 193.078
494.377, 124.975
495.708, 63.900
497.038, 199.834
498.368, 375.834
499.697, 325.988
501.027, 199.230
502.356, 39.508
503.685, 191.750
505.014, 32.975
506.342, 366.246
507.671, 144.625
508.999, 7.975
510.327, 158.311
511.655, 288.652
512.982, 224.088
514.310, 104.426
515.637, 185.959
516.964, 397.520
518.291, 108.158
519.617, 557.816
520.944, 320.533
522.270, 14.273
523.596, 546.027
524.921, 403.869
526.247, 681.773
527.572, 451.738
528.897, 336.721
530.222, 831.732
531.547, 818.766
532.871, 1003.818
534.196, 1027.912
535.520, 1089.904
536.844, 1061.273
538.167, 1233.561
539.491, 1268.910
540.814, 1420.322
542.137, 1411.781
543.460, 1308.258
544.783, 1590.752
546.105, 1454.266
547.427, 1977.844
548.749, 2092.438
550.071, 2187.041
551.393, 2626.680
552.714, 2870.369
554.035, 3308.074
555.356, 3279.791
556.677, 3300.594
557.998, 3639.404
559.318, 3844.234
560.638, 4294.072
561.958, 4826.928
563.278, 3799.793
564.597, 3435.666
565.917, 2744.553
567.236, 2696.449
568.555, 2556.359
569.874, 1971.277
571.192, 1902.211
572.511, 1676.148
573.829, 1444.100
575.147, 741.059
576.464, 1221.031
577.782, 640.006
579.099, 573.992
580.416, 530.996
581.733, 362.020
583.050, 609.053
584.366, 152.096
585.683, 324.146
586.999, 226.203
588.315, 76.734
589.630, 326.275
590.946, 157.289
592.261, 330.309
593.576, 64.334
594.891, 41.637
596.206, 55.348
597.520, 155.326
598.834, 356.307
600.148, 94.287
601.462, 62.268
602.776, 186.240
604.089, 88.215
605.402, 143.186
606.715, 283.154
608.028, 714.123
609.341, 467.088
610.653, 284.051
611.965, 990.010
613.277, 434.729
614.589, 840.680
615.901, 603.621
617.212, 818.564
618.523, 886.289
619.834, 1055.221
621.145, 1174.150
622.456, 1290.070
623.766, 976.988
625.076, 1603.900
626.386, 1366.805
627.696, 1732.701
629.006, 1290.592
630.315, 1980.473
631.624, 1670.348
632.933, 1671.213
634.242, 2368.070
635.551, 2047.920
636.859, 1956.758
638.167, 1749.586
639.475, 1770.922
640.783, 1670.207
642.090, 1860.004
643.398, 2068.787
644.705, 2020.557
646.012, 1438.316
647.318, 1691.346
648.625, 1640.080
649.931, 1574.799
651.237, 1719.938
652.543, 1484.262
653.849, 1439.590
655.155, 1473.418
656.460, 1849.729
657.765, 1666.287
659.070, 1495.869
660.375, 1982.990
661.679, 2421.080
662.984, 1697.482
664.288, 1815.143
665.592, 1808.781
666.895, 2103.668
668.199, 1732.469
669.502, 2136.297
670.805, 2074.824
672.108, 2301.559
673.411, 2582.973
674.713, 2262.678
676.016, 2837.537
677.318, 2844.627
678.620, 3052.793
679.921, 3550.990
681.223, 3702.551
682.524, 3845.428
683.825, 4230.959
685.126, 4588.273
686.427, 5008.219
687.727, 5587.234
689.028, 6206.570
690.328, 6822.910
691.628, 7872.150
692.927, 8408.162
694.227, 9526.254
695.526, 9690.324
696.825, 11937.275
698.124, 12635.410
699.423, 14720.023
700.721, 15600.883
702.020, 17478.971
703.318, 19292.600
704.616, 21035.271
705.913, 22720.217
707.211, 25558.553
708.508, 28799.191
709.805, 30431.643
711.102, 31280.371
712.399, 32886.879
713.695, 30869.645
714.992, 29369.740
716.288, 25157.395
717.584, 21641.812
718.879, 17142.773
720.175, 14201.797
721.470, 12473.195
722.765, 9658.312
724.060, 8138.594
725.355, 6970.930
726.649, 5969.555
727.944, 5135.141
729.238, 4933.945
730.532, 3708.703
731.825, 3874.129
733.119, 3870.711
734.412, 3295.586
735.705, 3024.883
736.998, 3137.289
738.291, 3080.094
739.584, 3434.730
740.876, 3256.664
742.168, 3844.195
743.460, 3506.789
744.752, 3925.043
746.043, 4068.969
747.334, 4384.766
748.626, 4477.648
749.916, 4289.617
751.207, 4476.156
752.498, 4686.746
753.788, 4737.422
755.078, 4173.059
756.368, 4456.656
757.658, 4438.953
758.947, 3983.469
760.237, 4107.953
761.526, 3409.402
762.815, 3320.812
764.104, 3055.184
765.392, 2712.516
766.680, 2568.809
767.969, 2012.129
769.257, 2692.352
770.544, 1883.531
771.832, 2044.695
773.119, 1790.820
774.406, 1699.918
775.693, 1870.969
776.980, 1284.984
778.267, 1693.418
779.553, 1453.523
780.839, 1678.426
782.125, 1579.281
783.411, 1686.156
784.697, 1357.117
785.982, 1326.859
787.267, 1344.297
788.552, 1422.957
789.837, 1004.578
791.122, 1353.164
792.406, 826.703
793.690, 973.207
794.974, 938.664
796.258, 597.086
797.542, 683.469
798.825, 454.047
800.108, 447.883
801.391, 191.371
802.674, 389.586
803.957, 407.766
805.239, 220.906
806.522, 478.043
807.804, 366.898
809.085, 549.273
810.367, 385.383
811.649, 91.457
812.930, 58.340
814.211, 63.289
815.492, 62.336
816.772, 30.445
818.053, 193.344
819.333, 17.816
820.613, 317.031
821.893, 506.516
823.173, 24.941
824.452, 73.414
825.732, 281.051
827.011, 116.469
828.290, 135.156
829.568, 245.074
830.847, 78.746
832.125, 166.316
833.403, 311.336
834.681, 199.684
835.959, 93.887
837.236, 89.215
838.514, 216.336
839.791, 36.840
841.068, 143.289
842.345, 98.688
843.621, 10.633
844.898, 73.691
846.174, 166.531
847.450, 137.008
848.726, 121.684
850.001, 120.969
851.277, 45.383
852.552, 49.105
853.827, 161.535
855.102, 100.922
856.376, 137.738
857.651, 186.453
858.925, 523.605
860.199, 25.281
861.473, 95.250
862.746, 210.664
864.020, 136.535
865.293, 224.641
866.566, 354.000
867.839, 52.602
869.112, 123.156
870.384, 170.668
871.656, 272.141
872.928, 249.070
874.200, 151.965
875.472, 209.320
876.744, 163.633
878.015, 140.922
879.286, 64.172
880.557, 303.375
881.828, 32.547
883.098, 243.676
884.369, 75.766
885.639, 267.816
886.909, 189.832
888.178, 25.191
889.448, 12.273
890.717, 3.883
891.987, 10.391
893.256, 130.152
894.524, 216.879
895.793, 190.574
897.061, 133.234
898.330, 94.891
899.598, 114.508
900.865, 85.430
902.133, 257.633
903.401, 195.145
904.668, 277.648
905.935, 575.129
907.202, 533.641
908.468, 625.035
909.735, 617.477
911.001, 602.930
912.267, 514.348
913.533, 397.738
914.799, 742.137
916.064, 484.516
917.330, 777.863
918.595, 576.188
919.860, 314.477
921.124, 771.742
922.389, 487.980
923.653, 951.191
924.918, 405.371
926.182, 706.523
927.445, 678.648
928.709, 552.746
929.972, 216.836
931.236, 284.887
932.499, 600.906
933.761, 636.906
935.024, 310.879
936.286, 279.820
937.549, 708.734
938.811, 145.617
940.073, 784.469
941.334, 394.289
942.596, 450.070
943.857, 588.840
945.118, 588.570
946.379, 735.078
947.640, 756.957
948.900, 1002.602
950.161, 865.215
951.421, 1020.066
952.681, 543.391
953.940, 920.449
955.200, 641.977
956.459, 563.480
957.719, 1006.559
958.978, 954.012
960.236, 1295.438
961.495, 952.844
962.753, 1165.215
964.012, 947.879
965.270, 1119.695
966.527, 1233.230
967.785, 1230.812
969.043, 1170.402
970.300, 1298.199
971.557, 1131.559
972.814, 1329.125
974.071, 1008.422
975.327, 1280.305
976.583, 1147.152
977.840, 1604.133
979.095, 1368.449
980.351, 1059.449
981.607, 1549.250
982.862, 1376.785
984.117, 1216.203
985.372, 2018.203
986.627, 856.207
987.882, 1736.852
989.136, 1654.801
990.390, 1213.363
991.644, 1766.539
992.898, 1510.754
994.152, 1708.746
995.405, 1511.695
996.659, 1324.715
997.912, 1823.918
999.165, 1679.051
1000.417, 1735.164
1001.670, 1143.352
1002.922, 2054.316
1004.174, 1295.762
1005.426, 1634.922
1006.678, 1617.906
1007.930, 1549.285
1009.181, 1828.590
1010.432, 1619.566
1011.683, 1938.117
1012.934, 1778.309
1014.185, 1891.648
1015.435, 1971.688
1016.685, 1773.910
1017.935, 1652.812
1019.185, 2149.355
1020.435, 2174.875
1021.684, 1618.770
1022.934, 2033.406
1024.183, 2523.074
1025.432, 1772.605
1026.680, 2264.590
1027.929, 1752.336
1029.177, 2217.668
1030.425, 1823.086
1031.673, 2204.930
1032.921, 1983.383
1034.169, 1796.656
1035.416, 1549.672
1036.663, 1678.664
1037.911, 1872.852
1039.157, 1988.422
1040.404, 2248.723
1041.650, 2408.156
1042.897, 2747.410
1044.143, 2895.379
1045.389, 3074.629
1046.634, 3239.430
1047.880, 3332.988
1049.125, 3466.465
1050.371, 3515.535
1051.615, 4477.875
1052.860, 3991.371
1054.105, 5042.598
1055.349, 5052.023
1056.593, 4982.758
1057.837, 4941.223
1059.081, 5094.418
1060.325, 5266.082
1061.568, 5303.445
1062.812, 5246.492
1064.055, 5191.094
1065.298, 4973.969
1066.540, 4778.957
1067.783, 4524.859
1069.025, 3960.559
1070.267, 4407.992
1071.509, 3607.984
1072.751, 3450.566
1073.993, 3979.434
1075.234, 3355.348
1076.475, 3239.406
1077.716, 3431.500
1078.957, 2845.832
1080.198, 2715.766
1081.438, 3258.816
1082.679, 2886.234
1083.919, 2871.074
1085.159, 2533.781
1086.398, 2744.023
1087.638, 2347.523
1088.877, 2269.762
1090.116, 2077.125
1091.355, 2493.781
1092.594, 2465.742
1093.833, 2242.504
1095.071, 2004.773
1096.309, 1988.453
1097.547, 2379.926
1098.785, 1824.414
1100.023, 2267.973
1101.260, 1851.340
1102.498, 2435.828
1103.735, 1884.875
1104.972, 2529.020
1106.208, 2223.391
1107.445, 2395.633
1108.681, 2217.211
1109.918, 2483.020
1111.154, 2293.906
1112.389, 2706.375
1113.625, 2646.648
1114.860, 2661.707
1116.096, 2902.883
1117.331, 3035.590
1118.566, 2677.922
1119.800, 3005.367
1121.035, 3368.754
1122.269, 3055.945
1123.503, 3616.328
1124.737, 3717.906
1125.971, 3829.047
1127.205, 3836.520
1128.438, 3665.004
1129.671, 4051.141
1130.904, 3906.664
1132.137, 4225.008
1133.370, 5019.742
1134.602, 5134.660
1135.834, 5305.211
1137.066, 5643.359
1138.298, 6687.266
1139.530, 6181.945
1140.762, 7090.574
1141.993, 6921.398
1143.224, 6990.992
1144.455, 6787.219
1145.686, 6350.707
1146.917, 6116.309
1148.147, 5560.500
1149.377, 4681.844
1150.607, 3955.371
1151.837, 3253.543
1153.067, 2390.344
1154.296, 2194.543
1155.526, 1999.848
1156.755, 1212.945
1157.984, 1431.461
1159.213, 957.953
1160.441, 857.148
1161.670, 732.660
1162.898, 644.402
1164.126, 617.961
1165.354, 520.199
1166.581, 502.879
1167.809, 279.141
1169.036, 4.844
1170.263, 162.336
1171.490, 409.203
1172.717, 343.512
1173.943, 51.355
1175.170, 64.395
1176.396, 139.266
1177.622, 277.059
1178.848, 185.492
1180.073, 256.621
1181.299, 300.438
1182.524, 194.879
1183.749, 252.531
1184.974, 398.289
1186.199, 305.770
1187.423, 331.547
1188.648, 193.926
1189.872, 263.168
1191.096, 129.320
1192.320, 151.168
1193.543, 110.961
1194.767, 108.234
1195.990, 86.504
1197.213, 201.215
1198.436, 105.559
1199.659, 238.035
1200.881, 28.500
1202.104, 267.270
1203.326, 37.840
1204.548, 603.707
1205.770, 355.492
1206.991, 445.242
1208.213, 320.918
1209.434, 391.254
1210.655, 139.500
1211.876, 12.578
1213.096, 148.547
1214.317, 163.453
1215.537, 205.254
1216.757, 49.980
1217.977, 363.598
1219.197, 216.133
1220.417, 381.570
1221.636, 125.336
1222.855, 93.586
1224.074, 309.078
1225.293, 48.867
1226.512, 226.062
1227.731, 497.898
1228.949, 207.301
1230.167, 0.953
1231.385, 351.754
1232.603, 425.191
1233.820, 160.539
1235.038, 277.789
1236.255, 417.938
1237.472, 341.219
1238.689, 76.168
1239.906, 540.004
1241.122, 173.242
1242.338, 306.871
1243.555, 587.422
1244.771, 335.902
1245.986, 550.934
1247.202, 104.441
1248.417, 552.727
1249.633, 410.805
1250.848, 147.023
1252.063, 555.773
1253.277, 22.422
1254.492, 85.973
1255.706, 188.426
1256.920, 161.781
1258.134, 88.980
1259.348, 305.914
1260.562, 126.539
1261.775, 558.688
1262.988, 23.715
1264.201, 278.023
1265.414, 240.395
1266.627, 251.633
1267.839, 126.707
1269.052, 254.676
1270.264, 74.527
1271.476, 546.148
1272.688, 159.336
1273.899, 204.004
1275.111, 288.242
1276.322, 72.324
1277.533, 226.285
1278.744, 158.133
1279.955, 165.258
1281.165, 396.180
1282.376, 106.492
1283.586, 41.660
1284.796, 347.566
1286.006, 55.355
1287.215, 288.996
1288.425, 333.520
1289.634, 10.074
1290.843, 344.199
1292.052, 142.645
1293.261, 193.328
1294.469, 373.195
1295.678, 20.945
1296.886, 403.574
1298.094, 39.090
1299.302, 263.516
1300.509, 332.691
1301.717, 178.789
1302.924, 264.777
1304.131, 117.660
1305.338, 314.578
1306.545, 233.230
1307.752, 51.223
1308.958, 274.168
1310.164, 422.441
1311.370, 82.613
1312.576, 469.664
1313.782, 72.004
1314.987, 185.047
1316.193, 248.363
1317.398, 386.980
1318.603, 240.922
1319.807, 178.508
1321.012, 117.020
1322.216, 426.727
1323.421, 9.121
1324.625, 274.508
1325.829, 338.098
1327.032, 104.773
1328.236, 601.871
1329.439, 317.094
1330.642, 16.809
1331.845, 276.992
1333.048, 593.164
1334.251, 604.645
1335.453, 184.309
1336.656, 420.297
1337.858, 410.273
1339.060, 344.977
1340.261, 417.562
1341.463, 182.949
1342.664, 428.703
1343.866, 613.957
1345.067, 593.668
1346.267, 496.258
1347.468, 522.891
1348.669, 426.340
1349.869, 818.941
1351.069, 587.895
1352.269, 341.879
1353.469, 903.254
1354.668, 664.832
1355.868, 945.734
1357.067, 890.262
1358.266, 882.801
1359.465, 1003.836
1360.664, 933.441
1361.862, 734.922
1363.061, 861.938
1364.259, 721.695
1365.457, 530.508
1366.655, 902.172
1367.852, 547.520
1369.050, 762.820
1370.247, 945.043
1371.444, 728.008
1372.641, 232.609
1373.838, 874.738
1375.035, 559.262
1376.231, 722.695
1377.427, 726.230
1378.623, 768.883
1379.819, 849.516
1381.015, 558.781
1382.211, 850.812
1383.406, 723.152
1384.601, 489.008
1385.796, 1008.789
1386.991, 759.531
1388.185, 804.051
1389.380, 663.215
1390.574, 1193.820
1391.768, 759.629
1392.962, 1063.242
1394.156, 549.488
1395.350, 1287.238
1396.543, 991.172
1397.736, 929.727
1398.929, 913.355
1400.122, 964.250
1401.315, 1022.859
1402.507, 750.430
1403.700, 992.234
1404.892, 880.836
1406.084, 873.137
1407.276, 476.047
1408.467, 1117.629
1409.659, 584.875
1410.850, 766.680
1412.041, 1157.293
1413.232, 658.922
1414.423, 1105.605
1415.614, 699.797
1416.804, 1026.719
1417.994, 915.824
1419.184, 985.938
1420.374, 595.258
1421.564, 1237.359
1422.753, 750.609
1423.943, 875.555
1425.132, 805.395
1426.321, 767.258
1427.510, 902.633
1428.698, 779.859
1429.887, 1014.805
1431.075, 748.395
1432.263, 706.945
1433.451, 794.891
1434.639, 797.215
1435.827, 945.984
1437.014, 938.840
1438.201, 1349.215
1439.388, 1001.930
1440.575, 741.973
1441.762, 816.215
1442.949, 1147.457
1444.135, 1050.477
1445.321, 887.324
1446.507, 1102.000
1447.693, 325.785
1448.879, 1113.535
1450.064, 992.766
1451.250, 1053.770
1452.435, 541.164
1453.620, 861.152
1454.805, 950.016
1455.989, 1060.473
1457.174, 1301.793
1458.358, 972.820
1459.542, 1192.660
1460.726, 1285.203
1461.910, 800.309
1463.093, 1294.004
1464.277, 889.457
1465.460, 938.922
1466.643, 1166.340
1467.826, 613.078
1469.009, 1409.336
1470.191, 649.773
1471.373, 1003.395
1472.556, 1205.211
1473.738, 1063.031
1474.919, 774.922
1476.101, 1019.406
1477.283, 933.016
1478.464, 646.469
1479.645, 849.141
1480.826, 873.887
1482.007, 694.750
1483.187, 1162.668
1484.368, 580.652
1485.548, 834.629
1486.728, 802.574
1487.908, 668.996
1489.088, 573.977
1490.268, 508.309
1491.447, 446.297
1492.626, 568.617
1493.805, 453.082
1494.984, 937.734
1496.163, 815.602
1497.341, 675.703
1498.520, 693.105
1499.698, 86.195
1500.876, 794.816
1502.054, 22.852
1503.232, 373.770
1504.409, 57.648
1505.586, 139.781
1506.763, 635.211
1507.940, 325.988
