##NAMES=Trilithionite
##RRUFFID=R040105
##IDEAL CHEMISTRY=KLi_1.5_Al_1.5_(Si_3_Al)O_10_F_2_
##LOCALITY=Brown Derby mine, Ohio City, Gunnison County, Colorado, USA
##OWNER=RRUFF
##SOURCE=University of Arizona Mineral Museum
##DESCRIPTION=Purple hexagonal tablet
##STATUS=The identification of this mineral has been confirmed by X-ray diffraction and chemical analysis
##URL=rruff.info/R040105
##MEASURED CHEMISTRY=(K_0.82_Li_0.14_Na_0.04_)(Li_0.53_Al_0.42_Mn_0.05_)_3_(Si_0.84_Al_0.17_)_4_O_10_((OH)_0.59_F_0.41_)_2_
##PIN_ID=L01598
##ORIENTATION=Laser parallel to c* (0 0 1). Fiducial mark perpendicular to laser is parallel to -a [-1 0 0]
151.3210, 0.0000000E+00
152.5490, 7.4219003E-02
153.7750, 331.2207
155.0020, 204.3516
156.2290, 55.98438
157.4550, 137.9707
158.6810, 49.55664
159.9080, 25.34375
161.1340, 30.02539
162.3590, 86.13086
163.5850, 292.5625
164.8110, 427.1738
166.0360, 290.9219
167.2610, 457.6680
168.4860, 473.2500
169.7110, 642.5273
170.9360, 853.3770
172.1610, 1130.693
173.3850, 1266.404
174.6100, 1425.477
175.8340, 1374.100
177.0580, 1562.465
178.2820, 1629.523
179.5050, 1776.129
180.7290, 1530.605
181.9520, 1905.891
183.1760, 1639.383
184.3990, 1521.010
185.6220, 1515.713
186.8450, 1132.449
188.0670, 1156.176
189.2900, 1197.875
190.5120, 782.5312
191.7340, 839.1367
192.9560, 839.6914
194.1780, 678.2578
195.4000, 677.8535
196.6220, 725.5078
197.8430, 715.0000
199.0640, 535.2871
200.2860, 791.7656
201.5070, 741.0840
202.7270, 964.8555
203.9480, 749.3047
205.1690, 472.4824
206.3890, 413.2461
207.6090, 187.5547
208.8290, 56.42383
210.0490, 87.87695
211.2690, 133.9375
212.4890, 186.6250
213.7080, 190.1367
214.9280, 454.9473
216.1470, 185.6152
217.3660, 374.9668
218.5850, 355.0176
219.8030, 242.7793
221.0220, 380.2656
222.2400, 489.4805
223.4590, 471.4395
224.6770, 599.7246
225.8950, 452.7910
227.1120, 708.2734
228.3300, 708.6348
229.5480, 670.8730
230.7650, 1057.002
231.9820, 1172.031
233.1990, 1246.070
234.4160, 1368.414
235.6330, 1646.803
236.8490, 1795.160
238.0660, 1976.648
239.2820, 2109.826
240.4980, 2263.494
241.7140, 2491.129
242.9300, 2883.652
244.1460, 2944.994
245.3610, 3213.502
246.5770, 3695.551
247.7920, 3854.801
249.0070, 4028.447
250.2220, 4461.836
251.4370, 4860.900
252.6510, 5158.020
253.8660, 5543.109
255.0800, 5808.459
256.2940, 6001.951
257.5080, 6642.221
258.7220, 7051.391
259.9360, 7100.621
261.1490, 7708.725
262.3630, 7212.031
263.5760, 6892.322
264.7890, 6798.582
266.0020, 6055.809
267.2150, 5661.996
268.4270, 4918.145
269.6400, 4387.250
270.8520, 4156.311
272.0640, 3669.324
273.2760, 3195.283
274.4880, 2777.178
275.7000, 2669.006
276.9120, 2297.768
278.1230, 2281.467
279.3340, 2043.096
280.5450, 1877.662
281.7560, 1653.162
282.9670, 1524.291
284.1780, 1487.977
285.3880, 1246.293
286.5980, 1183.547
287.8090, 975.7422
289.0190, 917.8770
290.2290, 1160.957
291.4380, 990.9766
292.6480, 940.9434
293.8570, 991.8516
295.0670, 712.7109
296.2760, 937.5137
297.4850, 900.5176
298.6930, 829.9688
299.9020, 865.1621
301.1110, 821.3672
302.3190, 726.3516
303.5270, 668.4902
304.7350, 673.0215
305.9430, 642.3594
307.1510, 687.8652
308.3580, 643.1152
309.5660, 621.3789
310.7730, 588.6426
311.9800, 462.9043
313.1870, 614.1602
314.3940, 430.4062
315.6010, 497.6367
316.8070, 378.8496
318.0130, 382.0430
319.2200, 289.2109
320.4260, 294.8906
321.6310, 368.4648
322.8370, 317.5430
324.0430, 314.5879
325.2480, 325.5938
326.4540, 338.5566
327.6590, 295.6660
328.8640, 283.6543
330.0680, 157.1895
331.2730, 215.9707
332.4780, 48.70703
333.6820, 9.384766
334.8860, 34.00781
336.0900, 135.4746
337.2940, 112.6016
338.4980, 119.2539
339.7010, 111.5000
340.9050, 42.37695
342.1080, 70.33398
343.3110, 9.386719
344.5140, 29.52344
345.7170, 114.7578
346.9200, 150.1172
348.1220, 249.6152
349.3240, 90.27734
350.5270, 155.6914
351.7290, 154.0215
352.9310, 60.96875
354.1320, 44.09766
355.3340, 244.9219
356.5350, 159.7246
357.7370, 131.6875
358.9380, 329.9883
360.1390, 237.8730
361.3400, 146.9355
362.5400, 60.00000
363.7410, 138.9473
364.9410, 528.4902
366.1410, 351.1113
367.3410, 370.3184
368.5410, 635.1133
369.7410, 386.3262
370.9400, 594.5371
372.1400, 752.2344
373.3390, 609.6953
374.5380, 777.0605
375.7370, 851.0762
376.9360, 896.3008
378.1350, 851.0703
379.3330, 970.7930
380.5310, 1187.463
381.7300, 981.0801
382.9280, 1020.645
384.1260, 1256.156
385.3230, 1226.615
386.5210, 1297.012
387.7180, 1501.301
388.9160, 1425.395
390.1130, 1692.273
391.3100, 1737.969
392.5060, 1943.518
393.7030, 2081.895
394.9000, 2033.008
396.0960, 2254.920
397.2920, 2328.732
398.4880, 2563.492
399.6840, 2663.584
400.8800, 2823.881
402.0750, 2864.502
403.2710, 2974.084
404.4660, 3017.734
405.6610, 2835.156
406.8560, 2929.658
408.0510, 2653.135
409.2450, 2547.586
410.4400, 2404.016
411.6340, 2336.422
412.8280, 2232.805
414.0220, 2150.166
415.2160, 1846.506
416.4100, 1824.820
417.6030, 1752.115
418.7970, 1468.389
419.9900, 1517.641
421.1830, 1385.871
422.3760, 1347.082
423.5690, 1408.271
424.7610, 1340.441
425.9540, 1403.592
427.1460, 1223.719
428.3380, 1377.830
429.5300, 1283.922
430.7220, 1414.994
431.9140, 1312.047
433.1050, 1423.082
434.2970, 1500.100
435.4880, 1297.100
436.6790, 1481.082
437.8700, 1611.047
439.0610, 1510.996
440.2510, 1672.926
441.4420, 1742.826
442.6320, 1535.695
443.8220, 1679.535
445.0120, 1546.344
446.2020, 1824.123
447.3910, 1630.871
448.5810, 1673.590
449.7700, 1611.277
450.9600, 1530.939
452.1490, 1788.566
453.3370, 1556.166
454.5260, 1517.736
455.7150, 1563.273
456.9030, 1219.779
458.0910, 1538.199
459.2800, 1418.643
460.4670, 1234.770
461.6550, 1303.875
462.8430, 1092.555
464.0300, 1375.221
465.2180, 1501.158
466.4050, 1202.848
467.5920, 1448.484
468.7790, 1382.135
469.9650, 1491.801
471.1520, 1429.254
472.3380, 1692.619
473.5250, 1427.090
474.7110, 1511.014
475.8970, 1740.363
477.0820, 1326.922
478.2680, 1339.725
479.4540, 1581.109
480.6390, 1159.883
481.8240, 1139.197
483.0090, 866.9531
484.1940, 862.0098
485.3780, 515.2734
486.5630, 622.3281
487.7470, 719.0801
488.9320, 513.4512
490.1160, 411.5781
491.3000, 289.4277
492.4830, 434.2578
493.6670, 334.9629
494.8500, 314.8496
496.0340, 127.4629
497.2170, 203.0820
498.4000, 171.6953
499.5820, 159.4141
500.7650, 16.24805
501.9480, 81.95312
503.1300, 70.66797
504.3120, 152.3086
505.4940, 89.01953
506.6760, 212.0293
507.8580, 246.9395
509.0390, 13.73242
510.2210, 4.535156
511.4020, 124.4414
512.5830, 21.25586
513.7640, 38.38672
514.9450, 22.45508
516.1250, 31.28125
517.3060, 101.0918
518.4860, 36.88867
519.6660, 133.6719
520.8460, 294.4434
522.0260, 225.2480
523.2060, 256.0391
524.3850, 190.8301
525.5650, 395.6152
526.7440, 397.3906
527.9230, 477.1562
529.1020, 393.9141
530.2810, 610.7324
531.4590, 591.5742
532.6380, 563.4316
533.8160, 836.3496
534.9940, 767.2910
536.1720, 804.2910
537.3500, 924.3320
538.5270, 834.4551
539.7050, 947.6250
540.8820, 1071.803
542.0590, 1088.006
543.2360, 1299.275
544.4130, 1366.600
545.5900, 1423.953
546.7660, 1653.354
547.9430, 1617.766
549.1190, 1739.219
550.2950, 1749.703
551.4710, 2046.188
552.6470, 2189.672
553.8220, 2201.168
554.9980, 2375.184
556.1730, 2295.164
557.3480, 2452.662
558.5230, 2532.162
559.6980, 2402.662
560.8730, 2581.162
562.0470, 2648.666
563.2220, 2506.168
564.3960, 2579.674
565.5700, 2442.410
566.7440, 2416.688
567.9170, 2210.195
569.0910, 2041.703
570.2640, 1967.213
571.4380, 1657.727
572.6110, 1637.242
573.7840, 1476.758
574.9570, 1425.273
576.1290, 1256.795
577.3020, 1279.316
578.4740, 1041.836
579.6460, 896.3594
580.8180, 824.8848
581.9900, 873.4121
583.1620, 661.9434
584.3330, 469.4785
585.5040, 374.0117
586.6760, 571.5488
587.8470, 401.0898
589.0180, 565.6348
590.1880, 490.1777
591.3590, 610.7285
592.5290, 462.2793
593.7000, 588.8320
594.8700, 573.3926
596.0400, 478.9512
597.2090, 413.5156
598.3790, 397.3242
599.5490, 561.6562
600.7180, 406.2324
601.8870, 566.8145
603.0560, 699.3984
604.2250, 542.9922
605.3940, 556.5938
606.5620, 596.1992
607.7300, 498.8086
608.8990, 740.4297
610.0670, 657.0566
611.2350, 712.6895
612.4020, 995.3320
613.5700, 772.9805
614.7370, 943.6406
615.9050, 816.3105
617.0720, 687.0039
618.2390, 861.7246
619.4060, 637.4863
620.5720, 753.3164
621.7390, 748.2090
622.9050, 555.1660
624.0710, 779.1855
625.2370, 581.2480
626.4030, 521.3633
627.5690, 577.5137
628.7340, 594.7070
629.9000, 482.9648
631.0650, 413.2949
632.2300, 161.7227
633.3950, 194.2070
634.5600, 377.7676
635.7240, 133.3418
636.8890, 124.7070
638.0530, 459.3555
639.2170, 196.9707
640.3810, 24.62695
641.5450, 220.3828
642.7080, 171.7598
643.8720, 89.91211
645.0350, 86.01367
646.1980, 112.1895
647.3610, 144.7266
648.5240, 202.1406
649.6870, 239.9277
650.8490, 300.0898
652.0120, 300.7891
653.1740, 288.4570
654.3360, 381.5977
655.4980, 463.9375
656.6600, 527.3359
657.8210, 534.7598
658.9830, 509.5137
660.1440, 432.6387
661.3050, 531.0488
662.4660, 525.3008
663.6270, 558.4238
664.7870, 655.8867
665.9480, 656.9805
667.1080, 792.1602
668.2680, 637.4551
669.4280, 947.3047
670.5880, 863.3223
671.7480, 1121.971
672.9070, 1126.242
674.0670, 1352.811
675.2260, 1717.123
676.3850, 1573.004
677.5440, 1714.334
678.7030, 1959.852
679.8610, 2248.734
681.0200, 2444.994
682.1780, 2569.777
683.3360, 3104.096
684.4940, 3474.443
685.6520, 3671.111
686.8090, 4155.613
687.9670, 4750.766
689.1240, 5163.469
690.2810, 5683.486
691.4380, 6664.711
692.5950, 7337.736
693.7520, 8151.750
694.9080, 9151.115
696.0650, 10326.22
697.2210, 11916.22
698.3770, 13616.23
699.5330, 15077.24
700.6880, 17044.62
701.8440, 19033.61
702.9990, 21528.61
704.1550, 23487.60
705.3100, 25444.59
706.4650, 26951.58
707.6190, 28071.60
708.7740, 27431.60
709.9290, 27023.61
711.0830, 25018.62
712.2370, 22385.62
713.3910, 19546.62
714.5450, 16919.61
715.6980, 14564.60
716.8520, 12470.59
718.0050, 10517.58
719.1580, 9091.562
720.3110, 7600.547
721.4640, 6711.521
722.6170, 5720.496
723.7700, 4945.467
724.9220, 4252.434
726.0740, 3907.396
727.2260, 3511.354
728.3780, 2833.307
729.5300, 2928.258
730.6810, 2608.203
731.8330, 2283.145
732.9840, 2152.082
734.1350, 1799.016
735.2860, 1621.943
736.4370, 1619.869
737.5880, 1489.787
738.7380, 1647.701
739.8880, 1591.611
741.0390, 1416.516
742.1890, 1505.414
743.3380, 1374.311
744.4880, 1403.201
745.6380, 1530.084
746.7870, 1721.963
747.9360, 1547.838
749.0850, 1540.705
750.2340, 1303.566
751.3830, 1469.424
752.5310, 1522.275
753.6800, 1341.119
754.8280, 1347.959
755.9760, 1300.791
757.1240, 1069.619
758.2720, 1091.441
759.4190, 1270.258
760.5670, 1064.066
761.7140, 904.8691
762.8610, 1221.662
764.0080, 696.4453
765.1550, 879.2246
766.3020, 646.9922
767.4480, 530.7539
768.5950, 765.5039
769.7410, 576.2480
770.8870, 372.9805
772.0330, 608.7051
773.1780, 568.4199
774.3240, 261.1230
775.4690, 386.8164
776.6140, 389.5000
777.7590, 597.1738
778.9040, 527.5664
780.0490, 439.2617
781.1940, 550.9668
782.3380, 447.0449
783.4820, 486.4141
784.6260, 410.1621
785.7700, 497.9531
786.9140, 574.7930
788.0580, 336.6289
789.2010, 490.4551
790.3450, 542.2715
791.4880, 280.0840
792.6310, 459.8906
793.7730, 365.6875
794.9160, 391.4785
796.0590, 399.2559
797.2010, 103.0234
798.3430, 98.22461
799.4850, 47.44141
800.6270, 25.09180
801.7690, 43.71875
802.9100, 125.3262
804.0520, 107.9199
805.1930, 83.33789
806.3340, 195.9355
807.4750, 70.51367
808.6160, 32.16406
809.7560, 200.8730
810.8970, 61.72461
812.0370, 184.6484
813.1770, 113.7090
814.3170, 263.8691
815.4570, 139.2090
816.5960, 15.33984
817.7360, 39.14648
818.8750, 206.6914
820.0140, 151.3867
821.1530, 72.20117
822.2920, 125.0918
823.4310, 4.908203
824.5690, 101.1250
825.7070, 62.25391
826.8460, 183.5469
827.9840, 112.3340
829.1220, 12.10742
830.2590, 267.8477
831.3970, 74.57617
832.5340, 136.3066
833.6710, 317.0078
834.8080, 234.1328
835.9450, 175.8105
837.0820, 65.47656
838.2190, 290.1270
839.3550, 323.7637
840.4910, 313.3906
841.6270, 327.0059
842.7630, 355.6094
843.8990, 399.7383
845.0350, 426.2285
846.1700, 496.7266
847.3060, 470.2832
848.4410, 486.8281
849.5760, 453.3613
850.7100, 524.8828
851.8450, 455.3926
852.9800, 508.8906
854.1140, 594.4336
855.2480, 447.9473
856.3820, 661.0430
857.5160, 533.4922
858.6500, 683.9336
859.7830, 742.4219
860.9170, 1025.777
862.0500, 801.1816
863.1830, 739.5781
864.3160, 577.9590
865.4480, 662.3301
866.5810, 616.3789
867.7130, 685.0352
868.8460, 703.3750
869.9780, 641.6992
871.1100, 751.0137
872.2410, 701.3164
873.3730, 578.6113
874.5050, 695.8906
875.6360, 608.1641
876.7670, 279.4238
877.8980, 565.6738
879.0290, 419.9102
880.1590, 643.1387
881.2900, 495.3555
882.4200, 623.5605
883.5500, 592.7559
884.6800, 619.9414
885.8100, 585.1172
886.9400, 502.2793
888.0690, 586.4355
889.1990, 697.5781
890.3280, 618.7109
891.4570, 621.8809
892.5860, 792.0449
893.7140, 615.1992
894.8430, 615.3418
895.9710, 618.4785
897.1000, 754.6016
898.2280, 746.7148
899.3560, 494.8203
900.4830, 831.9141
901.6110, 695.9980
902.7380, 714.0801
903.8660, 974.1543
904.9930, 755.2148
906.1200, 727.2676
907.2460, 773.3105
908.3730, 1072.346
909.5000, 885.3691
910.6260, 977.8984
911.7520, 945.4062
912.8780, 900.4238
914.0040, 812.4336
915.1290, 727.4336
916.2550, 975.4277
917.3800, 763.4121
918.5050, 941.4121
919.6300, 1073.400
920.7550, 1024.420
921.8800, 990.4395
923.0040, 908.4473
924.1290, 900.4668
925.2530, 913.4785
926.3770, 933.5059
927.5010, 889.5918
928.6250, 1009.592
929.7480, 863.6289
930.8720, 807.6699
931.9950, 915.7031
933.1180, 971.5039
934.2410, 985.0547
935.3640, 637.6992
936.4860, 848.7383
937.6090, 612.3066
938.7310, 541.2480
939.8530, 931.1113
940.9750, 597.8613
942.0970, 665.0586
943.2180, 530.0879
944.3400, 771.4883
945.4610, 644.2695
946.5820, 521.7559
947.7030, 683.5000
948.8240, 568.6758
949.9450, 441.4082
951.0650, 388.9531
952.1860, 629.1367
953.3060, 571.9414
954.4260, 763.2266
955.5460, 520.9766
956.6650, 647.7070
957.7850, 404.1875
958.9040, 506.8301
960.0230, 440.8574
961.1420, 376.3359
962.2610, 378.5000
963.3800, 139.4629
964.4990, 333.6230
965.6170, 235.8027
966.7350, 2.630859
967.8530, 156.7383
968.9710, 28.05469
970.0890, 90.15234
971.2070, 345.3652
972.3240, 178.2051
973.4410, 258.4277
974.5580, 46.65430
975.6750, 197.8867
976.7920, 52.12305
977.9090, 161.6328
979.0250, 130.5566
980.1410, 195.7539
981.2580, 145.9551
982.3740, 186.1602
983.4890, 180.3730
984.6050, 13.58984
985.7200, 76.81445
986.8360, 23.23242
987.9510, 3.720703
989.0660, 38.48242
990.1810, 236.7578
991.2950, 131.0020
992.4100, 187.2539
993.5240, 373.5117
994.6390, 340.7754
995.7530, 312.0430
996.8660, 478.3184
997.9800, 492.6016
999.0940, 507.8887
1000.207, 832.1855
1001.320, 1069.486
1002.433, 1150.795
1003.546, 1215.111
1004.659, 909.4336
1005.772, 631.7637
1006.884, 642.0977
1007.996, 515.4434
1009.108, 506.7930
1010.220, 854.1504
1011.332, 607.5176
1012.444, 569.8867
1013.555, 816.2656
1014.666, 538.6523
1015.777, 470.0469
1016.888, 488.4492
1017.999, 624.8594
1019.110, 504.2773
1020.220, 529.7012
1021.331, 534.1328
1022.441, 594.5742
1023.551, 608.7559
1024.661, 927.1426
1025.770, 619.2793
1026.880, 784.7500
1027.989, 669.2305
1029.098, 955.7168
1030.207, 838.2109
1031.316, 779.1016
1032.425, 636.2207
1033.533, 579.7383
1034.642, 501.2637
1035.750, 485.9453
1036.858, 461.4863
1037.966, 346.0352
1039.073, 581.5938
1040.181, 498.1543
1041.288, 562.7266
1042.396, 713.3066
1043.503, 423.8965
1044.610, 461.4590
1045.716, 764.9316
1046.823, 488.6387
1047.929, 666.2598
1049.036, 720.8887
1050.142, 693.5254
1051.248, 947.0723
1052.353, 691.7266
1053.459, 1008.850
1054.564, 814.7891
1055.670, 1174.467
1056.775, 1026.473
1057.880, 1377.164
1058.985, 1524.254
1060.089, 1163.961
1061.194, 1545.676
1062.298, 1624.338
1063.402, 1646.027
1064.506, 1877.762
1065.610, 1873.975
1066.713, 1999.707
1067.817, 1984.002
1068.920, 2064.801
1070.023, 2086.615
1071.126, 2136.436
1072.229, 2285.547
1073.332, 2288.379
1074.435, 2396.189
1075.537, 2570.133
1076.639, 2536.082
1077.741, 2772.061
1078.843, 2804.107
1079.945, 2881.191
1081.046, 2996.340
1082.148, 2994.543
1083.249, 3060.832
1084.350, 2858.180
1085.451, 3159.539
1086.551, 2651.932
1087.652, 2735.398
1088.752, 2932.109
1089.853, 2943.922
1090.953, 2779.561
1092.053, 2869.104
1093.152, 2648.783
1094.252, 2551.494
1095.351, 2658.213
1096.451, 2455.938
1097.550, 2593.674
1098.649, 2358.418
1099.748, 2106.668
1100.846, 2637.424
1101.945, 2215.746
1103.043, 2257.510
1104.141, 2376.275
1105.239, 2194.049
1106.337, 2111.828
1107.434, 2185.607
1108.532, 2069.516
1109.629, 2084.754
1110.726, 2031.600
1111.823, 2069.395
1112.920, 2117.199
1114.017, 2143.008
1115.113, 1953.816
1116.210, 2227.633
1117.306, 2277.453
1118.402, 2018.273
1119.498, 1871.105
1120.593, 2150.879
1121.689, 1836.047
1122.784, 1843.887
1123.879, 1861.730
1124.974, 1675.277
1126.069, 1763.438
1127.164, 1511.297
1128.259, 1491.164
1129.353, 1493.027
1130.447, 1336.898
1131.541, 1225.777
1132.635, 1136.656
1133.729, 1118.543
1134.822, 1046.434
1135.916, 842.3320
1137.009, 795.2344
1138.102, 516.1367
1139.195, 828.0430
1140.288, 588.9570
1141.380, 434.8750
1142.473, 725.8008
1143.565, 633.7266
1144.657, 241.6602
1145.749, 427.5977
1146.841, 297.5352
1147.932, 314.4844
1149.024, 35.43359
1150.115, 109.3906
1151.206, 270.3477
1152.297, 127.3164
1153.388, 286.2852
1154.479, 11.25781
1155.569, 170.7656
1156.659, 4.878906
1157.750, 27.00781
1158.839, 95.89453
1159.929, 47.78906
1161.019, 150.6875
1162.108, 235.5898
1163.198, 18.49609
1164.287, 272.4062
1165.376, 37.32031
1166.465, 12.75781
1167.553, 31.15625
1168.642, 77.07031
1169.730, 90.99219
1170.818, 154.9180
1171.906, 159.8516
1172.994, 276.7852
1174.082, 169.7266
1175.170, 26.33594
1176.257, 24.40625
1177.344, 11.50781
1178.431, 69.42578
1179.518, 67.34375
1180.605, 191.2695
1181.691, 72.80469
1182.778, 63.08594
1183.864, 145.0195
1184.950, 12.20703
1186.036, 102.5977
1187.122, 62.58984
1188.207, 40.18359
1189.292, 159.0391
1190.378, 65.65234
1191.463, 236.3477
1192.548, 55.95312
1193.632, 40.28516
1194.717, 149.3594
1195.801, 54.99609
1196.886, 113.3789
1197.970, 239.8281
1199.054, 34.59766
1200.137, 40.02344
1201.221, 173.4570
1202.305, 12.10938
1203.388, 74.31250
1204.471, 191.7422
1205.554, 105.1719
1206.637, 227.6094
1207.719, 190.0508
1208.802, 54.49219
1209.884, 285.9336
1210.966, 278.3828
1212.048, 159.8320
1213.130, 121.2852
1214.212, 17.74219
1215.293, 192.1953
1216.374, 160.6523
1217.456, 93.11719
1218.536, 11.42188
1219.617, 220.9727
1220.698, 13.35547
1221.778, 104.3125
1222.859, 255.9531
1223.939, 155.2266
1225.019, 73.49609
1226.099, 297.7695
1227.178, 274.0391
1228.258, 306.6133
1229.337, 51.11328
1230.417, 254.1328
1231.496, 154.3750
1232.574, 205.6211
1233.653, 350.8711
1234.732, 266.1211
1235.810, 240.3711
1236.888, 101.6250
1237.966, 331.8750
1239.044, 406.1328
1240.122, 341.3867
1241.199, 318.6719
1242.277, 348.9570
1243.354, 319.0312
1244.431, 269.5430
1245.508, 376.8320
1246.585, 374.1250
1247.661, 514.4219
1248.738, 237.7227
1249.814, 448.0195
1250.890, 299.3164
1251.966, 549.6328
1253.042, 262.9570
1254.117, 446.2812
1255.193, 415.6094
1256.268, 462.9961
1257.343, 477.3828
1258.418, 609.7773
1259.493, 193.1758
1260.567, 455.5742
1261.642, 349.9766
1262.716, 613.3750
1263.790, 686.7891
1264.864, 526.2266
1265.938, 627.6719
1267.011, 458.1211
1268.085, 801.6094
1269.158, 766.1016
1270.231, 651.5938
1271.304, 644.1016
1272.377, 682.6094
1273.450, 681.7656
1274.522, 680.6445
1275.594, 778.1680
1276.666, 885.6953
1277.738, 919.2305
1278.810, 920.7656
1279.882, 747.3047
1280.953, 546.8477
1282.025, 771.3945
1283.096, 1062.945
1284.167, 873.5000
1285.238, 910.3984
1286.308, 854.2891
1287.379, 1084.859
1288.449, 1025.438
1289.519, 1050.020
1290.589, 1045.602
1291.659, 1303.191
1292.729, 1224.785
1293.798, 1572.387
1294.868, 1676.008
1295.937, 2387.480
1297.006, 2180.586
1298.075, 2597.750
1299.143, 1964.395
1300.212, 2268.039
1301.280, 2168.688
1302.348, 2483.344
1303.416, 2228.000
1304.484, 2236.688
1305.552, 2153.484
1306.620, 2545.051
1307.687, 2154.715
1308.754, 1928.379
1309.821, 2265.047
1310.888, 1908.805
1311.955, 2075.473
1313.021, 1748.676
1314.088, 1683.086
1315.154, 1822.762
1316.220, 1418.109
1317.286, 1013.781
1318.352, 1347.062
