##NAMES=Trilithionite
##RRUFFID=R040101
##IDEAL CHEMISTRY=KLi_1.5_Al_1.5_(Si_3_Al)O_10_F_2_
##LOCALITY=Zambezi Region, Mozambique
##OWNER=RRUFF
##SOURCE=University of Arizona Mineral Museum
##DESCRIPTION=Aggregate of purple hexagonal plates, polytype is 2M1
##STATUS=The identification of this mineral has been confirmed by X-ray diffraction and chemical analysis
##URL=rruff.info/R040101
##MEASURED CHEMISTRY=(K_0.84_Li_0.13_Na_0.02_)(Li_0.54_Al_0.44_Mn_0.02_)_3_(Si_0.82_Al_0.18_)_4_O_10_F_2.00_
##PIN_ID=M00337
##ORIENTATION=Laser parallel to (1 0 1). Fiducial mark perpendicular to laser is parallel to b [0 1 0]
130.228, 0.000
131.615, 0.346
133.003, 162.514
134.390, 71.261
135.777, 66.483
137.164, 65.226
138.550, 137.053
139.937, 35.979
141.323, 68.036
142.709, 38.220
144.094, 49.200
145.480, 12.186
146.865, 66.566
148.250, 92.786
149.635, 72.218
151.019, 192.633
152.403, 274.826
153.788, 458.614
155.171, 607.832
156.555, 827.365
157.939, 955.272
159.322, 1365.614
160.705, 1744.239
162.088, 2280.995
163.470, 2835.755
164.853, 3352.414
166.235, 4125.883
167.617, 4935.084
168.998, 5920.954
170.380, 7140.438
171.761, 8573.482
173.142, 9987.038
174.523, 11838.048
175.904, 13443.473
177.284, 15049.268
178.664, 16575.410
180.044, 17320.887
181.424, 18261.742
182.803, 18409.537
184.183, 18295.734
185.562, 18025.492
186.940, 17882.406
188.319, 17339.371
189.698, 17316.373
191.076, 16893.412
192.454, 16896.496
193.831, 16688.627
195.209, 16168.815
196.586, 15760.059
197.963, 14674.361
199.340, 13694.727
200.717, 12341.154
202.093, 11313.645
203.470, 10137.203
204.846, 9148.827
206.221, 8557.518
207.597, 8176.275
208.972, 7972.103
210.347, 7485.000
211.722, 7317.966
213.097, 7321.977
214.472, 7037.947
215.846, 7157.872
217.220, 6925.737
218.594, 6786.574
219.967, 6655.351
221.341, 6661.119
222.714, 6598.915
224.087, 6680.746
225.460, 6792.623
226.832, 7028.842
228.204, 7352.600
229.577, 7737.590
230.948, 8227.706
232.320, 8770.637
233.692, 9361.876
235.063, 10016.412
236.434, 10784.427
237.805, 11523.453
239.175, 12342.792
240.545, 13150.072
241.916, 14322.821
243.286, 14917.000
244.655, 15567.287
246.025, 16133.649
247.394, 16695.086
248.763, 17411.598
250.132, 17948.182
251.501, 19235.840
252.869, 20436.566
254.237, 22760.367
255.605, 24928.236
256.973, 27266.182
258.340, 29686.188
259.708, 31253.275
261.075, 31968.422
262.442, 31787.645
263.808, 30781.932
265.175, 28367.289
266.541, 25593.705
267.907, 22099.178
269.273, 18770.701
270.639, 15896.281
272.004, 13419.323
273.369, 11152.595
274.734, 9499.328
276.099, 7899.114
277.463, 6780.953
278.828, 6112.845
280.192, 5298.787
281.556, 4626.782
282.919, 4281.831
284.283, 3786.930
285.646, 3594.083
287.009, 3156.287
288.372, 2968.545
289.734, 2869.854
291.097, 2591.216
292.459, 2558.630
293.821, 2475.097
295.183, 2397.429
296.544, 2334.943
297.905, 2208.720
299.266, 2090.187
300.627, 2021.854
301.988, 1913.210
303.348, 1834.982
304.709, 1645.834
306.069, 1497.135
307.428, 1435.441
308.788, 1248.141
310.147, 1150.853
311.507, 1052.007
312.865, 915.339
314.224, 785.841
315.583, 683.500
316.941, 661.310
318.299, 721.261
319.657, 444.347
321.015, 478.561
322.372, 420.896
323.729, 302.346
325.086, 202.904
326.443, 248.564
327.800, 132.323
329.156, 128.176
330.512, 27.118
331.868, 26.147
333.224, 85.151
334.579, 10.196
335.935, 141.176
337.290, 136.322
338.645, 128.350
339.999, 143.383
341.354, 122.325
342.708, 157.323
344.062, 152.672
345.416, 142.873
346.769, 158.428
348.123, 192.021
349.476, 146.421
350.829, 180.887
352.182, 113.686
353.534, 42.883
354.887, 10.449
356.239, 77.046
357.591, 77.681
358.942, 89.353
360.294, 113.062
361.645, 224.807
362.996, 276.589
364.347, 339.409
365.698, 368.265
367.048, 442.159
368.398, 554.088
369.748, 613.054
371.098, 705.057
372.448, 707.095
373.797, 947.170
375.146, 896.281
376.495, 1064.428
377.844, 1251.611
379.192, 1188.832
380.540, 1411.090
381.889, 1418.386
383.236, 1529.720
384.584, 1737.093
385.932, 1809.505
387.279, 1904.955
388.626, 1939.444
389.973, 2237.972
391.319, 2391.538
392.666, 2666.142
394.012, 2739.784
395.358, 2985.439
396.704, 3279.084
398.049, 3435.680
399.394, 3906.223
400.740, 3973.688
402.084, 4215.078
403.429, 4309.375
404.774, 4392.594
406.118, 4502.843
407.462, 4313.132
408.806, 4077.459
410.150, 3920.824
411.493, 3712.228
412.836, 3582.669
414.179, 3179.147
415.522, 2879.663
416.865, 2648.216
418.207, 2249.807
419.549, 1881.433
420.891, 1809.097
422.233, 1641.797
423.575, 1273.533
424.916, 1074.306
426.257, 1055.115
427.598, 884.959
428.939, 744.839
430.279, 754.754
431.619, 592.705
432.959, 489.690
434.299, 441.711
435.639, 502.767
436.978, 360.857
438.318, 457.982
439.657, 382.143
440.996, 423.337
442.334, 442.565
443.673, 365.828
445.011, 331.125
446.349, 360.455
447.687, 303.819
449.024, 366.217
450.361, 332.649
451.699, 319.113
453.036, 249.611
454.372, 294.142
455.709, 257.904
457.045, 235.314
458.381, 244.972
459.717, 246.354
461.053, 336.429
462.388, 315.230
463.724, 389.084
465.059, 485.985
466.394, 412.935
467.728, 473.929
469.063, 625.977
470.397, 633.077
471.731, 741.221
473.065, 886.406
474.398, 808.631
475.732, 976.896
477.065, 772.199
478.398, 802.540
479.731, 717.919
481.063, 753.335
482.396, 547.787
483.728, 457.275
485.060, 307.798
486.391, 257.355
487.723, 215.948
489.054, 135.574
490.385, 100.233
491.716, 57.927
493.047, 58.348
494.377, 63.571
495.708, 137.146
497.038, 81.433
498.368, 159.642
499.697, 198.739
501.027, 129.938
502.356, 168.311
503.685, 220.802
505.014, 98.437
506.342, 132.686
507.671, 118.022
508.999, 182.365
510.327, 13.480
511.655, 21.526
512.982, 5.117
514.310, 139.657
515.637, 92.590
516.964, 215.261
518.291, 190.993
519.617, 378.811
520.944, 444.699
522.270, 406.642
523.596, 619.625
524.921, 640.688
526.247, 692.800
527.572, 710.987
528.897, 714.224
530.222, 989.520
531.547, 997.858
532.871, 1093.267
534.196, 1002.712
535.520, 1000.217
536.844, 1220.782
538.167, 1295.382
539.491, 1407.044
540.814, 1496.750
542.137, 1576.509
543.460, 1695.316
544.783, 1926.162
546.105, 2062.045
547.427, 2363.978
548.749, 2669.943
550.071, 2900.939
551.393, 3184.974
552.714, 3588.046
554.035, 3766.154
555.356, 4006.834
556.677, 4329.486
557.998, 4344.708
559.318, 4509.965
560.638, 4645.254
561.958, 4358.577
563.278, 4079.936
564.597, 3938.329
565.917, 3600.759
567.236, 3229.222
568.555, 3089.720
569.874, 2541.250
571.192, 2274.815
572.511, 2093.410
573.829, 1704.037
575.147, 1366.697
576.464, 1229.396
577.782, 995.137
579.099, 873.911
580.416, 762.720
581.733, 680.562
583.050, 603.434
584.366, 495.337
585.683, 552.269
586.999, 419.229
588.315, 315.217
589.630, 381.235
590.946, 323.281
592.261, 369.358
593.576, 339.461
594.891, 326.591
596.206, 231.749
597.520, 345.934
598.834, 414.146
600.148, 320.384
601.462, 368.646
602.776, 427.935
604.089, 441.249
605.402, 541.588
606.715, 585.952
608.028, 627.342
609.341, 733.755
610.653, 739.192
611.965, 831.582
613.277, 903.139
614.589, 1012.646
615.901, 1030.178
617.212, 1182.731
618.523, 1279.308
619.834, 1403.905
621.145, 1426.524
622.456, 1580.165
623.766, 1638.827
625.076, 1850.510
626.386, 1857.213
627.696, 1913.936
629.006, 2029.678
630.315, 2348.440
631.624, 2056.222
632.933, 2288.022
634.242, 2395.840
635.551, 2187.678
636.859, 1886.310
638.167, 2242.338
639.475, 2438.811
640.783, 2484.304
642.090, 1926.571
643.398, 2147.820
644.705, 2056.917
646.012, 1953.229
647.318, 2284.179
648.625, 2103.999
649.931, 2153.021
651.237, 2168.467
652.543, 2165.757
653.849, 2217.072
655.155, 2334.645
656.460, 2341.186
657.765, 2397.207
659.070, 2287.832
660.375, 2483.910
661.679, 2628.586
662.984, 2560.874
664.288, 2691.849
665.592, 2758.371
666.895, 2813.678
668.199, 2736.200
669.502, 2986.913
670.805, 3065.326
672.108, 3322.456
673.411, 3443.252
674.713, 3652.048
676.016, 3952.951
677.318, 4172.113
678.620, 4575.788
679.921, 4856.811
681.223, 5332.251
682.524, 5683.703
683.825, 6106.468
685.126, 6841.811
686.427, 7411.705
687.727, 8062.442
689.028, 8976.132
690.328, 9650.172
691.628, 10967.017
692.927, 11966.604
694.227, 13296.122
695.526, 14291.768
696.825, 16577.465
698.124, 18262.359
699.423, 20177.939
700.721, 22622.352
702.020, 25343.559
703.318, 27913.795
704.616, 30938.396
705.913, 33856.547
707.211, 37422.129
708.508, 40906.348
709.805, 42006.914
711.102, 40753.168
712.399, 39455.039
713.695, 34869.195
714.992, 30694.012
716.288, 25520.637
717.584, 21111.314
718.879, 17044.773
720.175, 13986.021
721.470, 11979.659
722.765, 9860.021
724.060, 8282.094
725.355, 7181.256
726.649, 6320.120
727.944, 5579.002
729.238, 5159.379
730.532, 4350.888
731.825, 4441.511
733.119, 4109.144
734.412, 3823.048
735.705, 3653.963
736.998, 3752.990
738.291, 3676.910
739.584, 3933.542
740.876, 4018.449
742.168, 4327.235
743.460, 4336.376
744.752, 4589.390
746.043, 4667.609
747.334, 4746.430
748.626, 4995.857
749.916, 4859.586
751.207, 4971.564
752.498, 4962.690
753.788, 4965.391
755.078, 4730.233
756.368, 4563.916
757.658, 4452.548
758.947, 4140.351
760.237, 4000.109
761.526, 3543.903
762.815, 3330.613
764.104, 2988.177
765.392, 2868.726
766.680, 2532.400
767.969, 2246.919
769.257, 2314.514
770.544, 1910.001
771.832, 1913.474
773.119, 1733.933
774.406, 1792.374
775.693, 1786.797
776.980, 1537.247
778.267, 1734.637
779.553, 1680.011
780.839, 1751.368
782.125, 1667.707
783.411, 1667.029
784.697, 1591.333
785.982, 1550.620
787.267, 1469.888
788.552, 1333.138
789.837, 1093.369
791.122, 1195.582
792.406, 904.775
793.690, 875.950
794.974, 869.105
796.258, 654.241
797.542, 619.358
798.825, 550.455
800.108, 520.533
801.391, 391.590
802.674, 408.627
803.957, 285.644
805.239, 219.640
806.522, 277.638
807.804, 142.639
809.085, 225.657
810.367, 175.681
811.649, 26.727
812.930, 86.798
814.211, 48.118
815.492, 66.055
816.772, 140.010
818.053, 0.053
819.333, 102.103
820.613, 84.220
821.893, 21.381
823.173, 33.594
824.452, 128.863
825.732, 43.243
827.011, 132.688
828.290, 68.246
829.568, 164.886
830.847, 104.657
832.125, 48.528
833.403, 8.530
834.681, 137.453
835.959, 27.554
837.236, 127.716
838.514, 24.991
839.791, 65.326
841.068, 1.257
842.345, 109.206
843.621, 17.227
844.898, 63.379
846.174, 75.065
847.450, 48.160
848.726, 75.647
850.001, 12.542
851.277, 47.491
852.552, 26.514
853.827, 8.402
855.102, 14.273
856.376, 36.895
857.651, 46.869
858.925, 95.598
860.199, 5.296
861.473, 13.950
862.746, 5.563
864.020, 82.131
865.293, 47.333
866.566, 96.130
867.839, 33.563
869.112, 46.958
870.384, 42.320
871.656, 59.646
872.928, 11.938
874.200, 45.188
875.472, 69.404
876.744, 18.588
878.015, 92.731
879.286, 28.845
880.557, 155.921
881.828, 65.970
883.098, 52.984
884.369, 1.965
885.639, 14.353
886.909, 23.779
888.178, 22.622
889.448, 16.426
890.717, 136.191
891.987, 38.927
893.256, 135.627
894.524, 162.299
895.793, 84.942
897.061, 104.554
898.330, 73.137
899.598, 53.686
900.865, 132.203
902.133, 162.690
903.401, 101.149
904.668, 77.578
905.935, 161.975
907.202, 125.345
908.468, 160.685
909.735, 186.998
911.001, 126.285
912.267, 133.541
913.533, 121.770
914.799, 138.973
916.064, 187.147
917.330, 250.295
918.595, 137.417
919.860, 194.510
921.124, 149.578
922.389, 233.616
923.653, 211.629
924.918, 170.616
926.182, 179.581
927.445, 264.525
928.709, 161.443
929.972, 250.361
931.236, 187.253
932.499, 239.120
933.761, 270.960
935.024, 227.784
936.286, 270.583
937.549, 314.357
938.811, 206.111
940.073, 304.840
941.334, 336.542
942.596, 299.217
943.857, 389.869
945.118, 428.506
946.379, 311.132
947.640, 410.736
948.900, 524.327
950.161, 452.893
951.421, 528.444
952.681, 508.976
953.940, 457.483
955.200, 483.966
956.459, 601.425
957.719, 674.859
958.978, 727.270
960.236, 778.657
961.495, 720.020
962.753, 874.359
964.012, 861.286
965.270, 894.576
966.527, 1011.527
967.785, 978.286
969.043, 1058.336
970.300, 1007.105
971.557, 1007.407
972.814, 1071.766
974.071, 1109.007
975.327, 1126.646
976.583, 1134.795
977.840, 1167.488
979.095, 1170.513
980.351, 1203.533
981.607, 1208.438
982.862, 1259.092
984.117, 1223.247
985.372, 1346.930
986.627, 1188.441
987.882, 1316.824
989.136, 1388.884
990.390, 1275.359
991.644, 1427.271
992.898, 1310.332
994.152, 1417.432
995.405, 1385.171
996.659, 1391.098
997.912, 1476.269
999.165, 1480.515
1000.417, 1449.627
1001.670, 1413.686
1002.922, 1541.535
1004.174, 1455.685
1005.426, 1562.993
1006.678, 1520.495
1007.930, 1675.965
1009.181, 1605.064
1010.432, 1681.617
1011.683, 1786.704
1012.934, 1754.153
1014.185, 1889.247
1015.435, 1837.659
1016.685, 1901.436
1017.935, 1851.930
1019.185, 1899.742
1020.435, 1971.739
1021.684, 1839.665
1022.934, 2030.795
1024.183, 2011.139
1025.432, 2036.095
1026.680, 2095.337
1027.929, 1908.859
1029.177, 2013.275
1030.425, 1964.975
1031.673, 2007.649
1032.921, 2018.813
1034.169, 2069.828
1035.416, 2050.716
1036.663, 2155.579
1037.911, 2190.168
1039.157, 2320.748
1040.404, 2495.200
1041.650, 2572.745
1042.897, 3027.561
1044.143, 2964.085
1045.389, 3245.711
1046.634, 3666.967
1047.880, 3737.335
1049.125, 4137.476
1050.371, 4429.471
1051.615, 4795.938
1052.860, 5059.867
1054.105, 5311.829
1055.349, 5530.972
1056.593, 5690.555
1057.837, 5850.981
1059.081, 5885.329
1060.325, 5857.319
1061.568, 5838.690
1062.812, 5699.143
1064.055, 5571.367
1065.298, 5291.851
1066.540, 5082.429
1067.783, 4748.130
1069.025, 4613.597
1070.267, 4584.363
1071.509, 4342.358
1072.751, 4086.576
1073.993, 4060.131
1075.234, 3869.790
1076.475, 3763.487
1077.716, 3688.127
1078.957, 3584.987
1080.198, 3429.686
1081.438, 3406.579
1082.679, 3364.892
1083.919, 3339.628
1085.159, 3205.484
1086.398, 3189.067
1087.638, 3116.050
1088.877, 3051.497
1090.116, 2983.921
1091.355, 2954.741
1092.594, 2919.807
1093.833, 2941.413
1095.071, 2932.854
1096.309, 2987.155
1097.547, 3092.264
1098.785, 3006.982
1100.023, 2987.956
1101.260, 3075.519
1102.498, 3241.226
1103.735, 3195.887
1104.972, 3316.530
1106.208, 3295.180
1107.445, 3400.827
1108.681, 3452.639
1109.918, 3569.330
1111.154, 3543.080
1112.389, 3719.754
1113.625, 3728.343
1114.860, 3811.871
1116.096, 3958.367
1117.331, 4064.422
1118.566, 4349.482
1119.800, 4392.106
1121.035, 4777.717
1122.269, 4988.456
1123.503, 5404.227
1124.737, 5496.018
1125.971, 5755.112
1127.205, 6390.959
1128.438, 6281.427
1129.671, 7255.478
1130.904, 8098.484
1132.137, 8505.384
1133.370, 8072.770
1134.602, 8774.842
1135.834, 8701.187
1137.066, 8821.295
1138.298, 9036.435
1139.530, 8891.452
1140.762, 8999.506
1141.993, 8452.596
1143.224, 7971.803
1144.455, 7240.000
1145.686, 6454.638
1146.917, 5527.361
1148.147, 4692.143
1149.377, 3830.010
1150.607, 3179.377
1151.837, 2678.364
1153.067, 2151.610
1154.296, 1791.809
1155.526, 1548.882
1156.755, 1187.171
1157.984, 1108.660
1159.213, 852.738
1160.441, 810.177
1161.670, 605.464
1162.898, 597.756
1164.126, 518.060
1165.354, 480.108
1166.581, 460.525
1167.809, 454.968
1169.036, 249.004
1170.263, 270.303
1171.490, 233.985
1172.717, 271.623
1173.943, 206.112
1175.170, 199.377
1176.396, 156.935
1177.622, 190.858
1178.848, 142.311
1180.073, 83.564
1181.299, 183.600
1182.524, 127.990
1183.749, 146.064
1184.974, 109.385
1186.199, 120.372
1187.423, 94.818
1188.648, 109.951
1189.872, 70.074
1191.096, 105.132
1192.320, 165.129
1193.543, 96.213
1194.767, 151.272
1195.990, 78.119
1197.213, 49.218
1198.436, 55.050
1199.659, 109.874
1200.881, 61.757
1202.104, 61.589
1203.326, 53.430
1204.548, 53.331
1205.770, 4.129
1206.991, 67.896
1208.213, 69.653
1209.434, 52.401
1210.655, 22.860
1211.876, 48.862
1213.096, 56.573
1214.317, 27.274
1215.537, 48.964
1216.757, 10.644
1217.977, 79.312
1219.197, 2.970
1220.417, 59.616
1221.636, 25.750
1222.855, 26.135
1224.074, 38.458
1225.293, 109.961
1226.512, 23.663
1227.731, 34.167
1228.949, 57.660
1230.167, 41.858
1231.385, 2.407
1232.603, 49.038
1233.820, 28.529
1235.038, 80.880
1236.255, 109.280
1237.472, 126.668
1238.689, 0.954
1239.906, 46.592
1241.122, 49.274
1242.338, 12.992
1243.555, 43.189
1244.771, 12.502
1245.986, 40.272
1247.202, 17.067
1248.417, 14.122
1249.633, 24.302
1250.848, 28.244
1252.063, 26.331
1253.277, 26.825
1254.492, 0.968
1255.706, 15.100
1256.920, 5.218
1258.134, 18.677
1259.348, 39.129
1260.562, 53.389
1261.775, 65.382
1262.988, 80.470
1264.201, 42.333
1265.414, 52.291
1266.627, 63.218
1267.839, 39.675
1269.052, 35.007
1270.264, 33.881
1271.476, 2.726
1272.688, 34.496
1273.899, 2.649
1275.111, 12.107
1276.322, 41.152
1277.533, 70.442
1278.744, 13.797
1279.955, 40.229
1281.165, 27.693
1282.376, 27.807
1283.586, 30.287
1284.796, 61.748
1286.006, 59.603
1287.215, 51.520
1288.425, 31.875
1289.634, 35.211
1290.843, 4.527
1292.052, 28.179
1293.261, 12.916
1294.469, 2.322
1295.678, 23.537
1296.886, 108.731
1298.094, 49.907
1299.302, 62.143
1300.509, 30.798
1301.717, 44.306
1302.924, 16.391
1304.131, 93.455
1305.338, 19.502
1306.545, 44.512
1307.752, 48.497
1308.958, 40.458
1310.164, 105.392
1311.370, 28.305
1312.576, 25.197
1313.782, 106.066
1314.987, 42.917
1316.193, 53.255
1317.398, 20.466
1318.603, 81.711
1319.807, 47.995
1321.012, 16.678
1322.216, 131.338
1323.421, 1.022
1324.625, 46.589
1325.829, 97.180
1327.032, 28.750
1328.236, 87.296
1329.439, 30.178
1330.642, 40.687
1331.845, 23.768
1333.048, 72.201
1334.251, 72.616
1335.453, 87.011
1336.656, 99.390
1337.858, 76.752
1339.060, 80.824
1340.261, 159.424
1341.463, 67.735
1342.664, 132.999
1343.866, 150.268
1345.067, 113.530
1346.267, 123.776
1347.468, 120.008
1348.669, 99.192
1349.869, 142.357
1351.069, 193.297
1352.269, 149.470
1353.469, 196.629
1354.668, 217.720
1355.868, 175.968
1357.067, 141.013
1358.266, 151.113
1359.465, 230.038
1360.664, 175.112
1361.862, 265.942
1363.061, 136.028
1364.259, 202.812
1365.457, 156.812
1366.655, 243.695
1367.852, 148.532
1369.050, 193.419
1370.247, 98.037
1371.444, 152.908
1372.641, 147.760
1373.838, 144.157
1375.035, 203.476
1376.231, 193.713
1377.427, 184.641
1378.623, 251.173
1379.819, 167.270
1381.015, 176.072
1382.211, 160.688
1383.406, 197.735
1384.601, 186.046
1385.796, 182.529
1386.991, 249.638
1388.185, 150.125
1389.380, 122.543
1390.574, 195.915
1391.768, 174.007
1392.962, 241.125
1394.156, 199.518
1395.350, 109.106
1396.543, 227.415
1397.736, 142.713
1398.929, 296.803
1400.122, 192.541
1401.315, 203.710
1402.507, 167.469
1403.700, 135.358
1404.892, 270.075
1406.084, 140.795
1407.276, 193.562
1408.467, 253.060
1409.659, 105.967
1410.850, 239.693
1412.041, 253.260
1413.232, 254.723
1414.423, 227.435
1415.614, 226.826
1416.804, 217.974
1417.994, 208.729
1419.184, 190.861
1420.374, 224.907
1421.564, 181.737
1422.753, 177.637
1423.943, 188.787
1425.132, 88.063
1426.321, 144.772
1427.510, 198.155
1428.698, 89.456
1429.887, 96.416
1431.075, 182.869
1432.263, 141.371
1433.451, 203.042
1434.639, 195.578
1435.827, 157.367
1437.014, 84.110
1438.201, 199.712
1439.388, 297.484
1440.575, 107.214
1441.762, 228.913
1442.949, 215.568
1444.135, 172.181
1445.321, 155.749
1446.507, 192.279
1447.693, 73.791
1448.879, 143.155
1450.064, 160.670
1451.250, 217.161
1452.435, 83.603
1453.620, 276.999
1454.805, 161.351
1455.989, 176.760
1457.174, 274.173
1458.358, 100.519
1459.542, 157.793
1460.726, 169.896
1461.910, 165.996
1463.093, 278.015
1464.277, 132.066
1465.460, 113.274
1466.643, 235.444
1467.826, 111.591
1469.009, 207.781
1470.191, 90.951
1471.373, 88.144
1472.556, 223.445
1473.738, 168.780
1474.919, 95.456
1476.101, 201.172
1477.283, 120.023
1478.464, 159.034
1479.645, 124.065
1480.826, 157.111
1482.007, 98.168
1483.187, 233.239
1484.368, 108.324
1485.548, 201.433
1486.728, 133.570
1487.908, 209.746
1489.088, 131.960
1490.268, 136.010
1491.447, 134.540
1492.626, 133.921
1493.805, 178.388
1494.984, 237.959
1496.163, 124.636
1497.341, 56.435
1498.520, 165.365
1499.698, 31.437
1500.876, 105.641
1502.054, 25.964
1503.232, 96.411
1504.409, 42.997
1505.586, 44.743
1506.763, 59.672
1507.940, 55.810
1509.117, 67.183
1510.294, 101.824
1511.470, 109.763
1512.647, 48.583
1513.823, 138.268
1514.999, 152.996
1516.174, 150.154
1517.350, 8.983
1518.526, 108.501
1519.701, 109.381
1520.876, 96.566
1522.051, 151.925
1523.226, 87.698
1524.400, 0.000
##END=



