##NAMES=Trilithionite
##RRUFFID=R040105
##IDEAL CHEMISTRY=KLi_1.5_Al_1.5_(Si_3_Al)O_10_F_2_
##LOCALITY=Brown Derby mine, Ohio City, Gunnison County, Colorado, USA
##OWNER=RRUFF
##SOURCE=University of Arizona Mineral Museum
##DESCRIPTION=Purple hexagonal tablet
##STATUS=The identification of this mineral has been confirmed by X-ray diffraction and chemical analysis
##URL=rruff.info/R040105
##MEASURED CHEMISTRY=(K_0.82_Li_0.14_Na_0.04_)(Li_0.53_Al_0.42_Mn_0.05_)_3_(Si_0.84_Al_0.17_)_4_O_10_((OH)_0.59_F_0.41_)_2_
##PIN_ID=L01837
##ORIENTATION=Laser parallel to -b* (0 -1 0). Fiducial mark perpendicular to laser is parallel to c [0 0 1]
139.0430, 0.0000000E+00
140.2710, 25.65234
141.5000, 3.457031
142.7280, 0.2519530
143.9560, 3.855469
145.1840, 12.36719
146.4120, 31.50977
147.6390, 45.04102
148.8670, 71.70508
150.0940, 82.62109
151.3210, 96.51758
152.5490, 79.15820
153.7750, 105.0430
155.0020, 124.0410
156.2290, 100.7949
157.4550, 190.9238
158.6810, 54.61523
159.9080, 190.0312
161.1340, 157.0898
162.3590, 172.7363
163.5850, 38.91016
164.8110, 324.5703
166.0360, 243.7051
167.2610, 368.3242
168.4860, 289.3984
169.7110, 685.8984
170.9360, 502.7852
172.1610, 459.0254
173.3850, 824.5898
174.6100, 800.4512
175.8340, 1028.588
177.0580, 1136.977
178.2820, 1181.588
179.5050, 1296.402
180.7290, 1436.404
181.9520, 1400.584
183.1760, 1468.926
184.3990, 1487.424
185.6220, 1438.068
186.8450, 1562.854
188.0670, 1213.773
189.2900, 1170.820
190.5120, 949.0098
191.7340, 941.6484
192.9560, 1029.668
194.1780, 634.0898
195.4000, 860.6641
196.6220, 586.2949
197.8430, 699.2129
199.0640, 649.2188
200.2860, 650.2637
201.5070, 634.3535
202.7270, 583.4941
203.9480, 841.6875
205.1690, 739.9297
206.3890, 602.2207
207.6090, 479.5625
208.8290, 198.9512
210.0490, 122.3867
211.2690, 127.2031
212.4890, 223.3867
213.7080, 312.8535
214.9280, 332.2969
216.1470, 545.7305
217.3660, 347.1621
218.5850, 545.5996
219.8030, 204.0527
221.0220, 298.5215
222.2400, 176.0117
223.4590, 328.5273
224.6770, 457.0703
225.8950, 900.6445
227.1120, 472.2520
228.3300, 501.8906
229.5480, 816.5664
230.7650, 697.2754
231.9820, 822.0254
233.1990, 545.8086
234.4160, 854.6289
235.6330, 772.4922
236.8490, 1047.391
238.0660, 1130.330
239.2820, 1168.307
240.4980, 1080.322
241.7140, 1420.738
242.9300, 1465.902
244.1460, 1370.281
245.3610, 1673.391
246.5770, 1767.117
247.7920, 1801.924
249.0070, 1941.438
250.2220, 2094.008
251.4370, 1977.945
252.6510, 2187.236
253.8660, 2421.383
255.0800, 2211.451
256.2940, 2550.699
257.5080, 2646.898
258.7220, 2791.191
259.9360, 3167.527
261.1490, 3259.902
262.3630, 3185.447
263.5760, 3254.066
264.7890, 2908.744
266.0020, 2948.475
267.2150, 3014.234
268.4270, 2588.020
269.6400, 2759.834
270.8520, 2615.678
272.0640, 2217.553
273.2760, 2020.451
274.4880, 1757.379
275.7000, 1616.334
276.9120, 1667.318
278.1230, 1687.326
279.3340, 1398.365
280.5450, 1240.434
281.7560, 1199.525
282.9670, 1069.646
284.1780, 976.7969
285.3880, 842.7363
286.5980, 784.3906
287.8090, 636.1016
289.0190, 769.3066
290.2290, 580.6836
291.4380, 586.2168
292.6480, 866.8867
293.8570, 771.6816
295.0670, 676.5938
296.2760, 629.6113
297.4850, 626.4238
298.6930, 753.9316
299.9020, 689.2227
301.1110, 681.5957
302.3190, 732.0449
303.5270, 664.5645
304.7350, 705.1543
305.9430, 639.8066
307.1510, 550.5234
308.3580, 646.2969
309.5660, 383.1289
310.7730, 324.0156
311.9800, 477.9551
313.1870, 403.9453
314.3940, 337.9824
315.6010, 336.0684
316.8070, 576.1973
318.0130, 353.3691
319.2200, 358.5840
320.4260, 388.8379
321.6310, 217.1348
322.8370, 405.4668
324.0430, 80.83594
325.2480, 258.2441
326.4540, 69.68555
327.6590, 313.1641
328.8640, 171.6758
330.0680, 180.2227
331.2730, 119.8008
332.4780, 174.4102
333.6820, 224.0547
334.8860, 216.7305
336.0900, 326.4355
337.2940, 111.1719
338.4980, 17.93359
339.7010, 38.72266
340.9050, 13.27539
342.1080, 25.08594
343.3110, 81.23242
344.5140, 28.88672
345.7170, 146.9902
346.9200, 58.09766
348.1220, 102.8066
349.3240, 56.73438
350.5270, 53.31641
351.7290, 67.35547
352.9310, 167.3516
354.1320, 15.61133
355.3340, 66.40234
356.5350, 30.68359
357.7370, 91.30078
358.9380, 70.71875
360.1390, 27.23828
361.3400, 119.8184
362.5400, 66.86914
363.7410, 1.972656
364.9410, 74.65625
366.1410, 153.8008
367.3410, 303.7969
368.5410, 138.0156
369.7410, 252.5664
370.9400, 158.7695
372.1400, 59.94922
373.3390, 283.2852
374.5380, 240.5391
375.7370, 224.8164
376.9360, 203.4844
378.1350, 233.8047
379.3330, 405.1445
380.5310, 405.5078
381.7300, 436.8906
382.9280, 516.1680
384.1260, 442.2930
385.3230, 551.7344
386.5210, 518.9336
387.7180, 454.3633
388.9160, 412.4492
390.1130, 694.8906
391.3100, 636.2891
392.5060, 779.6914
393.7030, 836.0898
394.9000, 758.5000
396.0960, 815.9297
397.2920, 749.3828
398.4880, 961.8555
399.6840, 1136.309
400.8800, 1166.762
402.0750, 1144.238
403.2710, 1347.738
404.4660, 1135.254
405.6610, 1092.793
406.8560, 1244.352
408.0510, 1188.926
409.2450, 1136.605
410.4400, 1141.148
411.6340, 939.7812
412.8280, 968.4336
414.0220, 844.1133
415.2160, 1008.809
416.4100, 927.5234
417.6030, 891.2578
418.7970, 568.0156
419.9900, 844.7891
421.1830, 590.5859
422.3760, 557.3984
423.5690, 532.2383
424.7610, 631.0898
425.9540, 543.9688
427.1460, 649.8633
428.3380, 414.7773
429.5300, 534.7266
430.7220, 552.7031
431.9140, 295.7109
433.1050, 692.7500
434.2970, 429.8203
435.4880, 587.9141
436.6790, 687.0391
437.8700, 640.1914
439.0610, 743.3672
440.2510, 555.5742
441.4420, 538.8047
442.6320, 622.0625
443.8220, 730.3477
445.0120, 770.6523
446.2020, 829.9883
447.3910, 569.3477
448.5810, 599.7305
449.7700, 571.1367
450.9600, 910.5703
452.1490, 721.0234
453.3370, 831.5039
454.5260, 592.0078
455.7150, 568.5352
456.9030, 546.0898
458.0910, 675.6641
459.2800, 558.2617
460.4670, 624.8828
461.6550, 688.5273
462.8430, 591.1914
464.0300, 654.8828
465.2180, 645.5938
466.4050, 640.3320
467.5920, 529.0898
468.7790, 605.8750
469.9650, 494.6758
471.1520, 634.5000
472.3380, 577.3516
473.5250, 679.2227
474.7110, 629.1172
475.8970, 726.0312
477.0820, 579.9727
478.2680, 638.9375
479.4540, 635.9180
480.6390, 630.8945
481.8240, 817.9570
483.0090, 726.0078
484.1940, 488.0820
485.3780, 577.2148
486.5630, 364.3359
487.7470, 318.3281
488.9320, 449.7031
490.1160, 326.4375
491.3000, 484.6445
492.4830, 268.8750
493.6670, 392.8477
494.8500, 28.99219
496.0340, 118.3203
497.2170, 266.6406
498.4000, 48.96094
499.5820, 384.3750
500.7650, 125.4883
501.9480, 145.8750
503.1300, 171.9922
504.3120, 49.58203
505.4940, 82.83984
506.6760, 155.9062
507.8580, 195.4844
509.0390, 47.09766
510.2210, 439.3164
511.4020, 0.6640630
512.5830, 170.1211
513.7640, 75.40625
514.9450, 227.7734
516.1250, 120.2617
517.3060, 96.23047
518.4860, 0.7382810
519.6660, 46.76562
520.8460, 186.2969
522.0260, 13.85938
523.2060, 235.4414
524.3850, 191.9453
525.5650, 105.3945
526.7440, 358.1211
527.9230, 32.33203
529.1020, 102.2188
530.2810, 71.20703
531.4590, 186.3555
532.6380, 235.9414
533.8160, 320.5469
534.9940, 251.1797
536.1720, 246.8398
537.3500, 337.5195
538.5270, 486.2227
539.7050, 312.9492
540.8820, 324.7031
542.0590, 576.4766
543.2360, 368.2969
544.4130, 489.1719
545.5900, 594.0703
546.7660, 569.0117
547.9430, 598.9844
549.1190, 560.0078
550.2950, 640.9375
551.4710, 673.3672
552.6470, 832.2500
553.8220, 787.4023
554.9980, 938.5820
556.1730, 977.8477
557.3480, 1080.133
558.5230, 861.5078
559.6980, 1538.906
560.8730, 1692.328
562.0470, 1005.773
563.2220, 1495.246
564.3960, 1274.766
565.5700, 1310.312
566.7440, 1352.883
567.9170, 1321.473
569.0910, 1242.086
570.2640, 1252.734
571.4380, 1180.406
572.6110, 934.1016
573.7840, 979.8164
574.9570, 1026.559
576.1290, 966.3672
577.3020, 646.1992
578.4740, 857.0625
579.6460, 671.9531
580.8180, 696.8555
581.9900, 652.1289
583.1620, 480.7539
584.3330, 410.7422
585.5040, 434.7500
586.6760, 153.7930
587.8470, 200.8594
589.0180, 280.9414
590.1880, 451.0469
591.3590, 344.1719
592.5290, 94.31641
593.7000, 390.5195
594.8700, 221.7383
596.0400, 140.9766
597.2090, 324.2383
598.3790, 136.5156
599.5490, 322.8086
600.7180, 183.1289
601.8870, 128.4727
603.0560, 422.8242
604.2250, 363.2031
605.3940, 388.6016
606.5620, 251.0156
607.7300, 136.4531
608.8990, 368.9492
610.0670, 521.4648
611.2350, 463.0234
612.4020, 346.5977
613.5700, 370.2344
614.7370, 219.9062
615.9050, 443.5898
617.0720, 451.2930
618.2390, 402.0156
619.4060, 331.7500
620.5720, 274.5078
621.7390, 103.2773
622.9050, 422.0703
624.0710, 571.8711
625.2370, 28.69141
626.4030, 413.5352
627.5690, 233.3906
628.7340, 212.2695
629.9000, 364.1914
631.0650, 184.1406
632.2300, 83.10547
633.3950, 18.08594
634.5600, 24.13672
635.7240, 129.0898
636.8890, 28.16406
638.0530, 92.25391
639.2170, 211.2891
640.3810, 142.4297
641.5450, 201.6016
642.7080, 255.7891
643.8720, 277.9922
645.0350, 288.3008
646.1980, 322.4727
647.3610, 203.1680
648.5240, 227.4297
649.6870, 47.88281
650.8490, 173.1797
652.0120, 266.1250
653.1740, 436.4805
654.3360, 517.7969
655.4980, 122.1953
656.6600, 311.9609
657.8210, 254.3867
658.9830, 284.4531
660.1440, 340.9062
661.3050, 336.2578
662.4660, 149.7422
663.6270, 597.5430
664.7870, 325.9062
665.9480, 369.9922
667.1080, 560.5273
668.2680, 332.3359
669.4280, 397.9062
670.5880, 626.8398
671.7480, 536.4336
672.9070, 620.0469
674.0670, 761.6641
675.2260, 696.8359
676.3850, 609.4844
677.5440, 641.1445
678.7030, 659.8125
679.8610, 742.9766
681.0200, 1206.184
682.1780, 986.3164
683.3360, 1434.465
684.4940, 1556.328
685.6520, 1438.867
686.8090, 1608.414
687.9670, 2020.359
689.1240, 1981.398
690.2810, 2386.785
691.4380, 2760.730
692.5950, 3092.520
693.7520, 3156.316
694.9080, 3569.227
696.0650, 4060.215
697.2210, 4592.992
698.3770, 5293.820
699.5330, 5865.672
700.6880, 6443.695
701.8440, 7475.512
702.9990, 8121.789
704.1550, 9085.250
705.3100, 10283.10
706.4650, 11326.06
707.6190, 11967.96
708.7740, 12602.85
709.9290, 12841.16
711.0830, 12731.70
712.2370, 12601.46
713.3910, 11701.95
714.5450, 10784.95
715.6980, 9520.832
716.8520, 8436.961
718.0050, 6889.836
719.1580, 6327.715
720.3110, 5080.594
721.4640, 4352.547
722.6170, 4019.422
723.7700, 3235.301
724.9220, 2974.535
726.0740, 2534.410
727.2260, 1913.285
728.3780, 2301.160
729.5300, 1763.379
730.6810, 1467.254
731.8330, 1748.219
732.9840, 1536.082
734.1350, 1370.949
735.2860, 1428.812
736.4370, 909.7773
737.5880, 838.6328
738.7380, 1033.402
739.8880, 749.2539
741.0390, 1171.102
742.1890, 1137.668
743.3380, 999.5039
744.4880, 700.3438
745.6380, 1045.176
746.7870, 999.2266
747.9360, 794.0508
749.0850, 801.2188
750.2340, 897.0312
751.3830, 783.6758
752.5310, 913.6719
753.6800, 852.4727
754.8280, 843.6055
755.9760, 1033.398
757.1240, 908.1797
758.2720, 980.0938
759.4190, 603.7188
760.5670, 878.4805
761.7140, 828.2344
762.8610, 525.9766
764.0080, 548.7188
765.1550, 369.4453
766.3020, 654.1680
767.4480, 716.8789
768.5950, 685.4258
769.7410, 415.4297
770.8870, 666.1172
772.0330, 484.9531
773.1780, 412.8086
774.3240, 520.4688
775.4690, 434.1172
776.6140, 285.4102
777.7590, 460.0547
778.9040, 373.6914
780.0490, 305.3125
781.1940, 322.9258
782.3380, 467.7227
783.4820, 464.3281
784.6260, 486.9219
785.7700, 432.8008
786.9140, 571.4297
788.0580, 578.7422
789.2010, 313.3438
790.3450, 302.9375
791.4880, 491.5195
792.6310, 369.1094
793.7730, 50.68359
794.9160, 248.2500
796.0590, 340.8203
797.2010, 362.3789
798.3430, 0.9218750
799.4850, 300.4414
800.6270, 12.94922
801.7690, 268.4297
802.9100, 205.9414
804.0520, 227.4648
805.1930, 155.9766
806.3340, 170.2422
807.4750, 182.7383
808.6160, 468.2305
809.7560, 275.7109
810.8970, 317.1758
812.0370, 49.63281
813.1770, 185.0625
814.3170, 145.4844
815.4570, 363.8906
816.5960, 235.2852
817.7360, 128.6602
818.8750, 48.97266
820.0140, 64.67578
821.1530, 85.55469
822.2920, 54.23438
823.4310, 39.91406
824.5690, 43.96484
825.7070, 74.10156
826.8460, 50.14453
827.9840, 106.8281
829.1220, 190.1016
830.2590, 190.0195
831.3970, 201.0781
832.5340, 85.67969
833.6710, 198.5859
834.8080, 229.0117
835.9450, 107.5898
837.0820, 84.15234
838.2190, 8.703125
839.3550, 46.78906
840.4910, 50.66406
841.6270, 288.0898
842.7630, 93.49609
843.8990, 105.8945
845.0350, 8.730469
846.1700, 316.6094
847.3060, 110.9258
848.4410, 238.2305
849.5760, 15.51562
850.7100, 122.2227
851.8450, 213.9297
852.9800, 12.93359
854.1140, 119.1602
855.2480, 554.2344
856.3820, 455.3008
857.5160, 26.65625
858.6500, 347.3398
859.7830, 151.3164
860.9170, 15.72266
862.0500, 401.1953
863.1830, 185.0938
864.3160, 264.9805
865.4480, 62.84766
866.5810, 138.7031
867.7130, 92.46094
868.8460, 302.2930
869.9780, 110.0273
871.1100, 416.7539
872.2410, 86.46094
873.3730, 205.1562
874.5050, 29.82812
875.6360, 343.4844
876.7670, 226.1211
877.8980, 36.74609
879.0290, 184.3438
880.1590, 221.9375
881.2900, 129.5117
882.4200, 145.9297
883.5500, 139.5195
884.6800, 53.04688
885.8100, 219.3281
886.9400, 125.3164
888.0690, 18.70312
889.1990, 123.5156
890.3280, 51.71484
891.4570, 334.8945
892.5860, 264.9492
893.7140, 139.2266
894.8430, 272.3672
895.9710, 252.5078
897.1000, 312.7773
898.2280, 233.8828
899.3560, 214.0117
900.4830, 207.2852
901.6110, 104.1094
902.7380, 154.1562
903.8660, 107.1953
904.9930, 59.21875
906.1200, 299.2305
907.2460, 55.22656
908.3730, 310.2109
909.5000, 195.1797
910.6260, 441.1445
911.7520, 18.09766
912.8780, 281.0234
914.0040, 284.9453
915.1290, 98.85156
916.2550, 295.7500
917.3800, 42.62891
918.5050, 239.4961
919.6300, 108.3555
920.7550, 32.19922
921.8800, 67.03516
923.0040, 6.855469
924.1290, 162.6562
925.2530, 172.8672
926.3770, 121.3477
927.5010, 287.1172
928.6250, 437.8750
929.7480, 458.2773
930.8720, 208.0117
931.9950, 147.7383
933.1180, 120.4531
934.2410, 250.2734
935.3640, 574.9609
936.4860, 491.3320
937.6090, 425.0078
938.7310, 184.6719
939.8530, 52.32031
940.9750, 36.03516
942.0970, 257.5703
943.2180, 309.1680
944.3400, 314.7539
945.4610, 368.3242
946.5820, 325.9844
947.7030, 482.9180
948.8240, 277.4727
949.9450, 189.0156
951.0650, 255.5508
952.1860, 353.0742
953.3060, 280.5820
954.4260, 309.1445
955.5460, 316.8047
956.6650, 232.0820
957.7850, 290.7617
958.9040, 225.4375
960.0230, 127.7148
961.1420, 552.9062
962.2610, 16.74609
963.3800, 338.0312
964.4990, 18.47266
965.6170, 363.9102
966.7350, 40.23828
967.8530, 243.4922
968.9710, 358.9531
970.0890, 547.3750
971.2070, 266.7695
972.3240, 361.9922
973.4410, 484.4297
974.5580, 201.4023
975.6750, 492.1953
976.7920, 257.6055
977.9090, 401.8984
979.0250, 219.2617
980.1410, 201.6289
981.2580, 174.0312
982.3740, 128.4688
983.4890, 678.8125
984.6050, 99.58984
985.7200, 444.8555
986.8360, 395.2539
987.9510, 256.3945
989.0660, 255.7930
990.1810, 263.1914
991.2950, 213.5938
992.4100, 264.9219
993.5240, 453.3594
994.6390, 238.8477
995.7530, 364.0000
996.8660, 367.5469
997.9800, 219.0938
999.0940, 370.6641
1000.207, 76.89062
1001.320, 305.4648
1002.433, 563.9531
1003.546, 433.5391
1004.659, 448.1250
1005.772, 576.7148
1006.884, 195.2070
1007.996, 405.8086
1009.108, 462.5000
1010.220, 306.1055
1011.332, 542.7227
1012.444, 300.6250
1013.555, 329.2461
1014.666, 497.8750
1015.777, 385.5352
1016.888, 390.9844
1017.999, 99.65625
1019.110, 186.9883
1020.220, 374.6797
1021.331, 72.46484
1022.441, 357.0352
1023.551, 71.73438
1024.661, 524.1016
1025.770, 324.8164
1026.880, 231.5352
1027.989, 401.2656
1029.098, 2.000000
1030.207, 17.25000
1031.316, 158.5195
1032.425, 122.3516
1033.533, 175.5195
1034.642, 34.04688
1035.750, 234.9102
1036.858, 255.7852
1037.966, 308.6680
1039.073, 139.4062
1040.181, 76.30469
1041.288, 513.0469
1042.396, 143.9688
1043.503, 402.8984
1044.610, 447.8359
1045.716, 304.1367
1046.823, 397.9336
1047.929, 268.0664
1049.036, 332.0469
1050.142, 365.6797
1051.248, 72.85547
1052.353, 483.8711
1053.459, 475.8984
1054.564, 562.6758
1055.670, 270.7031
1056.775, 533.6055
1057.880, 14.32422
1058.985, 210.7578
1060.089, 502.2539
1061.194, 6.359375
1062.298, 301.4727
1063.402, 438.6055
1064.506, 618.7500
1065.610, 722.9062
1066.713, 652.0703
1067.817, 584.2617
1068.920, 435.4688
1070.023, 463.9297
1071.126, 518.9258
1072.229, 503.1719
1073.332, 417.4375
1074.435, 459.9492
1075.537, 645.2344
1076.639, 879.5430
1077.741, 694.8594
1078.843, 836.9766
1079.945, 826.3242
1081.046, 800.6875
1082.148, 873.0625
1083.249, 1083.457
1084.350, 1113.859
1085.451, 733.2852
1086.551, 1156.719
1087.652, 752.1914
1088.752, 804.7109
1089.853, 1057.242
1090.953, 863.8203
1092.053, 844.4062
1093.152, 799.0391
1094.252, 863.6836
1095.351, 733.3438
1096.451, 641.0625
1097.550, 1009.797
1098.649, 856.5430
1099.748, 908.3711
1100.846, 1108.211
1101.945, 883.1328
1103.043, 599.0664
1104.141, 719.0234
1105.239, 871.9883
1106.337, 768.9766
1107.434, 883.0117
1108.532, 826.0586
1109.629, 870.1250
1110.726, 677.2031
1111.823, 626.2969
1112.920, 790.4219
1114.017, 512.5586
1115.113, 702.7109
1116.210, 804.8828
1117.306, 800.0781
1118.402, 660.3281
1119.498, 871.5898
1120.593, 896.8828
1121.689, 1131.195
1122.784, 818.5234
1123.879, 675.8633
1124.974, 634.7109
1126.069, 818.2500
1127.164, 696.0820
1128.259, 500.9492
1129.353, 888.4102
1130.447, 597.6914
1131.541, 696.1758
1132.635, 651.6836
1133.729, 437.1992
1134.822, 712.7656
1135.916, 517.3477
1137.009, 470.9531
1138.102, 681.5664
1139.195, 262.1992
1140.288, 571.8477
1141.380, 303.5117
1142.473, 646.1914
1143.565, 492.8828
1144.657, 256.5898
1145.749, 475.3164
1146.841, 188.0508
1147.932, 223.8047
1149.024, 496.6172
1150.115, 329.4414
1151.206, 411.3125
1152.297, 281.1914
1153.388, 287.7773
1154.479, 312.7422
1155.569, 169.7266
1156.659, 157.7266
1157.750, 38.73828
1158.839, 41.39844
1159.929, 316.8008
1161.019, 156.8438
1162.108, 39.90625
1163.198, 309.7227
1164.287, 38.82031
1165.376, 347.9336
1166.465, 307.0586
1167.553, 143.1914
1168.642, 277.3438
1169.730, 184.5039
1170.818, 212.6836
1171.906, 262.8750
1172.994, 114.0781
1174.082, 62.29688
1175.170, 475.5234
1176.257, 314.7695
1177.344, 446.0547
1178.431, 63.32812
1179.518, 316.6133
1180.605, 219.9141
1181.691, 89.22656
1182.778, 45.55078
1183.864, 378.8945
1184.950, 283.2539
1186.036, 360.6250
1187.122, 21.98828
1188.207, 495.4141
1189.292, 517.7109
1190.378, 16.85156
1191.463, 383.5938
1192.548, 534.0586
1193.632, 623.5391
1194.717, 416.0352
1195.801, 297.5430
1196.886, 82.06250
1197.970, 187.5977
1199.054, 569.1523
1200.137, 18.71875
1201.221, 471.2969
1202.305, 370.8984
1203.388, 201.5117
1204.471, 287.1406
1205.554, 335.7969
1206.637, 219.4727
1207.719, 468.1562
1208.802, 24.14062
1209.884, 335.5781
1210.966, 172.3086
1212.048, 329.0547
1213.130, 114.8203
1214.212, 203.5977
1215.293, 471.3906
1216.374, 205.1992
1217.456, 290.0234
1218.536, 691.7461
1219.617, 552.4062
1220.698, 86.05078
1221.778, 243.7031
1222.859, 407.3672
1223.939, 489.0547
1225.019, 401.7461
1226.099, 154.4492
1227.178, 506.1641
1228.258, 260.8906
1229.337, 579.5859
1230.417, 245.2852
1231.496, 578.0000
1232.574, 332.7227
1233.653, 333.4570
1234.732, 680.1992
1235.810, 62.95703
1236.888, 294.5898
1237.966, 243.2383
1239.044, 258.8867
1240.122, 294.5508
1241.199, 379.2188
1242.277, 296.8945
1243.354, 253.5781
1244.431, 313.2695
1245.508, 245.9648
1246.585, 478.6641
1247.661, 624.3750
1248.738, 178.0938
1249.814, 312.8164
1250.890, 93.54688
1251.966, 328.2812
1253.042, 65.02344
1254.117, 161.2305
1255.193, 155.5195
1256.268, 79.84766
1257.343, 143.1875
1258.418, 33.19922
1259.493, 83.17188
1260.567, 198.4414
1261.642, 54.05469
1262.716, 367.6641
1263.790, 150.2812
1264.864, 371.8984
1265.938, 152.3594
1267.011, 196.9922
1268.085, 531.6289
1269.158, 379.2656
1270.231, 172.9141
1271.304, 201.5664
1272.377, 121.2188
1273.450, 50.88672
1274.522, 198.5547
1275.594, 110.7656
1276.666, 196.8945
1277.738, 58.56250
1278.810, 169.2422
1279.882, 167.9336
1280.953, 243.6289
1282.025, 207.4141
1283.096, 254.1406
1284.167, 251.3789
1285.238, 110.0625
1286.308, 551.7500
1287.379, 202.4492
1288.449, 188.1094
1289.519, 317.7812
1290.589, 59.54297
1291.659, 195.8828
1292.729, 340.7383
1293.798, 139.3633
1294.868, 372.9961
1295.937, 257.6367
1297.006, 201.2578
1298.075, 83.88281
1299.143, 207.5195
1300.212, 382.1680
1301.280, 166.7578
1302.348, 261.3555
1303.416, 240.9531
1304.484, 208.5625
1305.552, 23.17188
1306.620, 226.8047
1307.687, 324.0352
