##NAMES=Trilithionite
##RRUFFID=R040101
##IDEAL CHEMISTRY=KLi_1.5_Al_1.5_(Si_3_Al)O_10_F_2_
##LOCALITY=Zambezi Region, Mozambique
##OWNER=RRUFF
##SOURCE=University of Arizona Mineral Museum
##DESCRIPTION=Aggregate of purple hexagonal plates, polytype is 2M1
##STATUS=The identification of this mineral has been confirmed by X-ray diffraction and chemical analysis
##URL=rruff.info/R040101
##MEASURED CHEMISTRY=(K_0.84_Li_0.13_Na_0.02_)(Li_0.54_Al_0.44_Mn_0.02_)_3_(Si_0.82_Al_0.18_)_4_O_10_F_2.00_
##PIN_ID=M00449
##ORIENTATION=Laser parallel to -a* (-1 0 0). Fiducial mark perpendicular to laser is parallel to b [0 1 0]
117.729, 0.000
119.119, 10.003
120.508, 202.895
121.897, 0.997
123.286, 175.188
124.675, 155.551
126.063, 135.377
127.452, 229.955
128.840, 148.731
130.228, 159.306
131.615, 98.185
133.003, 264.135
134.390, 215.781
135.777, 184.575
137.164, 146.208
138.550, 112.653
139.937, 122.970
141.323, 117.019
142.709, 60.461
144.094, 118.264
145.480, 50.602
146.865, 49.939
148.250, 3.050
149.635, 11.626
151.019, 39.839
152.403, 22.267
153.788, 116.656
155.171, 114.298
156.555, 320.170
157.939, 161.252
159.322, 337.524
160.705, 546.974
162.088, 517.588
163.470, 773.353
164.853, 1012.255
166.235, 1236.282
167.617, 1371.423
168.998, 1594.664
170.380, 1892.001
171.761, 2290.432
173.142, 2538.039
174.523, 3065.740
175.904, 3237.336
177.284, 3393.267
178.664, 3503.170
180.044, 3414.047
181.424, 3523.902
182.803, 3232.743
184.183, 2972.574
185.562, 2818.398
186.940, 2662.999
188.319, 2547.161
189.698, 2515.868
191.076, 2446.699
192.454, 2456.543
193.831, 2524.397
195.209, 2510.266
196.586, 2506.632
197.963, 2479.056
199.340, 2407.980
200.717, 2290.935
202.093, 2123.930
203.470, 1970.937
204.846, 1949.965
206.221, 2009.009
207.597, 1944.271
208.972, 2361.113
210.347, 2017.163
211.722, 2159.214
213.097, 2349.268
214.472, 2041.294
215.846, 1963.285
217.220, 1695.232
218.594, 1421.174
219.967, 1486.143
221.341, 1502.141
222.714, 1112.168
224.087, 873.226
225.460, 972.316
226.832, 994.438
228.204, 1182.903
229.577, 1205.524
230.948, 1268.410
232.320, 1511.532
233.692, 1717.535
235.063, 2021.520
236.434, 2240.955
237.805, 2389.634
239.175, 2795.744
240.545, 3101.892
241.916, 3504.891
243.286, 3894.305
244.655, 4318.569
246.025, 4662.873
247.394, 5170.216
248.763, 5706.598
250.132, 6085.020
251.501, 7151.482
252.869, 8046.984
254.237, 9411.528
255.605, 10816.113
256.973, 12416.735
258.340, 14015.394
259.708, 15005.088
261.075, 15445.814
262.442, 15358.577
263.808, 14776.370
265.175, 13110.205
266.541, 11738.075
267.907, 10179.980
269.273, 8552.925
270.639, 7297.906
272.004, 5899.926
273.369, 5088.983
274.734, 4411.081
276.099, 3629.217
277.463, 3084.395
278.828, 2885.611
280.192, 2419.338
281.556, 1970.165
282.919, 1982.595
284.283, 1773.457
285.646, 1688.158
287.009, 1439.059
288.372, 1236.625
289.734, 1451.094
291.097, 1288.479
292.459, 1218.794
293.821, 1391.062
295.183, 1192.298
296.544, 1354.985
297.905, 1167.949
299.266, 1403.736
300.627, 1244.562
301.988, 1225.347
303.348, 1265.102
304.709, 1269.011
306.069, 1135.000
307.428, 1161.724
308.788, 1062.920
310.147, 943.307
311.507, 928.192
312.865, 810.211
314.224, 809.752
315.583, 697.734
316.941, 611.975
318.299, 703.546
319.657, 479.162
321.015, 567.823
322.372, 413.529
323.729, 279.277
325.086, 397.067
326.443, 337.900
327.800, 170.774
329.156, 365.688
330.512, 20.643
331.868, 50.638
333.224, 92.673
334.579, 147.747
335.935, 85.140
337.290, 29.991
338.645, 177.842
339.999, 138.688
341.354, 205.535
342.708, 145.284
344.062, 98.761
345.416, 123.592
346.769, 2.535
348.123, 132.604
349.476, 77.724
350.829, 7.490
352.182, 29.163
353.534, 175.729
354.887, 262.996
356.239, 394.473
357.591, 413.783
358.942, 429.134
360.294, 513.505
361.645, 706.906
362.996, 674.338
364.347, 910.801
365.698, 1007.294
367.048, 1141.818
368.398, 1261.373
369.748, 1296.961
371.098, 1608.579
372.448, 1717.229
373.797, 1821.913
375.146, 1852.627
376.495, 1815.375
377.844, 2321.155
379.192, 2092.970
380.540, 2470.816
381.889, 2381.697
383.236, 2488.613
384.584, 2883.562
385.932, 2900.547
387.279, 3041.565
388.626, 3290.619
389.973, 3643.706
391.319, 3641.799
392.666, 4173.821
394.012, 4254.766
395.358, 4421.673
396.704, 4866.564
398.049, 5105.455
399.394, 5655.381
400.740, 5539.342
402.084, 5805.338
403.429, 5763.371
404.774, 5720.442
406.118, 5900.549
407.462, 5707.691
408.806, 5421.871
410.150, 5115.088
411.493, 4810.342
412.836, 4615.631
414.179, 4278.957
415.522, 3955.541
416.865, 3596.719
418.207, 3231.152
419.549, 2864.625
420.891, 2473.133
422.233, 2454.678
423.575, 2186.258
424.916, 1752.876
426.257, 1904.528
427.598, 1861.219
428.939, 1731.945
430.279, 1616.707
431.619, 1353.508
432.959, 1275.342
434.299, 1344.215
435.639, 1526.122
436.978, 1165.066
438.318, 1284.046
439.657, 1100.062
440.996, 1249.113
442.334, 1122.202
443.673, 979.325
445.011, 919.480
446.349, 1091.671
447.687, 1074.896
449.024, 901.161
450.361, 963.460
451.699, 745.797
453.036, 730.170
454.372, 814.581
455.709, 843.029
457.045, 735.516
458.381, 670.043
459.717, 624.610
461.053, 659.216
462.388, 721.863
463.724, 738.550
465.059, 1018.278
466.394, 891.047
467.728, 980.854
469.063, 1259.702
470.397, 1271.590
471.731, 1216.538
473.065, 1618.526
474.398, 1503.560
475.732, 1773.641
477.065, 1842.774
478.398, 1592.947
479.731, 1400.158
481.063, 1426.408
482.396, 1126.695
483.728, 931.021
485.060, 965.385
486.391, 657.786
487.723, 503.224
489.054, 567.698
490.385, 529.214
491.716, 332.766
493.047, 100.356
494.377, 156.985
495.708, 182.651
497.038, 83.147
498.368, 115.078
499.697, 35.120
501.027, 65.611
502.356, 79.020
503.685, 88.438
505.014, 82.485
506.342, 148.832
507.671, 186.481
508.999, 126.654
510.327, 158.074
511.655, 207.247
512.982, 225.239
514.310, 5.870
515.637, 140.981
516.964, 35.197
518.291, 7.430
519.617, 145.705
520.944, 147.028
522.270, 106.416
523.596, 230.841
524.921, 107.350
526.247, 247.924
527.572, 219.563
528.897, 383.247
530.222, 529.976
531.547, 486.761
532.871, 813.620
534.196, 582.519
535.520, 552.457
536.844, 836.464
538.167, 979.508
539.491, 1148.643
540.814, 1240.821
542.137, 1403.063
543.460, 1353.347
544.783, 1750.668
546.105, 1661.028
547.427, 2089.426
548.749, 2223.861
550.071, 2404.335
551.393, 2674.848
552.714, 3026.439
554.035, 3185.072
555.356, 3447.744
556.677, 3416.523
557.998, 3562.339
559.318, 3865.195
560.638, 3675.096
561.958, 3589.033
563.278, 3361.011
564.597, 3229.050
565.917, 2939.125
567.236, 2627.245
568.555, 2423.403
569.874, 2153.600
571.192, 1965.836
572.511, 1835.110
573.829, 1528.419
575.147, 1374.853
576.464, 1267.142
577.782, 986.556
579.099, 720.004
580.416, 556.486
581.733, 632.004
583.050, 659.553
584.366, 362.136
585.683, 688.753
586.999, 451.400
588.315, 220.080
589.630, 396.792
590.946, 323.534
592.261, 386.308
593.576, 324.112
594.891, 198.946
596.206, 294.812
597.520, 434.707
598.834, 349.632
600.148, 326.587
601.462, 492.570
602.776, 615.585
604.089, 416.626
605.402, 557.698
606.715, 578.798
608.028, 755.926
609.341, 815.111
610.653, 702.266
611.965, 970.477
613.277, 921.716
614.589, 970.980
615.901, 887.273
617.212, 1002.592
618.523, 1034.938
619.834, 1265.309
621.145, 1265.707
622.456, 1351.131
623.766, 1407.579
625.076, 1614.052
626.386, 1584.551
627.696, 1748.072
629.006, 1523.619
630.315, 1843.188
631.624, 1711.781
632.933, 1650.398
634.242, 1942.040
635.551, 1645.702
636.859, 1687.388
638.167, 1489.095
639.475, 1701.824
640.783, 1338.575
642.090, 1462.347
643.398, 1342.140
644.705, 1289.953
646.012, 1207.787
647.318, 1178.096
648.625, 1241.003
649.931, 1121.897
651.237, 1209.252
652.543, 1121.188
653.849, 1166.299
655.155, 1451.287
656.460, 1245.431
657.765, 1418.903
659.070, 1275.729
660.375, 1421.037
661.679, 1600.505
662.984, 1436.805
664.288, 1561.379
665.592, 1432.621
666.895, 1644.689
668.199, 1656.023
669.502, 1866.793
670.805, 1687.502
672.108, 2125.219
673.411, 2164.424
674.713, 2212.125
676.016, 2712.828
677.318, 2773.242
678.620, 3150.193
679.921, 3309.058
681.223, 3672.639
682.524, 4160.732
683.825, 4352.356
685.126, 5128.201
686.427, 5730.176
687.727, 6574.840
689.028, 7570.000
690.328, 8013.203
691.628, 9113.140
692.927, 10182.937
694.227, 11272.583
695.526, 12661.555
696.825, 14233.532
698.124, 16027.064
699.423, 17937.066
700.721, 20223.014
702.020, 22555.439
703.318, 25065.381
704.616, 27903.469
705.913, 30148.621
707.211, 32919.316
708.508, 35503.203
709.805, 34854.129
711.102, 32647.561
712.399, 30749.344
713.695, 26064.396
714.992, 22718.629
716.288, 18464.941
717.584, 15338.367
718.879, 12422.474
720.175, 10156.758
721.470, 9043.816
722.765, 7488.639
724.060, 6253.609
725.355, 5578.133
726.649, 4673.914
727.944, 4238.071
729.238, 4037.897
730.532, 3304.877
731.825, 3458.535
733.119, 3220.317
734.412, 2777.263
735.705, 2876.201
736.998, 3002.869
738.291, 2864.317
739.584, 3005.215
740.876, 3200.644
742.168, 3146.063
743.460, 3161.544
744.752, 3250.939
746.043, 3391.324
747.334, 3402.826
748.626, 3521.053
749.916, 3437.400
751.207, 3499.733
752.498, 3399.055
753.788, 3434.361
755.078, 2990.654
756.368, 3138.936
757.658, 2951.199
758.947, 2614.451
760.237, 2626.687
761.526, 2166.908
762.815, 2138.112
764.104, 1944.305
765.392, 1845.479
766.680, 1564.639
767.969, 1375.781
769.257, 1541.906
770.544, 1204.016
771.832, 1292.109
773.119, 1184.184
774.406, 1052.242
775.693, 1332.282
776.980, 936.303
778.267, 1284.306
779.553, 1174.291
780.839, 1145.257
782.125, 1204.204
783.411, 1216.132
784.697, 1146.039
785.982, 999.929
787.267, 1041.797
788.552, 961.645
789.837, 823.472
791.122, 816.279
792.406, 660.065
793.690, 541.830
794.974, 532.574
796.258, 391.295
797.542, 490.995
798.825, 336.673
800.108, 405.328
801.391, 36.961
802.674, 118.565
803.957, 218.147
805.239, 43.705
806.522, 135.234
807.804, 114.261
809.085, 147.139
810.367, 113.515
811.649, 116.135
812.930, 39.106
814.211, 16.685
815.492, 181.518
816.772, 28.479
818.053, 93.489
819.333, 164.572
820.613, 159.757
821.893, 9.057
823.173, 37.385
824.452, 49.746
825.732, 111.854
827.011, 101.575
828.290, 10.088
829.568, 33.340
830.847, 12.729
832.125, 43.932
833.403, 112.329
834.681, 116.441
835.959, 60.329
837.236, 52.306
838.514, 37.635
839.791, 33.532
841.068, 19.613
842.345, 90.826
843.621, 82.854
844.898, 129.499
846.174, 67.890
847.450, 205.627
848.726, 148.887
850.001, 22.463
851.277, 41.237
852.552, 46.981
853.827, 145.160
855.102, 76.307
856.376, 149.165
857.651, 115.489
858.925, 108.534
860.199, 61.542
861.473, 98.474
862.746, 49.400
864.020, 82.231
865.293, 207.977
866.566, 131.654
867.839, 104.254
869.112, 33.816
870.384, 84.331
871.656, 119.809
872.928, 40.750
874.200, 130.611
875.472, 16.938
876.744, 151.229
878.015, 77.488
879.286, 59.712
880.557, 113.893
881.828, 183.037
883.098, 145.204
884.369, 221.340
885.639, 190.443
886.909, 150.516
888.178, 150.554
889.448, 214.557
890.717, 337.555
891.987, 156.521
893.256, 285.454
894.524, 267.358
895.793, 251.233
897.061, 350.075
898.330, 331.887
899.598, 448.668
900.865, 479.419
902.133, 438.140
903.401, 452.829
904.668, 485.178
905.935, 648.117
907.202, 586.715
908.468, 739.282
909.735, 852.844
911.001, 811.372
912.267, 772.870
913.533, 804.336
914.799, 830.781
916.064, 736.204
917.330, 893.597
918.595, 701.956
919.860, 671.285
921.124, 739.584
922.389, 659.851
923.653, 601.086
924.918, 713.288
926.182, 765.460
927.445, 703.598
928.709, 674.707
929.972, 612.797
931.236, 587.855
932.499, 628.881
933.761, 760.876
935.024, 658.863
936.286, 669.816
937.549, 786.739
938.811, 477.627
940.073, 756.501
941.334, 686.342
942.596, 547.151
943.857, 838.929
945.118, 824.675
946.379, 646.390
947.640, 757.070
948.900, 982.718
950.161, 947.334
951.421, 895.920
952.681, 1040.476
953.940, 1005.546
955.200, 899.005
956.459, 811.468
957.719, 1025.459
958.978, 954.854
960.236, 929.062
961.495, 1009.401
962.753, 882.577
964.012, 824.447
965.270, 810.008
966.527, 979.006
967.785, 892.588
969.043, 771.707
970.300, 772.680
971.557, 625.123
972.814, 662.805
974.071, 726.885
975.327, 881.127
976.583, 633.531
977.840, 865.238
979.095, 704.279
980.351, 757.002
981.607, 931.699
982.862, 677.678
984.117, 611.131
985.372, 1048.658
986.627, 644.451
987.882, 885.713
989.136, 876.428
990.390, 650.922
991.644, 948.268
992.898, 820.906
994.152, 936.031
995.405, 902.098
996.659, 872.412
997.912, 924.846
999.165, 925.441
1000.417, 868.740
1001.670, 678.463
1002.922, 937.449
1004.174, 609.180
1005.426, 817.939
1006.678, 912.643
1007.930, 775.812
1009.181, 961.014
1010.432, 769.072
1011.683, 1063.164
1012.934, 925.842
1014.185, 1039.928
1015.435, 1012.889
1016.685, 902.158
1017.935, 767.713
1019.185, 807.635
1020.435, 991.523
1021.684, 870.146
1022.934, 961.270
1024.183, 1045.291
1025.432, 816.629
1026.680, 988.775
1027.929, 772.258
1029.177, 802.504
1030.425, 753.740
1031.673, 856.811
1032.921, 790.047
1034.169, 820.486
1035.416, 685.254
1036.663, 830.979
1037.911, 688.949
1039.157, 685.939
1040.404, 724.322
1041.650, 873.842
1042.897, 932.668
1044.143, 959.230
1045.389, 790.312
1046.634, 972.791
1047.880, 931.928
1049.125, 894.443
1050.371, 1040.668
1051.615, 1262.451
1052.860, 978.635
1054.105, 1301.033
1055.349, 1116.316
1056.593, 1227.766
1057.837, 1194.168
1059.081, 1333.588
1060.325, 1228.855
1061.568, 1375.086
1062.812, 1262.152
1064.055, 1350.170
1065.298, 1303.248
1066.540, 1400.449
1067.783, 1339.420
1069.025, 1282.416
1070.267, 1556.648
1071.509, 1382.586
1072.751, 1489.094
1073.993, 1674.232
1075.234, 1572.137
1076.475, 1707.865
1077.716, 1832.896
1078.957, 1684.414
1080.198, 1613.471
1081.438, 1899.777
1082.679, 1820.748
1083.919, 1956.877
1085.159, 1934.623
1086.398, 2011.838
1087.638, 1858.154
1088.877, 1776.920
1090.116, 1887.131
1091.355, 1852.494
1092.594, 1778.459
1093.833, 1805.561
1095.071, 1841.391
1096.309, 1869.418
1097.547, 1944.420
1098.785, 1698.348
1100.023, 1882.928
1101.260, 1905.561
1102.498, 2078.346
1103.735, 1956.371
1104.972, 2034.422
1106.208, 1927.645
1107.445, 2174.123
1108.681, 1978.459
1109.918, 2232.029
1111.154, 1939.758
1112.389, 2348.293
1113.625, 2168.301
1114.860, 2010.428
1116.096, 2064.639
1117.331, 2061.248
1118.566, 2031.322
1119.800, 1985.602
1121.035, 2096.699
1122.269, 1945.123
1123.503, 1937.684
1124.737, 1842.188
1125.971, 1750.275
1127.205, 1615.941
1128.438, 1407.189
1129.671, 1337.629
1130.904, 1218.465
1132.137, 1093.758
1133.370, 1071.297
1134.602, 990.615
1135.834, 831.574
1137.066, 770.062
1138.298, 972.256
1139.530, 558.670
1140.762, 729.352
1141.993, 426.668
1143.224, 458.934
1144.455, 353.607
1145.686, 279.359
1146.917, 261.277
1148.147, 333.523
1149.377, 209.379
1150.607, 310.820
1151.837, 86.201
1153.067, 60.588
1154.296, 199.748
1155.526, 215.727
1156.755, 13.543
1157.984, 165.465
1159.213, 62.926
1160.441, 68.656
1161.670, 195.459
1162.898, 110.836
1164.126, 32.332
1165.354, 48.266
1166.581, 174.422
1167.809, 114.996
1169.036, 166.172
1170.263, 117.662
1171.490, 98.287
1172.717, 69.850
1173.943, 63.289
1175.170, 45.461
1176.396, 1.350
1177.622, 138.119
1178.848, 82.432
1180.073, 208.516
1181.299, 26.424
1182.524, 21.857
1183.749, 9.949
1184.974, 129.148
1186.199, 123.064
1187.423, 95.648
1188.648, 102.373
1189.872, 154.055
1191.096, 1.652
1192.320, 85.318
1193.543, 76.689
1194.767, 171.789
1195.990, 76.270
1197.213, 141.029
1198.436, 18.439
1199.659, 140.938
1200.881, 85.807
1202.104, 108.295
1203.326, 63.564
1204.548, 70.148
1205.770, 77.750
1206.991, 92.369
1208.213, 96.070
1209.434, 131.121
1210.655, 23.861
1211.876, 24.896
1213.096, 83.016
1214.317, 133.334
1215.537, 122.176
1216.757, 61.000
1217.977, 126.027
1219.197, 223.785
1220.417, 67.520
1221.636, 118.312
1222.855, 155.979
1224.074, 77.613
1225.293, 32.787
1226.512, 61.754
1227.731, 256.262
1228.949, 71.785
1230.167, 74.773
1231.385, 114.584
1232.603, 272.910
1233.820, 207.203
1235.038, 53.537
1236.255, 221.652
1237.472, 180.318
1238.689, 40.436
1239.906, 231.510
1241.122, 52.811
1242.338, 270.830
1243.555, 316.820
1244.771, 32.965
1245.986, 90.891
1247.202, 72.787
1248.417, 42.648
1249.633, 207.475
1250.848, 8.238
1252.063, 149.967
1253.277, 83.664
1254.492, 112.330
1255.706, 61.199
1256.920, 36.906
1258.134, 59.100
1259.348, 74.416
1260.562, 3.480
1261.775, 134.395
1262.988, 52.732
1264.201, 174.027
1265.414, 127.287
1266.627, 178.479
1267.839, 107.631
1269.052, 72.744
1270.264, 85.805
1271.476, 184.824
1272.688, 18.191
1273.899, 144.748
1275.111, 97.617
1276.322, 30.449
1277.533, 75.760
1278.744, 64.955
1279.955, 111.629
1281.165, 202.260
1282.376, 76.857
1283.586, 25.590
1284.796, 89.902
1286.006, 43.336
1287.215, 106.719
1288.425, 121.064
1289.634, 42.365
1290.843, 232.625
1292.052, 85.150
1293.261, 109.008
1294.469, 21.129
1295.678, 66.207
1296.886, 78.244
1298.094, 70.799
1299.302, 9.793
1300.509, 155.123
1301.717, 22.004
1302.924, 132.650
1304.131, 221.318
1305.338, 211.352
1306.545, 160.539
1307.752, 64.779
1308.958, 141.467
1310.164, 201.000
1311.370, 63.904
1312.576, 192.299
1313.782, 65.402
1314.987, 180.680
1316.193, 7.285
1317.398, 174.615
1318.603, 95.359
1319.807, 104.473
1321.012, 29.035
1322.216, 156.219
1323.421, 186.092
1324.625, 34.691
1325.829, 237.396
1327.032, 17.311
1328.236, 167.895
1329.439, 133.963
1330.642, 26.438
1331.845, 0.918
1333.048, 135.422
1334.251, 207.781
1335.453, 54.324
1336.656, 120.984
1337.858, 35.176
1339.060, 73.297
1340.261, 213.785
1341.463, 137.844
1342.664, 316.145
1343.866, 182.840
1345.067, 86.082
1346.267, 168.068
1347.468, 392.117
1348.669, 151.953
1349.869, 310.822
1351.069, 316.594
1352.269, 58.477
1353.469, 264.342
1354.668, 245.334
1355.868, 296.328
1357.067, 373.221
1358.266, 95.945
1359.465, 315.859
1360.664, 299.617
1361.862, 147.189
1363.061, 429.570
1364.259, 248.773
1365.457, 183.322
1366.655, 304.066
1367.852, 223.152
1369.050, 503.746
1370.247, 503.777
1371.444, 374.785
1372.641, 190.756
1373.838, 389.043
1375.035, 213.977
1376.231, 273.443
1377.427, 294.998
1378.623, 301.311
1379.819, 310.076
1381.015, 68.221
1382.211, 250.748
1383.406, 254.371
1384.601, 128.988
1385.796, 382.363
1386.991, 477.080
1388.185, 144.715
1389.380, 237.533
1390.574, 333.576
1391.768, 259.281
1392.962, 331.469
1394.156, 322.213
1395.350, 354.650
1396.543, 442.566
1397.736, 350.342
1398.929, 338.449
1400.122, 254.537
1401.315, 379.869
1402.507, 293.611
1403.700, 267.402
1404.892, 420.617
1406.084, 189.984
1407.276, 172.260
1408.467, 366.510
1409.659, 337.566
1410.850, 264.258
1412.041, 430.191
1413.232, 246.756
1414.423, 421.398
1415.614, 317.211
1416.804, 321.131
1417.994, 387.223
1419.184, 353.361
1420.374, 271.402
1421.564, 479.131
1422.753, 237.092
1423.943, 363.053
1425.132, 255.391
1426.321, 279.117
1427.510, 308.275
1428.698, 298.236
1429.887, 273.490
1431.075, 404.402
1432.263, 235.475
1433.451, 234.428
1434.639, 407.742
1435.827, 437.477
1437.014, 468.443
1438.201, 354.158
1439.388, 505.842
1440.575, 292.486
1441.762, 297.135
1442.949, 485.002
1444.135, 358.104
1445.321, 225.547
1446.507, 312.764
1447.693, 296.092
1448.879, 360.416
1450.064, 348.598
1451.250, 335.916
1452.435, 237.188
1453.620, 434.484
1454.805, 368.766
1455.989, 281.467
1457.174, 622.215
1458.358, 181.273
1459.542, 424.271
1460.726, 507.340
1461.910, 231.338
1463.093, 544.305
1464.277, 177.311
1465.460, 330.344
1466.643, 452.416
1467.826, 300.549
1469.009, 498.762
1470.191, 303.041
1471.373, 347.299
1472.556, 533.713
1473.738, 393.164
1474.919, 200.668
1476.101, 457.197
1477.283, 306.879
1478.464, 259.688
1479.645, 343.559
1480.826, 270.461
1482.007, 262.393
1483.187, 386.365
1484.368, 339.354
1485.548, 324.387
1486.728, 356.451
1487.908, 257.557
1489.088, 209.701
1490.268, 237.525
1491.447, 112.232
1492.626, 299.627
1493.805, 336.109
1494.984, 419.691
1496.163, 418.385
1497.341, 203.195
1498.520, 333.123
1499.698, 159.172
1500.876, 253.352
1502.054, 41.342
1503.232, 225.090
1504.409, 35.662
1505.586, 6.611
1506.763, 258.289
1507.940, 271.389
1509.117, 97.408
1510.294, 135.930
1511.470, 151.701
1512.647, 57.742
1513.823, 233.902
1514.999, 98.971
1516.174, 74.990
1517.350, 21.047
1518.526, 127.768
1519.701, 43.875
1520.876, 0.033
