##NAMES=Trilithionite
##RRUFFID=R040101
##IDEAL CHEMISTRY=KLi_1.5_Al_1.5_(Si_3_Al)O_10_F_2_
##LOCALITY=Zambezi Region, Mozambique
##OWNER=RRUFF
##SOURCE=University of Arizona Mineral Museum
##DESCRIPTION=Aggregate of purple hexagonal plates, polytype is 2M1
##STATUS=The identification of this mineral has been confirmed by X-ray diffraction and chemical analysis
##URL=rruff.info/R040101
##MEASURED CHEMISTRY=(K_0.84_Li_0.13_Na_0.02_)(Li_0.54_Al_0.44_Mn_0.02_)_3_(Si_0.82_Al_0.18_)_4_O_10_F_2.00_
##PIN_ID=M00337
##ORIENTATION=Laser parallel to (1 0 1). Fiducial mark perpendicular to laser is parallel to b [0 1 0]
117.729, 0.000
119.119, 71.758
120.508, 109.646
121.897, 99.710
123.286, 96.406
124.675, 85.117
126.063, 63.580
127.452, 187.635
128.840, 116.682
130.228, 125.395
131.615, 57.347
133.003, 53.922
134.390, 0.464
135.777, 71.129
137.164, 55.406
138.550, 204.816
139.937, 57.689
141.323, 154.118
142.709, 77.023
144.094, 119.336
145.480, 28.969
146.865, 101.316
148.250, 125.420
149.635, 184.227
151.019, 159.581
152.403, 167.363
153.788, 101.478
155.171, 192.848
156.555, 372.413
157.939, 333.122
159.322, 443.937
160.705, 742.830
162.088, 808.784
163.470, 1038.782
164.853, 1325.811
166.235, 1509.856
167.617, 1741.912
168.998, 2211.970
170.380, 2403.027
171.761, 2793.186
173.142, 3071.117
174.523, 3689.016
175.904, 3911.067
177.284, 4150.699
178.664, 4541.152
180.044, 4481.164
181.424, 4602.764
182.803, 4505.979
184.183, 4267.839
185.562, 4101.363
186.940, 3978.574
188.319, 3602.491
189.698, 3549.131
191.076, 3482.509
192.454, 3612.639
193.831, 3649.535
195.209, 3756.207
196.586, 3901.671
197.963, 3611.937
199.340, 3756.013
200.717, 3507.934
202.093, 3334.782
203.470, 3118.553
204.846, 3145.244
206.221, 2863.849
207.597, 3018.369
208.972, 3107.794
210.347, 2684.104
211.722, 2612.319
213.097, 2813.476
214.472, 2674.566
215.846, 2615.594
217.220, 2376.577
218.594, 2205.516
219.967, 1909.414
221.341, 2015.273
222.714, 1837.094
224.087, 1138.879
225.460, 1232.090
226.832, 1067.877
228.204, 1317.861
229.577, 1291.545
230.948, 1356.332
232.320, 1380.653
233.692, 1594.377
235.063, 1777.863
236.434, 2070.571
237.805, 2211.067
239.175, 2490.378
240.545, 2674.709
241.916, 3224.059
243.286, 3368.426
244.655, 3796.811
246.025, 4003.214
247.394, 4431.633
248.763, 4844.066
250.132, 5143.518
251.501, 6015.984
252.869, 6523.467
254.237, 7537.963
255.605, 8832.473
256.973, 10052.988
258.340, 11722.500
259.708, 12667.006
261.075, 13567.501
262.442, 13968.985
263.808, 13996.466
265.175, 13267.938
266.541, 12470.407
267.907, 11011.869
269.273, 9449.330
270.639, 8095.789
272.004, 6933.648
273.369, 5728.709
274.734, 4879.167
276.099, 4020.630
277.463, 3189.097
278.828, 3130.566
280.192, 2557.042
281.556, 2072.521
282.919, 2074.064
284.283, 1826.576
285.646, 1757.005
287.009, 1504.328
288.372, 1353.521
289.734, 1438.616
291.097, 1292.523
292.459, 1340.163
293.821, 1384.854
295.183, 1239.595
296.544, 1436.017
297.905, 1378.548
299.266, 1470.965
300.627, 1384.775
301.988, 1340.335
303.348, 1338.232
304.709, 1269.159
306.069, 1192.109
307.428, 1264.084
308.788, 1164.079
310.147, 1038.551
311.507, 1174.583
312.865, 927.629
314.224, 780.683
315.583, 755.746
316.941, 739.813
318.299, 686.885
319.657, 664.389
321.015, 629.035
322.372, 553.112
323.729, 475.190
325.086, 323.270
326.443, 306.348
327.800, 186.427
329.156, 128.875
330.512, 32.584
331.868, 35.649
333.224, 6.705
334.579, 1.743
335.935, 165.238
337.290, 5.288
338.645, 239.371
339.999, 100.557
341.354, 190.813
342.708, 229.892
344.062, 199.338
345.416, 249.963
346.769, 121.015
348.123, 231.752
349.476, 258.238
350.829, 203.853
352.182, 50.849
353.534, 7.940
354.887, 47.946
356.239, 85.965
357.591, 259.817
358.942, 197.699
360.294, 355.532
361.645, 406.360
362.996, 456.180
364.347, 725.995
365.698, 720.805
367.048, 765.611
368.398, 1012.413
369.748, 1185.213
371.098, 1259.010
372.448, 1388.807
373.797, 1634.601
375.146, 1659.396
376.495, 1912.192
377.844, 2159.990
379.192, 2098.788
380.540, 2410.589
381.889, 2486.391
383.236, 2448.197
384.584, 2877.006
385.932, 2953.819
387.279, 3115.637
388.626, 3371.424
389.973, 3852.162
391.319, 3954.783
392.666, 4490.225
394.012, 4705.465
395.358, 5116.495
396.704, 5540.357
398.049, 5833.014
399.394, 6380.617
400.740, 6610.225
402.084, 6883.857
403.429, 7122.513
404.774, 7156.188
406.118, 7368.889
407.462, 7183.611
408.806, 7087.358
410.150, 6816.127
411.493, 6544.919
412.836, 6223.732
414.179, 5844.572
415.522, 5137.436
416.865, 5090.321
418.207, 4597.230
419.549, 3935.164
420.891, 3810.123
422.233, 3370.105
423.575, 3118.112
424.916, 2558.143
426.257, 2618.199
427.598, 2350.281
428.939, 2251.389
430.279, 2257.521
431.619, 1841.680
432.959, 1605.864
434.299, 1764.075
435.639, 2023.312
436.978, 1763.574
438.318, 1880.862
439.657, 1599.179
440.996, 1714.521
442.334, 1711.891
443.673, 1469.289
445.011, 1382.700
446.349, 1561.127
447.687, 1497.569
449.024, 1523.028
450.361, 1496.503
451.699, 1249.996
453.036, 1352.508
454.372, 1155.038
455.709, 1255.589
457.045, 1054.159
458.381, 1216.750
459.717, 1150.362
461.053, 1203.998
462.388, 1174.656
463.724, 1225.352
465.059, 1297.067
466.394, 1231.803
467.728, 1158.557
469.063, 1521.330
470.397, 1419.124
471.731, 1673.945
473.065, 1781.786
474.398, 1703.646
475.732, 1920.527
477.065, 1665.428
478.398, 1801.349
479.731, 1656.290
481.063, 1599.252
482.396, 1229.234
483.728, 1104.236
485.060, 1007.261
486.391, 666.305
487.723, 731.370
489.054, 417.457
490.385, 531.565
491.716, 354.489
493.047, 272.604
494.377, 241.211
495.708, 226.556
497.038, 123.487
498.368, 110.110
499.697, 38.896
501.027, 9.057
502.356, 15.371
503.685, 84.205
505.014, 50.146
506.342, 110.242
507.671, 32.685
508.999, 109.237
510.327, 76.817
511.655, 105.975
512.982, 167.531
514.310, 51.497
515.637, 14.273
516.964, 78.283
518.291, 1.097
519.617, 265.961
520.944, 185.884
522.270, 16.853
523.596, 393.855
524.921, 152.946
526.247, 356.101
527.572, 380.354
528.897, 432.673
530.222, 580.052
531.547, 654.493
532.871, 880.983
534.196, 894.510
535.520, 1059.929
536.844, 1146.729
538.167, 1306.412
539.491, 1408.175
540.814, 1502.006
542.137, 1745.892
543.460, 1919.814
544.783, 2082.800
546.105, 2099.847
547.427, 2662.960
548.749, 2735.153
550.071, 3023.419
551.393, 3391.777
552.714, 3650.193
554.035, 3904.656
555.356, 4233.162
556.677, 4399.732
557.998, 4415.345
559.318, 4719.002
560.638, 4686.717
561.958, 4577.474
563.278, 4181.271
564.597, 4153.129
565.917, 3809.029
567.236, 3492.975
568.555, 3191.963
569.874, 2855.404
571.192, 2518.072
572.511, 2219.190
573.829, 1945.619
575.147, 1688.051
576.464, 1457.792
577.782, 1237.073
579.099, 1028.395
580.416, 824.756
581.733, 857.156
583.050, 691.597
584.366, 473.076
585.683, 629.596
586.999, 350.153
588.315, 336.749
589.630, 389.384
590.946, 436.057
592.261, 459.769
593.576, 367.519
594.891, 414.427
596.206, 289.133
597.520, 378.997
598.834, 382.898
600.148, 292.837
601.462, 297.813
602.776, 319.848
604.089, 502.878
605.402, 462.966
606.715, 547.090
608.028, 757.251
609.341, 596.449
610.653, 640.685
611.965, 860.955
613.277, 757.263
614.589, 838.604
615.901, 841.984
617.212, 1089.399
618.523, 1115.850
619.834, 1339.336
621.145, 1328.857
622.456, 1379.413
623.766, 1314.005
625.076, 1670.631
626.386, 1607.292
627.696, 1803.986
629.006, 1638.717
630.315, 2055.480
631.624, 1708.279
632.933, 1799.112
634.242, 2142.978
635.551, 1793.877
636.859, 1711.810
638.167, 1538.776
639.475, 1485.835
640.783, 1492.808
642.090, 1459.872
643.398, 1498.970
644.705, 1407.100
646.012, 1243.262
647.318, 1201.456
648.625, 1230.682
649.931, 1279.951
651.237, 1110.263
652.543, 1127.623
653.849, 1065.278
655.155, 1325.783
656.460, 1201.338
657.765, 1239.347
659.070, 1330.466
660.375, 1150.303
661.679, 1412.806
662.984, 1274.154
664.288, 1269.099
665.592, 1355.127
666.895, 1416.507
668.199, 1391.243
669.502, 1470.616
670.805, 1562.849
672.108, 1892.771
673.411, 1919.309
674.713, 1933.002
676.016, 2441.847
677.318, 2500.280
678.620, 2907.865
679.921, 3055.146
681.223, 3468.867
682.524, 3808.620
683.825, 4113.959
685.126, 4907.701
686.427, 5397.752
687.727, 5918.680
689.028, 6671.227
690.328, 7421.650
691.628, 8457.344
692.927, 9375.931
694.227, 10518.395
695.526, 11932.106
696.825, 13372.317
698.124, 15094.332
699.423, 16902.281
700.721, 19127.998
702.020, 21456.430
703.318, 23800.904
704.616, 26488.207
705.913, 28653.512
707.211, 31483.438
708.508, 34373.070
709.805, 34814.336
711.102, 33828.180
712.399, 32858.535
713.695, 28555.154
714.992, 25370.361
716.288, 21060.512
717.584, 17633.076
718.879, 14315.598
720.175, 11622.686
721.470, 10228.434
722.765, 8247.342
724.060, 7163.098
725.355, 6057.517
726.649, 5273.340
727.944, 4653.051
729.238, 4258.549
730.532, 3508.923
731.825, 3597.284
733.119, 3303.574
734.412, 2977.804
735.705, 3000.317
736.998, 2993.546
738.291, 3044.773
739.584, 2987.998
740.876, 3165.223
742.168, 3285.714
743.460, 3405.665
744.752, 3701.882
746.043, 3845.097
747.334, 4111.308
748.626, 3864.516
749.916, 3965.719
751.207, 4076.917
752.498, 4149.113
753.788, 4189.304
755.078, 3923.488
756.368, 3926.668
757.658, 3686.844
758.947, 3436.011
760.237, 3357.172
761.526, 3035.327
762.815, 2848.476
764.104, 2581.615
765.392, 2455.748
766.680, 2288.873
767.969, 2020.990
769.257, 2097.098
770.544, 1809.197
771.832, 1789.288
773.119, 1681.369
774.406, 1674.440
775.693, 1606.501
776.980, 1610.642
778.267, 1667.593
779.553, 1624.621
780.839, 1774.640
782.125, 1751.646
783.411, 1784.641
784.697, 1749.623
785.982, 1698.594
787.267, 1573.550
788.552, 1467.494
789.837, 1314.424
791.122, 1460.341
792.406, 1112.244
793.690, 988.132
794.974, 1013.006
796.258, 697.864
797.542, 713.708
798.825, 601.535
800.108, 574.346
801.391, 321.142
802.674, 415.920
803.957, 270.682
805.239, 96.427
806.522, 297.155
807.804, 40.135
809.085, 171.525
810.367, 149.166
811.649, 25.788
812.930, 37.613
814.211, 55.932
815.492, 53.543
816.772, 0.929
818.053, 31.366
819.333, 53.208
820.613, 188.851
821.893, 20.380
823.173, 66.417
824.452, 61.281
825.732, 87.797
827.011, 65.153
828.290, 175.183
829.568, 33.351
830.847, 56.583
832.125, 6.105
833.403, 58.749
834.681, 152.640
835.959, 72.159
837.236, 191.768
838.514, 69.528
839.791, 57.377
841.068, 54.311
842.345, 0.674
843.621, 98.604
844.898, 16.497
846.174, 44.663
847.450, 27.092
848.726, 121.196
850.001, 68.607
851.277, 18.111
852.552, 53.317
853.827, 41.292
855.102, 35.982
856.376, 67.752
857.651, 112.227
858.925, 79.587
860.199, 152.680
861.473, 19.901
862.746, 20.806
864.020, 78.463
865.293, 29.917
866.566, 123.629
867.839, 59.150
869.112, 6.634
870.384, 144.058
871.656, 157.471
872.928, 7.149
874.200, 108.164
875.472, 87.445
876.744, 110.691
878.015, 56.926
879.286, 102.130
880.557, 127.419
881.828, 179.435
883.098, 210.542
884.369, 215.616
885.639, 233.658
886.909, 319.671
888.178, 182.653
889.448, 266.604
890.717, 476.524
891.987, 381.417
893.256, 366.278
894.524, 501.110
895.793, 521.910
897.061, 547.679
898.330, 595.417
899.598, 707.133
900.865, 762.188
902.133, 845.471
903.401, 915.093
904.668, 1086.684
905.935, 1125.244
907.202, 1111.773
908.468, 1343.271
909.735, 1452.744
911.001, 1486.187
912.267, 1434.598
913.533, 1559.975
914.799, 1540.341
916.064, 1460.675
917.330, 1737.979
918.595, 1411.254
919.860, 1243.498
921.124, 1605.711
922.389, 1341.891
923.653, 1402.037
924.918, 1262.151
926.182, 1162.234
927.445, 1080.285
928.709, 1024.466
929.972, 1015.302
931.236, 1003.265
932.499, 1000.194
933.761, 1076.093
935.024, 855.957
936.286, 825.790
937.549, 1124.590
938.811, 926.356
940.073, 1199.092
941.334, 1024.792
942.596, 1089.459
943.857, 1321.091
945.118, 1156.691
946.379, 1157.258
947.640, 1233.792
948.900, 1460.292
950.161, 1435.759
951.421, 1477.193
952.681, 1536.595
953.940, 1491.964
955.200, 1443.301
956.459, 1479.605
957.719, 1612.878
958.978, 1641.141
960.236, 1538.127
961.495, 1575.324
962.753, 1485.490
964.012, 1304.285
965.270, 1415.983
966.527, 1379.814
967.785, 1279.288
969.043, 1294.091
970.300, 1208.695
971.557, 1085.875
972.814, 1113.430
974.071, 1081.772
975.327, 1182.839
976.583, 1022.125
977.840, 1240.725
979.095, 1217.593
980.351, 1064.454
981.607, 1193.119
982.862, 976.231
984.117, 1133.219
985.372, 1284.507
986.627, 981.369
987.882, 1159.196
989.136, 1166.433
990.390, 1065.257
991.644, 1199.766
992.898, 1064.393
994.152, 1098.394
995.405, 1125.566
996.659, 1084.340
997.912, 1197.273
999.165, 1077.316
1000.417, 1107.306
1001.670, 994.527
1002.922, 1260.854
1004.174, 1032.382
1005.426, 1098.320
1006.678, 964.363
1007.930, 1025.355
1009.181, 1149.260
1010.432, 1140.398
1011.683, 1173.546
1012.934, 1164.466
1014.185, 1190.680
1015.435, 1162.650
1016.685, 1174.841
1017.935, 1124.565
1019.185, 1175.288
1020.435, 1152.766
1021.684, 1128.617
1022.934, 1118.724
1024.183, 1166.514
1025.432, 1087.436
1026.680, 1071.587
1027.929, 968.868
1029.177, 953.843
1030.425, 884.766
1031.673, 778.498
1032.921, 791.093
1034.169, 750.960
1035.416, 774.217
1036.663, 838.684
1037.911, 841.184
1039.157, 794.508
1040.404, 869.398
1041.650, 843.938
1042.897, 992.297
1044.143, 861.916
1045.389, 1032.096
1046.634, 1084.064
1047.880, 963.699
1049.125, 1065.237
1050.371, 1003.799
1051.615, 985.023
1052.860, 1097.509
1054.105, 1178.444
1055.349, 1229.008
1056.593, 1159.180
1057.837, 1244.404
1059.081, 1269.234
1060.325, 1289.823
1061.568, 1363.024
1062.812, 1383.665
1064.055, 1384.195
1065.298, 1415.293
1066.540, 1425.763
1067.783, 1485.991
1069.025, 1494.504
1070.267, 1744.463
1071.509, 1569.402
1072.751, 1484.096
1073.993, 1766.693
1075.234, 1733.749
1076.475, 1729.849
1077.716, 1908.762
1078.957, 1900.255
1080.198, 1913.062
1081.438, 1958.602
1082.679, 2037.550
1083.919, 1983.210
1085.159, 2104.867
1086.398, 2188.451
1087.638, 2158.154
1088.877, 2221.482
1090.116, 2104.951
1091.355, 2193.402
1092.594, 2032.803
1093.833, 1920.203
1095.071, 2071.646
1096.309, 1910.070
1097.547, 2146.428
1098.785, 1938.947
1100.023, 2114.299
1101.260, 2043.840
1102.498, 2227.225
1103.735, 2034.706
1104.972, 2114.542
1106.208, 2142.911
1107.445, 2204.636
1108.681, 2197.182
1109.918, 2231.230
1111.154, 2169.779
1112.389, 2234.255
1113.625, 2250.124
1114.860, 2184.393
1116.096, 2147.521
1117.331, 2170.549
1118.566, 2122.565
1119.800, 1925.447
1121.035, 2173.121
1122.269, 1851.406
1123.503, 2019.382
1124.737, 1858.050
1125.971, 1755.849
1127.205, 1549.703
1128.438, 1319.930
1129.671, 1304.829
1130.904, 1174.096
1132.137, 1156.343
1133.370, 1150.943
1134.602, 1128.244
1135.834, 848.517
1137.066, 815.092
1138.298, 963.339
1139.530, 627.585
1140.762, 672.337
1141.993, 526.421
1143.224, 453.169
1144.455, 485.493
1145.686, 375.623
1146.917, 322.743
1148.147, 423.763
1149.377, 193.718
1150.607, 274.945
1151.837, 296.841
1153.067, 119.113
1154.296, 187.813
1155.526, 205.390
1156.755, 2.695
1157.984, 181.452
1159.213, 14.582
1160.441, 139.871
1161.670, 153.665
1162.898, 70.974
1164.126, 19.135
1165.354, 42.728
1166.581, 36.622
1167.809, 107.961
1169.036, 83.076
1170.263, 101.353
1171.490, 48.347
1172.717, 2.847
1173.943, 6.724
1175.170, 84.120
1176.396, 47.871
1177.622, 65.601
1178.848, 55.489
1180.073, 18.176
1181.299, 157.957
1182.524, 91.603
1183.749, 53.674
1184.974, 56.209
1186.199, 48.016
1187.423, 5.180
1188.648, 63.111
1189.872, 102.047
1191.096, 35.610
1192.320, 136.763
1193.543, 182.557
1194.767, 24.982
1195.990, 12.145
1197.213, 29.912
1198.436, 104.825
1199.659, 143.653
1200.881, 57.826
1202.104, 87.615
1203.326, 38.238
1204.548, 191.421
1205.770, 16.103
1206.991, 102.542
1208.213, 69.386
1209.434, 205.702
1210.655, 60.013
1211.876, 87.199
1213.096, 16.377
1214.317, 47.269
1215.537, 7.440
1216.757, 102.513
1217.977, 102.712
1219.197, 156.778
1220.417, 174.962
1221.636, 61.073
1222.855, 45.991
1224.074, 85.989
1225.293, 12.147
1226.512, 101.682
1227.731, 113.605
1228.949, 106.746
1230.167, 123.494
1231.385, 119.332
1232.603, 132.442
1233.820, 99.686
1235.038, 131.317
1236.255, 198.894
1237.472, 145.802
1238.689, 153.316
1239.906, 148.792
1241.122, 133.861
1242.338, 133.796
1243.555, 145.124
1244.771, 101.408
1245.986, 136.781
1247.202, 86.804
1248.417, 119.059
1249.633, 91.098
1250.848, 29.100
1252.063, 108.066
1253.277, 65.004
1254.492, 95.869
1255.706, 113.705
1256.920, 67.510
1258.134, 61.266
1259.348, 3.963
1260.562, 104.688
1261.775, 133.303
1262.988, 54.125
1264.201, 156.387
1265.414, 183.861
1266.627, 233.297
1267.839, 121.158
1269.052, 166.123
1270.264, 32.404
1271.476, 209.602
1272.688, 98.256
1273.899, 102.797
1275.111, 188.729
1276.322, 99.596
1277.533, 103.578
1278.744, 41.176
1279.955, 57.115
1281.165, 95.850
1282.376, 45.449
1283.586, 112.012
1284.796, 113.527
1286.006, 30.002
1287.215, 152.434
1288.425, 229.828
1289.634, 86.184
1290.843, 130.494
1292.052, 132.764
1293.261, 151.994
1294.469, 172.184
1295.678, 108.332
1296.886, 1.566
1298.094, 90.514
1299.302, 30.662
1300.509, 42.285
1301.717, 175.189
1302.924, 122.287
1304.131, 128.104
1305.338, 9.230
1306.545, 211.828
1307.752, 84.441
1308.958, 112.660
1310.164, 115.617
1311.370, 59.680
1312.576, 57.350
1313.782, 132.811
1314.987, 32.148
1316.193, 57.781
1317.398, 20.982
1318.603, 112.500
1319.807, 51.004
1321.012, 26.820
1322.216, 167.451
1323.421, 60.076
1324.625, 22.381
1325.829, 532.209
1327.032, 28.910
1328.236, 271.631
1329.439, 101.979
1330.642, 160.701
1331.845, 39.541
1333.048, 223.287
1334.251, 209.420
1335.453, 54.682
1336.656, 139.631
1337.858, 245.975
1339.060, 58.480
1340.261, 181.281
1341.463, 125.129
1342.664, 149.861
1343.866, 161.887
1345.067, 71.053
1346.267, 153.951
1347.468, 184.867
1348.669, 49.584
1349.869, 202.857
1351.069, 149.088
1352.269, 92.957
1353.469, 281.678
1354.668, 234.957
1355.868, 265.322
1357.067, 466.104
1358.266, 39.883
1359.465, 189.539
1360.664, 403.254
1361.862, 165.578
1363.061, 191.348
1364.259, 157.947
1365.457, 169.029
1366.655, 267.617
1367.852, 179.912
1369.050, 246.229
1370.247, 371.426
1371.444, 176.984
1372.641, 119.334
1373.838, 274.535
1375.035, 179.648
1376.231, 342.500
1377.427, 229.123
1378.623, 244.135
1379.819, 297.502
1381.015, 116.852
1382.211, 293.729
1383.406, 221.037
1384.601, 149.584
1385.796, 231.199
1386.991, 349.773
1388.185, 257.252
1389.380, 202.953
1390.574, 250.826
1391.768, 134.055
1392.962, 258.258
1394.156, 205.805
1395.350, 164.836
1396.543, 419.348
1397.736, 216.723
1398.929, 254.730
1400.122, 180.012
1401.315, 237.291
1402.507, 136.771
1403.700, 201.965
1404.892, 318.436
1406.084, 268.736
1407.276, 185.721
1408.467, 317.473
1409.659, 221.248
1410.850, 98.916
1412.041, 333.932
1413.232, 130.578
1414.423, 330.508
1415.614, 171.777
1416.804, 143.252
1417.994, 219.094
1419.184, 218.881
1420.374, 187.289
1421.564, 413.318
1422.753, 134.434
1423.943, 27.768
1425.132, 108.715
1426.321, 233.385
1427.510, 256.264
1428.698, 113.076
1429.887, 182.221
1431.075, 298.379
1432.263, 94.863
1433.451, 135.533
1434.639, 266.893
1435.827, 297.348
1437.014, 110.773
1438.201, 381.021
1439.388, 370.578
1440.575, 79.520
1441.762, 217.578
1442.949, 274.791
1444.135, 323.715
1445.321, 233.158
1446.507, 336.156
1447.693, 138.225
1448.879, 77.109
1450.064, 325.367
1451.250, 174.549
1452.435, 124.629
1453.620, 243.541
1454.805, 185.652
1455.989, 267.727
1457.174, 395.760
1458.358, 93.404
1459.542, 276.467
1460.726, 338.787
1461.910, 163.766
1463.093, 433.848
1464.277, 49.176
1465.460, 85.947
1466.643, 289.127
1467.826, 71.324
1469.009, 339.562
1470.191, 178.859
1471.373, 137.213
1472.556, 310.547
1473.738, 243.117
1474.919, 97.834
1476.101, 354.691
1477.283, 331.703
1478.464, 125.865
1479.645, 127.219
1480.826, 219.791
1482.007, 158.633
1483.187, 293.727
1484.368, 92.451
1485.548, 224.332
1486.728, 167.404
1487.908, 41.693
1489.088, 65.232
1490.268, 61.045
1491.447, 149.080
1492.626, 128.396
1493.805, 174.939
1494.984, 168.332
1496.163, 109.338
1497.341, 183.162
1498.520, 254.969
1499.698, 41.428
1500.876, 191.785
1502.054, 1.404
1503.232, 0.000
##END=



