##NAMES=Trilithionite
##RRUFFID=R040105
##IDEAL CHEMISTRY=KLi_1.5_Al_1.5_(Si_3_Al)O_10_F_2_
##LOCALITY=Brown Derby mine, Ohio City, Gunnison County, Colorado, USA
##OWNER=RRUFF
##SOURCE=University of Arizona Mineral Museum
##DESCRIPTION=Purple hexagonal tablet
##STATUS=The identification of this mineral has been confirmed by X-ray diffraction and chemical analysis
##URL=rruff.info/R040105
##MEASURED CHEMISTRY=(K_0.82_Li_0.14_Na_0.04_)(Li_0.53_Al_0.42_Mn_0.05_)_3_(Si_0.84_Al_0.17_)_4_O_10_((OH)_0.59_F_0.41_)_2_
##PIN_ID=L01837
##ORIENTATION=Laser parallel to -b* (0 -1 0). Fiducial mark perpendicular to laser is parallel to c [0 0 1]
139.0430, 0.0000000E+00
140.2710, 288.7402
141.5000, 7.257813
142.7280, 226.5312
143.9560, 151.1113
145.1840, 308.3418
146.4120, 111.5234
147.6390, 79.60547
148.8670, 244.0215
150.0940, 54.42578
151.3210, 125.3066
152.5490, 280.4648
153.7750, 280.4844
155.0020, 250.9277
156.2290, 496.4160
157.4550, 354.6055
158.6810, 429.1895
159.9080, 386.9043
161.1340, 545.2324
162.3590, 848.8125
163.5850, 977.6367
164.8110, 1327.852
166.0360, 1637.398
167.2610, 1902.264
168.4860, 2226.438
169.7110, 2567.822
170.9360, 3223.277
172.1610, 3853.688
173.3850, 4282.963
174.6100, 5183.016
175.8340, 5947.777
177.0580, 6743.164
178.2820, 7335.105
179.5050, 8401.547
180.7290, 9054.449
181.9520, 9218.771
183.1760, 9332.486
184.3990, 9610.566
185.6220, 8996.996
186.8450, 8772.744
188.0670, 8361.887
189.2900, 7903.318
190.5120, 7219.324
191.7340, 6590.031
192.9560, 5851.408
194.1780, 5638.609
195.4000, 5382.186
196.6220, 4902.322
197.8430, 4828.928
199.0640, 4507.559
200.2860, 4173.191
201.5070, 4279.832
202.7270, 4112.492
203.9480, 3793.164
205.1690, 3617.852
206.3890, 3374.555
207.6090, 3392.277
208.8290, 3153.020
210.0490, 3208.777
211.2690, 3325.562
212.4890, 3361.340
213.7080, 3260.953
214.9280, 3313.441
216.1470, 3256.857
217.3660, 3376.426
218.5850, 3629.561
219.8030, 3644.891
221.0220, 3739.229
222.2400, 3850.584
223.4590, 3894.967
224.6770, 4034.992
225.8950, 4264.840
227.1120, 4350.340
228.3300, 4594.887
229.5480, 4904.482
230.7650, 4841.127
231.9820, 5043.824
233.1990, 5307.574
234.4160, 5618.377
235.6330, 5680.117
236.8490, 6302.992
238.0660, 6118.922
239.2820, 6683.906
240.4980, 6738.574
241.7140, 6789.816
242.9300, 6894.359
244.1460, 7338.242
245.3610, 7387.527
246.5770, 7578.271
247.7920, 7797.738
249.0070, 7736.035
250.2220, 8088.625
251.4370, 8012.277
252.6510, 8199.691
253.8660, 8304.098
255.0800, 8403.844
256.2940, 8479.061
257.5080, 8340.510
258.7220, 8482.008
259.9360, 8857.551
261.1490, 8812.201
262.3630, 8687.934
263.5760, 8401.703
264.7890, 8202.512
266.0020, 7999.352
267.2150, 7523.221
268.4270, 7057.117
269.6400, 6355.035
270.8520, 5974.969
272.0640, 5330.922
273.2760, 4688.895
274.4880, 4281.883
275.7000, 3831.891
276.9120, 3498.914
278.1230, 3244.959
279.3340, 2926.016
280.5450, 2648.086
281.7560, 2553.176
282.9670, 2345.844
284.1780, 1876.959
285.3880, 1863.762
286.5980, 1713.201
287.8090, 1640.279
289.0190, 1564.922
290.2290, 1353.031
291.4380, 1303.475
292.6480, 1167.293
293.8570, 1059.539
295.0670, 1329.883
296.2760, 997.8711
297.4850, 862.8164
298.6930, 1096.980
299.9020, 963.3418
301.1110, 949.8887
302.3190, 746.6035
303.5270, 953.4727
304.7350, 821.4824
305.9430, 836.6250
307.1510, 1003.893
308.3580, 819.2754
309.5660, 691.7637
310.7730, 649.3535
311.9800, 416.0391
313.1870, 535.8105
314.3940, 650.6660
315.6010, 545.5996
316.8070, 203.5996
318.0130, 380.6680
319.2200, 480.7969
320.4260, 253.9863
321.6310, 358.2324
322.8370, 233.5273
324.0430, 249.8691
325.2480, 136.2598
326.4540, 28.69141
327.6590, 275.1680
328.8640, 180.6855
330.0680, 49.75781
331.2730, 96.82617
332.4780, 261.4434
333.6820, 172.0977
334.8860, 99.77930
336.0900, 115.4941
337.2940, 21.23047
338.4980, 113.9941
339.7010, 4.228516
340.9050, 45.43750
342.1080, 33.64844
343.3110, 176.8613
344.5140, 0.8906250
345.7170, 73.35156
346.9200, 93.60352
348.1220, 29.24219
349.3240, 148.4590
350.5270, 2.244141
351.7290, 80.05078
352.9310, 108.9980
354.1320, 173.9805
355.3340, 5.082031
356.5350, 37.76758
357.7370, 220.1152
358.9380, 216.4785
360.1390, 198.9277
361.3400, 219.8945
362.5400, 122.8379
363.7410, 76.34570
364.9410, 5.064453
366.1410, 177.4707
367.3410, 119.8867
368.5410, 135.0449
369.7410, 75.65820
370.9400, 59.27734
372.1400, 11.64648
373.3390, 120.7656
374.5380, 177.1367
375.7370, 124.5117
376.9360, 245.8906
378.1350, 297.2734
379.3330, 296.6758
380.5310, 235.9668
381.7300, 258.3457
382.9280, 279.3516
384.1260, 264.7363
385.3230, 133.1035
386.5210, 208.7246
387.7180, 238.6777
388.9160, 355.9121
390.1130, 330.0977
391.3100, 572.2598
392.5060, 468.3574
393.7030, 456.3652
394.9000, 628.2383
396.0960, 484.9961
397.2920, 595.2070
398.4880, 648.4453
399.6840, 664.0898
400.8800, 708.7324
402.0750, 688.3809
403.2710, 865.0352
404.4660, 665.6934
405.6610, 823.3574
406.8560, 665.0254
408.0510, 857.7012
409.2450, 735.3789
410.4400, 732.0625
411.6340, 807.7520
412.8280, 689.4453
414.0220, 660.0352
415.2160, 762.8457
416.4100, 513.5527
417.6030, 426.2676
418.7970, 416.9844
419.9900, 260.7070
421.1830, 127.4355
422.3760, 138.5352
423.5690, 71.65430
424.7610, 131.6445
425.9540, 134.3887
427.1460, 152.1328
428.3380, 307.8828
429.5300, 168.6562
430.7220, 188.4570
431.9140, 180.2930
433.1050, 360.1484
434.2970, 293.0234
435.4880, 560.9199
436.6790, 311.8320
437.8700, 439.7578
439.0610, 217.7012
440.2510, 258.6582
441.4420, 213.6270
442.6320, 388.6074
443.8220, 158.5957
445.0120, 388.5938
446.2020, 347.5996
447.3910, 428.6113
448.5810, 302.6328
449.7700, 377.6562
450.9600, 341.0176
452.1490, 173.7246
453.3370, 342.7656
454.5260, 311.8105
455.7150, 400.8574
456.9030, 334.9102
458.0910, 304.9648
459.2800, 349.0215
460.4670, 218.0820
461.6550, 469.1445
462.8430, 267.2090
464.0300, 426.2734
465.2180, 343.3398
466.4050, 443.4062
467.5920, 465.4727
468.7790, 288.5391
469.9650, 502.6094
471.1520, 346.6758
472.3380, 168.7461
473.5250, 377.8984
474.7110, 331.9688
475.8970, 458.0371
477.0820, 429.1035
478.2680, 290.1738
479.4540, 476.2402
480.6390, 471.3105
481.8240, 273.3789
483.0090, 432.0488
484.1940, 384.9727
485.3780, 456.3887
486.5630, 221.3555
487.7470, 191.1094
488.9320, 130.4609
490.1160, 8.738281
491.3000, 92.08008
492.4830, 119.1816
493.6670, 171.8145
494.8500, 114.4980
496.0340, 5.460938
497.2170, 58.51172
498.4000, 12.45117
499.5820, 161.7266
500.7650, 59.43750
501.9480, 115.0332
503.1300, 91.78125
504.3120, 130.1172
505.4940, 221.1270
506.6760, 31.91602
507.8580, 82.24609
509.0390, 46.94141
510.2210, 93.35352
511.4020, 84.93945
512.5830, 46.40039
513.7640, 29.23438
514.9450, 32.58203
516.1250, 112.0508
517.3060, 14.68945
518.4860, 117.3340
519.6660, 57.98438
520.8460, 3.638672
522.0260, 109.7031
523.2060, 28.90820
524.3850, 70.47656
525.5650, 243.1250
526.7440, 297.7305
527.9230, 270.3438
529.1020, 155.9629
530.2810, 88.60156
531.4590, 391.2480
532.6380, 264.9004
533.8160, 476.5723
534.9940, 214.2520
536.1720, 138.9375
537.3500, 110.6328
538.5270, 297.3496
539.7050, 193.0957
540.8820, 479.8789
542.0590, 240.7168
543.2360, 311.5840
544.4130, 292.4824
545.5900, 528.3945
546.7660, 515.3164
547.9430, 616.2676
549.1190, 520.2266
550.2950, 731.1953
551.4710, 831.2129
552.6470, 1032.238
553.8220, 936.3184
554.9980, 1368.410
556.1730, 1202.514
557.3480, 1214.715
558.5230, 1527.943
559.6980, 1246.186
560.8730, 1420.443
562.0470, 1453.715
563.2220, 1578.994
564.3960, 1714.285
565.5700, 1754.023
566.7440, 1724.334
567.9170, 1752.652
569.0910, 1562.982
570.2640, 1621.318
571.4380, 1314.672
572.6110, 1182.096
573.7840, 1284.525
574.9570, 1116.967
576.1290, 876.4160
577.3020, 1029.873
578.4740, 892.3418
579.6460, 794.8164
580.8180, 790.3008
581.9900, 574.7930
583.1620, 593.2949
584.3330, 518.8066
585.5040, 816.3594
586.6760, 284.9199
587.8470, 367.4902
589.0180, 491.0820
590.1880, 58.68359
591.3590, 436.3027
592.5290, 269.9316
593.7000, 368.5625
594.8700, 311.2051
596.0400, 306.8535
597.2090, 514.5117
598.3790, 423.1738
599.5490, 132.8477
600.7180, 134.5254
601.8870, 335.2129
603.0560, 291.9043
604.2250, 535.6074
605.3940, 350.3164
606.5620, 608.0332
607.7300, 459.7578
608.8990, 416.4863
610.0670, 648.2383
611.2350, 462.0215
612.4020, 533.8105
613.5700, 571.6152
614.7370, 426.4375
615.9050, 663.3047
617.0720, 546.4121
618.2390, 703.0645
619.4060, 464.9570
620.5720, 419.8594
621.7390, 344.7676
622.9050, 296.6836
624.0710, 356.6074
625.2370, 305.4082
626.4030, 326.6172
627.5690, 332.5156
628.7340, 322.5332
629.9000, 404.5762
631.0650, 349.0176
632.2300, 320.0508
633.3950, 452.1777
634.5600, 491.3301
635.7240, 467.9922
636.8890, 375.0137
638.0530, 505.0137
639.2170, 350.6074
640.3810, 499.8770
641.5450, 430.1836
642.7080, 454.5859
643.8720, 505.5859
645.0350, 468.7910
646.1980, 586.9570
647.3610, 401.5605
648.5240, 839.2129
649.6870, 477.8711
650.8490, 836.8945
652.0120, 671.6406
653.1740, 689.8574
654.3360, 530.6543
655.4980, 672.7168
656.6600, 693.5391
657.8210, 1063.369
658.9830, 812.2070
660.1440, 757.0547
661.3050, 751.8906
662.4660, 1096.838
663.6270, 952.7090
664.7870, 1115.562
665.9480, 884.4473
667.1080, 1190.336
668.2680, 1130.236
669.4280, 1189.209
670.5880, 1225.121
671.7480, 926.0547
672.9070, 1190.641
674.0670, 1088.574
675.2260, 1270.510
676.3850, 1440.725
677.5440, 1346.277
678.7030, 1601.283
679.8610, 1495.072
681.0200, 1737.217
682.1780, 2021.688
683.3360, 1895.137
684.4940, 2291.199
685.6520, 2377.555
686.8090, 2421.678
687.9670, 2908.664
689.1240, 2955.947
690.2810, 3430.160
691.4380, 3668.223
692.5950, 4162.729
693.7520, 4536.418
694.9080, 4816.410
696.0650, 5486.375
697.2210, 6177.516
698.3770, 6628.537
699.5330, 7675.826
700.6880, 8547.699
701.8440, 9584.688
702.9990, 11169.68
704.1550, 12478.66
705.3100, 13824.78
706.4650, 15330.77
707.6190, 16929.23
708.7740, 18004.21
709.9290, 18766.21
711.0830, 18931.43
712.2370, 18700.54
713.3910, 17439.68
714.5450, 15636.67
715.6980, 13867.99
716.8520, 12172.95
718.0050, 10277.89
719.1580, 8475.002
720.3110, 7394.939
721.4640, 6267.947
722.6170, 5246.391
723.7700, 4715.154
724.9220, 3941.068
726.0740, 3534.980
727.2260, 3173.449
728.3780, 2776.348
729.5300, 2420.949
730.6810, 2149.832
731.8330, 2030.709
732.9840, 1706.576
734.1350, 1607.260
735.2860, 1289.320
736.4370, 1352.166
737.5880, 1328.375
738.7380, 1185.207
739.8880, 1262.031
741.0390, 1239.846
742.1890, 1237.652
743.3380, 1236.117
744.4880, 1245.873
745.6380, 1182.516
746.7870, 1214.287
747.9360, 1188.133
749.0850, 1028.479
750.2340, 1069.223
751.3830, 1297.668
752.5310, 956.3945
753.6800, 1070.812
754.8280, 1218.520
755.9760, 1138.215
757.1240, 1091.648
758.2720, 1090.809
759.4190, 970.8984
760.5670, 944.5508
761.7140, 818.1875
762.8610, 1036.812
764.0080, 902.8086
765.1550, 552.6914
766.3020, 419.7578
767.4480, 663.3359
768.5950, 623.9805
769.7410, 468.5391
770.8870, 346.0938
772.0330, 343.9062
773.1780, 485.9414
774.3240, 672.5469
775.4690, 541.0977
776.6140, 401.6680
777.7590, 346.1992
778.9040, 318.3828
780.0490, 551.8828
781.1940, 589.3672
782.3380, 495.8711
783.4820, 186.7266
784.6260, 539.2852
785.7700, 443.3281
786.9140, 598.8555
788.0580, 486.9258
789.2010, 322.8242
790.3450, 460.7344
791.4880, 658.2305
792.6310, 431.7305
793.7730, 228.1992
794.9160, 342.6484
796.0590, 614.5547
797.2010, 276.9648
798.3430, 171.3633
799.4850, 440.7383
800.6270, 228.1211
801.7690, 17.51172
802.9100, 105.8242
804.0520, 163.1406
805.1930, 151.5039
806.3340, 23.21875
807.4750, 133.0117
808.6160, 108.2188
809.7560, 15.58594
810.8970, 234.5547
812.0370, 120.6836
813.1770, 68.78516
814.3170, 13.13281
815.4570, 35.73438
816.5960, 79.67969
817.7360, 132.7812
818.8750, 41.98828
820.0140, 57.26172
821.1530, 103.3984
822.2920, 63.03906
823.4310, 35.34766
824.5690, 208.2070
825.7070, 73.74219
826.8460, 99.75000
827.9840, 111.6719
829.1220, 135.9297
830.2590, 41.35156
831.3970, 151.6055
832.5340, 302.1562
833.6710, 34.12109
834.8080, 24.37891
835.9450, 14.32031
837.0820, 31.23438
838.2190, 186.1133
839.3550, 159.9766
840.4910, 215.8164
841.6270, 102.6328
842.7630, 174.4258
843.8990, 58.19922
845.0350, 320.9453
846.1700, 23.67188
847.3060, 194.6328
848.4410, 99.91797
849.5760, 95.44922
850.7100, 125.9570
851.8450, 69.44141
852.9800, 236.8984
854.1140, 310.3320
855.2480, 94.75391
856.3820, 212.1445
857.5160, 116.5195
858.6500, 52.86719
859.7830, 93.80859
860.9170, 221.4258
862.0500, 469.6406
863.1830, 26.16797
864.3160, 253.9688
865.4480, 12.91406
866.5810, 159.1562
867.7130, 234.2031
868.8460, 137.2305
869.9780, 185.2305
871.1100, 125.2188
872.2410, 148.1797
873.3730, 62.12500
874.5050, 146.0430
875.6360, 241.9453
876.7670, 252.8164
877.8980, 186.6758
879.0290, 57.50781
880.1590, 103.3164
881.2900, 226.1055
882.4200, 167.8750
883.5500, 38.37500
884.6800, 46.68750
885.8100, 306.9453
886.9400, 1.445313
888.0690, 132.1250
889.1990, 129.3281
890.3280, 141.1211
891.4570, 175.5430
892.5860, 19.94922
893.7140, 38.33203
894.8430, 42.68359
895.9710, 427.0156
897.1000, 253.3281
898.2280, 334.6211
899.3560, 44.88672
900.4830, 56.13672
901.6110, 33.36328
902.7380, 141.5703
903.8660, 95.75391
904.9930, 141.9141
906.1200, 303.0625
907.2460, 32.81250
908.3730, 25.26562
909.5000, 96.31641
910.6260, 147.3516
911.7520, 98.36328
912.8780, 143.4219
914.0040, 9.660156
915.1290, 128.2812
916.2550, 278.2070
917.3800, 248.1836
918.5050, 34.14453
919.6300, 241.0859
920.7550, 104.9922
921.8800, 129.8438
923.0040, 8.660156
924.1290, 88.54688
925.2530, 9.824219
926.3770, 224.8633
927.5010, 88.52734
928.6250, 107.1797
929.7480, 181.8203
930.8720, 7.437500
931.9950, 284.0352
933.1180, 189.6094
934.2410, 105.1719
935.3640, 311.7188
936.4860, 221.2695
937.6090, 297.1992
938.7310, 203.7148
939.8530, 61.21484
940.9750, 196.6953
942.0970, 432.1367
943.2180, 350.6250
944.3400, 378.0898
945.4610, 176.8867
946.5820, 183.9922
947.7030, 302.7617
948.8240, 132.9062
949.9450, 1.296875
951.0650, 36.03125
952.1860, 456.5664
953.3060, 82.73828
954.4260, 346.5781
955.5460, 341.4258
956.6650, 282.6562
957.7850, 363.5820
958.9040, 358.7305
960.0230, 443.0078
961.1420, 575.9805
962.2610, 289.0117
963.3800, 356.1836
964.4990, 485.9023
965.6170, 216.4375
966.7350, 311.6484
967.8530, 463.8867
968.9710, 32.06641
970.0890, 219.0938
971.2070, 551.9766
972.3240, 280.2656
973.4410, 302.4336
974.5580, 361.6211
975.6750, 184.7969
976.7920, 291.8477
977.9090, 665.0117
979.0250, 517.6914
980.1410, 487.8477
981.2580, 267.9688
982.3740, 286.8711
983.4890, 358.8672
984.6050, 315.8359
985.7200, 299.7461
986.8360, 361.6953
987.9510, 220.8164
989.0660, 158.9375
990.1810, 193.8828
991.2950, 211.9922
992.4100, 271.0508
993.5240, 132.6641
994.6390, 434.9531
995.7530, 534.0820
996.8660, 323.2070
997.9800, 570.7617
999.0940, 572.8828
1000.207, 424.2930
1001.320, 546.4102
1002.433, 519.5273
1003.546, 632.6445
1004.659, 584.7539
1005.772, 581.8438
1006.884, 364.9570
1007.996, 316.6992
1009.108, 524.8125
1010.220, 779.9219
1011.332, 337.0312
1012.444, 343.1445
1013.555, 700.9062
1014.666, 560.9492
1015.777, 521.0977
1016.888, 747.2461
1017.999, 434.3164
1019.110, 536.8828
1020.220, 299.0469
1021.331, 282.5000
1022.441, 677.6680
1023.551, 942.1406
1024.661, 483.3125
1025.770, 420.4922
1026.880, 533.9180
1027.989, 500.6172
1029.098, 691.3711
1030.207, 660.5664
1031.316, 534.7578
1032.425, 643.9570
1033.533, 437.7773
1034.642, 453.7188
1035.750, 538.4648
1036.858, 768.6953
1037.966, 690.8555
1039.073, 807.2188
1040.181, 657.4062
1041.288, 863.4180
1042.396, 648.1914
1043.503, 628.4336
1044.610, 373.7344
1045.716, 412.4883
1046.823, 613.3125
1047.929, 575.9648
1049.036, 707.3398
1050.142, 1065.516
1051.248, 962.9023
1052.353, 749.9609
1053.459, 1351.367
1054.564, 896.2773
1055.670, 847.6953
1056.775, 1230.555
1057.880, 1128.605
1058.985, 1364.637
1060.089, 1083.082
1061.194, 1092.516
1062.298, 1184.602
1063.402, 1426.074
1064.506, 1698.078
1065.610, 1331.566
1066.713, 1538.062
1067.817, 1290.570
1068.920, 1566.121
1070.023, 1707.645
1071.126, 1622.188
1072.229, 1587.738
1073.332, 1723.238
1074.435, 1835.254
1075.537, 1754.852
1076.639, 1956.453
1077.741, 1986.016
1078.843, 1981.531
1079.945, 2079.348
1081.046, 1955.004
1082.148, 1811.672
1083.249, 1730.000
1084.350, 2075.637
1085.451, 2124.395
1086.551, 2032.203
1087.652, 1994.043
1088.752, 1734.918
1089.853, 2217.809
1090.953, 1873.707
1092.053, 2115.633
1093.152, 2125.570
1094.252, 2255.520
1095.351, 2214.520
1096.451, 2114.527
1097.550, 2145.598
1098.649, 2271.691
1099.748, 2328.789
1100.846, 2454.988
1101.945, 2533.699
1103.043, 2524.949
1104.141, 2331.734
1105.239, 2366.020
1106.337, 2634.078
1107.434, 2379.383
1108.532, 2685.695
1109.629, 2591.020
1110.726, 2713.355
1111.823, 2527.707
1112.920, 2681.062
1114.017, 3010.445
1115.113, 2894.898
1116.210, 3299.359
1117.306, 3194.832
1118.402, 3086.320
1119.498, 3313.820
1120.593, 3003.332
1121.689, 3405.855
1122.784, 3758.395
1123.879, 3601.457
1124.974, 3762.016
1126.069, 3896.590
1127.164, 3781.211
1128.259, 3693.848
1129.353, 3920.492
1130.447, 3780.160
1131.541, 3736.848
1132.635, 4143.555
1133.729, 3862.273
1134.822, 3621.004
1135.916, 3837.746
1137.009, 3763.504
1138.102, 3189.270
1139.195, 3104.070
1140.288, 2719.879
1141.380, 2379.703
1142.473, 2190.551
1143.565, 1786.414
1144.657, 1707.723
1145.749, 1462.117
1146.841, 1391.020
1147.932, 952.9375
1149.024, 753.8633
1150.115, 672.8125
1151.206, 897.6719
1152.297, 386.6680
1153.388, 464.6836
1154.479, 395.7109
1155.569, 296.7930
1156.659, 290.8867
1157.750, 331.9922
1158.839, 232.1172
1159.929, 212.2500
1161.019, 171.2305
1162.108, 269.5586
1163.198, 71.73047
1164.287, 255.9102
1165.376, 233.7539
1166.465, 208.9609
1167.553, 401.1875
1168.642, 195.4180
1169.730, 243.6484
1170.818, 93.90234
1171.906, 83.16406
1172.994, 222.4609
1174.082, 175.7734
1175.170, 277.0977
1176.257, 20.42578
1177.344, 151.7656
1178.431, 162.1172
1179.518, 89.07031
1180.605, 308.5469
1181.691, 222.6992
1182.778, 100.9570
1183.864, 404.2266
1184.950, 6.503906
1186.036, 89.82031
1187.122, 69.14844
1188.207, 494.4922
1189.292, 4.871094
1190.378, 120.2695
1191.463, 291.6836
1192.548, 23.88672
1193.632, 159.8320
1194.717, 332.2812
1195.801, 86.73047
1196.886, 183.1953
1197.970, 281.6680
1199.054, 112.8516
1200.137, 289.5898
1201.221, 423.0469
1202.305, 257.5117
1203.388, 277.9805
1204.471, 180.5430
1205.554, 11.86719
1206.637, 38.28516
1207.719, 22.71094
1208.802, 301.1406
1209.884, 275.1875
1210.966, 131.0430
1212.048, 375.5117
1213.130, 250.9805
1214.212, 210.4648
1215.293, 48.96094
1216.374, 72.46094
1217.456, 125.9727
1218.536, 442.4922
1219.617, 135.0156
1220.698, 84.54688
1221.778, 297.0898
1222.859, 134.6328
1223.939, 35.18750
1225.019, 127.7461
1226.099, 151.3086
1227.178, 120.2070
1228.258, 197.7852
1229.337, 337.3750
1230.417, 234.9688
1231.496, 423.5703
1232.574, 34.17578
1233.653, 11.21094
1234.732, 145.3984
1235.810, 122.9805
1236.888, 290.5820
1237.966, 288.1484
1239.044, 144.7227
1240.122, 23.30078
1241.199, 457.8867
1242.277, 24.47266
1243.354, 310.0664
1244.431, 243.6719
1245.508, 313.2852
1246.585, 149.8984
1247.661, 377.5195
1248.738, 111.1445
1249.814, 90.79297
1250.890, 309.4492
1251.966, 259.1055
1253.042, 111.2305
1254.117, 175.3750
1255.193, 72.99219
1256.268, 171.6133
1257.343, 90.23438
1258.418, 361.8633
1259.493, 479.4961
1260.567, 137.1250
1261.642, 243.7734
1262.716, 13.43750
1263.790, 33.08594
1264.864, 172.7422
1265.938, 165.4023
1267.011, 249.0586
1268.085, 257.3555
1269.158, 191.6953
1270.231, 253.3945
1271.304, 151.3867
1272.377, 175.0859
1273.450, 114.2109
1274.522, 1.433594
1275.594, 468.0703
1276.666, 51.71094
1277.738, 267.3516
1278.810, 376.9961
1279.882, 22.35938
1280.953, 318.2734
1282.025, 321.9062
1283.096, 73.56250
1284.167, 222.1953
1285.238, 88.83203
1286.308, 40.47266
1287.379, 30.10938
1288.449, 179.7500
1289.519, 94.38672
1290.589, 132.0234
1291.659, 54.66406
1292.729, 230.3008
1293.798, 30.05469
1294.868, 190.5625
1295.937, 333.1758
1297.006, 304.7891
1298.075, 97.60156
1299.143, 256.9453
1300.212, 154.5000
1301.280, 124.2930
1302.348, 201.8359
1303.416, 329.3828
1304.484, 135.9219
1305.552, 217.4609
1306.620, 67.00000
1307.687, 167.3008
