##NAMES=Triplite
##RRUFFID=R050226
##IDEAL CHEMISTRY=Mn^2+^_2_(PO_4_)F
##LOCALITY=Fremont County, Colorado, USA
##OWNER=RRUFF
##SOURCE=Marcus Origlieri
##DESCRIPTION=Reddish brown massive
##STATUS=The identification of this mineral has been confirmed by X-ray diffraction and chemical analysis
##URL=rruff.info/R050226
##MEASURED CHEMISTRY=(Mn^2+^_1.20_Mg_0.49_Fe^2+^_0.27_Ca_0.04_)_Σ=2_(P_1.00_O_4_)(F_0.95_(OH)_0.05_)_Σ=1_
##PIN_ID=L00312
##ORIENTATION=Laser parallel to (1 0 1). Fiducial mark perpendicular to laser is parallel to b [0 1 0]
129.2090, 0.0000000E+00
130.4390, 165.0879
131.6680, 409.7246
132.8980, 705.2598
134.1270, 803.0957
135.3560, 356.3613
136.5850, 523.8066
137.8140, 458.1797
139.0430, 719.2695
140.2710, 1307.332
141.5000, 1333.803
142.7280, 1508.273
143.9560, 1683.826
145.1840, 1728.299
146.4120, 1685.137
147.6390, 1905.598
148.8670, 2456.496
150.0940, 2074.436
151.3210, 2279.191
152.5490, 2215.455
153.7750, 1877.393
155.0020, 2016.824
156.2290, 1175.564
157.4550, 1095.779
158.6810, 620.4453
159.9080, 116.5293
161.1340, 158.3672
162.3590, 10.48438
163.5850, 51.67969
164.8110, 604.1055
166.0360, 482.8984
167.2610, 1315.201
168.4860, 578.7969
169.7110, 658.1875
170.9360, 675.4297
172.1610, 785.5312
173.3850, 851.8545
174.6100, 429.6162
175.8340, 247.9688
177.0580, 175.6504
178.2820, 371.2861
179.5050, 455.3975
180.7290, 546.0303
181.9520, 425.2373
183.1760, 280.7080
184.3990, 314.9189
185.6220, 513.8770
186.8450, 826.4316
188.0670, 946.4111
189.2900, 1054.255
190.5120, 1118.845
191.7340, 1223.985
192.9560, 1299.592
194.1780, 1443.432
195.4000, 1504.258
196.6220, 1674.834
197.8430, 1809.888
199.0640, 1669.623
200.2860, 1829.147
201.5070, 2368.074
202.7270, 2909.613
203.9480, 2829.793
205.1690, 2255.154
206.3890, 1266.574
207.6090, 510.1670
208.8290, 127.9258
210.0490, 10.42871
211.2690, 36.75879
212.4890, 153.0879
213.7080, 439.7178
214.9280, 791.3330
216.1470, 489.6475
217.3660, 764.1074
218.5850, 43.28809
219.8030, 66.85449
221.0220, 160.1768
222.2400, 125.9863
223.4590, 91.93848
224.6770, 93.51074
225.8950, 152.4551
227.1120, 82.20605
228.3300, 29.70410
229.5480, 50.29102
230.7650, 514.5742
231.9820, 568.2607
233.1990, 630.9375
234.4160, 45.30566
235.6330, 95.66211
236.8490, 5.436523
238.0660, 47.77832
239.2820, 102.3145
240.4980, 125.8584
241.7140, 6.391602
242.9300, 86.27148
244.1460, 28.08301
245.3610, 56.43848
246.5770, 119.6699
247.7920, 86.84473
249.0070, 13.33984
250.2220, 4.690430
251.4370, 94.91992
252.6510, 180.5049
253.8660, 335.9971
255.0800, 427.7539
256.2940, 463.5879
257.5080, 260.5068
258.7220, 361.9043
259.9360, 343.4717
261.1490, 315.5176
262.3630, 456.3896
263.5760, 283.8779
264.7890, 421.4873
266.0020, 435.2861
267.2150, 504.8330
268.4270, 451.7568
269.6400, 436.4668
270.8520, 379.8086
272.0640, 420.8516
273.2760, 416.2480
274.4880, 454.4092
275.7000, 620.6611
276.9120, 951.1064
278.1230, 1019.291
279.3340, 899.2490
280.5450, 620.1553
281.7560, 381.6699
282.9670, 427.0879
284.1780, 304.1973
285.3880, 369.0732
286.5980, 266.7295
287.8090, 262.1670
289.0190, 451.3867
290.2290, 360.3926
291.4380, 485.7949
292.6480, 462.8252
293.8570, 402.6865
295.0670, 390.3799
296.2760, 518.8926
297.4850, 442.2256
298.6930, 466.3545
299.9020, 498.2578
301.1110, 402.9639
302.3190, 461.4443
303.5270, 358.6992
304.7350, 333.7539
305.9430, 308.4141
307.1510, 246.1465
308.3580, 222.3584
309.5660, 376.9121
310.7730, 397.0332
311.9800, 555.9941
313.1870, 292.8066
314.3940, 379.4629
315.6010, 227.7939
316.8070, 256.7979
318.0130, 290.0996
319.2200, 223.9072
320.4260, 366.9150
321.6310, 219.4072
322.8370, 215.4307
324.0430, 276.7803
325.2480, 169.1172
326.4540, 120.7656
327.6590, 337.6016
328.8640, 145.3740
330.0680, 343.9902
331.2730, 89.97656
332.4780, 341.1143
333.6820, 119.0010
334.8860, 119.6396
336.0900, 127.1221
337.2940, 120.5205
338.4980, 88.85742
339.7010, 244.1191
340.9050, 98.31445
342.1080, 26.44238
343.3110, 239.5098
344.5140, 145.5264
345.7170, 100.4863
346.9200, 21.39355
348.1220, 172.2490
349.3240, 16.94043
350.5270, 147.8115
351.7290, 14.50977
352.9310, 43.62012
354.1320, 92.78516
355.3340, 88.36621
356.5350, 62.82324
357.7370, 35.66211
358.9380, 66.87891
360.1390, 34.13281
361.3400, 73.20801
362.5400, 131.0908
363.7410, 40.61328
364.9410, 41.15918
366.1410, 55.51172
367.3410, 71.52344
368.5410, 36.34180
369.7410, 52.55859
370.9400, 13.30176
372.1400, 18.10449
373.3390, 48.80859
374.5380, 44.20117
375.7370, 129.8906
376.9360, 44.83984
378.1350, 22.45605
379.3330, 3.796875
380.5310, 31.95020
381.7300, 63.93848
382.9280, 13.66895
384.1260, 13.19824
385.3230, 31.46289
386.5210, 51.36621
387.7180, 13.60742
388.9160, 98.23145
390.1130, 97.61133
391.3100, 1.882813
392.5060, 31.45898
393.7030, 103.2930
394.9000, 113.5010
396.0960, 195.9395
397.2920, 62.33203
398.4880, 103.6162
399.6840, 3.262695
400.8800, 227.0088
402.0750, 207.8896
403.2710, 163.1699
404.4660, 232.3330
405.6610, 223.3740
406.8560, 241.0010
408.0510, 174.9082
409.2450, 172.3926
410.4400, 299.9346
411.6340, 131.7725
412.8280, 257.3945
414.0220, 273.9561
415.2160, 29.28711
416.4100, 109.7920
417.6030, 105.2793
418.7970, 46.93164
419.9900, 161.7891
421.1830, 8.587891
422.3760, 68.49414
423.5690, 62.06738
424.7610, 123.6104
425.9540, 107.5654
427.1460, 201.6465
428.3380, 323.1523
429.5300, 252.8672
430.7220, 424.0977
431.9140, 241.2490
433.1050, 230.1328
434.2970, 319.5791
435.4880, 589.5010
436.6790, 445.2754
437.8700, 377.7500
439.0610, 333.1260
440.2510, 307.5254
441.4420, 425.4980
442.6320, 287.0605
443.8220, 412.7188
445.0120, 309.9395
446.2020, 363.3809
447.3910, 352.3965
448.5810, 235.3008
449.7700, 330.0996
450.9600, 411.6914
452.1490, 404.1895
453.3370, 407.3379
454.5260, 372.5410
455.7150, 321.2637
456.9030, 272.0586
458.0910, 312.1895
459.2800, 257.1680
460.4670, 273.3828
461.6550, 250.0996
462.8430, 190.5840
464.0300, 261.6777
465.2180, 14.14453
466.4050, 126.5938
467.5920, 120.2891
468.7790, 63.47656
469.9650, 101.4609
471.1520, 29.36328
472.3380, 197.4570
473.5250, 232.3809
474.7110, 64.07422
475.8970, 44.97852
477.0820, 92.94141
478.2680, 215.9199
479.4540, 167.9316
480.6390, 123.9160
481.8240, 172.6738
483.0090, 305.1719
484.1940, 418.0312
485.3780, 335.2988
486.5630, 298.7773
487.7470, 299.8652
488.9320, 325.7676
490.1160, 383.0469
491.3000, 361.2500
492.4830, 515.1172
493.6670, 433.2188
494.8500, 571.4941
496.0340, 504.0254
497.2170, 632.9297
498.4000, 624.8008
499.5820, 461.7207
500.7650, 571.2402
501.9480, 550.2031
503.1300, 588.9668
504.3120, 648.3262
505.4940, 674.1152
506.6760, 694.0176
507.8580, 781.9531
509.0390, 766.9629
510.2210, 647.1621
511.4020, 512.2402
512.5830, 579.4082
513.7640, 578.8379
514.9450, 715.9785
516.1250, 842.3125
517.3060, 520.8379
518.4860, 590.5527
519.6660, 445.1172
520.8460, 568.3945
522.0260, 458.5508
523.2060, 339.0312
524.3850, 501.2715
525.5650, 510.8145
526.7440, 294.0508
527.9230, 603.8086
529.1020, 319.0840
530.2810, 312.8477
531.4590, 374.2793
532.6380, 317.4941
533.8160, 363.4141
534.9940, 368.5684
536.1720, 332.0703
537.3500, 374.6719
538.5270, 140.6465
539.7050, 446.0781
540.8820, 461.6973
542.0590, 528.9043
543.2360, 321.8887
544.4130, 407.8750
545.5900, 339.7969
546.7660, 428.7871
547.9430, 441.7773
549.1190, 400.7676
550.2950, 466.7637
551.4710, 455.7598
552.6470, 431.7559
553.8220, 379.6348
554.9980, 456.6543
556.1730, 464.0430
557.3480, 486.8711
558.5230, 566.0820
559.6980, 550.0215
560.8730, 586.7949
562.0470, 609.9121
563.2220, 705.0117
564.3960, 706.7344
565.5700, 738.9277
566.7440, 763.0156
567.9170, 799.3574
569.0910, 858.8652
570.2640, 961.4102
571.4380, 956.9199
572.6110, 1187.287
573.7840, 1064.152
574.9570, 1078.838
576.1290, 939.1191
577.3020, 906.8398
578.4740, 953.3828
579.6460, 999.7578
580.8180, 1039.598
581.9900, 877.2695
583.1620, 913.2031
584.3330, 1113.605
585.5040, 972.0977
586.6760, 1124.188
587.8470, 1004.586
589.0180, 1252.025
590.1880, 1325.838
591.3590, 1091.176
592.5290, 1188.979
593.7000, 1460.367
594.8700, 1509.320
596.0400, 1816.781
597.2090, 1699.863
598.3790, 1897.387
599.5490, 2079.543
600.7180, 2046.371
601.8870, 2230.207
603.0560, 2306.805
604.2250, 2631.514
605.3940, 2612.129
606.5620, 2816.930
607.7300, 2619.357
608.8990, 2917.721
610.0670, 3050.633
611.2350, 3143.531
612.4020, 3478.498
613.5700, 3365.793
614.7370, 3474.076
615.9050, 3665.764
617.0720, 3389.131
618.2390, 3514.559
619.4060, 3168.635
620.5720, 3101.207
621.7390, 3055.797
622.9050, 2711.498
624.0710, 2652.363
625.2370, 2492.934
626.4030, 2715.322
627.5690, 2526.375
628.7340, 2499.066
629.9000, 2364.621
631.0650, 2365.648
632.2300, 2259.285
633.3950, 2265.279
634.5600, 2086.207
635.7240, 2289.021
636.8890, 2250.512
638.0530, 2391.656
639.2170, 2291.182
640.3810, 2215.914
641.5450, 2298.736
642.7080, 2231.246
643.8720, 2243.018
645.0350, 2051.525
646.1980, 2176.424
647.3610, 2157.949
648.5240, 2170.461
649.6870, 2255.959
650.8490, 2294.443
652.0120, 2015.918
653.1740, 1891.379
654.3360, 1952.828
655.4980, 1858.266
656.6600, 1825.688
657.8210, 1795.215
658.9830, 1818.506
660.1440, 1692.898
661.3050, 1693.277
662.4660, 1647.641
663.6270, 1518.078
664.7870, 1673.424
665.9480, 1388.150
667.1080, 1454.465
668.2680, 1300.756
669.4280, 1271.039
670.5880, 1290.363
671.7480, 1014.834
672.9070, 1047.068
674.0670, 1047.285
675.2260, 1036.480
676.3850, 992.0391
677.5440, 905.2637
678.7030, 719.3848
679.8610, 640.9082
681.0200, 734.6211
682.1780, 601.9766
683.3360, 618.1230
684.4940, 559.3359
685.6520, 642.4668
686.8090, 696.6602
687.9670, 514.1504
689.1240, 411.6426
690.2810, 448.6973
691.4380, 405.2344
692.5950, 226.3340
693.7520, 460.0781
694.9080, 293.2891
696.0650, 298.1777
697.2210, 368.9922
698.3770, 151.6328
699.5330, 153.2969
700.6880, 359.6426
701.8440, 54.42383
702.9990, 169.6602
704.1550, 185.6035
705.3100, 142.7754
706.4650, 123.5078
707.6190, 119.1973
708.7740, 113.2129
709.9290, 142.5977
711.0830, 179.4355
712.2370, 199.1035
713.3910, 319.6914
714.5450, 354.9922
715.6980, 136.6445
716.8520, 190.4941
718.0050, 249.1152
719.1580, 160.3789
720.3110, 201.7402
721.4640, 141.4961
722.6170, 39.06445
723.7700, 20.21289
724.9220, 33.20898
726.0740, 132.9004
727.2260, 84.90625
728.3780, 106.0352
729.5300, 2.160156
730.6810, 88.39062
731.8330, 1.449219
732.9840, 169.6426
734.1350, 158.5039
735.2860, 104.1445
736.4370, 53.39648
737.5880, 147.3164
738.7380, 25.49414
739.8880, 31.37695
741.0390, 48.49023
742.1890, 81.66992
743.3380, 72.93750
744.4880, 0.1191410
745.6380, 125.1523
746.7870, 31.32812
747.9360, 173.5098
749.0850, 250.5840
750.2340, 233.4512
751.3830, 155.4102
752.5310, 162.4082
753.6800, 76.34180
754.8280, 38.03906
755.9760, 128.8711
757.1240, 212.6289
758.2720, 93.28711
759.4190, 350.7520
760.5670, 298.9375
761.7140, 258.2031
762.8610, 383.9180
764.0080, 131.1836
765.1550, 209.3906
766.3020, 174.5469
767.4480, 208.1777
768.5950, 214.0020
769.7410, 305.2168
770.8870, 220.1582
772.0330, 234.0469
773.1780, 259.8809
774.3240, 97.66406
775.4690, 176.6074
776.6140, 344.0566
777.7590, 277.6719
778.9040, 256.2383
780.0490, 433.7500
781.1940, 263.2129
782.3380, 386.6191
783.4820, 240.9785
784.6260, 576.2793
785.7700, 484.7012
786.9140, 460.2617
788.0580, 532.8809
789.2010, 335.9766
790.3450, 431.0254
791.4880, 406.0195
792.6310, 354.6055
793.7730, 482.5176
794.9160, 548.1426
796.0590, 554.8457
797.2010, 326.2480
798.3430, 401.3613
799.4850, 354.6914
800.6270, 302.9824
801.7690, 420.7031
802.9100, 226.0723
804.0520, 340.9961
805.1930, 332.2812
806.3340, 380.0859
807.4750, 305.3398
808.6160, 268.3809
809.7560, 353.9004
810.8970, 376.1738
812.0370, 359.2520
813.1770, 223.2812
814.3170, 297.2578
815.4570, 381.1836
816.5960, 213.0586
817.7360, 159.8809
818.8750, 239.6484
820.0140, 282.3633
821.1530, 259.1797
822.2920, 270.6426
823.4310, 249.2051
824.5690, 170.7188
825.7070, 162.1758
826.8460, 259.5820
827.9840, 135.9375
829.1220, 232.2344
830.2590, 30.51758
831.3970, 190.6309
832.5340, 2.275391
833.6710, 75.73242
834.8080, 95.31836
835.9450, 80.52734
837.0820, 116.1035
838.2190, 20.26367
839.3550, 123.7734
840.4910, 184.2344
841.6270, 20.66992
842.7630, 7.126953
843.8990, 71.10938
845.0350, 62.73438
846.1700, 100.5117
847.3060, 77.18750
848.4410, 178.9785
849.5760, 187.7949
850.7100, 39.39648
851.8450, 141.6895
852.9800, 34.52148
854.1140, 0.2539060
855.2480, 202.8750
856.3820, 172.9238
857.5160, 65.83984
858.6500, 18.55469
859.7830, 46.51562
860.9170, 72.44336
862.0500, 109.7227
863.1830, 143.6445
864.3160, 140.8242
865.4480, 102.6035
866.5810, 109.7500
867.7130, 39.09570
868.8460, 46.19141
869.9780, 33.88672
871.1100, 95.41602
872.2410, 132.7246
873.3730, 59.61133
874.5050, 130.7344
875.6360, 86.16992
876.7670, 124.9766
877.8980, 51.03711
879.0290, 63.09961
880.1590, 70.20703
881.2900, 105.3301
882.4200, 112.3125
883.5500, 92.31836
884.6800, 104.4297
885.8100, 14.17188
886.9400, 102.1035
888.0690, 52.97656
889.1990, 20.82617
890.3280, 141.3223
891.4570, 22.97266
892.5860, 66.63281
893.7140, 74.55078
894.8430, 148.9395
895.9710, 176.8223
897.1000, 81.46289
898.2280, 234.4512
899.3560, 202.6953
900.4830, 231.0938
901.6110, 335.7910
902.7380, 37.68750
903.8660, 222.9316
904.9930, 449.5449
906.1200, 529.5137
907.2460, 217.1172
908.3730, 226.7559
909.5000, 423.4746
910.6260, 325.4844
911.7520, 501.8066
912.8780, 372.7402
914.0040, 355.4355
915.1290, 419.0195
916.2550, 321.8828
917.3800, 407.4492
918.5050, 467.2676
919.6300, 402.6953
920.7550, 431.4707
921.8800, 379.2227
923.0040, 381.9551
924.1290, 543.6680
925.2530, 379.3965
926.3770, 396.1621
927.5010, 475.9434
928.6250, 652.7051
929.7480, 596.4688
930.8720, 526.2285
931.9950, 584.9727
933.1180, 493.6992
934.2410, 701.4102
935.3640, 705.1016
936.4860, 761.1445
937.6090, 842.3926
938.7310, 948.6680
939.8530, 668.3301
940.9750, 873.9785
942.0970, 849.6211
943.2180, 820.1914
944.3400, 939.5918
945.4610, 1040.213
946.5820, 1046.836
947.7030, 1128.471
948.8240, 1264.711
949.9450, 1281.264
951.0650, 1410.307
952.1860, 1460.111
953.3060, 1601.086
954.4260, 1581.385
955.5460, 1640.910
956.6650, 1741.330
957.7850, 2066.805
958.9040, 1998.182
960.0230, 2482.227
961.1420, 2636.227
962.2610, 2641.631
963.3800, 2831.510
964.4990, 3038.791
965.6170, 3447.387
966.7350, 4218.496
967.8530, 4618.891
968.9710, 4895.320
970.0890, 5579.891
971.2070, 6787.400
972.3240, 7566.195
973.4410, 8692.521
974.5580, 9712.355
975.6750, 11277.46
976.7920, 13123.31
977.9090, 15219.56
979.0250, 17547.81
980.1410, 19922.12
981.2580, 22298.58
982.3740, 24890.19
983.4890, 27195.32
984.6050, 29236.50
985.7200, 28772.93
986.8360, 28140.42
987.9510, 26286.77
989.0660, 23611.76
990.1810, 20792.09
991.2950, 17219.27
992.4100, 14162.89
993.5240, 11796.93
994.6390, 9522.213
995.7530, 8265.031
996.8660, 6993.064
997.9800, 6058.336
999.0940, 5561.666
1000.207, 4920.920
1001.320, 4611.234
1002.433, 4414.316
1003.546, 3945.199
1004.659, 3795.285
1005.772, 3676.781
1006.884, 3513.021
1007.996, 3769.480
1009.108, 3478.322
1010.220, 3470.061
1011.332, 3278.498
1012.444, 3125.191
1013.555, 2957.023
1014.666, 2916.488
1015.777, 3064.574
1016.888, 3079.721
1017.999, 3049.820
1019.110, 2941.000
1020.220, 3045.354
1021.331, 2930.580
1022.441, 2876.732
1023.551, 2765.914
1024.661, 2921.301
1025.770, 2887.508
1026.880, 2960.758
1027.989, 2960.070
1029.098, 2918.541
1030.207, 3095.031
1031.316, 3071.471
1032.425, 3080.998
1033.533, 3148.213
1034.642, 3212.111
1035.750, 3242.699
1036.858, 3396.064
1037.966, 3552.697
1039.073, 3415.352
1040.181, 3799.773
1041.288, 3891.473
1042.396, 3839.189
1043.503, 3816.930
1044.610, 3907.691
1045.716, 4115.480
1046.823, 3941.287
1047.929, 3894.117
1049.036, 3707.969
1050.142, 3786.842
1051.248, 3967.736
1052.353, 3785.654
1053.459, 3832.596
1054.564, 3640.750
1055.670, 3652.734
1056.775, 3646.742
1057.880, 3551.803
1058.985, 3661.492
1060.089, 3684.482
1061.194, 3517.621
1062.298, 3746.955
1063.402, 3639.473
1064.506, 3810.359
1065.610, 3724.539
1066.713, 4144.742
1067.817, 4290.963
1068.920, 4706.203
1070.023, 4878.742
1071.126, 5137.029
1072.229, 5269.340
1073.332, 5685.672
1074.435, 5966.289
1075.537, 6163.664
1076.639, 6208.156
1077.741, 6013.852
1078.843, 6017.135
1079.945, 5925.143
1081.046, 5658.467
1082.148, 5547.650
1083.249, 5429.875
1084.350, 5244.279
1085.451, 4999.787
1086.551, 4520.318
1087.652, 4357.164
1088.752, 4059.773
1089.853, 3760.158
1090.953, 3627.301
1092.053, 3182.166
1093.152, 2968.506
1094.252, 2777.270
1095.351, 2480.055
1096.451, 2430.867
1097.550, 2203.959
1098.649, 2244.121
1099.748, 1996.031
1100.846, 2061.980
1101.945, 2216.957
1103.043, 1905.002
1104.141, 1989.246
1105.239, 2072.379
1106.337, 1861.555
1107.434, 1709.916
1108.532, 1720.145
1109.629, 1624.410
1110.726, 1713.170
1111.823, 1625.537
1112.920, 1751.930
1114.017, 1522.393
1115.113, 1579.881
1116.210, 1615.396
1117.306, 1952.936
1118.402, 1695.527
1119.498, 1769.195
1120.593, 1791.912
1121.689, 1686.668
1122.784, 1883.518
1123.879, 1771.393
1124.974, 1858.297
1126.069, 1634.244
1127.164, 1839.219
1128.259, 1479.225
1129.353, 1656.254
1130.447, 1646.309
1131.541, 1303.389
1132.635, 1368.492
1133.729, 1337.621
1134.822, 1205.537
1135.916, 1405.977
1137.009, 1107.203
1138.102, 1050.455
1139.195, 1032.771
1140.288, 816.1094
1141.380, 826.5117
1142.473, 839.9395
1143.565, 667.4238
1144.657, 657.9316
1145.749, 447.4824
1146.841, 439.0762
1147.932, 442.6914
1149.024, 362.4082
1150.115, 432.9883
1151.206, 417.6660
1152.297, 463.0625
1153.388, 457.5000
1154.479, 422.9922
1155.569, 416.6523
1156.659, 346.4629
1157.750, 278.3008
1158.839, 259.1602
1159.929, 198.0371
1161.019, 80.93750
1162.108, 125.8555
1163.198, 313.7949
1164.287, 275.7520
1165.376, 170.7285
1166.465, 179.7266
1167.553, 12.25781
1168.642, 22.77930
1169.730, 101.8359
1170.818, 92.08594
1171.906, 164.9727
1172.994, 217.0527
1174.082, 18.15039
1175.170, 18.26562
1176.257, 17.39844
1177.344, 89.54883
1178.431, 54.71875
1179.518, 36.90625
1180.605, 35.11523
1181.691, 22.65039
1182.778, 23.58398
1183.864, 35.84375
1184.950, 3.880859
1186.036, 28.40820
1187.122, 18.71875
1188.207, 160.9590
1189.292, 250.6875
1190.378, 157.5215
1191.463, 3.591797
1192.548, 88.27734
1193.632, 71.16797
1194.717, 15.07031
1195.801, 35.03125
1196.886, 54.15039
1197.970, 13.29492
1199.054, 19.54688
1200.137, 140.3809
1201.221, 89.74023
1202.305, 173.8770
1203.388, 117.0391
1204.471, 63.76953
1205.554, 51.40820
1206.637, 58.62305
1207.719, 83.14648
1208.802, 72.93945
1209.884, 103.7539
1210.966, 32.60547
1212.048, 51.46094
1213.130, 104.3262
1214.212, 82.81445
1215.293, 140.9844
1216.374, 127.6973
1217.456, 218.6328
1218.536, 161.4707
1219.617, 52.41406
1220.698, 46.68359
1221.778, 46.83984
1222.859, 112.0078
1223.939, 126.5215
1225.019, 85.43945
1226.099, 103.6816
1227.178, 55.93945
1228.258, 40.78516
1229.337, 73.48047
1230.417, 112.7617
1231.496, 124.0605
1232.574, 249.3926
1233.653, 11.25586
1234.732, 165.1152
1235.810, 140.4980
1236.888, 68.10742
1237.966, 108.2598
1239.044, 108.6367
1240.122, 5.027344
1241.199, 447.4199
1242.277, 113.8535
1243.354, 178.2969
1244.431, 94.75586
1245.508, 337.2246
1246.585, 354.7070
1247.661, 306.2246
1248.738, 245.7500
1249.814, 191.2871
1250.890, 178.6777
1251.966, 172.2520
1253.042, 164.9766
1254.117, 230.5566
1255.193, 236.1504
1256.268, 315.7520
1257.343, 307.3594
1258.418, 271.9785
1259.493, 430.6094
1260.567, 492.2520
1261.642, 465.9004
1262.716, 228.5586
1263.790, 480.2266
1264.864, 313.9004
1265.938, 339.5918
1267.011, 401.2910
1268.085, 354.0020
1269.158, 480.7168
1270.231, 483.4375
1271.304, 651.1621
1272.377, 572.9062
1273.450, 707.6504
1274.522, 596.3965
1275.594, 643.1445
1276.666, 339.8965
1277.738, 745.6504
1278.810, 548.4102
1279.882, 476.1699
1280.953, 701.9297
1282.025, 522.6914
1283.096, 755.4531
1284.167, 711.2168
1285.238, 460.9805
1286.308, 805.7480
1287.379, 549.5117
1288.449, 665.2734
1289.519, 671.0293
1290.589, 467.7832
1291.659, 688.5371
1292.729, 753.2871
1293.798, 664.0391
1294.868, 725.7871
1295.937, 806.5293
1297.006, 747.9805
1298.075, 873.7109
1299.143, 890.4336
1300.212, 1086.402
1301.280, 900.1113
1302.348, 942.8145
1303.416, 1130.504
1304.484, 928.1855
