##NAMES=Triplite
##RRUFFID=R050226
##IDEAL CHEMISTRY=Mn^2+^_2_(PO_4_)F
##LOCALITY=Fremont County, Colorado, USA
##OWNER=RRUFF
##SOURCE=Marcus Origlieri
##DESCRIPTION=Reddish brown massive
##STATUS=The identification of this mineral has been confirmed by X-ray diffraction and chemical analysis
##URL=rruff.info/R050226
##MEASURED CHEMISTRY=(Mn^2+^_1.20_Mg_0.49_Fe^2+^_0.27_Ca_0.04_)_Σ=2_(P_1.00_O_4_)(F_0.95_(OH)_0.05_)_Σ=1_
##PIN_ID=L00312
##ORIENTATION=Laser parallel to (1 0 1). Fiducial mark perpendicular to laser is parallel to b [0 1 0]
129.2090, 0.0000000E+00
130.4390, 198.1826
131.6680, 441.6514
132.8980, 680.8623
134.1270, 533.4932
135.3560, 299.9551
136.5850, 229.7568
137.8140, 87.44531
139.0430, 264.2803
140.2710, 648.7500
141.5000, 494.4775
142.7280, 707.6104
143.9560, 474.4688
145.1840, 163.7070
146.4120, 207.5645
147.6390, 195.6123
148.8670, 359.8623
150.0940, 259.1426
151.3210, 788.9678
152.5490, 594.4551
153.7750, 670.8779
155.0020, 554.0283
156.2290, 453.6992
157.4550, 363.9541
158.6810, 231.1367
159.9080, 98.95996
161.1340, 40.61816
162.3590, 116.5615
163.5850, 53.15039
164.8110, 689.7021
166.0360, 1073.344
167.2610, 1043.558
168.4860, 551.7422
169.7110, 372.6104
170.9360, 543.4922
172.1610, 788.9834
173.3850, 696.0410
174.6100, 258.0879
175.8340, 214.0488
177.0580, 296.1826
178.2820, 191.3320
179.5050, 229.0195
180.7290, 320.3076
181.9520, 259.7578
183.1760, 208.2178
184.3990, 221.6533
185.6220, 252.6445
186.8450, 318.5635
188.0670, 389.9287
189.2900, 523.7490
190.5120, 598.8564
191.7340, 696.5977
192.9560, 828.9922
194.1780, 873.6963
195.4000, 1079.430
196.6220, 843.6914
197.8430, 1123.095
199.0640, 1128.600
200.2860, 1068.202
201.5070, 1480.828
202.7270, 1676.629
203.9480, 1724.633
205.1690, 1432.639
206.3890, 685.7861
207.6090, 130.9551
208.8290, 78.92188
210.0490, 198.1318
211.2690, 155.2158
212.4890, 97.65820
213.7080, 382.4883
214.9280, 648.2715
216.1470, 363.0078
217.3660, 80.69141
218.5850, 192.6475
219.8030, 168.4863
221.0220, 334.6240
222.2400, 455.8672
223.4590, 551.5273
224.6770, 614.4932
225.8950, 536.1309
227.1120, 604.9258
228.3300, 355.9131
229.5480, 186.5068
230.7650, 213.6240
231.9820, 15.54102
233.1990, 7.746094
234.4160, 81.56836
235.6330, 83.81934
236.8490, 144.5732
238.0660, 156.6709
239.2820, 85.56152
240.4980, 240.4482
241.7140, 377.3320
242.9300, 241.4512
244.1460, 399.2402
245.3610, 387.4375
246.5770, 287.3652
247.7920, 352.2246
249.0070, 260.5215
250.2220, 298.1953
251.4370, 315.0674
252.6510, 247.6973
253.8660, 385.6162
255.0800, 470.5459
256.2940, 485.7549
257.5080, 264.9580
258.7220, 348.3994
259.9360, 309.0576
261.1490, 264.8379
262.3630, 389.5557
263.5760, 201.6113
264.7890, 323.2266
266.0020, 321.1904
267.2150, 360.6191
268.4270, 145.0889
269.6400, 177.5020
270.8520, 3.856445
272.0640, 154.1582
273.2760, 17.37793
274.4880, 106.5068
275.7000, 247.0820
276.9120, 637.9688
278.1230, 588.9707
279.3340, 495.0000
280.5450, 380.0029
281.7560, 362.9502
282.9670, 431.0596
284.1780, 361.5928
285.3880, 596.2363
286.5980, 740.7695
287.8090, 663.1982
289.0190, 875.5244
290.2290, 864.7529
291.4380, 1007.753
292.6480, 1080.369
293.8570, 1110.926
295.0670, 1047.421
296.2760, 912.8301
297.4850, 1018.153
298.6930, 884.3916
299.9020, 1046.545
301.1110, 786.6191
302.3190, 713.6104
303.5270, 638.5195
304.7350, 599.3506
305.9430, 490.1055
307.1510, 347.3623
308.3580, 486.7314
309.5660, 328.0254
310.7730, 441.4873
311.9800, 273.8955
313.1870, 268.1924
314.3940, 57.42676
315.6010, 3.675781
316.8070, 161.9316
318.0130, 80.48535
319.2200, 244.9639
320.4260, 181.9590
321.6310, 91.20312
322.8370, 154.9980
324.0430, 91.36914
325.2480, 30.28516
326.4540, 73.37012
327.6590, 45.34277
328.8640, 48.08789
330.0680, 135.7842
331.2730, 40.51562
332.4780, 38.17871
333.6820, 64.77344
334.8860, 201.2988
336.0900, 95.76270
337.2940, 53.83789
338.4980, 47.47656
339.7010, 79.27539
340.9050, 1.124023
342.1080, 47.04590
343.3110, 78.94727
344.5140, 31.87793
345.7170, 80.29492
346.9200, 56.59180
348.1220, 51.64746
349.3240, 88.94336
350.5270, 167.2549
351.7290, 186.6484
352.9310, 29.91113
354.1320, 56.72949
355.3340, 6.624023
356.5350, 45.82715
357.7370, 83.60156
358.9380, 98.37012
360.1390, 29.18945
361.3400, 33.10645
362.5400, 24.51172
363.7410, 15.98145
364.9410, 23.70312
366.1410, 108.0645
367.3410, 6.229492
368.5410, 70.38672
369.7410, 48.95898
370.9400, 0.4570310
372.1400, 46.88867
373.3390, 9.250000
374.5380, 13.03613
375.7370, 73.86426
376.9360, 20.95410
378.1350, 113.0410
379.3330, 15.64160
380.5310, 196.7334
381.7300, 85.40625
382.9280, 241.2383
384.1260, 180.5664
385.3230, 136.4678
386.5210, 172.6768
387.7180, 278.4678
388.9160, 244.9082
390.1130, 275.1406
391.3100, 206.0938
392.5060, 256.2822
393.7030, 389.8584
394.9000, 356.7256
396.0960, 481.4316
397.2920, 405.8115
398.4880, 578.7275
399.6840, 639.5654
400.8800, 531.3740
402.0750, 620.6318
403.2710, 761.2148
404.4660, 943.6133
405.6610, 909.8057
406.8560, 998.4834
408.0510, 969.3770
409.2450, 1026.762
410.4400, 1035.792
411.6340, 925.6309
412.8280, 996.1201
414.0220, 985.8330
415.2160, 848.9219
416.4100, 668.4629
417.6030, 595.3398
418.7970, 595.4678
419.9900, 668.3721
421.1830, 607.7676
422.3760, 700.1201
423.5690, 772.4307
424.7610, 884.6953
425.9540, 910.8398
427.1460, 922.0215
428.3380, 909.0635
429.5300, 904.0420
430.7220, 892.2295
431.9140, 874.2383
433.1050, 922.2148
434.2970, 939.1543
435.4880, 925.5342
436.6790, 978.9180
437.8700, 908.7461
439.0610, 902.5361
440.2510, 905.2930
441.4420, 961.0146
442.6320, 1126.700
443.8220, 1129.352
445.0120, 1212.971
446.2020, 1299.556
447.3910, 1273.107
448.5810, 1439.627
449.7700, 1498.115
450.9600, 1801.370
452.1490, 1780.847
453.3370, 2070.025
454.5260, 2004.441
455.7150, 2164.329
456.9030, 2188.158
458.0910, 2258.476
459.2800, 2222.788
460.4670, 2029.540
461.6550, 2023.141
462.8430, 1861.740
464.0300, 1614.055
465.2180, 1590.724
466.4050, 1411.877
467.5920, 1453.506
468.7790, 1090.004
469.9650, 999.4219
471.1520, 1024.368
472.3380, 830.3662
473.5250, 785.2988
474.7110, 701.6621
475.8970, 658.8389
477.0820, 542.0645
478.2680, 550.2227
479.4540, 512.7393
480.6390, 440.6660
481.8240, 441.5234
483.0090, 365.2920
484.1940, 403.2207
485.3780, 445.2754
486.5630, 458.5732
487.7470, 383.1201
488.9320, 268.1143
490.1160, 399.6074
491.3000, 499.4229
492.4830, 412.7520
493.6670, 294.5615
494.8500, 285.4385
496.0340, 376.6777
497.2170, 435.6895
498.4000, 391.7383
499.5820, 374.9150
500.7650, 322.5098
501.9480, 337.4277
503.1300, 377.5205
504.3120, 260.7422
505.4940, 265.7021
506.6760, 170.6270
507.8580, 190.3389
509.0390, 124.0176
510.2210, 207.8848
511.4020, 76.34082
512.5830, 118.6162
513.7640, 230.9512
514.9450, 178.2041
516.1250, 184.0605
517.3060, 190.9844
518.4860, 61.53809
519.6660, 49.49023
520.8460, 190.8486
522.0260, 24.14062
523.2060, 94.12109
524.3850, 65.39844
525.5650, 18.41895
526.7440, 37.48730
527.9230, 119.7480
529.1020, 72.90625
530.2810, 18.35938
531.4590, 124.4814
532.6380, 6.730469
533.8160, 0.6933590
534.9940, 37.86328
536.1720, 0.3076170
537.3500, 60.74512
538.5270, 91.17969
539.7050, 83.61230
540.8820, 89.06934
542.0590, 47.55273
543.2360, 229.0684
544.4130, 134.6191
545.5900, 118.1934
546.7660, 46.79199
547.9430, 187.3877
549.1190, 210.9824
550.2950, 236.5742
551.4710, 169.1650
552.6470, 211.7637
553.8220, 152.3848
554.9980, 107.0381
556.1730, 285.7139
557.3480, 263.4258
558.5230, 242.1445
559.6980, 190.8779
560.8730, 271.6152
562.0470, 366.3545
563.2220, 215.0898
564.3960, 305.8203
565.5700, 299.5742
566.7440, 276.3262
567.9170, 529.1152
569.0910, 359.9033
570.2640, 519.6904
571.4380, 515.4775
572.6110, 563.3008
573.7840, 582.1367
574.9570, 468.9922
576.1290, 671.8770
577.3020, 651.7871
578.4740, 576.6943
579.6460, 713.6504
580.8180, 618.8232
581.9900, 715.5908
583.1620, 555.5762
584.3330, 599.5566
585.5040, 598.5752
586.6760, 765.6318
587.8470, 687.6953
589.0180, 721.8057
590.1880, 758.8789
591.3590, 801.9482
592.5290, 899.4521
593.7000, 831.8418
594.8700, 1005.900
596.0400, 1039.968
597.2090, 1228.178
598.3790, 1287.656
599.5490, 1505.741
600.7180, 1985.060
601.8870, 1647.503
603.0560, 1813.152
604.2250, 2198.996
605.3940, 1982.424
606.5620, 1943.857
607.7300, 2104.211
608.8990, 2211.967
610.0670, 1904.781
611.2350, 2104.525
612.4020, 2147.729
613.5700, 2068.883
614.7370, 2134.436
615.9050, 2116.439
617.0720, 2075.586
618.2390, 2079.186
619.4060, 1840.592
620.5720, 1855.736
621.7390, 1629.535
622.9050, 1589.833
624.0710, 1380.154
625.2370, 1432.123
626.4030, 1398.216
627.5690, 1237.582
628.7340, 1122.147
629.9000, 1216.571
631.0650, 1103.338
632.2300, 1223.961
633.3950, 1124.664
634.5600, 1064.007
635.7240, 1085.864
636.8890, 1324.979
638.0530, 1045.050
639.2170, 1027.753
640.3810, 1249.314
641.5450, 1014.848
642.7080, 1178.213
643.8720, 1264.575
645.0350, 1230.627
646.1980, 1249.445
647.3610, 1230.462
648.5240, 1210.746
649.6870, 1111.106
650.8490, 1260.653
652.0120, 1127.267
653.1740, 1104.751
654.3360, 1201.300
655.4980, 1154.747
656.6600, 1231.211
657.8210, 1357.682
658.9830, 958.4980
660.1440, 1067.869
661.3050, 1079.480
662.4660, 1038.653
663.6270, 1007.439
664.7870, 897.8154
665.9480, 902.3242
667.1080, 960.1572
668.2680, 733.8438
669.4280, 950.0215
670.5880, 792.3896
671.7480, 649.9990
672.9070, 801.7881
674.0670, 767.8574
675.2260, 743.6543
676.3850, 841.7422
677.5440, 721.8184
678.7030, 935.5498
679.8610, 764.7559
681.0200, 802.1768
682.1780, 696.4873
683.3360, 807.4785
684.4940, 711.3057
685.6520, 743.9863
686.8090, 835.3672
687.9670, 872.3008
689.1240, 800.9746
690.2810, 838.2822
691.4380, 783.6855
692.5950, 914.5918
693.7520, 790.3760
694.9080, 844.0244
696.0650, 853.1504
697.2210, 783.6309
698.3770, 979.7568
699.5330, 811.6689
700.6880, 801.4287
701.8440, 887.8037
702.9990, 755.0322
704.1550, 696.5830
705.3100, 806.8379
706.4650, 744.0752
707.6190, 717.2803
708.7740, 508.8340
709.9290, 647.8906
711.0830, 636.1836
712.2370, 823.3018
713.3910, 621.7188
714.5450, 484.0010
715.6980, 436.7031
716.8520, 506.5605
718.0050, 467.6387
719.1580, 541.5830
720.3110, 346.2012
721.4640, 242.1133
722.6170, 234.5615
723.7700, 308.8779
724.9220, 237.8213
726.0740, 334.6914
727.2260, 200.0166
728.3780, 277.6943
729.5300, 305.1719
730.6810, 105.6279
731.8330, 131.9219
732.9840, 240.1055
734.1350, 300.1572
735.2860, 179.4268
736.4370, 116.1309
737.5880, 247.8662
738.7380, 167.3154
739.8880, 137.5166
741.0390, 89.71680
742.1890, 42.80566
743.3380, 142.6943
744.4880, 141.5498
745.6380, 161.4160
746.7870, 60.54688
747.9360, 63.04980
749.0850, 80.71777
750.2340, 210.3486
751.3830, 223.9463
752.5310, 128.6211
753.6800, 34.14941
754.8280, 314.6387
755.9760, 120.0957
757.1240, 165.5146
758.2720, 235.8994
759.4190, 78.25000
760.5670, 198.5625
761.7140, 200.8408
762.8610, 50.08496
764.0080, 38.28906
765.1550, 198.4502
766.3020, 151.5781
767.4480, 192.6689
768.5950, 116.7246
769.7410, 156.7402
770.8870, 137.3311
772.0330, 222.6621
773.1780, 98.56738
774.3240, 48.43555
775.4690, 21.73926
776.6140, 140.0166
777.7590, 177.7354
778.9040, 183.4160
780.0490, 255.0596
781.1940, 326.6680
782.3380, 65.24121
783.4820, 270.7734
784.6260, 31.26855
785.7700, 299.7188
786.9140, 239.1328
788.0580, 185.5127
789.2010, 164.8535
790.3450, 198.1582
791.4880, 182.4248
792.6310, 205.6533
793.7730, 200.9453
794.9160, 198.0010
796.0590, 179.1201
797.2010, 201.2090
798.3430, 168.2598
799.4850, 121.2744
800.6270, 178.2500
801.7690, 8.200195
802.9100, 66.09473
804.0520, 126.9512
805.1930, 192.7705
806.3340, 47.56934
807.4750, 178.3340
808.6160, 147.0615
809.7560, 62.75098
810.8970, 301.3984
812.0370, 89.01074
813.1770, 214.5830
814.3170, 44.12012
815.4570, 98.61426
816.5960, 70.93164
817.7360, 74.57715
818.8750, 104.9902
820.0140, 100.2285
821.1530, 66.15137
822.2920, 64.21582
823.4310, 152.6250
824.5690, 42.42773
825.7070, 73.18848
826.8460, 155.9092
827.9840, 14.40723
829.1220, 54.78906
830.2590, 85.25684
831.3970, 51.82910
832.5340, 44.10352
833.6710, 14.77930
834.8080, 22.99512
835.9450, 29.16602
837.0820, 34.29297
838.2190, 82.37891
839.3550, 111.4277
840.4910, 71.56055
841.6270, 92.36035
842.7630, 131.7559
843.8990, 91.00391
845.0350, 31.72852
846.1700, 13.41211
847.3060, 119.9502
848.4410, 22.42871
849.5760, 59.97168
850.7100, 90.59668
851.8450, 82.32227
852.9800, 115.8584
854.1140, 169.9941
855.2480, 79.01367
856.3820, 117.0127
857.5160, 69.84961
858.6500, 220.6777
859.7830, 131.5234
860.9170, 132.8428
862.0500, 9.278320
863.1830, 39.76367
864.3160, 72.64941
865.4480, 111.0625
866.5810, 106.4463
867.7130, 135.3623
868.8460, 171.3564
869.9780, 27.34863
871.1100, 111.8887
872.2410, 9.952148
873.3730, 42.28711
874.5050, 38.82324
875.6360, 87.68848
876.7670, 77.39941
877.8980, 92.87695
879.0290, 129.1289
880.1590, 159.7705
881.2900, 113.3799
882.4200, 62.04297
883.5500, 71.72363
884.6800, 123.4111
885.8100, 133.5908
886.9400, 270.2891
888.0690, 78.01660
889.1990, 200.3193
890.3280, 262.1494
891.4570, 133.8174
892.5860, 209.0107
893.7140, 207.3691
894.8430, 161.9678
895.9710, 228.9844
897.1000, 287.3398
898.2280, 316.7529
899.3560, 339.1055
900.4830, 350.1553
901.6110, 332.5117
902.7380, 323.9590
903.8660, 286.9375
904.9930, 305.8877
906.1200, 352.9844
907.2460, 371.9795
908.3730, 283.3115
909.5000, 501.1035
910.6260, 367.6357
911.7520, 477.1953
912.8780, 374.1055
914.0040, 638.1553
915.1290, 398.2100
916.2550, 525.4463
917.3800, 407.6553
918.5050, 566.9160
919.6300, 664.6299
920.7550, 702.3994
921.8800, 505.9521
923.0040, 613.2441
924.1290, 598.6484
925.2530, 578.9346
926.3770, 728.8262
927.5010, 566.3389
928.6250, 713.5459
929.7480, 737.0986
930.8720, 695.4971
931.9950, 755.3242
933.1180, 778.0127
934.2410, 859.0801
935.3640, 842.6621
936.4860, 931.4727
937.6090, 925.4502
938.7310, 918.7900
939.8530, 1091.394
940.9750, 902.2666
942.0970, 868.4629
943.2180, 1201.265
944.3400, 1141.926
945.4610, 1146.870
946.5820, 1435.198
947.7030, 1127.596
948.8240, 1272.510
949.9450, 1491.603
951.0650, 1673.018
952.1860, 1789.961
953.3060, 1853.673
954.4260, 1947.481
955.5460, 2142.603
956.6650, 2316.867
957.7850, 2493.261
958.9040, 2582.930
960.0230, 3096.070
961.1420, 3003.482
962.2610, 3525.294
963.3800, 3776.012
964.4990, 3908.209
965.6170, 4373.540
966.7350, 4896.748
967.8530, 5523.979
968.9710, 6332.615
970.0890, 7222.602
971.2070, 8208.783
972.3240, 9512.097
973.4410, 11089.78
974.5580, 12384.59
975.6750, 15003.05
976.7920, 17167.80
977.9090, 19456.54
979.0250, 22659.30
980.1410, 25841.69
981.2580, 29206.56
982.3740, 32662.17
983.4890, 35483.96
984.6050, 37091.41
985.7200, 37446.86
986.8360, 37332.14
987.9510, 34743.13
989.0660, 31434.87
990.1810, 26699.72
991.2950, 22378.89
992.4100, 18265.74
993.5240, 14812.04
994.6390, 11886.46
995.7530, 9815.850
996.8660, 8266.059
997.9800, 6947.416
999.0940, 6154.404
1000.207, 5252.578
1001.320, 4852.754
1002.433, 4359.074
1003.546, 3936.490
1004.659, 4062.021
1005.772, 3945.320
1006.884, 3613.166
1007.996, 3173.965
1009.108, 3341.035
1010.220, 3202.336
1011.332, 3065.621
1012.444, 3113.000
1013.555, 2905.561
1014.666, 2856.139
1015.777, 2896.691
1016.888, 2627.057
1017.999, 2633.820
1019.110, 2766.496
1020.220, 2777.193
1021.331, 2815.607
1022.441, 2700.531
1023.551, 2833.285
1024.661, 2792.061
1025.770, 2740.854
1026.880, 2887.668
1027.989, 2811.500
1029.098, 2832.355
1030.207, 2973.230
1031.316, 3018.127
1032.425, 2899.043
1033.533, 3168.311
1034.642, 3245.273
1035.750, 3363.256
1036.858, 3236.262
1037.966, 3338.289
1039.073, 3571.338
1040.181, 3243.408
1041.288, 3620.502
1042.396, 3522.617
1043.503, 3587.754
1044.610, 3317.918
1045.716, 3441.119
1046.823, 3540.346
1047.929, 3560.594
1049.036, 3432.865
1050.142, 3160.158
1051.248, 3076.473
1052.353, 3032.814
1053.459, 2968.176
1054.564, 2904.566
1055.670, 2651.148
1056.775, 2619.668
1057.880, 2731.877
1058.985, 2496.361
1060.089, 2496.867
1061.194, 2318.396
1062.298, 2141.951
1063.402, 2351.527
1064.506, 2374.129
1065.610, 2202.783
1066.713, 2042.432
1067.817, 2129.146
1068.920, 1973.400
1070.023, 2041.281
1071.126, 1888.867
1072.229, 2060.658
1073.332, 2142.959
1074.435, 2128.398
1075.537, 1882.256
1076.639, 1999.141
1077.741, 2078.371
1078.843, 1866.305
1079.945, 1945.264
1081.046, 1826.248
1082.148, 2012.258
1083.249, 1799.293
1084.350, 1775.826
1085.451, 1910.254
1086.551, 1884.080
1087.652, 1689.209
1088.752, 1880.582
1089.853, 1659.938
1090.953, 1749.340
1092.053, 1523.676
1093.152, 1814.961
1094.252, 1466.549
1095.351, 1628.697
1096.451, 1482.240
1097.550, 1465.182
1098.649, 1467.828
1099.748, 1504.893
1100.846, 1385.537
1101.945, 1343.939
1103.043, 1388.734
1104.141, 1381.555
1105.239, 1124.398
1106.337, 1187.264
1107.434, 1218.154
1108.532, 1307.096
1109.629, 1069.057
1110.726, 1199.088
1111.823, 1007.139
1112.920, 1192.215
1114.017, 1063.320
1115.113, 1313.758
1116.210, 1227.963
1117.306, 1365.064
1118.402, 1379.369
1119.498, 1505.727
1120.593, 1593.105
1121.689, 1680.557
1122.784, 1676.730
1123.879, 1837.568
1124.974, 1678.127
1126.069, 1491.701
1127.164, 1603.344
1128.259, 1472.049
1129.353, 1630.785
1130.447, 1534.400
1131.541, 1229.357
1132.635, 1350.174
1133.729, 1206.012
1134.822, 993.8672
1135.916, 1120.746
1137.009, 961.6602
1138.102, 955.5898
1139.195, 951.5430
1140.288, 782.5371
1141.380, 782.5508
1142.473, 543.5859
1143.565, 625.6465
1144.657, 603.7246
1145.749, 654.8242
1146.841, 505.9434
1147.932, 333.0820
1149.024, 456.2383
1150.115, 368.4375
1151.206, 255.6602
1152.297, 309.9004
1153.388, 131.1602
1154.479, 133.4375
1155.569, 289.7344
1156.659, 266.0508
1157.750, 280.3828
1158.839, 310.9824
1159.929, 148.1270
1161.019, 243.5391
1162.108, 229.9863
1163.198, 87.45312
1164.287, 114.0645
1165.376, 245.3984
1166.465, 140.8750
1167.553, 223.3672
1168.642, 28.87695
1169.730, 228.4023
1170.818, 35.95898
1171.906, 173.5332
1172.994, 99.12305
1174.082, 14.73047
1175.170, 76.46094
1176.257, 122.9883
1177.344, 89.64062
1178.431, 30.30664
1179.518, 39.98828
1180.605, 16.68359
1181.691, 32.41211
1182.778, 109.1191
1183.864, 35.85742
1184.950, 34.60938
1186.036, 75.61133
1187.122, 110.8496
1188.207, 23.11523
1189.292, 142.6250
1190.378, 14.37891
1191.463, 58.14453
1192.548, 62.92188
1193.632, 124.7129
1194.717, 91.99805
1195.801, 2.333984
1196.886, 39.16016
1197.970, 2.000000
1199.054, 12.53320
1200.137, 25.41016
1201.221, 58.44727
1202.305, 79.60938
1203.388, 8.796875
1204.471, 31.98047
1205.554, 19.84570
1206.637, 128.6836
1207.719, 2.464844
1208.802, 86.39062
1209.884, 28.25977
1210.966, 69.13867
1212.048, 65.02930
1213.130, 51.92969
1214.212, 98.15820
1215.293, 1.714844
1216.374, 25.40430
1217.456, 48.53320
1218.536, 9.691406
1219.617, 14.18359
1220.698, 83.05469
1221.778, 163.0664
1222.859, 113.2227
1223.939, 196.4336
1225.019, 92.74219
1226.099, 127.9082
1227.178, 118.4375
1228.258, 72.16211
1229.337, 149.2344
1230.417, 59.70312
1231.496, 54.20117
1232.574, 179.2715
1233.653, 51.75586
1234.732, 56.24219
1235.810, 167.7383
1236.888, 206.2539
1237.966, 288.7734
1239.044, 215.3008
1240.122, 47.83398
1241.199, 104.3691
1242.277, 138.9082
1243.354, 210.4531
1244.431, 5.000000
1245.508, 68.53711
1246.585, 14.92188
1247.661, 209.6035
1248.738, 203.1328
1249.814, 214.6641
1250.890, 112.2031
1251.966, 94.74805
1253.042, 355.2930
1254.117, 36.83984
1255.193, 163.4062
1256.268, 314.9727
1257.343, 92.78906
1258.418, 172.3613
1259.493, 93.93750
1260.567, 283.5117
1261.642, 368.0879
1262.716, 173.6621
1263.790, 418.2402
1264.864, 292.8164
1265.938, 434.3945
1267.011, 406.9746
1268.085, 385.5508
1269.158, 212.1270
1270.231, 271.0430
1271.304, 406.6172
1272.377, 374.4043
1273.450, 465.9961
1274.522, 311.5645
1275.594, 499.2559
1276.666, 580.9336
1277.738, 277.4922
1278.810, 507.2266
1279.882, 515.7832
1280.953, 450.4824
1282.025, 554.0293
1283.096, 267.7988
1284.167, 410.3359
1285.238, 417.3711
1286.308, 522.9297
1287.379, 649.4863
1288.449, 428.1719
1289.519, 683.6836
1290.589, 392.3633
1291.659, 706.1387
1292.729, 586.0957
1293.798, 658.2520
1294.868, 774.7305
1295.937, 588.2012
1297.006, 705.7422
1298.075, 831.3535
1299.143, 866.0625
1300.212, 768.7656
1301.280, 979.3594
1302.348, 716.2969
1303.416, 1129.715
1304.484, 714.1211
