##NAMES=Triplite
##RRUFFID=R050226
##IDEAL CHEMISTRY=Mn^2+^_2_(PO_4_)F
##LOCALITY=Fremont County, Colorado, USA
##OWNER=RRUFF
##SOURCE=Marcus Origlieri
##DESCRIPTION=Reddish brown massive
##STATUS=The identification of this mineral has been confirmed by X-ray diffraction and chemical analysis
##URL=rruff.info/R050226
##MEASURED CHEMISTRY=(Mn^2+^_1.20_Mg_0.49_Fe^2+^_0.27_Ca_0.04_)_Σ=2_(P_1.00_O_4_)(F_0.95_(OH)_0.05_)_Σ=1_
##PIN_ID=L00312
##ORIENTATION=Laser parallel to (1 0 1). Fiducial mark perpendicular to laser is parallel to b [0 1 0]
129.2090, 0.0000000E+00
130.4390, 65.68652
131.6680, 273.1611
132.8980, 366.9951
134.1270, 388.7568
135.3560, 161.3906
136.5850, 5.833984
137.8140, 216.2842
139.0430, 350.5889
140.2710, 721.5859
141.5000, 607.9043
142.7280, 781.8506
143.9560, 484.9004
145.1840, 273.8330
146.4120, 407.0859
147.6390, 639.1289
148.8670, 509.9326
150.0940, 574.8428
151.3210, 708.3447
152.5490, 715.2764
153.7750, 659.7461
155.0020, 660.7178
156.2290, 406.2656
157.4550, 504.4043
158.6810, 290.4355
159.9080, 126.6865
161.1340, 75.12793
162.3590, 160.1553
163.5850, 142.8945
164.8110, 562.2422
166.0360, 982.0400
167.2610, 930.1826
168.4860, 634.8975
169.7110, 254.9697
170.9360, 550.4531
172.1610, 740.6025
173.3850, 546.4121
174.6100, 407.6689
175.8340, 185.1816
177.0580, 389.6445
178.2820, 440.0498
179.5050, 415.5312
180.7290, 580.0957
181.9520, 326.7266
183.1760, 399.4551
184.3990, 305.8164
185.6220, 341.4756
186.8450, 598.4307
188.0670, 740.7559
189.2900, 679.0176
190.5120, 763.0713
191.7340, 635.6387
192.9560, 896.9922
194.1780, 888.8203
195.4000, 863.1582
196.6220, 979.1465
197.8430, 1078.078
199.0640, 1119.524
200.2860, 1099.974
201.5070, 1300.761
202.7270, 1581.867
203.9480, 1652.477
205.1690, 1284.672
206.3890, 905.5283
207.6090, 688.1191
208.8290, 405.9023
210.0490, 111.1553
211.2690, 139.5527
212.4890, 148.3047
213.7080, 382.6992
214.9280, 601.6777
216.1470, 408.5947
217.3660, 43.26074
218.5850, 20.02246
219.8030, 151.1504
221.0220, 79.30469
222.2400, 51.81738
223.4590, 147.3613
224.6770, 62.15039
225.8950, 253.7012
227.1120, 239.6514
228.3300, 184.9082
229.5480, 75.90918
230.7650, 54.91895
231.9820, 26.18066
233.1990, 73.45117
234.4160, 6.825195
235.6330, 46.16992
236.8490, 38.54688
238.0660, 45.23047
239.2820, 100.7178
240.4980, 142.9043
241.7140, 171.7539
242.9300, 119.0889
244.1460, 86.90039
245.3610, 167.6162
246.5770, 221.6631
247.7920, 234.3301
249.0070, 338.7422
250.2220, 208.7705
251.4370, 183.5049
252.6510, 326.4902
253.8660, 416.4541
255.0800, 438.5098
256.2940, 223.9648
257.5080, 318.1758
258.7220, 286.0410
259.9360, 247.7715
261.1490, 378.2012
262.3630, 195.6963
263.5760, 322.9570
264.7890, 326.0654
266.0020, 384.8945
267.2150, 321.4336
268.4270, 295.3711
269.6400, 391.7891
270.8520, 420.2861
272.0640, 93.47266
273.2760, 245.3105
274.4880, 189.0742
275.7000, 361.2344
276.9120, 441.4404
278.1230, 581.5957
279.3340, 395.6523
280.5450, 275.5781
281.7560, 118.3545
282.9670, 146.9795
284.1780, 306.4131
285.3880, 231.6494
286.5980, 225.7080
287.8090, 282.6035
289.0190, 305.3438
290.2290, 247.9346
291.4380, 331.3184
292.6480, 432.0732
293.8570, 292.7344
295.0670, 416.3018
296.2760, 479.7705
297.4850, 528.1445
298.6930, 358.3994
299.9020, 459.5488
301.1110, 342.5908
302.3190, 320.5107
303.5270, 318.3027
304.7350, 299.9844
305.9430, 288.9658
307.1510, 298.9453
308.3580, 203.9238
309.5660, 324.6650
310.7730, 381.8350
311.9800, 437.9141
313.1870, 248.9023
314.3940, 198.8008
315.6010, 277.4648
316.8070, 146.1260
318.0130, 155.7012
319.2200, 209.0898
320.4260, 301.3018
321.6310, 236.7666
322.8370, 246.7314
324.0430, 87.60938
325.2480, 97.29199
326.4540, 149.7383
327.6590, 229.7646
328.8640, 132.9580
330.0680, 223.6406
331.2730, 143.3887
332.4780, 245.2979
333.6820, 306.1289
334.8860, 196.8906
336.0900, 63.57422
337.2940, 212.1904
338.4980, 61.82617
339.7010, 181.3018
340.9050, 14.70898
342.1080, 206.0400
343.3110, 35.30859
344.5140, 5.757813
345.7170, 128.9541
346.9200, 87.01367
348.1220, 9.680664
349.3240, 4.940430
350.5270, 81.19434
351.7290, 42.68262
352.9310, 122.3984
354.1320, 73.09375
355.3340, 122.2422
356.5350, 5.578125
357.7370, 19.80957
358.9380, 73.81934
360.1390, 27.22363
361.3400, 45.00684
362.5400, 25.26465
363.7410, 33.55762
364.9410, 119.8672
366.1410, 67.08496
367.3410, 7.167969
368.5410, 10.12012
369.7410, 44.16309
370.9400, 60.72461
372.1400, 21.59082
373.3390, 36.36816
374.5380, 76.88379
375.7370, 23.77637
376.9360, 95.27832
378.1350, 10.73438
379.3330, 101.7637
380.5310, 55.33398
381.7300, 82.69531
382.9280, 70.92773
384.1260, 147.4248
385.3230, 13.03027
386.5210, 26.55469
387.7180, 108.0244
388.9160, 108.4141
390.1130, 208.4395
391.3100, 159.9941
392.5060, 287.9238
393.7030, 193.8672
394.9000, 221.8584
396.0960, 209.3623
397.2920, 199.6865
398.4880, 334.1016
399.6840, 368.8799
400.8800, 339.6611
402.0750, 280.8086
403.2710, 429.4980
404.4660, 488.5488
405.6610, 618.5771
406.8560, 599.9609
408.0510, 661.2217
409.2450, 720.1484
410.4400, 678.7422
411.6340, 800.5986
412.8280, 761.5264
414.0220, 1011.132
415.2160, 1001.985
416.4100, 1072.678
417.6030, 1161.647
418.7970, 1275.994
419.9900, 1629.994
421.1830, 1806.207
422.3760, 1982.359
423.5690, 2289.299
424.7610, 2413.684
425.9540, 2639.158
427.1460, 2749.809
428.3380, 2694.116
429.5300, 2606.048
430.7220, 2406.892
431.9140, 2171.911
433.1050, 2116.968
434.2970, 2001.724
435.4880, 1825.774
436.6790, 1715.195
437.8700, 1522.978
439.0610, 1405.867
440.2510, 1296.546
441.4420, 1171.814
442.6320, 1089.671
443.8220, 1015.424
445.0120, 954.5352
446.2020, 986.0879
447.3910, 1060.587
448.5810, 1098.971
449.7700, 1223.271
450.9600, 1281.573
452.1490, 1174.545
453.3370, 1318.979
454.5260, 1238.616
455.7150, 1315.457
456.9030, 1483.493
458.0910, 1274.276
459.2800, 1372.364
460.4670, 1306.882
461.6550, 1279.409
462.8430, 1230.152
464.0300, 1030.244
465.2180, 1025.031
466.4050, 836.8203
467.5920, 861.7354
468.7790, 730.6982
469.9650, 745.9766
471.1520, 525.5547
472.3380, 615.6943
473.5250, 588.1807
474.7110, 839.2979
475.8970, 646.9297
477.0820, 594.5537
478.2680, 353.8086
479.4540, 395.2480
480.6390, 276.5078
481.8240, 307.9971
483.0090, 306.1230
484.1940, 371.5645
485.3780, 350.6680
486.5630, 232.6445
487.7470, 275.8232
488.9320, 373.4990
490.1160, 127.8789
491.3000, 209.2168
492.4830, 297.3027
493.6670, 250.9834
494.8500, 271.8711
496.0340, 260.3193
497.2170, 223.7080
498.4000, 308.7998
499.5820, 134.1982
500.7650, 185.6963
501.9480, 113.6973
503.1300, 292.7070
504.3120, 137.4111
505.4940, 227.9756
506.6760, 150.6592
507.8580, 249.8926
509.0390, 128.6494
510.2210, 93.17578
511.4020, 124.7188
512.5830, 63.22363
513.7640, 146.0215
514.9450, 171.6289
516.1250, 189.1768
517.3060, 59.09668
518.4860, 201.9502
519.6660, 46.56738
520.8460, 179.1602
522.0260, 63.81934
523.2060, 11.96387
524.3850, 32.89551
525.5650, 4.226563
526.7440, 8.107422
527.9230, 32.26855
529.1020, 129.2666
530.2810, 70.53516
531.4590, 82.68457
532.6380, 1.455078
533.8160, 147.3594
534.9940, 5.226563
536.1720, 33.23828
537.3500, 137.8301
538.5270, 71.82129
539.7050, 109.7480
540.8820, 30.20898
542.0590, 44.76562
543.2360, 30.75195
544.4130, 96.34570
545.5900, 21.81152
546.7660, 29.25000
547.9430, 51.65625
549.1190, 157.0391
550.2950, 78.44434
551.4710, 166.8223
552.6470, 33.16895
553.8220, 262.4854
554.9980, 149.7754
556.1730, 112.1787
557.3480, 289.4375
558.5230, 134.6758
559.6980, 243.8906
560.8730, 240.0801
562.0470, 221.2676
563.2220, 233.8447
564.3960, 300.0215
565.5700, 216.5518
566.7440, 276.3252
567.9170, 281.9307
569.0910, 449.1709
570.2640, 510.2744
571.4380, 519.3574
572.6110, 573.4199
573.7840, 623.2783
574.9570, 684.8057
576.1290, 733.7314
577.3020, 834.2051
578.4740, 897.6006
579.6460, 964.5078
580.8180, 981.9834
581.9900, 1001.980
583.1620, 990.4854
584.3330, 1025.985
585.5040, 1049.652
586.6760, 1126.843
587.8470, 1075.955
589.0180, 1322.551
590.1880, 1366.162
591.3590, 1542.251
592.5290, 1799.409
593.7000, 1789.444
594.8700, 2130.549
596.0400, 2583.467
597.2090, 2703.458
598.3790, 3007.276
599.5490, 3315.692
600.7180, 3562.005
601.8870, 3809.013
603.0560, 3747.525
604.2250, 3828.352
605.3940, 3744.627
606.5620, 3795.727
607.7300, 3394.065
608.8990, 3515.705
610.0670, 3188.234
611.2350, 3084.754
612.4020, 3102.233
613.5700, 2800.415
614.7370, 2878.915
615.9050, 2638.221
617.0720, 2604.123
618.2390, 2518.753
619.4060, 2343.148
620.5720, 2248.363
621.7390, 2209.677
622.9050, 1984.151
624.0710, 1914.000
625.2370, 1607.565
626.4030, 1618.400
627.5690, 1524.242
628.7340, 1451.025
629.9000, 1591.206
631.0650, 1181.957
632.2300, 1347.822
633.3950, 1216.465
634.5600, 1273.953
635.7240, 1288.457
636.8890, 1046.974
638.0530, 1026.303
639.2170, 1157.646
640.3810, 1077.380
641.5450, 978.1504
642.7080, 1050.027
643.8720, 1033.575
645.0350, 997.1533
646.1980, 1002.359
647.3610, 953.9746
648.5240, 932.9873
649.6870, 928.7480
650.8490, 1071.983
652.0120, 1028.641
653.1740, 903.4229
654.3360, 1049.221
655.4980, 997.0449
656.6600, 906.7539
657.8210, 987.9551
658.9830, 1028.158
660.1440, 1027.067
661.3050, 909.5918
662.4660, 850.0088
663.6270, 780.3730
664.7870, 846.4971
665.9480, 780.8896
667.1080, 794.4102
668.2680, 653.0068
669.4280, 651.4121
670.5880, 643.8252
671.7480, 610.3438
672.9070, 675.2402
674.0670, 578.2236
675.2260, 533.7979
676.3850, 511.5059
677.5440, 701.2012
678.7030, 457.4131
679.8610, 504.3926
681.0200, 534.5547
682.1780, 290.0215
683.3360, 368.6094
684.4940, 495.3301
685.6520, 415.4863
686.8090, 418.0059
687.9670, 445.1982
689.1240, 384.6719
690.2810, 416.4111
691.4380, 355.2832
692.5950, 341.6357
693.7520, 465.1953
694.9080, 270.2012
696.0650, 338.7178
697.2210, 444.7529
698.3770, 323.7256
699.5330, 428.2666
700.6880, 387.2305
701.8440, 213.7461
702.9990, 335.3545
704.1550, 224.7129
705.3100, 161.4307
706.4650, 197.1230
707.6190, 283.4053
708.7740, 389.6807
709.9290, 399.4043
711.0830, 395.3320
712.2370, 149.6318
713.3910, 289.3086
714.5450, 33.10742
715.6980, 217.2705
716.8520, 230.5859
718.0050, 109.9863
719.1580, 177.7666
720.3110, 253.7520
721.4640, 78.64941
722.6170, 196.2129
723.7700, 149.6162
724.9220, 27.52734
726.0740, 68.32910
727.2260, 7.580078
728.3780, 8.564453
729.5300, 56.61523
730.6810, 46.07129
731.8330, 70.06250
732.9840, 2.680664
734.1350, 58.34375
735.2860, 43.82227
736.4370, 98.30176
737.5880, 35.15332
738.7380, 47.65137
739.8880, 11.21289
741.0390, 99.24805
742.1890, 59.90918
743.3380, 55.09375
744.4880, 158.8311
745.6380, 17.55273
746.7870, 92.67578
747.9360, 111.8115
749.0850, 121.4902
750.2340, 123.9473
751.3830, 206.8545
752.5310, 127.1328
753.6800, 165.2432
754.8280, 3.811523
755.9760, 72.41211
757.1240, 23.16699
758.2720, 165.0537
759.4190, 112.7539
760.5670, 87.61426
761.7140, 245.3242
762.8610, 306.7012
764.0080, 233.7754
765.1550, 435.1445
766.3020, 218.2148
767.4480, 129.6445
768.5950, 302.5508
769.7410, 351.2461
770.8870, 236.4648
772.0330, 243.6289
773.1780, 253.7051
774.3240, 231.4395
775.4690, 232.5547
776.6140, 272.5215
777.7590, 272.6680
778.9040, 312.3867
780.0490, 207.1465
781.1940, 197.0195
782.3380, 306.5234
783.4820, 211.0312
784.6260, 281.3926
785.7700, 276.6875
786.9140, 216.9102
788.0580, 301.0625
789.2010, 224.1465
790.3450, 124.1602
791.4880, 194.0996
792.6310, 208.9668
793.7730, 245.7617
794.9160, 227.4844
796.0590, 125.1387
797.2010, 178.7168
798.3430, 260.2324
799.4850, 117.6738
800.6270, 112.0566
801.7690, 180.3633
802.9100, 2.601563
804.0520, 250.7441
805.1930, 285.8223
806.3340, 215.6621
807.4750, 348.0977
808.6160, 81.69531
809.7560, 379.5352
810.8970, 257.3086
812.0370, 178.0176
813.1770, 218.6543
814.3170, 284.2285
815.4570, 83.73438
816.5960, 166.1641
817.7360, 270.5234
818.8750, 200.8203
820.0140, 146.0430
821.1530, 168.1973
822.2920, 36.28320
823.4310, 125.2910
824.5690, 35.22852
825.7070, 159.9102
826.8460, 135.7715
827.9840, 251.3848
829.1220, 107.9297
830.2590, 234.4023
831.3970, 67.19336
832.5340, 108.9668
833.6710, 81.17383
834.8080, 35.30664
835.9450, 172.3652
837.0820, 51.64648
838.2190, 29.77930
839.3550, 64.41602
840.4910, 77.22266
841.6270, 140.4082
842.7630, 51.25586
843.8990, 0.8222660
845.0350, 97.63281
846.1700, 30.56055
847.3060, 20.67969
848.4410, 54.27930
849.5760, 203.8828
850.7100, 159.5586
851.8450, 55.09570
852.9800, 27.33008
854.1140, 31.45508
855.2480, 86.85938
856.3820, 270.8594
857.5160, 37.83398
858.6500, 99.00586
859.7830, 120.5977
860.9170, 49.07422
862.0500, 208.3770
863.1830, 141.2402
864.3160, 105.2852
865.4480, 107.2227
866.5810, 83.40625
867.7130, 83.77148
868.8460, 5.986328
869.9780, 46.03516
871.1100, 15.17383
872.2410, 53.14844
873.3730, 65.20508
874.5050, 56.42383
875.6360, 27.94141
876.7670, 115.5234
877.8980, 32.48828
879.0290, 240.0195
880.1590, 88.45117
881.2900, 73.26367
882.4200, 195.0664
883.5500, 172.4863
884.6800, 116.0664
885.8100, 57.27539
886.9400, 155.4316
888.0690, 31.96680
889.1990, 263.0840
890.3280, 101.2480
891.4570, 7.728516
892.5860, 99.39453
893.7140, 72.78906
894.8430, 70.10938
895.9710, 285.7363
897.1000, 139.7871
898.2280, 87.19727
899.3560, 140.3867
900.4830, 50.23438
901.6110, 104.7500
902.7380, 262.4336
903.8660, 103.7129
904.9930, 135.6719
906.1200, 432.7871
907.2460, 224.9707
908.3730, 246.9590
909.5000, 140.5410
910.6260, 86.98242
911.7520, 194.4082
912.8780, 132.0215
914.0040, 244.4688
915.1290, 187.1074
916.2550, 141.2637
917.3800, 222.3379
918.5050, 190.1016
919.6300, 256.1172
920.7550, 228.2266
921.8800, 281.5117
923.0040, 298.5098
924.1290, 320.0020
925.2530, 339.8047
926.3770, 333.3262
927.5010, 325.3457
928.6250, 355.9121
929.7480, 302.8398
930.8720, 264.6582
931.9950, 294.8457
933.1180, 406.5684
934.2410, 429.4844
935.3640, 483.7930
936.4860, 587.0449
937.6090, 583.5547
938.7310, 739.5605
939.8530, 616.2988
940.9750, 787.1582
942.0970, 724.6914
943.2180, 644.7520
944.3400, 681.6797
945.4610, 1010.824
946.5820, 1041.436
947.7030, 1061.686
948.8240, 1191.080
949.9450, 1062.721
951.0650, 1146.496
952.1860, 1277.590
953.3060, 1387.102
954.4260, 1629.330
955.5460, 1670.338
956.6650, 1730.414
957.7850, 2061.676
958.9040, 2039.529
960.0230, 2452.732
961.1420, 2705.311
962.2610, 3005.152
963.3800, 3340.459
964.4990, 3909.145
965.6170, 4236.363
966.7350, 4760.760
967.8530, 5341.484
968.9710, 5846.072
970.0890, 6865.287
971.2070, 7797.236
972.3240, 8692.697
973.4410, 10541.54
974.5580, 11899.21
975.6750, 13929.76
976.7920, 16239.57
977.9090, 18833.98
979.0250, 21197.76
980.1410, 24480.48
981.2580, 26977.70
982.3740, 29857.63
983.4890, 33137.13
984.6050, 33904.17
985.7200, 34991.03
986.8360, 34601.43
987.9510, 31761.62
989.0660, 29024.64
990.1810, 24892.21
991.2950, 20519.50
992.4100, 16752.80
993.5240, 13755.79
994.6390, 11125.64
995.7530, 8810.104
996.8660, 7537.219
997.9800, 6086.973
999.0940, 5267.594
1000.207, 4883.227
1001.320, 4275.379
1002.433, 4107.918
1003.546, 3842.756
1004.659, 3258.150
1005.772, 3306.453
1006.884, 3178.961
1007.996, 3021.520
1009.108, 2942.027
1010.220, 2955.502
1011.332, 2649.365
1012.444, 2976.926
1013.555, 2707.381
1014.666, 2383.209
1015.777, 2657.977
1016.888, 2568.268
1017.999, 2432.467
1019.110, 2876.051
1020.220, 2451.781
1021.331, 2438.982
1022.441, 2341.986
1023.551, 2743.600
1024.661, 2600.559
1025.770, 2768.154
1026.880, 2669.559
1027.989, 2568.688
1029.098, 2818.580
1030.207, 2831.613
1031.316, 2736.342
1032.425, 3054.500
1033.533, 2861.145
1034.642, 3134.008
1035.750, 3325.107
1036.858, 3188.863
1037.966, 3148.002
1039.073, 3303.318
1040.181, 3172.986
1041.288, 3312.168
1042.396, 3500.309
1043.503, 3482.627
1044.610, 3445.910
1045.716, 3471.477
1046.823, 3475.570
1047.929, 3303.641
1049.036, 3504.205
1050.142, 3330.592
1051.248, 3273.273
1052.353, 3039.182
1053.459, 2953.791
1054.564, 3022.031
1055.670, 2693.717
1056.775, 2570.283
1057.880, 2694.992
1058.985, 2522.686
1060.089, 2336.771
1061.194, 2405.619
1062.298, 2446.436
1063.402, 2315.906
1064.506, 2415.617
1065.610, 2188.174
1066.713, 2442.959
1067.817, 2474.338
1068.920, 2481.062
1070.023, 2611.365
1071.126, 2908.098
1072.229, 3039.844
1073.332, 3057.887
1074.435, 3363.717
1075.537, 3283.145
1076.639, 3434.139
1077.741, 3416.238
1078.843, 3386.965
1079.945, 2798.148
1081.046, 3069.533
1082.148, 2551.297
1083.249, 2508.205
1084.350, 2368.473
1085.451, 2298.799
1086.551, 2162.264
1087.652, 2000.510
1088.752, 1915.297
1089.853, 1887.498
1090.953, 1761.979
1092.053, 1592.893
1093.152, 1593.246
1094.252, 1666.832
1095.351, 1578.131
1096.451, 1453.713
1097.550, 1353.115
1098.649, 1423.004
1099.748, 1190.143
1100.846, 1201.039
1101.945, 1439.363
1103.043, 1134.609
1104.141, 1331.848
1105.239, 1115.164
1106.337, 979.7598
1107.434, 1225.047
1108.532, 1148.027
1109.629, 1042.008
1110.726, 1247.027
1111.823, 1175.504
1112.920, 986.3379
1114.017, 1084.605
1115.113, 1284.188
1116.210, 974.0586
1117.306, 1179.115
1118.402, 1529.549
1119.498, 1187.365
1120.593, 1537.691
1121.689, 1488.336
1122.784, 1611.045
1123.879, 1688.656
1124.974, 1851.371
1126.069, 1793.111
1127.164, 1889.574
1128.259, 2236.807
1129.353, 2054.672
1130.447, 2235.826
1131.541, 2052.004
1132.635, 2334.211
1133.729, 2606.412
1134.822, 2457.611
1135.916, 2325.928
1137.009, 2226.322
1138.102, 1867.613
1139.195, 1756.844
1140.288, 1734.074
1141.380, 1295.320
1142.473, 873.5645
1143.565, 1067.807
1144.657, 725.0586
1145.749, 594.3730
1146.841, 815.7148
1147.932, 386.9512
1149.024, 595.1836
1150.115, 402.4102
1151.206, 286.6660
1152.297, 411.9180
1153.388, 411.4863
1154.479, 199.7793
1155.569, 234.6309
1156.659, 299.1152
1157.750, 4.392578
1158.839, 18.65625
1159.929, 187.9355
1161.019, 17.20508
1162.108, 247.4629
1163.198, 71.98633
1164.287, 53.73438
1165.376, 270.6992
1166.465, 200.4570
1167.553, 45.30859
1168.642, 112.9082
1169.730, 106.1191
1170.818, 305.3184
1171.906, 280.5117
1172.994, 198.6992
1174.082, 280.3281
1175.170, 93.94727
1176.257, 259.1660
1177.344, 153.2852
1178.431, 91.38672
1179.518, 309.5020
1180.605, 136.1309
1181.691, 518.6875
1182.778, 68.76367
1183.864, 99.17188
1184.950, 10.82617
1186.036, 273.8125
1187.122, 29.20898
1188.207, 31.26367
1189.292, 206.6465
1190.378, 59.54492
1191.463, 117.8906
1192.548, 128.2969
1193.632, 0.8417970
1194.717, 178.9961
1195.801, 2.177734
1196.886, 203.3730
1197.970, 68.69141
1199.054, 315.9316
1200.137, 28.54102
1201.221, 242.1328
1202.305, 276.7109
1203.388, 100.2715
1204.471, 152.7266
1205.554, 12.34766
1206.637, 24.14453
1207.719, 95.33203
1208.802, 0.7871090
1209.884, 78.21680
1210.966, 32.62891
1212.048, 246.0176
1213.130, 150.3945
1214.212, 67.75195
1215.293, 6.910156
1216.374, 104.6074
1217.456, 116.3770
1218.536, 190.7598
1219.617, 2.105469
1220.698, 96.99805
1221.778, 101.0840
1222.859, 18.84961
1223.939, 24.17969
1225.019, 96.18164
1226.099, 29.16797
1227.178, 63.86914
1228.258, 199.0254
1229.337, 249.0957
1230.417, 334.6191
1231.496, 107.5762
1232.574, 26.00391
1233.653, 9.376953
1234.732, 120.2344
1235.810, 58.82617
1236.888, 198.6055
1237.966, 268.8203
1239.044, 286.2285
1240.122, 65.37109
1241.199, 102.9570
1242.277, 76.73828
1243.354, 164.7617
1244.431, 91.96289
1245.508, 29.14453
1246.585, 231.2969
1247.661, 135.4297
1248.738, 44.54102
1249.814, 163.6230
1250.890, 92.35156
1251.966, 84.71484
1253.042, 108.7207
1254.117, 84.70312
1255.193, 79.66016
1256.268, 32.41211
1257.343, 207.4629
1258.418, 71.30859
1259.493, 29.12695
1260.567, 374.9121
1261.642, 28.67383
1262.716, 305.4004
1263.790, 477.1035
1264.864, 213.7832
1265.938, 208.8457
1267.011, 234.4727
1268.085, 377.0781
1269.158, 345.8691
1270.231, 389.2695
1271.304, 338.5625
1272.377, 380.7402
1273.450, 292.2246
1274.522, 237.6855
1275.594, 231.5215
1276.666, 351.2070
1277.738, 335.1172
1278.810, 353.6914
1279.882, 272.2891
1280.953, 474.5898
1282.025, 193.8867
1283.096, 326.1543
1284.167, 8.402344
1285.238, 213.9395
1286.308, 403.1074
1287.379, 384.2637
1288.449, 352.1426
1289.519, 435.2715
1290.589, 409.3242
1291.659, 42.27344
1292.729, 407.1094
1293.798, 223.6602
1294.868, 145.5957
1295.937, 461.1035
1297.006, 431.7109
1298.075, 436.6484
1299.143, 602.4023
1300.212, 530.3711
1301.280, 505.1875
1302.348, 573.6719
1303.416, 438.1523
1304.484, 298.6914
