##NAMES=Vanadinite
##RRUFFID=R050171
##IDEAL CHEMISTRY=Pb^2+^_5_(V^5+^O_4_)_3_Cl
##LOCALITY=Hamburg mine, La Paz County, Arizona, USA
##OWNER=RRUFF
##SOURCE=Marcus Origlieri
##DESCRIPTION=Red prismatic hexagonal crystals
##STATUS=The identification of this mineral has been confirmed by X-ray diffraction and chemical analysis
##URL=rruff.info/R050171
##MEASURED CHEMISTRY=Pb_5.00_((V_0.89_As_0.11_)O_4_)_3_Cl_1.00_
##PIN_ID=M00093
##ORIENTATION=Laser parallel to -a* (-1 0 0). Fiducial mark perpendicular to laser is parallel to -c [0 0 -1]
74.540, 0.000
75.937, 13.534
77.333, 452.246
78.729, 689.629
80.125, 864.872
81.521, 495.997
82.916, 535.713
84.311, 799.375
85.706, 1164.308
87.101, 1678.453
88.496, 2069.781
89.890, 2426.722
91.284, 2748.242
92.678, 3033.902
94.071, 3253.028
95.465, 3558.011
96.858, 3545.996
98.251, 3576.619
99.644, 3558.760
101.036, 3361.678
102.428, 3135.317
103.820, 2919.558
105.212, 2714.406
106.604, 2400.145
107.995, 2217.219
109.387, 1986.312
110.777, 1808.403
112.168, 1614.050
113.559, 1533.524
114.949, 1386.293
116.339, 1320.766
117.729, 1215.491
119.119, 1058.123
120.508, 1018.075
121.897, 1114.933
123.286, 978.535
124.675, 928.818
126.063, 1056.783
127.452, 969.071
128.840, 1036.834
130.228, 1087.910
131.615, 1159.969
133.003, 1199.086
134.390, 1314.836
135.777, 1340.218
137.164, 1341.834
138.550, 1503.838
139.937, 1472.537
141.323, 1554.644
142.709, 1601.219
144.094, 1605.507
145.480, 1529.002
146.865, 1617.747
148.250, 1532.475
149.635, 1628.526
151.019, 1597.546
152.403, 1617.404
153.788, 1672.924
155.171, 1748.260
156.555, 1707.637
157.939, 1773.235
159.322, 1771.715
160.705, 1705.073
162.088, 1728.875
163.470, 1708.658
164.853, 1740.030
166.235, 1573.503
167.617, 1566.926
168.998, 1521.007
170.380, 1541.790
171.761, 1504.691
173.142, 1435.974
174.523, 1433.406
175.904, 1356.812
177.284, 1274.383
178.664, 1239.093
180.044, 1125.920
181.424, 995.843
182.803, 1023.834
184.183, 999.875
185.562, 841.949
186.940, 862.038
188.319, 751.124
189.698, 718.192
191.076, 660.222
192.454, 604.336
193.831, 561.925
195.209, 506.891
196.586, 472.562
197.963, 396.082
199.340, 363.429
200.717, 254.589
202.093, 262.554
203.470, 243.318
204.846, 152.881
206.221, 105.239
207.597, 105.396
208.972, 10.353
210.347, 81.097
211.722, 16.616
213.097, 24.902
214.472, 49.056
215.846, 59.263
217.220, 45.729
218.594, 76.467
219.967, 88.234
221.341, 116.829
222.714, 130.484
224.087, 192.494
225.460, 206.896
226.832, 162.694
228.204, 173.953
229.577, 129.692
230.948, 217.945
232.320, 205.747
233.692, 187.151
235.063, 231.109
236.434, 92.639
237.805, 138.750
239.175, 145.354
240.545, 202.758
241.916, 118.736
243.286, 118.682
244.655, 6.737
246.025, 74.375
247.394, 41.113
248.763, 93.855
250.132, 87.540
251.501, 164.121
252.869, 198.554
254.237, 257.803
255.605, 282.857
256.973, 327.685
258.340, 467.269
259.708, 526.592
261.075, 552.631
262.442, 679.368
263.808, 732.802
265.175, 794.929
266.541, 869.740
267.907, 1045.284
269.273, 1119.838
270.639, 1271.955
272.004, 1416.072
273.369, 1531.741
274.734, 1795.375
276.099, 1927.582
277.463, 2201.614
278.828, 2392.032
280.192, 2643.311
281.556, 2907.315
282.919, 3235.741
284.283, 3639.220
285.646, 4036.136
287.009, 4385.697
288.372, 4897.572
289.734, 5274.323
291.097, 5659.599
292.459, 6017.875
293.821, 6216.630
295.183, 6452.094
296.544, 6502.277
297.905, 6435.901
299.266, 6527.349
300.627, 6473.532
301.988, 6425.358
303.348, 6444.706
304.709, 6567.064
306.069, 6718.205
307.428, 6970.319
308.788, 7178.062
310.147, 7514.279
311.507, 8028.862
312.865, 8773.001
314.224, 9326.438
315.583, 10199.222
316.941, 10821.334
318.299, 11552.799
319.657, 12353.727
321.015, 12944.072
322.372, 13263.871
323.729, 13363.280
325.086, 13322.398
326.443, 13021.114
327.800, 12419.688
329.156, 11917.956
330.512, 11236.019
331.868, 10293.854
333.224, 9581.530
334.579, 8799.101
335.935, 8356.498
337.290, 7663.817
338.645, 7250.001
339.999, 6885.165
341.354, 6537.858
342.708, 6225.129
344.062, 6021.840
345.416, 5747.910
346.769, 5670.851
348.123, 5574.598
349.476, 5532.424
350.829, 5567.121
352.182, 5587.348
353.534, 5644.511
354.887, 5782.971
356.239, 5904.166
357.591, 6003.792
358.942, 6184.937
360.294, 6233.500
361.645, 6561.327
362.996, 6698.553
364.347, 6683.564
365.698, 6805.537
367.048, 6687.118
368.398, 6573.049
369.748, 6268.939
371.098, 6138.478
372.448, 5777.841
373.797, 5410.498
375.146, 5122.675
376.495, 4634.174
377.844, 4365.023
379.192, 4008.245
380.540, 3734.899
381.889, 3553.462
383.236, 3285.252
384.584, 3136.959
385.932, 2891.577
387.279, 2738.597
388.626, 2595.282
389.973, 2434.565
391.319, 2317.484
392.666, 2214.964
394.012, 2147.182
395.358, 2028.361
396.704, 1960.788
398.049, 1893.031
399.394, 1776.816
400.740, 1674.688
402.084, 1714.708
403.429, 1620.816
404.774, 1554.530
406.118, 1460.997
407.462, 1488.354
408.806, 1415.808
410.150, 1396.215
411.493, 1371.593
412.836, 1365.956
414.179, 1368.526
415.522, 1315.528
416.865, 1271.060
418.207, 1185.022
419.549, 1177.574
420.891, 1157.474
422.233, 1109.811
423.575, 1109.639
424.916, 1052.486
426.257, 984.503
427.598, 981.300
428.939, 939.184
430.279, 859.401
431.619, 879.772
432.959, 798.213
434.299, 825.317
435.639, 752.039
436.978, 763.967
438.318, 712.252
439.657, 763.268
440.996, 696.735
442.334, 662.304
443.673, 697.033
445.011, 582.296
446.349, 617.968
447.687, 607.494
449.024, 674.707
450.361, 613.145
451.699, 636.044
453.036, 546.299
454.372, 576.726
455.709, 557.185
457.045, 531.542
458.381, 573.407
459.717, 521.944
461.053, 488.549
462.388, 475.092
463.724, 485.410
465.059, 488.407
466.394, 448.535
467.728, 447.595
469.063, 418.571
470.397, 404.572
471.731, 419.000
473.065, 382.541
474.398, 391.741
475.732, 390.343
477.065, 407.772
478.398, 404.821
479.731, 380.135
481.063, 394.328
482.396, 388.986
483.728, 361.424
485.060, 347.662
486.391, 364.789
487.723, 326.806
489.054, 336.714
490.385, 324.676
491.716, 324.369
493.047, 313.302
494.377, 293.137
495.708, 289.513
497.038, 266.790
498.368, 261.012
499.697, 229.126
501.027, 231.729
502.356, 257.949
503.685, 238.705
505.014, 221.364
506.342, 239.927
507.671, 221.396
508.999, 242.772
510.327, 252.059
511.655, 212.257
512.982, 153.369
514.310, 221.392
515.637, 173.333
516.964, 181.191
518.291, 142.969
519.617, 170.669
520.944, 151.293
522.270, 186.845
523.596, 128.329
524.921, 118.747
526.247, 111.100
527.572, 130.391
528.897, 104.627
530.222, 145.812
531.547, 76.948
532.871, 123.050
534.196, 112.107
535.520, 86.131
536.844, 86.121
538.167, 46.095
539.491, 95.056
540.814, 91.004
542.137, 56.947
543.460, 83.889
544.783, 13.838
546.105, 26.790
547.427, 50.766
548.749, 54.775
550.071, 16.806
551.393, 17.858
552.714, 6.919
554.035, 26.011
555.356, 17.138
556.677, 42.292
557.998, 1.491
559.318, 0.311
560.638, 5.898
561.958, 7.122
563.278, 20.380
564.597, 18.654
565.917, 11.053
567.236, 28.215
568.555, 7.459
569.874, 38.682
571.192, 32.118
572.511, 8.960
573.829, 9.158
575.147, 45.755
576.464, 16.728
577.782, 22.745
579.099, 6.812
580.416, 11.075
581.733, 2.078
583.050, 26.275
584.366, 46.530
585.683, 23.852
586.999, 4.230
588.315, 58.715
589.630, 2.597
590.946, 36.420
592.261, 60.633
593.576, 67.797
594.891, 16.337
596.206, 27.864
597.520, 46.647
598.834, 40.268
600.148, 65.213
601.462, 34.361
602.776, 29.402
604.089, 41.956
605.402, 43.401
606.715, 5.073
608.028, 30.183
609.341, 2.276
610.653, 35.176
611.965, 18.969
613.277, 47.763
614.589, 4.607
615.901, 22.564
617.212, 19.358
618.523, 8.622
619.834, 1.536
621.145, 3.166
622.456, 24.914
623.766, 3.074
625.076, 35.397
626.386, 37.734
627.696, 2.200
629.006, 11.718
630.315, 39.170
631.624, 37.219
632.933, 48.341
634.242, 47.915
635.551, 23.423
636.859, 12.937
638.167, 25.543
639.475, 10.083
640.783, 4.632
642.090, 11.720
643.398, 29.034
644.705, 11.439
646.012, 55.705
647.318, 9.966
648.625, 8.332
649.931, 1.651
651.237, 32.053
652.543, 5.172
653.849, 3.408
655.155, 3.427
656.460, 3.260
657.765, 2.799
659.070, 22.896
660.375, 40.132
661.679, 46.890
662.984, 49.461
664.288, 69.712
665.592, 52.918
666.895, 74.245
668.199, 79.628
669.502, 99.912
670.805, 102.966
672.108, 99.340
673.411, 118.549
674.713, 103.828
676.016, 133.983
677.318, 148.292
678.620, 160.265
679.921, 221.011
681.223, 203.259
682.524, 238.506
683.825, 272.762
685.126, 262.140
686.427, 313.451
687.727, 328.976
689.028, 348.255
690.328, 441.770
691.628, 396.282
692.927, 477.729
694.227, 520.219
695.526, 525.556
696.825, 614.171
698.124, 631.813
699.423, 670.356
700.721, 761.056
702.020, 803.861
703.318, 849.253
704.616, 932.957
705.913, 969.722
707.211, 1060.046
708.508, 1152.484
709.805, 1199.549
711.102, 1255.333
712.399, 1414.960
713.695, 1473.947
714.992, 1562.038
716.288, 1704.104
717.584, 1758.579
718.879, 1824.197
720.175, 1847.306
721.470, 1916.446
722.765, 1986.321
724.060, 1974.645
725.355, 2013.621
726.649, 2028.087
727.944, 2004.121
729.238, 1988.487
730.532, 1986.449
731.825, 2024.327
733.119, 1960.527
734.412, 1963.486
735.705, 1944.355
736.998, 2042.095
738.291, 2091.368
739.584, 2075.487
740.876, 2191.587
742.168, 2168.999
743.460, 2293.468
744.752, 2336.173
746.043, 2417.869
747.334, 2511.972
748.626, 2677.862
749.916, 2781.456
751.207, 2855.843
752.498, 2995.742
753.788, 3097.779
755.078, 3304.245
756.368, 3378.478
757.658, 3662.417
758.947, 3760.703
760.237, 3974.454
761.526, 4132.234
762.815, 4395.202
764.104, 4695.831
765.392, 4784.880
766.680, 5069.468
767.969, 5345.770
769.257, 5753.934
770.544, 5940.083
771.832, 6203.615
773.119, 6503.364
774.406, 6971.945
775.693, 7198.483
776.980, 7635.144
778.267, 8161.024
779.553, 8527.678
780.839, 8993.301
782.125, 9418.909
783.411, 9965.722
784.697, 10562.365
785.982, 11018.129
787.267, 11575.145
788.552, 12380.671
789.837, 12656.290
791.122, 13662.863
792.406, 14299.784
793.690, 14906.413
794.974, 15753.506
796.258, 16590.752
797.542, 17568.135
798.825, 18005.562
800.108, 19243.037
801.391, 20210.559
802.674, 21147.971
803.957, 22935.586
805.239, 23993.242
806.522, 25260.270
807.804, 27358.023
809.085, 27725.834
810.367, 29313.643
811.649, 30651.500
812.930, 32329.451
814.211, 34217.465
815.492, 35175.527
816.772, 37063.641
818.053, 39011.805
819.333, 40560.020
820.613, 42448.281
821.893, 43066.590
823.173, 44994.949
824.452, 45623.348
825.732, 46961.805
827.011, 47120.305
828.290, 46978.867
829.568, 47007.469
830.847, 45896.117
832.125, 44544.812
833.403, 43853.562
834.681, 41642.359
835.959, 39651.215
837.236, 38030.109
838.514, 35399.047
839.791, 33328.055
841.068, 31497.100
842.345, 29876.193
843.621, 27175.342
844.898, 25664.539
846.174, 24173.850
847.450, 21963.143
848.726, 20552.486
850.001, 18991.881
851.277, 17361.330
852.552, 16780.824
853.827, 15070.368
855.102, 14060.075
856.376, 13250.891
857.651, 12231.411
858.925, 11541.159
860.199, 10864.001
861.473, 10044.046
862.746, 9473.948
864.020, 9043.901
865.293, 8263.908
866.566, 8013.972
867.839, 7586.174
869.112, 7326.334
870.384, 6927.446
871.656, 6727.845
872.928, 6330.089
874.200, 6193.814
875.472, 5868.227
876.744, 5642.290
878.015, 5390.472
879.286, 5141.170
880.557, 4900.692
881.828, 4758.781
883.098, 4447.993
884.369, 4262.205
885.639, 4126.794
886.909, 3898.189
888.178, 3706.610
889.448, 3511.032
890.717, 3374.274
891.987, 3319.465
893.256, 3001.174
894.524, 2922.377
895.793, 2743.480
897.061, 2752.755
898.330, 2557.696
899.598, 2483.418
900.865, 2410.468
902.133, 2325.965
903.401, 2182.841
904.668, 2082.952
905.935, 2085.351
907.202, 1894.514
908.468, 2005.271
909.735, 1853.083
911.001, 1849.623
912.267, 1687.824
913.533, 1694.723
914.799, 1707.729
916.064, 1592.271
917.330, 1467.662
918.595, 1450.639
919.860, 1448.295
921.124, 1397.911
922.389, 1329.170
923.653, 1249.468
924.918, 1240.806
926.182, 1195.188
927.445, 1193.075
928.709, 1117.352
929.972, 1088.881
931.236, 1019.016
932.499, 985.290
933.761, 932.032
935.024, 907.675
936.286, 839.361
937.549, 823.074
938.811, 859.827
940.073, 753.614
941.334, 736.440
942.596, 751.456
943.857, 651.650
945.118, 698.104
946.379, 635.811
947.640, 599.347
948.900, 564.801
950.161, 554.920
951.421, 529.545
952.681, 535.521
953.940, 496.682
955.200, 484.413
956.459, 456.637
957.719, 441.529
958.978, 398.816
960.236, 378.446
961.495, 297.549
962.753, 386.614
964.012, 367.424
965.270, 268.707
966.527, 298.383
967.785, 270.831
969.043, 201.357
970.300, 281.989
971.557, 248.648
972.814, 157.446
974.071, 241.071
975.327, 191.724
976.583, 222.403
977.840, 160.108
979.095, 140.839
980.351, 101.596
981.607, 126.385
982.862, 161.239
984.117, 74.203
985.372, 95.062
986.627, 67.947
987.882, 80.855
989.136, 49.787
990.390, 56.844
991.644, 59.824
992.898, 33.889
994.152, 36.915
995.405, 20.212
996.659, 3.711
997.912, 17.388
999.165, 41.515
1000.417, 39.663
1001.670, 29.854
1002.922, 5.048
1004.174, 26.653
1005.426, 6.109
1006.678, 38.853
1007.930, 29.586
1009.181, 11.694
1010.432, 76.008
1011.683, 8.716
1012.934, 23.620
1014.185, 10.962
1015.435, 10.315
1016.685, 2.706
1017.935, 51.906
1019.185, 3.479
1020.435, 25.111
1021.684, 88.698
1022.934, 24.304
1024.183, 52.903
1025.432, 6.591
1026.680, 36.000
1027.929, 36.591
1029.177, 25.181
1030.425, 6.770
1031.673, 34.656
1032.921, 29.904
1034.169, 66.466
1035.416, 53.044
1036.663, 47.634
1037.911, 46.235
1039.157, 62.848
1040.404, 39.481
1041.650, 17.124
1042.897, 5.767
1044.143, 33.407
1045.389, 10.057
1046.634, 31.315
1047.880, 3.369
1049.125, 36.030
1050.371, 58.704
1051.615, 9.402
1052.860, 4.899
1054.105, 17.799
1055.349, 2.504
1056.593, 52.210
1057.837, 37.060
1059.081, 30.335
1060.325, 17.384
1061.568, 10.886
1062.812, 20.842
1064.055, 37.418
1065.298, 11.317
1066.540, 13.937
1067.783, 34.809
1069.025, 10.424
1070.267, 25.345
1071.509, 71.865
1072.751, 37.078
1073.993, 58.292
1075.234, 15.494
1076.475, 15.702
1077.716, 7.892
1078.957, 4.076
1080.198, 14.572
1081.438, 12.738
1082.679, 32.899
1083.919, 68.059
1085.159, 47.221
1086.398, 67.851
1087.638, 70.146
1088.877, 67.724
1090.116, 54.890
1091.355, 40.052
1092.594, 34.120
1093.833, 26.518
1095.071, 20.590
1096.309, 27.823
1097.547, 32.942
1098.785, 54.052
1100.023, 44.156
1101.260, 13.276
1102.498, 77.356
1103.735, 32.614
1104.972, 69.708
1106.208, 30.763
1107.445, 70.805
1108.681, 45.840
1109.918, 28.959
1111.154, 32.018
1112.389, 44.144
1113.625, 28.194
1114.860, 56.169
1116.096, 26.227
1117.331, 76.519
1118.566, 68.520
1119.800, 69.615
1121.035, 61.641
1122.269, 93.920
1123.503, 109.438
1124.737, 93.426
1125.971, 123.518
1127.205, 135.634
1128.438, 91.981
1129.671, 86.979
1130.904, 83.457
1132.137, 75.555
1133.370, 94.018
1134.602, 108.149
1135.834, 110.317
1137.066, 110.768
1138.298, 82.746
1139.530, 106.894
1140.762, 89.272
1141.993, 108.276
1143.224, 74.917
1144.455, 138.841
1145.686, 125.078
1146.917, 175.497
1148.147, 112.751
1149.377, 102.624
1150.607, 137.756
1151.837, 71.350
1153.067, 149.495
1154.296, 131.396
1155.526, 121.078
1156.755, 124.607
1157.984, 133.480
1159.213, 119.161
1160.441, 104.383
1161.670, 107.881
1162.898, 127.928
1164.126, 108.898
1165.354, 134.824
1166.581, 145.787
1167.809, 111.886
1169.036, 147.868
1170.263, 152.868
1171.490, 146.217
1172.717, 91.644
1173.943, 142.448
1175.170, 158.944
1176.396, 112.520
1177.622, 159.993
1178.848, 154.493
1180.073, 165.550
1181.299, 169.688
1182.524, 161.194
1183.749, 172.639
1184.974, 142.740
1186.199, 189.849
1187.423, 170.874
1188.648, 178.030
1189.872, 155.687
1191.096, 146.525
1192.320, 105.844
1193.543, 169.253
1194.767, 141.301
1195.990, 161.822
1197.213, 133.968
1198.436, 173.837
1199.659, 114.286
1200.881, 104.009
1202.104, 132.937
1203.326, 143.504
1204.548, 134.257
1205.770, 152.599
1206.991, 162.802
1208.213, 180.363
1209.434, 129.324
1210.655, 146.818
1211.876, 141.145
1213.096, 162.677
1214.317, 139.479
1215.537, 113.017
1216.757, 170.613
1217.977, 156.895
1219.197, 101.820
1220.417, 99.658
1221.636, 125.220
1222.855, 158.753
1224.074, 121.919
1225.293, 118.133
1226.512, 49.722
1227.731, 142.748
1228.949, 80.184
1230.167, 91.082
1231.385, 126.492
1232.603, 108.113
1233.820, 140.171
1235.038, 145.131
1236.255, 116.525
1237.472, 145.730
1238.689, 137.777
1239.906, 103.765
1241.122, 75.490
1242.338, 73.978
1243.555, 100.726
1244.771, 116.511
1245.986, 97.752
1247.202, 92.545
1248.417, 118.406
1249.633, 67.499
1250.848, 91.933
1252.063, 110.049
1253.277, 101.391
1254.492, 117.335
1255.706, 79.950
1256.920, 91.192
1258.134, 74.640
1259.348, 88.235
1260.562, 102.179
1261.775, 80.774
1262.988, 53.558
1264.201, 88.254
1265.414, 69.922
1266.627, 78.649
1267.839, 52.104
1269.052, 35.854
1270.264, 82.682
1271.476, 66.113
1272.688, 62.597
1273.899, 43.827
1275.111, 74.220
1276.322, 34.682
1277.533, 60.779
1278.744, 33.838
1279.955, 56.141
1281.165, 52.216
1282.376, 48.419
1283.586, 45.612
1284.796, 50.739
1286.006, 33.861
1287.215, 59.828
1288.425, 6.215
1289.634, 65.465
1290.843, 34.345
1292.052, 3.911
1293.261, 34.926
1294.469, 5.739
1295.678, 40.485
1296.886, 14.147
1298.094, 36.476
1299.302, 45.041
1300.509, 2.684
1301.717, 21.116
1302.924, 51.614
1304.131, 3.980
1305.338, 14.830
1306.545, 32.178
1307.752, 10.567
1308.958, 35.824
1310.164, 37.052
1311.370, 27.174
1312.576, 23.337
1313.782, 3.615
1314.987, 18.409
1316.193, 10.414
1317.398, 37.385
1318.603, 34.368
1319.807, 15.327
1321.012, 7.262
1322.216, 44.230
1323.421, 6.962
1324.625, 11.881
1325.829, 36.602
1327.032, 14.364
1328.236, 2.084
1329.439, 31.751
1330.642, 31.365
1331.845, 39.954
1333.048, 45.517
1334.251, 15.050
1335.453, 37.550
1336.656, 42.016
1337.858, 45.453
1339.060, 73.855
1340.261, 58.332
1341.463, 22.867
1342.664, 21.603
1343.866, 21.883
1345.067, 56.129
1346.267, 19.339
1347.468, 25.519
1348.669, 31.666
1349.869, 19.789
1351.069, 27.871
1352.269, 22.915
1353.469, 19.995
1354.668, 7.969
1355.868, 12.296
1357.067, 30.959
1358.266, 22.919
1359.465, 4.760
1360.664, 20.572
1361.862, 55.378
1363.061, 28.110
1364.259, 32.805
1365.457, 60.462
1366.655, 60.084
1367.852, 44.676
1369.050, 10.225
1370.247, 38.734
1371.444, 34.885
1372.641, 0.324
1373.838, 3.726
1375.035, 5.911
1376.231, 9.876
1377.427, 17.255
1378.623, 4.120
1379.819, 33.176
1381.015, 61.601
1382.211, 60.013
1383.406, 47.164
1384.601, 49.506
1385.796, 49.789
1386.991, 40.880
1388.185, 48.101
1389.380, 35.326
1390.574, 76.368
1391.768, 69.328
1392.962, 52.358
1394.156, 71.010
1395.350, 44.768
1396.543, 58.674
1397.736, 62.295
1398.929, 60.382
1400.122, 47.350
1401.315, 28.107
1402.507, 41.044
1403.700, 68.744
1404.892, 58.188
1406.084, 65.132
1407.276, 67.671
1408.467, 49.265
1409.659, 37.530
1410.850, 52.968
1412.041, 36.083
1413.232, 22.863
1414.423, 80.272
1415.614, 55.945
1416.804, 120.622
1417.994, 61.775
1419.184, 38.564
1420.374, 101.459
1421.564, 81.401
1422.753, 45.210
1423.943, 87.315
1425.132, 48.096
1426.321, 40.308
1427.510, 31.444
1428.698, 40.256
1429.887, 54.453
1431.075, 64.133
1432.263, 63.169
1433.451, 63.481
1434.639, 87.258
1435.827, 54.746
1437.014, 50.958
1438.201, 52.013
1439.388, 65.350
1440.575, 42.508
1441.762, 67.824
1442.949, 40.382
1444.135, 97.072
1445.321, 59.924
1446.507, 85.592
1447.693, 0.248
1448.879, 57.303
1450.064, 63.040
1451.250, 21.987
1452.435, 46.547
1453.620, 79.571
1454.805, 50.327
1455.989, 73.780
1457.174, 71.921
1458.358, 84.647
1459.542, 76.962
1460.726, 28.429
1461.910, 46.908
1463.093, 43.801
1464.277, 26.886
1465.460, 61.799
1466.643, 36.270
1467.826, 79.004
1469.009, 35.026
1470.191, 38.406
1471.373, 43.377
1472.556, 76.215
1473.738, 74.195
1474.919, 47.255
1476.101, 82.596
1477.283, 70.187
1478.464, 56.139
1479.645, 63.373
1480.826, 51.753
1482.007, 14.028
1483.187, 0.558
1484.368, 7.948
1485.548, 67.696
1486.728, 43.790
1487.908, 45.350
1489.088, 37.927
1490.268, 37.713
1491.447, 76.798
1492.626, 91.926
1493.805, 45.919
1494.984, 10.138
1496.163, 38.049
1497.341, 1.588
1498.520, 46.896
1499.698, 2.391
1500.876, 47.862
1502.054, 59.593
1503.232, 6.252
1504.409, 45.487
1505.586, 38.682
1506.763, 42.812
1507.940, 29.939
1509.117, 66.298
1510.294, 47.530
1511.470, 88.005
1512.647, 30.918
1513.823, 51.649
1514.999, 58.189
1516.174, 30.798
