##NAMES=Vanadinite
##RRUFFID=R050171
##IDEAL CHEMISTRY=Pb^2+^_5_(V^5+^O_4_)_3_Cl
##LOCALITY=Hamburg mine, La Paz County, Arizona, USA
##OWNER=RRUFF
##SOURCE=Marcus Origlieri
##DESCRIPTION=Red prismatic hexagonal crystals
##STATUS=The identification of this mineral has been confirmed by X-ray diffraction and chemical analysis
##URL=rruff.info/R050171
##MEASURED CHEMISTRY=Pb_5.00_((V_0.89_As_0.11_)O_4_)_3_Cl_1.00_
##PIN_ID=M00093
##ORIENTATION=Laser parallel to -a* (-1 0 0). Fiducial mark perpendicular to laser is parallel to -c [0 0 -1]
70.349, 0.000
71.747, 11.309
73.144, 18.357
74.540, 204.309
75.937, 510.177
77.333, 1079.562
78.729, 1304.403
80.125, 1576.476
81.521, 1516.156
82.916, 1501.753
84.311, 1673.676
85.706, 2000.472
87.101, 2306.951
88.496, 2414.266
89.890, 2586.151
91.284, 2785.834
92.678, 2866.321
94.071, 2965.084
95.465, 2903.306
96.858, 2964.282
98.251, 2889.492
99.644, 2869.550
101.036, 2822.171
102.428, 2754.804
103.820, 2500.477
105.212, 2577.319
106.604, 2430.140
107.995, 2237.173
109.387, 2275.391
110.777, 2337.447
112.168, 2280.781
113.559, 2268.274
114.949, 2344.150
116.339, 2374.502
117.729, 2429.612
119.119, 2386.182
120.508, 2437.501
121.897, 2454.651
123.286, 2548.585
124.675, 2505.356
126.063, 2696.962
127.452, 2728.496
128.840, 2931.040
130.228, 3120.667
131.615, 3127.440
133.003, 3129.417
134.390, 3277.906
135.777, 3291.179
137.164, 3265.866
138.550, 3374.921
139.937, 3391.758
141.323, 3348.462
142.709, 3382.312
144.094, 3280.990
145.480, 3222.375
146.865, 3203.190
148.250, 3152.811
149.635, 3034.897
151.019, 3012.062
152.403, 2951.852
153.788, 2875.960
155.171, 2824.429
156.555, 2738.999
157.939, 2655.628
159.322, 2513.626
160.705, 2460.149
162.088, 2404.965
163.470, 2146.809
164.853, 2146.344
166.235, 2035.467
167.617, 1957.597
168.998, 1883.846
170.380, 1794.010
171.761, 1761.314
173.142, 1619.748
174.523, 1598.302
175.904, 1508.967
177.284, 1413.730
178.664, 1343.585
180.044, 1270.356
181.424, 1198.524
182.803, 1135.592
184.183, 1092.715
185.562, 1008.885
186.940, 916.094
188.319, 892.338
189.698, 808.608
191.076, 774.890
192.454, 693.173
193.831, 693.440
195.209, 569.676
196.586, 543.865
197.963, 462.994
199.340, 397.056
200.717, 418.052
202.093, 293.984
203.470, 321.850
204.846, 267.648
206.221, 244.378
207.597, 167.045
208.972, 122.641
210.347, 139.167
211.722, 65.623
213.097, 39.008
214.472, 9.323
215.846, 27.882
217.220, 18.261
218.594, 75.169
219.967, 65.163
221.341, 84.248
222.714, 86.434
224.087, 158.727
225.460, 144.156
226.832, 202.775
228.204, 182.628
229.577, 126.741
230.948, 147.156
232.320, 192.929
233.692, 198.012
235.063, 160.439
236.434, 205.190
237.805, 130.283
239.175, 92.245
240.545, 178.328
241.916, 162.988
243.286, 168.340
244.655, 74.470
246.025, 60.416
247.394, 37.232
248.763, 27.047
250.132, 13.394
251.501, 55.776
252.869, 59.179
254.237, 98.586
255.605, 162.984
256.973, 175.359
258.340, 243.693
259.708, 307.970
261.075, 363.184
262.442, 426.319
263.808, 533.371
265.175, 613.237
266.541, 676.199
267.907, 825.977
269.273, 922.665
270.639, 1052.257
272.004, 1132.758
273.369, 1345.194
274.734, 1606.531
276.099, 1727.859
277.463, 2085.921
278.828, 2298.022
280.192, 2609.971
281.556, 3077.641
282.919, 3517.340
284.283, 3973.990
285.646, 4481.511
287.009, 4983.795
288.372, 5650.954
289.734, 6274.044
291.097, 6674.034
292.459, 7108.882
293.821, 7263.625
295.183, 7334.349
296.544, 7217.888
297.905, 6811.319
299.266, 6499.533
300.627, 6089.658
301.988, 5517.705
303.348, 5110.717
304.709, 4672.598
306.069, 4269.400
307.428, 3900.866
308.788, 3684.055
310.147, 3335.971
311.507, 3111.660
312.865, 3024.997
314.224, 2919.962
315.583, 2779.732
316.941, 2805.090
318.299, 2769.871
319.657, 2767.466
321.015, 2667.734
322.372, 2741.518
323.729, 2625.237
325.086, 2617.715
326.443, 2607.228
327.800, 2572.622
329.156, 2520.120
330.512, 2380.463
331.868, 2337.001
333.224, 2307.167
334.579, 2295.344
335.935, 2318.447
337.290, 2230.542
338.645, 2260.524
339.999, 2319.261
341.354, 2424.438
342.708, 2423.475
344.062, 2572.031
345.416, 2626.711
346.769, 2782.214
348.123, 2940.616
349.476, 3163.236
350.829, 3285.518
352.182, 3664.664
353.534, 3951.260
354.887, 4362.252
356.239, 4779.653
357.591, 5231.611
358.942, 5736.787
360.294, 6193.500
361.645, 6803.438
362.996, 7065.774
364.347, 7571.106
365.698, 7760.770
367.048, 7862.899
368.398, 7762.346
369.748, 7421.746
371.098, 7272.754
372.448, 6711.017
373.797, 6229.900
375.146, 5812.770
376.495, 5243.927
377.844, 4802.126
379.192, 4339.058
380.540, 3955.525
381.889, 3612.235
383.236, 3239.530
384.584, 2944.719
385.932, 2751.943
387.279, 2532.272
388.626, 2339.764
389.973, 2136.857
391.319, 1968.839
392.666, 1863.582
394.012, 1784.426
395.358, 1681.949
396.704, 1572.849
398.049, 1527.510
399.394, 1453.644
400.740, 1346.195
402.084, 1304.266
403.429, 1288.650
404.774, 1255.636
406.118, 1228.229
407.462, 1104.650
408.806, 1084.871
410.150, 1011.725
411.493, 1029.362
412.836, 985.319
414.179, 941.819
415.522, 852.171
416.865, 909.402
418.207, 850.374
419.549, 779.648
420.891, 794.842
422.233, 704.204
423.575, 714.980
424.916, 674.226
426.257, 650.877
427.598, 614.527
428.939, 598.573
430.279, 582.054
431.619, 558.115
432.959, 523.929
434.299, 514.933
435.639, 505.478
436.978, 473.235
438.318, 496.969
439.657, 444.116
440.996, 435.002
442.334, 458.622
443.673, 407.192
445.011, 377.129
446.349, 365.955
447.687, 386.114
449.024, 377.089
450.361, 355.820
451.699, 342.054
453.036, 341.534
454.372, 330.690
455.709, 300.615
457.045, 310.769
458.381, 302.487
459.717, 321.330
461.053, 309.488
462.388, 291.932
463.724, 264.917
465.059, 255.179
466.394, 233.168
467.728, 261.256
469.063, 264.245
470.397, 254.147
471.731, 230.961
473.065, 221.689
474.398, 212.332
475.732, 191.891
477.065, 191.712
478.398, 218.360
479.731, 199.085
481.063, 194.321
482.396, 227.581
483.728, 193.666
485.060, 206.901
486.391, 180.320
487.723, 179.219
489.054, 153.008
490.385, 160.030
491.716, 129.682
493.047, 160.785
494.377, 149.293
495.708, 147.709
497.038, 138.052
498.368, 141.398
499.697, 159.595
501.027, 105.840
502.356, 108.890
503.685, 149.034
505.014, 122.939
506.342, 132.772
507.671, 133.535
508.999, 101.228
510.327, 124.849
511.655, 129.399
512.982, 80.881
514.310, 124.290
515.637, 78.630
516.964, 104.898
518.291, 78.098
519.617, 110.227
520.944, 72.289
522.270, 86.281
523.596, 84.208
524.921, 87.068
526.247, 56.866
527.572, 75.597
528.897, 63.266
530.222, 45.872
531.547, 50.415
532.871, 31.901
534.196, 26.322
535.520, 24.684
536.844, 41.990
538.167, 33.965
539.491, 8.481
540.814, 30.663
542.137, 26.823
543.460, 19.961
544.783, 39.077
546.105, 1.818
547.427, 8.723
548.749, 18.358
550.071, 23.453
551.393, 13.561
552.714, 12.336
554.035, 8.755
555.356, 11.858
556.677, 22.977
557.998, 12.107
559.318, 2.742
560.638, 23.599
561.958, 22.481
563.278, 20.365
564.597, 23.253
565.917, 42.142
567.236, 13.067
568.555, 36.015
569.874, 8.001
571.192, 12.027
572.511, 14.089
573.829, 30.196
575.147, 33.355
576.464, 32.570
577.782, 38.460
579.099, 29.181
580.416, 42.576
581.733, 15.038
583.050, 21.552
584.366, 6.121
585.683, 2.740
586.999, 28.405
588.315, 38.131
589.630, 31.920
590.946, 16.768
592.261, 54.680
593.576, 14.701
594.891, 39.802
596.206, 24.096
597.520, 15.336
598.834, 12.834
600.148, 30.406
601.462, 11.923
602.776, 22.687
604.089, 0.385
605.402, 51.612
606.715, 10.579
608.028, 7.609
609.341, 15.247
610.653, 30.971
611.965, 1.225
613.277, 8.457
614.589, 9.001
615.901, 9.564
617.212, 6.918
618.523, 19.337
619.834, 20.174
621.145, 21.399
622.456, 7.895
623.766, 27.860
625.076, 2.272
626.386, 4.514
627.696, 14.762
629.006, 24.075
630.315, 16.057
631.624, 22.110
632.933, 4.104
634.242, 19.065
635.551, 11.237
636.859, 20.219
638.167, 14.676
639.475, 6.458
640.783, 10.588
642.090, 13.531
643.398, 24.574
644.705, 1.793
646.012, 7.990
647.318, 18.431
648.625, 1.215
649.931, 28.412
651.237, 0.262
652.543, 20.856
653.849, 22.455
655.155, 6.008
656.460, 28.574
657.765, 9.671
659.070, 51.574
660.375, 13.113
661.679, 13.611
662.984, 16.140
664.288, 29.774
665.592, 63.439
666.895, 68.814
668.199, 34.456
669.502, 71.163
670.805, 87.351
672.108, 79.069
673.411, 117.308
674.713, 115.922
676.016, 101.244
677.318, 147.962
678.620, 154.282
679.921, 191.849
681.223, 207.431
682.524, 216.083
683.825, 260.308
685.126, 277.913
686.427, 290.386
687.727, 350.520
689.028, 348.841
690.328, 420.665
691.628, 386.352
692.927, 458.051
694.227, 532.429
695.526, 519.636
696.825, 603.809
698.124, 667.063
699.423, 684.259
700.721, 779.262
702.020, 799.995
703.318, 874.986
704.616, 990.634
705.913, 1049.909
707.211, 1091.474
708.508, 1207.700
709.805, 1303.468
711.102, 1430.615
712.399, 1515.389
713.695, 1594.943
714.992, 1672.512
716.288, 1818.297
717.584, 1857.861
718.879, 1941.579
720.175, 1994.509
721.470, 1975.340
722.765, 1979.065
724.060, 1950.704
725.355, 1982.992
726.649, 1859.123
727.944, 1844.088
729.238, 1782.011
730.532, 1596.015
731.825, 1610.912
733.119, 1515.955
734.412, 1513.725
735.705, 1486.179
736.998, 1450.892
738.291, 1458.682
739.584, 1419.650
740.876, 1437.822
742.168, 1454.241
743.460, 1395.329
744.752, 1445.920
746.043, 1538.986
747.334, 1501.986
748.626, 1655.855
749.916, 1724.115
751.207, 1771.097
752.498, 1812.038
753.788, 1934.500
755.078, 2068.162
756.368, 2053.030
757.658, 2247.886
758.947, 2365.316
760.237, 2510.792
761.526, 2644.873
762.815, 2829.074
764.104, 3029.958
765.392, 3196.273
766.680, 3488.782
767.969, 3651.561
769.257, 3901.514
770.544, 4197.177
771.832, 4427.222
773.119, 4687.087
774.406, 5091.580
775.693, 5418.732
776.980, 5773.285
778.267, 6236.508
779.553, 6549.953
780.839, 7104.249
782.125, 7491.592
783.411, 8144.970
784.697, 8622.384
785.982, 9059.834
787.267, 9827.320
788.552, 10544.847
789.837, 10932.018
791.122, 11849.423
792.406, 12716.662
793.690, 13474.352
794.974, 14321.984
796.258, 15549.763
797.542, 16667.354
798.825, 17444.729
800.108, 18962.584
801.391, 20440.518
802.674, 21678.191
803.957, 23886.195
805.239, 25483.719
806.522, 26901.805
807.804, 29639.945
809.085, 30388.131
810.367, 32646.283
811.649, 34264.559
812.930, 36312.742
814.211, 38411.094
815.492, 39919.320
816.772, 42137.758
818.053, 44806.227
819.333, 46454.750
820.613, 48853.312
821.893, 49681.922
823.173, 52070.562
824.452, 53219.250
825.732, 54867.973
827.011, 55276.758
828.290, 55345.570
829.568, 55604.426
830.847, 54143.336
832.125, 52632.270
833.403, 51391.262
834.681, 49000.297
835.959, 46809.367
837.236, 44888.492
838.514, 41677.652
839.791, 39376.867
841.068, 36916.125
842.345, 34635.422
843.621, 31834.766
844.898, 29714.160
846.174, 27943.600
847.450, 25563.094
848.726, 24242.623
850.001, 21872.201
851.277, 20211.959
852.552, 19441.631
853.827, 17381.639
855.102, 16251.434
856.376, 15221.249
857.651, 14091.873
858.925, 13311.890
860.199, 12412.622
861.473, 11542.650
862.746, 10892.855
864.020, 10263.008
865.293, 9453.225
866.566, 9074.221
867.839, 8554.871
869.112, 8255.166
870.384, 7787.190
871.656, 7296.928
872.928, 7018.378
874.200, 6779.646
875.472, 6420.476
876.744, 6298.356
878.015, 5892.523
879.286, 5614.153
880.557, 5388.042
881.828, 5156.562
883.098, 4832.962
884.369, 4554.852
885.639, 4467.099
886.909, 4092.483
888.178, 3919.451
889.448, 3751.752
890.717, 3393.096
891.987, 3387.321
893.256, 3242.154
894.524, 2952.871
895.793, 2818.222
897.061, 2722.223
898.330, 2558.517
899.598, 2484.046
900.865, 2322.061
902.133, 2332.297
903.401, 2154.273
904.668, 2103.284
905.935, 1952.603
907.202, 1885.490
908.468, 1830.364
909.735, 1852.208
911.001, 1767.854
912.267, 1648.203
913.533, 1673.815
914.799, 1578.187
916.064, 1500.394
917.330, 1430.694
918.595, 1366.156
919.860, 1320.194
921.124, 1341.354
922.389, 1245.574
923.653, 1218.419
924.918, 1192.524
926.182, 1068.340
927.445, 1079.493
928.709, 1037.917
929.972, 956.949
931.236, 899.081
932.499, 921.537
933.761, 843.967
935.024, 914.667
936.286, 783.242
937.549, 772.162
938.811, 753.796
940.073, 617.638
941.334, 655.142
942.596, 650.866
943.857, 523.858
945.118, 591.321
946.379, 561.671
947.640, 522.811
948.900, 511.682
950.161, 505.860
951.421, 479.053
952.681, 447.018
953.940, 447.929
955.200, 404.582
956.459, 412.677
957.719, 389.747
958.978, 379.862
960.236, 401.075
961.495, 322.224
962.753, 348.399
964.012, 318.599
965.270, 261.825
966.527, 228.074
967.785, 276.566
969.043, 188.950
970.300, 201.287
971.557, 255.924
972.814, 218.298
974.071, 180.696
975.327, 159.118
976.583, 163.563
977.840, 180.033
979.095, 155.526
980.351, 154.196
981.607, 132.735
982.862, 99.296
984.117, 91.071
985.372, 53.728
986.627, 52.504
987.882, 66.584
989.136, 79.367
990.390, 65.300
991.644, 53.017
992.898, 66.831
994.152, 38.602
995.405, 46.422
996.659, 54.184
997.912, 43.004
999.165, 16.844
1000.417, 4.755
1001.670, 8.414
1002.922, 17.544
1004.174, 15.485
1005.426, 0.551
1006.678, 31.400
1007.930, 29.634
1009.181, 5.656
1010.432, 28.665
1011.683, 0.338
1012.934, 7.643
1014.185, 1.611
1015.435, 2.564
1016.685, 26.505
1017.935, 15.438
1019.185, 7.643
1020.435, 44.267
1021.684, 36.180
1022.934, 5.906
1024.183, 21.995
1025.432, 8.890
1026.680, 51.778
1027.929, 55.675
1029.177, 22.583
1030.425, 26.491
1031.673, 37.400
1032.921, 33.315
1034.169, 41.236
1035.416, 46.412
1036.663, 47.108
1037.911, 56.064
1039.157, 42.038
1040.404, 41.023
1041.650, 4.979
1042.897, 8.014
1044.143, 43.005
1045.389, 8.990
1046.634, 45.010
1047.880, 11.027
1049.125, 33.047
1050.371, 22.059
1051.615, 5.103
1052.860, 18.148
1054.105, 17.202
1055.349, 2.264
1056.593, 30.330
1057.837, 24.413
1059.081, 12.510
1060.325, 21.615
1061.568, 4.264
1062.812, 0.143
1064.055, 7.013
1065.298, 13.881
1066.540, 12.749
1067.783, 9.615
1069.025, 15.522
1070.267, 5.674
1071.509, 28.162
1072.751, 12.003
1073.993, 2.816
1075.234, 10.626
1076.475, 4.543
1077.716, 30.338
1078.957, 10.129
1080.198, 10.074
1081.438, 3.692
1082.679, 5.459
1083.919, 28.201
1085.159, 58.146
1086.398, 23.907
1087.638, 62.635
1088.877, 31.403
1090.116, 7.878
1091.355, 55.975
1092.594, 3.775
1093.833, 17.471
1095.071, 0.703
1096.309, 4.243
1097.547, 53.660
1098.785, 34.553
1100.023, 36.180
1101.260, 54.832
1102.498, 15.593
1103.735, 24.462
1104.972, 52.114
1106.208, 65.780
1107.445, 57.453
1108.681, 15.083
1109.918, 81.894
1111.154, 72.566
1112.389, 69.405
1113.625, 100.908
1114.860, 69.445
1116.096, 50.010
1117.331, 59.801
1118.566, 67.620
1119.800, 48.474
1121.035, 77.345
1122.269, 101.150
1123.503, 125.017
1124.737, 111.828
1125.971, 102.768
1127.205, 113.556
1128.438, 62.377
1129.671, 86.301
1130.904, 111.105
1132.137, 62.283
1133.370, 75.491
1134.602, 67.654
1135.834, 52.547
1137.066, 72.152
1138.298, 63.008
1139.530, 99.606
1140.762, 77.732
1141.993, 86.278
1143.224, 113.806
1144.455, 125.360
1145.686, 117.986
1146.917, 113.752
1148.147, 85.896
1149.377, 104.488
1150.607, 109.898
1151.837, 89.356
1153.067, 106.629
1154.296, 107.341
1155.526, 110.667
1156.755, 145.918
1157.984, 153.235
1159.213, 147.755
1160.441, 142.495
1161.670, 128.708
1162.898, 118.357
1164.126, 130.543
1165.354, 135.333
1166.581, 103.323
1167.809, 111.771
1169.036, 174.493
1170.263, 119.406
1171.490, 112.596
1172.717, 146.491
1173.943, 119.307
1175.170, 121.385
1176.396, 130.166
1177.622, 120.138
1178.848, 121.974
1180.073, 106.479
1181.299, 114.891
1182.524, 104.872
1183.749, 106.663
1184.974, 104.177
1186.199, 124.385
1187.423, 89.421
1188.648, 118.107
1189.872, 109.785
1191.096, 121.328
1192.320, 105.139
1193.543, 109.051
1194.767, 92.160
1195.990, 93.178
1197.213, 77.935
1198.436, 93.221
1199.659, 101.418
1200.881, 106.724
1202.104, 92.206
1203.326, 110.186
1204.548, 106.561
1205.770, 78.276
1206.991, 100.730
1208.213, 101.332
1209.434, 72.422
1210.655, 75.206
1211.876, 86.164
1213.096, 101.959
1214.317, 100.134
1215.537, 89.449
1216.757, 108.053
1217.977, 78.140
1219.197, 98.371
1220.417, 73.087
1221.636, 110.580
1222.855, 60.372
1224.074, 80.809
1225.293, 74.859
1226.512, 69.362
1227.731, 120.874
1228.949, 67.911
1230.167, 101.158
1231.385, 51.004
1232.603, 67.242
1233.820, 79.254
1235.038, 66.233
1236.255, 82.134
1237.472, 55.160
1238.689, 59.428
1239.906, 68.776
1241.122, 53.956
1242.338, 62.494
1243.555, 65.007
1244.771, 43.686
1245.986, 70.318
1247.202, 63.779
1248.417, 52.541
1249.633, 42.262
1250.848, 59.433
1252.063, 57.048
1253.277, 55.746
1254.492, 60.348
1255.706, 42.078
1256.920, 52.771
1258.134, 39.349
1259.348, 80.240
1260.562, 68.721
1261.775, 62.207
1262.988, 40.478
1264.201, 37.930
1265.414, 35.321
1266.627, 33.330
1267.839, 36.712
1269.052, 32.329
1270.264, 35.088
1271.476, 26.783
1272.688, 35.169
1273.899, 32.441
1275.111, 25.589
1276.322, 31.827
1277.533, 13.021
1278.744, 11.189
1279.955, 12.229
1281.165, 23.211
1282.376, 39.888
1283.586, 50.714
1284.796, 15.415
1286.006, 9.611
1287.215, 39.453
1288.425, 1.594
1289.634, 36.345
1290.843, 30.165
1292.052, 21.045
1293.261, 4.805
1294.469, 20.538
1295.678, 31.219
1296.886, 35.983
1298.094, 27.723
1299.302, 16.510
1300.509, 42.154
1301.717, 3.718
1302.924, 32.249
1304.131, 3.200
1305.338, 10.350
1306.545, 31.860
1307.752, 11.325
1308.958, 37.837
1310.164, 14.225
1311.370, 23.594
1312.576, 18.959
1313.782, 20.332
1314.987, 28.749
1316.193, 32.126
1317.398, 4.393
1318.603, 36.636
1319.807, 16.932
1321.012, 19.137
1322.216, 53.383
1323.421, 21.655
1324.625, 37.853
1325.829, 37.990
1327.032, 35.178
1328.236, 24.369
1329.439, 39.613
1330.642, 18.689
1331.845, 10.760
1333.048, 34.921
1334.251, 54.954
1335.453, 12.962
1336.656, 5.949
1337.858, 22.922
1339.060, 39.870
1340.261, 18.808
1341.463, 31.724
1342.664, 27.675
1343.866, 19.560
1345.067, 34.425
1346.267, 18.272
1347.468, 38.103
1348.669, 44.914
1349.869, 35.711
1351.069, 21.492
1352.269, 59.256
1353.469, 33.006
1354.668, 39.731
1355.868, 54.550
1357.067, 0.751
1358.266, 36.909
1359.465, 11.546
1360.664, 45.186
1361.862, 44.789
1363.061, 47.990
1364.259, 35.554
1365.457, 32.105
1366.655, 32.638
1367.852, 36.040
1369.050, 57.538
1370.247, 46.012
1371.444, 33.454
1372.641, 61.897
1373.838, 32.273
1375.035, 53.685
1376.231, 19.823
1377.427, 11.115
1378.623, 43.538
1379.819, 28.753
1381.015, 66.986
1382.211, 33.999
1383.406, 48.990
1384.601, 47.376
1385.796, 18.849
1386.991, 51.103
1388.185, 78.407
1389.380, 30.530
1390.574, 59.778
1391.768, 44.851
1392.962, 69.778
1394.156, 34.146
1395.350, 56.103
1396.543, 44.636
1397.736, 58.080
1398.929, 22.434
1400.122, 34.645
1401.315, 51.741
1402.507, 9.464
1403.700, 61.623
1404.892, 54.686
1406.084, 48.692
1407.276, 59.326
1408.467, 56.345
1409.659, 44.078
1410.850, 41.787
1412.041, 33.744
1413.232, 36.202
1414.423, 35.472
1415.614, 21.138
1416.804, 33.408
1417.994, 23.757
1419.184, 27.952
1420.374, 31.146
1421.564, 7.746
1422.753, 42.782
1423.943, 25.830
1425.132, 25.497
1426.321, 78.240
1427.510, 52.691
1428.698, 6.051
1429.887, 44.125
1431.075, 26.454
1432.263, 24.103
1433.451, 46.344
1434.639, 25.620
1435.827, 47.738
1437.014, 52.845
1438.201, 33.325
1439.388, 25.647
1440.575, 16.959
1441.762, 13.534
1442.949, 34.291
1444.135, 47.742
1445.321, 51.035
1446.507, 39.032
1447.693, 33.339
1448.879, 36.487
1450.064, 41.473
1451.250, 23.600
1452.435, 57.156
1453.620, 47.259
1454.805, 39.279
1455.989, 31.925
1457.174, 17.258
1458.358, 22.076
1459.542, 51.130
1460.726, 48.815
1461.910, 23.617
1463.093, 40.726
1464.277, 25.663
1465.460, 14.504
1466.643, 27.241
1467.826, 58.916
1469.009, 20.428
1470.191, 15.885
1471.373, 5.097
1472.556, 49.308
1473.738, 32.155
1474.919, 8.585
1476.101, 57.194
1477.283, 45.189
1478.464, 55.576
1479.645, 45.973
1480.826, 39.660
1482.007, 67.981
1483.187, 32.885
1484.368, 11.821
1485.548, 30.546
1486.728, 36.888
1487.908, 40.294
1489.088, 46.577
1490.268, 42.057
1491.447, 32.037
1492.626, 36.206
1493.805, 32.389
1494.984, 42.642
1496.163, 28.430
1497.341, 3.536
1498.520, 20.701
1499.698, 50.058
1500.876, 38.796
1502.054, 18.181
1503.232, 30.560
1504.409, 8.067
1505.586, 67.794
1506.763, 43.142
1507.940, 27.478
1509.117, 80.834
1510.294, 36.204
1511.470, 66.478
1512.647, 66.734
1513.823, 25.923
1514.999, 53.757
1516.174, 7.123
1517.350, 43.153
1518.526, 65.748
