##NAMES=Vanadinite
##RRUFFID=R050171
##IDEAL CHEMISTRY=Pb^2+^_5_(V^5+^O_4_)_3_Cl
##LOCALITY=Hamburg mine, La Paz County, Arizona, USA
##OWNER=RRUFF
##SOURCE=Marcus Origlieri
##DESCRIPTION=Red prismatic hexagonal crystals
##STATUS=The identification of this mineral has been confirmed by X-ray diffraction and chemical analysis
##URL=rruff.info/R050171
##MEASURED CHEMISTRY=Pb_5.00_((V_0.89_As_0.11_)O_4_)_3_Cl_1.00_
##PIN_ID=M00426
##ORIENTATION=Laser parallel to c* (0 0 1). Fiducial mark perpendicular to laser is parallel to a [1 0 0]
71.747, 0.000
73.144, 14.310
74.540, 139.663
75.937, 327.472
77.333, 680.005
78.729, 977.549
80.125, 1284.464
81.521, 1729.264
82.916, 1997.903
84.311, 2415.367
85.706, 2920.055
87.101, 3590.589
88.496, 3995.859
89.890, 4755.066
91.284, 5377.781
92.678, 5884.041
94.071, 6121.217
95.465, 6243.092
96.858, 6111.604
98.251, 5978.404
99.644, 5506.565
101.036, 5055.775
102.428, 4335.690
103.820, 3676.266
105.212, 3017.535
106.604, 2549.432
107.995, 2222.323
109.387, 1716.330
110.777, 1603.109
112.168, 1342.564
113.559, 1235.062
114.949, 1059.332
116.339, 1024.542
117.729, 829.556
119.119, 713.732
120.508, 477.006
121.897, 408.366
123.286, 375.951
124.675, 245.052
126.063, 253.797
127.452, 226.888
128.840, 252.244
130.228, 245.125
131.615, 283.002
133.003, 314.700
134.390, 317.018
135.777, 371.874
137.164, 345.381
138.550, 397.155
139.937, 421.386
141.323, 440.144
142.709, 485.200
144.094, 539.854
145.480, 536.554
146.865, 676.308
148.250, 726.649
149.635, 685.868
151.019, 843.974
152.403, 865.112
153.788, 793.826
155.171, 926.959
156.555, 933.547
157.939, 1003.770
159.322, 1034.483
160.705, 1045.545
162.088, 1034.944
163.470, 1023.204
164.853, 991.118
166.235, 952.871
167.617, 959.300
168.998, 904.681
170.380, 965.834
171.761, 944.378
173.142, 904.904
174.523, 940.344
175.904, 901.083
177.284, 843.288
178.664, 803.790
180.044, 838.202
181.424, 773.642
182.803, 721.834
184.183, 738.299
185.562, 647.075
186.940, 692.479
188.319, 658.015
189.698, 671.822
191.076, 589.399
192.454, 564.539
193.831, 537.322
195.209, 469.636
196.586, 401.824
197.963, 357.871
199.340, 320.765
200.717, 278.803
202.093, 327.048
203.470, 251.422
204.846, 202.609
206.221, 262.603
207.597, 223.399
208.972, 104.991
210.347, 133.373
211.722, 118.541
213.097, 2.492
214.472, 46.220
215.846, 157.724
217.220, 43.992
218.594, 30.014
219.967, 4.216
221.341, 79.702
222.714, 67.445
224.087, 126.464
225.460, 133.774
226.832, 117.374
228.204, 88.260
229.577, 153.473
230.948, 106.075
232.320, 134.122
233.692, 226.609
235.063, 198.531
236.434, 198.951
237.805, 175.618
239.175, 140.516
240.545, 94.606
241.916, 172.253
243.286, 121.653
244.655, 138.910
246.025, 86.117
247.394, 80.327
248.763, 52.588
250.132, 18.945
251.501, 54.425
252.869, 0.943
254.237, 46.864
255.605, 6.870
256.973, 4.917
258.340, 65.472
259.708, 86.786
261.075, 67.852
262.442, 150.650
263.808, 88.188
265.175, 190.453
266.541, 95.449
267.907, 190.155
269.273, 272.571
270.639, 214.702
272.004, 279.539
273.369, 370.088
274.734, 380.347
276.099, 399.291
277.463, 467.911
278.828, 438.305
280.192, 511.421
281.556, 596.228
282.919, 588.874
284.283, 570.132
285.646, 678.225
287.009, 780.182
288.372, 768.820
289.734, 838.048
291.097, 873.915
292.459, 927.513
293.821, 964.925
295.183, 951.204
296.544, 995.291
297.905, 1030.948
299.266, 1092.505
300.627, 1158.777
301.988, 1210.747
303.348, 1185.134
304.709, 1328.453
306.069, 1368.587
307.428, 1415.406
308.788, 1550.570
310.147, 1655.597
311.507, 1785.982
312.865, 1854.143
314.224, 2065.841
315.583, 2154.981
316.941, 2379.814
318.299, 2458.965
319.657, 2674.558
321.015, 2875.763
322.372, 3101.624
323.729, 3224.239
325.086, 3562.403
326.443, 3703.044
327.800, 3887.437
329.156, 3953.594
330.512, 4119.417
331.868, 4198.024
333.224, 4189.197
334.579, 4104.306
335.935, 4072.008
337.290, 4065.364
338.645, 3948.607
339.999, 3911.520
341.354, 3860.113
342.708, 3953.278
344.062, 4010.485
345.416, 4145.165
346.769, 4459.572
348.123, 4632.910
349.476, 4884.681
350.829, 5018.481
352.182, 5232.840
353.534, 5339.076
354.887, 5268.881
356.239, 5218.585
357.591, 4854.901
358.942, 4603.753
360.294, 4259.043
361.645, 4044.865
362.996, 3757.545
364.347, 3481.563
365.698, 3336.757
367.048, 3087.396
368.398, 2878.313
369.748, 2697.588
371.098, 2684.614
372.448, 2554.926
373.797, 2420.416
375.146, 2316.490
376.495, 2224.063
377.844, 2166.601
379.192, 2164.153
380.540, 2093.252
381.889, 2119.653
383.236, 2081.665
384.584, 2081.708
385.932, 2072.006
387.279, 2063.555
388.626, 2026.913
389.973, 1995.664
391.319, 1957.136
392.666, 1913.657
394.012, 1891.612
395.358, 1861.256
396.704, 1831.648
398.049, 1822.688
399.394, 1810.794
400.740, 1816.464
402.084, 1726.929
403.429, 1748.784
404.774, 1712.178
406.118, 1780.798
407.462, 1804.537
408.806, 1859.763
410.150, 1786.941
411.493, 1801.448
412.836, 1821.587
414.179, 1864.025
415.522, 1776.816
416.865, 1792.295
418.207, 1782.953
419.549, 1684.062
420.891, 1633.785
422.233, 1583.088
423.575, 1441.480
424.916, 1397.141
426.257, 1265.245
427.598, 1269.047
428.939, 1165.693
430.279, 1125.337
431.619, 1075.987
432.959, 1001.059
434.299, 959.991
435.639, 920.655
436.978, 874.212
438.318, 857.742
439.657, 813.272
440.996, 792.993
442.334, 780.106
443.673, 732.747
445.011, 738.427
446.349, 690.072
447.687, 637.074
449.024, 627.923
450.361, 640.557
451.699, 644.007
453.036, 625.453
454.372, 587.747
455.709, 537.517
457.045, 503.500
458.381, 525.064
459.717, 467.787
461.053, 454.125
462.388, 498.889
463.724, 443.797
465.059, 433.357
466.394, 391.692
467.728, 376.751
469.063, 449.018
470.397, 392.725
471.731, 438.295
473.065, 371.731
474.398, 357.032
475.732, 369.245
477.065, 324.308
478.398, 348.218
479.731, 352.002
481.063, 334.663
482.396, 301.202
483.728, 253.620
485.060, 266.917
486.391, 304.096
487.723, 279.160
489.054, 256.109
490.385, 268.944
491.716, 256.667
493.047, 254.280
494.377, 250.894
495.708, 269.286
497.038, 252.572
498.368, 258.751
499.697, 243.826
501.027, 211.797
502.356, 224.665
503.685, 201.149
505.014, 215.098
506.342, 182.666
507.671, 169.135
508.999, 169.507
510.327, 163.783
511.655, 190.965
512.982, 193.053
514.310, 172.050
515.637, 129.956
516.964, 153.771
518.291, 155.498
519.617, 180.138
520.944, 160.662
522.270, 91.171
523.596, 108.565
524.921, 119.880
526.247, 75.115
527.572, 91.274
528.897, 83.358
530.222, 58.367
531.547, 60.300
532.871, 60.165
534.196, 63.961
535.520, 34.692
536.844, 28.367
538.167, 26.540
539.491, 44.510
540.814, 18.988
542.137, 7.404
543.460, 9.607
544.783, 5.927
546.105, 9.659
547.427, 2.421
548.749, 24.795
550.071, 20.999
551.393, 5.816
552.714, 19.356
554.035, 28.484
555.356, 9.352
556.677, 6.789
557.998, 45.942
559.318, 38.885
560.638, 2.726
561.958, 17.572
563.278, 5.561
564.597, 20.295
565.917, 12.162
567.236, 22.030
568.555, 38.916
569.874, 1.827
571.192, 18.752
572.511, 52.705
573.829, 2.690
575.147, 41.697
576.464, 42.729
577.782, 6.795
579.099, 11.121
580.416, 19.985
581.733, 1.875
583.050, 33.288
584.366, 53.493
585.683, 53.744
586.999, 16.046
588.315, 3.373
589.630, 28.727
590.946, 17.120
592.261, 62.544
593.576, 61.020
594.891, 9.550
596.206, 27.110
597.520, 61.707
598.834, 36.457
600.148, 37.314
601.462, 40.248
602.776, 25.407
604.089, 8.559
605.402, 9.919
606.715, 15.492
608.028, 7.864
609.341, 21.712
610.653, 23.284
611.965, 18.944
613.277, 4.232
614.589, 18.803
615.901, 50.016
617.212, 9.073
618.523, 28.400
619.834, 25.207
621.145, 4.994
622.456, 26.575
623.766, 17.894
625.076, 42.539
626.386, 22.259
627.696, 52.323
629.006, 24.675
630.315, 37.224
631.624, 11.504
632.933, 2.270
634.242, 0.017
635.551, 30.126
636.859, 37.347
638.167, 39.597
639.475, 49.465
640.783, 15.853
642.090, 43.735
643.398, 57.688
644.705, 41.815
646.012, 85.855
647.318, 54.818
648.625, 103.855
649.931, 4.861
651.237, 10.122
652.543, 26.901
653.849, 43.025
655.155, 75.103
656.460, 49.231
657.765, 101.323
659.070, 52.307
660.375, 85.372
661.679, 60.366
662.984, 124.448
664.288, 87.424
665.592, 81.374
666.895, 136.357
668.199, 121.347
669.502, 187.484
670.805, 219.663
672.108, 203.788
673.411, 214.772
674.713, 221.891
676.016, 217.054
677.318, 247.356
678.620, 280.615
679.921, 296.564
681.223, 374.683
682.524, 392.889
683.825, 401.880
685.126, 398.052
686.427, 466.233
687.727, 485.202
689.028, 434.310
690.328, 549.493
691.628, 489.772
692.927, 588.459
694.227, 616.017
695.526, 630.627
696.825, 685.978
698.124, 728.503
699.423, 750.548
700.721, 811.276
702.020, 838.179
703.318, 914.581
704.616, 1024.584
705.913, 1081.095
707.211, 1149.577
708.508, 1224.789
709.805, 1353.413
711.102, 1348.482
712.399, 1584.883
713.695, 1554.294
714.992, 1729.528
716.288, 1887.482
717.584, 1935.710
718.879, 2095.230
720.175, 2195.102
721.470, 2338.690
722.765, 2404.819
724.060, 2519.515
725.355, 2623.353
726.649, 2735.326
727.944, 2877.500
729.238, 2953.865
730.532, 2924.068
731.825, 3120.301
733.119, 3094.583
734.412, 3259.881
735.705, 3364.955
736.998, 3461.787
738.291, 3612.886
739.584, 3717.108
740.876, 3851.450
742.168, 3952.891
743.460, 4017.401
744.752, 4266.564
746.043, 4430.628
747.334, 4489.349
748.626, 4759.837
749.916, 5058.515
751.207, 5201.831
752.498, 5386.457
753.788, 5758.428
755.078, 6037.795
756.368, 6199.223
757.658, 6642.604
758.947, 6957.775
760.237, 7423.690
761.526, 7709.638
762.815, 8136.031
764.104, 8802.460
765.392, 8838.231
766.680, 9704.028
767.969, 10090.075
769.257, 10686.679
770.544, 11232.887
771.832, 11729.576
773.119, 12286.137
774.406, 13092.221
775.693, 13709.040
776.980, 14405.820
778.267, 15192.729
779.553, 15889.347
780.839, 16475.275
782.125, 17221.896
783.411, 17908.990
784.697, 18686.131
785.982, 19313.309
787.267, 20210.539
788.552, 20987.779
789.837, 21534.707
791.122, 22082.459
792.406, 22549.885
793.690, 23027.359
794.974, 23354.883
796.258, 23752.455
797.542, 24500.076
798.825, 24427.756
800.108, 25405.480
801.391, 25913.270
802.674, 26201.109
803.957, 27608.996
805.239, 27906.938
806.522, 28014.818
807.804, 30042.865
809.085, 29630.971
810.367, 31079.121
811.649, 32097.322
812.930, 33435.586
814.211, 34873.902
815.492, 35382.270
816.772, 36760.691
818.053, 38689.168
819.333, 39177.703
820.613, 40286.289
821.893, 40614.930
823.173, 41723.629
824.452, 42132.371
825.732, 42721.168
827.011, 42390.012
828.290, 41868.918
829.568, 40997.867
830.847, 39941.766
832.125, 38045.938
833.403, 37005.066
834.681, 35064.238
835.959, 32893.570
837.236, 31722.854
838.514, 29242.900
839.791, 27462.297
841.068, 25861.797
842.345, 24242.639
843.621, 22182.195
844.898, 20811.826
846.174, 19574.834
847.450, 17825.475
848.726, 16616.760
850.001, 15138.295
851.277, 13918.190
852.552, 12935.205
853.827, 12009.841
855.102, 11152.527
856.376, 10383.410
857.651, 9597.131
858.925, 8990.771
860.199, 8382.295
861.473, 7774.792
862.746, 7315.845
864.020, 6930.346
865.293, 6400.995
866.566, 6053.577
867.839, 5700.490
869.112, 5370.699
870.384, 5180.892
871.656, 4743.255
872.928, 4561.139
874.200, 4468.670
875.472, 4130.808
876.744, 4063.607
878.015, 3813.612
879.286, 3676.529
880.557, 3545.843
881.828, 3339.111
883.098, 3268.537
884.369, 3106.320
885.639, 2984.672
886.909, 2860.538
888.178, 2782.079
889.448, 2757.983
890.717, 2585.432
891.987, 2663.298
893.256, 2557.166
894.524, 2319.404
895.793, 2315.259
897.061, 2249.278
898.330, 2192.269
899.598, 2169.442
900.865, 2039.502
902.133, 2060.604
903.401, 1957.763
904.668, 1933.863
905.935, 1912.345
907.202, 1808.650
908.468, 1855.003
909.735, 1725.406
911.001, 1715.911
912.267, 1689.406
913.533, 1714.944
914.799, 1512.596
916.064, 1545.214
917.330, 1405.887
918.595, 1416.585
919.860, 1354.327
921.124, 1375.109
922.389, 1338.929
923.653, 1182.790
924.918, 1286.688
926.182, 1057.624
927.445, 1100.601
928.709, 1054.615
929.972, 1040.666
931.236, 977.753
932.499, 968.878
933.761, 903.045
935.024, 867.136
936.286, 782.490
937.549, 774.765
938.811, 741.075
940.073, 679.420
941.334, 615.849
942.596, 687.282
943.857, 542.300
945.118, 676.781
946.379, 571.436
947.640, 506.994
948.900, 477.626
950.161, 494.240
951.421, 506.322
952.681, 440.076
953.940, 409.788
955.200, 300.426
956.459, 375.201
957.719, 351.416
958.978, 263.254
960.236, 299.253
961.495, 255.289
962.753, 247.217
964.012, 235.934
965.270, 209.921
966.527, 174.436
967.785, 212.387
969.043, 124.460
970.300, 130.068
971.557, 67.198
972.814, 30.599
974.071, 165.786
975.327, 117.046
976.583, 99.378
977.840, 82.649
979.095, 72.944
980.351, 93.288
981.607, 45.659
982.862, 7.359
984.117, 9.850
985.372, 45.361
986.627, 6.187
987.882, 65.940
989.136, 27.027
990.390, 13.661
991.644, 1.795
992.898, 41.081
994.152, 13.733
995.405, 1.340
996.659, 80.839
997.912, 28.003
999.165, 40.960
1000.417, 44.306
1001.670, 7.719
1002.922, 17.605
1004.174, 28.541
1005.426, 59.838
1006.678, 19.055
1007.930, 76.113
1009.181, 72.413
1010.432, 27.500
1011.683, 45.758
1012.934, 13.069
1014.185, 81.371
1015.435, 1.313
1016.685, 18.932
1017.935, 64.197
1019.185, 28.501
1020.435, 65.716
1021.684, 66.970
1022.934, 9.970
1024.183, 66.311
1025.432, 17.626
1026.680, 28.943
1027.929, 31.260
1029.177, 7.581
1030.425, 13.898
1031.673, 11.212
1032.921, 12.418
1034.169, 37.728
1035.416, 27.373
1036.663, 72.358
1037.911, 27.701
1039.157, 33.046
1040.404, 41.404
1041.650, 12.226
1042.897, 14.862
1044.143, 32.496
1045.389, 37.132
1046.634, 17.766
1047.880, 22.407
1049.125, 17.054
1050.371, 2.292
1051.615, 42.363
1052.860, 78.031
1054.105, 1.706
1055.349, 19.379
1056.593, 48.053
1057.837, 41.732
1059.081, 60.415
1060.325, 31.109
1061.568, 69.808
1062.812, 41.510
1064.055, 33.214
1065.298, 53.919
1066.540, 39.627
1067.783, 75.335
1069.025, 101.046
1070.267, 96.762
1071.509, 84.480
1072.751, 92.198
1073.993, 96.918
1075.234, 123.637
1076.475, 81.355
1077.716, 104.072
1078.957, 86.787
1080.198, 78.504
1081.438, 87.217
1082.679, 74.929
1083.919, 80.646
1085.159, 85.360
1086.398, 84.073
1087.638, 91.783
1088.877, 66.490
1090.116, 57.218
1091.355, 61.898
1092.594, 33.610
1093.833, 73.294
1095.071, 54.001
1096.309, 67.688
1097.547, 63.413
1098.785, 78.088
1100.023, 14.076
1101.260, 23.706
1102.498, 87.318
1103.735, 30.195
1104.972, 106.899
1106.208, 17.677
1107.445, 122.251
1108.681, 65.912
1109.918, 66.483
1111.154, 113.009
1112.389, 12.709
1113.625, 91.321
1114.860, 50.847
1116.096, 11.588
1117.331, 98.188
1118.566, 52.862
1119.800, 92.533
1121.035, 68.078
1122.269, 97.294
1123.503, 84.848
1124.737, 81.760
1125.971, 93.332
1127.205, 123.096
1128.438, 91.819
1129.671, 92.563
1130.904, 69.490
1132.137, 39.211
1133.370, 88.322
1134.602, 120.959
1135.834, 55.424
1137.066, 61.745
1138.298, 83.685
1139.530, 106.866
1140.762, 88.531
1141.993, 80.711
1143.224, 114.431
1144.455, 85.138
1145.686, 80.875
1146.917, 67.685
1148.147, 101.042
1149.377, 67.797
1150.607, 119.899
1151.837, 68.606
1153.067, 143.365
1154.296, 89.731
1155.526, 75.625
1156.755, 141.622
1157.984, 70.526
1159.213, 87.557
1160.441, 112.728
1161.670, 111.283
1162.898, 115.706
1164.126, 82.942
1165.354, 87.156
1166.581, 106.538
1167.809, 76.893
1169.036, 77.552
1170.263, 56.104
1171.490, 81.144
1172.717, 83.906
1173.943, 88.885
1175.170, 93.850
1176.396, 139.460
1177.622, 83.809
1178.848, 116.134
1180.073, 62.336
1181.299, 91.627
1182.524, 128.115
1183.749, 113.901
1184.974, 142.241
1186.199, 144.527
1187.423, 138.078
1188.648, 110.009
1189.872, 124.584
1191.096, 122.405
1192.320, 107.650
1193.543, 109.314
1194.767, 128.015
1195.990, 118.262
1197.213, 126.912
1198.436, 111.610
1199.659, 127.183
1200.881, 110.880
1202.104, 125.946
1203.326, 145.261
1204.548, 140.907
1205.770, 143.129
1206.991, 131.579
1208.213, 147.401
1209.434, 188.026
1210.655, 142.125
1211.876, 221.328
1213.096, 162.824
1214.317, 188.825
1215.537, 150.549
1216.757, 152.850
1217.977, 199.972
1219.197, 173.298
1220.417, 137.818
1221.636, 220.861
1222.855, 185.763
1224.074, 192.659
1225.293, 192.591
1226.512, 163.248
1227.731, 168.058
1228.949, 192.083
1230.167, 172.657
1231.385, 157.434
1232.603, 145.724
1233.820, 132.996
1235.038, 130.166
1236.255, 117.598
1237.472, 134.075
1238.689, 138.087
1239.906, 151.145
1241.122, 121.534
1242.338, 126.169
1243.555, 116.694
1244.771, 127.975
1245.986, 75.463
1247.202, 139.258
1248.417, 141.293
1249.633, 80.590
1250.848, 106.788
1252.063, 89.965
1253.277, 131.776
1254.492, 109.792
1255.706, 129.748
1256.920, 166.723
1258.134, 95.634
1259.348, 110.000
1260.562, 128.968
1261.775, 82.397
1262.988, 100.342
1264.201, 85.186
1265.414, 83.468
1266.627, 106.376
1267.839, 37.767
1269.052, 99.946
1270.264, 57.352
1271.476, 88.739
1272.688, 68.334
1273.899, 69.833
1275.111, 67.263
1276.322, 51.673
1277.533, 66.534
1278.744, 35.693
1279.955, 69.927
1281.165, 75.018
1282.376, 21.424
1283.586, 63.965
1284.796, 25.615
1286.006, 13.432
1287.215, 71.461
1288.425, 52.015
1289.634, 49.840
1290.843, 25.485
1292.052, 46.878
1293.261, 35.198
1294.469, 5.890
1295.678, 19.171
1296.886, 9.047
1298.094, 30.756
1299.302, 21.510
1300.509, 41.284
1301.717, 48.869
1302.924, 68.537
1304.131, 70.545
1305.338, 61.631
1306.545, 73.338
1307.752, 1.615
1308.958, 52.672
1310.164, 2.724
1311.370, 27.699
1312.576, 10.019
1313.782, 3.855
1314.987, 2.608
1316.193, 3.235
1317.398, 4.049
1318.603, 54.643
1319.807, 13.599
1321.012, 23.214
1322.216, 50.788
1323.421, 25.341
1324.625, 38.828
1325.829, 24.581
1327.032, 0.152
1328.236, 29.496
1329.439, 77.883
1330.642, 7.844
1331.845, 46.396
1333.048, 3.574
1334.251, 60.716
1335.453, 40.809
1336.656, 62.855
1337.858, 62.147
1339.060, 44.835
1340.261, 44.746
1341.463, 8.604
1342.664, 3.589
1343.866, 17.785
1345.067, 42.907
1346.267, 21.664
1347.468, 50.257
1348.669, 39.986
1349.869, 82.623
1351.069, 18.933
1352.269, 17.573
1353.469, 31.906
1354.668, 84.180
1355.868, 57.404
1357.067, 34.579
1358.266, 81.707
1359.465, 14.784
1360.664, 5.074
1361.862, 56.899
1363.061, 34.825
1364.259, 18.700
1365.457, 54.964
1366.655, 67.726
1367.852, 64.436
1369.050, 56.096
1370.247, 2.709
1371.444, 62.271
1372.641, 36.779
1373.838, 15.764
1375.035, 53.603
1376.231, 10.918
1377.427, 9.174
1378.623, 72.371
1379.819, 16.517
1381.015, 61.590
1382.211, 14.653
1383.406, 42.706
1384.601, 68.670
1385.796, 27.553
1386.991, 46.129
1388.185, 67.739
1389.380, 46.262
1390.574, 74.947
1391.768, 98.689
1392.962, 61.102
1394.156, 91.456
1395.350, 69.683
1396.543, 61.863
1397.736, 91.313
1398.929, 70.951
1400.122, 64.488
1401.315, 96.673
1402.507, 55.526
1403.700, 70.950
1404.892, 71.340
1406.084, 75.241
1407.276, 70.157
1408.467, 74.223
1409.659, 53.385
1410.850, 91.160
1412.041, 18.237
1413.232, 114.795
1414.423, 100.215
1415.614, 65.796
1416.804, 76.771
1417.994, 77.653
1419.184, 68.479
1420.374, 114.577
1421.564, 85.561
1422.753, 59.459
1423.943, 102.453
1425.132, 2.798
1426.321, 83.776
1427.510, 128.426
1428.698, 82.500
1429.887, 51.549
1431.075, 101.506
1432.263, 81.456
1433.451, 67.169
1434.639, 106.164
1435.827, 66.985
1437.014, 63.278
1438.201, 59.858
1439.388, 91.035
1440.575, 76.807
1441.762, 23.063
1442.949, 71.389
1444.135, 72.121
1445.321, 28.326
1446.507, 88.586
1447.693, 51.069
1448.879, 20.595
1450.064, 101.879
1451.250, 30.212
1452.435, 57.064
1453.620, 69.594
1454.805, 12.826
1455.989, 59.065
1457.174, 88.911
1458.358, 57.377
1459.542, 80.333
1460.726, 107.846
1461.910, 17.582
1463.093, 115.056
1464.277, 126.901
1465.460, 70.004
1466.643, 100.971
1467.826, 0.643
1469.009, 27.544
1470.191, 82.315
1471.373, 47.859
1472.556, 71.725
1473.738, 60.150
1474.919, 72.282
1476.101, 100.379
1477.283, 98.554
1478.464, 56.243
1479.645, 120.843
1480.826, 48.894
1482.007, 105.280
1483.187, 97.535
1484.368, 71.717
1485.548, 33.243
1486.728, 72.890
1487.908, 13.735
1489.088, 40.672
1490.268, 0.302
1491.447, 4.419
1492.626, 69.852
1493.805, 4.828
1494.984, 37.989
1496.163, 76.070
1497.341, 48.230
1498.520, 40.794
1499.698, 24.697
1500.876, 45.650
1502.054, 0.464
1503.232, 50.294
1504.409, 38.129
1505.586, 88.627
1506.763, 7.446
1507.940, 69.480
1509.117, 32.922
1510.294, 53.486
1511.470, 43.147
1512.647, 63.715
1513.823, 19.641
1514.999, 87.871
1516.174, 55.140
1517.350, 13.409
1518.526, 25.015
