##NAMES=Vanadinite
##RRUFFID=R050171
##IDEAL CHEMISTRY=Pb^2+^_5_(V^5+^O_4_)_3_Cl
##LOCALITY=Hamburg mine, La Paz County, Arizona, USA
##OWNER=RRUFF
##SOURCE=Marcus Origlieri
##DESCRIPTION=Red prismatic hexagonal crystals
##STATUS=The identification of this mineral has been confirmed by X-ray diffraction and chemical analysis
##URL=rruff.info/R050171
##MEASURED CHEMISTRY=Pb_5.00_((V_0.89_As_0.11_)O_4_)_3_Cl_1.00_
##PIN_ID=M00426
##ORIENTATION=Laser parallel to c* (0 0 1). Fiducial mark perpendicular to laser is parallel to a [1 0 0]
74.540, 0.000
75.937, 12.171
77.333, 345.484
78.729, 803.703
80.125, 1124.447
81.521, 1203.814
82.916, 1593.697
84.311, 1988.824
85.706, 2545.920
87.101, 3202.869
88.496, 3617.748
89.890, 4588.916
91.284, 5085.156
92.678, 5665.654
94.071, 6200.049
95.465, 6388.332
96.858, 6310.318
98.251, 5905.453
99.644, 5253.744
101.036, 4702.824
102.428, 3893.240
103.820, 3364.658
105.212, 2716.849
106.604, 2079.721
107.995, 1703.242
109.387, 1447.759
110.777, 1173.730
112.168, 871.437
113.559, 882.092
114.949, 605.675
116.339, 571.560
117.729, 489.384
119.119, 317.825
120.508, 89.224
121.897, 113.236
123.286, 139.651
124.675, 19.921
126.063, 52.415
127.452, 67.363
128.840, 21.414
130.228, 62.442
131.615, 123.105
133.003, 77.644
134.390, 130.838
135.777, 188.037
137.164, 174.196
138.550, 324.674
139.937, 233.475
141.323, 356.844
142.709, 466.331
144.094, 449.059
145.480, 354.683
146.865, 479.887
148.250, 523.944
149.635, 611.625
151.019, 670.240
152.403, 708.717
153.788, 785.327
155.171, 796.757
156.555, 831.802
157.939, 912.102
159.322, 888.416
160.705, 925.150
162.088, 956.229
163.470, 917.302
164.853, 997.271
166.235, 954.220
167.617, 923.275
168.998, 964.561
170.380, 969.793
171.761, 1037.364
173.142, 1018.299
174.523, 1008.555
175.904, 970.599
177.284, 951.298
178.664, 870.127
180.044, 828.228
181.424, 842.787
182.803, 762.088
184.183, 782.768
185.562, 655.023
186.940, 690.384
188.319, 683.427
189.698, 685.307
191.076, 603.230
192.454, 484.106
193.831, 566.918
195.209, 478.653
196.586, 477.291
197.963, 379.812
199.340, 388.195
200.717, 397.426
202.093, 314.489
203.470, 296.372
204.846, 265.071
206.221, 257.578
207.597, 236.890
208.972, 166.006
210.347, 161.920
211.722, 33.624
213.097, 73.111
214.472, 37.375
215.846, 34.417
217.220, 88.225
218.594, 75.796
219.967, 41.118
221.341, 38.809
222.714, 29.003
224.087, 94.452
225.460, 102.190
226.832, 117.248
228.204, 66.637
229.577, 102.346
230.948, 156.407
232.320, 113.866
233.692, 132.803
235.063, 140.178
236.434, 89.030
237.805, 126.629
239.175, 186.073
240.545, 125.887
241.916, 163.792
243.286, 117.561
244.655, 140.806
246.025, 90.760
247.394, 40.541
248.763, 68.244
250.132, 23.942
251.501, 106.681
252.869, 35.532
254.237, 46.510
255.605, 7.345
256.973, 15.019
258.340, 121.485
259.708, 103.744
261.075, 125.771
262.442, 165.557
263.808, 79.090
265.175, 163.334
266.541, 221.293
267.907, 208.968
269.273, 298.353
270.639, 301.443
272.004, 371.248
273.369, 412.756
274.734, 445.960
276.099, 392.858
277.463, 553.431
278.828, 462.673
280.192, 573.692
281.556, 589.648
282.919, 652.072
284.283, 656.305
285.646, 776.058
287.009, 769.864
288.372, 839.246
289.734, 905.228
291.097, 916.101
292.459, 929.655
293.821, 995.676
295.183, 1080.882
296.544, 1070.787
297.905, 1156.136
299.266, 1159.164
300.627, 1289.078
301.988, 1304.644
303.348, 1343.807
304.709, 1409.817
306.069, 1482.701
307.428, 1552.009
308.788, 1701.825
310.147, 1717.213
311.507, 1796.590
312.865, 1978.476
314.224, 2138.889
315.583, 2271.742
316.941, 2460.197
318.299, 2650.066
319.657, 2742.431
321.015, 2906.146
322.372, 3124.460
323.729, 3380.586
325.086, 3589.119
326.443, 3864.058
327.800, 4117.719
329.156, 4209.852
330.512, 4334.894
331.868, 4320.710
333.224, 4378.250
334.579, 4374.288
335.935, 4345.328
337.290, 4287.061
338.645, 4251.593
339.999, 4163.025
341.354, 4100.341
342.708, 4130.019
344.062, 4250.551
345.416, 4393.779
346.769, 4714.501
348.123, 4843.123
349.476, 5146.116
350.829, 5349.975
352.182, 5437.636
353.534, 5576.396
354.887, 5626.539
356.239, 5422.033
357.591, 5142.728
358.942, 4874.693
360.294, 4490.481
361.645, 4293.516
362.996, 3955.536
364.347, 3654.686
365.698, 3486.754
367.048, 3156.577
368.398, 3080.020
369.748, 2880.012
371.098, 2803.943
372.448, 2682.626
373.797, 2557.240
375.146, 2438.300
376.495, 2318.598
377.844, 2346.452
379.192, 2301.475
380.540, 2178.545
381.889, 2249.067
383.236, 2181.437
384.584, 2179.930
385.932, 2119.147
387.279, 2123.635
388.626, 2117.579
389.973, 2076.529
391.319, 2065.772
392.666, 2020.576
394.012, 1966.869
395.358, 1946.037
396.704, 1913.360
398.049, 1896.722
399.394, 1876.502
400.740, 1903.354
402.084, 1900.308
403.429, 1838.171
404.774, 1894.244
406.118, 1880.008
407.462, 1931.075
408.806, 1868.170
410.150, 1963.999
411.493, 1932.006
412.836, 1963.628
414.179, 1949.320
415.522, 1870.934
416.865, 1906.320
418.207, 1841.394
419.549, 1756.965
420.891, 1681.871
422.233, 1605.167
423.575, 1573.859
424.916, 1458.868
426.257, 1367.631
427.598, 1313.661
428.939, 1287.393
430.279, 1259.871
431.619, 1171.459
432.959, 1113.875
434.299, 1078.166
435.639, 990.344
436.978, 943.265
438.318, 914.005
439.657, 898.325
440.996, 848.345
442.334, 775.361
443.673, 809.932
445.011, 761.590
446.349, 783.325
447.687, 679.974
449.024, 692.198
450.361, 670.837
451.699, 643.037
453.036, 631.533
454.372, 671.909
455.709, 540.387
457.045, 527.045
458.381, 575.486
459.717, 567.270
461.053, 510.740
462.388, 508.609
463.724, 520.352
465.059, 471.094
466.394, 415.935
467.728, 464.858
469.063, 482.562
470.397, 483.034
471.731, 394.301
473.065, 403.426
474.398, 402.413
475.732, 403.262
477.065, 376.193
478.398, 382.774
479.731, 372.226
481.063, 407.548
482.396, 346.745
483.728, 322.296
485.060, 321.245
486.391, 362.073
487.723, 325.782
489.054, 355.375
490.385, 291.852
491.716, 277.215
493.047, 276.464
494.377, 326.599
495.708, 264.625
497.038, 280.540
498.368, 274.346
499.697, 245.043
501.027, 221.633
502.356, 242.115
503.685, 192.492
505.014, 220.764
506.342, 211.933
507.671, 208.001
508.999, 182.969
510.327, 203.839
511.655, 198.613
512.982, 150.291
514.310, 158.871
515.637, 152.356
516.964, 145.750
518.291, 179.052
519.617, 177.266
520.944, 172.393
522.270, 146.435
523.596, 108.394
524.921, 134.267
526.247, 115.060
527.572, 103.774
528.897, 140.410
530.222, 82.972
531.547, 99.458
532.871, 75.874
534.196, 87.220
535.520, 38.514
536.844, 72.740
538.167, 45.914
539.491, 83.032
540.814, 82.095
542.137, 48.104
543.460, 48.062
544.783, 55.990
546.105, 48.876
547.427, 38.751
548.749, 9.616
550.071, 21.466
551.393, 14.705
552.714, 16.095
554.035, 9.100
555.356, 34.315
556.677, 15.555
557.998, 11.194
559.318, 1.067
560.638, 18.332
561.958, 41.592
563.278, 7.875
564.597, 59.150
565.917, 5.547
567.236, 34.745
568.555, 0.945
569.874, 40.377
571.192, 44.722
572.511, 56.101
573.829, 70.496
575.147, 52.691
576.464, 48.389
577.782, 20.882
579.099, 30.396
580.416, 25.951
581.733, 48.542
583.050, 52.178
584.366, 26.865
585.683, 9.576
586.999, 28.314
588.315, 34.090
589.630, 14.903
590.946, 74.749
592.261, 23.653
593.576, 18.594
594.891, 34.570
596.206, 0.412
597.520, 13.629
598.834, 5.803
600.148, 37.931
601.462, 5.487
602.776, 2.098
604.089, 9.523
605.402, 27.058
606.715, 23.041
608.028, 31.983
609.341, 44.029
610.653, 5.788
611.965, 18.559
613.277, 19.501
614.589, 22.896
615.901, 9.238
617.212, 9.214
618.523, 10.301
619.834, 0.583
621.145, 9.860
622.456, 24.191
623.766, 25.320
625.076, 14.776
626.386, 10.666
627.696, 4.338
629.006, 56.721
630.315, 21.556
631.624, 26.441
632.933, 31.332
634.242, 15.760
635.551, 23.043
636.859, 28.889
638.167, 59.706
639.475, 48.687
640.783, 30.569
642.090, 28.083
643.398, 16.750
644.705, 26.609
646.012, 64.336
647.318, 46.854
648.625, 86.838
649.931, 41.430
651.237, 55.044
652.543, 58.892
653.849, 57.508
655.155, 61.216
656.460, 121.927
657.765, 99.544
659.070, 15.093
660.375, 110.757
661.679, 86.207
662.984, 57.845
664.288, 121.479
665.592, 130.131
666.895, 101.712
668.199, 170.416
669.502, 126.133
670.805, 224.610
672.108, 172.217
673.411, 258.828
674.713, 306.443
676.016, 249.270
677.318, 286.131
678.620, 286.014
679.921, 290.830
681.223, 348.442
682.524, 408.294
683.825, 384.092
685.126, 403.862
686.427, 462.879
687.727, 481.622
689.028, 442.569
690.328, 525.392
691.628, 519.386
692.927, 599.409
694.227, 666.431
695.526, 634.986
696.825, 785.188
698.124, 695.438
699.423, 799.451
700.721, 879.588
702.020, 919.908
703.318, 984.256
704.616, 1085.529
705.913, 1116.710
707.211, 1242.634
708.508, 1289.624
709.805, 1443.595
711.102, 1481.246
712.399, 1619.468
713.695, 1637.015
714.992, 1824.282
716.288, 1970.028
717.584, 2070.869
718.879, 2171.402
720.175, 2325.151
721.470, 2437.879
722.765, 2548.587
724.060, 2623.149
725.355, 2706.841
726.649, 2904.321
727.944, 2958.689
729.238, 3149.498
730.532, 3041.548
731.825, 3258.828
733.119, 3318.499
734.412, 3499.829
735.705, 3574.759
736.998, 3606.050
738.291, 3678.234
739.584, 3921.335
740.876, 3965.915
742.168, 4162.449
743.460, 4178.169
744.752, 4388.705
746.043, 4605.279
747.334, 4733.856
748.626, 4969.236
749.916, 5308.947
751.207, 5502.010
752.498, 5768.605
753.788, 5939.808
755.078, 6404.377
756.368, 6528.704
757.658, 7024.437
758.947, 7350.413
760.237, 7736.184
761.526, 8091.396
762.815, 8716.865
764.104, 9152.068
765.392, 9406.848
766.680, 10163.244
767.969, 10509.682
769.257, 11276.162
770.544, 11702.686
771.832, 12439.256
773.119, 12795.716
774.406, 13682.374
775.693, 14449.059
776.980, 15175.810
778.267, 15992.610
779.553, 16829.459
780.839, 17558.188
782.125, 18042.912
783.411, 19039.840
784.697, 19646.881
785.982, 20313.973
787.267, 21361.109
788.552, 22078.297
789.837, 22659.574
791.122, 23222.611
792.406, 23649.949
793.690, 24047.344
794.974, 24394.789
796.258, 25111.807
797.542, 25829.350
798.825, 25826.953
800.108, 26704.602
801.391, 27262.301
802.674, 27530.059
803.957, 28847.867
805.239, 29395.725
806.522, 29563.637
807.804, 31671.600
809.085, 31199.625
810.367, 32417.699
811.649, 33645.840
812.930, 34864.023
814.211, 36802.273
815.492, 37450.578
816.772, 38448.938
818.053, 40857.348
819.333, 41385.824
820.613, 42364.348
821.893, 42522.930
823.173, 43611.570
824.452, 44180.270
825.732, 44769.016
827.011, 44377.816
828.290, 43716.684
829.568, 42925.598
830.847, 41754.570
832.125, 39783.754
833.403, 38582.840
834.681, 36681.980
835.959, 34791.184
837.236, 32960.441
838.514, 31001.910
839.791, 28750.086
841.068, 27021.143
842.345, 25360.627
843.621, 23181.031
844.898, 21751.902
846.174, 20341.568
847.450, 18423.107
848.726, 17333.283
850.001, 15824.485
851.277, 14524.503
852.552, 13956.005
853.827, 12577.790
855.102, 11559.724
856.376, 10821.785
857.651, 10076.820
858.925, 9289.903
860.199, 8691.569
861.473, 8005.031
862.746, 7556.127
864.020, 7210.866
865.293, 6544.271
866.566, 6325.681
867.839, 6052.309
869.112, 5651.094
870.384, 5396.875
871.656, 5013.519
872.928, 4759.420
874.200, 4612.032
875.472, 4411.456
876.744, 4191.482
878.015, 3893.617
879.286, 3798.806
880.557, 3687.657
881.828, 3446.824
883.098, 3343.000
884.369, 3204.991
885.639, 3201.565
886.909, 2933.401
888.178, 2907.468
889.448, 2928.888
890.717, 2561.942
891.987, 2654.112
893.256, 2608.962
894.524, 2550.496
895.793, 2517.447
897.061, 2427.682
898.330, 2366.204
899.598, 2271.606
900.865, 2179.761
902.133, 2145.974
903.401, 1979.301
904.668, 2018.249
905.935, 1959.603
907.202, 1831.104
908.468, 1987.546
909.735, 1810.241
911.001, 1690.775
912.267, 1681.350
913.533, 1652.967
914.799, 1569.629
916.064, 1590.335
917.330, 1466.089
918.595, 1404.888
919.860, 1515.725
921.124, 1389.677
922.389, 1343.592
923.653, 1198.544
924.918, 1263.535
926.182, 1183.564
927.445, 1089.631
928.709, 1100.736
929.972, 1092.878
931.236, 1047.057
932.499, 985.273
933.761, 880.606
935.024, 943.897
936.286, 778.225
937.549, 850.588
938.811, 780.986
940.073, 710.420
941.334, 743.952
942.596, 619.457
943.857, 595.480
945.118, 619.053
946.379, 504.787
947.640, 557.464
948.900, 550.140
950.161, 501.850
951.421, 466.603
952.681, 453.378
953.940, 414.187
955.200, 335.027
956.459, 358.899
957.719, 331.865
958.978, 311.800
960.236, 352.662
961.495, 278.724
962.753, 272.136
964.012, 236.294
965.270, 213.513
966.527, 150.094
967.785, 170.239
969.043, 126.971
970.300, 142.367
971.557, 133.610
972.814, 90.149
974.071, 109.885
975.327, 140.317
976.583, 40.665
977.840, 43.043
979.095, 52.780
980.351, 68.209
981.607, 42.725
982.862, 7.793
984.117, 20.510
985.372, 19.404
986.627, 32.482
987.882, 38.068
989.136, 12.319
990.390, 23.533
991.644, 46.619
992.898, 46.809
994.152, 26.587
995.405, 35.797
996.659, 3.930
997.912, 46.314
999.165, 11.549
1000.417, 34.768
1001.670, 1.973
1002.922, 37.153
1004.174, 41.333
1005.426, 42.504
1006.678, 43.035
1007.930, 99.184
1009.181, 59.374
1010.432, 28.410
1011.683, 62.597
1012.934, 11.793
1014.185, 82.978
1015.435, 55.184
1016.685, 12.372
1017.935, 35.454
1019.185, 56.520
1020.435, 91.664
1021.684, 49.759
1022.934, 12.931
1024.183, 45.123
1025.432, 19.352
1026.680, 67.612
1027.929, 24.105
1029.177, 26.843
1030.425, 95.375
1031.673, 24.660
1032.921, 2.950
1034.169, 2.764
1035.416, 45.515
1036.663, 66.808
1037.911, 13.129
1039.157, 18.454
1040.404, 28.786
1041.650, 10.868
1042.897, 41.528
1044.143, 13.805
1045.389, 32.855
1046.634, 35.526
1047.880, 56.205
1049.125, 63.512
1050.371, 35.418
1051.615, 57.251
1052.860, 29.927
1054.105, 11.608
1055.349, 72.287
1056.593, 30.973
1057.837, 99.662
1059.081, 28.361
1060.325, 55.061
1061.568, 76.765
1062.812, 64.473
1064.055, 129.185
1065.298, 79.899
1066.540, 47.616
1067.783, 93.332
1069.025, 124.051
1070.267, 43.770
1071.509, 80.494
1072.751, 97.221
1073.993, 69.949
1075.234, 89.677
1076.475, 89.405
1077.716, 103.133
1078.957, 79.860
1080.198, 81.594
1081.438, 82.586
1082.679, 54.058
1083.919, 95.786
1085.159, 85.511
1086.398, 115.233
1087.638, 108.952
1088.877, 70.667
1090.116, 61.378
1091.355, 110.083
1092.594, 41.783
1093.833, 128.475
1095.071, 60.160
1096.309, 69.865
1097.547, 89.537
1098.785, 93.235
1100.023, 77.047
1101.260, 94.997
1102.498, 115.476
1103.735, 92.137
1104.972, 110.843
1106.208, 74.608
1107.445, 86.282
1108.681, 37.885
1109.918, 77.520
1111.154, 59.091
1112.389, 33.664
1113.625, 75.274
1114.860, 24.853
1116.096, 117.557
1117.331, 55.188
1118.566, 74.819
1119.800, 92.731
1121.035, 71.455
1122.269, 63.237
1123.503, 84.530
1124.737, 106.529
1125.971, 99.158
1127.205, 72.099
1128.438, 102.842
1129.671, 93.681
1130.904, 106.440
1132.137, 53.156
1133.370, 74.128
1134.602, 66.513
1135.834, 114.228
1137.066, 108.564
1138.298, 91.158
1139.530, 82.523
1140.762, 56.699
1141.993, 52.125
1143.224, 49.213
1144.455, 112.155
1145.686, 110.050
1146.917, 136.487
1148.147, 135.383
1149.377, 145.336
1150.607, 113.090
1151.837, 133.175
1153.067, 126.023
1154.296, 63.392
1155.526, 106.884
1156.755, 169.907
1157.984, 38.068
1159.213, 143.796
1160.441, 118.495
1161.670, 133.376
1162.898, 132.615
1164.126, 90.353
1165.354, 77.850
1166.581, 74.472
1167.809, 79.956
1169.036, 66.524
1170.263, 72.658
1171.490, 75.417
1172.717, 77.206
1173.943, 104.925
1175.170, 136.983
1176.396, 142.867
1177.622, 74.870
1178.848, 163.072
1180.073, 122.378
1181.299, 83.041
1182.524, 179.104
1183.749, 106.759
1184.974, 108.529
1186.199, 142.117
1187.423, 90.465
1188.648, 128.880
1189.872, 106.534
1191.096, 115.349
1192.320, 92.666
1193.543, 106.370
1194.767, 108.200
1195.990, 121.853
1197.213, 115.692
1198.436, 110.170
1199.659, 115.867
1200.881, 107.781
1202.104, 125.752
1203.326, 155.128
1204.548, 175.375
1205.770, 171.285
1206.991, 174.856
1208.213, 132.430
1209.434, 159.189
1210.655, 151.859
1211.876, 156.210
1213.096, 170.718
1214.317, 135.700
1215.537, 156.358
1216.757, 127.504
1217.977, 130.914
1219.197, 123.831
1220.417, 130.252
1221.636, 137.627
1222.855, 133.957
1224.074, 142.042
1225.293, 153.485
1226.512, 131.338
1227.731, 152.621
1228.949, 149.759
1230.167, 123.825
1231.385, 188.628
1232.603, 175.691
1233.820, 166.675
1235.038, 120.355
1236.255, 130.234
1237.472, 165.860
1238.689, 119.478
1239.906, 123.068
1241.122, 157.473
1242.338, 114.313
1243.555, 132.724
1244.771, 115.086
1245.986, 87.302
1247.202, 103.573
1248.417, 114.819
1249.633, 121.466
1250.848, 109.435
1252.063, 94.667
1253.277, 115.056
1254.492, 131.092
1255.706, 119.833
1256.920, 138.996
1258.134, 130.544
1259.348, 116.637
1260.562, 122.322
1261.775, 85.506
1262.988, 101.344
1264.201, 97.519
1265.414, 59.952
1266.627, 77.563
1267.839, 68.935
1269.052, 31.074
1270.264, 48.562
1271.476, 67.324
1272.688, 61.802
1273.899, 65.845
1275.111, 57.071
1276.322, 62.389
1277.533, 52.718
1278.744, 42.090
1279.955, 18.032
1281.165, 58.712
1282.376, 18.282
1283.586, 42.369
1284.796, 32.122
1286.006, 46.132
1287.215, 80.283
1288.425, 51.794
1289.634, 15.063
1290.843, 30.812
1292.052, 26.594
1293.261, 73.257
1294.469, 10.857
1295.678, 24.705
1296.886, 41.317
1298.094, 3.059
1299.302, 5.618
1300.509, 51.607
1301.717, 18.926
1302.924, 11.457
1304.131, 5.557
1305.338, 17.770
1306.545, 31.272
1307.752, 33.652
1308.958, 25.765
1310.164, 46.130
1311.370, 25.065
1312.576, 24.018
1313.782, 21.841
1314.987, 2.564
1316.193, 9.348
1317.398, 25.224
1318.603, 48.073
1319.807, 57.791
1321.012, 16.519
1322.216, 53.283
1323.421, 1.124
1324.625, 35.695
1325.829, 14.308
1327.032, 5.794
1328.236, 0.311
1329.439, 37.769
1330.642, 36.209
1331.845, 29.541
1333.048, 59.899
1334.251, 30.153
1335.453, 45.443
1336.656, 32.892
1337.858, 3.992
1339.060, 38.079
1340.261, 52.131
1341.463, 33.091
1342.664, 64.616
1343.866, 45.487
1345.067, 16.306
1346.267, 43.127
1347.468, 2.154
1348.669, 66.516
1349.869, 11.865
1351.069, 24.703
1352.269, 30.388
1353.469, 18.909
1354.668, 22.321
1355.868, 45.681
1357.067, 29.991
1358.266, 90.251
1359.465, 15.456
1360.664, 55.609
1361.862, 10.306
1363.061, 1.276
1364.259, 21.700
1365.457, 22.625
1366.655, 23.491
1367.852, 40.302
1369.050, 12.262
1370.247, 20.033
1371.444, 17.614
1372.641, 25.209
1373.838, 21.753
1375.035, 49.225
1376.231, 22.770
1377.427, 26.129
1378.623, 51.413
1379.819, 28.561
1381.015, 43.817
1382.211, 50.029
1383.406, 11.170
1384.601, 71.258
1385.796, 15.082
1386.991, 61.036
1388.185, 68.781
1389.380, 96.645
1390.574, 76.489
1391.768, 79.259
1392.962, 28.812
1394.156, 135.280
1395.350, 68.219
1396.543, 38.541
1397.736, 99.094
1398.929, 18.751
1400.122, 55.229
1401.315, 103.284
1402.507, 101.874
1403.700, 76.153
1404.892, 115.731
1406.084, 84.802
1407.276, 100.636
1408.467, 112.397
1409.659, 100.957
1410.850, 83.567
1412.041, 89.136
1413.232, 74.207
1414.423, 41.038
1415.614, 82.777
1416.804, 98.525
1417.994, 124.772
1419.184, 77.279
1420.374, 77.996
1421.564, 108.011
1422.753, 62.314
1423.943, 75.687
1425.132, 15.656
1426.321, 77.830
1427.510, 111.701
1428.698, 31.866
1429.887, 90.802
1431.075, 96.287
1432.263, 62.134
1433.451, 97.296
1434.639, 121.423
1435.827, 49.093
1437.014, 34.942
1438.201, 91.557
1439.388, 67.486
1440.575, 57.031
1441.762, 37.734
1442.949, 34.624
1444.135, 89.259
1445.321, 36.628
1446.507, 84.112
1447.693, 82.703
1448.879, 18.827
1450.064, 64.387
1451.250, 34.530
1452.435, 16.805
1453.620, 69.336
1454.805, 49.589
1455.989, 91.207
1457.174, 96.543
1458.358, 79.270
1459.542, 51.398
1460.726, 53.079
1461.910, 83.471
1463.093, 119.058
1464.277, 38.823
1465.460, 16.750
1466.643, 94.407
1467.826, 54.766
1469.009, 76.430
1470.191, 53.266
1471.373, 57.270
1472.556, 53.361
1473.738, 78.959
1474.919, 49.201
1476.101, 78.242
1477.283, 41.890
1478.464, 4.229
1479.645, 93.595
1480.826, 55.107
1482.007, 45.501
1483.187, 58.401
1484.368, 8.647
1485.548, 63.867
1486.728, 78.533
1487.908, 34.643
1489.088, 93.896
1490.268, 45.625
1491.447, 55.229
1492.626, 89.959
1493.805, 5.344
1494.984, 26.362
1496.163, 70.304
1497.341, 65.885
1498.520, 46.672
1499.698, 44.263
1500.876, 39.180
1502.054, 39.950
1503.232, 36.014
1504.409, 46.605
1505.586, 51.689
1506.763, 53.105
1507.940, 34.630
1509.117, 51.549
1510.294, 2.092
1511.470, 61.654
1512.647, 72.557
1513.823, 50.606
1514.999, 101.676
1516.174, 62.712
1517.350, 0.249
1518.526, 49.843
