##NAMES=Vanadinite
##RRUFFID=R050171
##IDEAL CHEMISTRY=Pb^2+^_5_(V^5+^O_4_)_3_Cl
##LOCALITY=Hamburg mine, La Paz County, Arizona, USA
##OWNER=RRUFF
##SOURCE=Marcus Origlieri
##DESCRIPTION=Red prismatic hexagonal crystals
##STATUS=The identification of this mineral has been confirmed by X-ray diffraction and chemical analysis
##URL=rruff.info/R050171
##MEASURED CHEMISTRY=Pb_5.00_((V_0.89_As_0.11_)O_4_)_3_Cl_1.00_
##PIN_ID=M00426
##ORIENTATION=Laser parallel to c* (0 0 1). Fiducial mark perpendicular to laser is parallel to a [1 0 0]
71.747, 0.000
73.144, 13.983
74.540, 102.511
75.937, 253.793
77.333, 607.672
78.729, 850.599
80.125, 1444.562
81.521, 1556.209
82.916, 2098.881
84.311, 2610.684
85.706, 2959.983
87.101, 3625.311
88.496, 4135.496
89.890, 4879.709
91.284, 5267.545
92.678, 5818.977
94.071, 6293.996
95.465, 6432.180
96.858, 6392.903
98.251, 6045.500
99.644, 5409.359
101.036, 4724.148
102.428, 4139.633
103.820, 3645.768
105.212, 2962.468
106.604, 2399.857
107.995, 2108.268
109.387, 1788.356
110.777, 1660.389
112.168, 1335.311
113.559, 1313.264
114.949, 1173.618
116.339, 998.971
117.729, 757.584
119.119, 746.918
120.508, 714.449
121.897, 457.691
123.286, 354.422
124.675, 267.484
126.063, 354.860
127.452, 260.567
128.840, 275.668
130.228, 317.045
131.615, 268.729
133.003, 292.562
134.390, 327.803
135.777, 421.207
137.164, 410.923
138.550, 582.633
139.937, 632.770
141.323, 542.405
142.709, 708.176
144.094, 650.309
145.480, 550.516
146.865, 678.373
148.250, 695.215
149.635, 706.185
151.019, 897.037
152.403, 897.384
153.788, 779.622
155.171, 1014.500
156.555, 826.708
157.939, 1043.342
159.322, 1017.776
160.705, 944.963
162.088, 962.642
163.470, 997.114
164.853, 1016.344
166.235, 970.613
167.617, 1027.476
168.998, 1092.542
170.380, 975.354
171.761, 1023.494
173.142, 951.734
174.523, 1003.434
175.904, 997.017
177.284, 913.917
178.664, 947.026
180.044, 881.172
181.424, 871.329
182.803, 790.533
184.183, 729.783
185.562, 675.319
186.940, 736.408
188.319, 683.326
189.698, 617.113
191.076, 645.867
192.454, 577.891
193.831, 629.221
195.209, 504.796
196.586, 446.275
197.963, 411.642
199.340, 386.879
200.717, 387.980
202.093, 338.940
203.470, 314.752
204.846, 320.412
206.221, 275.915
207.597, 174.261
208.972, 160.449
210.347, 125.613
211.722, 104.338
213.097, 96.031
214.472, 35.553
215.846, 8.788
217.220, 5.943
218.594, 14.969
219.967, 0.817
221.341, 23.596
222.714, 32.470
224.087, 38.733
225.460, 72.111
226.832, 73.425
228.204, 97.023
229.577, 139.908
230.948, 178.104
232.320, 151.640
233.692, 103.528
235.063, 191.822
236.434, 158.517
237.805, 234.531
239.175, 209.898
240.545, 115.727
241.916, 137.027
243.286, 113.985
244.655, 90.717
246.025, 91.315
247.394, 67.840
248.763, 65.878
250.132, 37.902
251.501, 59.500
252.869, 46.196
254.237, 42.012
255.605, 13.961
256.973, 19.063
258.340, 21.336
259.708, 101.199
261.075, 24.442
262.442, 97.691
263.808, 59.624
265.175, 109.334
266.541, 132.827
267.907, 146.090
269.273, 234.128
270.639, 151.940
272.004, 253.528
273.369, 259.894
274.734, 328.018
276.099, 327.886
277.463, 427.484
278.828, 466.820
280.192, 426.088
281.556, 527.909
282.919, 524.373
284.283, 613.903
285.646, 670.412
287.009, 612.425
288.372, 698.078
289.734, 743.802
291.097, 770.555
292.459, 828.730
293.821, 850.518
295.183, 908.407
296.544, 904.929
297.905, 977.282
299.266, 1042.354
300.627, 1087.208
301.988, 1168.937
303.348, 1167.411
304.709, 1273.680
306.069, 1297.763
307.428, 1444.495
308.788, 1506.938
310.147, 1625.901
311.507, 1802.683
312.865, 1877.330
314.224, 2007.548
315.583, 2160.496
316.941, 2381.728
318.299, 2536.573
319.657, 2755.811
321.015, 2950.334
322.372, 3174.897
323.729, 3349.839
325.086, 3529.536
326.443, 3720.856
327.800, 3941.106
329.156, 4084.148
330.512, 4155.948
331.868, 4143.388
333.224, 4245.707
334.579, 4111.783
335.935, 4151.652
337.290, 4035.299
338.645, 3940.855
339.999, 3920.247
341.354, 3791.491
342.708, 3923.590
344.062, 3997.536
345.416, 4037.325
346.769, 4378.979
348.123, 4452.273
349.476, 4808.191
350.829, 4963.243
352.182, 5144.874
353.534, 5198.873
354.887, 5084.595
356.239, 5072.501
357.591, 4859.315
358.942, 4577.542
360.294, 4223.546
361.645, 4070.525
362.996, 3737.404
364.347, 3480.044
365.698, 3248.875
367.048, 3031.539
368.398, 2861.209
369.748, 2689.419
371.098, 2561.716
372.448, 2423.076
373.797, 2371.624
375.146, 2294.241
376.495, 2249.041
377.844, 2190.670
379.192, 2096.637
380.540, 2104.611
381.889, 2032.320
383.236, 1974.519
384.584, 2067.718
385.932, 2014.929
387.279, 2049.274
388.626, 1943.105
389.973, 1963.334
391.319, 2006.133
392.666, 1806.348
394.012, 1843.169
395.358, 1849.713
396.704, 1814.211
398.049, 1826.200
399.394, 1807.804
400.740, 1779.593
402.084, 1771.261
403.429, 1738.641
404.774, 1751.599
406.118, 1758.411
407.462, 1757.336
408.806, 1829.488
410.150, 1758.232
411.493, 1820.240
412.836, 1787.053
414.179, 1788.354
415.522, 1793.138
416.865, 1742.302
418.207, 1715.563
419.549, 1663.824
420.891, 1633.862
422.233, 1516.668
423.575, 1490.977
424.916, 1351.149
426.257, 1257.858
427.598, 1249.470
428.939, 1184.451
430.279, 1109.094
431.619, 1100.406
432.959, 1024.602
434.299, 976.739
435.639, 951.118
436.978, 842.443
438.318, 816.254
439.657, 774.804
440.996, 720.074
442.334, 755.618
443.673, 793.767
445.011, 675.778
446.349, 614.622
447.687, 659.368
449.024, 676.053
450.361, 590.648
451.699, 515.233
453.036, 585.721
454.372, 611.574
455.709, 521.135
457.045, 542.741
458.381, 517.173
459.717, 517.977
461.053, 503.131
462.388, 466.422
463.724, 461.630
465.059, 441.410
466.394, 414.109
467.728, 424.679
469.063, 413.123
470.397, 439.434
471.731, 396.620
473.065, 336.680
474.398, 339.615
475.732, 294.426
477.065, 346.113
478.398, 326.681
479.731, 349.131
481.063, 353.466
482.396, 353.688
483.728, 354.945
485.060, 327.783
486.391, 336.695
487.723, 273.482
489.054, 249.162
490.385, 241.735
491.716, 261.202
493.047, 232.565
494.377, 236.825
495.708, 234.982
497.038, 240.037
498.368, 215.992
499.697, 212.847
501.027, 205.602
502.356, 200.258
503.685, 197.092
505.014, 195.764
506.342, 189.982
507.671, 183.905
508.999, 179.077
510.327, 170.156
511.655, 179.141
512.982, 131.034
514.310, 170.835
515.637, 143.546
516.964, 169.169
518.291, 146.704
519.617, 122.153
520.944, 92.517
522.270, 80.794
523.596, 82.984
524.921, 125.089
526.247, 99.115
527.572, 84.062
528.897, 115.928
530.222, 64.721
531.547, 91.438
532.871, 8.086
534.196, 84.643
535.520, 51.136
536.844, 43.560
538.167, 62.920
539.491, 24.228
540.814, 34.478
542.137, 16.677
543.460, 48.817
544.783, 23.917
546.105, 7.972
547.427, 32.979
548.749, 2.041
550.071, 23.102
551.393, 2.793
552.714, 33.329
554.035, 22.476
555.356, 37.353
556.677, 29.826
557.998, 26.020
559.318, 28.233
560.638, 12.555
561.958, 29.639
563.278, 29.860
564.597, 42.100
565.917, 10.370
567.236, 3.657
568.555, 60.956
569.874, 21.300
571.192, 28.666
572.511, 15.064
573.829, 15.479
575.147, 41.913
576.464, 19.377
577.782, 13.865
579.099, 19.373
580.416, 53.898
581.733, 3.479
583.050, 56.067
584.366, 18.707
585.683, 35.375
586.999, 2.916
588.315, 33.817
589.630, 26.588
590.946, 71.399
592.261, 84.263
593.576, 38.192
594.891, 3.162
596.206, 29.840
597.520, 64.183
598.834, 38.266
600.148, 55.608
601.462, 11.838
602.776, 15.037
604.089, 89.630
605.402, 9.462
606.715, 37.264
608.028, 31.944
609.341, 1.000
610.653, 5.623
611.965, 13.462
613.277, 1.447
614.589, 3.187
615.901, 5.803
617.212, 12.479
618.523, 12.132
619.834, 7.680
621.145, 15.927
622.456, 50.441
623.766, 14.724
625.076, 4.893
626.386, 4.108
627.696, 20.277
629.006, 32.560
630.315, 29.668
631.624, 49.531
632.933, 56.823
634.242, 50.074
635.551, 76.038
636.859, 36.891
638.167, 31.848
639.475, 26.835
640.783, 38.835
642.090, 16.853
643.398, 35.771
644.705, 63.741
646.012, 47.483
647.318, 26.099
648.625, 37.721
649.931, 48.442
651.237, 40.063
652.543, 94.721
653.849, 96.393
655.155, 130.106
656.460, 122.742
657.765, 127.708
659.070, 71.026
660.375, 117.667
661.679, 109.320
662.984, 95.994
664.288, 110.671
665.592, 107.350
666.895, 117.038
668.199, 168.716
669.502, 221.463
670.805, 277.910
672.108, 280.934
673.411, 301.035
674.713, 268.171
676.016, 302.947
677.318, 278.577
678.620, 293.964
679.921, 363.224
681.223, 331.608
682.524, 396.474
683.825, 414.188
685.126, 447.817
686.427, 439.762
687.727, 533.219
689.028, 456.104
690.328, 587.521
691.628, 501.475
692.927, 638.990
694.227, 633.385
695.526, 709.356
696.825, 767.249
698.124, 776.693
699.423, 784.491
700.721, 911.609
702.020, 884.020
703.318, 957.768
704.616, 1047.809
705.913, 1052.233
707.211, 1196.479
708.508, 1289.493
709.805, 1361.383
711.102, 1464.098
712.399, 1609.765
713.695, 1620.296
714.992, 1695.203
716.288, 1836.111
717.584, 1968.582
718.879, 2122.681
720.175, 2237.843
721.470, 2361.050
722.765, 2461.205
724.060, 2580.413
725.355, 2659.252
726.649, 2741.685
727.944, 2805.821
729.238, 2997.840
730.532, 2980.947
731.825, 3168.674
733.119, 3203.798
734.412, 3267.349
735.705, 3409.717
736.998, 3493.269
738.291, 3604.652
739.584, 3794.338
740.876, 3780.177
742.168, 3967.251
743.460, 4144.240
744.752, 4284.622
746.043, 4467.469
747.334, 4604.009
748.626, 4867.921
749.916, 5050.495
751.207, 5251.729
752.498, 5542.326
753.788, 5802.864
755.078, 6114.861
756.368, 6392.896
757.658, 6795.435
758.947, 6980.743
760.237, 7412.500
761.526, 7728.476
762.815, 8363.147
764.104, 8838.150
765.392, 9024.236
766.680, 9690.414
767.969, 10156.356
769.257, 10862.570
770.544, 11308.869
771.832, 11925.222
773.119, 12501.396
774.406, 13247.838
775.693, 13874.324
776.980, 14620.585
778.267, 15297.163
779.553, 15983.786
780.839, 16640.455
782.125, 17567.172
783.411, 18193.939
784.697, 19000.750
785.982, 19507.613
787.267, 20464.529
788.552, 21341.492
789.837, 21458.502
791.122, 22295.566
792.406, 22792.676
793.690, 23269.844
794.974, 23517.055
796.258, 24284.316
797.542, 24731.635
798.825, 24659.010
800.108, 25586.428
801.391, 26233.906
802.674, 26421.428
803.957, 27619.010
805.239, 28066.639
806.522, 28494.332
807.804, 30222.072
809.085, 29829.875
810.367, 31277.734
811.649, 32255.648
812.930, 33633.609
814.211, 35191.633
815.492, 35699.711
816.772, 37057.844
818.053, 39036.035
819.333, 39614.293
820.613, 40592.605
821.893, 41090.969
823.173, 42199.383
824.452, 42567.848
825.732, 43006.387
827.011, 42774.957
828.290, 42283.602
829.568, 41492.461
830.847, 40621.203
832.125, 38810.012
833.403, 37278.871
834.681, 35607.797
835.959, 33476.781
837.236, 32095.828
838.514, 29804.926
839.791, 28014.076
841.068, 26273.359
842.345, 24702.748
843.621, 22522.289
844.898, 21162.100
846.174, 19731.547
847.450, 17951.361
848.726, 16822.652
850.001, 15342.524
851.277, 14193.700
852.552, 13514.552
853.827, 12295.120
855.102, 11277.108
856.376, 10509.341
857.651, 9763.396
858.925, 9094.427
860.199, 8426.849
861.473, 7749.296
862.746, 7391.468
864.020, 7004.166
865.293, 6395.413
866.566, 6151.375
867.839, 5841.617
869.112, 5576.141
870.384, 5190.454
871.656, 4888.044
872.928, 4661.540
874.200, 4481.003
875.472, 4264.518
876.744, 4105.827
878.015, 3920.797
879.286, 3704.858
880.557, 3668.366
881.828, 3473.545
883.098, 3338.299
884.369, 3160.120
885.639, 3149.235
886.909, 2960.025
888.178, 2891.098
889.448, 2854.880
890.717, 2619.761
891.987, 2616.528
893.256, 2624.754
894.524, 2495.327
895.793, 2429.049
897.061, 2284.012
898.330, 2347.906
899.598, 2194.766
900.865, 2170.773
902.133, 2117.845
903.401, 1981.153
904.668, 1984.712
905.935, 1910.924
907.202, 1791.194
908.468, 1918.515
909.735, 1831.663
911.001, 1784.689
912.267, 1691.155
913.533, 1659.813
914.799, 1536.379
916.064, 1491.883
917.330, 1407.654
918.595, 1401.355
919.860, 1399.097
921.124, 1418.881
922.389, 1364.704
923.653, 1272.099
924.918, 1251.001
926.182, 1136.958
927.445, 1138.941
928.709, 1115.962
929.972, 992.022
931.236, 995.121
932.499, 926.258
933.761, 950.432
935.024, 894.772
936.286, 805.893
937.549, 797.179
938.811, 808.501
940.073, 741.860
941.334, 676.397
942.596, 683.828
943.857, 591.294
945.118, 679.796
946.379, 544.333
947.640, 607.534
948.900, 455.141
950.161, 521.448
951.421, 512.246
952.681, 384.976
953.940, 463.866
955.200, 371.709
956.459, 354.643
957.719, 356.174
958.978, 274.572
960.236, 365.561
961.495, 288.166
962.753, 258.264
964.012, 248.328
965.270, 200.674
966.527, 197.056
967.785, 164.319
969.043, 124.375
970.300, 116.567
971.557, 135.751
972.814, 131.965
974.071, 89.599
975.327, 75.873
976.583, 122.174
977.840, 39.503
979.095, 114.864
980.351, 10.749
981.607, 6.809
982.862, 60.373
984.117, 6.667
985.372, 21.167
986.627, 18.990
987.882, 1.546
989.136, 10.291
990.390, 8.918
991.644, 3.600
992.898, 5.555
994.152, 9.624
995.405, 16.566
996.659, 9.476
997.912, 11.771
999.165, 47.991
1000.417, 8.876
1001.670, 41.069
1002.922, 31.253
1004.174, 22.084
1005.426, 52.243
1006.678, 55.371
1007.930, 89.528
1009.181, 24.702
1010.432, 52.682
1011.683, 50.848
1012.934, 43.085
1014.185, 51.246
1015.435, 18.410
1016.685, 31.947
1017.935, 13.998
1019.185, 39.134
1020.435, 11.245
1021.684, 56.187
1022.934, 11.113
1024.183, 69.060
1025.432, 7.209
1026.680, 80.344
1027.929, 33.511
1029.177, 21.319
1030.425, 77.838
1031.673, 34.978
1032.921, 21.192
1034.169, 59.363
1035.416, 24.552
1036.663, 91.685
1037.911, 39.912
1039.157, 51.149
1040.404, 69.405
1041.650, 8.688
1042.897, 4.029
1044.143, 1.250
1045.389, 2.525
1046.634, 18.199
1047.880, 27.929
1049.125, 0.329
1050.371, 53.411
1051.615, 42.157
1052.860, 19.913
1054.105, 7.331
1055.349, 56.424
1056.593, 46.184
1057.837, 76.951
1059.081, 7.722
1060.325, 12.491
1061.568, 51.256
1062.812, 2.026
1064.055, 63.786
1065.298, 47.546
1066.540, 52.310
1067.783, 83.075
1069.025, 75.840
1070.267, 55.608
1071.509, 98.377
1072.751, 22.148
1073.993, 60.914
1075.234, 47.679
1076.475, 56.445
1077.716, 72.208
1078.957, 114.969
1080.198, 87.730
1081.438, 127.490
1082.679, 61.248
1083.919, 122.004
1085.159, 169.757
1086.398, 86.509
1087.638, 88.261
1088.877, 91.010
1090.116, 50.755
1091.355, 92.496
1092.594, 80.231
1093.833, 118.124
1095.071, 69.848
1096.309, 35.566
1097.547, 91.282
1098.785, 35.981
1100.023, 59.669
1101.260, 70.372
1102.498, 60.205
1103.735, 67.007
1104.972, 63.745
1106.208, 40.233
1107.445, 46.999
1108.681, 29.522
1109.918, 43.287
1111.154, 68.863
1112.389, 74.649
1113.625, 60.422
1114.860, 60.968
1116.096, 25.600
1117.331, 45.252
1118.566, 36.022
1119.800, 106.577
1121.035, 107.571
1122.269, 62.393
1123.503, 139.366
1124.737, 137.767
1125.971, 130.520
1127.205, 96.059
1128.438, 104.604
1129.671, 82.029
1130.904, 84.538
1132.137, 49.441
1133.370, 104.884
1134.602, 75.119
1135.834, 103.415
1137.066, 85.755
1138.298, 100.243
1139.530, 83.355
1140.762, 48.280
1141.993, 81.927
1143.224, 76.917
1144.455, 79.293
1145.686, 111.984
1146.917, 147.269
1148.147, 78.884
1149.377, 110.949
1150.607, 116.816
1151.837, 77.262
1153.067, 148.455
1154.296, 103.171
1155.526, 143.450
1156.755, 168.953
1157.984, 81.636
1159.213, 129.765
1160.441, 43.705
1161.670, 105.107
1162.898, 107.551
1164.126, 52.348
1165.354, 83.582
1166.581, 111.558
1167.809, 91.192
1169.036, 72.595
1170.263, 68.880
1171.490, 70.608
1172.717, 129.532
1173.943, 90.160
1175.170, 106.094
1176.396, 119.807
1177.622, 105.790
1178.848, 119.433
1180.073, 148.953
1181.299, 115.782
1182.524, 117.827
1183.749, 67.674
1184.974, 125.742
1186.199, 137.886
1187.423, 118.752
1188.648, 135.767
1189.872, 114.655
1191.096, 106.800
1192.320, 100.413
1193.543, 91.528
1194.767, 125.271
1195.990, 107.161
1197.213, 93.226
1198.436, 146.698
1199.659, 90.999
1200.881, 112.014
1202.104, 129.788
1203.326, 169.414
1204.548, 177.243
1205.770, 132.150
1206.991, 159.075
1208.213, 146.697
1209.434, 86.395
1210.655, 140.418
1211.876, 185.469
1213.096, 152.083
1214.317, 147.089
1215.537, 166.346
1216.757, 154.864
1217.977, 224.131
1219.197, 172.777
1220.417, 115.540
1221.636, 207.484
1222.855, 118.943
1224.074, 160.743
1225.293, 166.425
1226.512, 157.959
1227.731, 137.150
1228.949, 157.584
1230.167, 167.939
1231.385, 168.726
1232.603, 132.017
1233.820, 144.892
1235.038, 136.834
1236.255, 138.785
1237.472, 125.720
1238.689, 195.285
1239.906, 83.299
1241.122, 189.562
1242.338, 183.986
1243.555, 122.694
1244.771, 129.482
1245.986, 147.439
1247.202, 122.507
1248.417, 90.633
1249.633, 96.883
1250.848, 110.863
1252.063, 33.791
1253.277, 121.936
1254.492, 163.609
1255.706, 93.398
1256.920, 151.904
1258.134, 83.688
1259.348, 84.527
1260.562, 136.149
1261.775, 112.637
1262.988, 102.362
1264.201, 76.218
1265.414, 115.669
1266.627, 51.519
1267.839, 64.934
1269.052, 50.981
1270.264, 170.723
1271.476, 69.142
1272.688, 15.696
1273.899, 100.018
1275.111, 12.165
1276.322, 102.644
1277.533, 49.939
1278.744, 15.321
1279.955, 24.614
1281.165, 20.472
1282.376, 16.650
1283.586, 84.412
1284.796, 27.401
1286.006, 32.491
1287.215, 47.263
1288.425, 8.155
1289.634, 41.219
1290.843, 47.457
1292.052, 15.891
1293.261, 81.744
1294.469, 6.785
1295.678, 4.225
1296.886, 49.722
1298.094, 19.754
1299.302, 25.168
1300.509, 41.438
1301.717, 40.675
1302.924, 31.285
1304.131, 47.255
1305.338, 1.410
1306.545, 2.323
1307.752, 14.638
1308.958, 22.801
1310.164, 10.808
1311.370, 15.890
1312.576, 21.935
1313.782, 63.903
1314.987, 48.404
1316.193, 14.208
1317.398, 26.561
1318.603, 36.249
1319.807, 30.806
1321.012, 6.232
1322.216, 55.766
1323.421, 47.102
1324.625, 10.547
1325.829, 19.004
1327.032, 5.218
1328.236, 2.393
1329.439, 8.361
1330.642, 3.321
1331.845, 23.775
1333.048, 10.820
1334.251, 27.800
1335.453, 4.136
1336.656, 0.845
1337.858, 10.820
1339.060, 46.726
1340.261, 9.342
1341.463, 19.448
1342.664, 64.211
1343.866, 0.226
1345.067, 106.299
1346.267, 16.220
1347.468, 35.179
1348.669, 17.522
1349.869, 11.716
1351.069, 22.943
1352.269, 66.276
1353.469, 18.420
1354.668, 67.490
1355.868, 79.560
1357.067, 17.529
1358.266, 75.443
1359.465, 40.366
1360.664, 17.219
1361.862, 33.989
1363.061, 5.760
1364.259, 26.381
1365.457, 57.949
1366.655, 9.464
1367.852, 66.890
1369.050, 82.335
1370.247, 0.650
1371.444, 31.914
1372.641, 18.292
1373.838, 23.402
1375.035, 30.449
1376.231, 11.433
1377.427, 12.535
1378.623, 51.284
1379.819, 16.034
1381.015, 5.685
1382.211, 42.325
1383.406, 4.724
1384.601, 73.432
1385.796, 49.248
1386.991, 57.027
1388.185, 12.568
1389.380, 23.016
1390.574, 65.712
1391.768, 68.126
1392.962, 35.449
1394.156, 80.719
1395.350, 73.912
1396.543, 0.063
1397.736, 47.301
1398.929, 98.032
1400.122, 42.604
1401.315, 72.204
1402.507, 67.497
1403.700, 58.167
1404.892, 70.693
1406.084, 30.295
1407.276, 106.522
1408.467, 119.083
1409.659, 41.089
1410.850, 114.891
1412.041, 99.183
1413.232, 38.419
1414.423, 85.262
1415.614, 51.969
1416.804, 85.605
1417.994, 117.375
1419.184, 23.604
1420.374, 43.008
1421.564, 69.993
1422.753, 46.980
1423.943, 60.285
1425.132, 49.742
1426.321, 93.759
1427.510, 61.061
1428.698, 17.055
1429.887, 86.883
1431.075, 65.051
1432.263, 77.021
1433.451, 104.793
1434.639, 70.039
1435.827, 60.939
1437.014, 110.487
1438.201, 81.396
1439.388, 57.319
1440.575, 77.068
1441.762, 56.835
1442.949, 75.988
1444.135, 80.927
1445.321, 13.252
1446.507, 80.153
1447.693, 72.406
1448.879, 50.375
1450.064, 94.619
1451.250, 36.724
1452.435, 56.340
1453.620, 93.677
1454.805, 27.470
1455.989, 28.652
1457.174, 79.534
1458.358, 15.631
1459.542, 130.864
1460.726, 53.627
1461.910, 67.876
1463.093, 94.834
1464.277, 55.848
1465.460, 95.539
1466.643, 54.866
1467.826, 38.502
1469.009, 97.820
1470.191, 112.828
1471.373, 59.991
1472.556, 75.847
1473.738, 69.479
1474.919, 70.938
1476.101, 78.699
1477.283, 42.177
1478.464, 47.968
1479.645, 36.663
1480.826, 39.542
1482.007, 20.795
1483.187, 39.164
1484.368, 32.359
1485.548, 67.421
1486.728, 58.682
1487.908, 55.769
1489.088, 83.997
1490.268, 68.625
1491.447, 11.053
1492.626, 67.048
1493.805, 16.524
1494.984, 48.491
1496.163, 107.354
1497.341, 38.739
1498.520, 68.514
1499.698, 117.358
1500.876, 32.323
1502.054, 33.968
1503.232, 38.139
1504.409, 21.683
1505.586, 77.240
1506.763, 98.381
1507.940, 74.813
1509.117, 82.216
1510.294, 12.287
1511.470, 28.214
1512.647, 24.350
1513.823, 1.204
1514.999, 64.725
1516.174, 36.794
1517.350, 23.753
1518.526, 0.091
