##NAMES=Vanadinite
##RRUFFID=R050171
##IDEAL CHEMISTRY=Pb^2+^_5_(V^5+^O_4_)_3_Cl
##LOCALITY=Hamburg mine, La Paz County, Arizona, USA
##OWNER=RRUFF
##SOURCE=Marcus Origlieri
##DESCRIPTION=Red prismatic hexagonal crystals
##STATUS=The identification of this mineral has been confirmed by X-ray diffraction and chemical analysis
##URL=rruff.info/R050171
##MEASURED CHEMISTRY=Pb_5.00_((V_0.89_As_0.11_)O_4_)_3_Cl_1.00_
##PIN_ID=M00093
##ORIENTATION=Laser parallel to -a* (-1 0 0). Fiducial mark perpendicular to laser is parallel to -c [0 0 -1]
71.747, 0.000
73.144, 22.967
74.540, 119.354
75.937, 425.241
77.333, 1204.475
78.729, 1698.327
80.125, 2263.692
81.521, 2252.109
82.916, 2638.580
84.311, 3119.903
85.706, 3763.598
87.101, 4657.449
88.496, 5129.568
89.890, 6198.461
91.284, 7003.111
92.678, 7483.186
94.071, 8118.623
95.465, 8339.162
96.858, 8014.207
98.251, 7892.883
99.644, 7414.355
101.036, 6797.945
102.428, 6023.129
103.820, 5269.500
105.212, 4526.814
106.604, 3964.940
107.995, 3493.938
109.387, 3154.029
110.777, 2626.232
112.168, 2391.824
113.559, 2261.271
114.949, 2064.233
116.339, 1770.216
117.729, 1658.573
119.119, 1547.691
120.508, 1240.133
121.897, 1231.827
123.286, 1111.183
124.675, 1035.019
126.063, 923.312
127.452, 757.075
128.840, 909.358
130.228, 1014.273
131.615, 912.922
133.003, 982.392
134.390, 974.762
135.777, 957.100
137.164, 979.122
138.550, 1080.786
139.937, 1000.386
141.323, 1001.248
142.709, 1148.150
144.094, 1115.469
145.480, 1070.666
146.865, 937.598
148.250, 985.208
149.635, 962.180
151.019, 982.089
152.403, 1041.111
153.788, 1026.372
155.171, 1218.813
156.555, 1144.233
157.939, 1176.757
159.322, 1089.052
160.705, 1151.754
162.088, 1146.727
163.470, 1169.800
164.853, 1183.443
166.235, 1200.339
167.617, 1183.225
168.998, 1226.867
170.380, 1266.995
171.761, 1182.548
173.142, 1168.284
174.523, 1102.283
175.904, 1124.798
177.284, 1136.215
178.664, 1075.702
180.044, 1003.389
181.424, 923.792
182.803, 971.967
184.183, 870.220
185.562, 856.543
186.940, 865.925
188.319, 738.358
189.698, 737.834
191.076, 728.344
192.454, 584.880
193.831, 645.430
195.209, 593.971
196.586, 574.487
197.963, 455.961
199.340, 488.380
200.717, 498.721
202.093, 307.973
203.470, 316.128
204.846, 323.179
206.221, 296.123
207.597, 282.003
208.972, 258.855
210.347, 224.336
211.722, 172.860
213.097, 146.273
214.472, 44.577
215.846, 83.771
217.220, 31.859
218.594, 54.843
219.967, 83.718
221.341, 15.593
222.714, 10.942
224.087, 70.351
225.460, 82.940
226.832, 81.674
228.204, 142.555
229.577, 83.585
230.948, 188.831
232.320, 142.362
233.692, 156.189
235.063, 207.316
236.434, 163.777
237.805, 217.352
239.175, 163.016
240.545, 226.917
241.916, 192.704
243.286, 233.666
244.655, 192.012
246.025, 189.890
247.394, 194.410
248.763, 195.671
250.132, 208.740
251.501, 108.679
252.869, 222.525
254.237, 158.345
255.605, 117.167
256.973, 183.995
258.340, 124.890
259.708, 61.862
261.075, 75.928
262.442, 8.105
263.808, 5.601
265.175, 35.188
266.541, 44.647
267.907, 74.979
269.273, 125.178
270.639, 178.234
272.004, 236.153
273.369, 211.933
274.734, 292.573
276.099, 260.062
277.463, 431.376
278.828, 376.501
280.192, 454.414
281.556, 476.109
282.919, 524.573
284.283, 583.802
285.646, 634.786
287.009, 638.600
288.372, 748.359
289.734, 768.880
291.097, 885.485
292.459, 940.727
293.821, 1018.815
295.183, 1021.873
296.544, 1063.854
297.905, 1175.588
299.266, 1190.046
300.627, 1377.600
301.988, 1382.890
303.348, 1490.185
304.709, 1747.313
306.069, 1757.195
307.428, 1885.975
308.788, 2068.632
310.147, 2202.148
311.507, 2357.585
312.865, 2637.667
314.224, 2927.155
315.583, 3188.421
316.941, 3475.041
318.299, 3730.649
319.657, 4034.633
321.015, 4315.212
322.372, 4598.543
323.729, 4872.799
325.086, 5143.086
326.443, 5381.914
327.800, 5431.652
329.156, 5598.875
330.512, 5540.808
331.868, 5520.600
333.224, 5396.360
334.579, 5284.874
335.935, 5274.712
337.290, 5023.902
338.645, 4797.858
339.999, 4772.696
341.354, 4718.536
342.708, 4738.585
344.062, 4860.074
345.416, 4793.765
346.769, 5055.018
348.123, 5248.744
349.476, 5619.877
350.829, 5719.781
352.182, 6079.156
353.534, 6039.152
354.887, 6166.879
356.239, 6109.973
357.591, 5756.538
358.942, 5570.074
360.294, 5076.056
361.645, 4796.029
362.996, 4397.286
364.347, 4075.667
365.698, 3838.249
367.048, 3603.264
368.398, 3392.646
369.748, 3134.231
371.098, 3118.431
372.448, 2868.092
373.797, 2747.569
375.146, 2721.802
376.495, 2594.224
377.844, 2544.272
379.192, 2458.852
380.540, 2494.776
381.889, 2498.010
383.236, 2408.244
384.584, 2507.978
385.932, 2387.740
387.279, 2396.302
388.626, 2447.075
389.973, 2341.750
391.319, 2325.125
392.666, 2259.111
394.012, 2256.391
395.358, 2094.567
396.704, 2183.690
398.049, 2121.001
399.394, 2020.440
400.740, 2046.689
402.084, 1977.814
403.429, 2069.230
404.774, 2013.681
406.118, 1992.872
407.462, 2063.890
408.806, 2056.565
410.150, 2064.772
411.493, 2123.844
412.836, 2044.783
414.179, 2159.543
415.522, 2032.087
416.865, 2111.652
418.207, 1969.219
419.549, 1950.179
420.891, 1979.218
422.233, 1860.391
423.575, 1745.036
424.916, 1608.871
426.257, 1517.922
427.598, 1412.702
428.939, 1380.389
430.279, 1309.625
431.619, 1188.070
432.959, 1091.021
434.299, 1066.867
435.639, 1033.521
436.978, 985.726
438.318, 923.836
439.657, 934.267
440.996, 876.633
442.334, 814.712
443.673, 802.362
445.011, 764.371
446.349, 795.562
447.687, 732.360
449.024, 684.758
450.361, 683.408
451.699, 605.971
453.036, 638.293
454.372, 620.985
455.709, 575.540
457.045, 542.038
458.381, 550.314
459.717, 566.455
461.053, 494.457
462.388, 508.321
463.724, 458.054
465.059, 448.643
466.394, 458.094
467.728, 431.410
469.063, 405.650
470.397, 382.761
471.731, 352.668
473.065, 356.440
474.398, 410.076
475.732, 368.582
477.065, 386.957
478.398, 342.204
479.731, 351.323
481.063, 340.317
482.396, 310.187
483.728, 264.934
485.060, 327.555
486.391, 341.059
487.723, 287.447
489.054, 299.717
490.385, 290.874
491.716, 269.916
493.047, 241.846
494.377, 242.576
495.708, 306.365
497.038, 234.960
498.368, 241.445
499.697, 235.819
501.027, 149.084
502.356, 185.230
503.685, 221.264
505.014, 187.190
506.342, 214.032
507.671, 160.714
508.999, 193.311
510.327, 202.802
511.655, 150.187
512.982, 164.461
514.310, 172.630
515.637, 134.693
516.964, 158.647
518.291, 147.496
519.617, 75.241
520.944, 167.867
522.270, 84.392
523.596, 111.805
524.921, 134.112
526.247, 98.319
527.572, 76.422
528.897, 93.417
530.222, 98.310
531.547, 67.103
532.871, 60.792
534.196, 54.376
535.520, 38.856
536.844, 68.230
538.167, 58.514
539.491, 46.704
540.814, 19.802
542.137, 43.797
543.460, 40.700
544.783, 51.520
546.105, 43.992
547.427, 34.709
548.749, 10.583
550.071, 6.155
551.393, 30.319
552.714, 47.872
554.035, 33.483
555.356, 20.154
556.677, 31.873
557.998, 11.629
559.318, 19.422
560.638, 47.240
561.958, 58.109
563.278, 47.015
564.597, 74.961
565.917, 37.946
567.236, 53.960
568.555, 27.010
569.874, 50.076
571.192, 69.167
572.511, 22.289
573.829, 45.438
575.147, 5.594
576.464, 68.752
577.782, 4.950
579.099, 21.136
580.416, 8.669
581.733, 30.534
583.050, 19.758
584.366, 52.011
585.683, 45.311
586.999, 76.659
588.315, 57.071
589.630, 19.539
590.946, 53.050
592.261, 39.623
593.576, 85.253
594.891, 64.960
596.206, 38.735
597.520, 37.562
598.834, 0.554
600.148, 38.371
601.462, 31.351
602.776, 48.382
604.089, 7.470
605.402, 4.601
606.715, 19.156
608.028, 21.691
609.341, 29.196
610.653, 19.645
611.965, 18.619
613.277, 26.789
614.589, 4.252
615.901, 49.545
617.212, 6.358
618.523, 39.221
619.834, 61.767
621.145, 5.356
622.456, 91.721
623.766, 8.034
625.076, 44.375
626.386, 3.406
627.696, 4.306
629.006, 44.689
630.315, 57.516
631.624, 105.384
632.933, 9.477
634.242, 25.392
635.551, 97.382
636.859, 31.180
638.167, 85.019
639.475, 57.813
640.783, 44.394
642.090, 8.615
643.398, 87.365
644.705, 44.177
646.012, 102.651
647.318, 87.252
648.625, 95.804
649.931, 68.207
651.237, 98.402
652.543, 46.633
653.849, 128.364
655.155, 143.591
656.460, 70.905
657.765, 143.204
659.070, 131.377
660.375, 196.219
661.679, 105.502
662.984, 170.472
664.288, 201.772
665.592, 160.494
666.895, 181.701
668.199, 153.031
669.502, 208.784
670.805, 233.808
672.108, 229.996
673.411, 291.710
674.713, 297.847
676.016, 292.908
677.318, 346.417
678.620, 288.831
679.921, 380.856
681.223, 397.653
682.524, 388.887
683.825, 452.594
685.126, 441.839
686.427, 561.641
687.727, 541.648
689.028, 544.975
690.328, 654.221
691.628, 628.378
692.927, 729.058
694.227, 743.936
695.526, 728.661
696.825, 885.130
698.124, 874.547
699.423, 936.208
700.721, 1031.903
702.020, 994.136
703.318, 1104.266
704.616, 1231.198
705.913, 1187.129
707.211, 1414.976
708.508, 1462.721
709.805, 1579.536
711.102, 1639.439
712.399, 1874.355
713.695, 1805.713
714.992, 2042.538
716.288, 2215.053
717.584, 2290.996
718.879, 2391.437
720.175, 2567.745
721.470, 2725.482
722.765, 2831.711
724.060, 2971.120
725.355, 3146.414
726.649, 3195.434
727.944, 3299.431
729.238, 3448.545
730.532, 3404.383
731.825, 3514.881
733.119, 3647.617
734.412, 3847.421
735.705, 3969.511
736.998, 4068.079
738.291, 4137.939
739.584, 4301.519
740.876, 4538.395
742.168, 4594.865
743.460, 4659.544
744.752, 4956.633
746.043, 5175.812
747.334, 5210.423
748.626, 5607.875
749.916, 5877.897
751.207, 6138.279
752.498, 6421.140
753.788, 6644.172
755.078, 7108.641
756.368, 7251.875
757.658, 7845.510
758.947, 8178.524
760.237, 8553.127
761.526, 9077.872
762.815, 9542.907
764.104, 10188.012
765.392, 10651.066
766.680, 11027.876
767.969, 11683.121
769.257, 12308.420
770.544, 12863.682
771.832, 13619.078
773.119, 14084.523
774.406, 14990.021
775.693, 15665.571
776.980, 16571.170
778.267, 17376.826
779.553, 18282.535
780.839, 18868.305
782.125, 19964.064
783.411, 20859.869
784.697, 21935.799
785.982, 22471.787
787.267, 23557.834
788.552, 24733.930
789.837, 24830.086
791.122, 26296.297
792.406, 26852.574
793.690, 27648.908
794.974, 28365.301
796.258, 28971.754
797.542, 29818.271
798.825, 29614.854
800.108, 30801.486
801.391, 31508.182
802.674, 31664.943
803.957, 33081.758
805.239, 33658.637
806.522, 34025.582
807.804, 36032.594
809.085, 35489.660
810.367, 36966.801
811.649, 38174.000
812.930, 39621.277
814.211, 41298.613
815.492, 42086.031
816.772, 43713.512
818.053, 45861.051
819.333, 46838.660
820.613, 48366.340
821.893, 48344.082
823.173, 49791.883
824.452, 50329.766
825.732, 50907.707
827.011, 50635.711
828.290, 50183.789
829.568, 49461.930
830.847, 48070.141
832.125, 46328.422
833.403, 45106.777
834.681, 42325.191
835.959, 40253.680
837.236, 38642.242
838.514, 35620.906
839.791, 33709.605
841.068, 31618.859
842.345, 29777.703
843.621, 27156.910
844.898, 25516.729
846.174, 24116.123
847.450, 21737.875
848.726, 20568.658
850.001, 18702.541
851.277, 17133.549
852.552, 16473.613
853.827, 14674.266
855.102, 13816.335
856.376, 12776.763
857.651, 11737.968
858.925, 11112.401
860.199, 10244.837
861.473, 9499.173
862.746, 8940.175
864.020, 8414.494
865.293, 7846.745
866.566, 7448.819
867.839, 6875.729
869.112, 6708.389
870.384, 6280.395
871.656, 5829.368
872.928, 5510.633
874.200, 5394.283
875.472, 5144.096
876.744, 5011.466
878.015, 4753.035
879.286, 4527.863
880.557, 4282.488
881.828, 4112.468
883.098, 3944.145
884.369, 3807.676
885.639, 3667.822
886.909, 3495.424
888.178, 3397.414
889.448, 3347.544
890.717, 3169.771
891.987, 3129.989
893.256, 3100.292
894.524, 2856.039
895.793, 2855.316
897.061, 2720.447
898.330, 2696.508
899.598, 2704.628
900.865, 2565.149
902.133, 2548.394
903.401, 2348.712
904.668, 2380.094
905.935, 2359.537
907.202, 2130.064
908.468, 2339.616
909.735, 2088.227
911.001, 2071.938
912.267, 1983.663
913.533, 2061.438
914.799, 2016.264
916.064, 1893.139
917.330, 1799.062
918.595, 1761.032
919.860, 1693.053
921.124, 1770.122
922.389, 1657.285
923.653, 1560.638
924.918, 1538.848
926.182, 1406.105
927.445, 1404.050
928.709, 1413.398
929.972, 1290.792
931.236, 1229.598
932.499, 1247.274
933.761, 1101.802
935.024, 1185.376
936.286, 984.994
937.549, 978.656
938.811, 987.362
940.073, 867.110
941.334, 891.901
942.596, 873.735
943.857, 738.055
945.118, 799.973
946.379, 704.988
947.640, 706.082
948.900, 608.124
950.161, 625.205
951.421, 556.620
952.681, 586.781
953.940, 536.506
955.200, 527.746
956.459, 489.207
957.719, 405.691
958.978, 354.048
960.236, 407.457
961.495, 316.118
962.753, 384.677
964.012, 298.945
965.270, 232.556
966.527, 300.965
967.785, 289.433
969.043, 227.302
970.300, 184.698
971.557, 156.420
972.814, 139.217
974.071, 150.109
975.327, 133.938
976.583, 119.801
977.840, 117.696
979.095, 43.685
980.351, 113.767
981.607, 57.835
982.862, 107.154
984.117, 14.016
985.372, 9.128
986.627, 5.387
987.882, 17.855
989.136, 0.062
990.390, 10.485
991.644, 20.908
992.898, 67.034
994.152, 12.649
995.405, 29.863
996.659, 13.245
997.912, 71.230
999.165, 46.328
1000.417, 109.923
1001.670, 46.283
1002.922, 19.882
1004.174, 32.464
1005.426, 62.034
1006.678, 21.602
1007.930, 37.978
1009.181, 102.280
1010.432, 59.644
1011.683, 94.942
1012.934, 22.366
1014.185, 88.898
1015.435, 44.458
1016.685, 38.017
1017.935, 129.566
1019.185, 45.154
1020.435, 28.742
1021.684, 46.152
1022.934, 6.722
1024.183, 54.280
1025.432, 45.219
1026.680, 63.331
1027.929, 101.894
1029.177, 6.483
1030.425, 21.068
1031.673, 4.653
1032.921, 17.232
1034.169, 31.813
1035.416, 48.388
1036.663, 60.978
1037.911, 53.546
1039.157, 53.929
1040.404, 34.807
1041.650, 32.472
1042.897, 32.149
1044.143, 18.840
1045.389, 14.461
1046.634, 2.234
1047.880, 62.067
1049.125, 38.376
1050.371, 18.694
1051.615, 75.016
1052.860, 39.345
1054.105, 67.680
1055.349, 49.023
1056.593, 6.372
1057.837, 76.714
1059.081, 45.061
1060.325, 40.414
1061.568, 53.767
1062.812, 61.127
1064.055, 53.488
1065.298, 85.851
1066.540, 63.217
1067.783, 71.584
1069.025, 97.952
1070.267, 61.322
1071.509, 51.691
1072.751, 45.058
1073.993, 79.424
1075.234, 114.787
1076.475, 31.148
1077.716, 85.500
1078.957, 85.850
1080.198, 44.202
1081.438, 53.547
1082.679, 88.886
1083.919, 116.223
1085.159, 109.555
1086.398, 120.241
1087.638, 118.207
1088.877, 99.524
1090.116, 109.836
1091.355, 85.141
1092.594, 23.439
1093.833, 90.716
1095.071, 76.985
1096.309, 35.245
1097.547, 129.586
1098.785, 97.819
1100.023, 67.044
1101.260, 105.257
1102.498, 59.458
1103.735, 105.646
1104.972, 77.822
1106.208, 80.104
1107.445, 102.524
1108.681, 47.093
1109.918, 80.457
1111.154, 46.642
1112.389, 28.818
1113.625, 94.905
1114.860, 58.034
1116.096, 58.130
1117.331, 88.222
1118.566, 65.508
1119.800, 114.981
1121.035, 57.398
1122.269, 96.118
1123.503, 143.422
1124.737, 175.870
1125.971, 170.876
1127.205, 109.274
1128.438, 105.651
1129.671, 111.037
1130.904, 96.565
1132.137, 72.047
1133.370, 140.002
1134.602, 112.874
1135.834, 100.429
1137.066, 130.595
1138.298, 63.511
1139.530, 99.963
1140.762, 83.924
1141.993, 138.972
1143.224, 96.372
1144.455, 108.358
1145.686, 87.862
1146.917, 91.540
1148.147, 140.513
1149.377, 103.444
1150.607, 139.978
1151.837, 139.144
1153.067, 150.078
1154.296, 137.057
1155.526, 106.591
1156.755, 101.003
1157.984, 101.493
1159.213, 95.621
1160.441, 102.281
1161.670, 119.149
1162.898, 133.303
1164.126, 150.057
1165.354, 119.884
1166.581, 136.212
1167.809, 141.050
1169.036, 88.284
1170.263, 121.369
1171.490, 135.903
1172.717, 97.075
1173.943, 122.673
1175.170, 154.466
1176.396, 159.213
1177.622, 132.695
1178.848, 171.872
1180.073, 119.542
1181.299, 115.485
1182.524, 189.200
1183.749, 123.497
1184.974, 142.135
1186.199, 154.273
1187.423, 78.628
1188.648, 180.751
1189.872, 153.869
1191.096, 194.733
1192.320, 116.887
1193.543, 128.832
1194.767, 172.732
1195.990, 145.710
1197.213, 121.166
1198.436, 146.140
1199.659, 100.317
1200.881, 160.217
1202.104, 155.607
1203.326, 139.824
1204.548, 189.340
1205.770, 197.339
1206.991, 178.624
1208.213, 192.965
1209.434, 167.472
1210.655, 176.415
1211.876, 174.424
1213.096, 189.286
1214.317, 179.727
1215.537, 191.371
1216.757, 162.094
1217.977, 222.275
1219.197, 133.593
1220.417, 144.052
1221.636, 235.024
1222.855, 122.223
1224.074, 208.587
1225.293, 191.063
1226.512, 166.092
1227.731, 217.055
1228.949, 205.910
1230.167, 148.339
1231.385, 205.190
1232.603, 166.374
1233.820, 209.115
1235.038, 160.026
1236.255, 154.866
1237.472, 202.542
1238.689, 195.353
1239.906, 148.404
1241.122, 207.826
1242.338, 191.482
1243.555, 124.263
1244.771, 164.524
1245.986, 165.148
1247.202, 173.141
1248.417, 182.540
1249.633, 163.859
1250.848, 173.647
1252.063, 127.715
1253.277, 100.765
1254.492, 84.925
1255.706, 104.082
1256.920, 139.989
1258.134, 136.988
1259.348, 150.807
1260.562, 138.192
1261.775, 141.127
1262.988, 137.104
1264.201, 96.377
1265.414, 75.549
1266.627, 79.168
1267.839, 53.821
1269.052, 85.343
1270.264, 71.847
1271.476, 131.226
1272.688, 73.560
1273.899, 74.044
1275.111, 15.330
1276.322, 9.732
1277.533, 10.310
1278.744, 1.656
1279.955, 33.239
1281.165, 50.161
1282.376, 79.185
1283.586, 102.165
1284.796, 50.931
1286.006, 49.529
1287.215, 79.649
1288.425, 2.552
1289.634, 101.679
1290.843, 20.775
1292.052, 30.588
1293.261, 49.724
1294.469, 30.140
1295.678, 50.662
1296.886, 83.264
1298.094, 54.593
1299.302, 52.136
1300.509, 14.253
1301.717, 5.302
1302.924, 1.771
1304.131, 11.425
1305.338, 1.818
1306.545, 1.885
1307.752, 20.772
1308.958, 54.885
1310.164, 13.434
1311.370, 44.459
1312.576, 30.520
1313.782, 32.845
1314.987, 13.327
1316.193, 21.410
1317.398, 22.822
1318.603, 55.150
1319.807, 10.726
1321.012, 13.911
1322.216, 80.592
1323.421, 38.785
1324.625, 54.932
1325.829, 60.177
1327.032, 41.771
1328.236, 54.219
1329.439, 46.340
1330.642, 32.247
1331.845, 105.110
1333.048, 21.996
1334.251, 24.773
1335.453, 37.855
1336.656, 64.545
1337.858, 39.188
1339.060, 58.243
1340.261, 61.775
1341.463, 22.244
1342.664, 28.710
1343.866, 36.061
1345.067, 55.428
1346.267, 17.751
1347.468, 25.921
1348.669, 86.222
1349.869, 36.281
1351.069, 15.278
1352.269, 95.213
1353.469, 1.092
1354.668, 103.912
1355.868, 47.816
1357.067, 29.520
1358.266, 64.157
1359.465, 40.738
1360.664, 31.248
1361.862, 81.799
1363.061, 55.485
1364.259, 27.817
1365.457, 100.129
1366.655, 61.339
1367.852, 79.782
1369.050, 28.885
1370.247, 2.084
1371.444, 33.880
1372.641, 55.763
1373.838, 20.582
1375.035, 69.301
1376.231, 31.945
1377.427, 72.508
1378.623, 47.282
1379.819, 50.418
1381.015, 67.344
1382.211, 48.225
1383.406, 84.062
1384.601, 95.755
1385.796, 51.498
1386.991, 34.194
1388.185, 116.717
1389.380, 52.566
1390.574, 97.764
1391.768, 79.140
1392.962, 65.432
1394.156, 89.424
1395.350, 80.709
1396.543, 80.691
1397.736, 86.098
1398.929, 78.146
1400.122, 75.465
1401.315, 72.952
1402.507, 53.587
1403.700, 112.602
1404.892, 118.495
1406.084, 91.153
1407.276, 161.929
1408.467, 66.253
1409.659, 110.510
1410.850, 99.609
1412.041, 73.323
1413.232, 102.161
1414.423, 114.760
1415.614, 112.110
1416.804, 55.872
1417.994, 68.373
1419.184, 9.736
1420.374, 78.305
1421.564, 83.128
1422.753, 121.610
1423.943, 75.926
1425.132, 19.388
1426.321, 56.595
1427.510, 52.024
1428.698, 44.906
1429.887, 69.818
1431.075, 51.574
1432.263, 68.878
1433.451, 145.774
1434.639, 98.658
1435.827, 42.080
1437.014, 81.295
1438.201, 14.801
1439.388, 29.564
1440.575, 70.380
1441.762, 23.715
1442.949, 99.141
1444.135, 61.068
1445.321, 33.386
1446.507, 88.886
1447.693, 29.073
1448.879, 105.030
1450.064, 77.251
1451.250, 25.387
1452.435, 125.621
1453.620, 45.593
1454.805, 14.720
1455.989, 87.857
1457.174, 62.072
1458.358, 35.709
1459.542, 105.323
1460.726, 92.727
1461.910, 34.849
1463.093, 73.869
1464.277, 30.402
1465.460, 97.922
1466.643, 160.188
1467.826, 52.981
1469.009, 89.419
1470.191, 106.580
1471.373, 40.786
1472.556, 126.066
1473.738, 86.664
1474.919, 47.748
1476.101, 119.753
1477.283, 4.746
1478.464, 80.180
1479.645, 102.044
1480.826, 4.857
1482.007, 68.122
1483.187, 110.204
1484.368, 53.539
1485.548, 91.003
1486.728, 45.834
1487.908, 41.567
1489.088, 106.006
1490.268, 13.513
1491.447, 230.748
1492.626, 150.639
1493.805, 135.246
1494.984, 96.212
1496.163, 91.007
1497.341, 18.741
1498.520, 116.619
1499.698, 106.930
1500.876, 69.256
1502.054, 90.141
1503.232, 21.823
1504.409, 2.753
1505.586, 95.437
1506.763, 32.489
1507.940, 45.206
1509.117, 2.189
