##NAMES=Vayrynenite
##RRUFFID=R050243
##IDEAL CHEMISTRY=Mn^2+^Be(PO_4_)OH
##LOCALITY=Viitaniemi pegmatite, Erajarvi, Orivesi, Finland
##OWNER=RRUFF
##SOURCE=Marcus Origlieri
##DESCRIPTION=Pink massive with defined cleavage planes
##STATUS=The identification of this mineral has been confirmed by X-ray diffraction and chemical analysis
##URL=rruff.info/R050243
##MEASURED CHEMISTRY=(Mn^2+^_0.95_Fe^2+^_0.05_)_Σ=1_Be_1.00_(P_1.00_O_4_)((OH)_0.94_F_0.06_)_Σ=1_ ; Be not measured but estimated by difference and charge balance.
##PIN_ID=M00437
##ORIENTATION=Laser parallel to a* (1 0 0). Fiducial mark perpendicular to laser is parallel to -b [0 -1 0]
74.540, 0.000
75.937, 21.209
77.333, 164.489
78.729, 224.560
80.125, 332.433
81.521, 498.612
82.916, 599.702
84.311, 808.357
85.706, 1034.318
87.101, 1330.079
88.496, 1730.112
89.890, 2333.496
91.284, 3056.981
92.678, 3568.080
94.071, 3424.278
95.465, 2835.562
96.858, 2123.909
98.251, 1445.646
99.644, 1020.906
101.036, 900.796
102.428, 785.388
103.820, 784.823
105.212, 763.378
106.604, 779.913
107.995, 795.081
109.387, 828.148
110.777, 798.170
112.168, 772.012
113.559, 824.668
114.949, 874.434
116.339, 1046.520
117.729, 1451.983
119.119, 1932.474
120.508, 2355.527
121.897, 2836.680
123.286, 2957.847
124.675, 2948.114
126.063, 2232.640
127.452, 1694.198
128.840, 1134.753
130.228, 777.595
131.615, 481.240
133.003, 269.605
134.390, 215.300
135.777, 79.976
137.164, 76.491
138.550, 9.153
139.937, 27.053
141.323, 0.881
142.709, 43.055
144.094, 31.133
145.480, 106.437
146.865, 110.852
148.250, 102.373
149.635, 139.993
151.019, 145.708
152.403, 67.514
153.788, 45.406
155.171, 17.365
156.555, 38.569
157.939, 186.435
159.322, 308.237
160.705, 478.795
162.088, 716.627
163.470, 829.382
164.853, 838.295
166.235, 626.224
167.617, 544.372
168.998, 437.565
170.380, 342.811
171.761, 376.120
173.142, 454.241
174.523, 522.519
175.904, 835.359
177.284, 1280.663
178.664, 2017.993
180.044, 3000.323
181.424, 3921.651
182.803, 4668.054
184.183, 4679.783
185.562, 4134.557
186.940, 2683.695
188.319, 1752.734
189.698, 1118.043
191.076, 703.515
192.454, 494.150
193.831, 361.278
195.209, 239.597
196.586, 209.165
197.963, 140.855
199.340, 73.561
200.717, 150.281
202.093, 100.011
203.470, 170.746
204.846, 224.484
206.221, 219.224
207.597, 309.965
208.972, 450.705
210.347, 539.444
211.722, 572.181
213.097, 609.915
214.472, 702.642
215.846, 712.360
217.220, 753.068
218.594, 780.765
219.967, 759.453
221.341, 692.132
222.714, 589.805
224.087, 570.470
225.460, 591.130
226.832, 891.785
228.204, 1196.435
229.577, 1845.081
230.948, 2303.722
232.320, 2480.358
233.692, 2225.990
235.063, 1544.616
236.434, 901.236
237.805, 476.851
239.175, 308.459
240.545, 161.504
241.916, 62.627
243.286, 42.369
244.655, 14.478
246.025, 38.045
247.394, 6.582
248.763, 102.637
250.132, 1.774
251.501, 33.837
252.869, 6.858
254.237, 10.847
255.605, 3.705
256.973, 17.364
258.340, 87.607
259.708, 110.070
261.075, 132.352
262.442, 207.878
263.808, 229.254
265.175, 245.858
266.541, 206.927
267.907, 107.438
269.273, 53.013
270.639, 50.630
272.004, 24.319
273.369, 39.270
274.734, 3.101
276.099, 28.028
277.463, 60.121
278.828, 33.394
280.192, 118.657
281.556, 125.776
282.919, 175.879
284.283, 214.159
285.646, 243.086
287.009, 213.000
288.372, 128.902
289.734, 100.791
291.097, 30.664
292.459, 6.517
293.821, 30.655
295.183, 6.135
296.544, 49.105
297.905, 46.395
299.266, 91.734
300.627, 50.135
301.988, 34.587
303.348, 48.546
304.709, 24.092
306.069, 30.882
307.428, 2.513
308.788, 12.459
310.147, 3.954
311.507, 22.286
312.865, 19.499
314.224, 60.511
315.583, 46.761
316.941, 79.106
318.299, 125.433
319.657, 165.565
321.015, 238.847
322.372, 336.995
323.729, 458.258
325.086, 578.391
326.443, 768.427
327.800, 1000.402
329.156, 1116.255
330.512, 1211.030
331.868, 1252.791
333.224, 1410.537
334.579, 1554.268
335.935, 1653.984
337.290, 1667.680
338.645, 1618.345
339.999, 1423.968
341.354, 1442.566
342.708, 1305.147
344.062, 1306.713
345.416, 1460.264
346.769, 1682.800
348.123, 2012.296
349.476, 2176.734
350.829, 2380.096
352.182, 2407.361
353.534, 2183.564
354.887, 1948.705
356.239, 1589.811
357.591, 1339.906
358.942, 1105.004
360.294, 950.123
361.645, 843.262
362.996, 800.432
364.347, 782.620
365.698, 857.823
367.048, 920.056
368.398, 1085.305
369.748, 1270.568
371.098, 1604.840
372.448, 2038.127
373.797, 2666.431
375.146, 3325.752
376.495, 3931.082
377.844, 4368.418
379.192, 4693.755
380.540, 4489.088
381.889, 4149.420
383.236, 3352.740
384.584, 2773.052
385.932, 2217.352
387.279, 1773.642
388.626, 1505.920
389.973, 1248.188
391.319, 1128.444
392.666, 931.690
394.012, 915.925
395.358, 885.149
396.704, 921.361
398.049, 1120.562
399.394, 1235.751
400.740, 1566.929
402.084, 1639.095
403.429, 1671.253
404.774, 1523.399
406.118, 1260.528
407.462, 994.588
408.806, 785.094
410.150, 608.202
411.493, 420.595
412.836, 342.128
414.179, 259.563
415.522, 200.604
416.865, 131.309
418.207, 150.373
419.549, 108.510
420.891, 67.396
422.233, 85.255
423.575, 54.088
424.916, 67.893
426.257, 4.330
427.598, 14.409
428.939, 48.114
430.279, 5.209
431.619, 36.247
432.959, 29.584
434.299, 13.060
435.639, 15.958
436.978, 63.220
438.318, 29.609
439.657, 94.809
440.996, 86.281
442.334, 120.692
443.673, 124.082
445.011, 82.450
446.349, 217.796
447.687, 293.122
449.024, 282.428
450.361, 372.715
451.699, 487.928
453.036, 648.920
454.372, 836.801
455.709, 1123.321
457.045, 1537.100
458.381, 1896.385
459.717, 2315.801
461.053, 2497.335
462.388, 2480.446
463.724, 2255.498
465.059, 1785.664
466.394, 1334.333
467.728, 991.555
469.063, 695.527
470.397, 537.906
471.731, 371.997
473.065, 249.575
474.398, 171.189
475.732, 125.870
477.065, 90.454
478.398, 94.363
479.731, 117.410
481.063, 69.441
482.396, 97.454
483.728, 66.449
485.060, 81.427
486.391, 83.387
487.723, 84.330
489.054, 101.257
490.385, 169.167
491.716, 208.063
493.047, 207.942
494.377, 283.807
495.708, 408.656
497.038, 576.490
498.368, 738.308
499.697, 1139.110
501.027, 1625.898
502.356, 2435.670
503.685, 3268.427
505.014, 3932.336
506.342, 4215.373
507.671, 3742.405
508.999, 2861.217
510.327, 1978.008
511.655, 1423.267
512.982, 969.523
514.310, 774.109
515.637, 644.589
516.964, 497.697
518.291, 428.045
519.617, 351.272
520.944, 358.935
522.270, 398.472
523.596, 336.566
524.921, 365.538
526.247, 497.463
527.572, 582.635
528.897, 728.699
530.222, 926.399
531.547, 1456.438
532.871, 1959.002
534.196, 2771.718
535.520, 3202.577
536.844, 3502.211
538.167, 3310.312
539.491, 2698.842
540.814, 2058.844
542.137, 1399.375
543.460, 974.744
544.783, 682.984
546.105, 598.203
547.427, 390.401
548.749, 355.579
550.071, 234.736
551.393, 247.872
552.714, 258.987
554.035, 219.082
555.356, 237.156
556.677, 255.210
557.998, 252.504
559.318, 272.161
560.638, 285.246
561.958, 315.216
563.278, 343.166
564.597, 406.096
565.917, 511.004
567.236, 548.902
568.555, 642.796
569.874, 712.674
571.192, 687.565
572.511, 731.444
573.829, 678.319
575.147, 686.183
576.464, 668.705
577.782, 598.743
579.099, 630.368
580.416, 685.724
581.733, 688.205
583.050, 839.391
584.366, 936.680
585.683, 1124.693
586.999, 1431.196
588.315, 1731.213
589.630, 2259.123
590.946, 3003.947
592.261, 4086.642
593.576, 5584.026
594.891, 6887.456
596.206, 7968.554
597.520, 8505.238
598.834, 7949.529
600.148, 6865.775
601.462, 5650.144
602.776, 4660.507
604.089, 3702.667
605.402, 2999.151
606.715, 2531.617
608.028, 2354.064
609.341, 2347.495
610.653, 2552.909
611.965, 3021.312
613.277, 3995.709
614.589, 4988.113
615.901, 6060.513
617.212, 6793.922
618.523, 6678.345
619.834, 5844.792
621.145, 4707.250
622.456, 3693.712
623.766, 2939.184
625.076, 2325.658
626.386, 2042.137
627.696, 1689.613
629.006, 1465.088
630.315, 1169.561
631.624, 1049.022
632.933, 869.474
634.242, 692.910
635.551, 685.257
636.859, 573.602
638.167, 611.990
639.475, 531.194
640.783, 579.498
642.090, 473.654
643.398, 592.855
644.705, 520.047
646.012, 591.225
647.318, 572.457
648.625, 574.711
649.931, 519.948
651.237, 537.170
652.543, 488.375
653.849, 458.563
655.155, 377.736
656.460, 390.893
657.765, 277.033
659.070, 238.157
660.375, 206.266
661.679, 129.358
662.984, 94.434
664.288, 91.490
665.592, 31.529
666.895, 10.459
668.199, 17.133
669.502, 33.929
670.805, 8.951
672.108, 22.202
673.411, 64.405
674.713, 52.680
676.016, 82.956
677.318, 74.378
678.620, 104.007
679.921, 65.512
681.223, 48.177
682.524, 110.841
683.825, 51.664
685.126, 50.552
686.427, 29.401
687.727, 51.404
689.028, 60.472
690.328, 63.608
691.628, 34.812
692.927, 16.072
694.227, 8.374
695.526, 19.284
696.825, 7.917
698.124, 79.046
699.423, 111.106
700.721, 221.679
702.020, 263.239
703.318, 342.787
704.616, 384.322
705.913, 456.845
707.211, 418.102
708.508, 318.854
709.805, 305.342
711.102, 251.817
712.399, 168.281
713.695, 246.735
714.992, 199.177
716.288, 225.608
717.584, 238.028
718.879, 284.438
720.175, 333.837
721.470, 379.226
722.765, 563.605
724.060, 649.974
725.355, 742.332
726.649, 937.681
727.944, 1200.020
729.238, 1461.350
730.532, 1741.669
731.825, 2004.979
733.119, 2521.281
734.412, 3039.573
735.705, 3309.856
736.998, 3727.134
738.291, 3949.403
739.584, 3953.666
740.876, 3817.923
742.168, 3562.179
743.460, 3194.432
744.752, 2679.680
746.043, 2324.929
747.334, 2018.173
748.626, 1754.414
749.916, 1499.653
751.207, 1245.890
752.498, 1109.121
753.788, 963.350
755.078, 843.052
756.368, 825.790
757.658, 716.001
758.947, 660.206
760.237, 680.407
761.526, 638.601
762.815, 608.789
764.104, 713.972
765.392, 648.432
766.680, 775.605
767.969, 765.950
769.257, 721.798
770.544, 722.063
771.832, 607.468
773.119, 591.412
774.406, 555.194
775.693, 437.523
776.980, 452.656
778.267, 363.783
779.553, 417.906
780.839, 322.025
782.125, 327.138
783.411, 341.248
784.697, 430.353
785.982, 371.455
787.267, 430.552
788.552, 427.645
789.837, 471.735
791.122, 554.821
792.406, 664.904
793.690, 770.984
794.974, 864.062
796.258, 1045.136
797.542, 1112.209
798.825, 1226.280
800.108, 1066.349
801.391, 974.416
802.674, 734.481
803.957, 623.544
805.239, 551.605
806.522, 375.665
807.804, 337.722
809.085, 173.779
810.367, 199.834
811.649, 161.888
812.930, 89.942
814.211, 49.994
815.492, 42.046
816.772, 42.931
818.053, 27.672
819.333, 60.404
820.613, 82.340
821.893, 14.718
823.173, 79.739
824.452, 6.185
825.732, 47.288
827.011, 74.484
828.290, 22.041
829.568, 0.344
830.847, 12.756
832.125, 29.278
833.403, 3.204
834.681, 75.302
835.959, 39.083
837.236, 13.858
838.514, 85.951
839.791, 6.563
841.068, 52.275
842.345, 8.763
843.621, 16.715
844.898, 68.507
846.174, 71.143
847.450, 19.995
848.726, 139.370
850.001, 26.307
851.277, 150.760
852.552, 100.678
853.827, 219.756
855.102, 188.966
856.376, 278.201
857.651, 201.460
858.925, 376.737
860.199, 430.049
861.473, 491.373
862.746, 411.720
864.020, 441.083
865.293, 391.458
866.566, 292.845
867.839, 285.245
869.112, 217.153
870.384, 162.084
871.656, 139.523
872.928, 129.976
874.200, 128.850
875.472, 110.920
876.744, 118.412
878.015, 112.292
879.286, 108.438
880.557, 115.589
881.828, 130.520
883.098, 144.082
884.369, 165.658
885.639, 154.248
886.909, 186.853
888.178, 210.473
889.448, 209.107
890.717, 278.756
891.987, 302.498
893.256, 358.099
894.524, 396.793
895.793, 439.502
897.061, 496.227
898.330, 401.967
899.598, 368.722
900.865, 271.493
902.133, 230.625
903.401, 267.082
904.668, 171.899
905.935, 132.734
907.202, 171.585
908.468, 185.452
909.735, 129.334
911.001, 152.249
912.267, 107.184
913.533, 115.147
914.799, 49.135
916.064, 86.163
917.330, 21.776
918.595, 36.307
919.860, 15.580
921.124, 40.451
922.389, 10.303
923.653, 20.138
924.918, 77.958
926.182, 38.774
927.445, 16.576
928.709, 36.636
929.972, 36.870
931.236, 106.141
932.499, 51.446
933.761, 178.778
935.024, 59.133
936.286, 137.517
937.549, 145.918
938.811, 152.339
940.073, 95.778
941.334, 157.236
942.596, 123.712
943.857, 182.206
945.118, 216.719
946.379, 193.250
947.640, 180.800
948.900, 210.368
950.161, 318.954
951.421, 411.560
952.681, 401.184
953.940, 467.828
955.200, 527.489
956.459, 502.170
957.719, 542.870
958.978, 600.588
960.236, 739.326
961.495, 768.082
962.753, 849.857
964.012, 927.652
965.270, 1007.878
966.527, 1086.300
967.785, 1200.152
969.043, 1381.025
970.300, 1483.919
971.557, 1654.833
972.814, 1784.772
974.071, 2044.120
975.327, 2249.119
976.583, 2703.159
977.840, 3179.226
979.095, 3841.331
980.351, 4441.483
981.607, 4999.617
982.862, 5838.868
984.117, 6171.298
985.372, 6504.571
986.627, 6747.977
987.882, 6075.367
989.136, 5963.877
990.390, 5767.434
991.644, 5669.931
992.898, 6186.570
994.152, 6709.252
995.405, 7961.983
996.659, 9638.761
997.912, 11990.574
999.165, 15976.438
1000.417, 21461.320
1001.670, 29464.232
1002.922, 38603.504
1004.174, 48900.137
1005.426, 53282.734
1006.678, 51418.645
1007.930, 43392.719
1009.181, 34037.594
1010.432, 25504.262
1011.683, 19505.324
1012.934, 15157.601
1014.185, 11852.423
1015.435, 9639.545
1016.685, 7982.684
1017.935, 6610.839
1019.185, 5706.013
1020.435, 5115.205
1021.684, 4559.414
1022.934, 4037.642
1024.183, 3599.887
1025.432, 3419.148
1026.680, 2976.429
1027.929, 2871.725
1029.177, 2652.040
1030.425, 2531.370
1031.673, 2400.718
1032.921, 2416.082
1034.169, 2372.463
1035.416, 2313.860
1036.663, 2397.273
1037.911, 2634.703
1039.157, 2601.148
1040.404, 2810.610
1041.650, 2970.086
1042.897, 2918.577
1044.143, 3008.086
1045.389, 2745.619
1046.634, 2617.168
1047.880, 2258.735
1049.125, 1970.320
1050.371, 1647.922
1051.615, 1423.541
1052.860, 1299.176
1054.105, 1109.827
1055.349, 1060.571
1056.593, 987.254
1057.837, 1001.952
1059.081, 922.669
1060.325, 1025.714
1061.568, 1041.544
1062.812, 1225.792
1064.055, 1485.255
1065.298, 1782.592
1066.540, 2212.189
1067.783, 2747.415
1069.025, 3675.380
1070.267, 4736.060
1071.509, 6340.235
1072.751, 7517.114
1073.993, 8229.878
1075.234, 7969.646
1076.475, 6732.272
1077.716, 5166.015
1078.957, 3857.618
1080.198, 2830.341
1081.438, 2058.858
1082.679, 1684.980
1083.919, 1367.842
1085.159, 1048.439
1086.398, 904.456
1087.638, 793.710
1088.877, 646.747
1090.116, 538.866
1091.355, 439.924
1092.594, 390.991
1093.833, 259.069
1095.071, 216.157
1096.309, 195.254
1097.547, 141.240
1098.785, 181.478
1100.023, 108.652
1101.260, 137.787
1102.498, 130.930
1103.735, 186.092
1104.972, 81.252
1106.208, 187.421
1107.445, 118.598
1108.681, 224.783
1109.918, 167.976
1111.154, 260.176
1112.389, 269.383
1113.625, 334.598
1114.860, 277.979
1116.096, 398.210
1117.331, 522.447
1118.566, 750.699
1119.800, 960.957
1121.035, 1427.221
1122.269, 2129.491
1123.503, 2993.772
1124.737, 3858.058
1125.971, 4230.348
1127.205, 3661.647
1128.438, 2725.949
1129.671, 1890.255
1130.904, 1280.566
1132.137, 828.880
1133.370, 670.202
1134.602, 612.526
1135.834, 533.853
1137.066, 478.187
1138.298, 421.521
1139.530, 602.857
1140.762, 485.193
1141.993, 527.538
1143.224, 342.890
1144.455, 184.250
1145.686, 80.617
1146.917, 2.980
1148.147, 32.325
1149.377, 67.656
1150.607, 5.033
1151.837, 32.732
1153.067, 49.434
1154.296, 54.142
1155.526, 55.858
1156.755, 14.583
1157.984, 95.307
1159.213, 6.950
1160.441, 38.789
1161.670, 10.533
1162.898, 30.724
1164.126, 23.986
1165.354, 62.627
1166.581, 10.522
1167.809, 112.796
1169.036, 106.075
1170.263, 129.357
1171.490, 83.643
1172.717, 220.932
1173.943, 226.223
1175.170, 215.493
1176.396, 249.739
1177.622, 234.935
1178.848, 291.494
1180.073, 382.258
1181.299, 408.414
1182.524, 526.562
1183.749, 599.705
1184.974, 567.798
1186.199, 665.870
1187.423, 664.924
1188.648, 567.987
1189.872, 394.035
1191.096, 411.081
1192.320, 265.464
1193.543, 259.703
1194.767, 131.431
1195.990, 213.923
1197.213, 93.440
1198.436, 55.924
1199.659, 72.283
1200.881, 43.514
1202.104, 19.881
1203.326, 65.154
1204.548, 60.273
1205.770, 26.698
1206.991, 36.299
1208.213, 0.294
1209.434, 22.224
1210.655, 9.024
1211.876, 70.079
1213.096, 40.906
1214.317, 7.012
1215.537, 28.648
1216.757, 35.294
1217.977, 9.848
1219.197, 30.370
1220.417, 30.212
1221.636, 15.304
1222.855, 24.223
1224.074, 62.054
1225.293, 16.985
1226.512, 51.199
1227.731, 31.401
1228.949, 8.637
1230.167, 14.151
1231.385, 15.115
1232.603, 78.737
1233.820, 34.445
1235.038, 77.145
1236.255, 42.840
1237.472, 177.529
1238.689, 177.215
1239.906, 99.864
1241.122, 213.496
1242.338, 73.109
1243.555, 138.704
1244.771, 155.284
1245.986, 51.851
1247.202, 83.404
1248.417, 102.947
1249.633, 64.478
1250.848, 125.961
1252.063, 107.389
1253.277, 122.798
1254.492, 94.188
1255.706, 92.564
1256.920, 93.980
1258.134, 136.325
1259.348, 83.699
1260.562, 53.217
1261.775, 142.577
1262.988, 155.033
1264.201, 158.967
1265.414, 190.308
1266.627, 240.525
1267.839, 216.922
1269.052, 300.101
1270.264, 265.293
1271.476, 292.533
1272.688, 263.663
1273.899, 274.795
1275.111, 330.867
1276.322, 318.816
1277.533, 348.719
1278.744, 320.582
1279.955, 324.389
1281.165, 302.813
1282.376, 270.929
1283.586, 247.575
1284.796, 206.150
1286.006, 180.640
1287.215, 119.027
1288.425, 163.410
1289.634, 173.774
1290.843, 131.146
1292.052, 180.404
1293.261, 141.917
1294.469, 237.056
1295.678, 282.289
1296.886, 287.327
1298.094, 293.478
1299.302, 260.621
1300.509, 214.756
1301.717, 205.883
1302.924, 135.000
1304.131, 272.110
1305.338, 202.211
1306.545, 184.306
1307.752, 275.394
1308.958, 225.476
1310.164, 292.553
1311.370, 313.624
1312.576, 313.663
1313.782, 405.686
1314.987, 344.692
1316.193, 379.685
1317.398, 285.565
1318.603, 380.526
1319.807, 382.732
1321.012, 381.092
1322.216, 355.421
1323.421, 339.321
1324.625, 394.354
1325.829, 285.518
1327.032, 230.574
1328.236, 174.062
1329.439, 214.559
1330.642, 192.429
1331.845, 153.781
1333.048, 75.530
1334.251, 104.482
1335.453, 102.518
1336.656, 14.468
1337.858, 44.523
1339.060, 18.416
1340.261, 28.346
1341.463, 27.269
1342.664, 28.924
1343.866, 36.054
1345.067, 45.915
1346.267, 35.479
1347.468, 42.276
1348.669, 59.774
1349.869, 31.776
1351.069, 87.492
1352.269, 81.187
1353.469, 63.862
1354.668, 44.521
1355.868, 89.167
1357.067, 13.198
1358.266, 94.431
1359.465, 16.995
1360.664, 69.507
1361.862, 101.031
1363.061, 34.676
1364.259, 99.375
1365.457, 44.009
1366.655, 69.575
1367.852, 122.069
1369.050, 64.488
1370.247, 118.827
1371.444, 87.082
1372.641, 137.250
1373.838, 79.329
1375.035, 130.383
1376.231, 56.692
1377.427, 118.270
1378.623, 120.860
1379.819, 97.593
1381.015, 138.607
1382.211, 127.634
1383.406, 97.427
1384.601, 172.459
1385.796, 122.144
1386.991, 94.156
1388.185, 227.792
1389.380, 127.968
1390.574, 142.842
1391.768, 182.720
1392.962, 132.052
1394.156, 166.117
1395.350, 144.677
1396.543, 168.016
1397.736, 132.091
1398.929, 129.385
1400.122, 51.154
1401.315, 93.859
1402.507, 52.262
1403.700, 24.938
1404.892, 45.112
1406.084, 25.979
1407.276, 15.035
1408.467, 33.955
1409.659, 81.852
1410.850, 21.556
1412.041, 101.283
1413.232, 47.889
1414.423, 32.539
1415.614, 68.591
1416.804, 46.295
1417.994, 59.504
1419.184, 57.475
1420.374, 60.027
1421.564, 47.985
1422.753, 86.720
1423.943, 0.141
1425.132, 59.932
1426.321, 40.841
1427.510, 1.873
1428.698, 0.000
##END=



