##NAMES=Vayrynenite
##RRUFFID=R050243
##IDEAL CHEMISTRY=Mn^2+^Be(PO_4_)OH
##LOCALITY=Viitaniemi pegmatite, Erajarvi, Orivesi, Finland
##OWNER=RRUFF
##SOURCE=Marcus Origlieri
##DESCRIPTION=Pink massive with defined cleavage planes
##STATUS=The identification of this mineral has been confirmed by X-ray diffraction and chemical analysis
##URL=rruff.info/R050243
##MEASURED CHEMISTRY=(Mn^2+^_0.95_Fe^2+^_0.05_)_Σ=1_Be_1.00_(P_1.00_O_4_)((OH)_0.94_F_0.06_)_Σ=1_ ; Be not measured but estimated by difference and charge balance.
##PIN_ID=M00427
##ORIENTATION=Laser parallel to b* (0 1 0). Fiducial mark perpendicular to laser is parallel to c [0 0 1]
56.365, 0.000
57.765, 44.443
59.164, 2.582
60.563, 14.685
61.962, 27.615
63.360, 3.230
64.758, 2.110
66.157, 25.267
67.554, 12.688
68.952, 8.648
70.349, 34.346
71.747, 72.565
73.144, 120.129
74.540, 164.895
75.937, 239.741
77.333, 317.564
78.729, 357.274
80.125, 408.786
81.521, 465.028
82.916, 549.935
84.311, 701.452
85.706, 890.537
87.101, 1150.153
88.496, 1447.271
89.890, 1839.861
91.284, 2314.893
92.678, 3126.338
94.071, 4165.173
95.465, 4459.376
96.858, 3071.925
98.251, 1715.802
99.644, 1199.982
101.036, 1022.435
102.428, 979.140
103.820, 1045.080
105.212, 1125.241
106.604, 1301.611
107.995, 1542.180
109.387, 1753.944
110.777, 1873.902
112.168, 1671.055
113.559, 1514.400
114.949, 1414.935
116.339, 1475.676
117.729, 1622.624
119.119, 1910.772
120.508, 2226.095
121.897, 2630.566
123.286, 3065.181
124.675, 3554.936
126.063, 3399.825
127.452, 2723.846
128.840, 2045.993
130.228, 1510.264
131.615, 1159.655
133.003, 953.162
134.390, 832.783
135.777, 685.515
137.164, 639.355
138.550, 549.302
139.937, 600.323
141.323, 521.332
142.709, 534.338
144.094, 537.351
145.480, 445.369
146.865, 450.416
148.250, 480.496
149.635, 469.617
151.019, 434.782
152.403, 379.996
153.788, 429.259
155.171, 419.576
156.555, 468.948
157.939, 497.376
159.322, 510.885
160.705, 510.494
162.088, 625.240
163.470, 675.106
164.853, 777.119
166.235, 745.278
167.617, 670.548
168.998, 588.914
170.380, 548.380
171.761, 529.948
173.142, 602.582
174.523, 763.396
175.904, 929.611
177.284, 1315.366
178.664, 1708.060
180.044, 2215.421
181.424, 2948.175
182.803, 3947.301
184.183, 5073.257
185.562, 5160.259
186.940, 4032.305
188.319, 2796.398
189.698, 1840.534
191.076, 1322.716
192.454, 965.941
193.831, 741.211
195.209, 626.523
196.586, 531.880
197.963, 513.279
199.340, 489.720
200.717, 452.203
202.093, 449.727
203.470, 483.292
204.846, 501.897
206.221, 532.001
207.597, 560.229
208.972, 608.955
210.347, 672.723
211.722, 723.531
213.097, 762.381
214.472, 859.272
215.846, 966.205
217.220, 1143.181
218.594, 1259.197
219.967, 1384.254
221.341, 1403.351
222.714, 1334.430
224.087, 1297.491
225.460, 1362.524
226.832, 1630.889
228.204, 1995.325
229.577, 2519.873
230.948, 3231.648
232.320, 4328.775
233.692, 5264.838
235.063, 5199.032
236.434, 3547.345
237.805, 2054.772
239.175, 1207.303
240.545, 768.932
241.916, 532.656
243.286, 401.469
244.655, 336.366
246.025, 251.345
247.394, 190.402
248.763, 231.534
250.132, 206.737
251.501, 214.010
252.869, 244.349
254.237, 234.753
255.605, 320.219
256.973, 366.744
258.340, 526.328
259.708, 699.082
261.075, 904.497
262.442, 1148.948
263.808, 1406.986
265.175, 1655.509
266.541, 1638.268
267.907, 1422.062
269.273, 1021.486
270.639, 764.415
272.004, 540.656
273.369, 322.979
274.734, 279.577
276.099, 184.952
277.463, 166.119
278.828, 111.996
280.192, 130.849
281.556, 112.976
282.919, 62.979
284.283, 82.225
285.646, 81.569
287.009, 60.278
288.372, 20.943
289.734, 6.494
291.097, 18.099
292.459, 27.277
293.821, 40.624
295.183, 10.054
296.544, 7.762
297.905, 11.657
299.266, 37.738
300.627, 8.051
301.988, 26.133
303.348, 37.293
304.709, 37.570
306.069, 13.540
307.428, 23.375
308.788, 29.316
310.147, 21.284
311.507, 70.279
312.865, 132.299
314.224, 188.346
315.583, 212.418
316.941, 305.516
318.299, 418.640
319.657, 573.788
321.015, 739.962
322.372, 1017.160
323.729, 1356.382
325.086, 1821.629
326.443, 2393.898
327.800, 2956.189
329.156, 3393.504
330.512, 3882.840
331.868, 3715.195
333.224, 3453.572
334.579, 2902.969
335.935, 2321.385
337.290, 1807.820
338.645, 1537.274
339.999, 1228.738
341.354, 1007.221
342.708, 861.719
344.062, 809.236
345.416, 777.767
346.769, 724.316
348.123, 728.885
349.476, 788.483
350.829, 728.107
352.182, 787.756
353.534, 811.426
354.887, 775.125
356.239, 659.861
357.591, 596.627
358.942, 530.426
360.294, 479.261
361.645, 495.133
362.996, 473.036
364.347, 494.974
365.698, 513.949
367.048, 648.967
368.398, 742.026
369.748, 877.119
371.098, 1138.247
372.448, 1406.401
373.797, 1843.576
375.146, 2427.769
376.495, 2858.977
377.844, 3524.204
379.192, 3973.447
380.540, 4004.704
381.889, 3932.979
383.236, 3333.269
384.584, 2779.572
385.932, 2148.902
387.279, 1731.259
388.626, 1320.423
389.973, 1064.856
391.319, 853.294
392.666, 688.717
394.012, 555.098
395.358, 455.441
396.704, 427.732
398.049, 407.868
399.394, 469.609
400.740, 484.200
402.084, 515.810
403.429, 607.438
404.774, 614.084
406.118, 529.748
407.462, 414.429
408.806, 333.127
410.150, 214.842
411.493, 196.572
412.836, 155.318
414.179, 48.080
415.522, 62.855
416.865, 35.646
418.207, 44.450
419.549, 21.269
420.891, 22.899
422.233, 13.065
423.575, 12.226
424.916, 65.382
426.257, 53.554
427.598, 56.739
428.939, 35.938
430.279, 47.143
431.619, 75.360
432.959, 60.600
434.299, 79.858
435.639, 45.143
436.978, 39.439
438.318, 34.075
439.657, 27.062
440.996, 25.384
442.334, 29.711
443.673, 46.046
445.011, 29.843
446.349, 30.754
447.687, 5.878
449.024, 8.515
450.361, 49.158
451.699, 87.745
453.036, 81.402
454.372, 234.672
455.709, 280.628
457.045, 490.307
458.381, 630.992
459.717, 818.684
461.053, 1080.721
462.388, 1281.425
463.724, 1306.742
465.059, 1173.794
466.394, 935.515
467.728, 705.080
469.063, 502.812
470.397, 410.550
471.731, 245.292
473.065, 166.040
474.398, 166.792
475.732, 122.548
477.065, 103.072
478.398, 95.742
479.731, 92.842
481.063, 84.614
482.396, 109.390
483.728, 119.169
485.060, 159.951
486.391, 159.736
487.723, 195.524
489.054, 260.315
490.385, 363.108
491.716, 408.904
493.047, 548.702
494.377, 688.501
495.708, 822.303
497.038, 1128.106
498.368, 1567.911
499.697, 2138.718
501.027, 3107.530
502.356, 4349.622
503.685, 5956.005
505.014, 7841.890
506.342, 9726.050
507.671, 10282.302
508.999, 8989.613
510.327, 6633.491
511.655, 4493.701
512.982, 2977.654
514.310, 1987.192
515.637, 1475.516
516.964, 1016.739
518.291, 764.119
519.617, 568.725
520.944, 467.303
522.270, 386.590
523.596, 273.857
524.921, 269.931
526.247, 160.176
527.572, 169.092
528.897, 184.251
530.222, 163.769
531.547, 146.555
532.871, 180.756
534.196, 239.345
535.520, 283.616
536.844, 284.693
538.167, 310.909
539.491, 285.903
540.814, 292.395
542.137, 220.286
543.460, 149.479
544.783, 113.337
546.105, 118.187
547.427, 44.032
548.749, 81.861
550.071, 85.680
551.393, 40.491
552.714, 69.283
554.035, 57.064
555.356, 48.831
556.677, 55.580
557.998, 75.314
559.318, 103.036
560.638, 111.749
561.958, 164.451
563.278, 166.143
564.597, 213.824
565.917, 249.495
567.236, 271.155
568.555, 365.804
569.874, 431.443
571.192, 400.069
572.511, 464.685
573.829, 463.290
575.147, 420.882
576.464, 387.464
577.782, 373.033
579.099, 373.458
580.416, 394.469
581.733, 417.836
583.050, 485.654
584.366, 545.924
585.683, 624.748
586.999, 832.371
588.315, 951.995
589.630, 1179.022
590.946, 1554.578
592.261, 2007.854
593.576, 2652.079
594.891, 3527.059
596.206, 4347.292
597.520, 5371.760
598.834, 6010.546
600.148, 6465.383
601.462, 6423.971
602.776, 5908.707
604.089, 5061.227
605.402, 4004.666
606.715, 2957.765
608.028, 2320.929
609.341, 1835.216
610.653, 1555.492
611.965, 1227.756
613.277, 1225.010
614.589, 1129.256
615.901, 1329.490
617.212, 1300.712
618.523, 1400.922
619.834, 1368.123
621.145, 1161.312
622.456, 962.491
623.766, 773.660
625.076, 657.818
626.386, 637.963
627.696, 580.096
629.006, 592.216
630.315, 533.324
631.624, 647.418
632.933, 651.500
634.242, 756.569
635.551, 940.625
636.859, 1001.668
638.167, 1142.698
639.475, 1282.715
640.783, 1367.718
642.090, 1213.708
643.398, 1089.685
644.705, 980.648
646.012, 772.598
647.318, 626.534
648.625, 536.457
649.931, 407.366
651.237, 380.262
652.543, 289.144
653.849, 220.012
655.155, 215.866
656.460, 221.707
657.765, 95.533
659.070, 66.346
660.375, 52.142
661.679, 85.917
662.984, 63.678
664.288, 59.422
665.592, 1.146
666.895, 8.834
668.199, 24.489
669.502, 32.117
670.805, 2.281
672.108, 30.717
673.411, 13.207
674.713, 15.742
676.016, 35.323
677.318, 34.960
678.620, 14.413
679.921, 30.151
681.223, 42.227
682.524, 61.045
683.825, 54.155
685.126, 24.769
686.427, 29.210
687.727, 0.046
689.028, 35.762
690.328, 59.706
691.628, 76.612
692.927, 42.779
694.227, 85.976
695.526, 84.762
696.825, 45.577
698.124, 122.114
699.423, 93.892
700.721, 162.551
702.020, 208.194
703.318, 242.456
704.616, 228.287
705.913, 256.858
707.211, 259.433
708.508, 273.033
709.805, 255.356
711.102, 211.377
712.399, 188.133
713.695, 204.048
714.992, 201.364
716.288, 225.755
717.584, 224.291
718.879, 299.731
720.175, 346.157
721.470, 408.568
722.765, 513.964
724.060, 571.345
725.355, 676.712
726.649, 797.064
727.944, 919.401
729.238, 1148.724
730.532, 1393.032
731.825, 1627.326
733.119, 2038.606
734.412, 2424.872
735.705, 2687.124
736.998, 3029.366
738.291, 3287.600
739.584, 3349.823
740.876, 3330.046
742.168, 3184.268
743.460, 2979.489
744.752, 2571.706
746.043, 2238.919
747.334, 1934.138
748.626, 1703.356
749.916, 1453.582
751.207, 1278.804
752.498, 1094.023
753.788, 1002.239
755.078, 916.449
756.368, 788.655
757.658, 779.855
758.947, 742.055
760.237, 644.251
761.526, 609.445
762.815, 511.627
764.104, 517.798
765.392, 492.958
766.680, 530.105
767.969, 513.241
769.257, 469.365
770.544, 427.478
771.832, 442.579
773.119, 484.668
774.406, 421.747
775.693, 311.814
776.980, 438.870
778.267, 334.915
779.553, 448.950
780.839, 427.973
782.125, 479.986
783.411, 442.989
784.697, 565.980
785.982, 547.962
787.267, 634.933
788.552, 672.895
789.837, 763.846
791.122, 895.788
792.406, 1107.719
793.690, 1219.642
794.974, 1508.554
796.258, 1802.458
797.542, 1948.352
798.825, 2116.237
800.108, 2108.113
801.391, 2000.980
802.674, 1727.838
803.957, 1417.688
805.239, 1188.529
806.522, 863.362
807.804, 777.186
809.085, 544.002
810.367, 475.810
811.649, 452.610
812.930, 267.398
814.211, 263.899
815.492, 302.104
816.772, 229.799
818.053, 192.214
819.333, 178.530
820.613, 124.780
821.893, 114.458
823.173, 162.798
824.452, 89.388
825.732, 92.386
827.011, 94.594
828.290, 46.894
829.568, 83.031
830.847, 30.937
832.125, 1.863
833.403, 13.072
834.681, 25.190
835.959, 1.696
837.236, 56.081
838.514, 51.551
839.791, 49.283
841.068, 63.393
842.345, 40.792
843.621, 45.623
844.898, 32.857
846.174, 31.786
847.450, 100.533
848.726, 30.452
850.001, 80.412
851.277, 45.386
852.552, 33.030
853.827, 49.012
855.102, 44.383
856.376, 23.243
857.651, 43.125
858.925, 49.499
860.199, 82.875
861.473, 84.253
862.746, 27.639
864.020, 62.028
865.293, 98.422
866.566, 39.823
867.839, 80.229
869.112, 17.640
870.384, 24.054
871.656, 47.471
872.928, 29.891
874.200, 42.265
875.472, 33.743
876.744, 42.174
878.015, 31.610
879.286, 24.049
880.557, 50.493
881.828, 119.941
883.098, 113.393
884.369, 139.850
885.639, 162.312
886.909, 167.779
888.178, 239.250
889.448, 334.727
890.717, 348.209
891.987, 458.696
893.256, 460.189
894.524, 496.687
895.793, 601.190
897.061, 580.700
898.330, 573.216
899.598, 526.737
900.865, 502.267
902.133, 479.804
903.401, 419.346
904.668, 310.895
905.935, 264.450
907.202, 274.015
908.468, 188.600
909.735, 226.192
911.001, 173.802
912.267, 166.420
913.533, 119.044
914.799, 125.680
916.064, 148.323
917.330, 132.975
918.595, 68.638
919.860, 9.316
921.124, 76.002
922.389, 115.698
923.653, 78.400
924.918, 67.110
926.182, 55.830
927.445, 73.559
928.709, 136.296
929.972, 89.050
931.236, 137.817
932.499, 96.600
933.761, 167.391
935.024, 244.191
936.286, 159.000
937.549, 213.819
938.811, 137.651
940.073, 185.492
941.334, 184.351
942.596, 198.229
943.857, 196.119
945.118, 223.021
946.379, 284.932
947.640, 309.108
948.900, 343.865
950.161, 383.728
951.421, 380.681
952.681, 374.645
953.940, 344.619
955.200, 463.604
956.459, 494.600
957.719, 493.606
958.978, 558.623
960.236, 599.651
961.495, 667.690
962.753, 649.747
964.012, 853.827
965.270, 870.936
966.527, 961.068
967.785, 1217.232
969.043, 1231.417
970.300, 1371.638
971.557, 1456.876
972.814, 1639.136
974.071, 1823.417
975.327, 2026.717
976.583, 2330.033
977.840, 2667.375
979.095, 3161.748
980.351, 3697.148
981.607, 4362.574
982.862, 5051.033
984.117, 5534.285
985.372, 5846.806
986.627, 6083.642
987.882, 5637.194
989.136, 5526.499
990.390, 5366.302
991.644, 5403.398
992.898, 5824.780
994.152, 6401.696
995.405, 7353.376
996.659, 8782.903
997.912, 10930.551
999.165, 14445.974
1000.417, 19123.797
1001.670, 26036.602
1002.922, 34441.676
1004.174, 44924.496
1005.426, 50308.434
1006.678, 50780.387
1007.930, 44085.719
1009.181, 35309.703
1010.432, 26927.697
1011.683, 20377.711
1012.934, 15737.732
1014.185, 12282.776
1015.435, 9938.831
1016.685, 8120.902
1017.935, 6745.986
1019.185, 5789.081
1020.435, 5094.192
1021.684, 4416.313
1022.934, 4022.450
1024.183, 3548.158
1025.432, 3207.136
1026.680, 2890.938
1027.929, 2691.127
1029.177, 2413.329
1030.425, 2203.544
1031.673, 2307.773
1032.921, 2158.016
1034.169, 2114.275
1035.416, 2080.547
1036.663, 2101.832
1037.911, 2121.130
1039.157, 2138.441
1040.404, 2132.772
1041.650, 2285.118
1042.897, 2268.478
1044.143, 2188.852
1045.389, 2065.242
1046.634, 1737.645
1047.880, 1670.066
1049.125, 1365.501
1050.371, 1117.611
1051.615, 1029.076
1052.860, 998.553
1054.105, 753.041
1055.349, 765.748
1056.593, 615.807
1057.837, 640.443
1059.081, 609.003
1060.325, 636.469
1061.568, 605.035
1062.812, 611.646
1064.055, 736.211
1065.298, 899.103
1066.540, 986.720
1067.783, 1264.428
1069.025, 1538.704
1070.267, 1971.563
1071.509, 2660.445
1072.751, 3125.129
1073.993, 3597.829
1075.234, 3624.964
1076.475, 3058.768
1077.716, 2490.539
1078.957, 1964.495
1080.198, 1575.830
1081.438, 1208.770
1082.679, 952.306
1083.919, 714.248
1085.159, 584.146
1086.398, 505.110
1087.638, 424.812
1088.877, 348.815
1090.116, 411.479
1091.355, 322.719
1092.594, 370.280
1093.833, 392.382
1095.071, 354.332
1096.309, 357.355
1097.547, 389.611
1098.785, 454.633
1100.023, 481.695
1101.260, 556.858
1102.498, 531.982
1103.735, 582.068
1104.972, 536.162
1106.208, 557.210
1107.445, 589.313
1108.681, 512.478
1109.918, 556.615
1111.154, 743.432
1112.389, 742.031
1113.625, 980.604
1114.860, 1202.879
1116.096, 1476.400
1117.331, 1827.667
1118.566, 2404.917
1119.800, 3302.934
1121.035, 4757.019
1122.269, 7028.119
1123.503, 9952.269
1124.737, 13343.545
1125.971, 14995.073
1127.205, 13778.078
1128.438, 10740.261
1129.671, 7394.242
1130.904, 5158.224
1132.137, 3556.145
1133.370, 2648.132
1134.602, 2074.121
1135.834, 1513.696
1137.066, 1223.696
1138.298, 960.638
1139.530, 900.808
1140.762, 666.912
1141.993, 518.313
1143.224, 461.552
1144.455, 375.231
1145.686, 319.384
1146.917, 313.645
1148.147, 272.804
1149.377, 210.740
1150.607, 232.088
1151.837, 89.262
1153.067, 132.727
1154.296, 86.951
1155.526, 91.208
1156.755, 101.645
1157.984, 31.865
1159.213, 132.236
1160.441, 19.420
1161.670, 82.852
1162.898, 15.241
1164.126, 126.566
1165.354, 55.670
1166.581, 73.771
1167.809, 69.866
1169.036, 122.198
1170.263, 61.284
1171.490, 146.438
1172.717, 98.910
1173.943, 100.003
1175.170, 130.166
1176.396, 88.263
1177.622, 105.507
1178.848, 187.867
1180.073, 135.172
1181.299, 149.143
1182.524, 159.422
1183.749, 144.462
1184.974, 180.603
1186.199, 206.827
1187.423, 160.873
1188.648, 115.225
1189.872, 123.703
1191.096, 78.306
1192.320, 72.052
1193.543, 95.480
1194.767, 22.660
1195.990, 38.131
1197.213, 19.637
1198.436, 32.491
1199.659, 15.576
1200.881, 73.585
1202.104, 6.103
1203.326, 14.946
1204.548, 57.809
1205.770, 13.299
1206.991, 53.593
1208.213, 23.236
1209.434, 13.093
1210.655, 21.021
1211.876, 6.035
1213.096, 23.697
1214.317, 21.264
1215.537, 28.360
1216.757, 1.476
1217.977, 1.514
1219.197, 33.334
1220.417, 33.381
1221.636, 5.921
1222.855, 15.869
1224.074, 27.504
1225.293, 33.729
1226.512, 13.120
1227.731, 20.580
1228.949, 11.986
1230.167, 4.518
1231.385, 18.565
1232.603, 6.183
1233.820, 9.237
1235.038, 5.215
1236.255, 23.333
1237.472, 31.938
1238.689, 4.587
1239.906, 3.850
1241.122, 31.188
1242.338, 16.715
1243.555, 2.767
1244.771, 24.575
1245.986, 17.970
1247.202, 7.632
1248.417, 13.877
1249.633, 21.102
1250.848, 21.843
1252.063, 35.077
1253.277, 24.513
1254.492, 17.853
1255.706, 22.650
1256.920, 16.256
1258.134, 28.231
1259.348, 59.229
1260.562, 22.139
1261.775, 57.482
1262.988, 21.117
1264.201, 68.241
1265.414, 0.413
1266.627, 52.461
1267.839, 50.389
1269.052, 40.146
1270.264, 22.888
1271.476, 11.614
1272.688, 79.321
1273.899, 38.154
1275.111, 93.822
1276.322, 97.521
1277.533, 5.160
1278.744, 90.916
1279.955, 106.517
1281.165, 15.103
1282.376, 105.669
1283.586, 7.218
1284.796, 60.740
1286.006, 5.244
1287.215, 15.287
1288.425, 55.150
1289.634, 17.562
1290.843, 26.058
1292.052, 56.280
1293.261, 86.596
1294.469, 12.892
1295.678, 48.155
1296.886, 91.396
1298.094, 36.617
1299.302, 80.815
1300.509, 72.993
1301.717, 41.127
1302.924, 82.237
1304.131, 49.323
1305.338, 90.388
1306.545, 5.431
1307.752, 47.448
1308.958, 55.440
1310.164, 122.409
1311.370, 119.357
1312.576, 131.595
1313.782, 54.193
1314.987, 110.071
1316.193, 92.922
1317.398, 38.750
1318.603, 105.553
1319.807, 88.337
1321.012, 103.101
1322.216, 66.844
1323.421, 49.071
1324.625, 55.262
1325.829, 17.938
1327.032, 57.587
1328.236, 110.215
1329.439, 84.822
1330.642, 63.406
1331.845, 3.031
1333.048, 46.500
1334.251, 37.008
1335.453, 30.492
1336.656, 24.953
1337.858, 39.389
1339.060, 12.802
1340.261, 36.312
1341.463, 11.553
1342.664, 68.233
1343.866, 76.551
1345.067, 92.849
1346.267, 44.125
1347.468, 59.176
1348.669, 11.866
1349.869, 55.971
1351.069, 55.145
1352.269, 102.404
1353.469, 93.557
1354.668, 84.656
1355.868, 57.795
1357.067, 115.599
1358.266, 48.671
1359.465, 24.239
1360.664, 60.160
1361.862, 48.984
1363.061, 62.765
1364.259, 36.771
1365.457, 97.722
1366.655, 67.234
1367.852, 101.071
1369.050, 67.092
1370.247, 96.538
1371.444, 107.473
1372.641, 93.882
1373.838, 24.605
1375.035, 120.275
1376.231, 71.989
1377.427, 77.623
1378.623, 102.444
1379.819, 99.131
1381.015, 103.945
1382.211, 108.071
1383.406, 77.948
1384.601, 97.120
1385.796, 52.841
1386.991, 16.250
1388.185, 26.542
1389.380, 75.167
1390.574, 35.692
1391.768, 119.077
1392.962, 154.658
1394.156, 181.605
1395.350, 184.027
1396.543, 104.085
1397.736, 136.260
1398.929, 132.344
1400.122, 74.782
1401.315, 91.883
1402.507, 96.217
1403.700, 56.439
1404.892, 44.031
1406.084, 139.166
1407.276, 173.920
1408.467, 101.034
1409.659, 59.649
1410.850, 43.370
1412.041, 87.040
1413.232, 104.501
1414.423, 117.116
1415.614, 89.462
1416.804, 44.883
1417.994, 103.591
1419.184, 66.038
1420.374, 128.737
1421.564, 44.081
1422.753, 133.075
1423.943, 93.503
1425.132, 107.747
1426.321, 89.459
1427.510, 144.248
1428.698, 96.475
1429.887, 127.560
1431.075, 109.625
1432.263, 106.799
1433.451, 100.443
1434.639, 139.788
1435.827, 149.288
1437.014, 265.507
1438.201, 164.040
1439.388, 270.110
1440.575, 206.880
1441.762, 190.224
1442.949, 244.598
1444.135, 244.628
1445.321, 329.549
1446.507, 288.435
1447.693, 350.738
1448.879, 282.970
1450.064, 370.510
1451.250, 369.004
1452.435, 403.047
1453.620, 294.481
1454.805, 373.021
1455.989, 385.312
1457.174, 397.791
1458.358, 416.371
1459.542, 422.405
1460.726, 405.528
1461.910, 437.021
1463.093, 415.543
1464.277, 413.905
1465.460, 340.021
1466.643, 215.964
1467.826, 344.312
1469.009, 247.138
1470.191, 294.493
1471.373, 250.795
1472.556, 277.695
1473.738, 312.792
1474.919, 305.579
1476.101, 226.676
1477.283, 244.745
1478.464, 226.811
1479.645, 184.913
1480.826, 177.088
1482.007, 190.277
1483.187, 204.511
1484.368, 219.727
1485.548, 164.009
1486.728, 229.385
1487.908, 263.769
1489.088, 182.160
1490.268, 109.573
1491.447, 227.979
1492.626, 204.476
1493.805, 38.040
