##NAMES=Vayrynenite
##RRUFFID=R050243
##IDEAL CHEMISTRY=Mn^2+^Be(PO_4_)OH
##LOCALITY=Viitaniemi pegmatite, Erajarvi, Orivesi, Finland
##OWNER=RRUFF
##SOURCE=Marcus Origlieri
##DESCRIPTION=Pink massive with defined cleavage planes
##STATUS=The identification of this mineral has been confirmed by X-ray diffraction and chemical analysis
##URL=rruff.info/R050243
##MEASURED CHEMISTRY=(Mn^2+^_0.95_Fe^2+^_0.05_)_Σ=1_Be_1.00_(P_1.00_O_4_)((OH)_0.94_F_0.06_)_Σ=1_ ; Be not measured but estimated by difference and charge balance.
##PIN_ID=M00471
##ORIENTATION=Laser parallel to c* (0 0 1). Fiducial mark perpendicular to laser is parallel to a [1 0 0]
74.540, 0.000
75.937, 4.152
77.333, 51.503
78.729, 159.697
80.125, 196.597
81.521, 278.361
82.916, 385.236
84.311, 525.849
85.706, 727.477
87.101, 1005.974
88.496, 1391.528
89.890, 1987.638
91.284, 2743.985
92.678, 3454.466
94.071, 3748.257
95.465, 3163.720
96.858, 2288.257
98.251, 1449.786
99.644, 876.316
101.036, 637.854
102.428, 563.417
103.820, 530.088
105.212, 550.943
106.604, 620.955
107.995, 730.084
109.387, 698.380
110.777, 695.084
112.168, 620.627
113.559, 638.764
114.949, 768.461
116.339, 1050.230
117.729, 1459.278
119.119, 2080.834
120.508, 2720.449
121.897, 3171.082
123.286, 3225.733
124.675, 2878.403
126.063, 2160.116
127.452, 1466.887
128.840, 971.670
130.228, 632.781
131.615, 418.501
133.003, 267.893
134.390, 184.687
135.777, 75.447
137.164, 54.078
138.550, 12.587
139.937, 48.983
141.323, 47.275
142.709, 30.470
144.094, 42.426
145.480, 33.406
146.865, 32.464
148.250, 38.598
149.635, 34.801
151.019, 23.070
152.403, 25.400
153.788, 79.787
155.171, 5.229
156.555, 26.722
157.939, 29.013
159.322, 54.205
160.705, 130.941
162.088, 192.132
163.470, 229.216
164.853, 244.181
166.235, 250.158
167.617, 268.148
168.998, 275.151
170.380, 352.166
171.761, 451.193
173.142, 551.232
174.523, 731.282
175.904, 1024.342
177.284, 1463.799
178.664, 2319.273
180.044, 3413.319
181.424, 4671.367
182.803, 5823.474
184.183, 6151.383
185.562, 5280.051
186.940, 4012.917
188.319, 2775.727
189.698, 1855.795
191.076, 1245.152
192.454, 867.335
193.831, 584.669
195.209, 437.238
196.586, 329.182
197.963, 278.091
199.340, 237.002
200.717, 238.929
202.093, 216.869
203.470, 196.823
204.846, 204.788
206.221, 239.765
207.597, 258.754
208.972, 366.754
210.347, 344.763
211.722, 361.783
213.097, 341.812
214.472, 433.847
215.846, 464.888
217.220, 523.932
218.594, 595.980
219.967, 592.032
221.341, 547.088
222.714, 443.151
224.087, 366.220
225.460, 252.295
226.832, 269.379
228.204, 312.469
229.577, 391.567
230.948, 490.673
232.320, 543.786
233.692, 521.906
235.063, 454.033
236.434, 271.168
237.805, 213.310
239.175, 66.458
240.545, 17.115
241.916, 20.938
243.286, 1.521
244.655, 57.859
246.025, 13.032
247.394, 0.928
248.763, 26.006
250.132, 3.862
251.501, 31.344
252.869, 35.605
254.237, 55.911
255.605, 122.254
256.973, 211.337
258.340, 309.022
259.708, 472.426
261.075, 620.832
262.442, 798.239
263.808, 909.647
265.175, 921.056
266.541, 866.466
267.907, 709.878
269.273, 537.289
270.639, 339.700
272.004, 230.109
273.369, 114.516
274.734, 74.883
276.099, 58.194
277.463, 29.445
278.828, 9.658
280.192, 28.800
281.556, 31.710
282.919, 47.051
284.283, 73.178
285.646, 97.305
287.009, 107.432
288.372, 57.558
289.734, 38.684
291.097, 11.809
292.459, 19.070
293.821, 50.963
295.183, 52.878
296.544, 56.818
297.905, 19.789
299.266, 56.782
300.627, 43.806
301.988, 63.859
303.348, 53.943
304.709, 59.057
306.069, 88.202
307.428, 43.384
308.788, 16.316
310.147, 23.859
311.507, 9.385
312.865, 38.784
314.224, 15.116
315.583, 93.952
316.941, 79.684
318.299, 152.746
319.657, 218.257
321.015, 334.916
322.372, 470.620
323.729, 623.292
325.086, 953.909
326.443, 1249.494
327.800, 1533.067
329.156, 1792.639
330.512, 2038.209
331.868, 2060.776
333.224, 2111.343
334.579, 2105.907
335.935, 1997.470
337.290, 1706.030
338.645, 1503.588
339.999, 1140.144
341.354, 939.690
342.708, 754.231
344.062, 602.770
345.416, 541.309
346.769, 430.846
348.123, 457.363
349.476, 377.831
350.829, 399.264
352.182, 446.656
353.534, 377.002
354.887, 387.293
356.239, 347.556
357.591, 340.811
358.942, 321.081
360.294, 387.369
361.645, 436.680
362.996, 512.019
364.347, 603.385
365.698, 675.768
367.048, 889.175
368.398, 1114.601
369.748, 1446.059
371.098, 1841.533
372.448, 2462.021
373.797, 3272.516
375.146, 4223.022
376.495, 5172.544
377.844, 6123.077
379.192, 6690.614
380.540, 6590.155
381.889, 6209.698
383.236, 5248.246
384.584, 4329.796
385.932, 3539.346
387.279, 2849.274
388.626, 2260.111
389.973, 1757.016
391.319, 1409.578
392.666, 1113.142
394.012, 954.708
395.358, 786.276
396.704, 687.847
398.049, 630.419
399.394, 559.994
400.740, 583.570
402.084, 543.149
403.429, 515.590
404.774, 505.118
406.118, 452.780
407.462, 370.994
408.806, 295.959
410.150, 266.725
411.493, 229.879
412.836, 163.328
414.179, 127.905
415.522, 113.479
416.865, 72.050
418.207, 77.617
419.549, 58.180
420.891, 50.740
422.233, 30.295
423.575, 64.847
424.916, 75.394
426.257, 42.938
427.598, 76.477
428.939, 76.012
430.279, 70.543
431.619, 63.070
432.959, 37.593
434.299, 33.111
435.639, 85.625
436.978, 131.135
438.318, 127.641
439.657, 180.011
440.996, 191.775
442.334, 242.110
443.673, 283.495
445.011, 354.985
446.349, 388.471
447.687, 576.954
449.024, 679.434
450.361, 926.911
451.699, 1166.348
453.036, 1625.119
454.372, 2200.052
455.709, 3031.973
457.045, 4141.762
458.381, 5257.295
459.717, 6560.146
461.053, 7136.667
462.388, 7191.995
463.724, 6553.057
465.059, 5443.739
466.394, 4264.097
467.728, 3096.622
469.063, 2238.958
470.397, 1649.070
471.731, 1169.768
473.065, 842.435
474.398, 647.882
475.732, 417.923
477.065, 407.396
478.398, 248.873
479.731, 221.366
481.063, 140.858
482.396, 139.355
483.728, 127.851
485.060, 105.346
486.391, 131.840
487.723, 63.334
489.054, 62.828
490.385, 110.320
491.716, 97.812
493.047, 135.304
494.377, 191.795
495.708, 250.285
497.038, 327.775
498.368, 489.264
499.697, 670.752
501.027, 1062.239
502.356, 1536.725
503.685, 2211.273
505.014, 2950.908
506.342, 3009.889
507.671, 3331.380
508.999, 3033.570
510.327, 2525.458
511.655, 2226.971
512.982, 2092.488
514.310, 1987.849
515.637, 1801.077
516.964, 1444.444
518.291, 1101.741
519.617, 833.627
520.944, 581.326
522.270, 433.952
523.596, 402.478
524.921, 386.373
526.247, 354.692
527.572, 439.846
528.897, 535.070
530.222, 735.432
531.547, 1142.299
532.871, 1672.759
534.196, 2632.484
535.520, 3043.429
536.844, 3376.550
538.167, 3390.635
539.491, 2894.455
540.814, 2262.011
542.137, 1572.559
543.460, 1179.102
544.783, 844.640
546.105, 614.172
547.427, 458.699
548.749, 408.220
550.071, 262.736
551.393, 238.246
552.714, 239.750
554.035, 207.248
555.356, 209.740
556.677, 245.226
557.998, 247.706
559.318, 270.180
560.638, 296.648
561.958, 404.110
563.278, 449.566
564.597, 561.026
565.917, 723.484
567.236, 957.955
568.555, 1124.428
569.874, 1316.898
571.192, 1290.373
572.511, 1360.848
573.829, 1206.315
575.147, 1036.776
576.464, 806.230
577.782, 686.678
579.099, 629.119
580.416, 483.553
581.733, 455.980
583.050, 414.401
584.366, 385.814
585.683, 432.221
586.999, 463.621
588.315, 481.013
589.630, 531.399
590.946, 688.778
592.261, 846.150
593.576, 1035.515
594.891, 1202.873
596.206, 1395.224
597.520, 1661.567
598.834, 1740.905
600.148, 1787.239
601.462, 1840.567
602.776, 1744.889
604.089, 1705.203
605.402, 1694.511
606.715, 1690.810
608.028, 1976.103
609.341, 2363.389
610.653, 3086.667
611.965, 4055.942
613.277, 5663.220
614.589, 7660.512
615.901, 9680.817
617.212, 11480.136
618.523, 11986.459
619.834, 11064.798
621.145, 9409.146
622.456, 7360.511
623.766, 5602.889
625.076, 4139.282
626.386, 3089.697
627.696, 2386.123
629.006, 1888.552
630.315, 1458.985
631.624, 1202.420
632.933, 931.847
634.242, 806.268
635.551, 721.681
636.859, 591.086
638.167, 629.482
639.475, 527.871
640.783, 534.251
642.090, 477.623
643.398, 466.986
644.705, 425.341
646.012, 406.688
647.318, 343.026
648.625, 300.356
649.931, 335.677
651.237, 281.990
652.543, 287.294
653.849, 234.589
655.155, 207.876
656.460, 191.154
657.765, 125.424
659.070, 122.685
660.375, 59.937
661.679, 49.180
662.984, 30.412
664.288, 0.632
665.592, 24.169
666.895, 35.041
668.199, 43.719
669.502, 43.637
670.805, 40.195
672.108, 21.699
673.411, 39.740
674.713, 37.821
676.016, 30.162
677.318, 41.152
678.620, 70.816
679.921, 51.840
681.223, 25.173
682.524, 45.330
683.825, 25.105
685.126, 72.965
686.427, 9.650
687.727, 1.004
689.028, 31.279
690.328, 1.659
691.628, 1.981
692.927, 12.751
694.227, 46.221
695.526, 62.497
696.825, 96.355
698.124, 140.321
699.423, 175.578
700.721, 241.822
702.020, 309.042
703.318, 357.252
704.616, 375.013
705.913, 402.295
707.211, 377.819
708.508, 385.987
709.805, 373.146
711.102, 298.293
712.399, 209.431
713.695, 254.558
714.992, 259.676
716.288, 314.783
717.584, 299.880
718.879, 384.968
720.175, 416.045
721.470, 446.112
722.765, 590.170
724.060, 635.222
725.355, 780.260
726.649, 991.288
727.944, 1164.306
729.238, 1403.314
730.532, 1747.312
731.825, 2026.301
733.119, 2549.280
734.412, 3114.249
735.705, 3405.208
736.998, 3749.159
738.291, 4123.100
739.584, 4288.031
740.876, 4278.953
742.168, 3994.866
743.460, 3608.771
744.752, 3136.664
746.043, 2658.550
747.334, 2290.426
748.626, 1942.484
749.916, 1663.152
751.207, 1402.001
752.498, 1234.843
753.788, 1071.675
755.078, 968.499
756.368, 850.557
757.658, 763.121
758.947, 689.919
760.237, 651.710
761.526, 611.492
762.815, 533.266
764.104, 559.032
765.392, 518.790
766.680, 531.541
767.969, 540.283
769.257, 444.019
770.544, 511.746
771.832, 466.466
773.119, 461.177
774.406, 391.882
775.693, 337.579
776.980, 304.268
778.267, 267.661
779.553, 287.624
780.839, 251.289
782.125, 245.948
783.411, 296.598
784.697, 361.241
785.982, 347.877
787.267, 347.505
788.552, 338.125
789.837, 350.738
791.122, 347.417
792.406, 332.942
793.690, 356.533
794.974, 330.118
796.258, 340.695
797.542, 354.265
798.825, 358.829
800.108, 314.386
801.391, 323.937
802.674, 220.481
803.957, 190.019
805.239, 173.551
806.522, 128.077
807.804, 105.597
809.085, 84.288
810.367, 78.620
811.649, 54.123
812.930, 60.621
814.211, 66.262
815.492, 55.809
816.772, 58.872
818.053, 49.984
819.333, 19.319
820.613, 11.079
821.893, 22.866
823.173, 50.552
824.452, 17.040
825.732, 2.488
827.011, 34.192
828.290, 16.271
829.568, 27.673
830.847, 53.676
832.125, 28.509
833.403, 43.280
834.681, 21.964
835.959, 79.025
837.236, 55.532
838.514, 37.889
839.791, 63.327
841.068, 32.918
842.345, 26.023
843.621, 13.272
844.898, 1.299
846.174, 14.896
847.450, 7.273
848.726, 7.383
850.001, 8.698
851.277, 4.519
852.552, 0.589
853.827, 0.852
855.102, 16.042
856.376, 33.235
857.651, 54.432
858.925, 124.632
860.199, 151.836
861.473, 146.045
862.746, 117.257
864.020, 153.473
865.293, 138.695
866.566, 123.283
867.839, 75.150
869.112, 76.385
870.384, 46.625
871.656, 3.870
872.928, 27.120
874.200, 18.375
875.472, 3.636
876.744, 1.902
878.015, 11.174
879.286, 16.450
880.557, 29.734
881.828, 44.350
883.098, 46.318
884.369, 67.620
885.639, 90.927
886.909, 78.242
888.178, 80.563
889.448, 128.891
890.717, 136.226
891.987, 204.568
893.256, 172.917
894.524, 219.273
895.793, 280.637
897.061, 221.009
898.330, 236.388
899.598, 226.775
900.865, 226.170
902.133, 230.573
903.401, 227.987
904.668, 213.408
905.935, 214.840
907.202, 225.282
908.468, 180.733
909.735, 209.194
911.001, 171.679
912.267, 209.174
913.533, 141.678
914.799, 175.192
916.064, 195.729
917.330, 130.285
918.595, 244.855
919.860, 144.440
921.124, 122.036
922.389, 201.642
923.653, 155.258
924.918, 196.885
926.182, 220.528
927.445, 257.181
928.709, 327.845
929.972, 399.520
931.236, 444.206
932.499, 487.905
933.761, 529.615
935.024, 641.336
936.286, 598.080
937.549, 630.835
938.811, 669.602
940.073, 627.381
941.334, 637.173
942.596, 659.299
943.857, 661.574
945.118, 698.623
946.379, 714.463
947.640, 721.316
948.900, 760.182
950.161, 839.061
951.421, 880.960
952.681, 910.881
953.940, 1032.823
955.200, 1060.786
956.459, 1169.769
957.719, 1237.772
958.978, 1524.790
960.236, 1666.823
961.495, 1800.879
962.753, 1951.951
964.012, 2203.037
965.270, 2394.144
966.527, 2754.280
967.785, 2998.429
969.043, 3273.594
970.300, 3727.773
971.557, 4191.973
972.814, 4759.051
974.071, 5600.298
975.327, 6546.585
976.583, 7831.500
977.840, 9575.350
979.095, 11988.729
980.351, 14594.025
981.607, 17202.789
982.862, 20226.086
984.117, 22026.041
985.372, 22501.338
986.627, 22136.930
987.882, 18896.330
989.136, 16457.336
990.390, 14082.419
991.644, 12107.304
992.898, 11270.848
994.152, 10675.752
995.405, 11065.565
996.659, 12001.395
997.912, 13892.850
999.165, 17456.566
1000.417, 22660.484
1001.670, 30390.213
1002.922, 39847.062
1004.174, 51656.012
1005.426, 58193.984
1006.678, 58948.996
1007.930, 51978.008
1009.181, 41653.043
1010.432, 32436.107
1011.683, 24716.180
1012.934, 19290.271
1014.185, 15253.381
1015.435, 12420.504
1016.685, 10204.647
1017.935, 8518.809
1019.185, 7325.987
1020.435, 6363.187
1021.684, 5585.401
1022.934, 4902.632
1024.183, 4437.879
1025.432, 4035.146
1026.680, 3602.429
1027.929, 3298.726
1029.177, 3006.045
1030.425, 2783.382
1031.673, 2617.736
1032.921, 2478.107
1034.169, 2335.497
1035.416, 2220.905
1036.663, 2141.330
1037.911, 2065.772
1039.157, 2031.232
1040.404, 2015.712
1041.650, 1968.210
1042.897, 1791.726
1044.143, 1810.260
1045.389, 1510.819
1046.634, 1372.396
1047.880, 1295.001
1049.125, 1020.625
1050.371, 832.267
1051.615, 815.998
1052.860, 745.945
1054.105, 661.642
1055.349, 657.515
1056.593, 548.588
1057.837, 453.519
1059.081, 499.306
1060.325, 479.755
1061.568, 501.585
1062.812, 445.433
1064.055, 489.299
1065.298, 565.113
1066.540, 661.362
1067.783, 793.994
1069.025, 1035.224
1070.267, 1388.176
1071.509, 1805.144
1072.751, 2029.131
1073.993, 2217.135
1075.234, 2043.413
1076.475, 1717.451
1077.716, 1386.503
1078.957, 1055.574
1080.198, 776.660
1081.438, 674.047
1082.679, 583.165
1083.919, 410.299
1085.159, 381.092
1086.398, 334.255
1087.638, 290.434
1088.877, 230.629
1090.116, 217.962
1091.355, 153.362
1092.594, 127.602
1093.833, 131.856
1095.071, 106.125
1096.309, 137.409
1097.547, 92.708
1098.785, 87.096
1100.023, 50.223
1101.260, 67.471
1102.498, 77.817
1103.735, 68.702
1104.972, 88.889
1106.208, 65.750
1107.445, 23.345
1108.681, 94.428
1109.918, 98.632
1111.154, 118.824
1112.389, 179.284
1113.625, 172.529
1114.860, 267.338
1116.096, 313.833
1117.331, 379.339
1118.566, 552.857
1119.800, 730.386
1121.035, 1110.926
1122.269, 1686.479
1123.503, 2409.052
1124.737, 3237.636
1125.971, 3755.237
1127.205, 3484.851
1128.438, 2787.475
1129.671, 2034.115
1130.904, 1538.774
1132.137, 1213.456
1133.370, 1144.155
1134.602, 1172.873
1135.834, 1408.613
1137.066, 1565.373
1138.298, 2067.152
1139.530, 2562.947
1140.762, 2747.764
1141.993, 2903.065
1143.224, 2446.906
1144.455, 1958.795
1145.686, 1518.553
1146.917, 1139.420
1148.147, 834.675
1149.377, 655.596
1150.607, 518.482
1151.837, 381.568
1153.067, 266.469
1154.296, 209.382
1155.526, 174.307
1156.755, 79.274
1157.984, 122.222
1159.213, 53.181
1160.441, 59.151
1161.670, 71.151
1162.898, 52.143
1164.126, 19.147
1165.354, 63.161
1166.581, 97.187
1167.809, 1.224
1169.036, 106.271
1170.263, 31.328
1171.490, 87.397
1172.717, 119.476
1173.943, 83.565
1175.170, 96.665
1176.396, 169.773
1177.622, 154.889
1178.848, 130.012
1180.073, 127.124
1181.299, 241.245
1182.524, 256.359
1183.749, 235.464
1184.974, 264.569
1186.199, 249.815
1187.423, 258.165
1188.648, 145.690
1189.872, 118.864
1191.096, 135.169
1192.320, 85.085
1193.543, 65.363
1194.767, 47.851
1195.990, 46.428
1197.213, 46.647
1198.436, 3.423
1199.659, 10.232
1200.881, 29.929
1202.104, 6.438
1203.326, 10.493
1204.548, 5.691
1205.770, 17.509
1206.991, 72.346
1208.213, 41.004
1209.434, 7.457
1210.655, 23.601
1211.876, 58.102
1213.096, 48.047
1214.317, 16.826
1215.537, 28.137
1216.757, 18.071
1217.977, 38.294
1219.197, 20.035
1220.417, 27.160
1221.636, 25.574
1222.855, 3.830
1224.074, 13.884
1225.293, 48.301
1226.512, 42.614
1227.731, 4.444
1228.949, 14.655
1230.167, 6.693
1231.385, 45.218
1232.603, 37.811
1233.820, 28.839
1235.038, 48.868
1236.255, 0.896
1237.472, 0.024
1238.689, 13.049
1239.906, 38.073
1241.122, 49.096
1242.338, 31.117
1243.555, 11.129
1244.771, 4.138
1245.986, 25.879
1247.202, 27.146
1248.417, 28.025
1249.633, 20.003
1250.848, 24.168
1252.063, 18.352
1253.277, 3.411
1254.492, 4.752
1255.706, 22.009
1256.920, 5.294
1258.134, 22.405
1259.348, 20.916
1260.562, 45.264
1261.775, 38.357
1262.988, 41.965
1264.201, 36.560
1265.414, 18.142
1266.627, 17.710
1267.839, 40.262
1269.052, 44.896
1270.264, 48.416
1271.476, 46.971
1272.688, 55.213
1273.899, 57.521
1275.111, 66.621
1276.322, 66.314
1277.533, 66.731
1278.744, 68.132
1279.955, 47.520
1281.165, 26.983
1282.376, 50.446
1283.586, 39.785
1284.796, 58.107
1286.006, 57.642
1287.215, 8.907
1288.425, 45.319
1289.634, 27.539
1290.843, 1.730
1292.052, 68.517
1293.261, 13.603
1294.469, 31.644
1295.678, 74.513
1296.886, 20.948
1298.094, 69.423
1299.302, 107.903
1300.509, 68.388
1301.717, 43.878
1302.924, 72.372
1304.131, 60.869
1305.338, 70.365
1306.545, 54.870
1307.752, 101.377
1308.958, 140.887
1310.164, 92.400
1311.370, 110.914
1312.576, 160.431
1313.782, 125.950
1314.987, 152.469
1316.193, 109.985
1317.398, 134.491
1318.603, 135.978
1319.807, 134.448
1321.012, 165.508
1322.216, 162.774
1323.421, 168.589
1324.625, 163.482
1325.829, 156.801
1327.032, 133.415
1328.236, 119.774
1329.439, 84.328
1330.642, 54.527
1331.845, 44.056
1333.048, 35.219
1334.251, 76.375
1335.453, 54.135
1336.656, 1.377
1337.858, 56.717
1339.060, 9.369
1340.261, 36.460
1341.463, 76.532
1342.664, 24.599
1343.866, 83.879
1345.067, 82.042
1346.267, 25.934
1347.468, 37.736
1348.669, 15.304
1349.869, 56.908
1351.069, 56.492
1352.269, 17.859
1353.469, 23.784
1354.668, 59.422
1355.868, 37.054
1357.067, 81.682
1358.266, 46.306
1359.465, 15.922
1360.664, 49.537
1361.862, 49.134
1363.061, 15.746
1364.259, 70.468
1365.457, 46.990
1366.655, 32.832
1367.852, 86.565
1369.050, 32.744
1370.247, 68.287
1371.444, 76.721
1372.641, 81.172
1373.838, 99.162
1375.035, 85.883
1376.231, 105.177
1377.427, 121.411
1378.623, 100.584
1379.819, 116.691
1381.015, 77.735
1382.211, 111.729
1383.406, 142.760
1384.601, 181.853
1385.796, 176.989
1386.991, 111.999
1388.185, 142.405
1389.380, 161.978
1390.574, 101.797
1391.768, 157.877
1392.962, 67.225
1394.156, 126.426
1395.350, 127.274
1396.543, 122.010
1397.736, 58.624
1398.929, 84.897
1400.122, 108.943
1401.315, 82.442
1402.507, 119.128
1403.700, 91.268
1404.892, 92.914
1406.084, 75.216
1407.276, 87.801
1408.467, 84.216
1409.659, 107.631
1410.850, 114.321
1412.041, 46.225
1413.232, 121.839
1414.423, 54.224
1415.614, 94.733
1416.804, 60.524
1417.994, 17.478
1419.184, 14.147
1420.374, 81.291
1421.564, 66.481
1422.753, 61.800
1423.943, 40.116
1425.132, 36.389
1426.321, 77.688
1427.510, 95.407
1428.698, 16.645
1429.887, 62.205
1431.075, 23.961
1432.263, 82.817
1433.451, 62.525
1434.639, 1.487
1435.827, 94.705
1437.014, 63.110
1438.201, 13.874
1439.388, 0.000
##END=



