##NAMES=Vayrynenite
##RRUFFID=R050243
##IDEAL CHEMISTRY=Mn^2+^Be(PO_4_)OH
##LOCALITY=Viitaniemi pegmatite, Erajarvi, Orivesi, Finland
##OWNER=RRUFF
##SOURCE=Marcus Origlieri
##DESCRIPTION=Pink massive with defined cleavage planes
##STATUS=The identification of this mineral has been confirmed by X-ray diffraction and chemical analysis
##URL=rruff.info/R050243
##MEASURED CHEMISTRY=(Mn^2+^_0.95_Fe^2+^_0.05_)_Σ=1_Be_1.00_(P_1.00_O_4_)((OH)_0.94_F_0.06_)_Σ=1_ ; Be not measured but estimated by difference and charge balance.
##PIN_ID=M00437
##ORIENTATION=Laser parallel to a* (1 0 0). Fiducial mark perpendicular to laser is parallel to -b [0 -1 0]
81.521, 0.000
82.916, 49.973
84.311, 158.466
85.706, 263.264
87.101, 349.697
88.496, 427.252
89.890, 545.443
91.284, 695.479
92.678, 719.791
94.071, 831.130
95.465, 716.544
96.858, 651.658
98.251, 497.502
99.644, 418.606
101.036, 425.713
102.428, 411.423
103.820, 371.416
105.212, 404.211
106.604, 424.197
107.995, 463.704
109.387, 523.692
110.777, 469.630
112.168, 450.612
113.559, 518.409
114.949, 707.969
116.339, 903.947
117.729, 1274.396
119.119, 1668.377
120.508, 2096.415
121.897, 2545.487
123.286, 2650.655
124.675, 2586.220
126.063, 2081.093
127.452, 1597.067
128.840, 1091.093
130.228, 733.267
131.615, 483.830
133.003, 361.512
134.390, 239.330
135.777, 103.806
137.164, 1.133
138.550, 26.162
139.937, 14.685
141.323, 3.370
142.709, 25.380
144.094, 47.100
145.480, 24.790
146.865, 89.676
148.250, 86.746
149.635, 80.990
151.019, 101.397
152.403, 50.959
153.788, 20.332
155.171, 117.484
156.555, 311.505
157.939, 633.400
159.322, 1045.177
160.705, 1451.843
162.088, 1639.402
163.470, 1677.520
164.853, 1466.125
166.235, 1164.856
167.617, 868.393
168.998, 737.310
170.380, 721.007
171.761, 702.756
173.142, 830.297
174.523, 945.524
175.904, 1236.304
177.284, 1819.322
178.664, 2748.006
180.044, 3964.954
181.424, 5016.525
182.803, 5769.637
184.183, 5429.867
185.562, 4485.180
186.940, 3235.592
188.319, 2121.652
189.698, 1434.126
191.076, 955.101
192.454, 668.810
193.831, 477.257
195.209, 404.514
196.586, 306.272
197.963, 217.424
199.340, 220.788
200.717, 206.307
202.093, 218.151
203.470, 274.001
204.846, 264.858
206.221, 322.718
207.597, 385.581
208.972, 592.445
210.347, 629.805
211.722, 910.171
213.097, 784.031
214.472, 813.887
215.846, 834.737
217.220, 988.581
218.594, 972.417
219.967, 907.242
221.341, 882.056
222.714, 849.858
224.087, 890.647
225.460, 1132.427
226.832, 1667.201
228.204, 2476.967
229.577, 3565.729
230.948, 4674.487
232.320, 5173.241
233.692, 4690.993
235.063, 3546.742
236.434, 2284.489
237.805, 1375.241
239.175, 808.001
240.545, 516.771
241.916, 304.548
243.286, 246.329
244.655, 126.110
246.025, 75.890
247.394, 10.854
248.763, 35.300
250.132, 16.031
251.501, 18.261
252.869, 7.544
254.237, 2.349
255.605, 11.240
256.973, 17.042
258.340, 45.814
259.708, 82.694
261.075, 42.528
262.442, 96.260
263.808, 160.652
265.175, 114.944
266.541, 63.120
267.907, 104.056
269.273, 122.906
270.639, 69.655
272.004, 32.321
273.369, 8.909
274.734, 13.398
276.099, 21.304
277.463, 9.106
278.828, 21.152
280.192, 32.438
281.556, 18.695
282.919, 47.814
284.283, 56.914
285.646, 58.999
287.009, 87.069
288.372, 1.877
289.734, 18.845
291.097, 10.842
292.459, 52.866
293.821, 79.928
295.183, 58.036
296.544, 64.186
297.905, 52.380
299.266, 59.616
300.627, 66.147
301.988, 27.404
303.348, 8.652
304.709, 44.194
306.069, 8.711
307.428, 13.670
308.788, 30.021
310.147, 37.095
311.507, 31.085
312.865, 50.249
314.224, 62.768
315.583, 71.001
316.941, 113.443
318.299, 124.771
319.657, 207.841
321.015, 221.116
322.372, 267.374
323.729, 432.615
325.086, 514.841
326.443, 675.051
327.800, 846.243
329.156, 908.406
330.512, 1119.526
331.868, 1119.598
333.224, 1143.635
334.579, 1257.642
335.935, 1279.624
337.290, 1261.585
338.645, 1415.524
339.999, 1434.442
341.354, 1474.333
342.708, 1505.181
344.062, 1568.973
345.416, 1916.724
346.769, 2151.448
348.123, 2519.152
349.476, 2843.839
350.829, 3063.490
352.182, 3086.068
353.534, 2885.596
354.887, 2411.060
356.239, 1974.478
357.591, 1529.862
358.942, 1231.250
360.294, 1016.654
361.645, 904.950
362.996, 786.286
364.347, 758.596
365.698, 769.996
367.048, 790.534
368.398, 870.096
369.748, 1083.666
371.098, 1287.231
372.448, 1662.818
373.797, 2087.435
375.146, 2542.072
376.495, 2998.746
377.844, 3299.426
379.192, 3407.121
380.540, 3260.822
381.889, 2928.538
383.236, 2299.248
384.584, 1833.962
385.932, 1554.670
387.279, 1206.374
388.626, 1034.452
389.973, 906.439
391.319, 823.604
392.666, 659.048
394.012, 702.475
395.358, 703.795
396.704, 821.192
398.049, 911.349
399.394, 1054.531
400.740, 1335.681
402.084, 1410.681
403.429, 1415.451
404.774, 1286.444
406.118, 1010.387
407.462, 845.760
408.806, 600.853
410.150, 451.371
411.493, 319.088
412.836, 237.172
414.179, 223.076
415.522, 169.367
416.865, 116.480
418.207, 123.757
419.549, 114.076
420.891, 70.649
422.233, 63.447
423.575, 66.923
424.916, 121.714
426.257, 113.064
427.598, 110.557
428.939, 141.079
430.279, 137.792
431.619, 159.557
432.959, 142.053
434.299, 162.211
435.639, 219.016
436.978, 295.577
438.318, 219.617
439.657, 341.401
440.996, 324.412
442.334, 435.441
443.673, 492.289
445.011, 535.423
446.349, 677.624
447.687, 827.830
449.024, 1090.200
450.361, 1318.435
451.699, 1746.608
453.036, 2256.286
454.372, 2979.329
455.709, 4093.677
457.045, 5528.403
458.381, 7038.748
459.717, 8407.837
461.053, 9330.481
462.388, 9201.720
463.724, 8190.430
465.059, 6589.329
466.394, 5056.014
467.728, 3595.646
469.063, 2658.290
470.397, 2020.192
471.731, 1444.181
473.065, 1073.194
474.398, 928.411
475.732, 727.724
477.065, 654.125
478.398, 476.733
479.731, 405.384
481.063, 400.240
482.396, 361.083
483.728, 333.915
485.060, 342.735
486.391, 338.543
487.723, 381.339
489.054, 412.123
490.385, 378.895
491.716, 556.655
493.047, 621.404
494.377, 730.141
495.708, 930.867
497.038, 1220.581
498.368, 1657.283
499.697, 2281.975
501.027, 3356.654
502.356, 4870.323
503.685, 6527.981
505.014, 7962.908
506.342, 8532.543
507.671, 7879.932
508.999, 6352.951
510.327, 4609.157
511.655, 3131.178
512.982, 2259.029
514.310, 1629.741
515.637, 1172.906
516.964, 952.324
518.291, 726.586
519.617, 520.549
520.944, 457.584
522.270, 368.209
523.596, 308.987
524.921, 262.858
526.247, 271.988
527.572, 284.113
528.897, 337.193
530.222, 416.870
531.547, 582.191
532.871, 821.062
534.196, 1133.896
535.520, 1389.482
536.844, 1352.272
538.167, 1348.059
539.491, 1005.764
540.814, 747.657
542.137, 524.271
543.460, 418.262
544.783, 252.522
546.105, 208.907
547.427, 104.129
548.749, 124.330
550.071, 80.510
551.393, 38.667
552.714, 39.798
554.035, 51.904
555.356, 41.889
556.677, 74.154
557.998, 66.186
559.318, 72.195
560.638, 106.180
561.958, 159.144
563.278, 104.087
564.597, 114.008
565.917, 169.907
567.236, 185.787
568.555, 182.651
569.874, 251.499
571.192, 238.332
572.511, 285.157
573.829, 261.976
575.147, 316.780
576.464, 293.459
577.782, 390.157
579.099, 359.801
580.416, 431.251
581.733, 505.654
583.050, 653.059
584.366, 887.678
585.683, 989.243
586.999, 1303.784
588.315, 1613.437
589.630, 2155.062
590.946, 3002.682
592.261, 4095.289
593.576, 5592.880
594.891, 6857.459
596.206, 7732.034
597.520, 8013.603
598.834, 7540.166
600.148, 6507.723
601.462, 5173.268
602.776, 4162.799
604.089, 3461.318
605.402, 2824.821
606.715, 2415.310
608.028, 2319.784
609.341, 2475.248
610.653, 2784.708
611.965, 3472.160
613.277, 4649.616
614.589, 5929.084
615.901, 7160.558
617.212, 7890.050
618.523, 7706.549
619.834, 6810.057
621.145, 5639.570
622.456, 4441.087
623.766, 3548.593
625.076, 2821.103
626.386, 2311.600
627.696, 1863.089
629.006, 1661.565
630.315, 1248.027
631.624, 1103.475
632.933, 864.907
634.242, 777.325
635.551, 726.726
636.859, 619.110
638.167, 555.478
639.475, 525.828
640.783, 498.160
642.090, 536.474
643.398, 488.770
644.705, 526.386
646.012, 595.309
647.318, 588.552
648.625, 587.777
649.931, 630.985
651.237, 601.175
652.543, 537.347
653.849, 523.502
655.155, 445.639
656.460, 383.760
657.765, 301.862
659.070, 280.947
660.375, 202.015
661.679, 99.066
662.984, 175.096
664.288, 41.110
665.592, 0.099
666.895, 2.953
668.199, 16.046
669.502, 77.188
670.805, 4.590
672.108, 34.670
673.411, 6.989
674.713, 84.352
676.016, 79.798
677.318, 49.327
678.620, 74.921
679.921, 93.595
681.223, 111.357
682.524, 130.436
683.825, 65.871
685.126, 1.915
686.427, 97.461
687.727, 52.318
689.028, 93.490
690.328, 45.062
691.628, 121.389
692.927, 2.179
694.227, 30.292
695.526, 2.182
696.825, 33.383
698.124, 65.995
699.423, 12.354
700.721, 144.682
702.020, 101.993
703.318, 188.289
704.616, 193.188
705.913, 213.158
707.211, 179.930
708.508, 173.402
709.805, 216.871
711.102, 157.428
712.399, 93.887
713.695, 248.568
714.992, 198.202
716.288, 314.849
717.584, 281.627
718.879, 407.614
720.175, 537.361
721.470, 568.137
722.765, 824.136
724.060, 887.191
725.355, 978.222
726.649, 1262.282
727.944, 1570.332
729.238, 1833.370
730.532, 2360.396
731.825, 2574.412
733.119, 3328.418
734.412, 3931.412
735.705, 4305.397
736.998, 4746.373
738.291, 5061.338
739.584, 5072.296
740.876, 4944.244
742.168, 4538.182
743.460, 4136.110
744.752, 3386.030
746.043, 3044.940
747.334, 2553.841
748.626, 2310.732
749.916, 2039.614
751.207, 1658.487
752.498, 1492.351
753.788, 1288.207
755.078, 1206.054
756.368, 1085.892
757.658, 1009.722
758.947, 960.543
760.237, 1014.356
761.526, 1065.161
762.815, 1016.958
764.104, 1202.749
765.392, 1101.531
766.680, 1253.306
767.969, 1273.075
769.257, 1182.029
770.544, 1266.783
771.832, 1096.259
773.119, 962.528
774.406, 871.062
775.693, 813.787
776.980, 749.338
778.267, 606.049
779.553, 598.989
780.839, 522.688
782.125, 528.380
783.411, 494.066
784.697, 534.746
785.982, 462.421
787.267, 580.089
788.552, 597.753
789.837, 709.412
791.122, 862.065
792.406, 1056.713
793.690, 1187.357
794.974, 1473.996
796.258, 1685.631
797.542, 1824.261
798.825, 1961.888
800.108, 1765.510
801.391, 1681.129
802.674, 1382.744
803.957, 1202.356
805.239, 921.965
806.522, 720.571
807.804, 582.174
809.085, 411.775
810.367, 347.245
811.649, 350.968
812.930, 271.562
814.211, 218.153
815.492, 214.743
816.772, 136.049
818.053, 113.636
819.333, 77.456
820.613, 128.634
821.893, 29.614
823.173, 55.768
824.452, 78.080
825.732, 28.521
827.011, 110.498
828.290, 86.213
829.568, 44.075
830.847, 36.226
832.125, 21.296
833.403, 20.769
834.681, 28.080
835.959, 52.710
837.236, 49.775
838.514, 21.149
839.791, 49.891
841.068, 46.542
842.345, 23.148
843.621, 30.719
844.898, 131.439
846.174, 72.838
847.450, 66.025
848.726, 137.209
850.001, 65.466
851.277, 93.528
852.552, 119.863
853.827, 165.814
855.102, 130.492
856.376, 171.046
857.651, 225.775
858.925, 350.520
860.199, 410.308
861.473, 430.144
862.746, 436.006
864.020, 343.906
865.293, 372.832
866.566, 294.661
867.839, 216.628
869.112, 212.611
870.384, 207.609
871.656, 130.623
872.928, 172.652
874.200, 81.696
875.472, 181.756
876.744, 123.831
878.015, 196.920
879.286, 172.025
880.557, 153.145
881.828, 232.278
883.098, 345.428
884.369, 325.593
885.639, 428.771
886.909, 413.968
888.178, 548.179
889.448, 554.405
890.717, 590.647
891.987, 801.907
893.256, 814.182
894.524, 910.472
895.793, 914.779
897.061, 876.104
898.330, 907.445
899.598, 810.802
900.865, 660.177
902.133, 732.569
903.401, 574.978
904.668, 550.404
905.935, 460.849
907.202, 356.312
908.468, 307.792
909.735, 280.290
911.001, 316.806
912.267, 155.344
913.533, 117.900
914.799, 140.478
916.064, 70.098
917.330, 86.749
918.595, 109.418
919.860, 59.106
921.124, 16.188
922.389, 27.536
923.653, 103.721
924.918, 33.983
926.182, 45.229
927.445, 14.556
928.709, 46.627
929.972, 18.210
931.236, 18.908
932.499, 33.000
933.761, 78.935
935.024, 105.905
936.286, 125.916
937.549, 131.952
938.811, 152.009
940.073, 82.086
941.334, 197.184
942.596, 149.302
943.857, 115.441
945.118, 234.601
946.379, 264.781
947.640, 198.983
948.900, 264.205
950.161, 372.449
951.421, 398.717
952.681, 471.009
953.940, 515.321
955.200, 557.654
956.459, 614.009
957.719, 665.385
958.978, 790.783
960.236, 842.202
961.495, 947.643
962.753, 998.105
964.012, 1174.589
965.270, 1174.096
966.527, 1354.625
967.785, 1468.176
969.043, 1620.750
970.300, 1851.346
971.557, 2091.967
972.814, 2325.621
974.071, 2700.310
975.327, 3116.038
976.583, 3922.817
977.840, 4557.631
979.095, 5742.488
980.351, 6867.381
981.607, 7885.329
982.862, 8984.331
984.117, 9561.381
985.372, 9619.483
986.627, 9675.644
987.882, 8340.088
989.136, 7706.846
990.390, 7051.190
991.644, 6509.107
992.898, 6706.184
994.152, 7084.635
995.405, 7790.455
996.659, 9152.013
997.912, 11214.636
999.165, 14761.295
1000.417, 19647.992
1001.670, 26712.730
1002.922, 34939.512
1004.174, 43667.383
1005.426, 47075.359
1006.678, 45156.070
1007.930, 37698.039
1009.181, 29460.389
1010.432, 22260.830
1011.683, 16926.566
1012.934, 13041.693
1014.185, 10295.509
1015.435, 8431.640
1016.685, 7116.659
1017.935, 5932.634
1019.185, 5022.694
1020.435, 4445.773
1021.684, 4111.872
1022.934, 3529.991
1024.183, 3210.129
1025.432, 3073.287
1026.680, 2830.465
1027.929, 2703.661
1029.177, 2465.878
1030.425, 2369.114
1031.673, 2256.368
1032.921, 2259.396
1034.169, 2307.937
1035.416, 2429.249
1036.663, 2601.580
1037.911, 2816.930
1039.157, 2892.297
1040.404, 3188.685
1041.650, 3419.090
1042.897, 3462.517
1044.143, 3495.967
1045.389, 3292.443
1046.634, 2915.951
1047.880, 2619.479
1049.125, 2223.034
1050.371, 1814.605
1051.615, 1517.198
1052.860, 1325.813
1054.105, 1064.447
1055.349, 1115.105
1056.593, 1065.794
1057.837, 974.504
1059.081, 974.229
1060.325, 1182.973
1061.568, 1142.380
1062.812, 1314.157
1064.055, 1516.598
1065.298, 2009.994
1066.540, 2449.159
1067.783, 3156.004
1069.025, 4180.870
1070.267, 5258.752
1071.509, 6987.456
1072.751, 8189.369
1073.993, 8844.636
1075.234, 8460.621
1076.475, 6940.946
1077.716, 5398.423
1078.957, 4047.164
1080.198, 2871.233
1081.438, 2190.422
1082.679, 1714.734
1083.919, 1282.282
1085.159, 1120.140
1086.398, 906.200
1087.638, 805.335
1088.877, 637.868
1090.116, 530.549
1091.355, 401.676
1092.594, 345.814
1093.833, 307.964
1095.071, 208.126
1096.309, 178.348
1097.547, 149.533
1098.785, 140.730
1100.023, 120.992
1101.260, 64.299
1102.498, 82.528
1103.735, 118.767
1104.972, 71.015
1106.208, 108.272
1107.445, 106.540
1108.681, 167.816
1109.918, 142.102
1111.154, 186.396
1112.389, 137.698
1113.625, 226.093
1114.860, 261.623
1116.096, 307.953
1117.331, 364.291
1118.566, 679.637
1119.800, 835.990
1121.035, 1339.350
1122.269, 2020.717
1123.503, 2908.090
1124.737, 3755.471
1125.971, 4210.861
1127.205, 3797.258
1128.438, 2914.661
1129.671, 1997.076
1130.904, 1459.496
1132.137, 1031.920
1133.370, 917.349
1134.602, 890.780
1135.834, 878.216
1137.066, 969.662
1138.298, 1035.118
1139.530, 1415.576
1140.762, 1316.042
1141.993, 1296.514
1143.224, 1043.986
1144.455, 758.461
1145.686, 473.934
1146.917, 325.403
1148.147, 182.868
1149.377, 154.341
1150.607, 91.821
1151.837, 1.300
1153.067, 0.236
1154.296, 36.832
1155.526, 75.462
1156.755, 7.115
1157.984, 112.774
1159.213, 132.456
1160.441, 40.166
1161.670, 83.879
1162.898, 38.610
1164.126, 80.656
1165.354, 34.073
1166.581, 101.193
1167.809, 87.464
1169.036, 182.741
1170.263, 103.022
1171.490, 224.308
1172.717, 292.597
1173.943, 271.891
1175.170, 243.188
1176.396, 338.487
1177.622, 443.791
1178.848, 574.093
1180.073, 651.961
1181.299, 743.656
1182.524, 823.908
1183.749, 892.168
1184.974, 972.429
1186.199, 924.352
1187.423, 910.865
1188.648, 784.234
1189.872, 677.081
1191.096, 571.081
1192.320, 474.033
1193.543, 385.902
1194.767, 307.711
1195.990, 222.489
1197.213, 163.934
1198.436, 137.050
1199.659, 63.075
1200.881, 108.767
1202.104, 24.795
1203.326, 72.968
1204.548, 164.603
1205.770, 63.903
1206.991, 104.793
1208.213, 10.216
1209.434, 41.633
1210.655, 11.651
1211.876, 67.873
1213.096, 15.592
1214.317, 48.372
1215.537, 51.975
1216.757, 70.141
1217.977, 76.113
1219.197, 57.195
1220.417, 40.131
1221.636, 20.470
1222.855, 40.516
1224.074, 13.500
1225.293, 14.292
1226.512, 53.360
1227.731, 10.507
1228.949, 8.528
1230.167, 26.982
1231.385, 47.181
1232.603, 16.594
1233.820, 64.355
1235.038, 133.108
1236.255, 94.918
1237.472, 148.655
1238.689, 151.383
1239.906, 120.102
1241.122, 158.814
1242.338, 75.508
1243.555, 118.157
1244.771, 130.747
1245.986, 27.302
1247.202, 48.817
1248.417, 163.299
1249.633, 137.705
1250.848, 167.095
1252.063, 182.172
1253.277, 183.808
1254.492, 172.135
1255.706, 170.067
1256.920, 109.677
1258.134, 143.961
1259.348, 86.224
1260.562, 64.811
1261.775, 185.120
1262.988, 194.521
1264.201, 235.118
1265.414, 213.752
1266.627, 305.826
1267.839, 210.857
1269.052, 228.925
1270.264, 260.888
1271.476, 305.121
1272.688, 304.113
1273.899, 288.105
1275.111, 341.669
1276.322, 271.504
1277.533, 333.378
1278.744, 380.298
1279.955, 362.040
1281.165, 251.734
1282.376, 278.499
1283.586, 220.158
1284.796, 227.594
1286.006, 241.177
1287.215, 160.468
1288.425, 201.655
1289.634, 235.735
1290.843, 187.591
1292.052, 241.275
1293.261, 187.751
1294.469, 176.236
1295.678, 275.633
1296.886, 315.055
1298.094, 332.798
1299.302, 251.252
1300.509, 274.461
1301.717, 189.082
1302.924, 253.177
1304.131, 208.319
1305.338, 193.452
1306.545, 257.576
1307.752, 243.690
1308.958, 219.794
1310.164, 212.888
1311.370, 323.973
1312.576, 332.047
1313.782, 369.043
1314.987, 340.986
1316.193, 424.142
1317.398, 379.088
1318.603, 395.007
1319.807, 423.436
1321.012, 424.093
1322.216, 425.541
1323.421, 433.511
1324.625, 362.446
1325.829, 269.944
1327.032, 310.542
1328.236, 230.112
1329.439, 286.573
1330.642, 197.707
1331.845, 146.200
1333.048, 83.217
1334.251, 35.237
1335.453, 8.616
1336.656, 2.465
1337.858, 25.531
1339.060, 31.376
1340.261, 1.184
1341.463, 58.034
1342.664, 18.116
1343.866, 21.892
1345.067, 38.644
1346.267, 22.113
1347.468, 36.925
1348.669, 42.620
1349.869, 74.924
1351.069, 133.541
1352.269, 78.134
1353.469, 60.706
1354.668, 141.246
1355.868, 54.755
1357.067, 73.218
1358.266, 146.658
1359.465, 3.078
1360.664, 87.479
1361.862, 155.867
1363.061, 99.246
1364.259, 139.626
1365.457, 64.020
1366.655, 121.356
1367.852, 116.695
1369.050, 75.340
1370.247, 131.052
1371.444, 211.720
1372.641, 97.320
1373.838, 43.847
1375.035, 182.300
1376.231, 148.675
1377.427, 234.971
1378.623, 260.184
1379.819, 132.316
1381.015, 200.395
1382.211, 210.637
1383.406, 253.806
1384.601, 278.144
1385.796, 283.326
1386.991, 219.910
1388.185, 257.530
1389.380, 234.618
1390.574, 182.559
1391.768, 216.417
1392.962, 283.775
1394.156, 256.190
1395.350, 138.162
1396.543, 228.506
1397.736, 159.251
1398.929, 147.891
1400.122, 132.566
1401.315, 99.091
1402.507, 98.237
1403.700, 36.332
1404.892, 72.825
1406.084, 48.793
1407.276, 113.462
1408.467, 90.477
1409.659, 95.451
1410.850, 97.006
1412.041, 79.401
1413.232, 96.278
1414.423, 5.671
1415.614, 75.007
1416.804, 68.569
1417.994, 11.835
1419.184, 108.448
1420.374, 72.088
1421.564, 50.438
1422.753, 84.981
1423.943, 91.596
1425.132, 64.656
1426.321, 51.110
1427.510, 44.304
1428.698, 8.581
1429.887, 29.891
1431.075, 20.036
1432.263, 9.959
1433.451, 13.146
1434.639, 1.971
1435.827, 0.000
##END=



