##NAMES=Vesuvianite
##RRUFFID=R050035
##IDEAL CHEMISTRY=(Ca,Na)_19_(Al,Mg,Fe^3+^)_13_(SiO_4_)_10_(Si_2_O_7_)_4_(OH,F,O)_10_
##LOCALITY=Olmsteadville, New York, USA
##OWNER=RRUFF
##SOURCE=University of Arizona Mineral Museum
##DESCRIPTION=Brown single crystal fragment
##STATUS=The identification of this mineral has been confirmed by X-ray diffraction and chemical analysis
##URL=rruff.info/R050035
##MEASURED CHEMISTRY=(Ca_18.66_Na_0.34_)_Σ=19_(Al_9.16_Mg_1.28_Ti_1.21_Fe^3+^_0.89_Fe^2+^_0.46_)_Σ=13_Si_18_O_68_((OH)_4.70_F_3.18_O_2.12_)_Σ=10_
##PIN_ID=M00130
##ORIENTATION=Laser parallel to a* (1 0 0). Fiducial mark perpendicular to laser is parallel to c [0 0 1]
130.342, 0.000
131.734, 46.234
133.126, 0.622
134.518, 22.697
135.909, 61.606
137.301, 134.001
138.692, 211.506
140.083, 369.424
141.473, 289.383
142.864, 425.877
144.254, 270.669
145.644, 241.627
147.034, 154.637
148.423, 69.603
149.812, 43.562
151.201, 24.723
152.590, 12.924
153.979, 48.448
155.367, 54.081
156.755, 151.287
158.143, 194.059
159.530, 213.295
160.918, 302.035
162.305, 460.225
163.692, 484.839
165.078, 450.851
166.465, 546.237
167.851, 442.977
169.237, 565.049
170.623, 514.436
172.008, 569.119
173.393, 549.075
174.778, 662.279
176.163, 735.709
177.548, 784.354
178.932, 839.222
180.316, 946.341
181.700, 1022.728
183.083, 970.368
184.467, 1154.243
185.850, 1156.336
187.233, 1062.635
188.616, 932.124
189.998, 816.797
191.380, 609.644
192.762, 587.656
194.144, 420.827
195.525, 242.149
196.907, 221.616
198.288, 176.220
199.669, 171.957
201.049, 211.819
202.429, 129.804
203.810, 107.908
205.189, 267.126
206.569, 228.452
207.949, 365.881
209.328, 364.409
210.707, 519.030
212.085, 616.741
213.464, 599.514
214.842, 833.280
216.220, 1015.048
217.598, 1058.824
218.976, 1037.609
220.353, 1289.407
221.730, 1126.222
223.107, 1139.096
224.483, 968.161
225.860, 1037.434
227.236, 738.123
228.612, 644.244
229.988, 556.743
231.363, 494.500
232.738, 550.394
234.113, 569.281
235.488, 668.162
236.863, 612.038
238.237, 682.913
239.611, 680.792
240.985, 637.684
242.359, 673.593
243.732, 547.528
245.105, 661.496
246.478, 580.499
247.851, 715.541
249.223, 729.621
250.595, 968.739
251.967, 982.894
253.339, 1129.084
254.711, 1140.309
256.082, 1233.567
257.453, 1165.858
258.824, 1096.181
260.195, 1059.535
261.565, 923.918
262.935, 836.329
264.305, 832.768
265.675, 677.232
267.044, 606.722
268.414, 611.235
269.783, 637.770
271.151, 536.338
272.520, 643.954
273.888, 712.613
275.256, 696.293
276.624, 894.995
277.992, 1129.714
279.359, 1294.445
280.726, 1400.188
282.093, 1616.943
283.460, 1729.708
284.827, 1902.480
286.193, 2061.261
287.559, 2075.049
288.925, 2161.842
290.290, 2140.641
291.656, 2035.443
293.021, 1886.248
294.386, 1682.056
295.750, 1593.425
297.115, 1517.813
298.479, 1235.208
299.843, 1188.815
301.207, 973.487
302.570, 963.235
303.933, 832.067
305.296, 845.868
306.659, 809.700
308.022, 760.634
309.384, 813.663
310.746, 774.782
312.108, 778.985
313.470, 939.171
314.831, 1009.026
316.193, 1068.660
317.554, 1224.791
318.914, 1176.175
320.275, 1242.623
321.635, 1434.814
322.995, 1449.010
324.355, 1548.497
325.715, 1634.876
327.074, 1663.271
328.434, 1717.607
329.792, 1873.581
331.151, 1866.054
332.510, 1792.460
333.868, 1911.542
335.226, 1881.658
336.584, 1862.865
337.941, 1884.043
339.299, 1959.252
340.656, 2102.495
342.013, 2009.798
343.370, 2122.186
344.726, 2308.676
346.082, 2454.295
347.438, 2400.043
348.794, 2682.932
350.150, 2707.968
351.505, 2743.145
352.860, 2888.474
354.215, 3053.952
355.570, 3079.573
356.924, 3255.337
358.278, 3191.198
359.632, 3397.167
360.986, 3543.214
362.339, 3629.331
363.693, 3845.487
365.046, 4031.653
366.399, 4147.827
367.751, 4464.010
369.104, 4560.200
370.456, 4816.396
371.808, 4832.598
373.159, 4768.805
374.511, 4635.016
375.862, 4411.230
377.213, 4177.450
378.564, 3913.672
379.914, 3599.897
381.265, 3406.124
382.615, 3012.354
383.965, 2998.586
385.315, 2647.821
386.664, 2529.057
388.013, 2683.292
389.362, 2450.527
390.711, 2444.772
392.060, 2555.986
393.408, 2310.206
394.756, 2263.417
396.104, 2245.619
397.451, 2272.812
398.799, 2337.995
400.146, 2319.169
401.493, 2413.333
402.840, 2583.485
404.186, 2653.628
405.533, 2685.761
406.879, 3013.882
408.225, 3110.114
409.570, 3167.591
410.916, 3164.999
412.261, 3171.484
413.606, 3229.024
414.951, 3055.411
416.295, 2871.510
417.639, 2846.528
418.983, 2438.934
420.327, 2273.923
421.671, 2067.936
423.014, 1745.893
424.357, 1515.835
425.700, 1281.761
427.043, 1121.670
428.386, 804.563
429.728, 719.439
431.070, 543.297
432.412, 442.138
433.753, 358.960
435.095, 374.764
436.436, 315.550
437.777, 172.316
439.118, 95.063
440.458, 164.790
441.798, 163.498
443.138, 166.186
444.478, 92.853
445.818, 127.500
447.157, 131.125
448.496, 267.731
449.835, 226.315
451.174, 333.879
452.513, 290.420
453.851, 373.940
455.189, 371.439
456.527, 374.917
457.864, 422.383
459.202, 432.838
460.539, 314.282
461.876, 353.714
463.212, 318.134
464.549, 399.540
465.885, 308.933
467.221, 263.312
468.557, 247.676
469.893, 161.026
471.228, 97.361
472.563, 134.681
473.898, 13.983
475.233, 5.745
476.567, 112.507
477.902, 15.367
479.236, 45.274
480.570, 124.247
481.903, 166.328
483.237, 244.540
484.570, 215.925
485.903, 85.468
487.235, 180.102
488.568, 225.876
489.900, 59.816
491.232, 66.835
492.564, 64.936
493.896, 85.882
495.227, 96.677
496.558, 53.451
497.889, 115.200
499.220, 150.823
500.551, 224.486
501.881, 331.208
503.211, 409.664
504.541, 600.324
505.870, 641.146
507.200, 641.193
508.529, 780.242
509.858, 789.914
511.187, 832.952
512.515, 848.448
513.844, 917.013
515.172, 860.280
516.500, 977.697
517.827, 879.792
519.155, 850.993
520.482, 850.646
521.809, 807.090
523.136, 755.043
524.462, 761.127
525.789, 793.165
527.115, 754.157
528.441, 751.531
529.766, 692.005
531.092, 701.860
532.417, 752.669
533.742, 733.433
535.067, 631.150
536.391, 726.823
537.716, 654.449
539.040, 696.030
540.364, 792.565
541.688, 768.388
543.011, 692.499
544.334, 791.896
545.657, 803.250
546.980, 753.558
548.303, 895.820
549.625, 809.038
550.947, 806.209
552.269, 739.336
553.591, 696.419
554.913, 787.457
556.234, 705.450
557.555, 578.399
558.876, 654.303
560.197, 564.163
561.517, 453.979
562.837, 511.750
564.157, 397.479
565.477, 370.163
566.797, 321.804
568.116, 249.399
569.435, 250.135
570.754, 295.416
572.073, 240.847
573.391, 296.220
574.709, 315.545
576.027, 350.826
577.345, 287.064
578.663, 413.256
579.980, 310.405
581.297, 371.512
582.614, 402.577
583.931, 405.601
585.248, 556.584
586.564, 715.527
587.880, 597.430
589.196, 757.293
590.511, 773.116
591.827, 875.899
593.142, 963.644
594.457, 1087.349
595.772, 1207.015
597.086, 1287.644
598.401, 1452.232
599.715, 1453.785
601.029, 1646.298
602.343, 1703.775
603.656, 1883.215
604.969, 1917.617
606.282, 1946.983
607.595, 2114.312
608.908, 2238.606
610.220, 2307.864
611.532, 2443.088
612.844, 2388.275
614.156, 2478.428
615.468, 2546.546
616.779, 2574.631
618.090, 2600.682
619.401, 2515.700
620.712, 2546.685
622.022, 2536.138
623.332, 2479.558
624.642, 2491.446
625.952, 2559.305
627.262, 2426.132
628.571, 2391.929
629.880, 2270.697
631.189, 2314.435
632.498, 2209.243
633.807, 2216.738
635.115, 2207.453
636.423, 2097.188
637.731, 2113.973
639.039, 2132.729
640.346, 2011.777
641.653, 1775.855
642.960, 1703.672
644.267, 1589.627
645.574, 1450.598
646.880, 1318.653
648.186, 1103.095
649.492, 922.066
650.798, 724.127
652.103, 636.535
653.409, 416.932
654.714, 386.258
656.019, 160.633
657.323, 38.999
658.628, 63.658
659.932, 167.389
661.236, 236.734
662.540, 353.266
663.843, 343.509
665.147, 409.965
666.450, 438.671
667.753, 415.640
669.056, 473.856
670.358, 462.350
671.660, 445.112
672.963, 451.133
674.264, 290.414
675.566, 327.866
676.868, 227.508
678.169, 200.286
679.470, 93.182
680.771, 71.862
682.071, 188.906
683.372, 295.950
684.672, 570.997
685.972, 770.044
687.271, 1070.095
688.571, 1459.148
689.870, 1909.205
691.169, 2256.267
692.468, 2770.334
693.767, 2946.405
695.065, 3098.484
696.364, 2896.570
697.662, 2636.663
698.960, 2262.764
700.257, 1868.873
701.555, 1476.992
702.852, 1211.121
704.149, 941.260
705.446, 713.410
706.742, 398.572
708.038, 228.746
709.335, 309.932
710.631, 127.133
711.926, 149.347
713.222, 46.576
714.517, 82.820
715.812, 305.080
717.107, 172.356
718.402, 410.649
719.696, 377.959
720.990, 637.289
722.284, 706.636
723.578, 870.880
724.872, 1155.887
726.165, 1412.972
727.458, 1644.988
728.751, 2077.958
730.044, 2288.090
731.336, 2707.519
732.629, 2990.039
733.921, 3603.181
735.213, 4049.748
736.504, 4136.304
737.796, 4902.924
739.087, 5329.571
740.378, 5706.245
741.669, 6272.947
742.960, 6749.676
744.250, 7176.435
745.540, 7713.222
746.830, 7710.040
748.120, 8336.889
749.410, 8533.767
750.699, 8640.675
751.988, 9017.620
753.277, 8784.593
754.566, 8731.599
755.854, 8568.641
757.143, 8415.717
758.431, 8232.826
759.719, 7529.972
761.006, 7297.151
762.294, 6954.368
763.581, 6501.621
764.868, 6128.912
766.155, 5986.239
767.442, 5683.611
768.728, 5341.024
770.014, 5428.478
771.300, 5356.007
772.586, 5213.582
773.872, 5401.234
775.157, 5358.954
776.442, 5536.739
777.727, 5534.611
779.012, 5692.546
780.297, 5650.557
781.581, 5668.679
782.865, 5766.860
784.149, 5615.137
785.433, 5453.507
786.716, 5361.970
787.999, 5260.548
789.282, 5139.236
790.565, 5148.059
791.848, 5037.000
793.130, 4836.053
794.413, 4845.261
795.695, 4454.606
796.977, 4654.129
798.258, 4283.839
799.540, 4083.662
800.821, 4103.639
802.102, 3893.791
803.382, 3764.064
804.663, 3534.469
805.943, 3425.002
807.224, 3345.627
808.504, 3090.351
809.783, 3044.150
811.063, 2910.040
812.342, 2848.523
813.621, 2912.153
814.900, 2614.473
816.179, 2743.622
817.457, 2719.643
818.736, 2585.468
820.014, 2426.322
821.292, 2351.584
822.569, 2319.512
823.847, 2212.014
825.124, 2045.483
826.401, 2147.283
827.678, 1876.964
828.954, 1861.014
830.231, 1736.991
831.507, 1745.549
832.783, 1834.107
834.059, 1682.681
835.334, 1850.922
836.610, 1792.240
837.885, 1839.653
839.160, 1906.150
840.435, 2038.725
841.709, 1960.391
842.983, 2092.144
844.258, 2075.977
845.532, 2315.892
846.805, 2450.885
848.079, 2515.961
849.352, 2700.116
850.625, 2749.350
851.898, 3034.668
853.171, 3188.064
854.443, 3371.542
855.715, 3455.105
856.988, 3588.747
858.259, 3702.467
859.531, 4016.267
860.803, 4150.146
862.074, 4124.104
863.345, 4058.140
864.616, 4442.255
865.886, 4366.447
867.157, 4400.719
868.427, 4485.068
869.697, 4469.493
870.967, 4573.998
872.236, 4498.737
873.506, 4483.235
874.775, 4357.969
876.044, 4282.780
877.313, 4217.668
878.581, 4102.639
879.849, 4097.694
881.118, 3852.827
882.386, 3918.044
883.653, 3573.339
884.921, 3928.710
886.188, 3694.157
887.455, 3679.682
888.722, 3515.280
889.989, 3430.957
891.255, 3446.704
892.522, 3262.527
893.788, 3308.422
895.054, 3194.392
896.319, 3230.436
897.585, 3196.553
898.850, 3138.744
900.115, 3219.007
901.380, 3265.342
902.645, 3251.750
903.909, 3578.229
905.174, 3404.781
906.438, 3551.403
907.701, 3718.097
908.965, 4114.859
910.229, 4071.692
911.492, 4328.595
912.755, 4355.568
914.018, 4742.611
915.280, 4959.722
916.543, 5216.904
917.805, 5344.153
919.067, 5672.506
920.329, 5899.937
921.590, 6207.905
922.852, 6262.499
924.113, 6690.940
925.374, 6646.613
926.635, 6849.934
927.895, 6812.299
929.156, 6879.985
930.416, 6862.250
931.676, 6576.824
932.936, 6660.683
934.195, 6641.490
935.454, 6460.837
936.714, 6570.188
937.973, 6278.672
939.231, 6541.629
940.490, 6551.218
941.748, 6450.269
943.006, 6451.609
944.264, 6308.963
945.522, 6511.878
946.780, 6608.048
948.037, 6558.221
949.294, 6783.139
950.551, 6756.607
951.808, 6776.925
953.064, 6807.664
954.320, 6816.829
955.577, 6816.628
956.832, 6936.680
958.088, 6785.119
959.344, 6954.901
960.599, 6889.112
961.854, 6796.743
963.109, 6633.032
964.364, 6604.610
965.618, 6410.128
966.872, 6260.260
968.127, 6030.575
969.380, 5815.775
970.634, 5510.647
971.888, 5351.082
973.141, 5071.651
974.394, 4852.433
975.647, 4864.150
976.900, 4605.454
978.152, 4386.793
979.404, 4390.869
980.656, 4082.820
981.908, 4194.527
983.160, 3854.254
984.411, 3899.213
985.663, 3742.232
986.914, 3469.292
988.165, 3552.375
989.415, 3275.359
990.666, 3209.451
991.916, 3122.144
993.166, 2762.685
994.416, 2783.083
995.665, 2648.525
996.915, 2546.789
998.164, 2477.365
999.413, 2285.626
1000.662, 2434.759
1001.911, 2344.810
1003.159, 2213.188
1004.407, 2250.342
1005.655, 2193.141
1006.903, 2121.104
1008.151, 2224.137
1009.398, 2128.635
1010.646, 2162.628
1011.893, 2103.990
1013.139, 2145.976
1014.386, 2141.241
1015.633, 2118.312
1016.879, 2146.257
1018.125, 2104.265
1019.371, 2097.185
1020.616, 2139.245
1021.862, 2053.180
1023.107, 1997.834
1024.352, 2152.848
1025.597, 1944.813
1026.842, 1906.324
1028.086, 2004.188
1029.330, 1870.079
1030.574, 2098.688
1031.818, 2077.465
1033.062, 2055.299
1034.305, 2000.060
1035.548, 2110.932
1036.791, 2227.407
1038.034, 2434.260
1039.277, 2488.888
1040.519, 2852.300
1041.762, 2928.984
1043.004, 3228.373
1044.246, 3287.865
1045.487, 3222.848
1046.729, 3105.368
1047.970, 2914.123
1049.211, 2495.551
1050.452, 2330.848
1051.692, 1942.675
1052.933, 1683.805
1054.173, 1503.212
1055.413, 1145.712
1056.653, 1007.921
1057.893, 749.128
1059.132, 639.294
1060.371, 498.435
1061.610, 287.927
1062.849, 278.032
1064.088, 160.102
1065.326, 97.527
1066.565, 61.545
1067.803, 37.373
1069.041, 5.624
1070.278, 16.457
1071.516, 140.507
1072.753, 23.713
1073.990, 148.862
1075.227, 107.014
1076.464, 87.455
1077.700, 167.974
1078.936, 77.375
1080.173, 110.003
1081.408, 253.820
1082.644, 41.812
1083.880, 173.870
1085.115, 170.005
1086.350, 152.337
1087.585, 219.800
1088.820, 162.428
1090.054, 150.197
1091.288, 183.100
1092.522, 116.095
1093.756, 201.275
1094.990, 90.443
1096.224, 150.901
1097.457, 223.302
1098.690, 67.822
1099.923, 113.688
1101.156, 147.464
1102.388, 119.455
1103.621, 126.689
1104.853, 127.916
1106.085, 99.485
1107.316, 118.212
1108.548, 26.835
1109.779, 78.799
1111.010, 54.880
1112.241, 24.176
1113.472, 37.099
1114.703, 79.873
1115.933, 78.434
1117.163, 99.379
1118.393, 225.292
1119.623, 120.684
1120.853, 127.303
1122.082, 123.968
1123.311, 75.183
1124.540, 109.730
1125.769, 125.893
1126.997, 33.922
1128.226, 104.183
1129.454, 139.040
1130.682, 84.830
1131.910, 136.892
1133.138, 56.544
1134.365, 140.696
1135.592, 38.336
1136.819, 96.971
1138.046, 154.965
1139.273, 54.291
1140.499, 87.652
1141.725, 142.189
1142.951, 143.183
1144.177, 161.585
1145.403, 142.661
1146.628, 171.434
1147.854, 191.382
1149.079, 128.011
1150.304, 172.770
1151.528, 202.430
1152.753, 107.831
1153.977, 245.382
1155.201, 234.021
1156.425, 181.191
1157.649, 252.765
1158.872, 200.868
1160.096, 262.880
1161.319, 219.067
1162.542, 249.879
1163.764, 284.324
1164.987, 272.364
1166.209, 297.108
1167.431, 266.028
1168.653, 298.632
1169.875, 368.342
1171.097, 284.986
1172.318, 298.213
1173.539, 408.770
1174.760, 326.107
1175.981, 321.117
1177.202, 389.380
1178.422, 350.593
1179.642, 337.415
1180.862, 355.698
1182.082, 329.496
1183.302, 424.062
1184.521, 334.178
1185.740, 387.596
1186.959, 443.111
1188.178, 372.722
1189.397, 454.193
1190.615, 416.718
1191.834, 298.196
1193.052, 407.240
1194.269, 349.279
1195.487, 425.148
1196.705, 455.301
1197.922, 327.875
1199.139, 495.480
1200.356, 456.862
1201.573, 398.362
1202.789, 478.748
1204.006, 461.261
1205.222, 484.576
1206.438, 495.808
1207.653, 381.263
1208.869, 469.281
1210.084, 497.482
1211.299, 383.863
1212.514, 504.657
1213.729, 455.805
1214.944, 466.500
1216.158, 576.027
1217.372, 467.141
1218.586, 522.516
1219.800, 452.201
1221.014, 421.620
1222.227, 515.226
1223.440, 488.852
1224.654, 397.160
1225.866, 430.042
1227.079, 451.544
1228.292, 473.643
1229.504, 495.252
1230.716, 408.527
1231.928, 507.018
1233.139, 430.582
1234.351, 393.802
1235.562, 447.011
1236.773, 420.004
1237.984, 347.462
1239.195, 385.868
1240.406, 299.915
1241.616, 355.478
1242.826, 278.025
1244.036, 247.934
1245.246, 300.269
1246.456, 239.815
1247.665, 245.102
1248.874, 261.585
1250.083, 216.434
1251.292, 253.996
1252.501, 260.153
1253.709, 184.383
1254.917, 307.731
1256.125, 229.640
1257.333, 164.124
1258.541, 308.051
1259.748, 134.163
1260.956, 261.808
1262.163, 112.101
1263.370, 105.557
1264.576, 235.593
1265.783, 149.032
1266.989, 123.723
1268.195, 223.111
1269.401, 119.583
1270.607, 195.679
1271.813, 211.738
1273.018, 132.236
1274.223, 227.843
1275.428, 241.760
1276.633, 126.875
1277.838, 207.859
1279.042, 74.535
1280.246, 170.384
1281.450, 144.936
1282.654, 59.668
1283.858, 181.472
1285.061, 147.325
1286.265, 83.853
1287.468, 231.025
1288.671, 79.034
1289.873, 139.868
1291.076, 255.660
1292.278, 132.824
1293.480, 191.214
1294.682, 139.432
1295.884, 144.288
1297.086, 189.468
1298.287, 128.831
1299.488, 90.154
1300.689, 194.379
1301.890, 68.923
1303.091, 167.735
1304.291, 170.343
1305.491, 110.290
1306.691, 209.382
1307.891, 40.166
1309.091, 90.038
1310.290, 141.974
1311.490, 81.798
1312.689, 138.446
1313.888, 94.408
1315.086, 92.376
1316.285, 218.964
1317.483, 75.540
1318.681, 109.530
1319.879, 252.126
1321.077, 89.653
1322.275, 83.419
1323.472, 157.976
1324.669, 43.431
1325.866, 125.914
1327.063, 172.244
1328.260, 33.927
1329.456, 182.184
1330.653, 117.678
1331.849, 76.284
1333.045, 90.895
1334.240, 59.422
1335.436, 51.792
1336.631, 135.947
1337.826, 118.192
1339.021, 139.555
1340.216, 52.933
1341.411, 16.746
1342.605, 160.059
1343.799, 2.260
1344.993, 132.412
1346.187, 158.140
1347.381, 92.312
1348.574, 120.366
1349.767, 122.138
1350.961, 50.154
1352.153, 237.766
1353.346, 71.844
1354.539, 22.772
1355.731, 170.290
1356.923, 30.278
1358.115, 107.021
1359.307, 170.776
1360.498, 28.466
1361.690, 116.198
1362.881, 78.948
1364.072, 83.521
1365.263, 229.017
1366.453, 100.712
1367.644, 96.343
1368.834, 55.738
1370.024, 68.269
1371.214, 92.885
1372.404, 81.379
1373.593, 62.820
1374.783, 146.182
1375.972, 53.561
1377.161, 18.918
1378.349, 138.280
1379.538, 40.665
1380.726, 94.764
1381.915, 182.867
1383.103, 46.053
1384.290, 166.296
1385.478, 126.503
1386.665, 64.974
1387.853, 188.868
1389.040, 21.640
1390.227, 8.477
1391.413, 127.254
1392.600, 86.921
1393.786, 147.515
1394.972, 167.829
1396.158, 0.591
1397.344, 178.307
1398.530, 87.929
1399.715, 26.510
1400.900, 124.776
1402.085, 58.278
1403.270, 31.331
1404.455, 128.478
1405.639, 77.847
1406.824, 65.506
1408.008, 86.121
1409.192, 14.539
1410.375, 59.149
1411.559, 114.544
1412.742, 55.706
1413.925, 135.086
1415.108, 60.978
1416.291, 104.082
1417.474, 113.120
1418.656, 33.962
1419.839, 17.163
1421.021, 124.550
1422.202, 17.319
1423.384, 104.172
1424.566, 48.655
1425.747, 2.439
1426.928, 109.372
1428.109, 9.966
1429.290, 50.946
1430.470, 155.334
1431.651, 14.629
1432.831, 131.628
1434.011, 47.166
1435.191, 15.317
1436.370, 71.206
1437.550, 67.844
1438.729, 34.607
1439.908, 153.833
1441.087, 21.677
1442.266, 19.871
1443.444, 156.154
1444.623, 49.549
1445.801, 106.236
1446.979, 68.469
1448.157, 8.260
1449.334, 129.264
1450.512, 140.440
1451.689, 22.094
1452.866, 160.358
1454.043, 59.811
1455.220, 6.867
1456.396, 119.741
1457.573, 57.348
1458.749, 112.994
1459.925, 125.593
1461.100, 117.589
1462.276, 131.353
1463.451, 138.556
1464.627, 131.256
1465.802, 157.798
1466.977, 144.036
1468.151, 150.337
1469.326, 210.844
1470.500, 76.153
1471.674, 48.942
1472.848, 231.109
1474.022, 2.630
1475.195, 72.107
1476.369, 138.368
1477.542, 3.568
1478.715, 163.311
1479.888, 0.321
1481.061, 31.236
1482.233, 173.150
1483.405, 31.099
1484.577, 74.509
1485.749, 159.678
1486.921, 8.878
1488.093, 41.158
1489.264, 106.094
1490.435, 4.928
1491.606, 99.019
1492.777, 115.912
1493.948, 28.778
1495.118, 172.574
1496.288, 79.014
1497.459, 30.735
1498.628, 153.441
1499.798, 81.918
1500.968, 133.525
1502.137, 136.191
1503.306, 18.018
1504.475, 166.541
1505.644, 44.682
1506.813, 44.986
1507.981, 205.450
1509.149, 57.348
1510.318, 72.333
1511.485, 255.307
1512.653, 58.928
1513.821, 127.085
1514.988, 108.221
1516.155, 33.303
1517.322, 110.744
1518.489, 74.395
1519.656, 0.000
##END=



