##NAMES=Vesuvianite
##RRUFFID=R050233
##IDEAL CHEMISTRY=(Ca,Na)_19_(Al,Mg,Fe^3+^)_13_(SiO_4_)_10_(Si_2_O_7_)_4_(OH,F,O)_10_
##LOCALITY=Ludwig, Nevada, USA
##OWNER=RRUFF
##SOURCE=Marcus Origlieri
##DESCRIPTION=Pale green euhedral single crystal
##STATUS=The identification of this mineral has been confirmed by X-ray diffraction and chemical analysis
##URL=rruff.info/R050233
##MEASURED CHEMISTRY=Ca_19.00_(Al_10.04_Mg_2.54_Fe^2+^_0.42_)_Σ=13_(Si_17.96_Al_0.04_)_Σ=18_O_68_((OH)_9.66_F_0.34_)_Σ=10_ ; Boron not analyzed.
##PIN_ID=L00161
##ORIENTATION=Laser parallel to -c* (0 0 -1). Fiducial mark perpendicular to laser is parallel to -a [-1 0 0]
114.254, 0.000
115.644, 241.310
117.034, 300.316
118.424, 20.921
119.813, 184.339
121.203, 87.679
122.592, 59.519
123.981, 149.302
125.369, 89.236
126.758, 32.416
128.146, 67.381
129.534, 261.642
130.922, 111.306
132.309, 158.460
133.696, 20.082
135.083, 308.395
136.470, 195.917
137.857, 396.552
139.243, 458.201
140.630, 378.785
142.016, 292.230
143.401, 382.475
144.787, 357.465
146.172, 334.150
147.557, 163.492
148.942, 110.459
150.327, 64.021
151.711, 59.850
153.096, 177.824
154.480, 156.020
155.863, 64.715
157.247, 301.875
158.630, 364.465
160.013, 384.443
161.396, 430.793
162.779, 629.488
164.161, 756.512
165.544, 917.850
166.926, 944.490
168.308, 1039.420
169.689, 1179.627
171.070, 1483.105
172.452, 1431.850
173.833, 1494.846
175.213, 1716.092
176.594, 1642.580
177.974, 1790.314
179.354, 1750.301
180.734, 1720.541
182.114, 1586.039
183.493, 1632.783
184.872, 1455.768
186.251, 1235.992
187.630, 970.449
189.008, 919.141
190.387, 966.059
191.765, 728.193
193.143, 844.545
194.520, 524.104
195.898, 748.865
197.275, 551.779
198.652, 758.715
200.029, 649.684
201.405, 625.686
202.782, 620.734
204.158, 850.809
205.534, 1138.924
206.909, 960.119
208.285, 1236.404
209.660, 1354.770
211.035, 1339.225
212.410, 1491.771
213.784, 1565.414
215.159, 1813.148
216.533, 2024.973
217.907, 1886.896
219.281, 2001.924
220.654, 1748.053
222.027, 2084.289
223.400, 1998.627
224.773, 2046.070
226.146, 1981.619
227.518, 1796.273
228.891, 1692.033
230.263, 1529.898
231.634, 1512.867
233.006, 1289.941
234.377, 1351.121
235.748, 1061.400
237.119, 902.785
238.490, 1067.387
239.860, 1054.111
241.231, 967.129
242.601, 897.414
243.970, 987.885
245.340, 1223.557
246.709, 1090.469
248.079, 1461.492
249.448, 1401.592
250.816, 1758.771
252.185, 1962.027
253.553, 2013.381
254.921, 2144.906
256.289, 2128.576
257.657, 1922.344
259.024, 1697.205
260.391, 1672.164
261.758, 1080.240
263.125, 1112.484
264.492, 1144.789
265.858, 922.166
267.224, 1087.605
268.590, 794.113
269.956, 1035.688
271.321, 1038.330
272.687, 1162.037
274.052, 972.812
275.416, 1365.654
276.781, 1356.562
278.146, 1242.541
279.510, 1468.727
280.874, 1616.166
282.237, 1647.596
283.601, 1949.479
284.964, 1789.336
286.327, 2157.041
287.690, 2157.977
289.053, 1983.115
290.416, 2448.449
291.778, 2019.965
293.140, 2115.246
294.502, 1844.104
295.863, 2008.121
297.225, 1820.291
298.586, 1963.371
299.947, 1836.795
301.308, 1594.355
302.668, 1667.051
304.029, 1710.873
305.389, 1552.818
306.749, 1395.883
308.108, 1525.066
309.468, 1414.359
310.827, 1289.764
312.186, 1355.275
313.545, 1370.891
314.903, 1316.605
316.262, 1388.559
317.620, 1465.967
318.978, 1635.471
320.336, 1714.566
321.693, 1869.750
323.051, 2025.021
324.408, 1738.379
325.765, 2112.818
327.121, 1733.344
328.478, 1886.945
329.834, 1874.629
331.190, 2069.389
332.546, 1777.227
333.902, 2059.139
335.257, 1600.125
336.612, 1644.186
337.967, 1577.318
339.322, 1455.521
340.677, 1386.793
342.031, 1326.133
343.385, 1257.490
344.739, 1253.014
346.093, 1257.553
347.446, 1270.156
348.799, 1480.822
350.153, 1654.547
351.505, 1656.334
352.858, 1710.182
354.210, 1847.084
355.563, 2077.045
356.915, 2065.062
358.267, 2182.137
359.618, 2389.912
360.969, 2341.287
362.321, 2487.014
363.672, 2562.301
365.022, 2500.898
366.373, 2348.816
367.723, 2536.561
369.073, 2496.074
370.423, 2425.617
371.773, 2144.676
373.122, 2295.531
374.471, 2406.219
375.821, 2026.414
377.169, 2198.676
378.518, 1687.506
379.866, 1770.381
381.215, 1804.301
382.563, 1721.264
383.910, 1452.273
385.258, 1640.324
386.605, 1791.420
387.952, 1322.557
389.299, 1814.736
390.646, 1678.887
391.992, 1862.963
393.339, 1991.262
394.685, 2205.322
396.031, 2715.584
397.376, 2700.998
398.722, 3216.451
400.067, 3265.943
401.412, 3256.186
402.757, 4035.752
404.101, 3855.354
405.446, 3866.639
406.790, 4121.320
408.134, 4335.023
409.478, 4273.764
410.821, 4268.543
412.165, 3852.352
413.508, 3916.318
414.851, 3675.314
416.193, 3308.338
417.536, 3184.436
418.878, 2842.604
420.220, 2504.809
421.562, 1879.064
422.904, 2009.352
424.245, 1574.693
425.586, 1459.059
426.927, 1430.494
428.268, 1032.000
429.609, 759.537
430.949, 615.098
432.289, 874.686
433.629, 379.395
434.969, 547.131
436.309, 158.920
437.648, 455.725
438.987, 425.592
440.326, 98.533
441.665, 148.518
443.003, 266.584
444.342, 220.691
445.680, 293.918
447.018, 245.184
448.355, 108.564
449.693, 130.980
451.030, 129.451
452.367, 70.111
453.704, 87.504
455.041, 63.500
456.377, 12.287
457.713, 102.102
459.049, 47.008
460.385, 91.900
461.721, 264.965
463.056, 100.055
464.391, 134.223
465.726, 532.418
467.061, 344.639
468.395, 404.883
469.730, 661.150
471.064, 377.439
472.398, 772.748
473.731, 378.074
475.065, 571.422
476.398, 732.785
477.731, 697.170
479.064, 658.572
480.397, 686.986
481.729, 635.244
483.062, 750.854
484.394, 575.307
485.725, 419.771
487.057, 377.615
488.389, 596.732
489.720, 379.229
491.051, 449.734
492.382, 529.250
493.712, 516.771
495.043, 235.301
496.373, 273.838
497.703, 306.381
499.032, 488.932
500.362, 320.486
501.691, 408.043
503.020, 396.607
504.349, 451.174
505.678, 506.742
507.007, 385.312
508.335, 222.887
509.663, 255.463
510.991, 517.037
512.319, 154.613
513.646, 559.188
514.973, 143.760
516.300, 434.334
517.627, 293.906
518.954, 195.525
520.280, 1.957
521.607, 31.570
522.933, 20.879
524.259, 182.672
525.584, 282.314
526.910, 1.904
528.235, 254.889
529.560, 94.186
530.885, 66.744
532.209, 155.715
533.534, 40.232
534.858, 205.828
536.182, 102.002
537.506, 53.768
538.829, 167.527
540.152, 193.273
541.476, 486.012
542.799, 172.742
544.121, 598.457
545.444, 432.162
546.766, 254.857
548.088, 41.539
549.410, 62.793
550.732, 113.436
552.053, 53.367
553.375, 56.105
554.696, 76.629
556.017, 80.787
557.337, 76.189
558.658, 62.574
559.978, 69.236
561.298, 327.674
562.618, 128.771
563.938, 64.514
565.257, 249.500
566.576, 149.062
567.895, 332.322
569.214, 325.787
570.533, 325.592
571.851, 395.160
573.170, 448.484
574.488, 508.424
575.805, 669.662
577.123, 694.787
578.440, 919.434
579.758, 1099.004
581.075, 1093.678
582.391, 1579.742
583.708, 1416.240
585.024, 1471.135
586.341, 1990.195
587.657, 1955.504
588.972, 2153.066
590.288, 2103.695
591.603, 1968.877
592.918, 2092.934
594.233, 2097.191
595.548, 2422.203
596.863, 2275.398
598.177, 2397.123
599.491, 2478.564
600.805, 2353.816
602.119, 2259.520
603.432, 2582.680
604.746, 2552.525
606.059, 2380.572
607.372, 2359.859
608.685, 2609.445
609.997, 2297.004
611.309, 2488.818
612.621, 2422.801
613.933, 2395.178
615.245, 2388.688
616.557, 2354.809
617.868, 2343.137
619.179, 2410.832
620.490, 2418.057
621.801, 2599.262
623.111, 2378.945
624.421, 2490.584
625.731, 2324.477
627.041, 2896.814
628.351, 2599.168
629.660, 2747.695
630.970, 3428.080
632.279, 3171.566
633.588, 3316.848
634.896, 3063.203
636.205, 3591.379
637.513, 3245.504
638.821, 3363.574
640.129, 3705.596
641.437, 3533.562
642.744, 3130.477
644.051, 2956.338
645.358, 2902.143
646.665, 2677.898
647.972, 2311.600
649.278, 2067.244
650.584, 1823.836
651.890, 1848.375
653.196, 1463.857
654.502, 1525.287
655.807, 1004.660
657.113, 1019.980
658.418, 1228.244
659.722, 982.453
661.027, 990.604
662.331, 804.703
663.636, 854.744
664.940, 670.730
666.244, 839.660
667.547, 629.535
668.851, 1027.354
670.154, 813.117
671.457, 913.822
672.760, 1265.473
674.062, 1096.064
675.365, 1127.602
676.667, 1193.434
677.969, 1394.662
679.271, 1701.537
680.572, 1704.850
681.874, 2549.846
683.175, 2698.525
684.476, 2787.371
685.777, 3352.443
687.077, 3261.486
688.378, 4077.012
689.678, 4501.738
690.978, 4846.627
692.278, 5023.676
693.577, 5258.314
694.877, 5137.922
696.176, 4994.742
697.475, 4594.379
698.774, 4267.969
700.072, 3645.504
701.371, 3328.992
702.669, 2404.430
703.967, 2539.820
705.265, 2467.160
706.562, 1841.520
707.860, 1249.945
709.157, 1420.139
710.454, 710.562
711.751, 1110.775
713.047, 533.824
714.344, 567.826
715.640, 243.779
716.936, 292.963
718.232, 244.848
719.527, 100.598
720.823, 243.680
722.118, 378.348
723.413, 356.973
724.708, 88.541
726.002, 249.043
727.297, 390.508
728.591, 238.631
729.885, 321.719
731.179, 69.244
732.472, 84.346
733.766, 71.410
735.059, 2.094
736.352, 115.676
737.645, 23.805
738.937, 271.602
740.230, 87.041
741.522, 90.830
742.814, 71.236
744.106, 230.232
745.397, 101.176
746.689, 304.945
747.980, 139.680
749.271, 31.752
750.562, 227.701
751.853, 71.895
753.143, 129.625
754.433, 195.484
755.723, 77.461
757.013, 147.463
758.303, 222.670
759.592, 118.990
760.881, 208.406
762.170, 174.002
763.459, 2.354
764.748, 397.383
766.036, 253.590
767.325, 105.486
768.613, 334.299
769.901, 290.039
771.188, 106.268
772.476, 242.287
773.763, 414.199
775.050, 317.018
776.337, 140.811
777.624, 171.213
778.910, 167.186
780.196, 332.111
781.482, 210.998
782.768, 193.836
784.054, 376.631
785.339, 584.387
786.625, 124.105
787.910, 543.777
789.195, 360.416
790.479, 505.016
791.764, 525.578
793.048, 445.111
794.332, 697.605
795.616, 455.072
796.900, 628.502
798.183, 577.898
799.467, 802.262
800.750, 728.586
802.033, 720.877
803.316, 1203.135
804.598, 512.357
805.880, 1081.547
807.163, 1043.699
808.445, 856.822
809.726, 1028.912
811.008, 954.967
812.289, 826.990
813.570, 1230.980
814.851, 1156.939
816.132, 1256.867
817.413, 1270.766
818.693, 1620.631
819.973, 1362.473
821.253, 1470.287
822.533, 1751.072
823.813, 1561.826
825.092, 1704.551
826.371, 2049.275
827.650, 1936.971
828.929, 2312.693
830.208, 2384.395
831.486, 2064.115
832.764, 2269.809
834.042, 2712.574
835.320, 2829.369
836.598, 3038.180
837.875, 3151.119
839.152, 3354.035
840.429, 3695.074
841.706, 3717.180
842.983, 3837.340
844.259, 4578.566
845.536, 4638.762
846.812, 4881.992
848.088, 5198.234
849.363, 5787.457
850.639, 6486.672
851.914, 6556.891
853.189, 6919.102
854.464, 7637.289
855.739, 8275.555
857.013, 8024.789
858.288, 8222.055
859.562, 8428.297
860.836, 8617.582
862.110, 7951.906
863.383, 8487.215
864.656, 7948.527
865.930, 7953.844
867.203, 7625.141
868.475, 7568.426
869.748, 7132.859
871.020, 7335.527
872.292, 7120.961
873.564, 6934.754
874.836, 6901.242
876.108, 6733.273
877.379, 6749.711
878.650, 7220.160
879.922, 6917.680
881.192, 6841.391
882.463, 7186.824
883.733, 6992.594
885.004, 6894.535
886.274, 6875.551
887.544, 7123.000
888.813, 6708.496
890.083, 6702.852
891.352, 6813.773
892.621, 6551.227
893.890, 6621.250
895.159, 6394.066
896.427, 6425.594
897.695, 6618.820
898.964, 6483.949
900.232, 6249.484
901.499, 6323.105
902.767, 6501.887
904.034, 6141.070
905.301, 6278.434
906.568, 6601.234
907.835, 6565.285
909.102, 6141.477
910.368, 6592.180
911.634, 6872.391
912.900, 6828.879
914.166, 7346.129
915.432, 7164.098
916.697, 6930.723
917.962, 8030.336
919.227, 8258.391
920.492, 8509.500
921.757, 8548.172
923.021, 9415.668
924.285, 9767.992
925.550, 10202.312
926.813, 10376.520
928.077, 10598.449
929.341, 11244.066
930.604, 11430.445
931.867, 11027.504
933.130, 11288.477
934.393, 11665.906
935.655, 10686.102
936.918, 11304.414
938.180, 10475.906
939.442, 10385.332
940.703, 10124.117
941.965, 9620.062
943.226, 9479.738
944.488, 9075.191
945.749, 8902.051
947.009, 8393.352
948.270, 8010.973
949.530, 7658.543
950.791, 7752.625
952.051, 7404.699
953.311, 7055.781
954.570, 7244.969
955.830, 6769.047
957.089, 6875.430
958.348, 6558.508
959.607, 6672.129
960.866, 6519.820
962.124, 6336.215
963.383, 6233.402
964.641, 5944.500
965.899, 5658.602
967.156, 5369.340
968.414, 4937.434
969.671, 5055.527
970.928, 4493.402
972.185, 4768.242
973.442, 4209.672
974.699, 4455.758
975.955, 4158.840
977.211, 3899.102
978.468, 3987.656
979.723, 3635.484
980.979, 3356.414
982.234, 3927.352
983.490, 2736.281
984.745, 3283.418
986.000, 3048.934
987.254, 2861.980
988.509, 3002.934
989.763, 2646.281
991.017, 2370.898
992.271, 2146.270
993.525, 2322.078
994.779, 2445.812
996.032, 2179.910
997.285, 2278.184
998.538, 1712.207
999.791, 2361.172
1001.044, 1667.945
1002.296, 2021.961
1003.548, 1806.008
1004.800, 1883.160
1006.052, 2041.379
1007.304, 1680.129
1008.555, 1855.234
1009.807, 2029.684
1011.058, 1799.094
1012.309, 2022.094
1013.559, 1691.852
1014.810, 1556.320
1016.060, 2118.320
1017.310, 2026.793
1018.560, 1615.598
1019.810, 1928.723
1021.060, 2165.477
1022.309, 1967.250
1023.558, 2316.480
1024.807, 1824.500
1026.056, 2349.395
1027.305, 2064.016
1028.553, 2523.059
1029.801, 2493.211
1031.049, 1815.320
1032.297, 1970.629
1033.545, 2462.328
1034.793, 2273.434
1036.040, 2311.250
1037.287, 2209.711
1038.534, 2299.352
1039.781, 2539.742
1041.027, 1906.363
1042.274, 2133.816
1043.520, 2258.352
1044.766, 1877.746
1046.012, 1573.219
1047.257, 1319.719
1048.503, 1782.199
1049.748, 1075.699
1050.993, 1749.750
1052.238, 1278.363
1053.483, 1057.016
1054.727, 1020.668
1055.971, 1176.059
1057.216, 752.812
1058.459, 860.582
1059.703, 723.621
1060.947, 520.734
1062.190, 814.906
1063.433, 567.836
1064.676, 559.852
1065.919, 348.879
1067.162, 799.270
1068.404, 90.434
1069.646, 274.609
1070.888, 790.797
1072.130, 393.879
1073.372, 354.965
1074.613, 402.848
1075.855, 275.582
1077.096, 217.293
1078.337, 268.730
1079.578, 211.703
1080.818, 346.961
1082.059, 241.266
1083.299, 257.473
1084.539, 305.477
1085.779, 219.367
1087.018, 201.152
1088.258, 180.836
1089.497, 136.465
1090.736, 370.062
1091.975, 199.953
1093.213, 15.473
1094.452, 358.816
1095.690, 28.125
1096.928, 186.375
1098.166, 200.566
1099.404, 347.707
1100.642, 363.059
1101.879, 639.801
1103.116, 298.801
1104.353, 486.758
1105.590, 257.668
1106.827, 707.523
1108.063, 203.801
1109.299, 493.531
1110.536, 447.844
1111.771, 454.367
1113.007, 426.875
1114.243, 529.938
1115.478, 193.301
1116.713, 420.586
1117.948, 527.789
1119.183, 4.926
1120.418, 172.988
1121.652, 271.973
1122.886, 464.898
1124.120, 428.762
1125.354, 69.426
1126.588, 244.312
1127.821, 188.020
1129.055, 155.539
1130.288, 155.176
1131.521, 156.855
1132.753, 300.766
1133.986, 178.535
1135.218, 414.578
1136.450, 295.461
1137.682, 294.660
1138.914, 288.621
1140.146, 284.047
1141.377, 226.613
1142.609, 129.305
1143.840, 107.906
1145.071, 302.066
1146.301, 20.789
1147.532, 131.230
1148.762, 0.188
1149.992, 66.926
1151.222, 3.105
1152.452, 97.664
1153.682, 307.602
1154.911, 167.020
1156.140, 129.379
1157.369, 59.176
1158.598, 101.250
1159.827, 77.891
1161.055, 151.984
1162.284, 60.117
1163.512, 26.227
1164.740, 237.340
1165.967, 162.574
1167.195, 330.496
1168.422, 187.480
1169.650, 187.457
1170.877, 122.426
1172.103, 153.625
1173.330, 180.328
1174.557, 251.273
1175.783, 395.203
1177.009, 63.133
1178.235, 394.059
1179.461, 164.977
1180.686, 123.891
1181.912, 506.793
1183.137, 291.668
1184.362, 393.531
1185.587, 359.352
1186.811, 432.156
1188.036, 179.934
1189.260, 437.781
1190.484, 423.500
1191.708, 680.195
1192.932, 474.480
1194.155, 474.617
1195.378, 498.969
1196.602, 497.379
1197.825, 386.984
1199.047, 1019.938
1200.270, 547.906
1201.492, 978.703
1202.715, 184.801
1203.937, 726.664
1205.159, 588.230
1206.380, 470.637
1207.602, 157.789
1208.823, 470.594
1210.044, 653.164
1211.265, 726.758
1212.486, 568.398
1213.707, 464.262
1214.927, 769.191
1216.147, 713.879
1217.367, 824.793
1218.587, 681.355
1219.807, 630.828
1221.027, 623.672
1222.246, 499.328
1223.465, 745.004
1224.684, 658.879
1225.903, 376.285
1227.121, 248.723
1228.340, 712.863
1229.558, 726.801
1230.776, 553.578
1231.994, 367.172
1233.212, 551.820
1234.429, 397.809
1235.646, 379.793
1236.864, 555.898
1238.081, 202.531
1239.297, 646.461
1240.514, 444.750
1241.730, 492.383
1242.947, 566.078
1244.163, 292.145
1245.378, 481.684
1246.594, 559.734
1247.810, 37.293
1249.025, 598.051
1250.240, 250.027
1251.455, 237.422
1252.670, 430.121
1253.885, 108.418
1255.099, 243.340
1256.313, 49.754
1257.527, 6.754
1258.741, 340.363
1259.955, 40.570
1261.168, 312.789
1262.382, 219.203
1263.595, 381.383
1264.808, 256.730
1266.021, 266.688
1267.233, 210.656
1268.446, 406.383
1269.658, 271.215
1270.870, 383.461
1272.082, 182.480
1273.294, 164.727
1274.505, 252.191
1275.716, 88.609
1276.928, 63.895
1278.139, 164.254
1279.349, 165.000
1280.560, 243.012
1281.770, 142.414
1282.981, 7.691
1284.191, 287.773
1285.401, 255.070
1286.610, 104.762
1287.820, 328.750
1289.029, 181.961
1290.239, 303.715
1291.448, 67.285
1292.656, 209.637
1293.865, 129.219
1295.073, 260.281
1296.282, 279.137
1297.490, 241.953
1298.698, 315.359
1299.906, 288.453
1301.113, 230.027
1302.320, 195.473
1303.528, 366.059
1304.735, 1.977
1305.942, 0.000
##END=



