##NAMES=Vesuvianite
##RRUFFID=R050035
##IDEAL CHEMISTRY=(Ca,Na)_19_(Al,Mg,Fe^3+^)_13_(SiO_4_)_10_(Si_2_O_7_)_4_(OH,F,O)_10_
##LOCALITY=Olmsteadville, New York, USA
##OWNER=RRUFF
##SOURCE=University of Arizona Mineral Museum
##DESCRIPTION=Brown single crystal fragment
##STATUS=The identification of this mineral has been confirmed by X-ray diffraction and chemical analysis
##URL=rruff.info/R050035
##MEASURED CHEMISTRY=(Ca_18.66_Na_0.34_)_Σ=19_(Al_9.16_Mg_1.28_Ti_1.21_Fe^3+^_0.89_Fe^2+^_0.46_)_Σ=13_Si_18_O_68_((OH)_4.70_F_3.18_O_2.12_)_Σ=10_
##PIN_ID=M00130
##ORIENTATION=Laser parallel to a* (1 0 0). Fiducial mark perpendicular to laser is parallel to c [0 0 1]
151.201, 0.000
152.590, 36.712
153.979, 87.686
155.367, 139.241
156.755, 202.066
158.143, 202.221
159.530, 362.416
160.918, 487.918
162.305, 638.945
163.692, 517.844
165.078, 359.892
166.465, 274.669
167.851, 201.830
169.237, 101.097
170.623, 117.761
172.008, 35.073
173.393, 20.566
174.778, 35.176
176.163, 372.176
177.548, 570.325
178.932, 989.535
180.316, 1339.721
181.700, 1800.804
183.083, 2052.713
184.467, 2385.390
185.850, 2432.978
187.233, 2492.867
188.616, 2237.595
189.998, 1912.931
191.380, 1448.898
192.762, 1345.402
194.144, 982.391
195.525, 659.838
196.907, 517.736
198.288, 406.057
199.669, 434.776
201.049, 493.886
202.429, 543.373
203.810, 513.217
205.189, 793.394
206.569, 793.881
207.949, 1154.659
209.328, 1205.710
210.707, 1537.016
212.085, 1658.562
213.464, 1730.334
214.842, 2132.319
216.220, 2204.516
217.598, 2356.955
218.976, 2319.667
220.353, 2192.658
221.730, 1945.911
223.107, 1839.406
224.483, 1523.128
225.860, 1297.057
227.236, 961.178
228.612, 785.477
229.988, 661.282
231.363, 585.928
232.738, 580.659
234.113, 615.473
235.488, 720.252
236.863, 775.056
238.237, 890.147
239.611, 765.447
240.985, 781.022
242.359, 916.728
243.732, 722.438
245.105, 998.176
246.478, 994.085
247.851, 1120.190
249.223, 1326.465
250.595, 1872.885
251.967, 2089.482
253.339, 2386.180
254.711, 2642.908
256.082, 2809.664
257.453, 3076.439
258.824, 3013.237
260.195, 2950.060
261.565, 2666.902
262.935, 2513.768
264.305, 2280.656
265.675, 2097.564
267.044, 1934.494
268.414, 1811.443
269.783, 1598.411
271.151, 1355.396
272.520, 1352.399
273.888, 1469.418
275.256, 1326.450
276.624, 1483.496
277.992, 1530.586
279.359, 1747.809
280.726, 1695.521
282.093, 1943.855
283.460, 2072.792
284.827, 2412.210
286.193, 2631.988
287.559, 2811.938
288.925, 2921.905
290.290, 2921.816
291.656, 2731.672
293.021, 2524.609
294.386, 2171.213
295.750, 1800.897
297.115, 1590.525
298.479, 1147.235
299.843, 879.609
301.207, 589.065
302.570, 458.463
303.933, 137.803
305.296, 117.082
306.659, 23.302
308.022, 60.539
309.384, 2.288
310.746, 42.597
312.108, 182.566
313.470, 221.470
314.831, 430.312
316.193, 574.353
317.554, 838.921
318.914, 943.830
320.275, 1098.999
321.635, 1267.911
322.995, 1401.053
324.355, 1621.024
325.715, 1818.095
327.074, 2030.975
328.434, 2058.500
329.792, 2307.039
331.151, 2528.205
332.510, 2756.166
333.868, 2982.627
335.226, 3226.572
336.584, 3507.919
337.941, 3781.437
339.299, 4103.166
340.656, 4488.580
342.013, 4800.338
343.370, 5291.474
344.726, 5784.687
346.082, 6294.125
347.438, 6593.990
348.794, 7180.065
350.150, 7542.049
351.505, 7922.115
352.860, 8371.405
354.215, 8714.615
355.570, 9089.390
356.924, 9477.469
358.278, 9925.950
359.632, 10113.163
360.986, 10981.062
362.339, 11438.982
363.693, 12196.922
365.046, 13184.880
366.399, 13982.855
367.751, 14960.844
369.104, 15808.844
370.456, 16576.852
371.808, 16644.877
373.159, 16232.906
374.511, 15810.941
375.862, 14778.982
377.213, 13847.025
378.564, 12985.069
379.914, 11913.119
381.265, 11271.167
382.615, 10269.213
383.965, 9697.254
385.315, 9115.294
386.664, 8603.324
388.013, 8341.350
389.362, 7659.365
390.711, 7327.371
392.060, 6815.369
393.408, 6673.345
394.756, 6241.309
396.104, 5949.262
397.451, 5747.199
398.799, 5455.123
400.146, 5202.575
401.493, 4943.589
402.840, 4691.626
404.186, 4451.727
405.533, 4233.917
406.879, 4114.648
408.225, 3919.157
409.570, 3826.515
410.916, 3554.471
412.261, 3501.721
413.606, 3225.436
414.951, 2977.701
416.295, 2806.205
417.639, 2731.267
418.983, 2378.478
420.327, 2181.607
421.671, 1968.133
423.014, 1617.333
424.357, 1614.799
425.700, 1392.229
427.043, 1199.616
428.386, 1029.965
429.728, 952.274
431.070, 840.544
432.412, 662.773
433.753, 490.963
435.095, 509.111
436.436, 487.219
437.777, 391.286
439.118, 376.311
440.458, 383.295
441.798, 390.236
443.138, 415.596
444.478, 520.980
445.818, 543.780
447.157, 696.526
448.496, 895.217
449.835, 878.853
451.174, 1059.434
452.513, 1177.957
453.851, 1246.428
455.189, 1384.844
456.527, 1401.202
457.864, 1547.507
459.202, 1613.758
460.539, 1549.953
461.876, 1606.094
463.212, 1532.180
464.549, 1538.214
465.885, 1374.192
467.221, 1196.118
468.557, 1215.990
469.893, 1054.162
471.228, 924.900
472.563, 874.613
473.898, 720.095
475.233, 498.880
476.567, 479.436
477.902, 365.961
479.236, 235.454
480.570, 216.914
481.903, 50.338
483.237, 22.309
484.570, 128.062
485.903, 112.019
487.235, 13.954
488.568, 85.031
489.900, 80.747
491.232, 22.461
492.564, 108.088
493.896, 199.655
495.227, 116.181
496.558, 112.666
497.889, 171.092
499.220, 24.472
500.551, 34.238
501.881, 26.931
503.211, 41.008
504.541, 4.002
505.870, 86.894
507.200, 75.718
508.529, 38.296
509.858, 33.825
511.187, 88.144
512.515, 72.932
513.844, 159.139
515.172, 254.608
516.500, 225.199
517.827, 373.424
519.155, 282.864
520.482, 312.986
521.809, 467.057
523.136, 293.078
524.462, 327.050
525.789, 436.973
527.115, 422.845
528.441, 427.668
529.766, 398.441
531.092, 571.165
532.417, 568.841
533.742, 699.466
535.067, 579.043
536.391, 804.570
537.716, 626.049
539.040, 974.479
540.364, 776.860
541.688, 954.193
543.011, 804.478
544.334, 987.715
545.657, 980.903
546.980, 924.045
548.303, 1110.139
549.625, 1022.185
550.947, 1028.184
552.269, 836.137
553.591, 871.043
554.913, 796.902
556.234, 743.716
557.555, 396.630
558.876, 464.353
560.197, 131.029
561.517, 129.238
562.837, 103.798
564.157, 107.601
565.477, 244.099
566.797, 304.742
568.116, 351.449
569.435, 362.040
570.754, 352.924
572.073, 298.899
573.391, 278.278
574.709, 220.915
576.027, 168.774
577.345, 205.831
578.663, 15.897
579.980, 41.469
581.297, 91.041
582.614, 241.491
583.931, 226.902
585.248, 435.274
586.564, 467.609
587.880, 487.905
589.196, 590.165
590.511, 647.625
591.827, 759.439
593.142, 872.726
594.457, 1013.842
595.772, 1233.924
597.086, 1383.973
598.401, 1523.988
599.715, 1621.970
601.029, 1852.919
602.343, 2010.838
603.656, 2218.725
604.969, 2396.582
606.282, 2704.409
607.595, 2982.207
608.908, 3239.976
610.220, 3347.718
611.532, 3755.432
612.844, 3993.120
614.156, 4130.783
615.468, 4458.422
616.779, 4706.036
618.090, 4783.629
619.401, 5191.199
620.712, 5338.749
622.022, 5656.277
623.332, 5733.788
624.642, 5731.281
625.952, 6058.756
627.262, 6056.215
628.571, 6343.662
629.880, 6431.096
631.189, 6598.517
632.498, 6815.926
633.807, 6813.322
635.115, 6980.709
636.423, 7188.085
637.731, 7185.453
639.039, 7272.814
640.346, 7106.586
641.653, 6826.289
642.960, 6679.331
644.267, 6345.148
645.574, 5785.312
646.880, 5301.000
648.186, 4935.830
649.492, 4188.176
650.798, 3633.859
652.103, 3161.169
653.409, 2617.094
654.714, 2212.929
656.019, 1679.950
657.323, 1429.408
658.628, 1000.273
659.932, 787.881
661.236, 522.188
662.540, 256.497
663.843, 77.655
665.147, 39.545
666.450, 130.897
667.753, 227.889
669.056, 177.396
670.358, 331.506
671.660, 302.347
672.963, 308.243
674.264, 14.478
675.566, 162.492
676.868, 182.508
678.169, 162.530
679.470, 370.575
680.771, 479.644
682.071, 815.736
683.372, 1009.854
684.672, 1361.998
685.972, 1782.168
687.271, 2109.364
688.571, 2826.589
689.870, 3313.843
691.169, 3851.125
692.468, 4418.438
693.767, 4715.780
695.065, 4773.154
696.364, 4650.561
697.662, 4188.000
698.960, 3595.472
700.257, 3132.979
701.555, 2470.520
702.852, 2148.096
704.149, 1535.709
705.446, 1171.358
706.742, 988.046
708.038, 587.771
709.335, 545.535
710.631, 264.339
711.926, 142.183
713.222, 6.934
714.517, 21.990
715.812, 51.954
717.107, 197.365
718.402, 16.176
719.696, 152.992
720.990, 78.241
722.284, 86.010
723.578, 42.535
724.872, 75.886
726.165, 45.188
727.458, 239.994
728.751, 287.363
730.044, 539.209
731.336, 802.846
732.629, 1001.953
733.921, 1464.940
735.213, 1628.042
736.504, 1847.775
737.796, 2364.867
739.087, 2743.723
740.378, 2942.650
741.669, 3501.650
742.960, 3890.720
744.250, 4179.865
745.540, 4849.080
746.830, 4818.370
748.120, 5247.736
749.410, 5607.176
750.699, 5656.690
751.988, 6096.281
753.277, 5975.947
754.566, 6035.691
755.854, 5845.515
757.143, 5735.414
758.431, 5475.393
759.719, 5125.451
761.006, 4855.589
762.294, 4585.807
763.581, 4166.107
764.868, 3986.502
766.155, 3767.005
767.442, 3417.635
768.728, 3168.404
770.014, 3099.281
771.300, 2930.298
772.586, 2711.451
773.872, 2722.758
775.157, 2654.224
776.442, 2765.833
777.727, 2697.605
779.012, 2749.516
780.297, 2851.572
781.581, 2753.791
782.865, 2848.446
784.149, 3028.691
785.433, 2911.387
786.716, 2984.246
787.999, 2997.261
789.282, 2820.431
790.565, 3033.742
791.848, 3027.199
793.130, 3100.789
794.413, 3044.533
795.695, 2968.443
796.977, 2980.406
798.258, 2966.891
799.540, 2851.365
800.821, 3026.037
802.102, 2830.912
803.382, 2755.940
804.663, 2601.135
805.943, 2416.465
807.224, 2171.909
808.504, 2047.489
809.783, 2023.195
811.063, 1789.011
812.342, 1684.971
813.621, 1711.066
814.900, 1477.290
816.179, 1503.630
817.457, 1530.092
818.736, 1396.660
820.014, 1252.099
821.292, 1100.410
822.569, 1067.551
823.847, 1083.254
825.124, 834.569
826.401, 875.666
827.678, 613.688
828.954, 670.127
830.231, 635.399
831.507, 552.041
832.783, 693.784
834.059, 589.630
835.334, 718.580
836.610, 803.630
837.885, 799.783
839.160, 969.037
840.435, 1230.391
841.709, 1228.846
842.983, 1557.398
844.258, 1736.051
845.532, 1934.801
846.805, 2233.650
848.079, 2462.597
849.352, 2821.644
850.625, 3010.789
851.898, 3400.035
853.171, 3709.381
854.443, 3978.823
855.715, 4248.365
856.988, 4528.004
858.259, 4897.739
859.531, 5267.573
860.803, 5447.504
862.074, 5547.530
863.345, 5747.651
864.616, 6277.869
865.886, 6128.184
867.157, 6488.444
868.427, 6618.948
869.697, 6749.545
870.967, 6795.652
872.236, 6769.948
873.506, 6844.237
874.775, 6554.114
876.044, 6464.082
877.313, 6225.046
878.581, 6075.752
879.849, 6037.658
881.118, 5609.783
882.386, 5512.111
883.653, 5104.637
884.921, 5227.342
886.188, 4880.215
887.455, 4913.262
888.722, 4676.424
889.989, 4519.715
891.255, 4583.104
892.522, 4336.578
893.788, 4270.141
895.054, 4183.789
896.319, 4107.520
897.585, 4171.336
898.850, 4165.235
900.115, 4169.219
901.380, 4183.283
902.645, 4247.434
903.909, 4382.344
905.174, 4545.977
906.438, 4810.367
907.701, 4994.839
908.965, 5389.392
910.229, 5714.020
911.492, 6118.726
912.755, 6504.959
914.018, 6938.505
915.280, 7283.823
916.543, 7730.676
917.805, 8080.999
919.067, 8625.988
920.329, 9003.576
921.590, 9443.786
922.852, 9681.317
924.113, 10088.634
925.374, 10119.326
926.635, 10281.820
927.895, 10090.486
929.156, 10003.418
930.416, 9920.632
931.676, 9499.743
932.936, 9322.754
934.195, 9181.971
935.454, 8676.373
936.714, 8698.874
937.973, 8332.433
939.231, 8383.665
940.490, 8384.466
941.748, 7962.518
943.006, 8091.140
944.264, 8056.952
945.522, 7987.884
946.780, 8167.456
948.037, 8141.467
949.294, 8383.083
950.551, 8444.421
951.808, 8531.648
953.064, 8671.937
954.320, 8769.097
955.577, 8897.157
956.832, 9151.265
958.088, 9142.754
959.344, 9567.377
960.599, 9449.264
961.854, 9539.579
963.109, 9202.090
964.364, 9190.106
965.618, 8969.511
966.872, 8707.030
968.127, 8354.221
969.380, 8040.715
970.634, 7678.494
971.888, 7305.485
973.141, 7048.611
974.394, 6748.052
975.647, 6516.507
976.900, 6293.886
978.152, 6021.711
979.404, 5900.037
980.656, 5578.021
981.908, 5585.842
983.160, 5264.501
984.411, 5283.044
985.663, 5032.226
986.914, 4790.258
988.165, 4789.286
989.415, 4497.646
990.666, 4316.107
991.916, 4364.284
993.166, 4122.392
994.416, 4040.455
995.665, 3798.505
996.915, 3716.553
998.164, 3674.549
999.413, 3552.935
1000.662, 3551.309
1001.911, 3589.905
1003.159, 3462.019
1004.407, 3440.110
1005.655, 3323.767
1006.903, 3271.568
1008.151, 3240.446
1009.398, 3187.926
1010.646, 3096.782
1011.893, 3015.736
1013.139, 2929.336
1014.386, 2918.527
1015.633, 2790.543
1016.879, 2721.062
1018.125, 2797.986
1019.371, 2525.668
1020.616, 2575.326
1021.862, 2427.216
1023.107, 2410.727
1024.352, 2402.142
1025.597, 2265.735
1026.842, 2216.130
1028.086, 2183.496
1029.330, 2130.019
1030.574, 2175.073
1031.818, 2121.263
1033.062, 2225.222
1034.305, 2251.296
1035.548, 2160.532
1036.791, 2274.299
1038.034, 2421.268
1039.277, 2520.298
1040.519, 2806.929
1041.762, 2797.983
1043.004, 3012.838
1044.246, 3073.593
1045.487, 2909.184
1046.729, 2751.603
1047.970, 2507.162
1049.211, 2147.911
1050.452, 1992.193
1051.692, 1576.061
1052.933, 1384.502
1054.173, 1095.641
1055.413, 887.917
1056.653, 814.031
1057.893, 617.164
1059.132, 392.099
1060.371, 408.981
1061.610, 155.165
1062.849, 111.940
1064.088, 62.657
1065.326, 8.568
1066.565, 58.993
1067.803, 128.524
1069.041, 165.146
1070.278, 43.002
1071.516, 154.942
1072.753, 147.006
1073.990, 196.313
1075.227, 220.666
1076.464, 155.385
1077.700, 219.146
1078.936, 124.006
1080.173, 150.142
1081.408, 208.405
1082.644, 144.062
1083.880, 222.936
1085.115, 189.038
1086.350, 202.354
1087.585, 161.893
1088.820, 151.634
1090.054, 104.575
1091.288, 110.543
1092.522, 62.645
1093.756, 141.104
1094.990, 116.589
1096.224, 184.439
1097.457, 143.517
1098.690, 44.631
1099.923, 160.075
1101.156, 114.586
1102.388, 62.341
1103.621, 74.373
1104.853, 9.079
1106.085, 38.605
1107.316, 12.861
1108.548, 35.918
1109.779, 76.226
1111.010, 28.697
1112.241, 192.062
1113.472, 117.158
1114.703, 274.057
1115.933, 360.951
1117.163, 319.752
1118.393, 519.620
1119.623, 434.408
1120.853, 446.318
1122.082, 626.953
1123.311, 484.282
1124.540, 407.741
1125.769, 321.190
1126.997, 255.288
1128.226, 309.647
1129.454, 359.524
1130.682, 234.300
1131.910, 250.360
1133.138, 202.018
1134.365, 329.531
1135.592, 219.141
1136.819, 287.398
1138.046, 278.995
1139.273, 316.025
1140.499, 330.372
1141.725, 344.173
1142.951, 350.049
1144.177, 352.985
1145.403, 367.985
1146.628, 307.616
1147.854, 311.337
1149.079, 286.924
1150.304, 346.506
1151.528, 353.033
1152.753, 285.185
1153.977, 423.079
1155.201, 405.246
1156.425, 309.958
1157.649, 409.921
1158.872, 385.452
1160.096, 468.997
1161.319, 347.675
1162.542, 368.970
1163.764, 484.811
1164.987, 385.866
1166.209, 441.826
1167.431, 444.964
1168.653, 391.733
1169.875, 479.407
1171.097, 503.483
1172.318, 458.049
1173.539, 503.438
1174.760, 508.314
1175.981, 464.516
1177.202, 572.643
1178.422, 534.792
1179.642, 583.771
1180.862, 549.786
1182.082, 504.578
1183.302, 609.349
1184.521, 554.201
1185.740, 531.667
1186.959, 641.455
1188.178, 510.044
1189.397, 549.231
1190.615, 564.424
1191.834, 594.663
1193.052, 647.665
1194.269, 583.728
1195.487, 528.524
1196.705, 692.360
1197.922, 480.260
1199.139, 571.708
1200.356, 634.464
1201.573, 590.046
1202.789, 617.218
1204.006, 601.480
1205.222, 644.468
1206.438, 640.587
1207.653, 553.704
1208.869, 645.419
1210.084, 659.985
1211.299, 612.203
1212.514, 711.804
1213.729, 635.153
1214.944, 612.586
1216.158, 685.406
1217.372, 607.599
1218.586, 585.440
1219.800, 614.477
1221.014, 543.213
1222.227, 573.032
1223.440, 520.758
1224.654, 477.764
1225.866, 493.697
1227.079, 468.145
1228.292, 495.367
1229.504, 518.345
1230.716, 535.268
1231.928, 535.910
1233.139, 505.397
1234.351, 436.867
1235.562, 430.131
1236.773, 371.151
1237.984, 348.609
1239.195, 442.781
1240.406, 333.184
1241.616, 404.544
1242.826, 378.439
1244.036, 292.705
1245.246, 341.448
1246.456, 274.835
1247.665, 273.344
1248.874, 318.951
1250.083, 158.625
1251.292, 263.219
1252.501, 265.397
1253.709, 165.006
1254.917, 242.717
1256.125, 173.968
1257.333, 162.986
1258.541, 204.463
1259.748, 224.600
1260.956, 204.611
1262.163, 205.854
1263.370, 170.879
1264.576, 169.359
1265.783, 119.636
1266.989, 164.970
1268.195, 217.229
1269.401, 165.637
1270.607, 146.597
1271.813, 208.043
1273.018, 122.014
1274.223, 214.348
1275.428, 215.750
1276.633, 123.484
1277.838, 195.077
1279.042, 202.995
1280.246, 157.444
1281.450, 215.417
1282.654, 110.010
1283.858, 253.851
1285.061, 184.532
1286.265, 165.508
1287.468, 187.750
1288.671, 149.410
1289.873, 110.128
1291.076, 174.901
1292.278, 128.076
1293.480, 135.411
1294.682, 111.446
1295.884, 99.742
1297.086, 169.132
1298.287, 205.817
1299.488, 115.345
1300.689, 261.146
1301.890, 116.817
1303.091, 205.064
1304.291, 173.158
1305.491, 117.627
1306.691, 185.320
1307.891, 38.358
1309.091, 210.674
1310.290, 229.646
1311.490, 124.691
1312.689, 209.844
1313.888, 207.854
1315.086, 65.930
1316.285, 164.278
1317.483, 194.177
1318.681, 41.227
1319.879, 227.338
1321.077, 171.132
1322.275, 142.405
1323.472, 160.743
1324.669, 128.923
1325.866, 158.106
1327.063, 139.490
1328.260, 96.671
1329.456, 185.706
1330.653, 63.726
1331.849, 87.842
1333.045, 165.541
1334.240, 134.449
1335.436, 99.229
1336.631, 132.372
1337.826, 94.318
1339.021, 134.055
1340.216, 100.687
1341.411, 61.489
1342.605, 198.856
1343.799, 47.333
1344.993, 65.039
1346.187, 206.526
1347.381, 94.096
1348.574, 209.572
1349.767, 81.168
1350.961, 57.708
1352.153, 156.863
1353.346, 109.362
1354.539, 110.795
1355.731, 181.260
1356.923, 66.644
1358.115, 123.014
1359.307, 164.446
1360.498, 112.854
1361.690, 145.235
1362.881, 131.742
1364.072, 89.205
1365.263, 228.556
1366.453, 89.512
1367.644, 12.045
1368.834, 148.378
1370.024, 56.929
1371.214, 100.408
1372.404, 105.850
1373.593, 65.278
1374.783, 119.625
1375.972, 66.221
1377.161, 3.156
1378.349, 159.141
1379.538, 86.923
1380.726, 76.018
1381.915, 179.490
1383.103, 2.983
1384.290, 111.586
1385.478, 139.092
1386.665, 106.179
1387.853, 122.898
1389.040, 83.409
1390.227, 126.391
1391.413, 151.291
1392.600, 103.828
1393.786, 122.077
1394.972, 230.767
1396.158, 14.691
1397.344, 166.763
1398.530, 134.232
1399.715, 90.019
1400.900, 95.701
1402.085, 61.198
1403.270, 54.805
1404.455, 68.109
1405.639, 31.356
1406.824, 65.844
1408.008, 129.791
1409.192, 59.596
1410.375, 185.118
1411.559, 29.637
1412.742, 58.005
1413.925, 150.966
1415.108, 73.922
1416.291, 58.510
1417.474, 145.786
1418.656, 24.646
1419.839, 103.799
1421.021, 72.559
1422.202, 7.808
1423.384, 143.917
1424.566, 91.462
1425.747, 5.647
1426.928, 84.200
1428.109, 7.699
1429.290, 12.771
1430.470, 137.375
1431.651, 47.785
1432.831, 35.341
1434.011, 102.146
1435.191, 25.384
1436.370, 32.415
1437.550, 104.504
1438.729, 46.666
1439.908, 66.584
1441.087, 57.908
1442.266, 33.897
1443.444, 176.086
1444.623, 57.908
1445.801, 82.498
1446.979, 58.687
1448.157, 19.857
1449.334, 37.655
1450.512, 80.120
1451.689, 50.971
1452.866, 122.608
1454.043, 48.228
1455.220, 19.891
1456.396, 115.577
1457.573, 30.910
1458.749, 84.621
1459.925, 163.354
1461.100, 66.643
1462.276, 87.586
1463.451, 72.210
1464.627, 18.196
1465.802, 127.883
1466.977, 47.719
1468.151, 1.588
1469.326, 154.738
1470.500, 65.394
1471.674, 40.364
1472.848, 165.163
1474.022, 78.602
1475.195, 62.300
1476.369, 244.856
1477.542, 39.698
1478.715, 150.260
1479.888, 102.809
1481.061, 57.177
1482.233, 92.209
1483.405, 33.490
1484.577, 93.029
1485.749, 121.696
1486.921, 135.994
1488.093, 149.921
1489.264, 150.761
1490.435, 102.140
1491.606, 174.501
1492.777, 129.767
1493.948, 90.281
1495.118, 220.779
1496.288, 57.640
1497.459, 112.675
1498.628, 219.692
1499.798, 76.176
1500.968, 125.684
1502.137, 213.938
1503.306, 73.024
1504.475, 194.783
1505.644, 196.910
1506.813, 14.070
1507.981, 238.982
1509.149, 107.896
1510.318, 114.694
1511.485, 301.430
1512.653, 105.079
1513.821, 95.061
1514.988, 120.293
1516.155, 0.433
1517.322, 0.000
##END=



