##NAMES=Vivianite
##RRUFFID=R040185
##IDEAL CHEMISTRY=Fe^2+^_3_(PO_4_)_2_&#183;8H_2_O
##LOCALITY=Siglo XX mine, Llallagua, Bustillos, Potosi, Bolivia
##OWNER=RRUFF
##SOURCE=University of Arizona Mineral Museum
##DESCRIPTION=Green acicular single crystal
##STATUS=The identification of this mineral has been confirmed by X-ray diffraction and chemical analysis
##URL=rruff.info/R040185
##MEASURED CHEMISTRY=(Fe_1.00_Mn_0.01_)_3_(P_0.97_Si_0.03_O_3.94_F_0.07_)_2_Â·8H_2_O
##PIN_ID=L00515
##ORIENTATION=Laser parallel to -a* (-1 0 0). Fiducial mark perpendicular to laser is parallel to b [0 1 0]
120.855, 0.000
122.249, 36.637
123.643, 117.535
125.036, 168.330
126.430, 313.206
127.823, 352.843
129.216, 391.905
130.608, 415.511
132.001, 306.085
133.393, 220.377
134.785, 134.039
136.176, 52.769
137.568, 9.359
138.959, 54.679
140.350, 37.625
141.741, 42.107
143.131, 75.051
144.521, 97.541
145.911, 135.144
147.301, 204.897
148.691, 250.794
150.080, 336.819
151.469, 381.958
152.858, 379.608
154.247, 354.896
155.635, 329.334
157.024, 226.158
158.411, 151.125
159.799, 87.206
161.187, 50.374
162.574, 66.608
163.961, 42.676
165.348, 66.975
166.734, 77.915
168.121, 36.049
169.507, 88.951
170.893, 123.937
172.278, 93.025
173.664, 160.208
175.049, 133.455
176.434, 183.717
177.819, 279.979
179.203, 331.238
180.587, 472.510
181.971, 655.890
183.355, 870.545
184.739, 1036.613
186.122, 1257.041
187.505, 1308.747
188.888, 1311.587
190.271, 1199.501
191.653, 973.384
193.035, 787.189
194.417, 583.893
195.799, 479.483
197.180, 349.962
198.562, 314.334
199.943, 240.603
201.324, 232.774
202.704, 126.848
204.084, 64.832
205.465, 47.743
206.844, 12.403
208.224, 4.596
209.603, 31.831
210.983, 72.767
212.362, 35.032
213.740, 32.216
215.119, 8.592
216.497, 53.035
217.875, 91.845
219.253, 157.340
220.631, 252.811
222.008, 319.432
223.385, 469.522
224.762, 630.193
226.139, 699.781
227.515, 851.112
228.891, 893.037
230.267, 865.395
231.643, 798.584
233.018, 684.748
234.394, 668.888
235.769, 599.004
237.144, 618.096
238.518, 579.399
239.893, 581.520
241.267, 514.672
242.641, 424.967
244.014, 364.932
245.388, 243.944
246.761, 145.306
248.134, 132.207
249.507, 94.113
250.879, 103.498
252.252, 64.800
253.624, 90.143
254.996, 57.241
256.367, 45.720
257.739, 55.105
259.110, 61.693
260.481, 70.597
261.852, 59.046
263.222, 51.599
264.592, 80.070
265.962, 89.095
267.332, 123.719
268.702, 113.208
270.071, 148.675
271.440, 174.120
272.809, 160.543
274.178, 171.942
275.546, 213.318
276.915, 178.670
278.283, 173.999
279.650, 210.304
281.018, 174.586
282.385, 161.845
283.752, 147.080
285.119, 130.293
286.486, 149.806
287.852, 146.629
289.218, 142.638
290.584, 114.779
291.950, 104.016
293.316, 109.326
294.681, 82.694
296.046, 79.108
297.411, 94.557
298.775, 93.033
300.140, 37.531
301.504, 77.043
302.868, 106.567
304.231, 65.099
305.595, 107.636
306.958, 106.175
308.321, 131.714
309.684, 118.246
311.047, 90.771
312.409, 89.287
313.771, 71.793
315.133, 55.289
316.495, 26.773
317.856, 28.990
319.217, 54.703
320.578, 29.146
321.939, 41.573
323.299, 40.985
324.660, 15.379
326.020, 38.755
327.380, 32.113
328.739, 61.452
330.099, 25.760
331.458, 46.999
332.817, 51.207
334.176, 63.399
335.534, 78.575
336.892, 108.734
338.251, 122.877
339.608, 138.003
340.966, 170.111
342.323, 185.205
343.681, 209.281
345.037, 224.340
346.394, 241.385
347.751, 243.413
349.107, 230.425
350.463, 196.420
351.819, 178.390
353.174, 152.342
354.530, 105.268
355.885, 86.167
357.240, 52.047
358.594, 44.904
359.949, 29.733
361.303, 14.536
362.657, 9.312
364.011, 14.056
365.365, 0.771
366.718, 38.544
368.071, 21.900
369.424, 25.295
370.777, 16.936
372.129, 10.468
373.481, 40.726
374.833, 26.676
376.185, 31.130
377.537, 23.535
378.888, 6.326
380.239, 8.014
381.590, 34.739
382.941, 27.507
384.291, 4.319
385.642, 4.169
386.992, 16.941
388.341, 15.017
389.691, 5.059
391.040, 11.065
392.389, 4.960
393.738, 42.982
395.087, 21.898
396.435, 52.787
397.784, 35.652
399.132, 37.491
400.479, 81.305
401.827, 79.096
403.174, 98.859
404.521, 76.591
405.868, 116.280
407.215, 105.929
408.561, 151.508
409.908, 179.028
411.254, 160.484
412.599, 224.877
413.945, 251.220
415.290, 287.507
416.636, 323.740
417.980, 347.934
419.325, 394.614
420.670, 430.210
422.014, 476.299
423.358, 516.362
424.702, 545.402
426.045, 538.422
427.389, 558.423
428.732, 523.406
430.075, 511.373
431.417, 481.324
432.760, 465.260
434.102, 422.181
435.444, 431.086
436.786, 378.976
438.127, 396.851
439.469, 391.711
440.810, 428.556
442.151, 464.385
443.492, 490.200
444.832, 551.999
446.172, 592.900
447.512, 671.608
448.852, 709.308
450.192, 837.045
451.531, 924.764
452.870, 997.465
454.209, 1067.146
455.548, 1154.808
456.887, 1147.449
458.225, 1165.071
459.563, 1108.672
460.901, 1020.253
462.238, 976.628
463.576, 896.141
464.913, 775.659
466.250, 693.066
467.587, 610.542
468.923, 575.997
470.259, 536.430
471.596, 500.842
472.931, 452.243
474.267, 416.581
475.603, 372.817
476.938, 341.014
478.273, 286.011
479.608, 298.928
480.942, 308.034
482.276, 292.928
483.611, 260.895
484.944, 233.909
486.278, 240.539
487.612, 242.488
488.945, 236.850
490.278, 246.018
491.611, 219.053
492.943, 207.027
494.276, 217.020
495.608, 215.917
496.940, 219.071
498.271, 249.141
499.603, 231.309
500.934, 258.349
502.265, 238.902
503.596, 264.040
504.927, 272.042
506.257, 234.084
507.587, 305.559
508.917, 293.722
510.247, 288.134
511.577, 314.040
512.906, 303.325
514.235, 329.178
515.564, 306.828
516.892, 363.797
518.221, 390.243
519.549, 375.347
520.877, 388.572
522.205, 412.450
523.533, 482.886
524.860, 457.646
526.187, 466.406
527.514, 445.929
528.841, 439.791
530.167, 457.386
531.493, 446.623
532.820, 483.354
534.145, 504.809
535.471, 516.926
536.796, 482.074
538.122, 511.113
539.447, 510.900
540.771, 569.493
542.096, 581.529
543.420, 573.801
544.744, 550.751
546.068, 580.417
547.392, 573.198
548.715, 573.817
550.039, 590.937
551.362, 575.623
552.684, 579.268
554.007, 563.332
555.329, 580.049
556.652, 586.469
557.973, 602.587
559.295, 608.946
560.617, 647.628
561.938, 663.271
563.259, 748.141
564.580, 816.724
565.901, 828.198
567.221, 930.974
568.541, 1025.392
569.861, 1115.442
571.181, 1135.553
572.501, 1085.396
573.820, 1026.419
575.139, 931.429
576.458, 872.428
577.777, 790.414
579.095, 728.504
580.414, 691.467
581.732, 673.418
583.049, 656.357
584.367, 614.286
585.685, 598.202
587.002, 561.108
588.319, 562.003
589.636, 517.887
590.952, 508.759
592.268, 497.621
593.585, 498.472
594.900, 472.312
596.216, 441.142
597.532, 438.961
598.847, 374.769
600.162, 387.567
601.477, 388.355
602.792, 400.133
604.106, 320.900
605.420, 302.657
606.734, 297.404
608.048, 330.141
609.361, 312.868
610.675, 274.586
611.988, 258.294
613.301, 247.991
614.614, 228.680
615.926, 186.359
617.238, 201.029
618.550, 178.689
619.862, 147.341
621.174, 149.984
622.485, 147.619
623.797, 138.244
625.108, 143.862
626.418, 115.153
627.729, 122.071
629.039, 79.663
630.349, 59.247
631.659, 85.822
632.969, 66.390
634.279, 48.950
635.588, 43.502
636.897, 58.048
638.206, 46.588
639.515, 45.121
640.823, 43.648
642.131, 22.169
643.439, 15.682
644.747, 15.191
646.055, 0.308
647.362, 7.183
648.669, 1.665
649.976, 7.138
651.283, 6.155
652.589, 20.061
653.896, 3.513
655.202, 8.956
656.508, 5.392
657.814, 21.820
659.119, 2.758
660.424, 3.652
661.729, 13.054
663.034, 12.550
664.339, 4.170
665.643, 15.801
666.947, 20.449
668.251, 5.884
669.555, 19.788
670.859, 6.521
672.162, 8.825
673.465, 20.875
674.768, 17.592
676.071, 10.678
677.373, 6.053
678.676, 9.790
679.978, 5.470
681.280, 11.733
682.581, 16.001
683.883, 3.737
685.184, 2.540
686.485, 3.830
687.786, 15.134
689.087, 22.550
690.387, 0.236
691.687, 21.904
692.987, 6.568
694.287, 9.220
695.586, 0.863
696.886, 1.503
698.185, 4.121
699.484, 29.271
700.783, 6.323
702.081, 24.092
703.379, 1.484
704.677, 17.945
705.975, 16.380
707.273, 3.177
708.570, 5.729
709.868, 3.729
711.165, 22.190
712.462, 45.657
713.758, 2.874
715.055, 9.401
716.351, 11.073
717.647, 32.549
718.943, 3.974
720.238, 8.504
721.533, 18.017
722.829, 12.458
724.124, 15.065
725.418, 16.407
726.713, 7.120
728.007, 22.648
729.301, 24.816
730.595, 5.282
731.889, 5.748
733.182, 13.214
734.476, 6.319
735.769, 30.148
737.061, 13.616
738.354, 8.085
739.647, 22.555
740.939, 34.027
742.231, 49.499
743.523, 46.973
744.814, 34.449
746.106, 58.926
747.397, 19.405
748.688, 49.885
749.978, 49.368
751.269, 76.852
752.559, 44.339
753.849, 61.827
755.139, 76.318
756.429, 47.811
757.719, 64.306
759.008, 69.804
760.297, 56.304
761.586, 60.807
762.875, 75.312
764.163, 96.821
765.451, 55.332
766.739, 87.846
768.027, 64.364
769.315, 76.884
770.602, 56.408
771.890, 80.935
773.177, 69.465
774.463, 67.999
775.750, 108.536
777.036, 87.341
778.323, 100.333
779.609, 71.170
780.894, 97.722
782.180, 78.278
783.465, 66.838
784.750, 75.402
786.035, 74.941
787.320, 103.514
788.605, 80.090
789.889, 102.613
791.173, 103.122
792.457, 66.701
793.741, 121.241
795.024, 73.784
796.307, 93.330
797.591, 113.796
798.873, 94.244
800.156, 76.699
801.439, 78.647
802.721, 76.448
804.003, 93.111
805.285, 103.499
806.566, 86.878
807.848, 123.413
809.129, 98.735
810.410, 112.246
811.691, 102.703
812.971, 114.294
814.252, 111.286
815.532, 117.797
816.812, 113.428
818.092, 136.969
819.371, 151.073
820.651, 170.484
821.930, 148.632
823.209, 178.274
824.488, 162.529
825.766, 176.202
827.045, 167.897
828.323, 170.096
829.601, 191.688
830.878, 182.428
832.156, 176.733
833.433, 195.839
834.710, 159.609
835.987, 168.421
837.264, 199.241
838.540, 134.813
839.817, 166.632
841.093, 143.469
842.369, 160.374
843.644, 145.955
844.920, 169.238
846.195, 155.963
847.470, 140.663
848.745, 139.555
850.020, 109.438
851.294, 102.380
852.568, 111.170
853.842, 100.151
855.116, 106.879
856.390, 114.874
857.663, 95.822
858.936, 93.832
860.209, 77.849
861.482, 95.786
862.755, 77.643
864.027, 81.683
865.299, 82.730
866.571, 49.785
867.843, 64.786
869.115, 109.574
870.386, 52.653
871.657, 14.740
872.928, 56.754
874.199, 42.855
875.470, 67.326
876.740, 15.443
878.010, 65.100
879.280, 53.232
880.550, 44.217
881.820, 90.558
883.089, 37.713
884.358, 88.876
885.627, 62.047
886.896, 54.227
888.164, 89.298
889.433, 28.494
890.701, 48.697
891.969, 69.908
893.236, 43.127
894.504, 95.354
895.771, 85.590
897.038, 59.835
898.305, 113.087
899.572, 74.348
900.838, 84.616
902.105, 147.893
903.371, 104.177
904.637, 108.469
905.902, 151.769
907.168, 134.078
908.433, 129.394
909.698, 133.723
910.963, 152.666
912.228, 174.291
913.492, 214.759
914.757, 234.120
916.021, 270.489
917.285, 290.871
918.548, 281.261
919.812, 310.658
921.075, 338.399
922.338, 341.478
923.601, 420.899
924.864, 488.329
926.126, 550.767
927.388, 589.213
928.650, 644.667
929.912, 746.129
931.174, 878.599
932.435, 940.077
933.697, 1099.562
934.958, 1141.056
936.218, 1401.558
937.479, 1601.068
938.739, 1868.586
940.000, 2332.112
941.260, 2708.645
942.520, 3380.187
943.779, 4203.738
945.039, 5154.294
946.298, 6608.862
947.557, 8064.437
948.816, 9381.022
950.074, 10740.616
951.333, 10610.217
952.591, 10059.828
953.849, 8929.453
955.107, 7189.083
956.365, 6067.725
957.622, 4655.376
958.879, 3754.037
960.136, 3053.982
961.393, 2409.798
962.650, 2074.618
963.906, 1676.431
965.162, 1362.142
966.418, 1231.511
967.674, 996.598
968.930, 909.420
970.185, 783.001
971.441, 705.905
972.696, 664.784
973.950, 568.716
975.205, 522.655
976.459, 485.995
977.714, 443.206
978.968, 429.196
980.222, 398.113
981.475, 373.963
982.729, 350.847
983.982, 302.713
985.235, 322.975
986.488, 335.570
987.740, 233.461
988.993, 264.111
990.245, 270.021
991.497, 259.937
992.749, 225.991
994.000, 228.920
995.252, 251.167
996.503, 233.421
997.754, 258.379
999.005, 289.355
1000.256, 219.329
1001.506, 293.309
1002.756, 305.297
1004.006, 345.292
1005.256, 420.292
1006.506, 373.298
1007.755, 478.311
1009.005, 574.329
1010.254, 561.353
1011.502, 677.382
1012.751, 783.437
1014.000, 884.478
1015.248, 977.601
1016.496, 935.653
1017.744, 1087.717
1018.991, 1006.864
1020.239, 904.380
1021.486, 916.453
1022.733, 688.531
1023.980, 687.615
1025.227, 631.705
1026.473, 511.802
1027.719, 512.904
1028.965, 434.013
1030.211, 427.126
1031.457, 434.318
1032.702, 461.445
1033.948, 449.576
1035.193, 459.974
1036.438, 392.114
1037.682, 426.258
1038.927, 464.408
1040.171, 516.562
1041.415, 601.722
1042.659, 736.007
1043.903, 882.287
1045.146, 1060.459
1046.390, 1301.837
1047.633, 1473.017
1048.876, 1539.237
1050.118, 1470.387
1051.361, 1632.577
1052.603, 1676.771
1053.845, 1755.968
1055.087, 1583.169
1056.329, 1386.373
1057.571, 1274.580
1058.812, 1012.962
1060.053, 772.176
1061.294, 654.393
1062.535, 527.613
1063.775, 501.836
1065.016, 375.080
1066.256, 377.291
1067.496, 338.522
1068.736, 256.756
1069.975, 272.992
1071.214, 266.232
1072.454, 262.474
1073.693, 256.718
1074.931, 239.170
1076.170, 217.261
1077.408, 205.512
1078.647, 187.786
1079.885, 180.370
1081.122, 162.303
1082.360, 156.565
1083.597, 135.828
1084.835, 137.094
1086.072, 100.368
1087.308, 129.638
1088.545, 94.911
1089.781, 99.185
1091.018, 41.462
1092.254, 37.769
1093.490, 45.048
1094.725, 68.382
1095.961, 54.664
1097.196, 47.359
1098.431, 11.838
1099.666, 70.124
1100.900, 14.412
1102.135, 28.791
1103.369, 64.081
1104.603, 19.371
1105.837, 26.908
1107.071, 31.209
1108.304, 7.157
1109.538, 3.693
1110.771, 23.379
1112.004, 2.856
1113.236, 16.439
1114.469, 31.255
1115.701, 7.957
1116.933, 1.693
1118.165, 33.350
1119.397, 38.078
1120.629, 1.850
1121.860, 2.624
1123.091, 21.399
1124.322, 1.185
1125.553, 13.027
1126.783, 9.239
1128.014, 0.549
1129.244, 5.681
1130.474, 34.053
1131.704, 16.258
1132.933, 23.323
1134.163, 12.035
1135.392, 10.397
1136.621, 28.389
1137.850, 33.769
1139.079, 5.964
1140.307, 33.880
1141.535, 16.341
1142.763, 3.496
1143.991, 3.355
1145.219, 24.844
1146.446, 15.020
1147.674, 29.105
1148.901, 17.229
1150.128, 4.352
1151.354, 30.934
1152.581, 26.209
1153.807, 45.330
1155.033, 22.584
1156.259, 9.702
1157.485, 39.817
1158.710, 17.020
1159.936, 5.137
1161.161, 30.308
1162.386, 3.431
1163.611, 24.535
1164.835, 6.641
1166.060, 2.746
1167.284, 2.157
1168.508, 9.969
1169.732, 12.112
1170.955, 12.828
1172.179, 18.650
1173.402, 12.730
1174.625, 16.832
1175.848, 11.907
1177.070, 23.980
1178.293, 6.090
1179.515, 24.187
1180.737, 33.284
1181.959, 2.385
1183.181, 15.440
1184.402, 46.700
1185.624, 18.846
1186.845, 12.892
1188.066, 27.418
1189.286, 16.458
1190.507, 4.494
1191.727, 24.563
1192.947, 5.594
1194.167, 30.626
1195.387, 40.645
1196.607, 32.659
1197.826, 46.589
1199.045, 16.677
1200.264, 49.680
1201.483, 24.679
1202.702, 18.681
1203.920, 55.673
1205.138, 9.267
1206.356, 38.707
1207.574, 56.704
1208.792, 28.669
1210.009, 65.630
1211.227, 16.587
1212.444, 5.460
1213.661, 51.480
1214.877, 140.415
1216.094, 84.534
1217.310, 54.315
1218.526, 31.238
1219.742, 44.156
1220.958, 44.069
1222.173, 16.978
1223.389, 56.894
1224.604, 21.261
1225.819, 42.155
1227.034, 40.045
1228.248, 36.984
1229.463, 53.864
1230.677, 45.815
1231.891, 26.759
1233.105, 61.625
1234.318, 60.832
1235.532, 43.739
1236.745, 75.653
1237.958, 23.536
1239.171, 39.377
1240.384, 21.212
1241.596, 39.064
1242.809, 7.888
1244.021, 14.707
1245.233, 38.520
1246.444, 38.327
1247.656, 20.195
1248.867, 57.045
1250.079, 40.881
1251.290, 13.801
1252.500, 32.578
1253.711, 7.649
1254.921, 16.843
1256.132, 29.470
1257.342, 13.226
1258.552, 31.042
1259.761, 28.785
1260.971, 25.914
1262.180, 49.289
1263.389, 19.959
1264.598, 25.914
1265.807, 32.522
1267.015, 41.132
1268.223, 49.730
1269.432, 49.587
1270.640, 46.686
1271.847, 47.677
1273.055, 32.369
1274.262, 26.060
1275.470, 18.756
1276.677, 12.455
1277.883, 7.853
1279.090, 12.495
1280.296, 5.232
1281.503, 19.101
1282.709, 34.045
1283.915, 18.986
1285.120, 37.667
1286.326, 11.175
1287.531, 23.919
1288.736, 36.280
1289.941, 14.615
1291.146, 52.508
1292.350, 34.114
1293.555, 37.848
1294.759, 36.542
1295.963, 0.857
1297.167, 8.545
1298.370, 50.213
1299.574, 9.802
1300.777, 47.407
1301.980, 35.987
1303.183, 13.564
1304.386, 29.229
1305.588, 16.790
1306.790, 27.385
1307.993, 58.924
1309.195, 30.481
1310.396, 30.018
1311.598, 56.433
1312.799, 22.561
1314.000, 18.144
1315.201, 7.672
1316.402, 7.564
1317.603, 48.729
1318.803, 26.242
1320.003, 45.752
1321.203, 62.256
1322.403, 22.755
1323.603, 25.218
1324.802, 24.708
1326.002, 23.194
1327.201, 47.443
1328.400, 6.920
1329.599, 14.392
1330.797, 58.859
1331.995, 0.685
1333.194, 37.760
1334.392, 48.196
1335.589, 24.395
1336.787, 32.796
1337.985, 30.984
1339.182, 79.370
1340.379, 77.510
1341.576, 97.110
1342.772, 80.465
1343.969, 85.815
1345.165, 36.157
1346.361, 32.493
1347.557, 54.822
1348.753, 18.144
1349.949, 42.288
1351.144, 26.597
1352.339, 37.899
1353.534, 43.226
1354.729, 43.513
1355.924, 57.774
1357.118, 49.198
1358.312, 38.462
1359.506, 47.718
1360.700, 22.968
1361.894, 37.211
1363.088, 62.447
1364.281, 46.677
1365.474, 62.902
1366.667, 30.072
1367.860, 1.715
1369.052, 44.470
1370.245, 36.668
1371.437, 19.903
1372.629, 47.084
1373.821, 16.345
1375.013, 16.516
1376.204, 53.675
1377.395, 0.143
1378.586, 21.293
1379.777, 18.478
1380.968, 24.540
1382.159, 34.506
1383.349, 36.526
1384.539, 27.837
1385.729, 47.666
1386.919, 46.905
1388.109, 49.426
1389.298, 67.584
1390.487, 15.567
1391.676, 17.743
1392.865, 19.855
1394.054, 8.177
1395.242, 42.477
1396.431, 41.855
1397.619, 58.268
1398.807, 37.687
1399.995, 9.099
1401.182, 5.417
1402.370, 35.434
1403.557, 22.428
1404.744, 35.798
1405.931, 26.172
1407.118, 17.472
1408.304, 24.806
1409.490, 35.215
1410.676, 25.622
1411.862, 29.252
1413.048, 29.116
1414.234, 18.832
1415.419, 35.075
1416.604, 14.333
1417.789, 29.681
1418.974, 21.021
1420.159, 3.755
1421.343, 17.080
1422.528, 0.375
1423.712, 3.699
1424.896, 23.916
1426.079, 0.122
1427.263, 24.130
1428.446, 38.288
1429.629, 29.137
1430.812, 23.086
1431.995, 28.344
1433.178, 0.621
1434.360, 48.895
1435.543, 10.165
1436.725, 14.422
1437.907, 64.577
1439.088, 8.192
1440.270, 16.083
1441.451, 43.364
1442.632, 28.651
1443.813, 54.865
1444.994, 56.150
1446.175, 14.415
1447.355, 29.849
1448.535, 25.024
1449.715, 19.158
1450.895, 32.292
1452.075, 39.794
1453.255, 45.859
1454.434, 57.124
1455.613, 21.346
1456.792, 38.613
1457.971, 62.744
1459.149, 29.804
1460.328, 68.787
1461.506, 59.064
1462.684, 40.826
1463.862, 171.892
1465.040, 24.060
1466.217, 57.105
1467.395, 101.272
1468.572, 27.410
1469.749, 64.477
1470.925, 95.494
1472.102, 60.558
1473.278, 93.171
1474.455, 70.976
1475.631, 35.178
1476.807, 77.198
1477.982, 30.825
1479.158, 77.881
1480.333, 82.410
1481.508, 47.013
1482.683, 72.911
1483.858, 74.589
1485.033, 25.301
1486.207, 43.600
1487.381, 51.899
1488.555, 29.502
1489.729, 76.099
1490.903, 51.436
1492.076, 40.858
1493.250, 57.304
1494.423, 15.703
1495.596, 41.839
1496.769, 74.949
1497.941, 1.130
1499.114, 23.261
1500.286, 21.419
1501.458, 34.672
1502.630, 105.078
1503.802, 29.539
1504.973, 24.054
1506.145, 65.579
1507.316, 25.099
1508.487, 70.628
1509.657, 48.011
1510.828, 39.718
1511.999, 8.551
1513.169, 35.115
1514.339, 4.709
1515.509, 44.309
1516.678, 72.911
1517.848, 1.441
1519.017, 41.252
1520.187, 11.084
1521.356, 19.943
1522.524, 5.558
1523.693, 0.000
##END=



