##NAMES=Vivianite
##RRUFFID=R040185
##IDEAL CHEMISTRY=Fe^2+^_3_(PO_4_)_2_&#183;8H_2_O
##LOCALITY=Siglo XX mine, Llallagua, Bustillos, Potosi, Bolivia
##OWNER=RRUFF
##SOURCE=University of Arizona Mineral Museum
##DESCRIPTION=Green acicular single crystal
##STATUS=The identification of this mineral has been confirmed by X-ray diffraction and chemical analysis
##URL=rruff.info/R040185
##MEASURED CHEMISTRY=(Fe_1.00_Mn_0.01_)_3_(P_0.97_Si_0.03_O_3.94_F_0.07_)_2_Â·8H_2_O
##PIN_ID=M00228
##ORIENTATION=Laser parallel to (-1 0 -1). Fiducial mark perpendicular to laser is parallel to b [0 1 0]
102.428, 0.000
103.820, 7.059
105.212, 96.099
106.604, 7.828
107.995, 32.201
109.387, 8.913
110.777, 362.218
112.168, 577.428
113.559, 874.143
114.949, 970.450
116.339, 1034.811
117.729, 1265.982
119.119, 1792.955
120.508, 2435.005
121.897, 3011.687
123.286, 3692.629
124.675, 4597.363
126.063, 5155.422
127.452, 5226.391
128.840, 5129.909
130.228, 4385.674
131.615, 3543.437
133.003, 2992.955
134.390, 2364.024
135.777, 1996.594
137.164, 1920.905
138.550, 1657.165
139.937, 1515.436
141.323, 1415.759
142.709, 1587.833
144.094, 1761.082
145.480, 2005.223
146.865, 2156.397
148.250, 2415.582
149.635, 2541.576
151.019, 2688.001
152.403, 2954.784
153.788, 2951.866
155.171, 2999.193
156.555, 3116.802
157.939, 3244.761
159.322, 3432.963
160.705, 3459.776
162.088, 3459.588
163.470, 3507.934
164.853, 3316.283
166.235, 3254.869
167.617, 2914.460
168.998, 2726.482
170.380, 2151.512
171.761, 2119.502
173.142, 1599.779
174.523, 1361.609
175.904, 1236.254
177.284, 1149.564
178.664, 1217.944
180.044, 1375.940
181.424, 1631.790
182.803, 1844.470
184.183, 2383.459
185.562, 2851.153
186.940, 3178.147
188.319, 3554.527
189.698, 3832.800
191.076, 4065.707
192.454, 4250.607
193.831, 4315.094
195.209, 4360.331
196.586, 4262.924
197.963, 4066.311
199.340, 3719.367
200.717, 3352.105
202.093, 3164.537
203.470, 3156.672
204.846, 3038.517
206.221, 3210.079
207.597, 3601.362
208.972, 4053.646
210.347, 4757.564
211.722, 5642.780
213.097, 6775.643
214.472, 8298.506
215.846, 9380.081
217.220, 11089.320
218.594, 12628.304
219.967, 14567.044
221.341, 15745.529
222.714, 16523.768
224.087, 16371.753
225.460, 15469.481
226.832, 13998.062
228.204, 12270.887
229.577, 10109.805
230.948, 8098.985
232.320, 6465.717
233.692, 5004.172
235.063, 3843.494
236.434, 2947.193
237.805, 2435.055
239.175, 1834.262
240.545, 1386.276
241.916, 1139.769
243.286, 917.772
244.655, 637.546
246.025, 654.297
247.394, 927.024
248.763, 447.825
250.132, 812.379
251.501, 642.346
252.869, 419.300
254.237, 395.374
255.605, 395.520
256.973, 401.490
258.340, 436.260
259.708, 518.503
261.075, 567.417
262.442, 659.041
263.808, 756.795
265.175, 848.098
266.541, 969.162
267.907, 1055.672
269.273, 1242.276
270.639, 1360.065
272.004, 1558.560
273.369, 1681.457
274.734, 1826.561
276.099, 1966.490
277.463, 2066.735
278.828, 2257.241
280.192, 2267.960
281.556, 2488.852
282.919, 2589.884
284.283, 2591.026
285.646, 2562.256
287.009, 2663.549
288.372, 2544.885
289.734, 2406.242
291.097, 2387.606
292.459, 2198.961
293.821, 2270.297
295.183, 2191.598
296.544, 2102.855
297.905, 2044.059
299.266, 1925.201
300.627, 1916.275
301.988, 1809.270
303.348, 1689.177
304.709, 1667.986
306.069, 1581.687
307.428, 1413.274
308.788, 1426.741
310.147, 1287.082
311.507, 1313.290
312.865, 1184.365
314.224, 1056.302
315.583, 1049.096
316.941, 937.743
318.299, 902.241
319.657, 872.587
321.015, 1086.778
322.372, 1054.815
323.729, 961.696
325.086, 1175.418
326.443, 1119.987
327.800, 1223.413
329.156, 1405.680
330.512, 1474.795
331.868, 1706.754
333.224, 1829.537
334.579, 2101.128
335.935, 2170.524
337.290, 2425.717
338.645, 2497.692
339.999, 2629.439
341.354, 2719.958
342.708, 2549.235
344.062, 2463.261
345.416, 2240.052
346.769, 1944.619
348.123, 1732.982
349.476, 1328.135
350.829, 1178.070
352.182, 881.802
353.534, 682.319
354.887, 474.623
356.239, 294.697
357.591, 160.545
358.942, 52.160
360.294, 44.486
361.645, 100.416
362.996, 179.641
364.347, 234.178
365.698, 193.042
367.048, 240.235
368.398, 254.761
369.748, 262.508
371.098, 299.849
372.448, 280.421
373.797, 314.362
375.146, 276.684
376.495, 237.373
377.844, 234.418
379.192, 178.816
380.540, 171.543
381.889, 179.597
383.236, 120.976
384.584, 128.670
385.932, 70.681
387.279, 7.994
388.626, 58.409
389.973, 73.462
391.319, 59.374
392.666, 108.891
394.012, 139.050
395.358, 182.777
396.704, 164.983
398.049, 322.619
399.394, 378.683
400.740, 358.161
402.084, 477.045
403.429, 671.373
404.774, 730.188
406.118, 878.515
407.462, 955.393
408.806, 1114.879
410.150, 1155.036
411.493, 1337.889
412.836, 1389.446
414.179, 1610.377
415.522, 1640.076
416.865, 1856.415
418.207, 1937.527
419.549, 1980.457
420.891, 1929.333
422.233, 2074.363
423.575, 2071.421
424.916, 1975.686
426.257, 1979.187
427.598, 1976.759
428.939, 1972.190
430.279, 1957.461
431.619, 2000.572
432.959, 2005.516
434.299, 2125.291
435.639, 2202.895
436.978, 2395.323
438.318, 2633.574
439.657, 2734.645
440.996, 3005.532
442.334, 3190.237
443.673, 3540.756
445.011, 3982.090
446.349, 4274.235
447.687, 4685.197
449.024, 4920.968
450.361, 5294.548
451.699, 5837.941
453.036, 5771.140
454.372, 6074.147
455.709, 6006.965
457.045, 6159.589
458.381, 5852.021
459.717, 5834.261
461.053, 5656.310
462.388, 5358.200
463.724, 5249.921
465.059, 4959.742
466.394, 4683.543
467.728, 4473.555
469.063, 4158.291
470.397, 4043.911
471.731, 3735.095
473.065, 3556.280
474.398, 3353.378
475.732, 3153.760
477.065, 3025.925
478.398, 2904.527
479.731, 2841.797
481.063, 2779.769
482.396, 2664.405
483.728, 2726.864
485.060, 2581.706
486.391, 2656.223
487.723, 2603.293
489.054, 2485.678
490.385, 2565.078
491.716, 2538.193
493.047, 2598.161
494.377, 2591.757
495.708, 2634.050
497.038, 2654.097
498.368, 2716.252
499.697, 2796.955
501.027, 2875.279
502.356, 2811.511
503.685, 2933.435
505.014, 2998.055
506.342, 3135.957
507.671, 3196.731
508.999, 3343.686
510.327, 3390.841
511.655, 3531.668
512.982, 3646.133
514.310, 3784.037
515.637, 3835.635
516.964, 3946.127
518.291, 4070.127
519.617, 4361.596
520.944, 4338.072
522.270, 4570.724
523.596, 4683.791
524.921, 4821.547
526.247, 4978.818
527.572, 5038.719
528.897, 5166.765
530.222, 5400.661
531.547, 5419.189
532.871, 5635.939
534.196, 5430.986
535.520, 5847.298
536.844, 5605.971
538.167, 5754.493
539.491, 5586.025
540.814, 5607.713
542.137, 5529.589
543.460, 5403.876
544.783, 5247.403
546.105, 5194.321
547.427, 4904.876
548.749, 4888.824
550.071, 4703.163
551.393, 4432.644
552.714, 4321.867
554.035, 4227.868
555.356, 4087.927
556.677, 3973.263
557.998, 3800.990
559.318, 3734.487
560.638, 3780.483
561.958, 3751.027
563.278, 3797.435
564.597, 3741.209
565.917, 3839.104
567.236, 3752.257
568.555, 3701.969
569.874, 3512.151
571.192, 3473.589
572.511, 3421.148
573.829, 3362.092
575.147, 3162.497
576.464, 3135.606
577.782, 2991.629
579.099, 2978.563
580.416, 2936.411
581.733, 2800.173
583.050, 2704.847
584.366, 2723.434
585.683, 2574.931
586.999, 2671.364
588.315, 2507.683
589.630, 2469.914
590.946, 2431.156
592.261, 2286.522
593.576, 2279.485
594.891, 2112.371
596.206, 1959.614
597.520, 1997.332
598.834, 1919.968
600.148, 1706.684
601.462, 1710.156
602.776, 1679.874
604.089, 1498.187
605.402, 1376.924
606.715, 1342.081
608.028, 1158.161
609.341, 1122.164
610.653, 1054.093
611.965, 974.947
613.277, 922.460
614.589, 815.689
615.901, 744.075
617.212, 678.642
618.523, 625.709
619.834, 563.568
621.145, 548.928
622.456, 470.222
623.766, 420.445
625.076, 314.600
626.386, 325.683
627.696, 298.695
629.006, 347.637
630.315, 292.931
631.624, 230.320
632.933, 206.060
634.242, 183.734
635.551, 139.344
636.859, 116.892
638.167, 91.378
639.475, 79.805
640.783, 27.168
642.090, 23.469
643.398, 5.292
644.705, 47.127
646.012, 10.947
647.318, 6.042
648.625, 26.104
649.931, 17.755
651.237, 41.554
652.543, 25.703
653.849, 46.034
655.155, 12.447
656.460, 29.924
657.765, 5.472
659.070, 51.079
660.375, 7.763
661.679, 49.504
662.984, 40.316
664.288, 63.196
665.592, 8.149
666.895, 26.846
668.199, 50.196
669.502, 32.295
670.805, 46.438
672.108, 18.376
673.411, 67.821
674.713, 72.050
676.016, 0.300
677.318, 23.528
678.620, 26.713
679.921, 67.842
681.223, 58.280
682.524, 54.118
683.825, 44.758
685.126, 4.537
686.427, 17.801
687.727, 58.736
689.028, 83.842
690.328, 13.445
691.628, 101.407
692.927, 15.396
694.227, 14.514
695.526, 62.759
696.825, 58.123
698.124, 27.398
699.423, 145.191
700.721, 45.887
702.020, 5.692
703.318, 51.592
704.616, 12.574
705.913, 69.620
707.211, 62.730
708.508, 36.910
709.805, 28.148
711.102, 12.445
712.399, 20.793
713.695, 84.198
714.992, 6.643
716.288, 36.127
717.584, 77.651
718.879, 5.209
720.175, 46.792
721.470, 71.400
722.765, 30.028
724.060, 44.675
725.355, 84.662
726.649, 58.997
727.944, 2.669
729.238, 29.646
730.532, 33.044
731.825, 21.745
733.119, 7.455
734.412, 12.171
735.705, 7.897
736.998, 5.633
738.291, 55.380
739.584, 8.136
740.876, 39.904
742.168, 0.317
743.460, 5.475
744.752, 60.280
746.043, 7.903
747.334, 21.072
748.626, 6.770
749.916, 54.627
751.207, 28.500
752.498, 85.384
753.788, 11.285
755.078, 13.796
756.368, 80.138
757.658, 23.909
758.947, 82.059
760.237, 32.953
761.526, 62.049
762.815, 56.072
764.104, 92.117
765.392, 34.183
766.680, 45.271
767.969, 67.382
769.257, 87.515
770.544, 44.672
771.832, 55.854
773.119, 25.061
774.406, 131.292
775.693, 133.513
776.980, 119.736
778.267, 26.693
779.553, 194.507
780.839, 124.943
782.125, 37.491
783.411, 318.992
784.697, 210.763
785.982, 279.373
787.267, 257.790
788.552, 339.171
789.837, 371.529
791.122, 313.771
792.406, 385.987
793.690, 402.167
794.974, 431.370
796.258, 500.411
797.542, 498.470
798.825, 476.546
800.108, 494.631
801.391, 549.631
802.674, 591.983
803.957, 607.472
805.239, 641.957
806.522, 651.662
807.804, 730.524
809.085, 707.484
810.367, 627.198
811.649, 861.221
812.930, 923.500
814.211, 916.595
815.492, 807.149
816.772, 906.739
818.053, 978.909
819.333, 936.070
820.613, 889.914
821.893, 1091.582
823.173, 1047.772
824.452, 1054.908
825.732, 1059.527
827.011, 1040.538
828.290, 1096.456
829.568, 1075.309
830.847, 1145.403
832.125, 1092.743
833.403, 1055.081
834.681, 1063.713
835.959, 940.933
837.236, 1074.916
838.514, 939.015
839.791, 983.759
841.068, 935.876
842.345, 831.739
843.621, 838.323
844.898, 828.196
846.174, 764.894
847.450, 748.426
848.726, 666.032
850.001, 663.861
851.277, 620.741
852.552, 696.693
853.827, 641.683
855.102, 563.722
856.376, 623.774
857.651, 546.898
858.925, 502.062
860.199, 472.271
861.473, 429.522
862.746, 496.812
864.020, 408.164
865.293, 434.563
866.566, 384.003
867.839, 438.487
869.112, 439.020
870.384, 278.592
871.656, 418.206
872.928, 361.858
874.200, 293.551
875.472, 330.285
876.744, 458.059
878.015, 353.875
879.286, 340.319
880.557, 428.214
881.828, 319.150
883.098, 422.575
884.369, 359.617
885.639, 459.699
886.909, 466.821
888.178, 399.982
889.448, 467.185
890.717, 453.428
891.987, 471.714
893.256, 423.042
894.524, 557.409
895.793, 475.792
897.061, 558.240
898.330, 663.732
899.598, 684.167
900.865, 603.440
902.133, 668.053
903.401, 720.706
904.668, 708.957
905.935, 803.689
907.202, 686.461
908.468, 842.110
909.735, 860.963
911.001, 796.531
912.267, 884.465
913.533, 1004.935
914.799, 1030.947
916.064, 1062.003
917.330, 1105.099
918.595, 1173.740
919.860, 1190.414
921.124, 1308.631
922.389, 1359.889
923.653, 1373.186
924.918, 1498.522
926.182, 1598.897
927.445, 1817.312
928.709, 1789.768
929.972, 2059.262
931.236, 2147.798
932.499, 2533.375
933.761, 2613.994
935.024, 3132.655
936.286, 3453.360
937.549, 4053.106
938.811, 4834.896
940.073, 5846.728
941.334, 7058.606
942.596, 8410.529
943.857, 9922.495
945.118, 11694.507
946.379, 12586.564
947.640, 13258.667
948.900, 12530.820
950.161, 11373.016
951.421, 9985.263
952.681, 8077.565
953.940, 6499.918
955.200, 5422.320
956.459, 4434.776
957.719, 3717.277
958.978, 2997.821
960.236, 2503.422
961.495, 2154.723
962.753, 1831.066
964.012, 1609.842
965.270, 1439.042
966.527, 1374.626
967.785, 1232.474
969.043, 1093.833
970.300, 1003.840
971.557, 1058.903
972.814, 1017.008
974.071, 1102.153
975.327, 956.346
976.583, 949.535
977.840, 1036.912
979.095, 1072.599
980.351, 1150.396
981.607, 1191.083
982.862, 1237.887
984.117, 1362.962
985.372, 1346.671
986.627, 1345.974
987.882, 1409.031
989.136, 1522.333
990.390, 1441.545
991.644, 1563.559
992.898, 1580.833
994.152, 1652.463
995.405, 1862.289
996.659, 2011.144
997.912, 2155.026
999.165, 2425.973
1000.417, 2759.223
1001.670, 2944.157
1002.922, 3392.967
1004.174, 3837.632
1005.426, 4394.372
1006.678, 4988.437
1007.930, 5593.085
1009.181, 6017.199
1010.432, 6832.264
1011.683, 7216.541
1012.934, 7600.722
1014.185, 7500.087
1015.435, 7335.847
1016.685, 7040.173
1017.935, 6395.408
1019.185, 5821.841
1020.435, 5216.150
1021.684, 4610.816
1022.934, 4145.270
1024.183, 3651.640
1025.432, 3329.785
1026.680, 3052.193
1027.929, 2747.028
1029.177, 2515.539
1030.425, 2418.104
1031.673, 2358.201
1032.921, 2266.274
1034.169, 2063.147
1035.416, 2093.698
1036.663, 2037.059
1037.911, 2100.892
1039.157, 2071.726
1040.404, 1928.646
1041.650, 1954.890
1042.897, 2062.902
1044.143, 1978.618
1045.389, 2115.293
1046.634, 2102.238
1047.880, 1872.854
1049.125, 2019.615
1050.371, 1993.398
1051.615, 1961.145
1052.860, 1771.904
1054.105, 1731.704
1055.349, 1774.491
1056.593, 1717.291
1057.837, 1686.182
1059.081, 1652.091
1060.325, 1640.198
1061.568, 1766.046
1062.812, 1778.903
1064.055, 1845.774
1065.298, 1902.318
1066.540, 1994.208
1067.783, 2118.567
1069.025, 2206.615
1070.267, 2230.646
1071.509, 2358.667
1072.751, 2264.601
1073.993, 2171.541
1075.234, 2185.489
1076.475, 2003.444
1077.716, 1860.740
1078.957, 1760.709
1080.198, 1406.685
1081.438, 1400.681
1082.679, 1173.667
1083.919, 1004.738
1085.159, 963.845
1086.398, 836.881
1087.638, 640.977
1088.877, 517.020
1090.116, 593.830
1091.355, 532.042
1092.594, 392.072
1093.833, 420.133
1095.071, 351.515
1096.309, 279.559
1097.547, 265.764
1098.785, 252.831
1100.023, 172.931
1101.260, 108.138
1102.498, 89.411
1103.735, 53.852
1104.972, 22.114
1106.208, 21.412
1107.445, 43.701
1108.681, 21.234
1109.918, 34.604
1111.154, 12.896
1112.389, 78.283
1113.625, 46.937
1114.860, 32.766
1116.096, 55.555
1117.331, 4.228
1118.566, 264.026
1119.800, 561.347
1121.035, 526.714
1122.269, 298.885
1123.503, 171.944
1124.737, 48.825
1125.971, 102.533
1127.205, 89.540
1128.438, 36.343
1129.671, 117.430
1130.904, 51.518
1132.137, 54.706
1133.370, 9.905
1134.602, 88.110
1135.834, 31.399
1137.066, 68.711
1138.298, 13.073
1139.530, 26.454
1140.762, 46.864
1141.993, 34.311
1143.224, 61.208
1144.455, 40.718
1145.686, 40.221
1146.917, 33.714
1148.147, 19.196
1149.377, 14.335
1150.607, 10.897
1151.837, 40.487
1153.067, 7.121
1154.296, 68.217
1155.526, 17.542
1156.755, 80.851
1157.984, 10.147
1159.213, 39.420
1160.441, 84.679
1161.670, 57.074
1162.898, 2.114
1164.126, 47.273
1165.354, 15.417
1166.581, 5.464
1167.809, 63.620
1169.036, 38.688
1170.263, 51.738
1171.490, 73.770
1172.717, 27.786
1173.943, 81.778
1175.170, 42.753
1176.396, 61.708
1177.622, 61.644
1178.848, 4.440
1180.073, 14.435
1181.299, 1.275
1182.524, 84.075
1183.749, 74.855
1184.974, 77.616
1186.199, 64.355
1187.423, 61.642
1188.648, 48.764
1189.872, 61.429
1191.096, 83.069
1192.320, 107.685
1193.543, 72.280
1194.767, 44.849
1195.990, 92.387
1197.213, 92.900
1198.436, 140.390
1199.659, 153.089
1200.881, 106.297
1202.104, 162.714
1203.326, 146.126
1204.548, 100.493
1205.770, 101.834
1206.991, 87.148
1208.213, 143.434
1209.434, 139.693
1210.655, 160.926
1211.876, 72.133
1213.096, 136.305
1214.317, 84.451
1215.537, 109.564
1216.757, 115.649
1217.977, 121.705
1219.197, 206.730
1220.417, 200.728
1221.636, 217.696
1222.855, 157.635
1224.074, 102.738
1225.293, 173.614
1226.512, 183.522
1227.731, 158.339
1228.949, 206.125
1230.167, 146.980
1231.385, 142.034
1232.603, 161.934
1233.820, 150.978
1235.038, 166.817
1236.255, 90.920
1237.472, 133.092
1238.689, 209.163
1239.906, 175.027
1241.122, 71.094
1242.338, 189.120
1243.555, 149.045
1244.771, 185.413
1245.986, 180.502
1247.202, 161.713
1248.417, 153.099
1249.633, 132.704
1250.848, 166.050
1252.063, 160.286
1253.277, 165.842
1254.492, 82.959
1255.706, 205.312
1256.920, 127.858
1258.134, 134.874
1259.348, 155.347
1260.562, 192.443
1261.775, 186.719
1262.988, 156.075
1264.201, 179.970
1265.414, 166.229
1266.627, 157.090
1267.839, 207.047
1269.052, 244.012
1270.264, 202.356
1271.476, 181.182
1272.688, 234.728
1273.899, 169.682
1275.111, 264.066
1276.322, 209.409
1277.533, 226.807
1278.744, 216.111
1279.955, 217.093
1281.165, 272.240
1282.376, 281.113
1283.586, 306.580
1284.796, 235.655
1286.006, 301.494
1287.215, 320.647
1288.425, 230.896
1289.634, 330.844
1290.843, 274.063
1292.052, 242.919
1293.261, 335.583
1294.469, 374.963
1295.678, 263.613
1296.886, 390.327
1298.094, 436.251
1299.302, 388.891
1300.509, 405.494
1301.717, 333.416
1302.924, 404.857
1304.131, 418.148
1305.338, 373.407
1306.545, 361.052
1307.752, 354.102
1308.958, 401.593
1310.164, 349.687
1311.370, 371.766
1312.576, 292.566
1313.782, 401.481
1314.987, 294.034
1316.193, 389.786
1317.398, 313.608
1318.603, 358.622
1319.807, 264.331
1321.012, 328.574
1322.216, 329.096
1323.421, 424.521
1324.625, 320.381
1325.829, 351.194
1327.032, 320.125
1328.236, 304.347
1329.439, 346.480
1330.642, 300.522
1331.845, 323.302
1333.048, 348.957
1334.251, 326.246
1335.453, 260.704
1336.656, 316.410
1337.858, 274.114
1339.060, 323.503
1340.261, 331.179
1341.463, 247.672
1342.664, 305.106
1343.866, 344.541
1345.067, 241.922
1346.267, 314.223
1347.468, 210.497
1348.669, 328.709
1349.869, 305.788
1351.069, 244.807
1352.269, 296.582
1353.469, 267.574
1354.668, 268.507
1355.868, 329.384
1357.067, 328.540
1358.266, 329.304
1359.465, 307.554
1360.664, 332.204
1361.862, 305.696
1363.061, 337.153
1364.259, 236.656
1365.457, 274.110
1366.655, 226.514
1367.852, 163.868
1369.050, 216.840
1370.247, 194.096
1371.444, 257.304
1372.641, 231.451
1373.838, 183.567
1375.035, 127.555
1376.231, 156.470
1377.427, 113.536
1378.623, 154.269
1379.819, 96.141
1381.015, 82.213
1382.211, 89.856
1383.406, 112.655
1384.601, 81.405
1385.796, 79.822
1386.991, 87.745
1388.185, 46.187
1389.380, 65.433
1390.574, 11.678
1391.768, 15.065
1392.962, 26.613
1394.156, 15.921
1395.350, 42.838
1396.543, 23.321
1397.736, 14.329
1398.929, 29.888
1400.122, 32.930
1401.315, 12.445
1402.507, 17.685
1403.700, 15.941
1404.892, 48.552
1406.084, 22.045
1407.276, 38.475
1408.467, 21.101
1409.659, 42.670
1410.850, 2.769
1412.041, 32.738
1413.232, 41.801
1414.423, 1.355
1415.614, 50.106
1416.804, 77.534
1417.994, 33.925
1419.184, 46.277
1420.374, 34.651
1421.564, 25.000
1422.753, 10.658
1423.943, 22.651
1425.132, 2.928
1426.321, 79.175
1427.510, 34.392
1428.698, 71.621
1429.887, 26.861
1431.075, 71.077
1432.263, 84.274
1433.451, 53.466
1434.639, 89.643
1435.827, 109.814
1437.014, 105.981
1438.201, 117.138
1439.388, 132.393
1440.575, 118.072
1441.762, 168.544
1442.949, 100.692
1444.135, 123.849
1445.321, 128.022
1446.507, 175.212
1447.693, 132.419
1448.879, 82.645
1450.064, 161.554
1451.250, 200.718
1452.435, 160.842
1453.620, 185.184
1454.805, 247.427
1455.989, 217.680
1457.174, 249.312
1458.358, 241.357
1459.542, 262.698
1460.726, 333.621
1461.910, 220.627
1463.093, 253.934
1464.277, 335.485
1465.460, 303.504
1466.643, 371.176
1467.826, 296.679
1469.009, 269.753
1470.191, 301.765
1471.373, 308.279
1472.556, 238.253
1473.738, 372.183
1474.919, 291.386
1476.101, 279.417
1477.283, 359.001
1478.464, 316.104
1479.645, 323.403
1480.826, 311.891
1482.007, 307.329
1483.187, 315.875
1484.368, 207.469
1485.548, 232.013
1486.728, 217.375
1487.908, 192.049
1489.088, 204.021
1490.268, 236.255
1491.447, 226.961
1492.626, 180.574
1493.805, 230.013
1494.984, 151.000
1496.163, 189.807
1497.341, 182.603
1498.520, 111.475
1499.698, 140.762
1500.876, 92.206
1502.054, 2.032
1503.232, 115.807
1504.409, 103.883
1505.586, 37.079
1506.763, 177.343
1507.940, 103.565
1509.117, 63.778
1510.294, 79.075
1511.470, 46.976
1512.647, 46.044
1513.823, 67.842
1514.999, 32.923
1516.174, 80.890
