##NAMES=Vivianite
##RRUFFID=R040185
##IDEAL CHEMISTRY=Fe^2+^_3_(PO_4_)_2_&#183;8H_2_O
##LOCALITY=Siglo XX mine, Llallagua, Bustillos, Potosi, Bolivia
##OWNER=RRUFF
##SOURCE=University of Arizona Mineral Museum
##DESCRIPTION=Green acicular single crystal
##STATUS=The identification of this mineral has been confirmed by X-ray diffraction and chemical analysis
##URL=rruff.info/R040185
##MEASURED CHEMISTRY=(Fe_1.00_Mn_0.01_)_3_(P_0.97_Si_0.03_O_3.94_F_0.07_)_2_Â·8H_2_O
##PIN_ID=M00228
##ORIENTATION=Laser parallel to (-1 0 -1). Fiducial mark perpendicular to laser is parallel to b [0 1 0]
101.036, 0.000
102.428, 0.363
103.820, 32.889
105.212, 65.860
106.604, 5.305
107.995, 4.898
109.387, 38.707
110.777, 124.765
112.168, 81.998
113.559, 119.199
114.949, 136.203
116.339, 151.879
117.729, 171.278
119.119, 255.176
120.508, 408.536
121.897, 668.313
123.286, 946.455
124.675, 1126.913
126.063, 1330.643
127.452, 1284.607
128.840, 1130.773
130.228, 831.115
131.615, 469.628
133.003, 275.888
134.390, 113.769
135.777, 41.906
137.164, 29.287
138.550, 54.871
139.937, 78.619
141.323, 142.493
142.709, 229.461
144.094, 284.501
145.480, 295.595
146.865, 292.730
148.250, 282.896
149.635, 237.085
151.019, 202.288
152.403, 152.500
153.788, 120.716
155.171, 111.930
156.555, 56.140
157.939, 69.361
159.322, 70.632
160.705, 79.011
162.088, 38.638
163.470, 3.422
164.853, 19.117
166.235, 19.520
167.617, 33.441
168.998, 78.624
170.380, 154.018
171.761, 184.399
173.142, 213.707
174.523, 411.895
175.904, 562.956
177.284, 814.879
178.664, 1228.661
180.044, 1697.293
181.424, 2231.779
182.803, 2917.125
184.183, 3500.348
185.562, 4075.479
186.940, 4564.530
188.319, 5156.506
189.698, 5677.417
191.076, 6547.264
192.454, 7453.052
193.831, 8142.786
195.209, 8796.465
196.586, 8480.094
197.963, 8077.673
199.340, 6975.205
200.717, 5733.691
202.093, 4507.132
203.470, 3465.530
204.846, 2828.884
206.221, 2213.197
207.597, 1946.467
208.972, 1736.698
210.347, 1587.887
211.722, 1599.037
213.097, 1621.508
214.472, 1770.499
215.846, 2086.708
217.220, 2482.493
218.594, 3027.035
219.967, 3751.059
221.341, 4578.442
222.714, 5323.169
224.087, 5898.765
225.460, 6246.302
226.832, 6244.996
228.204, 6035.399
229.577, 5758.391
230.948, 5279.431
232.320, 5151.468
233.692, 4922.254
235.063, 4890.337
236.434, 4777.693
237.805, 4481.887
239.175, 4071.941
240.545, 3513.586
241.916, 2959.684
243.286, 2505.214
244.655, 2110.466
246.025, 1847.718
247.394, 1630.715
248.763, 1507.707
250.132, 1359.232
251.501, 1285.544
252.869, 1227.821
254.237, 1221.971
255.605, 1185.721
256.973, 1218.323
258.340, 1251.896
259.708, 1281.442
261.075, 1354.959
262.442, 1412.450
263.808, 1536.914
265.175, 1640.351
266.541, 1703.282
267.907, 1875.611
269.273, 1924.369
270.639, 2026.178
272.004, 2121.041
273.369, 2049.867
274.734, 1990.805
276.099, 1772.769
277.463, 1627.754
278.828, 1416.755
280.192, 1158.767
281.556, 1020.788
282.919, 849.815
284.283, 695.844
285.646, 541.874
287.009, 479.902
288.372, 401.927
289.734, 397.946
291.097, 366.960
292.459, 327.966
293.821, 347.963
295.183, 414.951
296.544, 439.929
297.905, 514.887
299.266, 597.834
300.627, 709.767
301.988, 804.685
303.348, 822.587
304.709, 856.474
306.069, 807.343
307.428, 722.194
308.788, 671.028
310.147, 509.843
311.507, 456.639
312.865, 346.416
314.224, 312.175
315.583, 240.914
316.941, 238.634
318.299, 190.335
319.657, 164.016
321.015, 150.677
322.372, 125.319
323.729, 110.941
325.086, 73.542
326.443, 71.119
327.800, 67.645
329.156, 47.895
330.512, 54.393
331.868, 18.862
333.224, 19.298
334.579, 11.701
335.935, 2.069
337.290, 22.401
338.645, 14.700
339.999, 24.033
341.354, 33.809
342.708, 20.628
344.062, 0.513
345.416, 32.379
346.769, 14.313
348.123, 31.283
349.476, 32.293
350.829, 42.343
352.182, 36.436
353.534, 37.972
354.887, 34.743
356.239, 37.956
357.591, 27.210
358.942, 36.883
360.294, 48.830
361.645, 31.202
362.996, 32.611
364.347, 22.058
365.698, 34.539
367.048, 40.057
368.398, 38.615
369.748, 56.210
371.098, 38.847
372.448, 44.523
373.797, 13.237
375.146, 4.981
376.495, 3.755
377.844, 2.185
379.192, 26.603
380.540, 8.263
381.889, 8.831
383.236, 2.887
384.584, 23.894
385.932, 48.841
387.279, 27.737
388.626, 35.578
389.973, 43.354
391.319, 38.069
392.666, 27.723
394.012, 47.320
395.358, 51.856
396.704, 75.341
398.049, 91.771
399.394, 66.140
400.740, 79.453
402.084, 73.732
403.429, 90.982
404.774, 78.207
406.118, 154.409
407.462, 109.594
408.806, 158.764
410.150, 197.920
411.493, 168.060
412.836, 149.189
414.179, 198.306
415.522, 221.411
416.865, 231.506
418.207, 277.592
419.549, 305.669
420.891, 289.739
422.233, 326.800
423.575, 358.853
424.916, 302.899
426.257, 309.937
427.598, 311.967
428.939, 304.984
430.279, 313.980
431.619, 284.982
432.959, 315.961
434.299, 315.928
435.639, 299.881
436.978, 375.820
438.318, 377.745
439.657, 390.657
440.996, 452.555
442.334, 472.438
443.673, 532.307
445.011, 625.162
446.349, 676.003
447.687, 780.831
449.024, 883.643
450.361, 940.442
451.699, 1023.227
453.036, 1044.998
454.372, 1043.755
455.709, 990.498
457.045, 997.227
458.381, 844.943
459.717, 799.645
461.053, 712.333
462.388, 580.007
463.724, 607.669
465.059, 551.317
466.394, 542.952
467.728, 511.573
469.063, 481.181
470.397, 469.777
471.731, 446.360
473.065, 466.930
474.398, 491.487
475.732, 503.032
477.065, 514.564
478.398, 518.084
479.731, 534.592
481.063, 549.089
482.396, 573.941
483.728, 606.954
485.060, 640.260
486.391, 680.397
487.723, 730.510
489.054, 732.595
490.385, 803.521
491.716, 845.488
493.047, 949.039
494.377, 983.584
495.708, 1043.919
497.038, 1107.781
498.368, 1223.360
499.697, 1292.771
501.027, 1403.980
502.356, 1492.573
503.685, 1580.995
505.014, 1708.737
506.342, 1893.412
507.671, 1960.228
508.999, 2156.976
510.327, 2230.667
511.655, 2395.725
512.982, 2600.157
514.310, 2760.494
515.637, 2878.040
516.964, 3035.396
518.291, 3186.429
519.617, 3392.869
520.944, 3487.567
522.270, 3640.375
523.596, 3814.113
524.921, 3849.519
526.247, 3951.154
527.572, 3970.448
528.897, 4107.850
530.222, 4124.163
531.547, 4226.581
532.871, 4269.657
534.196, 4187.712
535.520, 4215.305
536.844, 4126.992
538.167, 4106.062
539.491, 4039.777
540.814, 3994.224
542.137, 3822.633
543.460, 3618.808
544.783, 3429.512
546.105, 3213.462
547.427, 2990.229
548.749, 2737.081
550.071, 2544.004
551.393, 2305.886
552.714, 2070.684
554.035, 1974.657
555.356, 1742.675
556.677, 1624.811
557.998, 1484.021
559.318, 1420.129
560.638, 1432.298
561.958, 1446.449
563.278, 1553.678
564.597, 1639.860
565.917, 1796.296
567.236, 1820.622
568.555, 1838.063
569.874, 1676.506
571.192, 1443.952
572.511, 1218.401
573.829, 1010.853
575.147, 841.882
576.464, 685.845
577.782, 570.226
579.099, 435.690
580.416, 374.156
581.733, 272.626
583.050, 269.099
584.366, 242.576
585.683, 183.055
586.999, 175.538
588.315, 148.025
589.630, 127.514
590.946, 125.008
592.261, 109.504
593.576, 97.005
594.891, 124.509
596.206, 84.017
597.520, 94.529
598.834, 180.044
600.148, 120.564
601.462, 193.088
602.776, 209.615
604.089, 198.147
605.402, 223.683
606.715, 268.224
608.028, 236.768
609.341, 292.318
610.653, 328.872
611.965, 321.430
613.277, 379.993
614.589, 347.561
615.901, 353.133
617.212, 421.711
618.523, 398.293
619.834, 425.880
621.145, 416.473
622.456, 443.070
623.766, 446.673
625.076, 415.281
626.386, 400.894
627.696, 327.512
629.006, 392.136
630.315, 340.766
631.624, 336.401
632.933, 346.041
634.242, 278.688
635.551, 283.340
636.859, 258.997
638.167, 250.701
639.475, 260.370
640.783, 261.046
642.090, 214.728
643.398, 253.417
644.705, 216.112
646.012, 291.816
647.318, 230.117
648.625, 230.836
649.931, 250.564
651.237, 215.302
652.543, 240.042
653.849, 217.390
655.155, 256.661
656.460, 202.929
657.765, 200.991
659.070, 222.541
660.375, 252.906
661.679, 208.223
662.984, 236.241
664.288, 253.220
665.592, 226.857
666.895, 224.706
668.199, 285.823
669.502, 270.546
670.805, 296.579
672.108, 264.249
673.411, 248.233
674.713, 298.846
676.016, 314.210
677.318, 296.485
678.620, 351.280
679.921, 291.531
681.223, 329.118
682.524, 320.055
683.825, 331.496
685.126, 347.881
686.427, 332.333
687.727, 353.891
689.028, 376.866
690.328, 331.271
691.628, 359.745
692.927, 367.612
694.227, 359.981
695.526, 363.571
696.825, 365.958
698.124, 338.197
699.423, 347.605
700.721, 372.806
702.020, 374.547
703.318, 296.662
704.616, 351.611
705.913, 288.053
707.211, 313.603
708.508, 328.058
709.805, 265.550
711.102, 290.016
712.399, 232.488
713.695, 224.964
714.992, 221.445
716.288, 221.931
717.584, 218.571
718.879, 219.916
720.175, 205.415
721.470, 216.919
722.765, 185.426
724.060, 203.937
725.355, 164.451
726.649, 192.969
727.944, 167.490
729.238, 172.014
730.532, 195.541
731.825, 182.072
733.119, 140.606
734.412, 171.143
735.705, 115.684
736.998, 135.228
738.291, 131.775
739.584, 131.325
740.876, 152.878
742.168, 130.434
743.460, 135.993
744.752, 131.407
746.043, 121.121
747.334, 121.690
748.626, 113.261
749.916, 115.836
751.207, 96.413
752.498, 100.994
753.788, 113.577
755.078, 79.164
756.368, 118.753
757.658, 113.345
758.947, 134.941
760.237, 105.539
761.526, 102.139
762.815, 61.743
764.104, 92.349
765.392, 99.959
766.680, 110.571
767.969, 87.185
769.257, 112.803
770.544, 72.423
771.832, 79.046
773.119, 109.671
774.406, 75.299
775.693, 49.930
776.980, 74.563
778.267, 79.199
779.553, 76.838
780.839, 36.479
782.125, 56.122
783.411, 53.768
784.697, 70.417
785.982, 36.068
787.267, 17.721
788.552, 34.377
789.837, 38.035
791.122, 4.695
792.406, 0.642
793.690, 26.022
794.974, 19.688
796.258, 30.357
797.542, 7.028
798.825, 27.701
800.108, 11.376
801.391, 10.946
802.674, 25.727
803.957, 13.403
805.239, 3.081
806.522, 17.240
807.804, 9.568
809.085, 41.900
810.367, 25.253
811.649, 2.617
812.930, 28.984
814.211, 41.364
815.492, 5.766
816.772, 18.171
818.053, 49.585
819.333, 10.025
820.613, 46.472
821.893, 1.057
823.173, 27.415
824.452, 14.902
825.732, 25.398
827.011, 45.908
828.290, 5.444
829.568, 50.984
830.847, 16.553
832.125, 7.132
833.403, 47.717
834.681, 2.330
835.959, 25.946
837.236, 1.421
838.514, 32.214
839.791, 32.868
841.068, 17.542
842.345, 24.228
843.621, 13.929
844.898, 31.641
846.174, 21.372
847.450, 15.883
848.726, 32.862
850.001, 12.372
851.277, 9.393
852.552, 9.832
853.827, 25.942
855.102, 0.267
856.376, 6.529
857.651, 3.331
858.925, 27.861
860.199, 5.052
861.473, 48.242
862.746, 7.432
864.020, 59.620
865.293, 26.808
866.566, 25.997
867.839, 60.185
869.112, 55.373
870.384, 58.560
871.656, 67.748
872.928, 70.936
874.200, 74.123
875.472, 103.311
876.744, 77.498
878.015, 112.686
879.286, 112.874
880.557, 123.062
881.828, 120.250
883.098, 181.438
884.369, 163.627
885.639, 146.816
886.909, 169.005
888.178, 242.194
889.448, 218.383
890.717, 253.573
891.987, 242.764
893.256, 273.955
894.524, 294.146
895.793, 326.338
897.061, 345.946
898.330, 375.723
899.598, 387.916
900.865, 420.110
902.133, 444.996
903.401, 501.499
904.668, 516.695
905.935, 542.893
907.202, 566.090
908.468, 628.289
909.735, 665.490
911.001, 723.692
912.267, 751.895
913.533, 797.099
914.799, 875.303
916.064, 958.509
917.330, 1028.715
918.595, 1064.922
919.860, 1198.129
921.124, 1280.338
922.389, 1428.549
923.653, 1551.761
924.918, 1787.974
926.182, 1931.189
927.445, 2101.405
928.709, 2354.620
929.972, 2708.838
931.236, 2986.057
932.499, 3639.277
933.761, 3966.499
935.024, 4749.723
936.286, 5617.946
937.549, 6651.172
938.811, 8129.403
940.073, 10028.634
941.334, 12527.866
942.596, 15487.101
943.857, 19206.338
945.118, 23255.533
946.379, 26054.771
947.640, 27904.018
948.900, 26423.262
950.161, 23762.514
951.421, 20271.775
952.681, 16221.038
953.940, 12939.718
955.200, 10438.990
956.459, 8348.270
957.719, 6716.553
958.978, 5483.846
960.236, 4500.542
961.495, 3801.332
962.753, 3235.135
964.012, 2783.156
965.270, 2423.713
966.527, 2137.480
967.785, 1879.317
969.043, 1658.469
970.300, 1495.683
971.557, 1376.260
972.814, 1247.650
974.071, 1172.462
975.327, 1146.363
976.583, 1074.647
977.840, 1028.321
979.095, 1025.706
980.351, 1090.489
981.607, 1127.543
982.862, 1122.715
984.117, 1255.396
985.372, 1252.645
986.627, 1305.582
987.882, 1332.198
989.136, 1366.334
990.390, 1365.585
991.644, 1364.734
992.898, 1317.843
994.152, 1314.562
995.405, 1231.883
996.659, 1196.155
997.912, 1130.053
999.165, 1115.464
1000.417, 1105.672
1001.670, 1015.097
1002.922, 998.689
1004.174, 991.125
1005.426, 915.784
1006.678, 948.921
1007.930, 883.695
1009.181, 892.649
1010.432, 921.123
1011.683, 860.501
1012.934, 879.987
1014.185, 848.452
1015.435, 843.955
1016.685, 862.465
1017.935, 826.982
1019.185, 821.506
1020.435, 855.040
1021.684, 869.581
1022.934, 886.605
1024.183, 932.682
1025.432, 940.249
1026.680, 930.833
1027.929, 980.433
1029.177, 1029.044
1030.425, 1120.666
1031.673, 1190.293
1032.921, 1324.928
1034.169, 1397.569
1035.416, 1589.222
1036.663, 1764.880
1037.911, 1940.546
1039.157, 2305.217
1040.404, 2608.896
1041.650, 3013.637
1042.897, 3618.347
1044.143, 4226.055
1045.389, 5089.769
1046.634, 5991.490
1047.880, 6775.221
1049.125, 7647.958
1050.371, 8092.702
1051.615, 7992.503
1052.860, 7252.266
1054.105, 6180.053
1055.349, 5313.980
1056.593, 4297.774
1057.837, 3450.650
1059.081, 2847.604
1060.325, 2336.607
1061.568, 2022.427
1062.812, 1683.253
1064.055, 1405.085
1065.298, 1237.923
1066.540, 1046.766
1067.783, 941.617
1069.025, 850.473
1070.267, 717.334
1071.509, 679.534
1072.751, 584.407
1073.993, 524.430
1075.234, 438.315
1076.475, 429.206
1077.716, 419.103
1078.957, 369.005
1080.198, 358.913
1081.438, 305.116
1082.679, 260.035
1083.919, 288.959
1085.159, 284.980
1086.398, 286.035
1087.638, 257.673
1088.877, 204.619
1090.116, 239.572
1091.355, 189.530
1092.594, 228.564
1093.833, 177.533
1095.071, 194.550
1096.309, 124.319
1097.547, 140.025
1098.785, 175.086
1100.023, 149.720
1101.260, 187.606
1102.498, 136.417
1103.735, 120.310
1104.972, 113.269
1106.208, 45.602
1107.445, 113.690
1108.681, 137.737
1109.918, 66.787
1111.154, 65.853
1112.389, 51.930
1113.625, 9.014
1114.860, 82.515
1116.096, 81.628
1117.331, 28.748
1118.566, 123.878
1119.800, 43.079
1121.035, 52.235
1122.269, 70.420
1123.503, 40.600
1124.737, 67.188
1125.971, 44.406
1127.205, 20.622
1128.438, 10.912
1129.671, 37.150
1130.904, 32.600
1132.137, 40.933
1133.370, 42.242
1134.602, 21.558
1135.834, 41.128
1137.066, 18.451
1138.298, 43.779
1139.530, 24.111
1140.762, 82.344
1141.993, 52.880
1143.224, 55.208
1144.455, 40.728
1145.686, 61.118
1146.917, 33.583
1148.147, 35.183
1149.377, 69.962
1150.607, 35.498
1151.837, 71.957
1153.067, 64.417
1154.296, 68.044
1155.526, 51.697
1156.755, 53.767
1157.984, 33.211
1159.213, 54.708
1160.441, 24.246
1161.670, 30.747
1162.898, 23.421
1164.126, 23.994
1165.354, 4.889
1166.581, 24.497
1167.809, 44.106
1169.036, 16.656
1170.263, 7.328
1171.490, 28.886
1172.717, 8.322
1173.943, 34.136
1175.170, 10.020
1176.396, 17.670
1177.622, 39.096
1178.848, 20.708
1180.073, 40.342
1181.299, 30.118
1182.524, 13.656
1183.749, 26.275
1184.974, 38.942
1186.199, 17.465
1187.423, 45.245
1188.648, 4.100
1189.872, 1.315
1191.096, 20.256
1192.320, 30.782
1193.543, 23.566
1194.767, 25.985
1195.990, 9.460
1197.213, 10.369
1198.436, 3.046
1199.659, 4.551
1200.881, 0.160
1202.104, 6.565
1203.326, 27.226
1204.548, 3.990
1205.770, 6.527
1206.991, 7.756
1208.213, 29.766
1209.434, 50.220
1210.655, 52.776
1211.876, 34.259
1213.096, 30.726
1214.317, 14.301
1215.537, 38.781
1216.757, 52.233
1217.977, 10.234
1219.197, 21.201
1220.417, 5.274
1221.636, 46.155
1222.855, 22.581
1224.074, 11.021
1225.293, 16.443
1226.512, 19.862
1227.731, 7.701
1228.949, 2.780
1230.167, 38.118
1231.385, 2.436
1232.603, 3.035
1233.820, 13.637
1235.038, 26.842
1236.255, 22.231
1237.472, 29.822
1238.689, 0.808
1239.906, 31.570
1241.122, 0.620
1242.338, 13.010
1243.555, 11.651
1244.771, 16.944
1245.986, 9.775
1247.202, 13.452
1248.417, 11.910
1249.633, 12.838
1250.848, 13.540
1252.063, 3.246
1253.277, 2.097
1254.492, 15.281
1255.706, 22.836
1256.920, 33.122
1258.134, 43.404
1259.348, 24.684
1260.562, 3.005
1261.775, 35.296
1262.988, 40.568
1264.201, 41.831
1265.414, 11.127
1266.627, 33.380
1267.839, 22.678
1269.052, 31.920
1270.264, 0.844
1271.476, 23.470
1272.688, 27.690
1273.899, 14.933
1275.111, 47.142
1276.322, 4.342
1277.533, 15.785
1278.744, 23.971
1279.955, 27.253
1281.165, 12.578
1282.376, 31.557
1283.586, 33.297
1284.796, 60.395
1286.006, 5.515
1287.215, 8.662
1288.425, 6.272
1289.634, 11.854
1290.843, 38.915
1292.052, 23.939
1293.261, 9.950
1294.469, 5.026
1295.678, 16.991
1296.886, 33.947
1298.094, 34.894
1299.302, 8.169
1300.509, 11.756
1301.717, 85.672
1302.924, 1.579
1304.131, 35.475
1305.338, 27.363
1306.545, 4.757
1307.752, 14.111
1308.958, 8.969
1310.164, 15.819
1311.370, 20.931
1312.576, 5.511
1313.782, 31.305
1314.987, 17.112
1316.193, 30.904
1317.398, 15.292
1318.603, 26.527
1319.807, 24.780
1321.012, 4.986
1322.216, 1.274
1323.421, 26.453
1324.625, 24.142
1325.829, 14.820
1327.032, 2.513
1328.236, 27.139
1329.439, 22.781
1330.642, 46.410
1331.845, 16.029
1333.048, 24.637
1334.251, 16.185
1335.453, 18.251
1336.656, 47.304
1337.858, 16.849
1339.060, 0.381
1340.261, 72.898
1341.463, 26.406
1342.664, 6.096
1343.866, 33.341
1345.067, 34.186
1346.267, 77.259
1347.468, 33.560
1348.669, 17.993
1349.869, 74.340
1351.069, 18.606
1352.269, 46.820
1353.469, 74.214
1354.668, 38.598
1355.868, 55.973
1357.067, 59.337
1358.266, 35.693
1359.465, 56.040
1360.664, 62.378
1361.862, 42.707
1363.061, 82.697
1364.259, 43.010
1365.457, 65.173
1366.655, 77.472
1367.852, 61.877
1369.050, 84.163
1370.247, 79.453
1371.444, 61.726
1372.641, 81.704
1373.838, 76.047
1375.035, 57.305
1376.231, 78.469
1377.427, 79.662
1378.623, 45.207
1379.819, 111.337
1381.015, 31.573
1382.211, 89.801
1383.406, 111.948
1384.601, 8.035
1385.796, 86.031
1386.991, 85.300
1388.185, 46.374
1389.380, 61.580
1390.574, 46.765
1391.768, 70.780
1392.962, 100.253
1394.156, 104.081
1395.350, 76.903
1396.543, 73.285
1397.736, 37.082
1398.929, 48.811
1400.122, 72.573
1401.315, 91.899
1402.507, 110.624
1403.700, 62.292
1404.892, 63.721
1406.084, 77.361
1407.276, 102.572
1408.467, 62.223
1409.659, 70.615
1410.850, 56.925
1412.041, 94.442
1413.232, 118.346
1414.423, 50.726
1415.614, 83.768
1416.804, 64.035
1417.994, 79.720
1419.184, 78.784
1420.374, 26.541
1421.564, 70.552
1422.753, 43.379
1423.943, 70.405
1425.132, 82.991
1426.321, 1.418
1427.510, 61.172
1428.698, 90.758
1429.887, 34.260
1431.075, 69.095
1432.263, 41.554
1433.451, 49.164
1434.639, 87.706
1435.827, 78.340
1437.014, 34.006
1438.201, 72.948
1439.388, 91.643
1440.575, 69.016
1441.762, 116.270
1442.949, 67.939
1444.135, 73.673
1445.321, 80.200
1446.507, 58.803
1447.693, 48.407
1448.879, 62.151
1450.064, 55.846
1451.250, 97.515
1452.435, 87.204
1453.620, 47.798
1454.805, 68.284
1455.989, 97.541
1457.174, 69.138
1458.358, 60.385
1459.542, 40.766
1460.726, 74.128
1461.910, 59.707
1463.093, 29.241
1464.277, 101.438
1465.460, 37.700
1466.643, 62.092
1467.826, 106.299
1469.009, 64.603
1470.191, 60.795
1471.373, 94.924
1472.556, 53.935
1473.738, 111.062
1474.919, 76.231
1476.101, 38.719
1477.283, 117.551
1478.464, 64.072
1479.645, 66.336
1480.826, 103.312
1482.007, 76.295
1483.187, 88.609
1484.368, 120.778
1485.548, 79.247
1486.728, 108.719
1487.908, 81.177
1489.088, 50.626
1490.268, 72.058
1491.447, 62.472
1492.626, 39.873
1493.805, 73.271
1494.984, 55.620
1496.163, 59.049
1497.341, 76.184
1498.520, 59.474
1499.698, 94.899
1500.876, 67.340
1502.054, 73.809
1503.232, 39.269
1504.409, 106.875
1505.586, 37.562
1506.763, 94.308
1507.940, 67.099
1509.117, 14.920
1510.294, 45.780
1511.470, 36.689
1512.647, 67.661
1513.823, 71.717
1514.999, 21.884
1516.174, 103.162
1517.350, 68.570
1518.526, 29.109
1519.701, 68.208
1520.876, 5.307
1522.051, 49.487
1523.226, 77.680
1524.400, 88.713
1525.574, 32.851
1526.749, 25.229
1527.923, 1.560
1529.097, 0.000
##END=



