##NAMES=Vivianite
##RRUFFID=R040185
##IDEAL CHEMISTRY=Fe^2+^_3_(PO_4_)_2_&#183;8H_2_O
##LOCALITY=Siglo XX mine, Llallagua, Bustillos, Potosi, Bolivia
##OWNER=RRUFF
##SOURCE=University of Arizona Mineral Museum
##DESCRIPTION=Green acicular single crystal
##STATUS=The identification of this mineral has been confirmed by X-ray diffraction and chemical analysis
##URL=rruff.info/R040185
##MEASURED CHEMISTRY=(Fe_1.00_Mn_0.01_)_3_(P_0.97_Si_0.03_O_3.94_F_0.07_)_2_Â·8H_2_O
##PIN_ID=M00228
##ORIENTATION=Laser parallel to (-1 0 -1). Fiducial mark perpendicular to laser is parallel to b [0 1 0]
101.036, 0.000
102.428, 12.465
103.820, 20.493
105.212, 59.526
106.604, 13.230
107.995, 5.456
109.387, 1.699
110.777, 3.440
112.168, 65.369
113.559, 42.361
114.949, 70.135
116.339, 113.582
117.729, 67.632
119.119, 234.246
120.508, 364.385
121.897, 489.989
123.286, 755.992
124.675, 820.332
126.063, 1025.959
127.452, 1043.829
128.840, 929.908
130.228, 732.214
131.615, 525.769
133.003, 268.565
134.390, 147.637
135.777, 115.013
137.164, 146.664
138.550, 97.532
139.937, 116.561
141.323, 142.697
142.709, 255.899
144.094, 355.140
145.480, 416.400
146.865, 535.664
148.250, 603.922
149.635, 608.211
151.019, 592.507
152.403, 559.767
153.788, 405.986
155.171, 467.222
156.555, 317.591
157.939, 288.249
159.322, 317.381
160.705, 253.683
162.088, 298.055
163.470, 249.506
164.853, 293.274
166.235, 399.552
167.617, 290.286
168.998, 371.345
170.380, 380.494
171.761, 402.554
173.142, 409.447
174.523, 515.130
175.904, 634.573
177.284, 748.751
178.664, 1131.669
180.044, 1569.336
181.424, 1895.761
182.803, 2423.953
184.183, 2911.944
185.562, 3315.812
186.940, 3713.561
188.319, 4046.185
189.698, 4383.700
191.076, 5030.115
192.454, 5688.434
193.831, 6203.660
195.209, 6718.796
196.586, 6664.000
197.963, 6442.028
199.340, 6021.640
200.717, 5046.402
202.093, 4134.089
203.470, 3397.698
204.846, 2648.233
206.221, 2120.809
207.597, 1751.449
208.972, 1509.108
210.347, 1326.987
211.722, 1388.265
213.097, 1316.676
214.472, 1548.058
215.846, 1795.375
217.220, 2094.516
218.594, 2537.883
219.967, 3084.779
221.341, 3666.266
222.714, 4147.888
224.087, 4491.525
225.460, 4647.827
226.832, 4609.335
228.204, 4365.021
229.577, 4122.082
230.948, 3824.346
232.320, 3626.264
233.692, 3486.046
235.063, 3337.960
236.434, 3253.174
237.805, 3008.967
239.175, 2788.135
240.545, 2292.913
241.916, 2052.262
243.286, 1752.074
244.655, 1478.065
246.025, 1261.502
247.394, 1159.399
248.763, 1057.627
250.132, 980.323
251.501, 925.460
252.869, 917.479
254.237, 836.443
255.605, 890.354
256.973, 868.211
258.340, 1003.015
259.708, 1013.765
261.075, 1040.464
262.442, 1188.111
263.808, 1226.708
265.175, 1399.254
266.541, 1468.701
267.907, 1604.116
269.273, 1636.486
270.639, 1724.768
272.004, 1647.069
273.369, 1588.889
274.734, 1493.162
276.099, 1360.453
277.463, 1171.808
278.828, 1077.164
280.192, 839.516
281.556, 732.859
282.919, 571.193
284.283, 453.512
285.646, 390.815
287.009, 356.100
288.372, 303.363
289.734, 208.604
291.097, 211.818
292.459, 177.006
293.821, 257.165
295.183, 231.295
296.544, 251.394
297.905, 354.462
299.266, 377.497
300.627, 484.498
301.988, 508.464
303.348, 498.394
304.709, 543.286
306.069, 443.140
307.428, 395.956
308.788, 379.732
310.147, 290.470
311.507, 262.167
312.865, 162.825
314.224, 147.439
315.583, 112.011
316.941, 91.539
318.299, 52.023
319.657, 15.460
321.015, 44.848
322.372, 21.187
323.729, 2.472
325.086, 2.299
326.443, 28.128
327.800, 24.024
329.156, 30.986
330.512, 29.019
331.868, 5.124
333.224, 35.704
334.579, 17.469
335.935, 39.172
337.290, 26.814
338.645, 38.395
339.999, 39.917
341.354, 10.381
342.708, 17.785
344.062, 33.132
345.416, 23.423
346.769, 1.659
348.123, 42.837
349.476, 27.038
350.829, 42.979
352.182, 46.987
353.534, 17.065
354.887, 61.204
356.239, 61.415
357.591, 54.698
358.942, 101.050
360.294, 61.490
361.645, 45.004
362.996, 43.589
364.347, 66.238
365.698, 57.959
367.048, 45.748
368.398, 42.602
369.748, 30.710
371.098, 21.835
372.448, 10.557
373.797, 5.680
375.146, 5.123
376.495, 5.848
377.844, 14.478
379.192, 22.814
380.540, 60.445
381.889, 49.819
383.236, 57.131
384.584, 90.383
385.932, 86.571
387.279, 103.700
388.626, 123.767
389.973, 140.741
391.319, 168.532
392.666, 211.404
394.012, 222.067
395.358, 255.634
396.704, 275.104
398.049, 311.288
399.394, 348.783
400.740, 396.018
402.084, 436.199
403.429, 493.332
404.774, 578.424
406.118, 654.479
407.462, 679.499
408.806, 762.486
410.150, 928.443
411.493, 955.372
412.836, 1114.277
414.179, 1313.158
415.522, 1399.018
416.865, 1557.855
418.207, 1694.671
419.549, 1817.465
420.891, 1834.237
422.233, 1882.989
423.575, 1809.718
424.916, 1709.428
426.257, 1611.116
427.598, 1455.785
428.939, 1328.421
430.279, 1138.025
431.619, 1066.596
432.959, 922.136
434.299, 874.644
435.639, 815.123
436.978, 733.570
438.318, 729.985
439.657, 659.368
440.996, 687.719
442.334, 686.037
443.673, 756.323
445.011, 766.577
446.349, 811.798
447.687, 911.988
449.024, 967.145
450.361, 982.270
451.699, 1036.293
453.036, 1063.753
454.372, 1053.299
455.709, 1084.145
457.045, 1026.845
458.381, 929.593
459.717, 918.497
461.053, 874.369
462.388, 779.211
463.724, 740.022
465.059, 697.802
466.394, 698.551
467.728, 667.271
469.063, 622.959
470.397, 646.618
471.731, 585.174
473.065, 544.576
474.398, 595.529
475.732, 582.384
477.065, 586.030
478.398, 587.469
479.731, 595.010
481.063, 608.605
482.396, 624.836
483.728, 644.326
485.060, 668.678
486.391, 688.618
487.723, 720.440
489.054, 733.486
490.385, 765.060
491.716, 843.725
493.047, 873.857
494.377, 944.340
495.708, 965.464
497.038, 1030.939
498.368, 1050.194
499.697, 1101.611
501.027, 1173.019
502.356, 1249.814
503.685, 1318.791
505.014, 1368.025
506.342, 1488.069
507.671, 1602.339
508.999, 1706.638
510.327, 1758.072
511.655, 1856.492
512.982, 1964.639
514.310, 2029.652
515.637, 2215.885
516.964, 2252.088
518.291, 2367.710
519.617, 2485.415
520.944, 2523.596
522.270, 2738.801
523.596, 2809.101
524.921, 2881.971
526.247, 2965.364
527.572, 3018.515
528.897, 3064.859
530.222, 3102.946
531.547, 3193.600
532.871, 3151.959
534.196, 3183.631
535.520, 3243.961
536.844, 3135.324
538.167, 3194.954
539.491, 3119.743
540.814, 3041.024
542.137, 2943.194
543.460, 2817.443
544.783, 2695.993
546.105, 2448.474
547.427, 2373.117
548.749, 2183.889
550.071, 1931.728
551.393, 1829.677
552.714, 1645.807
554.035, 1497.982
555.356, 1412.294
556.677, 1275.688
557.998, 1236.558
559.318, 1142.835
560.638, 1213.428
561.958, 1207.016
563.278, 1282.598
564.597, 1306.175
565.917, 1459.747
567.236, 1495.313
568.555, 1415.874
569.874, 1302.431
571.192, 1154.982
572.511, 1009.530
573.829, 844.072
575.147, 699.611
576.464, 635.145
577.782, 509.675
579.099, 441.201
580.416, 388.723
581.733, 306.241
583.050, 290.756
584.366, 275.267
585.683, 222.774
586.999, 207.278
588.315, 178.779
589.630, 186.276
590.946, 188.771
592.261, 142.263
593.576, 143.751
594.891, 126.238
596.206, 145.722
597.520, 175.204
598.834, 162.683
600.148, 138.161
601.462, 189.636
602.776, 212.111
604.089, 168.583
605.402, 229.054
606.715, 173.524
608.028, 187.993
609.341, 200.461
610.653, 213.930
611.965, 224.400
613.277, 256.871
614.589, 218.342
615.901, 239.814
617.212, 256.287
618.523, 220.760
619.834, 265.234
621.145, 225.708
622.456, 208.182
623.766, 245.658
625.076, 219.134
626.386, 197.611
627.696, 175.088
629.006, 163.568
630.315, 169.049
631.624, 148.532
632.933, 136.020
634.242, 101.512
635.551, 55.010
636.859, 68.515
638.167, 105.027
639.475, 107.551
640.783, 80.084
642.090, 62.627
643.398, 73.747
644.705, 42.320
646.012, 49.097
647.318, 70.532
648.625, 66.172
649.931, 54.835
651.237, 55.754
652.543, 44.675
653.849, 42.296
655.155, 28.010
656.460, 31.101
657.765, 25.875
659.070, 26.543
660.375, 39.346
661.679, 45.120
662.984, 46.906
664.288, 82.028
665.592, 79.562
666.895, 34.981
668.199, 107.637
669.502, 68.515
670.805, 55.926
672.108, 129.797
673.411, 78.196
674.713, 96.051
676.016, 116.521
677.318, 130.300
678.620, 158.626
679.921, 166.935
681.223, 117.213
682.524, 183.839
683.825, 131.063
685.126, 132.520
686.427, 135.459
687.727, 113.900
689.028, 168.227
690.328, 118.026
691.628, 190.391
692.927, 153.985
694.227, 180.943
695.526, 193.889
696.825, 166.504
698.124, 156.511
699.423, 170.636
700.721, 108.764
702.020, 168.494
703.318, 136.208
704.616, 189.684
705.913, 171.578
707.211, 150.224
708.508, 145.462
709.805, 119.038
711.102, 118.546
712.399, 107.971
713.695, 148.613
714.992, 168.135
716.288, 119.661
717.584, 81.190
718.879, 88.724
720.175, 100.261
721.470, 105.802
722.765, 89.347
724.060, 119.896
725.355, 60.448
726.649, 61.004
727.944, 47.564
729.238, 72.129
730.532, 24.697
731.825, 37.269
733.119, 55.844
734.412, 52.425
735.705, 53.009
736.998, 52.596
738.291, 47.188
739.584, 40.784
740.876, 60.384
742.168, 35.987
743.460, 25.595
744.752, 72.207
746.043, 58.823
747.334, 18.444
748.626, 35.068
749.916, 73.696
751.207, 27.329
752.498, 12.965
753.788, 38.606
755.078, 13.251
756.368, 48.900
757.658, 19.553
758.947, 31.211
760.237, 30.872
761.526, 35.538
762.815, 52.208
764.104, 71.882
765.392, 44.560
766.680, 61.243
767.969, 21.929
769.257, 58.620
770.544, 4.315
771.832, 53.014
773.119, 67.717
774.406, 65.425
775.693, 88.136
776.980, 86.852
778.267, 65.572
779.553, 76.295
780.839, 14.023
782.125, 11.755
783.411, 99.491
784.697, 62.231
785.982, 55.975
787.267, 9.724
788.552, 84.476
789.837, 82.232
791.122, 29.993
792.406, 70.757
793.690, 34.525
794.974, 53.297
796.258, 52.073
797.542, 13.147
798.825, 26.631
800.108, 16.413
801.391, 21.198
802.674, 30.987
803.957, 22.779
805.239, 0.574
806.522, 9.628
807.804, 17.140
809.085, 15.958
810.367, 25.248
811.649, 4.536
812.930, 11.323
814.211, 6.112
815.492, 11.822
816.772, 11.700
818.053, 4.502
819.333, 11.705
820.613, 26.912
821.893, 30.267
823.173, 9.635
824.452, 24.596
825.732, 31.838
827.011, 5.096
828.290, 46.357
829.568, 22.641
830.847, 26.937
832.125, 0.247
833.403, 60.559
834.681, 4.902
835.959, 38.249
837.236, 17.383
838.514, 1.016
839.791, 7.353
841.068, 48.727
842.345, 9.871
843.621, 37.530
844.898, 13.047
846.174, 1.625
847.450, 4.800
848.726, 4.230
850.001, 48.666
851.277, 22.129
852.552, 6.607
853.827, 40.091
855.102, 16.599
856.376, 16.118
857.651, 30.351
858.925, 1.180
860.199, 4.284
861.473, 24.253
862.746, 12.806
864.020, 13.630
865.293, 9.933
866.566, 13.505
867.839, 20.912
869.112, 25.330
870.384, 33.583
871.656, 25.165
872.928, 29.583
874.200, 58.000
875.472, 21.418
876.744, 68.835
878.015, 38.253
879.286, 83.671
880.557, 59.089
881.828, 70.507
883.098, 104.925
884.369, 113.345
885.639, 131.766
886.909, 123.188
888.178, 136.610
889.448, 162.033
890.717, 135.456
891.987, 192.885
893.256, 190.314
894.524, 212.743
895.793, 212.172
897.061, 253.601
898.330, 262.031
899.598, 257.460
900.865, 286.890
902.133, 294.427
903.401, 317.025
904.668, 341.188
905.935, 371.628
907.202, 422.067
908.468, 461.509
909.735, 477.950
911.001, 507.392
912.267, 574.835
913.533, 614.277
914.799, 669.721
916.064, 726.165
917.330, 786.146
918.595, 834.057
919.860, 928.504
921.124, 1020.952
922.389, 1115.400
923.653, 1233.848
924.918, 1373.528
926.182, 1469.745
927.445, 1700.193
928.709, 1869.642
929.972, 2070.091
931.236, 2366.539
932.499, 2767.988
933.761, 3091.437
935.024, 3646.886
936.286, 4350.337
937.549, 5161.788
938.811, 6360.244
940.073, 7791.699
941.334, 9691.157
942.596, 11820.614
943.857, 14630.076
945.118, 17689.543
946.379, 19939.006
947.640, 21078.471
948.900, 20227.943
950.161, 18516.852
951.421, 15836.324
952.681, 12825.798
953.940, 10165.270
955.200, 8364.743
956.459, 6765.217
957.719, 5623.664
958.978, 4472.669
960.236, 3648.259
961.495, 3111.736
962.753, 2687.853
964.012, 2310.333
965.270, 2017.813
966.527, 1792.294
967.785, 1583.775
969.043, 1403.257
970.300, 1257.726
971.557, 1127.844
972.814, 1046.071
974.071, 964.751
975.327, 934.236
976.583, 946.219
977.840, 935.765
979.095, 900.816
980.351, 922.447
981.607, 934.495
982.862, 959.287
984.117, 1064.565
985.372, 1067.262
986.627, 1127.278
987.882, 1134.354
989.136, 1197.866
990.390, 1193.178
991.644, 1175.037
992.898, 1128.425
994.152, 1099.951
995.405, 1105.026
996.659, 1028.556
997.912, 1007.874
999.165, 992.845
1000.417, 1020.844
1001.670, 1020.190
1002.922, 989.163
1004.174, 1070.037
1005.426, 1034.923
1006.678, 1044.221
1007.930, 1038.545
1009.181, 1047.120
1010.432, 1112.286
1011.683, 1144.709
1012.934, 1187.551
1014.185, 1207.064
1015.435, 1195.654
1016.685, 1155.335
1017.935, 1137.817
1019.185, 1097.017
1020.435, 1057.920
1021.684, 1016.653
1022.934, 985.273
1024.183, 952.896
1025.432, 947.523
1026.680, 966.155
1027.929, 987.789
1029.177, 1001.427
1030.425, 1073.069
1031.673, 1132.516
1032.921, 1248.363
1034.169, 1314.449
1035.416, 1448.268
1036.663, 1571.928
1037.911, 1822.866
1039.157, 2094.532
1040.404, 2258.201
1041.650, 2661.241
1042.897, 3175.920
1044.143, 3722.612
1045.389, 4325.307
1046.634, 5037.004
1047.880, 5610.708
1049.125, 6243.412
1050.371, 6422.120
1051.615, 6197.831
1052.860, 5485.384
1054.105, 4688.555
1055.349, 4024.938
1056.593, 3340.669
1057.837, 2738.889
1059.081, 2284.625
1060.325, 1927.431
1061.568, 1621.175
1062.812, 1416.920
1064.055, 1216.939
1065.298, 1062.715
1066.540, 956.470
1067.783, 903.969
1069.025, 800.732
1070.267, 728.499
1071.509, 686.277
1072.751, 601.058
1073.993, 592.875
1075.234, 600.662
1076.475, 538.477
1077.716, 464.270
1078.957, 395.064
1080.198, 351.862
1081.438, 423.704
1082.679, 364.509
1083.919, 338.316
1085.159, 305.438
1086.398, 265.303
1087.638, 224.074
1088.877, 213.892
1090.116, 207.078
1091.355, 199.923
1092.594, 186.081
1093.833, 182.907
1095.071, 173.277
1096.309, 182.583
1097.547, 153.421
1098.785, 157.325
1100.023, 131.178
1101.260, 143.132
1102.498, 113.989
1103.735, 85.868
1104.972, 134.732
1106.208, 110.593
1107.445, 83.162
1108.681, 125.029
1109.918, 76.901
1111.154, 35.303
1112.389, 59.188
1113.625, 23.110
1114.860, 53.012
1116.096, 53.926
1117.331, 64.862
1118.566, 109.958
1119.800, 155.974
1121.035, 145.876
1122.269, 57.909
1123.503, 14.829
1124.737, 53.826
1125.971, 41.839
1127.205, 20.844
1128.438, 45.206
1129.671, 36.285
1130.904, 4.839
1132.137, 38.857
1133.370, 30.170
1134.602, 72.231
1135.834, 17.371
1137.066, 51.750
1138.298, 59.102
1139.530, 17.336
1140.762, 51.266
1141.993, 40.401
1143.224, 65.485
1144.455, 50.699
1145.686, 60.777
1146.917, 80.930
1148.147, 37.058
1149.377, 37.627
1150.607, 35.983
1151.837, 50.760
1153.067, 47.393
1154.296, 48.723
1155.526, 27.866
1156.755, 57.958
1157.984, 22.052
1159.213, 103.144
1160.441, 45.237
1161.670, 58.516
1162.898, 36.622
1164.126, 18.778
1165.354, 56.156
1166.581, 18.269
1167.809, 30.422
1169.036, 90.531
1170.263, 39.934
1171.490, 26.076
1172.717, 23.568
1173.943, 38.794
1175.170, 5.896
1176.396, 56.996
1177.622, 7.450
1178.848, 10.566
1180.073, 26.692
1181.299, 13.150
1182.524, 7.065
1183.749, 28.353
1184.974, 9.441
1186.199, 5.632
1187.423, 44.703
1188.648, 28.126
1189.872, 31.032
1191.096, 18.131
1192.320, 12.179
1193.543, 43.428
1194.767, 6.608
1195.990, 27.647
1197.213, 22.767
1198.436, 11.861
1199.659, 16.882
1200.881, 9.868
1202.104, 13.267
1203.326, 16.887
1204.548, 9.969
1205.770, 18.051
1206.991, 0.830
1208.213, 28.500
1209.434, 34.475
1210.655, 5.330
1211.876, 5.668
1213.096, 47.673
1214.317, 12.726
1215.537, 39.546
1216.757, 59.572
1217.977, 38.792
1219.197, 51.758
1220.417, 9.809
1221.636, 18.969
1222.855, 12.904
1224.074, 30.152
1225.293, 24.061
1226.512, 58.019
1227.731, 12.624
1228.949, 67.596
1230.167, 25.541
1231.385, 2.374
1232.603, 11.501
1233.820, 12.237
1235.038, 41.619
1236.255, 2.531
1237.472, 21.547
1238.689, 17.573
1239.906, 37.245
1241.122, 33.002
1242.338, 56.810
1243.555, 26.521
1244.771, 18.756
1245.986, 39.532
1247.202, 9.421
1248.417, 60.295
1249.633, 29.060
1250.848, 33.822
1252.063, 38.578
1253.277, 4.668
1254.492, 42.106
1255.706, 65.890
1256.920, 1.346
1258.134, 37.715
1259.348, 29.443
1260.562, 35.320
1261.775, 33.134
1262.988, 28.995
1264.201, 7.145
1265.414, 13.001
1266.627, 43.698
1267.839, 13.416
1269.052, 49.085
1270.264, 24.786
1271.476, 23.427
1272.688, 28.072
1273.899, 2.876
1275.111, 16.065
1276.322, 15.738
1277.533, 35.055
1278.744, 5.638
1279.955, 30.213
1281.165, 15.781
1282.376, 5.339
1283.586, 6.318
1284.796, 11.272
1286.006, 3.902
1287.215, 23.740
1288.425, 36.253
1289.634, 15.760
1290.843, 41.240
1292.052, 23.844
1293.261, 31.175
1294.469, 3.631
1295.678, 8.931
1296.886, 15.421
1298.094, 3.269
1299.302, 13.287
1300.509, 39.752
1301.717, 84.126
1302.924, 53.559
1304.131, 70.895
1305.338, 56.221
1306.545, 19.589
1307.752, 78.181
1308.958, 43.472
1310.164, 23.179
1311.370, 57.083
1312.576, 46.333
1313.782, 60.572
1314.987, 13.803
1316.193, 49.008
1317.398, 10.192
1318.603, 28.364
1319.807, 65.628
1321.012, 79.781
1322.216, 11.923
1323.421, 54.053
1324.625, 51.171
1325.829, 43.275
1327.032, 69.930
1328.236, 12.842
1329.439, 28.906
1330.642, 70.742
1331.845, 64.782
1333.048, 34.810
1334.251, 4.543
1335.453, 19.543
1336.656, 76.436
1337.858, 20.403
1339.060, 27.356
1340.261, 90.297
1341.463, 38.960
1342.664, 44.442
1343.866, 19.054
1345.067, 2.890
1346.267, 16.538
1347.468, 5.744
1348.669, 25.591
1349.869, 49.938
1351.069, 26.760
1352.269, 10.503
1353.469, 76.302
1354.668, 18.087
1355.868, 49.592
1357.067, 47.438
1358.266, 2.190
1359.465, 11.189
1360.664, 36.915
1361.862, 24.371
1363.061, 49.324
1364.259, 28.008
1365.457, 16.647
1366.655, 53.310
1367.852, 10.936
1369.050, 59.578
1370.247, 44.209
1371.444, 0.832
1372.641, 38.404
1373.838, 44.002
1375.035, 19.619
1376.231, 69.888
1377.427, 8.407
1378.623, 62.017
1379.819, 67.573
1381.015, 15.758
1382.211, 45.278
1383.406, 63.483
1384.601, 19.982
1385.796, 57.562
1386.991, 2.778
1388.185, 2.614
1389.380, 54.810
1390.574, 25.948
1391.768, 29.150
1392.962, 55.635
1394.156, 60.834
1395.350, 72.462
1396.543, 71.099
1397.736, 47.647
1398.929, 44.433
1400.122, 48.416
1401.315, 9.436
1402.507, 65.358
1403.700, 22.824
1404.892, 29.027
1406.084, 21.586
1407.276, 3.997
1408.467, 20.322
1409.659, 49.084
1410.850, 42.752
1412.041, 91.496
1413.232, 43.672
1414.423, 60.879
1415.614, 46.715
1416.804, 15.460
1417.994, 38.259
1419.184, 24.819
1420.374, 14.521
1421.564, 51.311
1422.753, 61.963
1423.943, 58.221
1425.132, 84.203
1426.321, 55.858
1427.510, 27.979
1428.698, 33.464
1429.887, 19.602
1431.075, 70.019
1432.263, 76.457
1433.451, 64.424
1434.639, 67.641
1435.827, 65.062
1437.014, 54.001
1438.201, 59.796
1439.388, 42.093
1440.575, 42.251
1441.762, 66.903
1442.949, 19.948
1444.135, 87.217
1445.321, 20.981
1446.507, 40.325
1447.693, 45.344
1448.879, 22.174
1450.064, 1.169
1451.250, 54.694
1452.435, 16.644
1453.620, 44.450
1454.805, 42.883
1455.989, 55.588
1457.174, 46.651
1458.358, 76.958
1459.542, 41.300
1460.726, 75.083
1461.910, 2.846
1463.093, 34.786
1464.277, 40.626
1465.460, 26.337
1466.643, 31.415
1467.826, 52.605
1469.009, 46.946
1470.191, 96.219
1471.373, 75.778
1472.556, 5.347
1473.738, 58.541
1474.919, 68.762
1476.101, 19.847
1477.283, 113.415
1478.464, 42.950
1479.645, 44.066
1480.826, 79.164
1482.007, 93.605
1483.187, 57.060
1484.368, 70.491
1485.548, 20.927
1486.728, 60.068
1487.908, 32.197
1489.088, 14.654
1490.268, 103.878
1491.447, 38.031
1492.626, 9.398
1493.805, 87.740
1494.984, 18.207
1496.163, 44.261
1497.341, 45.701
1498.520, 3.872
1499.698, 66.591
1500.876, 87.080
1502.054, 34.267
1503.232, 65.765
1504.409, 64.265
1505.586, 51.789
1506.763, 97.326
1507.940, 26.869
1509.117, 6.446
1510.294, 67.081
1511.470, 19.799
1512.647, 50.557
1513.823, 45.382
1514.999, 25.231
1516.174, 0.909
1517.350, 57.022
1518.526, 61.026
1519.701, 109.118
1520.876, 26.306
1522.051, 72.593
1523.226, 54.573
1524.400, 38.271
1525.574, 19.224
1526.749, 6.640
1527.923, 0.172
1529.097, 0.000
##END=



