##NAMES=Vivianite
##RRUFFID=R040185
##IDEAL CHEMISTRY=Fe^2+^_3_(PO_4_)_2_&#183;8H_2_O
##LOCALITY=Siglo XX mine, Llallagua, Bustillos, Potosi, Bolivia
##OWNER=RRUFF
##SOURCE=University of Arizona Mineral Museum
##DESCRIPTION=Green acicular single crystal
##STATUS=The identification of this mineral has been confirmed by X-ray diffraction and chemical analysis
##URL=rruff.info/R040185
##MEASURED CHEMISTRY=(Fe_1.00_Mn_0.01_)_3_(P_0.97_Si_0.03_O_3.94_F_0.07_)_2_Â·8H_2_O
##PIN_ID=M00443
##ORIENTATION=Laser parallel to -c* (0 0 -1). Fiducial mark perpendicular to laser is parallel to a [1 0 0]
98.251, 0.000
99.644, 78.250
101.036, 33.996
102.428, 1.824
103.820, 108.338
105.212, 11.997
106.604, 66.775
107.995, 23.146
109.387, 37.603
110.777, 113.541
112.168, 89.369
113.559, 214.854
114.949, 229.758
116.339, 209.867
117.729, 211.003
119.119, 296.016
120.508, 451.769
121.897, 717.170
123.286, 1145.294
124.675, 1753.207
126.063, 2427.821
127.452, 2300.034
128.840, 1693.721
130.228, 879.773
131.615, 382.107
133.003, 215.688
134.390, 216.503
135.777, 307.519
137.164, 486.693
138.550, 738.985
139.937, 1043.354
141.323, 1384.768
142.709, 1922.207
144.094, 2097.732
145.480, 2409.814
146.865, 2187.967
148.250, 2183.334
149.635, 1822.278
151.019, 1466.294
152.403, 1301.333
153.788, 968.451
155.171, 1038.458
156.555, 1225.208
157.939, 1663.661
159.322, 2416.819
160.705, 3221.696
162.088, 3833.306
163.470, 3766.693
164.853, 3567.983
166.235, 2823.329
167.617, 2347.788
168.998, 2001.388
170.380, 1518.930
171.761, 1401.358
173.142, 1167.635
174.523, 1164.738
175.904, 1072.697
177.284, 1121.458
178.664, 1218.990
180.044, 1307.284
181.424, 1620.356
182.803, 1870.280
184.183, 2495.171
185.562, 3186.843
186.940, 4110.393
188.319, 5397.689
189.698, 6908.338
191.076, 9087.527
192.454, 11667.117
193.831, 15126.072
195.209, 17577.541
196.586, 18581.174
197.963, 17418.535
199.340, 14118.999
200.717, 11336.546
202.093, 8078.141
203.470, 6299.193
204.846, 4629.600
206.221, 3569.295
207.597, 2897.977
208.972, 2315.594
210.347, 2192.259
211.722, 1970.802
213.097, 1929.404
214.472, 1937.551
215.846, 2149.445
217.220, 2634.301
218.594, 3076.120
219.967, 4181.883
221.341, 5057.588
222.714, 6498.229
224.087, 7362.811
225.460, 8077.329
226.832, 8232.177
228.204, 7358.847
229.577, 6796.113
230.948, 5653.313
232.320, 5258.801
233.692, 5070.755
235.063, 4932.025
236.434, 5105.755
237.805, 4672.159
239.175, 4362.035
240.545, 3465.877
241.916, 2914.703
243.286, 2350.918
244.655, 1793.834
246.025, 1501.529
247.394, 1215.679
248.763, 1032.860
250.132, 766.728
251.501, 724.902
252.869, 645.230
254.237, 552.149
255.605, 493.474
256.973, 394.498
258.340, 379.360
259.708, 359.625
261.075, 309.867
262.442, 331.694
263.808, 252.204
265.175, 300.868
266.541, 293.674
267.907, 229.567
269.273, 268.730
270.639, 262.745
272.004, 340.971
273.369, 259.258
274.734, 262.445
276.099, 195.644
277.463, 194.687
278.828, 144.161
280.192, 35.154
281.556, 6.593
282.919, 14.710
284.283, 3.142
285.646, 30.038
287.009, 41.262
288.372, 74.535
289.734, 81.813
291.097, 62.278
292.459, 78.752
293.821, 91.299
295.183, 50.925
296.544, 64.622
297.905, 17.395
299.266, 35.094
300.627, 37.967
301.988, 17.429
303.348, 7.691
304.709, 58.902
306.069, 10.189
307.428, 74.359
308.788, 22.524
310.147, 32.449
311.507, 31.650
312.865, 19.421
314.224, 47.298
315.583, 7.438
316.941, 28.165
318.299, 19.204
319.657, 52.668
321.015, 107.814
322.372, 186.637
323.729, 167.629
325.086, 152.917
326.443, 196.067
327.800, 221.457
329.156, 205.651
330.512, 356.308
331.868, 377.110
333.224, 380.587
334.579, 528.355
335.935, 648.891
337.290, 699.333
338.645, 800.666
339.999, 914.794
341.354, 1009.794
342.708, 1000.912
344.062, 1055.604
345.416, 899.415
346.769, 805.165
348.123, 647.852
349.476, 533.479
350.829, 340.044
352.182, 283.546
353.534, 297.973
354.887, 138.290
356.239, 131.494
357.591, 135.543
358.942, 80.428
360.294, 83.138
361.645, 10.698
362.996, 78.129
364.347, 4.453
365.698, 20.684
367.048, 21.171
368.398, 39.876
369.748, 0.176
371.098, 3.322
372.448, 19.576
373.797, 23.916
375.146, 0.666
376.495, 30.177
377.844, 2.375
379.192, 66.007
380.540, 28.334
381.889, 28.604
383.236, 24.815
384.584, 19.968
385.932, 100.061
387.279, 46.104
388.626, 118.091
389.973, 29.027
391.319, 80.896
392.666, 113.701
394.012, 66.267
395.358, 79.917
396.704, 77.498
398.049, 70.973
399.394, 42.350
400.740, 44.628
402.084, 43.795
403.429, 50.506
404.774, 66.001
406.118, 87.988
407.462, 118.917
408.806, 148.786
410.150, 117.602
411.493, 149.363
412.836, 147.421
414.179, 146.718
415.522, 159.312
416.865, 201.859
418.207, 216.362
419.549, 173.822
420.891, 223.240
422.233, 213.618
423.575, 255.957
424.916, 228.260
426.257, 223.515
427.598, 203.721
428.939, 166.877
430.279, 141.932
431.619, 195.986
432.959, 158.989
434.299, 240.940
435.639, 184.844
436.978, 185.695
438.318, 224.268
439.657, 120.778
440.996, 233.016
442.334, 165.275
443.673, 258.030
445.011, 246.198
446.349, 279.408
447.687, 333.458
449.024, 265.725
450.361, 376.827
451.699, 341.394
453.036, 308.112
454.372, 319.720
455.709, 238.467
457.045, 266.675
458.381, 196.950
459.717, 132.119
461.053, 151.106
462.388, 62.842
463.724, 77.625
465.059, 71.015
466.394, 36.498
467.728, 45.846
469.063, 30.406
470.397, 69.007
471.731, 16.213
473.065, 27.461
474.398, 13.304
475.732, 5.448
477.065, 4.259
478.398, 4.596
479.731, 7.614
481.063, 62.681
482.396, 27.388
483.728, 47.698
485.060, 38.154
486.391, 0.267
487.723, 27.174
489.054, 57.558
490.385, 55.908
491.716, 2.811
493.047, 61.674
494.377, 41.500
495.708, 10.267
497.038, 13.996
498.368, 21.688
499.697, 52.343
501.027, 82.962
502.356, 76.547
503.685, 91.098
505.014, 58.615
506.342, 85.099
507.671, 109.550
508.999, 141.968
510.327, 150.353
511.655, 182.707
512.982, 168.844
514.310, 165.010
515.637, 222.395
516.964, 165.692
518.291, 244.995
519.617, 256.686
520.944, 235.396
522.270, 257.089
523.596, 205.674
524.921, 306.987
526.247, 235.079
527.572, 213.757
528.897, 321.464
530.222, 266.430
531.547, 322.186
532.871, 264.911
534.196, 284.352
535.520, 323.328
536.844, 203.668
538.167, 334.437
539.491, 213.643
540.814, 224.900
542.137, 164.160
543.460, 135.281
544.783, 193.209
546.105, 67.846
547.427, 107.593
548.749, 62.361
550.071, 14.615
551.393, 22.988
552.714, 32.307
554.035, 42.815
555.356, 0.856
556.677, 25.438
557.998, 45.634
559.318, 26.253
560.638, 98.934
561.958, 74.601
563.278, 205.430
564.597, 300.559
565.917, 319.987
567.236, 455.683
568.555, 515.545
569.874, 450.230
571.192, 443.087
572.511, 278.933
573.829, 320.773
575.147, 190.663
576.464, 244.730
577.782, 165.855
579.099, 102.802
580.416, 143.955
581.733, 56.067
583.050, 110.356
584.366, 161.529
585.683, 135.684
586.999, 136.756
588.315, 116.675
589.630, 136.493
590.946, 105.539
592.261, 117.432
593.576, 203.672
594.891, 211.680
596.206, 236.695
597.520, 266.877
598.834, 215.632
600.148, 273.863
601.462, 324.825
602.776, 492.141
604.089, 422.470
605.402, 408.808
606.715, 532.163
608.028, 435.540
609.341, 609.946
610.653, 544.386
611.965, 621.854
613.277, 660.354
614.589, 709.891
615.901, 692.454
617.212, 758.048
618.523, 672.522
619.834, 794.123
621.145, 675.406
622.456, 761.775
623.766, 736.146
625.076, 684.392
626.386, 700.705
627.696, 550.974
629.006, 619.430
630.315, 532.852
631.624, 497.674
632.933, 492.442
634.242, 463.046
635.551, 549.621
636.859, 448.898
638.167, 474.965
639.475, 471.110
640.783, 352.204
642.090, 434.139
643.398, 368.025
644.705, 462.312
646.012, 453.701
647.318, 430.720
648.625, 476.874
649.931, 382.484
651.237, 411.354
652.543, 364.214
653.849, 309.571
655.155, 399.304
656.460, 283.090
657.765, 284.027
659.070, 342.037
660.375, 243.058
661.679, 309.091
662.984, 292.134
664.288, 296.190
665.592, 353.258
666.895, 234.339
668.199, 428.432
669.502, 259.538
670.805, 357.657
672.108, 283.790
673.411, 227.941
674.713, 347.110
676.016, 347.296
677.318, 343.504
678.620, 353.732
679.921, 203.989
681.223, 312.269
682.524, 285.579
683.825, 296.917
685.126, 378.295
686.427, 290.698
687.727, 331.134
689.028, 309.605
690.328, 341.115
691.628, 371.665
692.927, 350.890
694.227, 372.860
695.526, 334.507
696.825, 322.178
698.124, 321.877
699.423, 279.605
700.721, 344.363
702.020, 327.150
703.318, 287.961
704.616, 373.801
705.913, 255.664
707.211, 300.556
708.508, 241.472
709.805, 251.574
711.102, 200.539
712.399, 198.460
713.695, 296.520
714.992, 186.561
716.288, 235.630
717.584, 222.727
718.879, 167.853
720.175, 252.006
721.470, 166.186
722.765, 298.391
724.060, 295.620
725.355, 147.873
726.649, 322.149
727.944, 242.455
729.238, 294.789
730.532, 347.147
731.825, 217.539
733.119, 367.955
734.412, 274.397
735.705, 286.880
736.998, 392.387
738.291, 259.921
739.584, 393.478
740.876, 344.059
742.168, 274.662
743.460, 397.289
744.752, 368.941
746.043, 423.618
747.334, 385.319
748.626, 390.044
749.916, 411.794
751.207, 285.568
752.498, 381.366
753.788, 423.188
755.078, 316.035
756.368, 409.907
757.658, 212.803
758.947, 375.724
760.237, 340.668
761.526, 299.636
762.815, 326.627
764.104, 254.642
765.392, 215.679
766.680, 284.766
767.969, 107.876
769.257, 265.027
770.544, 134.201
771.832, 165.398
773.119, 205.618
774.406, 40.862
775.693, 141.139
776.980, 13.444
778.267, 42.774
779.553, 34.135
780.839, 17.522
782.125, 13.934
783.411, 4.380
784.697, 12.149
785.982, 18.722
787.267, 42.115
788.552, 50.563
789.837, 65.994
791.122, 104.418
792.406, 9.148
793.690, 115.258
794.974, 3.662
796.258, 88.021
797.542, 71.372
798.825, 23.709
800.108, 86.009
801.391, 1.696
802.674, 40.554
803.957, 2.207
805.239, 91.993
806.522, 50.812
807.804, 51.667
809.085, 31.545
810.367, 71.450
811.649, 163.379
812.930, 68.334
814.211, 273.314
815.492, 227.316
816.772, 291.342
818.053, 386.391
819.333, 253.462
820.613, 431.556
821.893, 475.673
823.173, 401.813
824.452, 641.976
825.732, 543.162
827.011, 641.372
828.290, 644.605
829.568, 593.865
830.847, 810.147
832.125, 653.452
833.403, 713.779
834.681, 834.129
835.959, 695.500
837.236, 923.896
838.514, 761.312
839.791, 753.755
841.068, 845.223
842.345, 739.713
843.621, 878.225
844.898, 755.757
846.174, 718.311
847.450, 844.886
848.726, 650.483
850.001, 741.100
851.277, 726.739
852.552, 700.398
853.827, 806.079
855.102, 625.780
856.376, 670.501
857.651, 730.797
858.925, 616.561
860.199, 788.345
861.473, 677.150
862.746, 656.976
864.020, 631.839
865.293, 578.723
866.566, 691.627
867.839, 583.552
869.112, 640.496
870.384, 642.459
871.656, 550.442
872.928, 623.446
874.200, 579.468
875.472, 584.510
876.744, 718.571
878.015, 520.655
879.286, 674.758
880.557, 718.868
881.828, 568.133
883.098, 780.292
884.369, 585.483
885.639, 740.916
886.909, 753.643
888.178, 678.908
889.448, 862.159
890.717, 708.455
891.987, 821.741
893.256, 900.043
894.524, 836.366
895.793, 929.706
897.061, 902.063
898.330, 935.437
899.598, 1095.828
900.865, 980.237
902.133, 1094.661
903.401, 1220.104
904.668, 1143.565
905.935, 1362.042
907.202, 1216.536
908.468, 1491.046
909.735, 1513.572
911.001, 1416.115
912.267, 1786.674
913.533, 1712.249
914.799, 1978.839
916.064, 2049.445
917.330, 2099.066
918.595, 2377.455
919.860, 2497.107
921.124, 2748.701
922.389, 2986.382
923.653, 2931.078
924.918, 3714.789
926.182, 3874.513
927.445, 4210.354
928.709, 4843.948
929.972, 5052.715
931.236, 6003.109
932.499, 6731.901
933.761, 7580.880
935.024, 9151.707
936.286, 10070.540
937.549, 12369.556
938.811, 14851.158
940.073, 17428.738
941.334, 22957.236
942.596, 26724.166
943.857, 33669.168
945.118, 40508.086
946.379, 43562.602
947.640, 43386.426
948.900, 42880.676
950.161, 36147.145
951.421, 31220.150
952.681, 22626.035
953.940, 18216.590
955.200, 14224.335
956.459, 10463.348
957.719, 9184.906
958.978, 6803.949
960.236, 5623.002
961.495, 4742.370
962.753, 3751.802
964.012, 3307.176
965.270, 2719.756
966.527, 2280.859
967.785, 2165.972
969.043, 1637.093
970.300, 1519.225
971.557, 1386.363
972.814, 1103.513
974.071, 1142.670
975.327, 922.836
976.583, 787.011
977.840, 832.601
979.095, 655.792
980.351, 655.860
981.607, 653.066
982.862, 554.280
984.117, 590.501
985.372, 497.730
986.627, 555.970
987.882, 513.287
989.136, 356.536
990.390, 335.753
991.644, 422.506
992.898, 303.787
994.152, 329.073
995.405, 133.369
996.659, 313.671
997.912, 311.979
999.165, 272.294
1000.417, 343.615
1001.670, 118.942
1002.922, 143.284
1004.174, 226.635
1005.426, 95.987
1006.678, 211.369
1007.930, 7.066
1009.181, 93.321
1010.432, 175.716
1011.683, 114.306
1012.934, 149.718
1014.185, 123.212
1015.435, 130.657
1016.685, 132.203
1017.935, 67.635
1019.185, 72.072
1020.435, 179.519
1021.684, 332.014
1022.934, 218.971
1024.183, 169.942
1025.432, 53.414
1026.680, 87.912
1027.929, 47.194
1029.177, 18.700
1030.425, 11.788
1031.673, 14.284
1032.921, 80.211
1034.169, 30.289
1035.416, 4.194
1036.663, 1.323
1037.911, 65.843
1039.157, 66.602
1040.404, 10.948
1041.650, 28.494
1042.897, 59.937
1044.143, 48.800
1045.389, 127.260
1046.634, 216.746
1047.880, 245.864
1049.125, 305.055
1050.371, 315.223
1051.615, 349.717
1052.860, 287.211
1054.105, 240.251
1055.349, 328.753
1056.593, 234.256
1057.837, 195.757
1059.081, 152.257
1060.325, 114.755
1061.568, 120.251
1062.812, 59.744
1064.055, 70.238
1065.298, 90.729
1066.540, 41.218
1067.783, 85.163
1069.025, 109.272
1070.267, 55.293
1071.509, 64.105
1072.751, 38.500
1073.993, 37.893
1075.234, 51.283
1076.475, 23.331
1077.716, 0.963
1078.957, 74.392
1080.198, 14.256
1081.438, 75.077
1082.679, 18.406
1083.919, 20.266
1085.159, 50.039
1086.398, 8.340
1087.638, 39.366
1088.877, 66.896
1090.116, 5.840
1091.355, 16.415
1092.594, 269.672
1093.833, 89.082
1095.071, 154.396
1096.309, 39.519
1097.547, 29.159
1098.785, 84.409
1100.023, 59.335
1101.260, 47.877
1102.498, 8.902
1103.735, 43.298
1104.972, 110.498
1106.208, 23.309
1107.445, 147.878
1108.681, 137.037
1109.918, 20.189
1111.154, 18.615
1112.389, 21.748
1113.625, 14.871
1114.860, 49.982
1116.096, 66.560
1117.331, 76.218
1118.566, 136.308
1119.800, 131.390
1121.035, 176.575
1122.269, 118.643
1123.503, 59.702
1124.737, 68.753
1125.971, 22.531
1127.205, 84.855
1128.438, 9.878
1129.671, 69.884
1130.904, 127.881
1132.137, 104.870
1133.370, 105.850
1134.602, 51.821
1135.834, 42.783
1137.066, 95.771
1138.298, 10.714
1139.530, 25.640
1140.762, 124.023
1141.993, 81.021
1143.224, 144.555
1144.455, 92.639
1145.686, 80.600
1146.917, 126.884
1148.147, 74.735
1149.377, 74.576
1150.607, 139.818
1151.837, 61.660
1153.067, 116.538
1154.296, 178.084
1155.526, 54.869
1156.755, 114.699
1157.984, 102.200
1159.213, 55.947
1160.441, 129.920
1161.670, 17.183
1162.898, 74.524
1164.126, 65.083
1165.354, 105.739
1166.581, 212.000
1167.809, 134.975
1169.036, 76.726
1170.263, 224.095
1171.490, 101.979
1172.717, 191.893
1173.943, 225.245
1175.170, 39.851
1176.396, 233.125
1177.622, 160.625
1178.848, 156.138
1180.073, 221.820
1181.299, 120.726
1182.524, 216.466
1183.749, 191.389
1184.974, 158.471
1186.199, 248.958
1187.423, 205.329
1188.648, 227.855
1189.872, 178.708
1191.096, 58.658
1192.320, 182.129
1193.543, 239.603
1194.767, 115.612
1195.990, 247.213
1197.213, 125.520
1198.436, 139.306
1199.659, 220.995
1200.881, 60.643
1202.104, 198.900
1203.326, 205.384
1204.548, 147.572
1205.770, 222.744
1206.991, 193.901
1208.213, 228.042
1209.434, 368.167
1210.655, 168.694
1211.876, 194.788
1213.096, 240.229
1214.317, 103.291
1215.537, 220.585
1216.757, 232.272
1217.977, 163.775
1219.197, 205.774
1220.417, 153.967
1221.636, 563.023
1222.855, 1012.062
1224.074, 792.687
1225.293, 1078.768
1226.512, 1108.869
1227.731, 834.335
1228.949, 854.211
1230.167, 656.017
1231.385, 662.855
1232.603, 586.687
1233.820, 363.165
1235.038, 329.732
1236.255, 198.645
1237.472, 246.193
1238.689, 297.682
1239.906, 135.453
1241.122, 186.183
1242.338, 242.897
1243.555, 58.385
1244.771, 176.994
1245.986, 173.660
1247.202, 213.836
1248.417, 213.471
1249.633, 147.530
1250.848, 210.142
1252.063, 149.741
1253.277, 119.965
1254.492, 177.760
1255.706, 188.324
1256.920, 68.715
1258.134, 238.954
1259.348, 148.193
1260.562, 147.492
1261.775, 291.999
1262.988, 119.494
1264.201, 216.977
1265.414, 164.449
1266.627, 103.053
1267.839, 196.489
1269.052, 210.909
1270.264, 134.316
1271.476, 222.710
1272.688, 124.671
1273.899, 213.029
1275.111, 180.955
1276.322, 188.516
1277.533, 159.102
1278.744, 198.360
1279.955, 213.601
1281.165, 174.814
1282.376, 124.935
1283.586, 186.435
1284.796, 154.601
1286.006, 14.786
1287.215, 110.706
1288.425, 37.767
1289.634, 85.806
1290.843, 112.824
1292.052, 55.826
1293.261, 135.789
1294.469, 178.696
1295.678, 14.418
1296.886, 129.436
1298.094, 118.255
1299.302, 67.938
1300.509, 156.830
1301.717, 39.405
1302.924, 30.142
1304.131, 144.858
1305.338, 12.633
1306.545, 93.037
1307.752, 126.614
1308.958, 18.222
1310.164, 152.716
1311.370, 35.312
1312.576, 0.119
1313.782, 100.429
1314.987, 7.085
1316.193, 0.422
1317.398, 61.910
1318.603, 71.621
1319.807, 118.808
1321.012, 24.438
1322.216, 10.831
1323.421, 135.245
1324.625, 62.604
1325.829, 48.949
1327.032, 65.273
1328.236, 24.588
1329.439, 91.885
1330.642, 106.166
1331.845, 9.446
1333.048, 90.706
1334.251, 41.953
1335.453, 38.820
1336.656, 98.970
1337.858, 79.853
1339.060, 23.279
1340.261, 61.378
1341.463, 4.469
1342.664, 36.540
1343.866, 44.593
1345.067, 21.370
1346.267, 118.108
1347.468, 62.107
1348.669, 154.092
1349.869, 162.062
1351.069, 574.020
1352.269, 776.964
1353.469, 398.895
1354.668, 43.813
1355.868, 219.717
1357.067, 49.608
1358.266, 141.484
1359.465, 185.217
1360.664, 20.095
1361.862, 41.958
1363.061, 221.826
1364.259, 72.825
1365.457, 101.671
1366.655, 101.508
1367.852, 9.404
1369.050, 219.230
1370.247, 75.051
1371.444, 75.865
1372.641, 181.679
1373.838, 4.368
1375.035, 201.430
1376.231, 216.236
1377.427, 88.036
1378.623, 194.829
1379.819, 90.554
1381.015, 120.355
1382.211, 192.163
1383.406, 112.963
1384.601, 127.766
1385.796, 262.571
1386.991, 78.534
1388.185, 241.797
1389.380, 268.455
1390.574, 67.470
1391.768, 120.468
1392.962, 192.120
1394.156, 122.760
1395.350, 240.383
1396.543, 79.716
1397.736, 66.328
1398.929, 265.928
1400.122, 84.471
1401.315, 105.916
1402.507, 189.458
1403.700, 54.984
1404.892, 182.467
1406.084, 142.971
1407.276, 127.459
1408.467, 229.931
1409.659, 85.348
1410.850, 126.946
1412.041, 261.498
1413.232, 149.543
1414.423, 157.413
1415.614, 269.870
1416.804, 133.068
1417.994, 247.319
1419.184, 124.860
1420.374, 92.246
1421.564, 169.157
1422.753, 124.190
1423.943, 110.801
1425.132, 278.431
1426.321, 31.351
1427.510, 195.586
1428.698, 187.203
1429.887, 13.681
1431.075, 275.577
1432.263, 198.226
1433.451, 201.562
1434.639, 289.461
1435.827, 104.875
1437.014, 219.572
1438.201, 286.195
1439.388, 119.314
1440.575, 157.109
1441.762, 274.142
1442.949, 92.585
1444.135, 388.014
1445.321, 164.760
1446.507, 228.562
1447.693, 276.849
1448.879, 187.493
1450.064, 259.301
1451.250, 347.080
1452.435, 125.986
1453.620, 308.872
1454.805, 311.058
1455.989, 129.958
1457.174, 314.837
1458.358, 175.910
1459.542, 174.904
1460.726, 296.591
1461.910, 198.581
1463.093, 140.117
1464.277, 349.026
1465.460, 50.539
1466.643, 258.858
1467.826, 246.137
1469.009, 160.178
1470.191, 217.724
1471.373, 248.192
1472.556, 117.278
1473.738, 362.658
1474.919, 226.998
1476.101, 128.361
1477.283, 264.633
1478.464, 185.024
1479.645, 202.436
1480.826, 213.055
1482.007, 184.479
1483.187, 195.992
1484.368, 205.500
1485.548, 178.214
1486.728, 220.077
1487.908, 57.028
1489.088, 144.955
1490.268, 240.876
1491.447, 72.817
1492.626, 171.779
1493.805, 217.758
1494.984, 85.794
1496.163, 141.831
1497.341, 177.870
1498.520, 73.918
1499.698, 228.807
1500.876, 181.913
1502.054, 48.082
1503.232, 217.305
1504.409, 56.598
1505.586, 11.965
1506.763, 327.413
1507.940, 56.009
1509.117, 30.728
1510.294, 113.538
1511.470, 63.432
1512.647, 185.420
1513.823, 148.516
1514.999, 16.731
1516.174, 235.086
1517.350, 53.618
1518.526, 65.338
1519.701, 195.803
1520.876, 11.169
1522.051, 167.220
1523.226, 159.622
1524.400, 78.971
1525.574, 122.531
1526.749, 207.423
1527.923, 12.322
1529.097, 176.292
1530.270, 86.627
1531.444, 0.138
1532.617, 0.000
##END=



