##NAMES=Vivianite
##RRUFFID=R040185
##IDEAL CHEMISTRY=Fe^2+^_3_(PO_4_)_2_&#183;8H_2_O
##LOCALITY=Siglo XX mine, Llallagua, Bustillos, Potosi, Bolivia
##OWNER=RRUFF
##SOURCE=University of Arizona Mineral Museum
##DESCRIPTION=Green acicular single crystal
##STATUS=The identification of this mineral has been confirmed by X-ray diffraction and chemical analysis
##URL=rruff.info/R040185
##MEASURED CHEMISTRY=(Fe_1.00_Mn_0.01_)_3_(P_0.97_Si_0.03_O_3.94_F_0.07_)_2_Â·8H_2_O
##PIN_ID=L00515
##ORIENTATION=Laser parallel to -a* (-1 0 0). Fiducial mark perpendicular to laser is parallel to b [0 1 0]
83.128, 0.000
84.529, 53.479
85.929, 1.167
87.329, 53.643
88.728, 13.956
90.128, 157.400
91.527, 102.454
92.926, 87.667
94.324, 66.148
95.723, 55.167
97.121, 50.574
98.519, 58.250
99.917, 63.199
101.314, 47.349
102.712, 20.628
104.109, 107.042
105.505, 133.723
106.902, 97.208
108.298, 75.577
109.694, 78.821
111.090, 131.961
112.486, 128.017
113.881, 156.234
115.277, 156.863
116.672, 159.428
118.066, 169.843
119.461, 127.126
120.855, 121.315
122.249, 146.438
123.643, 202.926
125.036, 305.532
126.430, 432.260
127.823, 638.582
129.216, 866.435
130.608, 979.709
132.001, 909.999
133.393, 809.276
134.785, 630.546
136.176, 474.825
137.568, 466.121
138.959, 474.405
140.350, 496.670
141.741, 508.251
143.131, 641.195
144.521, 806.769
145.911, 846.036
147.301, 960.217
148.691, 918.109
150.080, 938.871
151.469, 768.626
152.858, 663.379
154.247, 471.165
155.635, 400.054
157.024, 229.111
158.411, 143.359
159.799, 134.727
161.187, 48.109
162.574, 44.495
163.961, 28.864
165.348, 44.205
166.734, 19.517
168.121, 23.812
169.507, 7.916
170.893, 18.340
172.278, 60.580
173.664, 26.194
175.049, 27.982
176.434, 2.216
177.819, 51.401
179.203, 79.574
180.587, 147.732
181.971, 253.877
183.355, 358.009
184.739, 478.126
186.122, 660.546
187.505, 679.972
188.888, 690.777
190.271, 615.461
191.653, 488.008
193.035, 352.003
194.417, 265.983
195.799, 177.947
197.180, 103.896
198.562, 79.828
199.943, 34.743
201.324, 8.322
202.704, 8.723
204.084, 5.060
205.465, 14.106
206.844, 7.259
208.224, 29.434
209.603, 19.649
210.983, 16.115
212.362, 55.833
213.740, 68.523
215.119, 127.199
216.497, 153.860
217.875, 246.509
219.253, 302.144
220.631, 419.795
222.008, 587.964
223.385, 753.628
224.762, 1003.737
226.139, 1191.858
227.515, 1501.957
228.891, 1705.738
230.267, 1721.018
231.643, 2054.697
233.018, 2284.507
234.394, 2319.521
235.769, 2526.956
237.144, 2443.893
238.518, 2636.315
239.893, 2699.005
241.267, 2567.206
242.641, 2220.169
244.014, 1908.956
245.388, 1525.529
246.761, 1198.926
248.134, 965.232
249.507, 774.526
250.879, 651.370
252.252, 522.800
253.624, 466.595
254.996, 413.386
256.367, 363.210
257.739, 372.042
259.110, 283.878
260.481, 273.716
261.852, 293.553
263.222, 195.387
264.592, 248.218
265.962, 211.042
267.332, 248.860
268.702, 229.670
270.071, 248.472
271.440, 221.265
272.809, 237.044
274.178, 250.811
275.546, 267.565
276.915, 266.307
278.283, 225.038
279.650, 184.756
281.018, 189.460
282.385, 181.149
283.752, 162.824
285.119, 132.487
286.486, 108.136
287.852, 73.773
289.218, 84.394
290.584, 95.000
291.950, 54.581
293.316, 65.147
294.681, 64.643
296.046, 70.125
297.411, 75.597
298.775, 77.058
300.140, 121.509
301.504, 146.949
302.868, 203.380
304.231, 210.802
305.595, 289.213
306.958, 340.612
308.321, 305.990
309.684, 317.768
311.047, 304.644
312.409, 238.923
313.771, 222.193
315.133, 161.456
316.495, 200.709
317.856, 116.955
319.217, 154.192
320.578, 95.420
321.939, 75.638
323.299, 110.844
324.660, 105.038
326.020, 128.220
327.380, 121.374
328.739, 136.448
330.099, 122.573
331.458, 149.582
332.817, 147.596
334.176, 155.091
335.534, 200.057
336.892, 235.154
338.251, 240.466
339.608, 270.654
340.966, 317.470
342.323, 380.525
343.681, 396.585
345.037, 451.640
346.394, 407.690
347.751, 417.740
349.107, 359.792
350.463, 295.837
351.819, 244.882
353.174, 179.920
354.530, 155.950
355.885, 121.983
357.240, 73.013
358.594, 71.037
359.949, 44.057
361.303, 29.079
362.657, 29.101
364.011, 10.019
365.365, 3.707
366.718, 7.953
368.071, 1.510
369.424, 0.279
370.777, 25.287
372.129, 13.387
373.481, 20.887
374.833, 28.160
376.185, 6.280
377.537, 35.359
378.888, 33.460
380.239, 25.577
381.590, 6.702
382.941, 12.839
384.291, 10.995
385.642, 10.836
386.992, 21.657
388.341, 22.295
389.691, 26.143
391.040, 16.004
392.389, 23.728
393.738, 5.413
395.087, 17.063
396.435, 42.672
397.784, 60.252
399.132, 22.809
400.479, 64.352
401.827, 34.878
403.174, 55.386
404.521, 68.949
405.868, 71.986
407.215, 88.817
408.561, 93.267
409.908, 85.705
411.254, 76.130
412.599, 109.539
413.945, 135.935
415.290, 143.578
416.636, 159.402
417.980, 173.045
419.325, 183.387
420.670, 191.716
422.014, 233.031
423.358, 219.331
424.702, 246.617
426.045, 283.890
427.389, 276.148
428.732, 283.391
430.075, 328.621
431.417, 358.835
432.760, 377.036
434.102, 394.221
435.444, 449.393
436.786, 489.549
438.127, 564.692
439.469, 665.819
440.810, 703.933
442.151, 825.031
443.492, 1005.115
444.832, 1101.184
446.172, 1337.239
447.512, 1457.279
448.852, 1824.279
450.192, 2107.118
451.531, 2418.985
452.870, 2763.881
454.209, 2955.590
455.548, 3273.327
456.887, 3220.046
458.225, 3158.773
459.563, 2975.505
460.901, 2656.228
462.238, 2381.108
463.576, 1968.975
464.913, 1661.827
466.250, 1447.664
467.587, 1156.487
468.923, 1028.295
470.259, 856.089
471.596, 744.869
472.931, 652.634
474.267, 573.385
475.603, 487.122
476.938, 454.845
478.273, 415.554
479.608, 380.222
480.942, 338.902
482.276, 328.472
483.611, 271.921
484.944, 268.501
486.278, 220.042
487.612, 223.700
488.945, 203.459
490.278, 171.130
491.611, 162.946
492.943, 160.690
494.276, 175.326
495.608, 155.231
496.940, 172.905
498.271, 170.660
499.603, 153.660
500.934, 164.429
502.265, 165.755
503.596, 167.362
504.927, 185.329
506.257, 176.086
507.587, 156.952
508.917, 167.427
510.247, 199.063
511.577, 181.125
512.906, 207.294
514.235, 202.756
515.564, 225.092
516.892, 209.006
518.221, 273.263
519.549, 251.441
520.877, 258.462
522.205, 252.283
523.533, 305.365
524.860, 301.014
526.187, 317.985
527.514, 361.925
528.841, 368.707
530.167, 414.782
531.493, 416.840
532.820, 408.067
534.145, 427.868
535.471, 408.377
536.796, 459.126
538.122, 458.535
539.447, 493.561
540.771, 487.953
542.096, 507.513
543.420, 562.937
544.744, 531.842
546.068, 590.760
547.392, 623.406
548.715, 539.998
550.039, 718.343
551.362, 671.167
552.684, 730.442
554.007, 731.923
555.329, 756.067
556.652, 843.472
557.973, 860.989
559.295, 972.995
560.617, 1057.522
561.938, 1144.841
563.259, 1346.265
564.580, 1493.736
565.901, 1794.202
567.221, 2025.723
568.541, 2356.246
569.861, 2675.722
571.181, 2562.794
572.501, 2952.683
573.820, 2251.313
575.139, 1885.928
576.458, 1643.527
577.777, 1334.111
579.095, 1169.680
580.414, 945.233
581.732, 804.771
583.049, 735.294
584.367, 673.801
585.685, 604.205
587.002, 586.771
588.319, 513.234
589.636, 512.682
590.952, 460.114
592.268, 461.532
593.585, 435.935
594.900, 421.324
596.216, 405.698
597.532, 375.057
598.847, 412.402
600.162, 406.733
601.477, 378.049
602.792, 416.351
604.106, 389.639
605.420, 394.913
606.734, 398.172
608.048, 417.418
609.361, 402.651
610.675, 388.870
611.988, 414.076
613.301, 373.269
614.614, 419.450
615.926, 382.618
617.238, 392.774
618.550, 386.916
619.862, 346.047
621.174, 416.164
622.485, 353.268
623.797, 319.358
625.108, 326.436
626.418, 275.501
627.729, 314.554
629.039, 259.593
630.349, 211.620
631.659, 223.634
632.969, 195.636
634.279, 188.626
635.588, 138.603
636.897, 154.568
638.206, 132.521
639.515, 82.462
640.823, 111.391
642.131, 123.309
643.439, 87.216
644.747, 71.111
646.055, 39.994
647.362, 58.865
648.669, 29.723
649.976, 35.567
651.283, 53.398
652.589, 21.218
653.896, 36.022
655.202, 0.186
656.508, 14.584
657.814, 22.337
659.119, 10.923
660.424, 31.790
661.729, 6.509
663.034, 3.833
664.339, 22.179
665.643, 32.557
666.947, 3.972
668.251, 27.409
669.555, 13.879
670.859, 3.376
672.162, 49.893
673.465, 12.454
674.768, 6.039
676.071, 21.644
677.373, 38.276
678.676, 37.943
679.978, 42.940
681.280, 25.380
682.581, 41.141
683.883, 29.932
685.184, 34.745
686.485, 8.414
687.786, 35.430
689.087, 26.293
690.387, 7.825
691.687, 31.053
692.987, 29.947
694.287, 6.861
695.586, 31.775
696.886, 46.701
698.185, 15.650
699.484, 4.608
700.783, 27.569
702.081, 27.545
703.379, 21.539
704.677, 21.548
705.975, 9.427
707.273, 12.601
708.570, 14.362
709.868, 12.677
711.165, 19.277
712.462, 8.229
713.758, 10.178
715.055, 19.875
716.351, 0.497
717.647, 2.006
718.943, 21.924
720.238, 23.852
721.533, 21.777
722.829, 70.700
724.124, 37.621
725.418, 70.539
726.713, 75.455
728.007, 68.370
729.301, 99.282
730.595, 64.192
731.889, 106.099
733.182, 91.005
734.476, 104.908
735.769, 149.809
737.061, 132.709
738.354, 153.607
739.647, 149.504
740.939, 165.400
742.231, 173.294
743.523, 155.188
744.814, 216.081
746.106, 181.973
747.397, 211.865
748.688, 246.756
749.978, 195.648
751.269, 251.540
752.559, 226.432
753.849, 286.324
755.139, 294.217
756.429, 250.110
757.719, 270.004
759.008, 303.899
760.297, 320.796
761.586, 347.694
762.875, 320.593
764.163, 309.494
765.451, 314.397
766.739, 289.301
768.027, 329.208
769.315, 302.117
770.602, 332.029
771.890, 347.943
773.177, 266.859
774.463, 307.779
775.750, 289.702
777.036, 326.627
778.323, 337.557
779.609, 270.489
780.894, 313.426
782.180, 268.366
783.465, 257.310
784.750, 298.258
786.035, 299.211
787.320, 321.168
788.605, 246.129
789.889, 278.095
791.173, 275.066
792.457, 229.042
793.741, 263.023
795.024, 270.987
796.307, 297.979
797.591, 311.977
798.873, 297.981
800.156, 317.941
801.439, 303.777
802.721, 319.709
804.003, 333.474
805.285, 295.324
806.566, 352.275
807.848, 328.951
809.129, 332.853
810.410, 403.667
811.691, 394.243
812.971, 391.059
814.252, 439.312
815.532, 413.286
816.812, 454.895
818.092, 466.712
819.371, 528.423
820.651, 517.520
821.930, 457.456
823.209, 567.962
824.488, 511.361
825.766, 520.464
827.045, 550.688
828.323, 535.319
829.601, 564.403
830.878, 566.551
832.156, 610.713
833.433, 594.945
834.710, 555.918
835.987, 597.049
837.264, 640.240
838.540, 570.198
839.817, 608.907
841.093, 517.229
842.369, 561.009
843.644, 531.415
844.920, 479.805
846.195, 553.024
847.470, 456.365
848.745, 478.214
850.020, 450.554
851.294, 410.012
852.568, 490.480
853.842, 362.690
855.116, 409.526
856.390, 402.422
857.663, 334.753
858.936, 363.143
860.209, 305.823
861.482, 358.882
862.755, 355.600
864.027, 270.763
865.299, 303.514
866.571, 279.282
867.843, 257.066
869.115, 284.036
870.386, 246.832
871.657, 251.623
872.928, 295.479
874.199, 248.352
875.470, 258.243
876.740, 254.150
878.010, 258.075
879.280, 267.017
880.550, 350.976
881.820, 608.952
883.089, 561.946
884.358, 567.957
885.627, 445.985
886.896, 256.032
888.164, 266.096
889.433, 256.178
890.701, 297.278
891.969, 325.397
893.236, 311.534
894.504, 362.690
895.771, 352.865
897.038, 315.064
898.305, 381.282
899.572, 357.522
900.838, 406.781
902.105, 445.058
903.371, 447.353
904.637, 505.667
905.902, 516.999
907.168, 561.351
908.433, 612.721
909.698, 587.114
910.963, 687.527
912.228, 690.958
913.492, 734.410
914.757, 859.882
916.021, 829.373
917.285, 1014.882
918.548, 1036.411
919.812, 1088.959
921.075, 1244.527
922.338, 1266.114
923.601, 1490.723
924.864, 1544.350
926.126, 1793.007
927.388, 2115.684
928.650, 2152.379
929.912, 2466.094
931.174, 2871.829
932.435, 2957.582
933.697, 3581.355
934.958, 3973.146
936.218, 4684.958
937.479, 5448.790
938.739, 6165.639
940.000, 7664.512
941.260, 9106.399
942.520, 11205.309
943.779, 14084.237
945.039, 16793.184
946.298, 21952.152
947.557, 26561.143
948.816, 31020.150
950.074, 35739.336
951.333, 35048.387
952.591, 33047.523
953.849, 29806.613
955.107, 23505.717
956.365, 20026.018
957.622, 15495.166
958.879, 12354.336
960.136, 10263.624
961.393, 7932.069
962.650, 6733.493
963.906, 5541.552
965.162, 4453.830
966.418, 4102.076
967.674, 3294.401
968.930, 2933.126
970.185, 2705.405
971.441, 2209.813
972.696, 2140.957
973.950, 1774.715
975.205, 1616.984
976.459, 1473.484
977.714, 1237.073
978.968, 1265.758
980.222, 1093.950
981.475, 993.584
982.729, 930.374
983.982, 743.502
985.235, 700.993
986.488, 706.541
987.740, 548.326
988.993, 564.046
990.245, 445.629
991.497, 412.505
992.749, 350.438
994.000, 273.360
995.252, 392.309
996.503, 311.913
997.754, 267.141
999.005, 302.755
1000.256, 237.794
1001.506, 265.861
1002.756, 302.861
1004.006, 220.981
1005.256, 286.862
1006.506, 247.026
1007.755, 255.222
1009.005, 347.475
1010.254, 253.716
1011.502, 366.974
1012.751, 361.739
1014.000, 350.147
1015.248, 411.465
1016.496, 386.797
1017.744, 447.148
1018.991, 450.614
1020.239, 408.999
1021.486, 479.400
1022.733, 394.962
1023.980, 489.392
1025.227, 504.839
1026.473, 453.320
1027.719, 534.795
1028.965, 459.285
1030.211, 510.788
1031.457, 634.310
1032.702, 599.845
1033.948, 748.394
1035.193, 802.957
1036.438, 824.533
1037.682, 1007.122
1038.927, 1036.870
1040.171, 1203.489
1041.415, 1418.118
1042.659, 1578.027
1043.903, 1947.681
1045.146, 2201.579
1046.390, 2686.588
1047.633, 3584.427
1048.876, 3589.923
1050.118, 4388.640
1051.361, 4838.373
1052.603, 4892.118
1053.845, 4949.812
1055.087, 4647.640
1056.329, 4187.550
1057.571, 3676.339
1058.812, 2733.137
1060.053, 2220.954
1061.294, 1772.780
1062.535, 1390.238
1063.775, 1144.086
1065.016, 833.944
1066.256, 686.813
1067.496, 567.692
1068.736, 397.816
1069.975, 403.715
1071.214, 352.624
1072.454, 238.162
1073.693, 243.090
1074.931, 159.256
1076.170, 186.205
1077.408, 165.163
1078.647, 63.211
1079.885, 160.187
1081.122, 55.170
1082.360, 70.163
1083.597, 79.163
1084.835, 35.173
1086.072, 65.191
1087.308, 60.218
1088.545, 25.322
1089.781, 107.364
1091.018, 16.413
1092.254, 50.488
1093.490, 44.551
1094.725, 28.621
1095.961, 32.698
1097.196, 35.782
1098.431, 8.629
1099.666, 54.466
1100.900, 4.433
1102.135, 49.674
1103.369, 54.786
1104.603, 34.095
1105.837, 60.044
1107.071, 3.163
1108.304, 4.555
1109.538, 9.423
1110.771, 32.293
1112.004, 44.169
1113.236, 3.944
1114.469, 45.938
1115.701, 4.166
1116.933, 33.725
1118.165, 43.625
1119.397, 3.017
1120.629, 38.892
1121.860, 8.183
1123.091, 19.104
1124.322, 23.029
1125.553, 0.224
1126.783, 61.705
1128.014, 33.653
1129.244, 27.381
1130.474, 60.582
1131.704, 9.171
1132.933, 35.158
1134.163, 35.159
1135.392, 45.825
1136.621, 54.189
1137.850, 13.835
1139.079, 32.440
1140.307, 37.603
1141.535, 43.336
1142.763, 9.276
1143.991, 14.784
1145.219, 64.546
1146.446, 8.521
1147.674, 65.406
1148.901, 31.472
1150.128, 13.602
1151.354, 87.737
1152.581, 9.796
1153.807, 24.112
1155.033, 62.980
1156.259, 7.221
1157.485, 36.215
1158.710, 44.277
1159.936, 20.820
1161.161, 6.515
1162.386, 31.868
1163.611, 28.759
1164.835, 37.492
1166.060, 11.459
1167.284, 51.405
1168.508, 55.643
1169.732, 8.501
1170.955, 42.355
1172.179, 41.777
1173.402, 14.625
1174.625, 107.651
1175.848, 24.584
1177.070, 53.421
1178.293, 77.485
1179.515, 22.315
1180.737, 70.141
1181.959, 43.152
1183.181, 46.970
1184.402, 33.909
1185.624, 14.765
1186.845, 22.570
1188.066, 40.453
1189.286, 12.297
1190.507, 41.085
1191.727, 14.324
1192.947, 6.900
1194.167, 18.110
1195.387, 2.842
1196.607, 33.582
1197.826, 53.195
1199.045, 28.923
1200.264, 59.647
1201.483, 47.447
1202.702, 22.217
1203.920, 85.922
1205.138, 2.715
1206.356, 59.398
1207.574, 63.141
1208.792, 10.950
1210.009, 64.609
1211.227, 44.386
1212.444, 42.031
1213.661, 69.707
1214.877, 23.562
1216.094, 55.189
1217.310, 60.810
1218.526, 14.493
1219.742, 61.094
1220.958, 12.578
1222.173, 60.989
1223.389, 88.549
1224.604, 34.209
1225.819, 75.753
1227.034, 46.289
1228.248, 47.876
1229.463, 63.396
1230.677, 51.175
1231.891, 81.902
1233.105, 113.398
1234.318, 38.970
1235.532, 88.447
1236.745, 84.519
1237.958, 44.441
1239.171, 118.897
1240.384, 56.345
1241.596, 73.785
1242.809, 86.219
1244.021, 26.645
1245.233, 59.001
1246.444, 105.410
1247.656, 58.764
1248.867, 86.158
1250.079, 68.545
1251.290, 47.779
1252.500, 119.144
1253.711, 41.502
1254.921, 51.754
1256.132, 73.860
1257.342, 53.005
1258.552, 87.528
1259.761, 64.845
1260.971, 50.235
1262.180, 120.535
1263.389, 61.452
1264.598, 21.835
1265.807, 111.109
1267.015, 18.666
1268.223, 59.617
1269.432, 76.077
1270.640, 34.324
1271.847, 96.547
1273.055, 45.639
1274.262, 56.297
1275.470, 62.470
1276.677, 19.504
1277.883, 59.052
1279.090, 64.011
1280.296, 58.935
1281.503, 110.187
1282.709, 15.395
1283.915, 17.760
1285.120, 95.852
1286.326, 226.896
1287.531, 218.043
1288.736, 75.108
1289.941, 13.286
1291.146, 47.517
1292.350, 53.957
1293.555, 25.975
1294.759, 56.982
1295.963, 12.077
1297.167, 8.089
1298.370, 47.368
1299.574, 16.663
1300.777, 15.715
1301.980, 30.618
1303.183, 25.546
1304.386, 83.651
1305.588, 8.930
1306.790, 9.892
1307.993, 43.776
1309.195, 0.650
1310.396, 24.517
1311.598, 53.270
1312.799, 13.114
1314.000, 56.947
1315.201, 72.627
1316.402, 6.444
1317.603, 56.263
1318.803, 24.040
1320.003, 31.829
1321.203, 83.609
1322.403, 5.620
1323.603, 75.174
1324.802, 78.923
1326.002, 24.664
1327.201, 52.485
1328.400, 30.208
1329.599, 40.911
1330.797, 73.632
1331.995, 35.313
1333.194, 41.041
1334.392, 62.439
1335.589, 11.095
1336.787, 63.674
1337.985, 47.982
1339.182, 22.464
1340.379, 83.318
1341.576, 1.077
1342.772, 79.514
1343.969, 63.192
1345.165, 34.766
1346.361, 39.332
1347.557, 87.777
1348.753, 4.673
1349.949, 57.870
1351.144, 37.404
1352.339, 27.924
1353.534, 75.814
1354.729, 29.315
1355.924, 81.805
1357.118, 46.161
1358.312, 21.630
1359.506, 61.872
1360.700, 87.477
1361.894, 37.917
1363.088, 88.731
1364.281, 0.229
1365.474, 82.417
1366.667, 94.824
1367.860, 30.240
1369.052, 106.500
1370.245, 86.862
1371.437, 39.162
1372.629, 110.438
1373.821, 15.990
1375.013, 19.208
1376.204, 64.401
1377.395, 33.644
1378.586, 91.338
1379.777, 61.052
1380.968, 39.729
1382.159, 100.409
1383.349, 74.557
1384.539, 56.201
1385.729, 112.828
1386.919, 88.417
1388.109, 31.852
1389.298, 100.438
1390.487, 48.032
1391.676, 74.629
1392.865, 109.226
1394.054, 49.211
1395.242, 103.103
1396.431, 62.492
1397.619, 75.089
1398.807, 96.710
1399.995, 77.877
1401.182, 64.522
1402.370, 86.708
1403.557, 49.984
1404.744, 72.133
1405.931, 77.825
1407.118, 91.479
1408.304, 75.949
1409.490, 72.352
1410.676, 65.449
1411.862, 115.486
1413.048, 62.849
1414.234, 37.865
1415.419, 136.239
1416.604, 37.525
1417.789, 119.520
1418.974, 78.222
1420.159, 9.554
1421.343, 82.782
1422.528, 55.457
1423.712, 21.603
1424.896, 76.828
1426.079, 66.155
1427.263, 76.339
1428.446, 125.014
1429.629, 32.355
1430.812, 93.395
1431.995, 55.355
1433.178, 13.561
1434.360, 100.796
1435.543, 56.296
1436.725, 52.253
1437.907, 118.339
1439.088, 42.563
1440.270, 37.442
1441.451, 59.570
1442.632, 2.517
1443.813, 69.743
1444.994, 92.793
1446.175, 11.927
1447.355, 66.647
1448.535, 37.431
1449.715, 46.480
1450.895, 74.561
1452.075, 45.749
1453.255, 50.922
1454.434, 118.864
1455.613, 195.933
1456.792, 240.048
1457.971, 90.102
1459.149, 44.203
1460.328, 89.286
1461.506, 72.351
1462.684, 76.345
1463.862, 121.377
1465.040, 38.397
1466.217, 91.466
1467.395, 94.390
1468.572, 25.348
1469.749, 85.465
1470.925, 88.714
1472.102, 10.400
1473.278, 140.454
1474.455, 32.504
1475.631, 71.312
1476.807, 117.753
1477.982, 11.812
1479.158, 84.893
1480.333, 105.732
1481.508, 37.230
1482.683, 61.991
1483.858, 75.596
1485.033, 21.456
1486.207, 68.450
1487.381, 75.454
1488.555, 40.450
1489.729, 88.380
1490.903, 56.350
1492.076, 44.310
1493.250, 104.071
1494.423, 48.500
1495.596, 59.460
1496.769, 112.428
1497.941, 8.933
1499.114, 61.937
1500.286, 42.840
1501.458, 15.590
1502.630, 107.796
1503.802, 82.740
1504.973, 31.479
1506.145, 101.316
1507.316, 55.214
1508.487, 47.159
1509.657, 91.922
1510.828, 31.732
1511.999, 44.494
1513.169, 67.864
1514.339, 0.345
1515.509, 56.559
1516.678, 56.996
1517.848, 0.401
1519.017, 0.000
##END=



