##NAMES=Vivianite
##RRUFFID=R040185
##IDEAL CHEMISTRY=Fe^2+^_3_(PO_4_)_2_&#183;8H_2_O
##LOCALITY=Siglo XX mine, Llallagua, Bustillos, Potosi, Bolivia
##OWNER=RRUFF
##SOURCE=University of Arizona Mineral Museum
##DESCRIPTION=Green acicular single crystal
##STATUS=The identification of this mineral has been confirmed by X-ray diffraction and chemical analysis
##URL=rruff.info/R040185
##MEASURED CHEMISTRY=(Fe_1.00_Mn_0.01_)_3_(P_0.97_Si_0.03_O_3.94_F_0.07_)_2_Â·8H_2_O
##PIN_ID=M00443
##ORIENTATION=Laser parallel to -c* (0 0 -1). Fiducial mark perpendicular to laser is parallel to a [1 0 0]
107.995, 0.000
109.387, 54.710
110.777, 3.117
112.168, 213.311
113.559, 789.825
114.949, 438.796
116.339, 249.208
117.729, 51.466
119.119, 345.043
120.508, 647.437
121.897, 1024.799
123.286, 1696.398
124.675, 2661.490
126.063, 3429.438
127.452, 3190.072
128.840, 2533.209
130.228, 1558.327
131.615, 955.217
133.003, 783.889
134.390, 654.254
135.777, 1256.226
137.164, 1809.447
138.550, 2443.475
139.937, 2937.984
141.323, 3272.805
142.709, 3887.806
144.094, 4653.588
145.480, 6291.418
146.865, 8111.492
148.250, 10891.903
149.635, 12471.795
151.019, 12401.239
152.403, 10670.693
153.788, 7741.010
155.171, 5712.969
156.555, 4326.247
157.939, 3949.941
159.322, 3924.567
160.705, 4360.433
162.088, 4536.967
163.470, 4603.018
164.853, 4857.881
166.235, 4701.255
167.617, 4812.977
168.998, 4883.191
170.380, 4302.275
171.761, 3600.588
173.142, 2448.379
174.523, 1935.544
175.904, 1161.979
177.284, 838.382
178.664, 822.887
180.044, 1056.329
181.424, 1425.467
182.803, 1902.468
184.183, 2559.584
185.562, 3319.228
186.940, 4160.312
188.319, 4955.389
189.698, 5947.086
191.076, 7797.090
192.454, 9699.756
193.831, 12074.241
195.209, 13922.725
196.586, 15007.170
197.963, 14665.424
199.340, 13403.608
200.717, 11608.667
202.093, 9387.388
203.470, 7782.457
204.846, 5918.173
206.221, 4422.183
207.597, 3745.758
208.972, 3656.107
210.347, 2940.478
211.722, 2844.084
213.097, 3070.568
214.472, 3421.980
215.846, 4173.264
217.220, 5246.639
218.594, 6232.475
219.967, 8203.606
221.341, 10100.362
222.714, 12353.956
224.087, 13392.789
225.460, 13859.754
226.832, 13246.577
228.204, 11463.580
229.577, 9755.030
230.948, 7709.127
232.320, 6557.158
233.692, 5448.645
235.063, 4871.294
236.434, 4598.191
237.805, 4093.456
239.175, 3634.311
240.545, 2736.494
241.916, 2115.586
243.286, 1537.624
244.655, 1044.994
246.025, 895.174
247.394, 474.479
248.763, 475.297
250.132, 189.956
251.501, 113.914
252.869, 109.609
254.237, 9.359
255.605, 35.678
256.973, 53.395
258.340, 16.332
259.708, 50.166
261.075, 45.917
262.442, 119.043
263.808, 169.686
265.175, 263.936
266.541, 355.811
267.907, 363.314
269.273, 486.544
270.639, 486.527
272.004, 535.274
273.369, 524.401
274.734, 436.750
276.099, 291.132
277.463, 325.032
278.828, 214.952
280.192, 150.973
281.556, 137.034
282.919, 25.136
284.283, 58.143
285.646, 0.072
287.009, 14.890
288.372, 48.421
289.734, 119.897
291.097, 48.571
292.459, 101.440
293.821, 94.530
295.183, 97.851
296.544, 149.412
297.905, 19.237
299.266, 102.302
300.627, 13.363
301.988, 5.781
303.348, 8.946
304.709, 52.854
306.069, 115.490
307.428, 72.127
308.788, 83.053
310.147, 134.279
311.507, 69.832
312.865, 176.695
314.224, 130.897
315.583, 53.423
316.941, 92.906
318.299, 102.963
319.657, 103.448
321.015, 18.177
322.372, 93.186
323.729, 27.468
325.086, 78.905
326.443, 112.698
327.800, 235.644
329.156, 264.124
330.512, 338.101
331.868, 470.795
333.224, 493.218
334.579, 610.374
335.935, 838.267
337.290, 1018.903
338.645, 1199.287
339.999, 1421.425
341.354, 1549.316
342.708, 1544.928
344.062, 1478.221
345.416, 1394.172
346.769, 1212.714
348.123, 931.872
349.476, 740.686
350.829, 650.225
352.182, 505.510
353.534, 376.560
354.887, 289.375
356.239, 273.932
357.591, 132.229
358.942, 172.235
360.294, 133.934
361.645, 60.299
362.996, 76.236
364.347, 64.771
365.698, 103.873
367.048, 143.570
368.398, 168.897
369.748, 123.903
371.098, 107.548
372.448, 180.799
373.797, 161.649
375.146, 288.060
376.495, 286.105
377.844, 217.762
379.192, 297.070
380.540, 234.115
381.889, 337.922
383.236, 324.521
384.584, 369.929
385.932, 425.158
387.279, 487.228
388.626, 514.151
389.973, 514.926
391.319, 613.550
392.666, 689.009
394.012, 700.291
395.358, 791.380
396.704, 854.262
398.049, 977.943
399.394, 1004.396
400.740, 1143.638
402.084, 1219.691
403.429, 1229.542
404.774, 1365.218
406.118, 1592.721
407.462, 1671.048
408.806, 1861.865
410.150, 2077.746
411.493, 2307.498
412.836, 2506.275
414.179, 2978.047
415.522, 3114.635
416.865, 3547.743
418.207, 3910.943
419.549, 4115.915
420.891, 4243.013
422.233, 4300.967
423.575, 4190.076
424.916, 3942.979
426.257, 3484.398
427.598, 3313.499
428.939, 2793.199
430.279, 2579.827
431.619, 2231.866
432.959, 2024.803
434.299, 1922.842
435.639, 1699.659
436.978, 1764.932
438.318, 1676.194
439.657, 1696.548
440.996, 1735.784
442.334, 1679.194
443.673, 1837.221
445.011, 1970.979
446.349, 2021.344
447.687, 2284.483
449.024, 2344.184
450.361, 2539.795
451.699, 2585.675
453.036, 2725.787
454.372, 2629.336
455.709, 2341.078
457.045, 2380.369
458.381, 2102.185
459.717, 2078.931
461.053, 1817.224
462.388, 1556.475
463.724, 1637.082
465.059, 1418.644
466.394, 1360.528
467.728, 1276.832
469.063, 1215.644
470.397, 1185.546
471.731, 1078.663
473.065, 1002.301
474.398, 902.668
475.732, 895.699
477.065, 841.383
478.398, 755.384
479.731, 847.918
481.063, 790.983
482.396, 771.229
483.728, 754.786
485.060, 722.057
486.391, 763.907
487.723, 705.530
489.054, 710.361
490.385, 784.911
491.716, 840.408
493.047, 779.333
494.377, 752.130
495.708, 829.164
497.038, 757.933
498.368, 817.420
499.697, 831.462
501.027, 866.651
502.356, 826.764
503.685, 844.828
505.014, 924.877
506.342, 1023.473
507.671, 936.786
508.999, 1135.590
510.327, 1101.580
511.655, 1218.154
512.982, 1203.971
514.310, 1231.691
515.637, 1472.479
516.964, 1439.155
518.291, 1602.557
519.617, 1684.173
520.944, 1760.940
522.270, 1916.407
523.596, 2028.419
524.921, 2243.673
526.247, 2336.640
527.572, 2447.516
528.897, 2773.777
530.222, 2817.181
531.547, 3174.083
532.871, 3261.234
534.196, 3401.296
535.520, 3564.605
536.844, 3639.914
538.167, 3976.296
539.491, 3891.405
540.814, 4136.910
542.137, 4058.100
543.460, 3958.887
544.783, 4019.851
546.105, 3703.823
547.427, 3701.616
548.749, 3550.000
550.071, 3336.329
551.393, 3220.013
552.714, 2992.117
554.035, 2948.050
555.356, 2797.311
556.677, 2674.295
557.998, 2580.230
559.318, 2470.108
560.638, 2587.981
561.958, 2480.133
563.278, 2657.491
564.597, 2677.349
565.917, 2566.151
567.236, 2756.900
568.555, 2636.677
569.874, 2513.727
571.192, 2469.335
572.511, 2126.294
573.829, 2212.572
575.147, 1865.085
576.464, 1952.959
577.782, 1876.448
579.099, 1695.366
580.416, 1772.837
581.733, 1578.307
583.050, 1635.639
584.366, 1549.081
585.683, 1353.496
586.999, 1430.875
588.315, 1276.221
589.630, 1289.532
590.946, 1251.807
592.261, 1082.047
593.576, 1101.251
594.891, 963.420
596.206, 915.189
597.520, 895.298
598.834, 801.378
600.148, 854.435
601.462, 713.472
602.776, 839.493
604.089, 813.503
605.402, 649.503
606.715, 819.711
608.028, 601.708
609.341, 716.721
610.653, 738.767
611.965, 743.832
613.277, 774.687
614.589, 749.815
615.901, 661.380
617.212, 658.589
618.523, 663.813
619.834, 724.506
621.145, 674.588
622.456, 569.058
623.766, 605.351
625.076, 514.749
626.386, 475.447
627.696, 310.024
629.006, 451.445
630.315, 326.920
631.624, 330.434
632.933, 314.015
634.242, 233.652
635.551, 239.250
636.859, 116.600
638.167, 170.371
639.475, 160.098
640.783, 105.816
642.090, 188.578
643.398, 132.260
644.705, 77.160
646.012, 166.853
647.318, 22.595
648.625, 144.549
649.931, 13.507
651.237, 30.460
652.543, 55.410
653.849, 72.356
655.155, 46.295
656.460, 59.651
657.765, 49.274
659.070, 36.046
660.375, 16.938
661.679, 22.181
662.984, 75.324
664.288, 47.489
665.592, 53.706
666.895, 14.929
668.199, 45.840
669.502, 37.386
670.805, 15.625
672.108, 77.140
673.411, 17.080
674.713, 88.708
676.016, 27.478
677.318, 25.652
678.620, 46.187
679.921, 61.938
681.223, 79.942
682.524, 32.140
683.825, 79.795
685.126, 47.760
686.427, 37.754
687.727, 90.782
689.028, 16.155
690.328, 23.073
691.628, 87.029
692.927, 18.157
694.227, 84.309
695.526, 16.510
696.825, 19.688
698.124, 14.084
699.423, 8.840
700.721, 5.721
702.020, 14.234
703.318, 7.983
704.616, 69.342
705.913, 74.688
707.211, 72.057
708.508, 1.554
709.805, 26.853
711.102, 26.279
712.399, 54.275
713.695, 73.165
714.992, 42.378
716.288, 51.923
717.584, 7.476
718.879, 77.021
720.175, 102.417
721.470, 42.867
722.765, 71.330
724.060, 0.806
725.355, 131.705
726.649, 37.742
727.944, 8.796
729.238, 83.324
730.532, 83.129
731.825, 133.402
733.119, 47.027
734.412, 35.529
735.705, 17.917
736.998, 78.379
738.291, 68.142
739.584, 134.327
740.876, 3.812
742.168, 62.312
743.460, 53.830
744.752, 13.365
746.043, 106.917
747.334, 55.486
748.626, 111.074
749.916, 105.679
751.207, 17.696
752.498, 151.940
753.788, 64.595
755.078, 12.269
756.368, 149.962
757.658, 3.675
758.947, 161.407
760.237, 73.159
761.526, 6.069
762.815, 73.720
764.104, 36.529
765.392, 127.358
766.680, 63.208
767.969, 22.921
769.257, 177.961
770.544, 13.136
771.832, 26.782
773.119, 83.720
774.406, 14.321
775.693, 65.651
776.980, 25.646
778.267, 36.659
779.553, 33.307
780.839, 85.263
782.125, 7.230
783.411, 4.821
784.697, 100.891
785.982, 74.982
787.267, 105.609
788.552, 160.223
789.837, 104.372
791.122, 130.542
792.406, 106.361
793.690, 73.458
794.974, 153.547
796.258, 95.454
797.542, 107.754
798.825, 234.857
800.108, 197.786
801.391, 254.128
802.674, 202.928
803.957, 244.598
805.239, 414.146
806.522, 351.123
807.804, 409.240
809.085, 561.466
810.367, 438.637
811.649, 681.905
812.930, 479.169
814.211, 635.418
815.492, 729.625
816.772, 791.754
818.053, 940.248
819.333, 793.694
820.613, 1073.378
821.893, 1067.984
823.173, 960.536
824.452, 1278.153
825.732, 1065.837
827.011, 1209.636
828.290, 1296.329
829.568, 1030.271
830.847, 1312.581
832.125, 1195.011
833.403, 1263.894
834.681, 1330.608
835.959, 1162.682
837.236, 1472.987
838.514, 1255.116
839.791, 1267.230
841.068, 1326.340
842.345, 1139.549
843.621, 1272.812
844.898, 1288.794
846.174, 1150.083
847.450, 1214.325
848.726, 1003.671
850.001, 1144.125
851.277, 1022.489
852.552, 994.131
853.827, 1044.030
855.102, 858.098
856.376, 906.586
857.651, 938.650
858.925, 823.200
860.199, 931.778
861.473, 789.382
862.746, 755.848
864.020, 805.503
865.293, 635.197
866.566, 901.397
867.839, 723.135
869.112, 765.012
870.384, 800.449
871.656, 626.899
872.928, 752.157
874.200, 651.012
875.472, 642.890
876.744, 783.790
878.015, 603.638
879.286, 631.191
880.557, 767.188
881.828, 747.823
883.098, 829.130
884.369, 714.199
885.639, 786.912
886.909, 838.028
888.178, 730.741
889.448, 847.907
890.717, 780.097
891.987, 915.446
893.256, 940.684
894.524, 885.943
895.793, 996.229
897.061, 954.538
898.330, 1028.873
899.598, 1201.230
900.865, 1046.613
902.133, 1237.020
903.401, 1317.449
904.668, 1258.273
905.935, 1482.755
907.202, 1390.259
908.468, 1654.788
909.735, 1631.340
911.001, 1615.913
912.267, 1900.512
913.533, 1843.135
914.799, 2083.575
916.064, 2205.248
917.330, 2179.944
918.595, 2465.668
919.860, 2543.415
921.124, 2840.427
922.389, 3008.222
923.653, 3115.636
924.918, 3623.479
926.182, 3811.343
927.445, 4158.801
928.709, 4626.712
929.972, 4894.646
931.236, 5652.604
932.499, 6339.485
933.761, 6924.132
935.024, 8391.963
936.286, 9400.011
937.549, 11428.079
938.811, 13636.171
940.073, 15954.288
941.334, 20832.426
942.596, 24470.584
943.857, 30488.766
945.118, 36350.082
946.379, 39358.309
947.640, 39035.242
948.900, 38298.566
950.161, 32846.855
951.421, 28089.938
952.681, 21008.287
953.940, 16792.324
955.200, 13354.901
956.459, 10093.312
957.719, 8505.622
958.978, 6564.078
960.236, 5482.555
961.495, 4605.221
962.753, 3724.535
964.012, 3393.756
965.270, 2832.811
966.527, 2441.394
967.785, 2251.997
969.043, 1876.628
970.300, 1636.294
971.557, 1475.980
972.814, 1289.699
974.071, 1422.441
975.327, 1042.203
976.583, 1051.993
977.840, 1048.806
979.095, 831.638
980.351, 990.901
981.607, 908.772
982.862, 781.672
984.117, 868.906
985.372, 748.846
986.627, 740.451
987.882, 755.966
989.136, 693.578
990.390, 726.267
991.644, 775.391
992.898, 760.454
994.152, 698.453
995.405, 601.550
996.659, 807.672
997.912, 799.878
999.165, 1119.032
1000.417, 1011.859
1001.670, 893.332
1002.922, 1106.162
1004.174, 1262.401
1005.426, 1157.634
1006.678, 1545.976
1007.930, 1699.134
1009.181, 1892.414
1010.432, 2391.096
1011.683, 2471.122
1012.934, 3060.443
1014.185, 2991.232
1015.435, 2994.394
1016.685, 2853.751
1017.935, 2383.151
1019.185, 2139.625
1020.435, 1778.158
1021.684, 1488.237
1022.934, 1267.076
1024.183, 1039.433
1025.432, 818.948
1026.680, 764.486
1027.929, 592.159
1029.177, 559.720
1030.425, 482.343
1031.673, 286.050
1032.921, 469.686
1034.169, 302.861
1035.416, 392.530
1036.663, 370.238
1037.911, 275.611
1039.157, 344.347
1040.404, 336.099
1041.650, 344.874
1042.897, 446.651
1044.143, 328.443
1045.389, 493.241
1046.634, 499.090
1047.880, 395.130
1049.125, 610.960
1050.371, 646.942
1051.615, 693.785
1052.860, 576.636
1054.105, 391.456
1055.349, 586.344
1056.593, 468.237
1057.837, 376.134
1059.081, 392.034
1060.325, 289.971
1061.568, 362.987
1062.812, 398.906
1064.055, 218.351
1065.298, 435.589
1066.540, 317.739
1067.783, 352.339
1069.025, 446.539
1070.267, 390.737
1071.509, 532.897
1072.751, 512.913
1073.993, 394.080
1075.234, 566.029
1076.475, 369.248
1077.716, 429.371
1078.957, 429.323
1080.198, 343.274
1081.438, 341.525
1082.679, 204.507
1083.919, 121.538
1085.159, 262.508
1086.398, 148.477
1087.638, 100.564
1088.877, 239.532
1090.116, 38.497
1091.355, 51.541
1092.594, 34.527
1093.833, 62.277
1095.071, 69.920
1096.309, 27.159
1097.547, 48.854
1098.785, 20.027
1100.023, 87.097
1101.260, 5.842
1102.498, 100.334
1103.735, 75.177
1104.972, 53.554
1106.208, 68.723
1107.445, 95.378
1108.681, 116.297
1109.918, 71.846
1111.154, 12.686
1112.389, 10.067
1113.625, 5.964
1114.860, 56.966
1116.096, 10.603
1117.331, 88.535
1118.566, 294.171
1119.800, 498.745
1121.035, 457.728
1122.269, 155.288
1123.503, 159.016
1124.737, 25.945
1125.971, 23.498
1127.205, 24.450
1128.438, 66.038
1129.671, 32.426
1130.904, 30.833
1132.137, 4.276
1133.370, 62.853
1134.602, 34.397
1135.834, 15.002
1137.066, 1.458
1138.298, 33.073
1139.530, 20.225
1140.762, 39.257
1141.993, 35.470
1143.224, 102.896
1144.455, 51.400
1145.686, 36.016
1146.917, 115.869
1148.147, 5.136
1149.377, 17.302
1150.607, 7.045
1151.837, 46.134
1153.067, 132.298
1154.296, 35.219
1155.526, 44.741
1156.755, 91.739
1157.984, 3.750
1159.213, 9.195
1160.441, 85.593
1161.670, 3.143
1162.898, 40.271
1164.126, 87.064
1165.354, 69.207
1166.581, 56.625
1167.809, 52.821
1169.036, 90.955
1170.263, 134.228
1171.490, 15.168
1172.717, 100.505
1173.943, 97.370
1175.170, 11.759
1176.396, 170.013
1177.622, 50.803
1178.848, 81.546
1180.073, 104.428
1181.299, 35.707
1182.524, 111.360
1183.749, 153.844
1184.974, 32.883
1186.199, 164.630
1187.423, 181.355
1188.648, 116.838
1189.872, 172.425
1191.096, 165.834
1192.320, 185.150
1193.543, 124.027
1194.767, 81.791
1195.990, 216.096
1197.213, 102.130
1198.436, 182.804
1199.659, 200.618
1200.881, 39.992
1202.104, 178.072
1203.326, 240.880
1204.548, 152.100
1205.770, 210.104
1206.991, 150.617
1208.213, 133.849
1209.434, 228.775
1210.655, 69.003
1211.876, 88.902
1213.096, 111.931
1214.317, 62.996
1215.537, 103.445
1216.757, 106.114
1217.977, 118.479
1219.197, 154.169
1220.417, 120.065
1221.636, 217.093
1222.855, 110.696
1224.074, 136.002
1225.293, 189.569
1226.512, 179.426
1227.731, 109.067
1228.949, 175.613
1230.167, 168.361
1231.385, 228.963
1232.603, 250.643
1233.820, 158.984
1235.038, 286.435
1236.255, 198.713
1237.472, 171.074
1238.689, 185.290
1239.906, 135.894
1241.122, 125.979
1242.338, 239.405
1243.555, 99.437
1244.771, 198.067
1245.986, 222.090
1247.202, 49.590
1248.417, 252.540
1249.633, 92.905
1250.848, 292.781
1252.063, 198.674
1253.277, 84.968
1254.492, 127.085
1255.706, 141.011
1256.920, 74.061
1258.134, 223.141
1259.348, 76.187
1260.562, 106.277
1261.775, 174.978
1262.988, 104.061
1264.201, 174.011
1265.414, 239.606
1266.627, 91.004
1267.839, 226.901
1269.052, 148.416
1270.264, 99.298
1271.476, 187.750
1272.688, 93.174
1273.899, 201.687
1275.111, 191.649
1276.322, 50.205
1277.533, 273.645
1278.744, 157.613
1279.955, 113.865
1281.165, 188.441
1282.376, 40.071
1283.586, 159.593
1284.796, 204.005
1286.006, 59.960
1287.215, 226.590
1288.425, 157.626
1289.634, 28.565
1290.843, 100.574
1292.052, 59.346
1293.261, 161.375
1294.469, 180.463
1295.678, 66.889
1296.886, 231.940
1298.094, 168.532
1299.302, 50.111
1300.509, 258.551
1301.717, 79.159
1302.924, 74.059
1304.131, 224.102
1305.338, 15.782
1306.545, 102.146
1307.752, 271.047
1308.958, 72.529
1310.164, 103.795
1311.370, 61.011
1312.576, 6.869
1313.782, 93.323
1314.987, 40.554
1316.193, 23.521
1317.398, 59.705
1318.603, 19.299
1319.807, 52.655
1321.012, 60.453
1322.216, 8.333
1323.421, 42.338
1324.625, 12.860
1325.829, 44.611
1327.032, 20.791
1328.236, 28.450
1329.439, 58.070
1330.642, 12.989
1331.845, 8.477
1333.048, 148.017
1334.251, 117.459
1335.453, 4.701
1336.656, 171.682
1337.858, 28.970
1339.060, 67.300
1340.261, 156.639
1341.463, 38.867
1342.664, 68.914
1343.866, 52.298
1345.067, 71.581
1346.267, 230.652
1347.468, 48.688
1348.669, 137.684
1349.869, 216.697
1351.069, 11.368
1352.269, 115.502
1353.469, 190.637
1354.668, 13.465
1355.868, 174.738
1357.067, 136.298
1358.266, 120.811
1359.465, 164.844
1360.664, 68.249
1361.862, 54.629
1363.061, 265.022
1364.259, 123.523
1365.457, 84.849
1366.655, 194.445
1367.852, 46.656
1369.050, 172.930
1370.247, 96.399
1371.444, 140.697
1372.641, 155.663
1373.838, 99.857
1375.035, 126.977
1376.231, 116.123
1377.427, 21.333
1378.623, 140.283
1379.819, 199.734
1381.015, 146.721
1382.211, 281.583
1383.406, 75.465
1384.601, 88.111
1385.796, 199.685
1386.991, 11.492
1388.185, 164.817
1389.380, 192.496
1390.574, 104.444
1391.768, 207.601
1392.962, 142.924
1394.156, 12.646
1395.350, 165.688
1396.543, 92.633
1397.736, 6.769
1398.929, 139.979
1400.122, 70.104
1401.315, 140.158
1402.507, 195.413
1403.700, 21.629
1404.892, 163.255
1406.084, 70.546
1407.276, 90.682
1408.467, 303.562
1409.659, 31.410
1410.850, 82.793
1412.041, 245.849
1413.232, 74.081
1414.423, 202.249
1415.614, 205.573
1416.804, 140.559
1417.994, 226.562
1419.184, 116.350
1420.374, 134.534
1421.564, 177.073
1422.753, 271.995
1423.943, 308.186
1425.132, 291.317
1426.321, 436.781
1427.510, 170.262
1428.698, 215.921
1429.887, 35.594
1431.075, 229.459
1432.263, 146.678
1433.451, 113.927
1434.639, 264.757
1435.827, 90.016
1437.014, 256.225
1438.201, 159.007
1439.388, 140.354
1440.575, 130.909
1441.762, 277.395
1442.949, 153.327
1444.135, 336.688
1445.321, 35.281
1446.507, 216.281
1447.693, 287.998
1448.879, 174.573
1450.064, 117.121
1451.250, 339.436
1452.435, 203.332
1453.620, 308.396
1454.805, 213.916
1455.989, 83.940
1457.174, 248.040
1458.358, 227.163
1459.542, 205.004
1460.726, 400.919
1461.910, 247.094
1463.093, 256.757
1464.277, 299.315
1465.460, 140.653
1466.643, 281.604
1467.826, 235.196
1469.009, 179.571
1470.191, 264.032
1471.373, 274.668
1472.556, 124.200
1473.738, 434.403
1474.919, 231.457
1476.101, 176.124
1477.283, 15.662
1478.464, 199.939
1479.645, 300.744
1480.826, 322.585
1482.007, 27.049
1483.187, 140.776
1484.368, 90.827
1485.548, 33.922
1486.728, 205.118
1487.908, 42.590
1489.088, 102.896
1490.268, 295.511
1491.447, 72.467
1492.626, 109.294
1493.805, 338.151
1494.984, 11.429
1496.163, 224.182
1497.341, 229.916
1498.520, 54.594
1499.698, 374.276
1500.876, 179.006
1502.054, 158.943
1503.232, 184.941
1504.409, 94.016
1505.586, 168.996
1506.763, 257.045
1507.940, 53.521
1509.117, 254.617
1510.294, 180.374
1511.470, 25.377
1512.647, 110.047
1513.823, 60.914
1514.999, 152.787
1516.174, 189.333
1517.350, 111.466
1518.526, 27.288
1519.701, 224.782
1520.876, 4.106
1522.051, 101.418
1523.226, 210.680
1524.400, 133.587
1525.574, 41.608
1526.749, 148.455
1527.923, 28.174
1529.097, 65.454
