##NAMES=Vivianite
##RRUFFID=R040185
##IDEAL CHEMISTRY=Fe^2+^_3_(PO_4_)_2_&#183;8H_2_O
##LOCALITY=Siglo XX mine, Llallagua, Bustillos, Potosi, Bolivia
##OWNER=RRUFF
##SOURCE=University of Arizona Mineral Museum
##DESCRIPTION=Green acicular single crystal
##STATUS=The identification of this mineral has been confirmed by X-ray diffraction and chemical analysis
##URL=rruff.info/R040185
##MEASURED CHEMISTRY=(Fe_1.00_Mn_0.01_)_3_(P_0.97_Si_0.03_O_3.94_F_0.07_)_2_Â·8H_2_O
##PIN_ID=M00443
##ORIENTATION=Laser parallel to -c* (0 0 -1). Fiducial mark perpendicular to laser is parallel to a [1 0 0]
107.995, 0.000
109.387, 1.655
110.777, 3.879
112.168, 245.823
113.559, 555.354
114.949, 368.301
116.339, 410.078
117.729, 220.319
119.119, 506.910
120.508, 937.447
121.897, 1490.450
123.286, 2194.992
124.675, 3070.631
126.063, 4218.537
127.452, 4237.936
128.840, 3406.312
130.228, 2243.675
131.615, 1479.973
133.003, 1125.224
134.390, 679.492
135.777, 652.884
137.164, 685.446
138.550, 617.166
139.937, 538.059
141.323, 472.449
142.709, 764.034
144.094, 928.679
145.480, 1167.062
146.865, 1448.674
148.250, 1930.781
149.635, 2312.178
151.019, 2462.454
152.403, 2241.684
153.788, 1879.940
155.171, 1537.396
156.555, 1284.209
157.939, 1330.446
159.322, 1366.305
160.705, 1401.923
162.088, 1441.229
163.470, 1425.854
164.853, 1487.248
166.235, 1371.214
167.617, 1324.398
168.998, 1266.839
170.380, 918.861
171.761, 640.938
173.142, 363.659
174.523, 97.395
175.904, 143.788
177.284, 214.421
178.664, 214.950
180.044, 16.665
181.424, 533.752
182.803, 1018.132
184.183, 1739.092
185.562, 2043.849
186.940, 2459.439
188.319, 2697.556
189.698, 2878.808
191.076, 3283.244
192.454, 3506.903
193.831, 3990.374
195.209, 4303.668
196.586, 3976.793
197.963, 3619.747
199.340, 3062.615
200.717, 2676.938
202.093, 2253.324
203.470, 2039.436
204.846, 1845.060
206.221, 1821.081
207.597, 1968.452
208.972, 2187.612
210.347, 2468.419
211.722, 3219.129
213.097, 3821.604
214.472, 4704.297
215.846, 5985.752
217.220, 7615.571
218.594, 9323.166
219.967, 11828.533
221.341, 14280.816
222.714, 16909.387
224.087, 18066.783
225.460, 18133.756
226.832, 16960.229
228.204, 14206.450
229.577, 11794.114
230.948, 9017.029
232.320, 6865.025
233.692, 5188.381
235.063, 3905.829
236.434, 3042.073
237.805, 2138.163
239.175, 1803.577
240.545, 1276.055
241.916, 903.507
243.286, 628.992
244.655, 439.623
246.025, 297.824
247.394, 176.705
248.763, 149.417
250.132, 105.252
251.501, 41.081
252.869, 7.731
254.237, 85.953
255.605, 61.872
256.973, 8.292
258.340, 85.982
259.708, 35.695
261.075, 21.737
262.442, 158.395
263.808, 194.812
265.175, 309.896
266.541, 334.094
267.907, 549.055
269.273, 671.875
270.639, 776.483
272.004, 1054.285
273.369, 1150.318
274.734, 1307.768
276.099, 1295.545
277.463, 1432.495
278.828, 1486.490
280.192, 1440.422
281.556, 1443.378
282.919, 1333.186
284.283, 1332.857
285.646, 1269.373
287.009, 1300.719
288.372, 1275.887
289.734, 1188.871
291.097, 1097.614
292.459, 1090.106
293.821, 935.352
295.183, 962.349
296.544, 928.104
297.905, 989.617
299.266, 950.894
300.627, 1015.937
301.988, 1035.748
303.348, 854.333
304.709, 917.691
306.069, 752.806
307.428, 788.207
308.788, 584.053
310.147, 549.677
311.507, 530.062
312.865, 507.205
314.224, 552.109
315.583, 420.779
316.941, 467.213
318.299, 452.417
319.657, 388.392
321.015, 433.139
322.372, 472.662
323.729, 527.962
325.086, 477.061
326.443, 565.531
327.800, 651.593
329.156, 703.040
330.512, 819.274
331.868, 936.299
333.224, 1045.137
334.579, 1200.787
335.935, 1412.243
337.290, 1603.505
338.645, 1734.712
339.999, 2074.933
341.354, 2046.312
342.708, 2073.169
344.062, 1977.311
345.416, 1772.711
346.769, 1698.686
348.123, 1363.205
349.476, 1059.379
350.829, 823.297
352.182, 608.882
353.534, 439.103
354.887, 324.720
356.239, 198.804
357.591, 168.686
358.942, 102.365
360.294, 79.837
361.645, 9.902
362.996, 1.868
364.347, 94.064
365.698, 52.524
367.048, 101.239
368.398, 63.218
369.748, 45.456
371.098, 133.952
372.448, 67.739
373.797, 34.808
375.146, 54.148
376.495, 61.774
377.844, 42.689
379.192, 61.883
380.540, 40.355
381.889, 31.340
383.236, 18.922
384.584, 13.709
385.932, 31.282
387.279, 86.652
388.626, 118.826
389.973, 66.809
391.319, 76.597
392.666, 128.184
394.012, 145.553
395.358, 203.685
396.704, 234.558
398.049, 308.158
399.394, 316.448
400.740, 381.387
402.084, 430.976
403.429, 425.216
404.774, 518.869
406.118, 582.942
407.462, 606.807
408.806, 708.140
410.150, 725.809
411.493, 778.752
412.836, 879.604
414.179, 909.705
415.522, 975.642
416.865, 1048.518
418.207, 1003.740
419.549, 1166.193
420.891, 1093.604
422.233, 1125.035
423.575, 1187.210
424.916, 1190.367
426.257, 1109.877
427.598, 1216.463
428.939, 1156.138
430.279, 1145.087
431.619, 1215.452
432.959, 1211.146
434.299, 1328.898
435.639, 1336.768
436.978, 1502.471
438.318, 1672.013
439.657, 1762.387
440.996, 1948.594
442.334, 2095.635
443.673, 2465.512
445.011, 2573.231
446.349, 2936.781
447.687, 3342.172
449.024, 3506.402
450.361, 3915.462
451.699, 4140.315
453.036, 4463.592
454.372, 4414.645
455.709, 4139.868
457.045, 4163.012
458.381, 3742.831
459.717, 3580.717
461.053, 3394.441
462.388, 3102.064
463.724, 3019.014
465.059, 2674.914
466.394, 2522.879
467.728, 2318.228
469.063, 2184.538
470.397, 2100.291
471.731, 1868.291
473.065, 1788.565
474.398, 1670.467
475.732, 1608.387
477.065, 1520.086
478.398, 1413.970
479.731, 1439.659
481.063, 1379.817
482.396, 1273.172
483.728, 1338.673
485.060, 1277.667
486.391, 1372.809
487.723, 1283.392
489.054, 1285.808
490.385, 1336.600
491.716, 1286.725
493.047, 1392.111
494.377, 1357.831
495.708, 1369.240
497.038, 1473.293
498.368, 1536.602
499.697, 1476.211
501.027, 1571.089
502.356, 1676.244
503.685, 1778.302
505.014, 1722.918
506.342, 1886.060
507.671, 1858.866
508.999, 2016.247
510.327, 2070.697
511.655, 2094.591
512.982, 2234.022
514.310, 2350.644
515.637, 2538.609
516.964, 2611.199
518.291, 2675.583
519.617, 2802.254
520.944, 2966.155
522.270, 3101.266
523.596, 3174.815
524.921, 3409.363
526.247, 3555.276
527.572, 3666.997
528.897, 3934.912
530.222, 3998.702
531.547, 4174.739
532.871, 4257.948
534.196, 4383.962
535.520, 4521.836
536.844, 4498.004
538.167, 4717.213
539.491, 4722.164
540.814, 4865.326
542.137, 4860.960
543.460, 4706.483
544.783, 4800.680
546.105, 4490.523
547.427, 4429.971
548.749, 4340.077
550.071, 4084.825
551.393, 4155.769
552.714, 3783.818
554.035, 3767.143
555.356, 3467.352
556.677, 3429.870
557.998, 3294.206
559.318, 3156.534
560.638, 3218.333
561.958, 3158.476
563.278, 3104.502
564.597, 3222.249
565.917, 3095.240
567.236, 3183.273
568.555, 2938.684
569.874, 2709.183
571.192, 2685.820
572.511, 2325.854
573.829, 2268.047
575.147, 2053.521
576.464, 2041.877
577.782, 2005.567
579.099, 1942.403
580.416, 1864.552
581.733, 1789.610
583.050, 1732.787
584.366, 1674.969
585.683, 1629.577
586.999, 1571.517
588.315, 1544.438
589.630, 1480.051
590.946, 1385.020
592.261, 1331.135
593.576, 1322.435
594.891, 1146.925
596.206, 1197.957
597.520, 1112.329
598.834, 1064.356
600.148, 1094.547
601.462, 948.951
602.776, 962.104
604.089, 861.194
605.402, 871.829
606.715, 811.453
608.028, 703.380
609.341, 711.074
610.653, 617.091
611.965, 592.865
613.277, 590.461
614.589, 469.143
615.901, 509.849
617.212, 473.442
618.523, 353.994
619.834, 415.567
621.145, 285.033
622.456, 304.454
623.766, 302.834
625.076, 236.174
626.386, 232.476
627.696, 114.739
629.006, 212.964
630.315, 81.156
631.624, 79.312
632.933, 95.434
634.242, 98.522
635.551, 99.581
636.859, 69.611
638.167, 21.612
639.475, 17.586
640.783, 15.522
642.090, 77.550
643.398, 18.301
644.705, 25.125
646.012, 28.078
647.318, 25.675
648.625, 19.399
649.931, 73.907
651.237, 56.278
652.543, 20.709
653.849, 24.186
655.155, 11.710
656.460, 0.440
657.765, 8.703
659.070, 15.474
660.375, 17.203
661.679, 10.921
662.984, 3.677
664.288, 0.532
665.592, 32.709
666.895, 47.141
668.199, 19.964
669.502, 8.947
670.805, 19.878
672.108, 132.175
673.411, 170.229
674.713, 103.295
676.016, 24.373
677.318, 36.465
678.620, 27.578
679.921, 6.727
681.223, 21.686
682.524, 44.153
683.825, 41.446
685.126, 52.804
686.427, 77.217
687.727, 91.683
689.028, 56.226
690.328, 117.828
691.628, 39.482
692.927, 64.194
694.227, 123.965
695.526, 56.794
696.825, 108.683
698.124, 128.629
699.423, 65.630
700.721, 115.674
702.020, 59.762
703.318, 96.891
704.616, 103.054
705.913, 61.249
707.211, 130.482
708.508, 75.752
709.805, 110.054
711.102, 149.388
712.399, 34.748
713.695, 141.135
714.992, 41.544
716.288, 14.978
717.584, 48.432
718.879, 27.906
720.175, 95.400
721.470, 23.913
722.765, 76.443
724.060, 19.989
725.355, 52.450
726.649, 82.108
727.944, 4.680
729.238, 7.265
730.532, 77.862
731.825, 42.528
733.119, 21.076
734.412, 41.308
735.705, 23.698
736.998, 85.914
738.291, 7.534
739.584, 0.838
740.876, 17.204
742.168, 10.566
743.460, 18.924
744.752, 87.279
746.043, 15.655
747.334, 22.027
748.626, 24.397
749.916, 31.235
751.207, 47.125
752.498, 6.511
753.788, 23.844
755.078, 30.196
756.368, 37.547
757.658, 81.898
758.947, 4.736
760.237, 72.620
761.526, 49.986
762.815, 13.645
764.104, 54.711
765.392, 8.073
766.680, 15.578
767.969, 56.757
769.257, 85.904
770.544, 36.420
771.832, 44.260
773.119, 99.956
774.406, 2.521
775.693, 103.205
776.980, 12.519
778.267, 84.955
779.553, 140.424
780.839, 59.657
782.125, 121.915
783.411, 87.722
784.697, 171.982
785.982, 217.733
787.267, 161.520
788.552, 203.415
789.837, 252.368
791.122, 321.368
792.406, 328.286
793.690, 327.047
794.974, 376.836
796.258, 358.661
797.542, 438.311
798.825, 508.240
800.108, 401.243
801.391, 555.636
802.674, 533.739
803.957, 610.863
805.239, 711.083
806.522, 601.310
807.804, 702.368
809.085, 772.326
810.367, 728.922
811.649, 959.107
812.930, 857.959
814.211, 1056.486
815.492, 1018.063
816.772, 1034.994
818.053, 1172.295
819.333, 1060.828
820.613, 1279.685
821.893, 1245.130
823.173, 1183.036
824.452, 1340.403
825.732, 1303.342
827.011, 1358.889
828.290, 1470.609
829.568, 1311.183
830.847, 1453.487
832.125, 1362.896
833.403, 1405.333
834.681, 1432.739
835.959, 1320.260
837.236, 1468.933
838.514, 1354.644
839.791, 1313.453
841.068, 1368.423
842.345, 1193.502
843.621, 1299.483
844.898, 1235.644
846.174, 1162.225
847.450, 1201.825
848.726, 1022.075
850.001, 1102.317
851.277, 1023.632
852.552, 895.974
853.827, 1005.344
855.102, 769.741
856.376, 844.164
857.651, 1007.617
858.925, 893.097
860.199, 790.606
861.473, 709.143
862.746, 739.708
864.020, 700.307
865.293, 680.937
866.566, 679.593
867.839, 598.284
869.112, 653.002
870.384, 631.764
871.656, 578.554
872.928, 651.368
874.200, 571.222
875.472, 662.115
876.744, 596.032
878.015, 533.984
879.286, 597.912
880.557, 633.922
881.828, 568.958
883.098, 645.019
884.369, 528.121
885.639, 687.727
886.909, 667.885
888.178, 646.624
889.448, 705.069
890.717, 676.317
891.987, 670.591
893.256, 735.825
894.524, 711.617
895.793, 823.653
897.061, 755.458
898.330, 788.513
899.598, 948.490
900.865, 824.284
902.133, 955.030
903.401, 1003.552
904.668, 932.503
905.935, 1087.081
907.202, 1013.975
908.468, 1158.674
909.735, 1180.131
911.001, 1197.809
912.267, 1300.523
913.533, 1309.664
914.799, 1400.789
916.064, 1419.589
917.330, 1356.597
918.595, 1505.040
919.860, 1650.143
921.124, 1649.187
922.389, 1794.128
923.653, 1707.027
924.918, 1928.024
926.182, 2020.049
927.445, 2068.038
928.709, 2282.120
929.972, 2345.230
931.236, 2544.372
932.499, 2793.542
933.761, 3025.741
935.024, 3416.970
936.286, 3820.230
937.549, 4477.518
938.811, 5252.838
940.073, 6013.189
941.334, 7693.572
942.596, 8793.985
943.857, 10764.427
945.118, 12944.902
946.379, 13915.411
947.640, 14047.781
948.900, 14057.078
950.161, 12287.700
951.421, 10718.353
952.681, 8139.036
953.940, 6641.326
955.200, 5432.085
956.459, 4222.875
957.719, 3689.609
958.978, 2968.489
960.236, 2445.418
961.495, 2264.721
962.753, 1836.709
964.012, 1631.641
965.270, 1432.723
966.527, 1303.818
967.785, 1347.306
969.043, 1029.469
970.300, 1074.662
971.557, 1044.883
972.814, 811.134
974.071, 948.420
975.327, 845.733
976.583, 896.076
977.840, 896.027
979.095, 788.416
980.351, 945.931
981.607, 826.874
982.862, 851.727
984.117, 981.193
985.372, 810.969
986.627, 850.508
987.882, 806.342
989.136, 800.925
990.390, 836.531
991.644, 951.073
992.898, 923.721
994.152, 917.518
995.405, 895.289
996.659, 1058.858
997.912, 1142.519
999.165, 1172.264
1000.417, 1445.464
1001.670, 1364.273
1002.922, 1668.074
1004.174, 1841.510
1005.426, 1978.346
1006.678, 2516.199
1007.930, 2676.996
1009.181, 3020.961
1010.432, 3610.495
1011.683, 3710.883
1012.934, 4306.402
1014.185, 4202.888
1015.435, 4080.242
1016.685, 4035.361
1017.935, 3442.186
1019.185, 3168.570
1020.435, 2772.010
1021.684, 2230.479
1022.934, 2089.540
1024.183, 1708.615
1025.432, 1549.740
1026.680, 1432.843
1027.929, 1223.259
1029.177, 1183.389
1030.425, 1024.990
1031.673, 1024.154
1032.921, 1002.333
1034.169, 752.254
1035.416, 906.456
1036.663, 851.830
1037.911, 791.695
1039.157, 890.147
1040.404, 731.414
1041.650, 805.691
1042.897, 884.978
1044.143, 800.607
1045.389, 844.919
1046.634, 821.388
1047.880, 741.518
1049.125, 850.878
1050.371, 715.250
1051.615, 796.635
1052.860, 876.032
1054.105, 663.090
1055.349, 784.561
1056.593, 655.410
1057.837, 630.903
1059.081, 732.355
1060.325, 650.147
1061.568, 715.711
1062.812, 710.203
1064.055, 640.839
1065.298, 850.412
1066.540, 690.943
1067.783, 831.995
1069.025, 1040.631
1070.267, 915.039
1071.509, 1059.611
1072.751, 974.203
1073.993, 993.365
1075.234, 1095.957
1076.475, 934.188
1077.716, 860.828
1078.957, 855.433
1080.198, 614.630
1081.438, 668.333
1082.679, 475.948
1083.919, 424.932
1085.159, 465.553
1086.398, 323.177
1087.638, 252.904
1088.877, 275.572
1090.116, 194.245
1091.355, 168.035
1092.594, 130.670
1093.833, 99.863
1095.071, 60.598
1096.309, 54.797
1097.547, 19.546
1098.785, 52.089
1100.023, 27.854
1101.260, 35.457
1102.498, 38.823
1103.735, 92.260
1104.972, 37.491
1106.208, 81.315
1107.445, 30.712
1108.681, 25.193
1109.918, 31.406
1111.154, 11.800
1112.389, 21.750
1113.625, 0.974
1114.860, 82.023
1116.096, 28.292
1117.331, 42.413
1118.566, 282.021
1119.800, 511.702
1121.035, 516.888
1122.269, 209.462
1123.503, 130.109
1124.737, 34.877
1125.971, 63.350
1127.205, 52.640
1128.438, 118.547
1129.671, 24.955
1130.904, 3.172
1132.137, 49.604
1133.370, 19.005
1134.602, 16.413
1135.834, 18.227
1137.066, 76.285
1138.298, 22.709
1139.530, 27.787
1140.762, 33.716
1141.993, 7.131
1143.224, 10.403
1144.455, 7.325
1145.686, 7.953
1146.917, 95.358
1148.147, 32.411
1149.377, 19.787
1150.607, 95.207
1151.837, 0.387
1153.067, 71.551
1154.296, 51.713
1155.526, 3.141
1156.755, 19.987
1157.984, 3.104
1159.213, 7.204
1160.441, 5.289
1161.670, 10.644
1162.898, 7.603
1164.126, 23.435
1165.354, 13.562
1166.581, 15.519
1167.809, 53.512
1169.036, 15.440
1170.263, 50.811
1171.490, 29.242
1172.717, 29.214
1173.943, 48.884
1175.170, 16.332
1176.396, 57.418
1177.622, 1.700
1178.848, 62.008
1180.073, 84.878
1181.299, 36.444
1182.524, 89.187
1183.749, 6.023
1184.974, 17.387
1186.199, 40.424
1187.423, 109.153
1188.648, 85.669
1189.872, 109.894
1191.096, 36.834
1192.320, 104.298
1193.543, 6.214
1194.767, 21.197
1195.990, 102.583
1197.213, 93.115
1198.436, 86.510
1199.659, 139.843
1200.881, 30.157
1202.104, 73.463
1203.326, 41.733
1204.548, 75.980
1205.770, 116.208
1206.991, 49.417
1208.213, 74.602
1209.434, 158.767
1210.655, 68.913
1211.876, 24.097
1213.096, 117.397
1214.317, 46.485
1215.537, 82.533
1216.757, 33.704
1217.977, 117.831
1219.197, 103.807
1220.417, 47.761
1221.636, 126.688
1222.855, 46.594
1224.074, 103.472
1225.293, 126.328
1226.512, 51.312
1227.731, 95.148
1228.949, 218.000
1230.167, 65.825
1231.385, 372.781
1232.603, 221.682
1233.820, 99.494
1235.038, 115.300
1236.255, 116.059
1237.472, 90.053
1238.689, 165.762
1239.906, 61.466
1241.122, 62.258
1242.338, 190.824
1243.555, 105.967
1244.771, 142.905
1245.986, 104.730
1247.202, 46.255
1248.417, 118.774
1249.633, 27.767
1250.848, 105.307
1252.063, 150.480
1253.277, 74.867
1254.492, 71.459
1255.706, 94.859
1256.920, 76.443
1258.134, 164.868
1259.348, 21.507
1260.562, 79.200
1261.775, 128.774
1262.988, 43.882
1264.201, 143.407
1265.414, 125.639
1266.627, 70.958
1267.839, 151.115
1269.052, 133.539
1270.264, 105.482
1271.476, 105.507
1272.688, 109.273
1273.899, 69.348
1275.111, 105.288
1276.322, 77.869
1277.533, 103.242
1278.744, 87.629
1279.955, 124.653
1281.165, 137.907
1282.376, 96.695
1283.586, 121.105
1284.796, 101.005
1286.006, 94.171
1287.215, 119.638
1288.425, 179.623
1289.634, 158.575
1290.843, 126.983
1292.052, 136.995
1293.261, 220.862
1294.469, 215.975
1295.678, 98.831
1296.886, 231.678
1298.094, 211.715
1299.302, 153.560
1300.509, 235.535
1301.717, 180.404
1302.924, 231.120
1304.131, 248.226
1305.338, 241.543
1306.545, 227.591
1307.752, 264.056
1308.958, 150.112
1310.164, 164.372
1311.370, 128.927
1312.576, 151.874
1313.782, 140.329
1314.987, 67.593
1316.193, 134.758
1317.398, 103.899
1318.603, 79.984
1319.807, 187.076
1321.012, 167.822
1322.216, 110.832
1323.421, 248.370
1324.625, 103.284
1325.829, 206.151
1327.032, 156.260
1328.236, 90.075
1329.439, 172.711
1330.642, 77.835
1331.845, 93.353
1333.048, 211.048
1334.251, 121.718
1335.453, 116.359
1336.656, 206.639
1337.858, 131.194
1339.060, 171.538
1340.261, 213.179
1341.463, 99.577
1342.664, 127.946
1343.866, 148.280
1345.067, 165.580
1346.267, 134.188
1347.468, 186.359
1348.669, 161.129
1349.869, 161.233
1351.069, 165.521
1352.269, 154.212
1353.469, 146.094
1354.668, 137.118
1355.868, 122.984
1357.067, 86.895
1358.266, 132.821
1359.465, 210.210
1360.664, 100.989
1361.862, 103.971
1363.061, 168.769
1364.259, 138.521
1365.457, 159.683
1366.655, 162.224
1367.852, 136.179
1369.050, 165.047
1370.247, 96.672
1371.444, 124.681
1372.641, 115.164
1373.838, 115.764
1375.035, 77.923
1376.231, 85.424
1377.427, 100.905
1378.623, 96.266
1379.819, 103.733
1381.015, 56.120
1382.211, 103.376
1383.406, 98.778
1384.601, 70.618
1385.796, 117.298
1386.991, 32.480
1388.185, 121.469
1389.380, 52.535
1390.574, 8.214
1391.768, 95.388
1392.962, 81.903
1394.156, 29.384
1395.350, 18.540
1396.543, 8.736
1397.736, 53.611
1398.929, 78.789
1400.122, 71.628
1401.315, 64.588
1402.507, 47.390
1403.700, 22.221
1404.892, 38.475
1406.084, 45.301
1407.276, 38.468
1408.467, 73.366
1409.659, 54.584
1410.850, 80.103
1412.041, 39.078
1413.232, 6.077
1414.423, 1.873
1415.614, 39.912
1416.804, 75.905
1417.994, 77.878
1419.184, 61.825
1420.374, 71.756
1421.564, 53.653
1422.753, 33.416
1423.943, 33.660
1425.132, 50.232
1426.321, 25.234
1427.510, 67.500
1428.698, 40.181
1429.887, 33.900
1431.075, 101.713
1432.263, 20.998
1433.451, 19.804
1434.639, 43.550
1435.827, 50.382
1437.014, 111.036
1438.201, 43.850
1439.388, 45.697
1440.575, 71.567
1441.762, 41.431
1442.949, 29.292
1444.135, 42.601
1445.321, 40.549
1446.507, 45.173
1447.693, 88.828
1448.879, 70.705
1450.064, 89.594
1451.250, 81.227
1452.435, 87.959
1453.620, 86.731
1454.805, 97.253
1455.989, 80.147
1457.174, 132.145
1458.358, 135.342
1459.542, 169.911
1460.726, 248.042
1461.910, 133.480
1463.093, 246.363
1464.277, 187.268
1465.460, 132.958
1466.643, 150.666
1467.826, 161.562
1469.009, 197.002
1470.191, 194.786
1471.373, 221.939
1472.556, 145.659
1473.738, 221.987
1474.919, 196.092
1476.101, 187.906
1477.283, 268.645
1478.464, 182.207
1479.645, 260.905
1480.826, 282.078
1482.007, 234.025
1483.187, 283.758
1484.368, 261.404
1485.548, 186.667
1486.728, 284.161
1487.908, 138.273
1489.088, 193.616
1490.268, 219.242
1491.447, 168.778
1492.626, 144.112
1493.805, 247.220
1494.984, 77.014
1496.163, 169.592
1497.341, 130.089
1498.520, 81.560
1499.698, 177.351
1500.876, 98.093
1502.054, 153.689
1503.232, 109.237
1504.409, 81.593
1505.586, 96.966
1506.763, 187.923
1507.940, 69.052
1509.117, 152.221
1510.294, 107.571
1511.470, 77.040
1512.647, 119.644
1513.823, 111.377
1514.999, 18.279
1516.174, 155.353
1517.350, 60.656
1518.526, 129.294
1519.701, 121.267
1520.876, 11.394
1522.051, 128.377
1523.226, 132.730
1524.400, 58.536
1525.574, 142.108
1526.749, 99.378
1527.923, 69.995
1529.097, 116.818
1530.270, 0.000
##END=



