##NAMES=Vivianite
##RRUFFID=R040185
##IDEAL CHEMISTRY=Fe^2+^_3_(PO_4_)_2_&#183;8H_2_O
##LOCALITY=Siglo XX mine, Llallagua, Bustillos, Potosi, Bolivia
##OWNER=RRUFF
##SOURCE=University of Arizona Mineral Museum
##DESCRIPTION=Green acicular single crystal
##STATUS=The identification of this mineral has been confirmed by X-ray diffraction and chemical analysis
##URL=rruff.info/R040185
##MEASURED CHEMISTRY=(Fe_1.00_Mn_0.01_)_3_(P_0.97_Si_0.03_O_3.94_F_0.07_)_2_Â·8H_2_O
##PIN_ID=L00515
##ORIENTATION=Laser parallel to -a* (-1 0 0). Fiducial mark perpendicular to laser is parallel to b [0 1 0]
83.128, 0.000
84.529, 27.999
85.929, 29.547
87.329, 19.296
88.728, 2.728
90.128, 4.674
91.527, 1.073
92.926, 11.455
94.324, 21.152
95.723, 22.461
97.121, 45.238
98.519, 87.291
99.917, 85.460
101.314, 102.612
102.712, 96.639
104.109, 141.459
105.505, 212.006
106.902, 265.212
108.298, 251.015
109.694, 251.358
111.090, 359.191
112.486, 485.472
113.881, 563.161
115.277, 595.223
116.672, 647.628
118.066, 680.350
119.461, 692.364
120.855, 782.664
122.249, 884.261
123.643, 1040.159
125.036, 1138.346
126.430, 1298.790
127.823, 1437.461
129.216, 1542.335
130.608, 1564.392
132.001, 1442.617
133.393, 1399.995
134.785, 1218.515
136.176, 1125.166
137.568, 1018.941
138.959, 921.607
140.350, 875.827
141.741, 799.926
143.131, 798.120
144.521, 796.405
145.911, 817.774
147.301, 845.226
148.691, 883.753
150.080, 958.354
151.469, 956.024
152.858, 1093.760
154.247, 1054.560
155.635, 1073.440
157.024, 1017.519
158.411, 1113.871
159.799, 1108.492
161.187, 1137.393
162.574, 1194.504
163.961, 1173.756
165.348, 1138.076
166.734, 1137.383
168.121, 1121.630
169.507, 1119.821
170.893, 1068.967
172.278, 1035.428
173.664, 946.165
175.049, 932.235
176.434, 834.292
177.819, 776.341
179.203, 734.384
180.587, 730.425
181.971, 719.467
183.355, 771.510
184.739, 753.557
186.122, 845.608
187.505, 885.666
188.888, 964.730
190.271, 960.802
191.653, 993.882
193.035, 1038.970
194.417, 1079.067
195.799, 1119.173
197.180, 1110.288
198.562, 1123.413
199.943, 1042.547
201.324, 1046.689
202.704, 936.842
204.084, 900.003
205.465, 896.351
206.844, 858.208
208.224, 899.540
209.603, 882.737
210.983, 894.941
212.362, 968.154
213.740, 1007.375
215.119, 1143.603
216.497, 1277.839
217.875, 1409.083
219.253, 1627.335
220.631, 1868.594
222.008, 2143.859
223.385, 2313.132
224.762, 2655.411
226.139, 2822.697
227.515, 3027.644
228.891, 2924.190
230.267, 2690.502
231.643, 2407.630
233.018, 2029.864
234.394, 1734.068
235.769, 1415.384
237.144, 1169.217
238.518, 954.279
239.893, 820.620
241.267, 687.459
242.641, 643.691
244.014, 578.412
245.388, 532.568
246.761, 504.659
248.134, 466.426
249.507, 466.039
250.879, 436.680
252.252, 425.326
253.624, 429.113
254.996, 397.577
256.367, 407.594
257.739, 394.708
259.110, 418.736
260.481, 398.050
261.852, 379.445
263.222, 394.913
264.592, 442.449
265.962, 464.567
267.332, 507.895
268.702, 539.699
270.071, 560.586
271.440, 537.749
272.809, 531.808
274.178, 526.691
275.546, 552.610
276.915, 578.564
278.283, 626.549
279.650, 648.553
281.018, 680.607
282.385, 696.677
283.752, 738.771
285.119, 739.889
286.486, 793.028
287.852, 810.188
289.218, 799.367
290.584, 803.563
291.950, 827.775
293.316, 780.002
294.681, 748.244
296.046, 729.498
297.411, 656.765
298.775, 687.043
300.140, 656.332
301.504, 596.631
302.868, 584.939
304.231, 598.256
305.595, 585.581
306.958, 567.914
308.321, 557.254
309.684, 525.601
311.047, 512.255
312.409, 474.313
313.771, 466.678
315.133, 446.047
316.495, 407.421
317.856, 393.799
319.217, 367.182
320.578, 365.569
321.939, 344.959
323.299, 344.351
324.660, 326.744
326.020, 317.135
327.380, 344.529
328.739, 335.931
330.099, 323.340
331.458, 348.746
332.817, 360.150
334.176, 377.552
335.534, 394.959
336.892, 409.364
338.251, 419.770
339.608, 439.173
340.966, 507.577
342.323, 564.981
343.681, 557.391
345.037, 664.807
346.394, 627.228
347.751, 612.652
349.107, 556.074
350.463, 546.494
351.819, 484.916
353.174, 397.335
354.530, 371.751
355.885, 307.169
357.240, 240.583
358.594, 198.004
359.949, 146.421
361.303, 115.840
362.657, 92.263
364.011, 30.681
365.365, 27.095
366.718, 7.505
368.071, 12.090
369.424, 8.694
370.777, 33.306
372.129, 7.932
373.481, 38.566
374.833, 26.216
376.185, 41.880
377.537, 33.559
378.888, 42.254
380.239, 33.968
381.590, 37.697
382.941, 37.445
384.291, 33.210
385.642, 42.993
386.992, 57.797
388.341, 40.473
389.691, 41.368
391.040, 30.349
392.389, 13.259
393.738, 47.206
395.087, 24.202
396.435, 28.241
397.784, 10.324
399.132, 32.448
400.479, 0.376
401.827, 3.837
403.174, 8.085
404.521, 1.366
405.868, 4.269
407.215, 3.994
408.561, 26.645
409.908, 42.286
411.254, 54.921
412.599, 68.515
413.945, 82.282
415.290, 91.839
416.636, 106.483
417.980, 126.129
419.325, 133.774
420.670, 150.421
422.014, 136.067
423.358, 144.710
424.702, 116.352
426.045, 146.990
427.389, 255.636
428.732, 297.970
430.075, 332.085
431.417, 358.404
432.760, 289.047
434.102, 417.294
435.444, 499.817
436.786, 539.073
438.127, 405.472
439.469, 495.062
440.810, 495.189
442.151, 491.642
443.492, 357.878
444.832, 379.446
446.172, 454.006
447.512, 471.560
448.852, 565.107
450.192, 608.648
451.531, 672.181
452.870, 779.706
454.209, 844.225
455.548, 884.736
456.887, 942.239
458.225, 960.735
459.563, 977.223
460.901, 1020.704
462.238, 1007.177
463.576, 976.643
464.913, 914.100
466.250, 910.549
467.587, 860.990
468.923, 824.422
470.259, 772.846
471.596, 725.261
472.931, 647.668
474.267, 610.067
475.603, 543.456
476.938, 520.837
478.273, 490.300
479.608, 450.759
480.942, 420.196
482.276, 416.684
483.611, 399.312
484.944, 396.671
486.278, 357.022
487.612, 337.490
488.945, 334.361
490.278, 322.004
491.611, 320.184
492.943, 326.153
494.276, 317.481
495.608, 322.592
496.940, 314.136
498.271, 335.043
499.603, 334.095
500.934, 368.162
502.265, 357.147
503.596, 379.163
504.927, 410.646
506.257, 421.467
507.587, 429.815
508.917, 436.377
510.247, 449.629
511.577, 439.004
512.906, 489.124
514.235, 490.495
515.564, 489.460
516.892, 534.673
518.221, 554.082
519.549, 564.148
520.877, 601.617
522.205, 616.280
523.533, 659.308
524.860, 660.330
526.187, 699.342
527.514, 728.342
528.841, 751.519
530.167, 739.861
531.493, 799.815
532.820, 788.295
534.145, 829.618
535.471, 821.668
536.796, 847.450
538.122, 855.947
539.447, 838.852
540.771, 859.562
542.096, 850.663
543.420, 856.736
544.744, 853.031
546.068, 834.928
547.392, 825.336
548.715, 786.049
550.039, 760.665
551.362, 718.933
552.684, 695.201
554.007, 666.368
555.329, 639.910
556.652, 637.164
557.973, 609.509
559.295, 570.434
560.617, 595.388
561.938, 553.050
563.259, 547.417
564.580, 562.178
565.901, 558.258
567.221, 523.296
568.541, 559.061
569.861, 526.766
571.181, 568.465
572.501, 554.338
573.820, 584.023
575.139, 532.165
576.458, 528.836
577.777, 545.501
579.095, 501.625
580.414, 531.276
581.732, 482.920
583.049, 463.978
584.367, 489.036
585.685, 498.652
587.002, 493.665
588.319, 430.327
589.636, 448.640
590.952, 438.235
592.268, 475.824
593.585, 406.407
594.900, 416.982
596.216, 397.551
597.532, 394.112
598.847, 361.668
600.162, 357.216
601.477, 357.758
602.792, 324.293
604.106, 309.232
605.420, 291.343
606.734, 260.859
608.048, 239.367
609.361, 231.880
610.675, 208.635
611.988, 201.865
613.301, 181.348
614.614, 154.825
615.926, 147.295
617.238, 114.759
618.550, 102.453
619.862, 90.904
621.174, 101.350
622.485, 84.789
623.797, 77.221
625.108, 77.648
626.418, 57.069
627.729, 36.483
629.039, 49.892
630.349, 62.295
631.659, 38.692
632.969, 34.083
634.279, 33.468
635.588, 17.848
636.897, 17.183
638.206, 17.587
639.515, 13.946
640.823, 8.299
642.131, 20.643
643.439, 19.981
644.747, 7.687
646.055, 30.371
647.362, 27.082
648.669, 10.180
649.976, 3.436
651.283, 14.682
652.589, 20.078
653.896, 5.140
655.202, 1.649
656.508, 22.550
657.814, 2.256
659.119, 4.073
660.424, 20.903
661.729, 28.753
663.034, 18.628
664.339, 11.522
665.643, 0.569
666.947, 6.651
668.251, 13.273
669.555, 26.788
670.859, 1.844
672.162, 8.106
673.465, 3.931
674.768, 32.037
676.071, 23.970
677.373, 18.027
678.676, 21.040
679.978, 4.930
681.280, 8.895
682.581, 11.856
683.883, 29.814
685.184, 10.769
686.485, 5.725
687.786, 1.319
689.087, 1.358
690.387, 6.601
691.687, 35.570
692.987, 11.456
694.287, 35.521
695.586, 7.507
696.886, 5.497
698.185, 12.505
699.484, 9.516
700.783, 16.538
702.081, 12.570
703.379, 20.605
704.677, 8.673
705.975, 22.744
707.273, 33.828
708.570, 7.921
709.868, 13.020
711.165, 10.133
712.462, 14.255
713.758, 7.386
715.055, 2.522
716.351, 29.670
717.647, 27.821
718.943, 36.975
720.238, 33.135
721.533, 21.298
722.829, 26.341
724.124, 3.368
725.418, 18.798
726.713, 8.964
728.007, 6.872
729.301, 33.289
730.595, 13.550
731.889, 11.605
733.182, 28.759
734.476, 14.087
735.769, 23.061
737.061, 14.209
738.354, 20.356
739.647, 35.503
740.939, 28.351
742.231, 22.795
743.523, 23.941
744.814, 19.086
746.106, 9.232
747.397, 31.377
748.688, 23.522
749.978, 24.667
751.269, 9.813
752.559, 12.958
753.849, 11.380
755.139, 32.250
756.429, 18.396
757.719, 28.543
759.008, 41.690
760.297, 20.837
761.586, 2.985
762.875, 4.134
764.163, 0.578
765.451, 1.476
766.739, 13.584
768.027, 7.735
769.315, 22.888
770.602, 13.041
771.890, 17.196
773.177, 11.649
774.463, 32.505
775.750, 18.661
777.036, 13.818
778.323, 34.976
779.609, 25.135
780.894, 20.296
782.180, 8.458
783.465, 24.622
784.750, 47.788
786.035, 63.955
787.320, 33.965
788.605, 52.169
789.889, 64.015
791.173, 69.754
792.457, 51.452
793.741, 64.205
795.024, 47.764
796.307, 56.655
797.591, 67.809
798.873, 108.963
800.156, 74.994
801.439, 91.615
802.721, 84.457
804.003, 86.481
805.285, 81.258
806.566, 99.395
807.848, 102.743
809.129, 87.651
810.410, 117.191
811.691, 87.410
812.971, 83.951
814.252, 101.398
815.532, 121.809
816.812, 111.750
818.092, 146.345
819.371, 138.408
820.651, 167.251
821.930, 171.911
823.209, 189.414
824.488, 176.680
825.766, 178.690
827.045, 171.099
828.323, 192.254
829.601, 183.210
830.878, 170.502
832.156, 166.385
833.433, 149.105
834.710, 165.386
835.987, 181.709
837.264, 216.041
838.540, 178.381
839.817, 175.726
841.093, 124.078
842.369, 171.231
843.644, 149.407
844.920, 143.776
846.195, 155.156
847.470, 177.779
848.745, 159.170
850.020, 173.673
851.294, 135.639
852.568, 158.049
853.842, 144.465
855.116, 94.887
856.390, 144.314
857.663, 77.747
858.936, 94.191
860.209, 103.644
861.482, 113.102
862.755, 107.566
864.027, 104.203
865.299, 78.510
866.571, 91.990
867.843, 53.476
869.115, 63.969
870.386, 67.468
871.657, 46.973
872.928, 59.486
874.199, 38.006
875.470, 81.532
876.740, 43.064
878.010, 51.525
879.280, 35.068
880.550, 30.617
881.820, 67.991
883.089, 21.552
884.358, 57.655
885.627, 57.227
886.896, 56.806
888.164, 42.925
889.433, 57.516
890.701, 18.114
891.969, 24.717
893.236, 17.405
894.504, 21.975
895.771, 7.564
897.038, 45.192
898.305, 40.827
899.572, 38.468
900.838, 24.114
902.105, 48.767
903.371, 52.427
904.637, 62.092
905.902, 75.764
907.168, 68.442
908.433, 70.126
909.698, 54.817
910.963, 71.687
912.228, 90.217
913.492, 104.926
914.757, 100.641
916.021, 120.363
917.285, 120.081
918.548, 120.815
919.812, 127.555
921.075, 119.302
922.338, 136.055
923.601, 166.814
924.864, 121.579
926.126, 155.114
927.388, 170.892
928.650, 166.676
929.912, 200.466
931.174, 203.263
932.435, 206.066
933.697, 228.875
934.958, 278.690
936.218, 305.512
937.479, 344.340
938.739, 366.173
940.000, 481.014
941.260, 557.860
942.520, 670.713
943.779, 803.572
945.039, 978.438
946.298, 1175.311
947.557, 1432.191
948.816, 1564.078
950.074, 1736.972
951.333, 1723.873
952.591, 1529.786
953.849, 1399.715
955.107, 1148.662
956.365, 929.615
957.622, 787.577
958.879, 594.545
960.136, 535.528
961.393, 382.817
962.650, 347.979
963.906, 310.329
965.162, 252.810
966.418, 251.180
967.674, 210.590
968.930, 184.646
970.185, 156.715
971.441, 138.796
972.696, 143.885
973.950, 142.981
975.205, 152.088
976.459, 157.201
977.714, 165.322
978.968, 186.453
980.222, 186.087
981.475, 178.243
982.729, 185.426
983.982, 224.602
985.235, 201.284
986.488, 283.274
987.740, 226.130
988.993, 289.857
990.245, 268.072
991.497, 243.509
992.749, 322.738
994.000, 278.048
995.252, 294.292
996.503, 344.629
997.754, 359.886
999.005, 415.155
1000.256, 406.428
1001.506, 487.708
1002.756, 563.479
1004.006, 607.773
1005.256, 705.074
1006.506, 765.382
1007.755, 888.696
1009.005, 1054.296
1010.254, 1131.326
1011.502, 1350.659
1012.751, 1453.998
1014.000, 1573.344
1015.248, 1654.581
1016.496, 1681.054
1017.744, 1693.418
1018.991, 1615.274
1020.239, 1511.651
1021.486, 1442.034
1022.733, 1259.168
1023.980, 1088.812
1025.227, 971.287
1026.473, 815.896
1027.719, 763.311
1028.965, 676.737
1030.211, 559.165
1031.457, 550.600
1032.702, 516.042
1033.948, 462.490
1035.193, 483.947
1036.438, 445.744
1037.682, 437.214
1038.927, 402.707
1040.171, 423.192
1041.415, 415.688
1042.659, 398.186
1043.903, 392.690
1045.146, 417.196
1046.390, 402.856
1047.633, 412.362
1048.876, 371.874
1050.118, 416.392
1051.361, 382.917
1052.603, 414.447
1053.845, 369.980
1055.087, 347.519
1056.329, 362.059
1057.571, 363.827
1058.812, 345.059
1060.053, 399.633
1061.294, 339.164
1062.535, 315.690
1063.775, 365.221
1065.016, 357.752
1066.256, 366.288
1067.496, 367.829
1068.736, 382.352
1069.975, 396.880
1071.214, 455.412
1072.454, 450.948
1073.693, 502.482
1074.931, 467.011
1076.170, 459.539
1077.408, 483.068
1078.647, 440.599
1079.885, 466.134
1081.122, 402.670
1082.360, 345.204
1083.597, 329.739
1084.835, 251.276
1086.072, 248.813
1087.308, 209.350
1088.545, 172.887
1089.781, 164.426
1091.018, 128.965
1092.254, 139.504
1093.490, 130.044
1094.725, 83.585
1095.961, 63.128
1097.196, 96.670
1098.431, 68.214
1099.666, 58.759
1100.900, 60.438
1102.135, 43.252
1103.369, 45.980
1104.603, 28.085
1105.837, 36.637
1107.071, 31.191
1108.304, 7.746
1109.538, 9.697
1110.771, 6.139
1112.004, 10.580
1113.236, 13.106
1114.469, 10.300
1115.701, 10.743
1116.933, 0.811
1118.165, 4.367
1119.397, 26.926
1120.629, 27.470
1121.860, 113.010
1123.091, 134.543
1124.322, 113.073
1125.553, 44.604
1126.783, 18.350
1128.014, 11.900
1129.244, 19.859
1130.474, 0.386
1131.704, 24.361
1132.933, 10.888
1134.163, 33.130
1135.392, 13.369
1136.621, 10.606
1137.850, 3.164
1139.079, 4.062
1140.307, 7.718
1141.535, 0.500
1142.763, 21.276
1143.991, 18.941
1145.219, 33.848
1146.446, 2.641
1147.674, 20.439
1148.901, 27.233
1150.128, 6.969
1151.354, 29.833
1152.581, 45.641
1153.807, 19.455
1155.033, 50.272
1156.259, 18.907
1157.485, 9.082
1158.710, 16.749
1159.936, 22.583
1161.161, 26.313
1162.386, 23.266
1163.611, 15.114
1164.835, 20.968
1166.060, 3.174
1167.284, 16.690
1168.508, 19.559
1169.732, 6.566
1170.955, 2.315
1172.179, 7.202
1173.402, 4.095
1174.625, 17.994
1175.848, 11.900
1177.070, 22.813
1178.293, 30.733
1179.515, 44.661
1180.737, 37.596
1181.959, 44.539
1183.181, 4.490
1184.402, 60.450
1185.624, 15.418
1186.845, 22.394
1188.066, 17.379
1189.286, 36.373
1190.507, 42.377
1191.727, 39.551
1192.947, 11.062
1194.167, 57.717
1195.387, 28.702
1196.607, 31.698
1197.826, 45.704
1199.045, 30.724
1200.264, 30.737
1201.483, 41.706
1202.702, 34.679
1203.920, 35.835
1205.138, 39.189
1206.356, 41.599
1207.574, 36.311
1208.792, 40.666
1210.009, 38.327
1211.227, 48.144
1212.444, 37.935
1213.661, 23.719
1214.877, 20.398
1216.094, 23.055
1217.310, 22.551
1218.526, 16.324
1219.742, 35.570
1220.958, 21.984
1222.173, 36.520
1223.389, 49.342
1224.604, 41.710
1225.819, 38.054
1227.034, 32.357
1228.248, 24.491
1229.463, 54.613
1230.677, 29.710
1231.891, 31.777
1233.105, 61.282
1234.318, 48.307
1235.532, 32.255
1236.745, 30.157
1237.958, 35.109
1239.171, 42.137
1240.384, 26.158
1241.596, 16.181
1242.809, 19.777
1244.021, 29.279
1245.233, 23.345
1246.444, 0.527
1247.656, 3.682
1248.867, 50.880
1250.079, 26.088
1251.290, 32.331
1252.500, 42.605
1253.711, 17.923
1254.921, 23.286
1256.132, 41.693
1257.342, 9.152
1258.552, 59.667
1259.761, 1.425
1260.971, 1.018
1262.180, 27.487
1263.389, 19.965
1264.598, 30.422
1265.807, 20.260
1267.015, 10.031
1268.223, 15.680
1269.432, 14.810
1270.640, 0.000
##END=



