##NAMES=Wavellite
##RRUFFID=R040176
##IDEAL CHEMISTRY=Al_3_(PO_4_)_2_(OH)_3_&#183;5H_2_O
##LOCALITY=Montgomery County, Arkansas, USA
##OWNER=RRUFF
##SOURCE=University of Arizona Mineral Museum
##DESCRIPTION=Pale green radial aggregates
##STATUS=The identification of this mineral has been confirmed by X-ray diffraction and chemical analysis
##URL=rruff.info/R040176
##MEASURED CHEMISTRY=(Al_0.88_V_0.03_)_3_(P_0.97_O_4_)_2_((OH)_1.74_F_0.26_)_3_Â·5H_2_O
##PIN_ID=L00054
##ORIENTATION=Laser parallel to -a* (-1 0 0). Fiducial mark perpendicular to laser is parallel to b [0 1 0]
78.031, 0.000
79.427, 23.425
80.823, 182.958
82.218, 754.799
83.614, 972.445
85.009, 1231.443
86.404, 1480.841
87.798, 1743.839
89.193, 2314.195
90.587, 2864.296
91.981, 3630.646
93.375, 4492.431
94.768, 5674.359
96.161, 7285.568
97.554, 8752.117
98.947, 10223.645
100.340, 11359.168
101.732, 11750.960
103.124, 11468.471
104.516, 10610.875
105.908, 9110.752
107.300, 7233.219
108.691, 5952.793
110.082, 4646.647
111.473, 3929.039
112.864, 3428.254
114.254, 2941.602
115.644, 3003.143
117.034, 2930.811
118.424, 2731.891
119.813, 2029.018
121.203, 1976.130
122.592, 1662.462
123.981, 1337.884
125.369, 1232.713
126.758, 1185.671
128.146, 919.578
129.534, 1055.113
130.922, 825.159
132.309, 1020.829
133.696, 961.644
135.083, 1414.871
136.470, 1354.952
137.857, 1635.145
139.243, 1725.991
140.630, 1873.894
142.016, 2024.007
143.401, 2263.701
144.787, 2276.588
146.172, 2502.107
147.557, 2569.215
148.942, 2480.858
150.327, 2616.990
151.711, 2535.588
153.096, 2600.837
154.480, 2768.125
155.863, 2686.037
157.247, 2752.361
158.630, 2762.085
160.013, 2784.195
161.396, 2798.578
162.779, 2746.966
164.161, 2695.504
165.544, 2483.264
166.926, 2350.290
168.308, 2147.610
169.689, 1992.236
171.070, 1754.580
172.452, 1490.110
173.833, 1246.018
175.213, 905.910
176.594, 616.109
177.974, 327.947
179.354, 171.393
180.734, 101.540
182.114, 202.199
183.493, 230.565
184.872, 291.550
186.251, 352.115
187.630, 379.614
189.008, 397.276
190.387, 426.956
191.765, 497.466
193.143, 479.815
194.520, 418.993
195.898, 350.960
197.275, 269.760
198.652, 0.405
200.029, 56.104
201.405, 246.771
202.782, 669.626
204.158, 1274.680
205.534, 1870.981
206.909, 2265.692
208.285, 3102.887
209.660, 3462.387
211.035, 3585.113
212.410, 3471.049
213.784, 3168.948
215.159, 2598.741
216.533, 2157.320
217.907, 1806.606
219.281, 1604.582
220.654, 1333.375
222.027, 1124.236
223.400, 1179.238
224.773, 1073.378
226.146, 1085.652
227.518, 1199.062
228.891, 1131.602
230.263, 1278.270
231.634, 1486.064
233.006, 1543.981
234.377, 1688.021
235.748, 1785.182
237.119, 1918.460
238.490, 2399.854
239.860, 2500.363
241.231, 2820.987
242.601, 3101.725
243.970, 3124.801
245.340, 3298.772
246.709, 3335.760
248.079, 3742.269
249.448, 3733.972
250.816, 4102.646
252.185, 4047.124
253.553, 4170.279
254.921, 4249.014
256.289, 4131.251
257.657, 3918.927
259.024, 3721.977
260.391, 3513.352
261.758, 3046.006
263.125, 2966.915
264.492, 2925.049
265.858, 2927.393
267.224, 3065.927
268.590, 3057.642
269.956, 3462.511
271.321, 3928.487
272.687, 4171.520
274.052, 4622.581
275.416, 5451.682
276.781, 5956.827
278.146, 6103.021
279.510, 6684.266
280.874, 7006.570
282.237, 7515.934
283.601, 7641.357
284.964, 8030.850
286.327, 8625.597
287.690, 8906.665
289.053, 8988.491
290.416, 9202.715
291.778, 8676.665
293.140, 8507.396
294.502, 7700.935
295.863, 7287.580
297.225, 6767.475
298.586, 6534.260
299.947, 6708.729
301.308, 7174.955
302.668, 7815.234
304.029, 9116.361
305.389, 10546.429
306.749, 12291.696
308.108, 14849.957
309.468, 16942.348
310.827, 18949.836
312.186, 20440.420
313.545, 21395.143
314.903, 21157.914
316.262, 20430.787
317.620, 18276.744
318.978, 15780.788
320.336, 13622.539
321.693, 11641.752
323.051, 9813.225
324.408, 8306.449
325.765, 7245.053
327.121, 5925.273
328.478, 5295.059
329.834, 4766.391
331.190, 4278.571
332.546, 3864.796
333.902, 3804.445
335.257, 3577.732
336.612, 3656.924
337.967, 3750.948
339.322, 4159.880
340.677, 4658.693
342.031, 5274.464
343.385, 6265.223
344.739, 7179.275
346.093, 8099.838
347.446, 9461.546
348.799, 10876.911
350.153, 12221.719
351.505, 13110.062
352.858, 13684.739
354.210, 13664.840
355.563, 13359.137
356.915, 12603.704
358.267, 11415.383
359.618, 9919.069
360.969, 8776.200
362.321, 7487.618
363.672, 6505.678
365.022, 5746.775
366.373, 5185.916
367.723, 4870.096
369.073, 4802.311
370.423, 4841.562
371.773, 4830.848
373.122, 5346.166
374.471, 5989.513
375.821, 6466.891
377.169, 7320.296
378.518, 7881.732
379.866, 8979.203
381.215, 10074.700
382.563, 11268.233
383.910, 12521.800
385.258, 13911.399
386.605, 15404.034
387.952, 16455.717
389.299, 18122.434
390.646, 18647.184
391.992, 19453.967
393.339, 19803.799
394.685, 19882.668
396.031, 19741.594
397.376, 18903.543
398.722, 18215.559
400.067, 17167.596
401.412, 16091.700
402.757, 15619.869
404.101, 14408.062
405.446, 13276.284
406.790, 12478.587
408.134, 11492.969
409.478, 10779.458
410.821, 9657.006
412.165, 8478.593
413.508, 7810.268
414.851, 6812.976
416.193, 5766.715
417.536, 5050.482
418.878, 4370.275
420.220, 3841.109
421.562, 3021.984
422.904, 2916.884
424.245, 2582.801
425.586, 1975.742
426.927, 1939.701
428.268, 1512.679
429.609, 1156.677
430.949, 1018.701
432.289, 1051.767
433.629, 692.910
434.969, 717.082
436.309, 528.290
437.648, 516.507
438.987, 417.769
440.326, 246.063
441.665, 183.410
443.003, 191.812
444.342, 143.229
445.680, 48.697
447.018, 32.438
448.355, 20.512
449.693, 50.715
451.030, 74.215
452.367, 85.446
453.704, 79.274
455.041, 19.874
456.377, 6.502
457.713, 16.144
459.049, 38.795
460.385, 22.151
461.721, 166.819
463.056, 33.128
464.391, 56.473
465.726, 171.823
467.061, 69.188
468.395, 23.568
469.730, 93.983
471.064, 34.567
472.398, 172.849
473.731, 27.267
475.065, 104.713
476.398, 175.157
477.731, 204.630
479.064, 207.421
480.397, 53.589
481.729, 144.058
483.062, 86.523
484.394, 15.979
485.725, 32.413
487.057, 0.829
488.389, 38.211
489.720, 3.574
491.051, 128.086
492.382, 177.847
493.712, 131.710
495.043, 308.678
496.373, 102.835
497.703, 98.078
499.032, 26.410
500.362, 56.800
501.691, 88.745
503.020, 103.729
504.349, 21.698
505.678, 133.113
507.007, 0.554
508.335, 11.993
509.663, 62.447
510.991, 33.944
512.319, 131.483
513.646, 233.085
514.973, 90.756
516.300, 367.502
517.627, 384.329
518.954, 105.222
520.280, 348.160
521.607, 372.134
522.933, 405.091
524.259, 307.026
525.584, 310.941
526.910, 371.835
528.235, 315.707
529.560, 488.555
530.885, 227.380
532.209, 363.181
533.534, 571.959
534.858, 457.712
536.182, 520.439
537.506, 528.142
538.829, 531.820
540.152, 481.471
541.476, 783.096
542.799, 710.694
544.121, 985.265
545.444, 1132.476
546.766, 1175.510
548.088, 1548.938
549.410, 1807.394
550.732, 1838.102
552.053, 2108.579
553.375, 2282.944
554.696, 2641.000
556.017, 3034.303
557.337, 3299.716
558.658, 3501.527
559.978, 3632.395
561.298, 4270.178
562.618, 4419.455
563.938, 4802.252
565.257, 5286.423
566.576, 5309.879
567.895, 5918.486
569.214, 6259.873
570.533, 6330.816
571.851, 6393.917
573.170, 6822.744
574.488, 6843.610
575.805, 6830.971
577.123, 6600.291
578.440, 6815.381
579.758, 6712.086
581.075, 6561.756
582.391, 6660.861
583.708, 6489.215
585.024, 6370.133
586.341, 6194.178
587.657, 5919.865
588.972, 5582.041
590.288, 5082.939
591.603, 4817.162
592.918, 4536.512
594.233, 4489.301
595.548, 4328.709
596.863, 3997.118
598.177, 3828.395
599.491, 3700.566
600.805, 3389.214
602.119, 3321.865
603.432, 3152.517
604.746, 3121.674
606.059, 2939.973
607.372, 2789.675
608.685, 2891.057
609.997, 2782.557
611.309, 2743.838
612.621, 2710.063
613.933, 3002.840
615.245, 3211.506
616.557, 3500.275
617.868, 3717.646
619.179, 4038.656
620.490, 4103.553
621.801, 4742.586
623.111, 5131.645
624.421, 5576.139
625.731, 5389.354
627.041, 5908.518
628.351, 5395.464
629.660, 5393.583
630.970, 5546.148
632.279, 5116.515
633.588, 5305.961
634.896, 5190.491
636.205, 5348.459
637.513, 5163.734
638.821, 5410.322
640.129, 5482.466
641.437, 5644.369
642.744, 5684.642
644.051, 5760.765
645.358, 5750.977
646.665, 5501.676
647.972, 5470.405
649.278, 5016.701
650.584, 4849.807
651.890, 4818.658
653.196, 4344.986
654.502, 4183.855
655.807, 3688.526
657.113, 3407.129
658.418, 3022.554
659.722, 2815.913
661.027, 2394.695
662.331, 2258.593
663.636, 2357.619
664.940, 1871.230
666.244, 1952.402
667.547, 1727.176
668.851, 1781.051
670.154, 1602.713
671.457, 1474.463
672.760, 1574.479
674.062, 1336.115
675.365, 1309.693
676.667, 1274.676
677.969, 1293.139
679.271, 1018.543
680.572, 944.887
681.874, 941.176
683.175, 1074.404
684.476, 810.576
685.777, 789.691
687.077, 617.746
688.378, 670.742
689.678, 593.686
690.978, 568.568
692.278, 548.393
693.577, 604.162
694.877, 386.871
696.176, 554.525
697.475, 304.123
698.774, 527.664
700.072, 423.146
701.371, 202.576
702.669, 71.941
703.967, 178.217
705.265, 466.428
706.562, 153.582
707.860, 29.672
709.157, 278.658
710.454, 33.410
711.751, 290.389
713.047, 5.135
714.344, 123.770
715.640, 37.666
716.936, 54.232
718.232, 220.064
719.527, 166.305
720.823, 87.484
722.118, 114.594
723.413, 109.367
724.708, 108.514
726.002, 226.326
727.297, 91.916
728.591, 255.693
729.885, 205.252
731.179, 144.758
732.472, 141.209
733.766, 26.600
735.059, 4.092
736.352, 98.121
737.645, 130.273
738.937, 56.371
740.230, 97.482
741.522, 77.902
742.814, 34.285
744.106, 20.125
745.397, 59.107
746.689, 194.459
747.980, 7.992
749.271, 49.615
750.562, 109.656
751.853, 81.119
753.143, 50.016
754.433, 115.016
755.723, 141.520
757.013, 15.568
758.303, 131.777
759.592, 111.260
760.881, 103.871
762.170, 50.404
763.459, 0.643
764.748, 153.160
766.036, 257.924
767.325, 18.004
768.613, 65.033
769.901, 1.957
771.188, 31.990
772.476, 58.922
773.763, 30.184
775.050, 49.664
776.337, 129.525
777.624, 8.180
778.910, 23.154
780.196, 39.539
781.482, 151.979
782.768, 120.529
784.054, 9.176
785.339, 48.162
786.625, 154.527
787.910, 178.678
789.195, 116.145
790.479, 46.051
791.764, 5.998
793.048, 30.021
794.332, 48.021
795.616, 78.996
796.900, 102.947
798.183, 22.111
799.467, 46.803
800.750, 1.711
802.033, 86.398
803.316, 179.457
804.598, 128.660
805.880, 22.213
807.163, 53.885
808.445, 68.922
809.726, 11.953
811.008, 95.033
812.289, 63.973
813.570, 125.020
814.851, 141.998
816.132, 73.002
817.413, 52.004
818.693, 204.992
819.973, 83.982
821.253, 156.973
822.533, 336.957
823.813, 188.938
825.092, 208.906
826.371, 466.867
827.650, 356.818
828.929, 501.760
830.208, 482.691
831.486, 363.615
832.764, 417.533
834.042, 463.445
835.320, 441.348
836.598, 496.242
837.875, 542.131
839.152, 538.016
840.429, 648.893
841.706, 680.768
842.983, 706.637
844.259, 941.506
845.536, 808.371
846.812, 697.230
848.088, 795.092
849.363, 939.953
850.639, 1058.812
851.914, 961.672
853.189, 863.533
854.464, 1228.398
855.739, 1506.596
857.013, 1505.943
858.288, 1629.871
859.562, 1771.746
860.836, 1848.344
862.110, 1775.498
863.383, 1519.043
864.656, 1450.217
865.930, 1255.123
867.203, 886.896
868.475, 921.244
869.748, 576.518
871.020, 895.848
872.292, 712.662
873.564, 628.932
874.836, 673.805
876.108, 529.371
877.379, 708.764
878.650, 688.355
879.922, 636.367
881.192, 590.199
882.463, 635.283
883.733, 452.309
885.004, 597.814
886.274, 519.342
887.544, 675.076
888.813, 508.172
890.083, 705.283
891.352, 657.939
892.621, 716.330
893.890, 650.682
895.159, 700.785
896.427, 742.781
897.695, 708.656
898.964, 865.014
900.232, 738.416
901.499, 768.705
902.767, 930.541
904.034, 864.740
905.301, 915.922
906.568, 919.217
907.835, 892.605
909.102, 746.506
910.368, 928.389
911.634, 1090.340
912.900, 928.811
914.166, 1161.988
915.432, 791.512
916.697, 631.693
917.962, 1120.469
919.227, 838.785
920.492, 1012.449
921.757, 854.740
923.021, 997.828
924.285, 889.252
925.550, 1038.812
926.813, 879.836
928.077, 1299.609
929.341, 1156.930
930.604, 1205.668
931.867, 1051.199
933.130, 1212.959
934.393, 1423.877
935.655, 1257.016
936.918, 1405.008
938.180, 1273.545
939.442, 1229.234
940.703, 1286.877
941.965, 1304.426
943.226, 1215.533
944.488, 1482.326
945.749, 1501.186
947.009, 1477.100
948.270, 1502.068
949.530, 1781.094
950.791, 1736.760
952.051, 1751.898
953.311, 1560.057
954.570, 1855.711
955.830, 1838.021
957.089, 1709.547
958.348, 1875.975
959.607, 1685.354
960.866, 1709.354
962.124, 1591.789
963.383, 1784.453
964.641, 1667.883
965.899, 1879.664
967.156, 1774.502
968.414, 1854.398
969.671, 1894.357
970.928, 1696.375
972.185, 1932.451
973.442, 1909.588
974.699, 2307.785
975.955, 1996.041
977.211, 2110.359
978.468, 2456.738
979.723, 2568.178
980.979, 2807.680
982.234, 3362.242
983.490, 3170.867
984.745, 3860.553
986.000, 4326.299
987.254, 4264.109
988.509, 5175.980
989.763, 5211.914
991.017, 5698.914
992.271, 6089.975
993.525, 6488.098
994.779, 7226.285
996.032, 7779.535
997.285, 8668.848
998.538, 9229.230
999.791, 10998.670
1001.044, 11838.178
1002.296, 12932.748
1003.548, 13261.387
1004.800, 13414.086
1006.052, 14175.852
1007.304, 14879.691
1008.555, 16124.609
1009.807, 17379.594
1011.058, 18876.650
1012.309, 20851.773
1013.559, 22819.990
1014.810, 24513.275
1016.060, 26790.668
1017.310, 29019.119
1018.560, 30748.670
1019.810, 32479.301
1021.060, 33680.023
1022.309, 33225.863
1023.558, 32913.777
1024.807, 30813.760
1026.056, 29077.820
1027.305, 26161.953
1028.553, 23800.211
1029.801, 20987.539
1031.049, 18364.936
1032.297, 16436.443
1033.545, 15082.021
1034.793, 13560.664
1036.040, 12509.375
1037.287, 11926.156
1038.534, 11439.008
1039.781, 11257.955
1041.027, 10752.977
1042.274, 10890.066
1043.520, 11065.232
1044.766, 10675.488
1046.012, 10834.818
1047.257, 10713.234
1048.503, 10934.760
1049.748, 10492.359
1050.993, 10506.850
1052.238, 9960.740
1053.483, 9238.912
1054.727, 8477.902
1055.971, 7871.002
1057.216, 6783.133
1058.459, 5910.463
1059.703, 5411.758
1060.947, 4706.746
1062.190, 4147.307
1063.433, 3717.152
1064.676, 3313.145
1065.919, 2885.398
1067.162, 2838.342
1068.404, 2313.498
1069.646, 2149.012
1070.888, 2155.568
1072.130, 1690.875
1073.372, 1595.201
1074.613, 1739.873
1075.855, 1344.572
1077.096, 1173.127
1078.337, 1542.854
1079.578, 1236.887
1080.818, 1357.738
1082.059, 1296.062
1083.299, 1495.012
1084.539, 1339.932
1085.779, 1289.758
1087.018, 1194.928
1088.258, 1071.127
1089.497, 853.455
1090.736, 848.812
1091.975, 709.248
1093.213, 594.738
1094.452, 617.975
1095.690, 449.863
1096.928, 615.496
1098.166, 683.174
1099.404, 646.898
1100.642, 519.672
1101.879, 662.486
1103.116, 511.348
1104.353, 777.264
1105.590, 552.223
1106.827, 886.250
1108.063, 705.314
1109.299, 1124.428
1110.536, 995.178
1111.771, 965.381
1113.007, 910.623
1114.243, 1211.908
1115.478, 1055.234
1116.713, 1104.594
1117.948, 1302.994
1119.183, 1001.428
1120.418, 1341.898
1121.652, 1599.404
1122.886, 1867.941
1124.120, 1850.521
1125.354, 1775.137
1126.588, 1908.783
1127.821, 1764.461
1129.055, 2084.174
1130.288, 2405.916
1131.521, 2480.689
1132.753, 2539.494
1133.986, 2872.326
1135.218, 3344.191
1136.450, 3258.078
1137.682, 4054.992
1138.914, 4184.936
1140.146, 4724.895
1141.377, 5168.906
1142.609, 5574.965
1143.840, 6296.072
1145.071, 6827.230
1146.301, 7238.430
1147.532, 7877.680
1148.762, 8252.977
1149.992, 8689.322
1151.222, 8917.715
1152.452, 9454.148
1153.682, 9226.633
1154.911, 9506.160
1156.140, 9050.738
1157.369, 8779.355
1158.598, 8498.020
1159.827, 8049.727
1161.055, 7523.420
1162.284, 6652.275
1163.512, 6167.115
1164.740, 5481.998
1165.967, 4867.232
1167.195, 4445.889
1168.422, 3775.896
1169.650, 3313.906
1170.877, 2909.949
1172.103, 2457.035
1173.330, 2203.148
1174.557, 2047.188
1175.783, 1925.125
1177.009, 1327.006
1178.235, 1256.854
1179.461, 1181.701
1180.686, 881.523
1181.912, 915.260
1183.137, 778.842
1184.362, 534.271
1185.587, 507.654
1186.811, 506.027
1188.036, 352.959
1189.260, 289.850
1190.484, 316.135
1191.708, 222.727
1192.932, 122.818
1194.155, 29.697
1195.378, 5.121
1196.602, 34.244
1197.825, 152.777
1199.047, 3.320
1200.270, 4.133
1201.492, 154.639
1202.715, 150.830
1203.937, 21.246
1205.159, 45.477
1206.380, 16.689
1207.602, 324.092
1208.823, 217.637
1210.044, 218.279
1211.265, 62.527
1212.486, 200.922
1213.707, 192.619
1214.927, 12.766
1216.147, 60.504
1217.367, 16.941
1218.587, 47.562
1219.807, 82.131
1221.027, 84.514
1222.246, 209.404
1223.465, 203.904
1224.684, 251.539
1225.903, 205.131
1227.121, 231.307
1228.340, 156.299
1229.558, 35.529
1230.776, 111.803
1231.994, 91.186
1233.212, 202.518
1234.429, 111.084
1235.646, 125.645
1236.864, 311.207
1238.081, 267.738
1239.297, 298.199
1240.514, 329.602
1241.730, 233.971
1242.947, 184.316
1244.163, 82.604
1245.378, 272.799
1246.594, 234.906
1247.810, 203.977
1249.025, 371.990
1250.240, 159.938
1251.455, 386.885
1252.670, 352.555
1253.885, 200.154
1255.099, 242.703
1256.313, 47.650
1257.527, 316.225
1258.741, 265.605
1259.955, 235.928
1261.168, 336.193
1262.382, 287.395
1263.595, 336.533
1264.808, 317.605
1266.021, 411.613
1267.233, 531.693
1268.446, 712.566
1269.658, 461.936
1270.870, 781.688
1272.082, 916.605
1273.294, 822.396
1274.505, 525.945
1275.716, 618.438
1276.928, 536.473
1278.139, 701.736
1279.349, 460.877
1280.560, 675.963
1281.770, 563.793
1282.981, 360.654
1284.191, 329.738
1285.401, 386.367
1286.610, 345.418
1287.820, 454.486
1289.029, 220.574
1290.239, 473.672
1291.448, 386.781
1292.656, 388.904
1293.865, 628.035
1295.073, 563.172
1296.282, 596.320
1297.490, 571.469
1298.698, 469.619
1299.906, 567.773
1301.113, 410.924
1302.320, 528.074
1303.528, 530.225
1304.735, 417.377
1305.942, 546.531
1307.148, 644.689
1308.355, 570.863
1309.561, 906.039
1310.767, 784.211
1311.973, 973.334
1313.179, 826.389
1314.384, 931.014
1315.590, 836.588
1316.795, 972.537
1318.000, 863.223
1319.205, 1070.836
1320.410, 947.650
1321.614, 851.469
1322.819, 887.518
1324.023, 676.848
1325.227, 881.447
1326.431, 791.129
1327.634, 409.113
1328.838, 485.076
1330.041, 231.883
1331.244, 153.205
1332.447, 27.607
1333.650, 75.953
1334.852, 55.240
1336.055, 16.533
1337.257, 31.635
1338.459, 14.566
1339.661, 201.801
1340.862, 36.799
1342.064, 99.748
1343.265, 87.658
1344.466, 28.488
1345.667, 55.271
1346.868, 29.949
1348.068, 10.703
1349.269, 8.643
1350.469, 139.947
1351.669, 73.496
1352.869, 220.006
1354.069, 254.475
1355.268, 28.918
1356.468, 33.344
1357.667, 231.760
1358.866, 80.023
1360.065, 139.072
1361.263, 71.893
1362.462, 83.533
1363.660, 78.787
1364.858, 149.836
1366.056, 290.598
1367.254, 154.053
1368.451, 222.188
1369.649, 119.979
1370.846, 340.404
1372.043, 197.553
1373.240, 224.426
1374.436, 319.219
1375.633, 325.900
1376.829, 228.938
1378.025, 395.375
1379.221, 508.412
1380.417, 404.314
1381.613, 307.102
1382.808, 503.227
1384.003, 531.529
1385.199, 456.143
1386.393, 323.984
1387.588, 474.742
1388.783, 473.398
1389.977, 529.887
1391.171, 268.178
1392.365, 378.930
1393.559, 423.100
1394.753, 206.029
1395.946, 361.574
1397.140, 221.072
1398.333, 225.492
1399.526, 74.055
1400.719, 135.938
1401.911, 186.734
1403.104, 359.826
1404.296, 353.625
1405.488, 236.270
1406.680, 178.854
1407.872, 185.754
1409.063, 234.490
1410.255, 104.529
1411.446, 270.232
1412.637, 13.379
1413.828, 200.992
1415.018, 65.123
1416.209, 78.730
1417.399, 293.236
1418.589, 260.879
1419.779, 12.605
1420.969, 91.945
1422.159, 129.762
1423.348, 76.336
1424.537, 132.131
1425.726, 31.311
1426.915, 0.666
1428.104, 0.000
##END=



