##NAMES=Wavellite
##RRUFFID=R040176
##IDEAL CHEMISTRY=Al_3_(PO_4_)_2_(OH)_3_&#183;5H_2_O
##LOCALITY=Montgomery County, Arkansas, USA
##OWNER=RRUFF
##SOURCE=University of Arizona Mineral Museum
##DESCRIPTION=Pale green radial aggregates
##STATUS=The identification of this mineral has been confirmed by X-ray diffraction and chemical analysis
##URL=rruff.info/R040176
##MEASURED CHEMISTRY=(Al_0.88_V_0.03_)_3_(P_0.97_O_4_)_2_((OH)_1.74_F_0.26_)_3_Â·5H_2_O
##PIN_ID=S00512
##ORIENTATION=Laser parallel to -c* (0 0 -1). Fiducial mark perpendicular to laser is parallel to a [1 0 0]
91.981, 0.000
93.375, 22.459
94.768, 425.404
96.161, 803.294
97.554, 1665.758
98.947, 2530.705
100.340, 3302.727
101.732, 3861.756
103.124, 4234.676
104.516, 4488.685
105.908, 4420.547
107.300, 4629.758
108.691, 4107.729
110.082, 4125.605
111.473, 4234.558
112.864, 4791.393
114.254, 5802.943
115.644, 6771.807
117.034, 7688.122
118.424, 8347.425
119.813, 8621.390
121.203, 8991.066
122.592, 8850.330
123.981, 8319.894
125.369, 7839.334
126.758, 6794.129
128.146, 6225.674
129.534, 5382.305
130.922, 4993.310
132.309, 3925.928
133.696, 3187.369
135.083, 2539.134
136.470, 2428.244
137.857, 2077.544
139.243, 2310.759
140.630, 2346.033
142.016, 2180.840
143.401, 2163.530
144.787, 2292.207
146.172, 2328.643
147.557, 2302.054
148.942, 2131.375
150.327, 1974.560
151.711, 1875.572
153.096, 1704.376
154.480, 1738.941
155.863, 1585.233
157.247, 1459.188
158.630, 1449.756
160.013, 1311.915
161.396, 1289.651
162.779, 1332.961
164.161, 1339.835
165.544, 1254.261
166.926, 1153.225
168.308, 1026.715
169.689, 908.721
171.070, 738.229
172.452, 773.232
173.833, 496.723
175.213, 393.591
176.594, 135.653
177.974, 138.937
179.354, 142.113
180.734, 289.846
182.114, 443.118
183.493, 472.934
184.872, 480.294
186.251, 486.090
187.630, 312.695
189.008, 367.769
190.387, 236.450
191.765, 116.755
193.143, 142.698
194.520, 173.292
195.898, 328.546
197.275, 289.475
198.652, 233.124
200.029, 73.536
201.405, 154.269
202.782, 549.275
204.158, 893.482
205.534, 1530.896
206.909, 2398.514
208.285, 3047.339
209.660, 3741.372
211.035, 4443.617
212.410, 4404.072
213.784, 4653.734
215.159, 4231.608
216.533, 3695.694
217.907, 3199.913
219.281, 2711.031
220.654, 2348.795
222.027, 2096.331
223.400, 2177.796
224.773, 2282.401
226.146, 2330.285
227.518, 2583.352
228.891, 2799.657
230.263, 2801.387
231.634, 2877.455
233.006, 2850.825
234.377, 2615.417
235.748, 2686.227
237.119, 2602.256
238.490, 2557.502
239.860, 2871.963
241.231, 2778.638
242.601, 3119.527
243.970, 3219.628
245.340, 3391.942
246.709, 3448.467
248.079, 3450.203
249.448, 3555.571
250.816, 3562.309
252.185, 3624.676
253.553, 3675.252
254.921, 3632.032
256.289, 3596.020
257.657, 3390.500
259.024, 3343.116
260.391, 3160.371
261.758, 3171.289
263.125, 3009.458
264.492, 3114.598
265.858, 3242.507
267.224, 3328.041
268.590, 3516.096
269.956, 3693.569
271.321, 4137.372
272.687, 4371.440
274.052, 4655.732
275.416, 4922.221
276.781, 5194.596
278.146, 5478.488
279.510, 5744.652
280.874, 6032.619
282.237, 6282.553
283.601, 6534.434
284.964, 6701.237
286.327, 6468.044
287.690, 6888.818
289.053, 6694.596
290.416, 6543.391
291.778, 6563.215
293.140, 6219.075
294.502, 6101.987
295.863, 5355.952
297.225, 5245.978
298.586, 4962.068
299.947, 4801.022
301.308, 5004.553
302.668, 4862.320
304.029, 5315.345
305.389, 5965.906
306.749, 6704.280
308.108, 7628.515
309.468, 8730.432
310.827, 9590.255
312.186, 10587.269
313.545, 11127.468
314.903, 11714.851
316.262, 11591.414
317.620, 11013.150
318.978, 10365.059
320.336, 9266.134
321.693, 8294.376
323.051, 7288.782
324.408, 6398.350
325.765, 5401.072
327.121, 5067.952
328.478, 4309.984
329.834, 3839.168
331.190, 3582.500
332.546, 3341.979
333.902, 2929.600
335.257, 2673.362
336.612, 2289.267
337.967, 2303.306
339.322, 2264.482
340.677, 2190.645
342.031, 2447.814
343.385, 2600.164
344.739, 3094.210
346.093, 3319.274
347.446, 3711.058
348.799, 4302.975
350.153, 4862.312
351.505, 5268.855
352.858, 5642.826
354.210, 5802.555
355.563, 6144.616
356.915, 6014.471
358.267, 5628.462
359.618, 5556.292
360.969, 4999.844
362.321, 5112.896
363.672, 3954.336
365.022, 3483.182
366.373, 3227.844
367.723, 2983.539
369.073, 2928.322
370.423, 2878.133
371.773, 2904.120
373.122, 3001.236
374.471, 3343.457
375.821, 3744.784
377.169, 3995.219
378.518, 4618.811
379.866, 4757.500
381.215, 5154.312
382.563, 5757.229
383.910, 6343.293
385.258, 6861.469
386.605, 7453.760
387.952, 8065.174
389.299, 8433.813
390.646, 8959.367
391.992, 9084.121
393.339, 9312.000
394.685, 9424.039
396.031, 9594.183
397.376, 9574.484
398.722, 9462.964
400.067, 9371.571
401.412, 9055.310
402.757, 8726.170
404.101, 8450.271
405.446, 8071.289
406.790, 7708.535
408.134, 7339.916
409.478, 6880.400
410.821, 5984.962
412.165, 5441.606
413.508, 4598.333
414.851, 4099.975
416.193, 3546.456
417.536, 3225.281
418.878, 2680.481
420.220, 2447.845
421.562, 2277.337
422.904, 1888.950
424.245, 1888.667
425.586, 1906.481
426.927, 1814.376
428.268, 1712.379
429.609, 1406.463
430.949, 1176.637
432.289, 1159.884
433.629, 1030.211
434.969, 831.637
436.309, 1037.137
437.648, 585.700
438.987, 788.324
440.326, 667.628
441.665, 604.139
443.003, 584.633
444.342, 638.545
445.680, 667.511
447.018, 755.555
448.355, 967.654
449.693, 827.819
451.030, 944.040
452.367, 1117.312
453.704, 1423.663
455.041, 1251.064
456.377, 1613.518
457.713, 1625.024
459.049, 1794.580
460.385, 2047.186
461.721, 2163.839
463.056, 2530.539
464.391, 2479.294
465.726, 2512.104
467.061, 2826.971
468.395, 2695.897
469.730, 2926.881
471.064, 2879.930
472.398, 2733.058
473.731, 3030.244
475.065, 2803.488
476.398, 2760.789
477.731, 2767.144
479.064, 2655.551
480.397, 2496.015
481.729, 2426.527
483.062, 2298.089
484.394, 2085.699
485.725, 1958.356
487.057, 1973.060
488.389, 1862.811
489.720, 1665.609
491.051, 1432.452
492.382, 1307.339
493.712, 1201.268
495.043, 1098.246
496.373, 803.264
497.703, 797.320
499.032, 690.415
500.362, 450.547
501.691, 475.716
503.020, 347.973
504.349, 151.313
505.678, 101.772
507.007, 115.381
508.335, 195.856
509.663, 221.025
510.991, 111.139
512.319, 210.191
513.646, 200.216
514.973, 218.239
516.300, 287.298
517.627, 144.418
518.954, 245.532
520.280, 432.654
521.607, 147.883
522.933, 245.102
524.259, 218.386
525.584, 97.587
526.910, 134.952
528.235, 185.383
529.560, 131.051
530.885, 297.514
532.209, 216.201
533.534, 190.383
534.858, 466.990
536.182, 446.683
537.506, 462.528
538.829, 357.107
540.152, 536.947
541.476, 578.589
542.799, 854.685
544.121, 627.940
545.444, 807.020
546.766, 839.430
548.088, 698.347
549.410, 842.512
550.732, 849.299
552.053, 1057.349
553.375, 1031.843
554.696, 934.672
556.017, 1093.402
557.337, 1182.947
558.658, 1241.889
559.978, 1326.375
561.298, 1363.107
562.618, 1647.953
563.938, 1525.166
565.257, 1649.494
566.576, 1972.796
567.895, 1786.306
569.214, 2088.928
570.533, 2152.466
571.851, 2162.379
573.170, 2275.471
574.488, 2301.303
575.805, 2274.264
577.123, 2373.729
578.440, 2486.713
579.758, 2492.772
581.075, 2581.495
582.391, 2474.530
583.708, 2645.814
585.024, 2610.049
586.341, 2594.718
587.657, 2967.074
588.972, 2921.353
590.288, 2890.504
591.603, 2893.178
592.918, 2782.886
594.233, 2827.001
595.548, 2908.882
596.863, 3070.725
598.177, 3056.479
599.491, 3218.418
600.805, 3309.942
602.119, 3314.279
603.432, 3273.265
604.746, 3733.969
606.059, 3957.578
607.372, 3819.486
608.685, 3833.980
609.997, 4255.945
611.309, 4156.086
612.621, 4302.505
613.933, 4278.088
615.245, 4618.158
616.557, 4610.758
617.868, 4723.562
619.179, 4716.727
620.490, 4841.963
621.801, 4739.941
623.111, 5125.130
624.421, 4947.311
625.731, 5030.422
627.041, 4778.020
628.351, 5071.125
629.660, 4839.796
630.970, 4779.013
632.279, 4924.512
633.588, 4708.086
634.896, 4809.356
636.205, 4303.121
637.513, 4487.688
638.821, 3876.727
640.129, 3915.701
641.437, 3762.610
642.744, 3725.454
644.051, 3565.801
645.358, 3208.654
646.665, 3251.852
647.972, 2908.620
649.278, 2840.940
650.584, 2607.375
651.890, 2451.715
653.196, 2514.010
654.502, 2095.588
655.807, 2103.741
657.113, 1883.174
658.418, 1724.184
659.722, 1856.120
661.027, 1660.983
662.331, 1412.773
663.636, 1417.532
664.940, 1307.280
666.244, 1014.641
667.547, 1201.510
668.851, 975.837
670.154, 1107.969
671.457, 878.479
672.760, 711.846
674.062, 813.295
675.365, 600.235
676.667, 659.638
677.969, 628.508
679.271, 354.859
680.572, 411.818
681.874, 297.079
683.175, 314.555
684.476, 354.024
685.777, 248.433
687.077, 235.840
688.378, 5.094
689.678, 187.213
690.978, 110.248
692.278, 108.187
693.577, 122.971
694.877, 268.666
696.176, 5.227
697.475, 114.651
698.774, 78.022
700.072, 91.125
701.371, 39.168
702.669, 32.091
703.967, 11.110
705.265, 62.543
706.562, 166.084
707.860, 13.465
709.157, 148.161
710.454, 71.923
711.751, 248.102
713.047, 54.397
714.344, 140.861
715.640, 54.539
716.936, 27.266
718.232, 125.387
719.527, 4.593
720.823, 86.941
722.118, 87.473
723.413, 4.077
724.708, 273.224
726.002, 171.350
727.297, 142.324
728.591, 200.794
729.885, 2.910
731.179, 19.586
732.472, 67.227
733.766, 60.428
735.059, 0.595
736.352, 11.517
737.645, 15.413
738.937, 28.038
740.230, 94.544
741.522, 64.049
742.814, 43.193
744.106, 13.093
745.397, 43.903
746.689, 8.790
747.980, 73.445
749.271, 14.379
750.562, 80.938
751.853, 78.390
753.143, 18.324
754.433, 27.830
755.723, 35.876
757.013, 34.183
758.303, 205.621
759.592, 28.658
760.881, 122.932
762.170, 11.434
763.459, 118.827
764.748, 166.134
766.036, 47.641
767.325, 237.447
768.613, 83.458
769.901, 117.383
771.188, 164.223
772.476, 129.985
773.763, 221.666
775.050, 188.953
776.337, 233.805
777.624, 167.261
778.910, 155.644
780.196, 153.949
781.482, 289.180
782.768, 36.340
784.054, 29.584
785.339, 99.383
786.625, 212.272
787.910, 167.092
789.195, 314.841
790.479, 109.521
791.764, 123.128
793.048, 334.664
794.332, 445.894
795.616, 458.866
796.900, 733.874
798.183, 506.146
799.467, 69.354
800.750, 84.489
802.033, 159.556
803.316, 45.558
804.598, 270.490
805.880, 21.641
807.163, 291.146
808.445, 102.871
809.726, 203.533
811.008, 96.133
812.289, 197.670
813.570, 200.568
814.851, 191.566
816.132, 236.928
817.413, 149.229
818.693, 129.473
819.973, 288.658
821.253, 190.832
822.533, 176.998
823.813, 374.136
825.092, 273.267
826.371, 324.388
827.650, 254.506
828.929, 245.637
830.208, 337.749
831.486, 380.866
832.764, 239.034
834.042, 213.188
835.320, 133.347
836.598, 253.511
837.875, 371.649
839.152, 271.774
840.429, 188.843
841.706, 375.848
842.983, 437.699
844.259, 203.021
845.536, 388.885
846.812, 232.631
848.088, 200.189
849.363, 191.979
850.639, 245.474
851.914, 324.132
853.189, 184.303
854.464, 241.276
855.739, 325.393
857.013, 437.142
858.288, 190.350
859.562, 240.273
860.836, 165.539
862.110, 268.503
863.383, 41.988
864.656, 202.099
865.930, 20.274
867.203, 173.596
868.475, 137.484
869.748, 188.790
871.020, 91.811
872.292, 74.681
873.564, 64.145
874.836, 36.456
876.108, 29.246
877.379, 22.895
878.650, 7.287
879.922, 99.646
881.192, 26.176
882.463, 8.512
883.733, 71.621
885.004, 73.384
886.274, 57.797
887.544, 63.462
888.813, 62.604
890.083, 91.957
891.352, 234.122
892.621, 70.913
893.890, 25.713
895.159, 106.038
896.427, 58.367
897.695, 133.266
898.964, 247.983
900.232, 111.147
901.499, 28.762
902.767, 11.101
904.034, 8.777
905.301, 99.604
906.568, 139.503
907.835, 194.173
909.102, 267.217
910.368, 116.408
911.634, 224.909
912.900, 355.650
914.166, 112.443
915.432, 418.896
916.697, 146.725
917.962, 42.041
919.227, 466.136
920.492, 308.914
921.757, 390.490
923.021, 253.542
924.285, 380.021
925.550, 434.264
926.813, 370.139
928.077, 435.951
929.341, 371.986
930.604, 463.770
931.867, 480.520
933.130, 337.301
934.393, 485.549
935.655, 632.252
936.918, 561.385
938.180, 650.953
939.442, 510.197
940.703, 596.293
941.965, 677.730
943.226, 813.590
944.488, 813.264
945.749, 864.139
947.009, 832.676
948.270, 859.316
949.530, 776.820
950.791, 864.463
952.051, 850.414
953.311, 818.547
954.570, 705.088
955.830, 930.031
957.089, 1022.818
958.348, 883.660
959.607, 831.502
960.866, 1057.016
962.124, 825.910
963.383, 991.523
964.641, 1072.516
965.899, 1016.537
967.156, 1182.629
968.414, 1088.750
969.671, 1295.857
970.928, 1443.930
972.185, 1225.158
973.442, 1500.418
974.699, 1455.707
975.955, 1730.027
977.211, 1774.393
978.468, 1711.793
979.723, 2011.260
980.979, 2183.758
982.234, 2277.289
983.490, 2546.453
984.745, 2553.477
986.000, 2906.133
987.254, 3240.820
988.509, 3302.547
989.763, 3804.312
991.017, 3810.123
992.271, 4055.965
993.525, 4256.846
994.779, 4554.789
996.032, 4970.768
997.285, 5384.793
998.538, 5715.863
999.791, 5989.047
1001.044, 6931.279
1002.296, 7200.582
1003.548, 8151.941
1004.800, 8935.400
1006.052, 9691.918
1007.304, 10866.504
1008.555, 12047.154
1009.807, 13253.875
1011.058, 15014.656
1012.309, 16642.482
1013.559, 18702.389
1014.810, 20473.412
1016.060, 22436.486
1017.310, 24895.691
1018.560, 26857.980
1019.810, 28171.379
1021.060, 29477.865
1022.309, 30823.436
1023.558, 30319.115
1024.807, 30050.883
1026.056, 28403.742
1027.305, 26964.432
1028.553, 24765.459
1029.801, 22854.469
1031.049, 20177.645
1032.297, 18039.863
1033.545, 16308.143
1034.793, 14855.559
1036.040, 13341.051
1037.287, 12137.023
1038.534, 11545.693
1039.781, 10721.438
1041.027, 10305.078
1042.274, 9551.996
1043.520, 9224.982
1044.766, 9190.027
1046.012, 8719.160
1047.257, 8569.145
1048.503, 8450.414
1049.748, 8573.715
1050.993, 7988.084
1052.238, 8020.344
1053.483, 7791.779
1054.727, 7191.271
1055.971, 6810.902
1057.216, 6672.598
1058.459, 6117.346
1059.703, 5764.172
1060.947, 5362.066
1062.190, 5098.090
1063.433, 4762.086
1064.676, 4513.123
1065.919, 4388.449
1067.162, 4116.584
1068.404, 4262.758
1069.646, 3681.082
1070.888, 3539.125
1072.130, 3626.936
1073.372, 3031.326
1074.613, 2780.617
1075.855, 2781.879
1077.096, 2317.031
1078.337, 2146.768
1079.578, 2235.320
1080.818, 2086.928
1082.059, 1858.973
1083.299, 1650.627
1084.539, 1678.369
1085.779, 1535.092
1087.018, 1470.785
1088.258, 1325.604
1089.497, 1387.676
1090.736, 1299.648
1091.975, 1265.729
1093.213, 1232.494
1094.452, 1172.021
1095.690, 1206.645
1096.928, 1076.689
1098.166, 1259.236
1099.404, 1235.123
1100.642, 1319.248
1101.879, 1033.402
1103.116, 1262.572
1104.353, 1007.783
1105.590, 1159.467
1106.827, 1044.133
1108.063, 1190.436
1109.299, 1037.043
1110.536, 1183.434
1111.771, 1178.344
1113.007, 1218.764
1114.243, 1260.920
1115.478, 1341.582
1116.713, 1355.227
1117.948, 1360.971
1119.183, 1517.732
1120.418, 1396.617
1121.652, 1379.570
1122.886, 1639.197
1124.120, 1676.791
1125.354, 1893.559
1126.588, 1746.303
1127.821, 1988.613
1129.055, 1985.598
1130.288, 2314.967
1131.521, 2295.186
1132.753, 2467.330
1133.986, 2425.168
1135.218, 2731.914
1136.450, 3297.701
1137.682, 3061.672
1138.914, 3640.447
1140.146, 3724.605
1141.377, 3812.031
1142.609, 4181.379
1143.840, 4125.600
1145.071, 4443.205
1146.301, 4801.762
1147.532, 4746.842
1148.762, 4781.361
1149.992, 4709.113
1151.222, 4759.162
1152.452, 4794.494
1153.682, 4840.529
1154.911, 4478.582
1156.140, 4570.412
1157.369, 4166.854
1158.598, 3846.322
1159.827, 3696.158
1161.055, 3441.926
1162.284, 2997.342
1163.512, 2819.566
1164.740, 2641.117
1165.967, 2264.416
1167.195, 1796.268
1168.422, 1847.352
1169.650, 1613.988
1170.877, 1368.270
1172.103, 1376.783
1173.330, 1450.145
1174.557, 818.377
1175.783, 808.869
1177.009, 685.904
1178.235, 341.268
1179.461, 475.035
1180.686, 451.100
1181.912, 285.049
1183.137, 280.719
1184.362, 312.514
1185.587, 219.232
1186.811, 45.207
1188.036, 245.191
1189.260, 130.898
1190.484, 9.129
1191.708, 100.092
1192.932, 83.139
1194.155, 18.584
1195.378, 2.344
1196.602, 68.533
1197.825, 29.621
1199.047, 131.861
1200.270, 47.189
1201.492, 32.135
1202.715, 145.121
1203.937, 146.504
1205.159, 39.297
1206.380, 29.803
1207.602, 34.549
1208.823, 0.914
1210.044, 18.805
1211.265, 21.271
1212.486, 5.869
1213.707, 48.086
1214.927, 7.986
1216.147, 2.258
1217.367, 17.129
1218.587, 8.055
1219.807, 18.455
1221.027, 60.893
1222.246, 127.848
1223.465, 203.391
1224.684, 43.570
1225.903, 108.334
1227.121, 44.967
1228.340, 1.674
1229.558, 123.348
1230.776, 49.363
1231.994, 148.686
1233.212, 97.777
1234.429, 84.076
1235.646, 31.914
1236.864, 65.643
1238.081, 53.471
1239.297, 56.033
1240.514, 137.662
1241.730, 70.037
1242.947, 155.305
1244.163, 15.420
1245.378, 111.365
1246.594, 120.670
1247.810, 152.635
1249.025, 62.105
1250.240, 196.990
1251.455, 27.816
1252.670, 43.240
1253.885, 298.348
1255.099, 78.324
1256.313, 140.697
1257.527, 124.352
1258.741, 131.158
1259.955, 52.318
1261.168, 118.145
1262.382, 126.477
1263.595, 111.955
1264.808, 115.344
1266.021, 16.320
1267.233, 86.807
1268.446, 173.400
1269.658, 196.398
1270.870, 8.018
1272.082, 30.859
1273.294, 77.309
1274.505, 126.445
1275.716, 53.668
1276.928, 85.305
1278.139, 52.811
1279.349, 190.660
1280.560, 219.230
1281.770, 23.510
1282.981, 44.729
1284.191, 7.873
1285.401, 145.121
1286.610, 88.059
1287.820, 111.922
1289.029, 146.754
1290.239, 78.416
1291.448, 88.203
1292.656, 11.811
1293.865, 5.344
1295.073, 42.766
1296.282, 37.129
1297.490, 4.576
1298.698, 69.648
1299.906, 1.809
1301.113, 83.869
1302.320, 139.869
1303.528, 61.811
1304.735, 90.684
1305.942, 11.502
1307.148, 157.244
1308.355, 205.914
1309.561, 66.506
1310.767, 192.020
1311.973, 101.469
1313.179, 88.859
1314.384, 20.184
1315.590, 201.432
1316.795, 10.383
1318.000, 183.711
1319.205, 55.742
1320.410, 79.697
1321.614, 100.580
1322.819, 132.607
1324.023, 122.078
1325.227, 64.695
1326.431, 281.232
1327.634, 78.707
1328.838, 75.102
1330.041, 78.422
1331.244, 70.670
1332.447, 70.844
1333.650, 39.057
1334.852, 38.947
1336.055, 72.879
1337.257, 70.736
1338.459, 184.527
1339.661, 264.877
1340.862, 213.799
1342.064, 197.146
1343.265, 142.691
1344.466, 199.145
1345.667, 220.568
1346.868, 0.064
1348.068, 253.217
1349.269, 139.441
1350.469, 8.396
1351.669, 246.686
1352.869, 317.709
1354.069, 216.590
1355.268, 297.504
1356.468, 198.482
1357.667, 279.057
1358.866, 266.936
1360.065, 154.641
1361.263, 235.467
1362.462, 59.467
1363.660, 243.535
1364.858, 203.197
1366.056, 459.592
1367.254, 208.191
1368.451, 344.895
1369.649, 285.066
1370.846, 140.352
1372.043, 369.484
1373.240, 641.168
1374.436, 232.037
1375.633, 240.980
1376.829, 98.076
1378.025, 203.701
1379.221, 45.912
1380.417, 250.604
1381.613, 88.367
1382.808, 254.404
1384.003, 201.080
1385.199, 259.275
1386.393, 282.586
1387.588, 310.633
1388.783, 278.662
1389.977, 354.678
1391.171, 343.568
1392.365, 231.023
1393.559, 241.457
1394.753, 364.709
1395.946, 155.227
1397.140, 218.771
1398.333, 325.418
1399.526, 329.604
1400.719, 214.432
1401.911, 304.877
1403.104, 141.447
1404.296, 260.297
1405.488, 223.865
1406.680, 250.959
1407.872, 263.785
1409.063, 255.047
1410.255, 344.250
1411.446, 155.299
1412.637, 419.766
1413.828, 138.912
1415.018, 314.381
1416.209, 286.926
1417.399, 306.732
1418.589, 151.268
1419.779, 397.906
1420.969, 189.568
1422.159, 397.961
1423.348, 192.820
1424.537, 294.793
1425.726, 350.287
1426.915, 284.744
1428.104, 192.225
1429.293, 298.750
1430.481, 242.322
1431.669, 212.451
1432.857, 382.197
1434.045, 459.166
1435.233, 311.713
1436.420, 394.590
1437.608, 324.666
1438.795, 413.338
1439.982, 311.576
1441.169, 472.018
1442.355, 335.879
1443.542, 333.984
1444.728, 462.818
1445.914, 468.828
1447.100, 391.838
1448.286, 445.635
1449.472, 538.916
1450.657, 339.990
1451.842, 536.869
1453.027, 473.652
1454.212, 432.430
1455.397, 601.168
1456.581, 338.648
1457.766, 547.617
1458.950, 517.646
1460.134, 368.758
1461.318, 640.990
1462.501, 296.314
1463.685, 421.365
1464.868, 596.023
1466.051, 250.963
1467.234, 781.178
1468.417, 359.043
1469.600, 436.428
1470.782, 362.197
1471.965, 412.432
1473.147, 349.111
1474.329, 310.146
1475.510, 414.504
1476.692, 220.391
1477.873, 331.158
1479.055, 328.016
1480.236, 326.041
1481.416, 353.557
1482.597, 212.105
1483.778, 312.213
1484.958, 239.268
1486.138, 151.248
1487.318, 154.354
1488.498, 107.432
1489.678, 273.846
1490.857, 128.074
1492.037, 240.383
1493.216, 361.768
1494.395, 361.297
1495.574, 205.008
1496.752, 276.900
