##NAMES=Wavellite
##RRUFFID=R040176
##IDEAL CHEMISTRY=Al_3_(PO_4_)_2_(OH)_3_&#183;5H_2_O
##LOCALITY=Montgomery County, Arkansas, USA
##OWNER=RRUFF
##SOURCE=University of Arizona Mineral Museum
##DESCRIPTION=Pale green radial aggregates
##STATUS=The identification of this mineral has been confirmed by X-ray diffraction and chemical analysis
##URL=rruff.info/R040176
##MEASURED CHEMISTRY=(Al_0.88_V_0.03_)_3_(P_0.97_O_4_)_2_((OH)_1.74_F_0.26_)_3_Â·5H_2_O
##PIN_ID=S00512
##ORIENTATION=Laser parallel to -c* (0 0 -1). Fiducial mark perpendicular to laser is parallel to a [1 0 0]
91.981, 0.000
93.375, 30.370
94.768, 608.790
96.161, 1344.704
97.554, 2316.019
98.947, 3509.130
100.340, 4467.762
101.732, 4892.918
103.124, 5223.036
104.516, 4895.189
105.908, 4426.279
107.300, 3952.652
108.691, 3252.814
110.082, 3256.512
111.473, 3296.566
112.864, 4019.506
114.254, 5037.843
115.644, 6013.553
117.034, 6825.886
118.424, 7410.351
119.813, 7320.764
121.203, 7587.771
122.592, 7035.887
123.981, 6520.519
125.369, 5931.980
126.758, 4951.525
128.146, 4130.356
129.534, 3412.670
130.922, 2836.544
132.309, 2640.012
133.696, 2289.769
135.083, 2060.156
136.470, 2310.302
137.857, 2298.223
139.243, 2485.104
140.630, 2593.312
142.016, 2903.759
143.401, 2770.419
144.787, 3067.266
146.172, 3223.252
147.557, 3315.320
148.942, 3256.413
150.327, 2916.486
151.711, 2778.497
153.096, 2361.410
154.480, 2385.177
155.863, 1891.714
157.247, 1662.941
158.630, 1483.816
160.013, 1171.314
161.396, 998.408
162.779, 813.077
164.161, 558.295
165.544, 311.046
166.926, 79.304
168.308, 6.054
169.689, 73.724
171.070, 197.043
172.452, 140.921
173.833, 298.375
175.213, 484.548
176.594, 432.692
177.974, 602.624
179.354, 639.261
180.734, 440.557
182.114, 593.489
183.493, 438.051
184.872, 71.240
186.251, 112.938
187.630, 528.474
189.008, 606.392
190.387, 901.805
191.765, 887.855
193.143, 817.663
194.520, 794.120
195.898, 577.113
197.275, 472.538
198.652, 412.255
200.029, 688.184
201.405, 1030.321
202.782, 1618.673
204.158, 2580.249
205.534, 4208.070
206.909, 5881.120
208.285, 7448.379
209.660, 9339.928
211.035, 10881.783
212.410, 11412.889
213.784, 11136.194
215.159, 9926.518
216.533, 8310.684
217.907, 6588.451
219.281, 4920.719
220.654, 3525.576
222.027, 2559.414
223.400, 1820.399
224.773, 1383.528
226.146, 964.799
227.518, 955.207
228.891, 785.752
230.263, 527.428
231.634, 746.233
233.006, 743.162
234.377, 754.215
235.748, 889.387
237.119, 1093.677
238.490, 1223.082
239.860, 1496.672
241.231, 1719.231
242.601, 2057.973
243.970, 2354.822
245.340, 2649.777
246.709, 2925.840
248.079, 3037.003
249.448, 3571.270
250.816, 3619.635
252.185, 4085.099
253.553, 4353.659
254.921, 4488.313
256.289, 4884.062
257.657, 4882.279
259.024, 4953.019
260.391, 4913.504
261.758, 4994.906
263.125, 4892.742
264.492, 5023.688
265.858, 5286.516
267.224, 5392.063
268.590, 5930.195
269.956, 6377.789
271.321, 7417.760
272.687, 8236.049
274.052, 9052.610
275.416, 9900.417
276.781, 10887.434
278.146, 11554.588
279.510, 11904.779
280.874, 12460.975
282.237, 12759.156
283.601, 12831.444
284.964, 12762.381
286.327, 12133.882
287.690, 12019.863
289.053, 11432.884
290.416, 10658.671
291.778, 10026.161
293.140, 9072.599
294.502, 8281.694
295.863, 7162.504
297.225, 6651.896
298.586, 6268.670
299.947, 5909.764
301.308, 6091.188
302.668, 6314.332
304.029, 6951.428
305.389, 7950.612
306.749, 9201.462
308.108, 10671.289
309.468, 12338.710
310.827, 13959.097
312.186, 15326.683
313.545, 16513.082
314.903, 17185.332
316.262, 17127.293
317.620, 15889.601
318.978, 14892.913
320.336, 13407.000
321.693, 11858.657
323.051, 10472.653
324.408, 9229.986
325.765, 8148.115
327.121, 7222.197
328.478, 6444.931
329.834, 5782.049
331.190, 5325.484
332.546, 4885.695
333.902, 4271.828
335.257, 3953.811
336.612, 3489.308
337.967, 3495.000
339.322, 3463.065
340.677, 3399.074
342.031, 3619.408
343.385, 3758.918
344.739, 4130.529
346.093, 4538.585
347.446, 4949.561
348.799, 5494.926
350.153, 6317.248
351.505, 6970.611
352.858, 7705.014
354.210, 8207.053
355.563, 8726.927
356.915, 8950.431
358.267, 8947.958
359.618, 8917.514
360.969, 8522.091
362.321, 8181.687
363.672, 7612.303
365.022, 7266.938
366.373, 7076.592
367.723, 6672.266
369.073, 6584.952
370.423, 6465.654
371.773, 6516.373
373.122, 6549.106
374.471, 7006.851
375.821, 7505.608
377.169, 7398.387
378.518, 8018.229
379.866, 8225.080
381.215, 8672.984
382.563, 9116.899
383.910, 9433.873
385.258, 9831.869
386.605, 10115.883
387.952, 10713.954
389.299, 10473.089
390.646, 10953.251
391.992, 10897.429
393.339, 11011.632
394.685, 11219.896
396.031, 11400.181
397.376, 11723.496
398.722, 11748.822
400.067, 12058.202
401.412, 12454.588
402.757, 13754.027
404.101, 13068.507
405.446, 12696.993
406.790, 12063.500
408.134, 11238.046
409.478, 10584.603
410.821, 9488.212
412.165, 8364.832
413.508, 6991.465
414.851, 6227.124
416.193, 5108.784
417.536, 4175.452
418.878, 3571.149
420.220, 2919.915
421.562, 2584.744
422.904, 2181.119
424.245, 1878.472
425.586, 1718.350
426.927, 1513.229
428.268, 1457.115
429.609, 1164.993
430.949, 1009.860
432.289, 1058.713
433.629, 892.546
434.969, 710.365
436.309, 699.163
437.648, 400.938
438.987, 401.688
440.326, 257.416
441.665, 111.117
443.003, 114.789
444.342, 49.434
445.680, 21.037
447.018, 62.410
448.355, 22.953
449.693, 172.572
451.030, 134.346
452.367, 318.255
453.704, 56.396
455.041, 195.637
456.377, 175.050
457.713, 91.624
459.049, 73.316
460.385, 105.116
461.721, 22.036
463.056, 10.032
464.391, 24.096
465.726, 35.764
467.061, 216.575
468.395, 28.362
469.730, 0.094
471.064, 155.756
472.398, 29.611
473.731, 105.934
475.065, 2.562
476.398, 53.867
477.731, 29.758
479.064, 89.525
480.397, 5.239
481.729, 137.913
483.062, 1.024
484.394, 17.947
485.725, 41.012
487.057, 15.184
488.389, 63.449
489.720, 58.164
491.051, 25.286
492.382, 0.168
493.712, 12.459
495.043, 83.842
496.373, 24.872
497.703, 85.343
499.032, 82.562
500.362, 179.817
501.691, 208.118
503.020, 230.500
504.349, 238.972
505.678, 237.490
507.007, 331.087
508.335, 316.729
509.663, 404.348
510.991, 477.919
512.319, 551.443
513.646, 698.922
514.973, 813.352
516.300, 761.733
517.627, 971.066
518.954, 968.352
520.280, 1053.586
521.607, 1236.772
522.933, 1310.907
524.259, 1494.387
525.584, 1589.416
526.910, 1876.867
528.235, 2126.797
529.560, 2360.227
530.885, 2651.443
532.209, 2722.669
533.534, 3022.529
534.858, 3324.273
536.182, 3513.975
537.506, 3502.202
538.829, 3700.684
540.152, 3667.127
541.476, 3631.716
542.799, 3717.910
544.121, 3519.749
545.444, 3514.340
546.766, 3428.160
548.088, 3177.109
549.410, 3230.924
550.732, 2962.578
552.053, 2929.189
553.375, 2763.752
554.696, 2513.068
556.017, 2487.330
557.337, 2294.166
558.658, 2200.306
559.978, 2111.381
561.298, 1988.042
562.618, 1934.226
563.938, 1855.906
565.257, 1712.751
566.576, 1713.424
567.895, 1635.207
569.214, 1562.390
570.533, 1564.217
571.851, 1550.305
573.170, 1517.285
574.488, 1702.822
575.805, 1567.354
577.123, 1785.692
578.440, 1782.961
579.758, 1954.564
581.075, 2118.812
582.391, 2163.871
583.708, 2424.257
585.024, 2671.109
586.341, 2729.071
587.657, 3049.872
588.972, 3570.511
590.288, 3701.987
591.603, 4006.185
592.918, 4550.041
594.233, 4705.970
595.548, 4998.040
596.863, 5300.955
598.177, 5474.217
599.491, 5824.920
600.805, 6252.136
602.119, 6509.926
603.432, 6822.885
604.746, 7291.188
606.059, 7785.387
607.372, 7759.506
608.685, 8033.549
609.997, 8494.881
611.309, 8506.596
612.621, 8801.144
613.933, 8921.006
615.245, 9220.990
616.557, 9262.045
617.868, 9300.061
619.179, 9565.950
620.490, 9611.720
621.801, 9261.069
623.111, 9697.474
624.421, 9407.870
625.731, 9484.669
627.041, 8968.551
628.351, 9150.897
629.660, 8651.336
630.970, 8396.623
632.279, 8305.140
633.588, 7793.836
634.896, 7334.869
636.205, 6841.894
637.513, 6368.641
638.821, 5948.418
640.129, 5469.023
641.437, 5123.123
642.744, 4771.902
644.051, 4362.512
645.358, 4018.687
646.665, 3605.335
647.972, 3313.350
649.278, 3069.905
650.584, 2781.075
651.890, 2550.516
653.196, 2385.990
654.502, 2183.776
655.807, 2105.427
657.113, 1951.336
658.418, 1835.059
659.722, 1871.947
661.027, 1696.894
662.331, 1574.780
663.636, 1362.600
664.940, 1343.409
666.244, 1174.094
667.547, 1289.757
668.851, 968.306
670.154, 991.787
671.457, 834.201
672.760, 709.549
674.062, 762.828
675.365, 793.042
676.667, 644.188
677.969, 582.268
679.271, 587.281
680.572, 326.229
681.874, 234.105
683.175, 306.909
684.476, 421.641
685.777, 285.309
687.077, 188.906
688.378, 182.426
689.678, 379.866
690.978, 133.242
692.278, 79.534
693.577, 118.266
694.877, 220.751
696.176, 61.304
697.475, 190.489
698.774, 76.792
700.072, 92.980
701.371, 100.455
702.669, 76.153
703.967, 127.919
705.265, 41.287
706.562, 78.243
707.860, 18.856
709.157, 127.377
710.454, 43.209
711.751, 15.298
713.047, 94.076
714.344, 111.854
715.640, 253.002
716.936, 139.707
718.232, 54.830
719.527, 73.911
720.823, 6.428
722.118, 69.876
723.413, 19.600
724.708, 142.094
726.002, 18.116
727.297, 11.524
728.591, 53.524
729.885, 84.567
731.179, 3.683
732.472, 67.031
733.766, 33.614
735.059, 43.947
736.352, 153.391
737.645, 69.279
738.937, 114.468
740.230, 164.593
741.522, 19.660
742.814, 143.648
744.106, 149.577
745.397, 159.450
746.689, 203.265
747.980, 82.027
749.271, 149.729
750.562, 201.376
751.853, 210.973
753.143, 97.519
754.433, 181.009
755.723, 278.447
757.013, 108.841
758.303, 337.182
759.592, 163.484
760.881, 193.750
762.170, 246.002
763.459, 314.233
764.748, 215.482
766.036, 183.740
767.325, 462.055
768.613, 262.358
769.901, 384.691
771.188, 346.047
772.476, 279.405
773.763, 434.761
775.050, 291.124
776.337, 371.474
777.624, 300.810
778.910, 476.132
780.196, 358.430
781.482, 385.690
782.768, 196.929
784.054, 373.153
785.339, 253.344
786.625, 423.527
787.910, 244.683
789.195, 309.827
790.479, 72.948
791.764, 286.065
793.048, 185.156
794.332, 208.239
795.616, 215.294
796.900, 291.342
798.183, 244.387
799.467, 122.438
800.750, 118.487
802.033, 196.548
803.316, 8.407
804.598, 259.632
805.880, 54.668
807.163, 158.704
808.445, 266.723
809.726, 25.747
811.008, 123.752
812.289, 62.744
813.570, 90.712
814.851, 152.655
816.132, 120.574
817.413, 70.470
818.693, 42.342
819.973, 68.860
821.253, 37.016
822.533, 129.818
823.813, 202.600
825.092, 202.358
826.371, 121.098
827.650, 135.816
828.929, 89.515
830.208, 125.194
831.486, 209.855
832.764, 88.498
834.042, 9.122
835.320, 129.334
836.598, 135.928
837.875, 151.031
839.152, 381.589
840.429, 286.580
841.706, 241.715
842.983, 80.773
844.259, 91.631
845.536, 40.818
846.812, 75.921
848.088, 40.710
849.363, 45.180
850.639, 124.620
851.914, 172.848
853.189, 11.595
854.464, 82.250
855.739, 102.277
857.013, 243.010
858.288, 54.454
859.562, 117.148
860.836, 75.156
862.110, 107.509
863.383, 55.157
864.656, 55.988
865.930, 17.809
867.203, 80.008
868.475, 43.204
869.748, 17.402
871.020, 39.750
872.292, 68.313
873.564, 10.317
874.836, 39.093
876.108, 5.023
877.379, 58.543
878.650, 6.068
879.922, 75.531
881.192, 19.699
882.463, 24.024
883.733, 43.633
885.004, 76.233
886.274, 69.032
887.544, 36.704
888.813, 2.066
890.083, 125.276
891.352, 118.497
892.621, 236.894
893.890, 132.763
895.159, 31.461
896.427, 62.279
897.695, 62.210
898.964, 118.266
900.232, 160.548
901.499, 38.125
902.767, 85.279
904.034, 157.689
905.301, 18.179
906.568, 176.121
907.835, 235.567
909.102, 269.420
910.368, 137.644
911.634, 144.552
912.900, 193.146
914.166, 89.928
915.432, 404.965
916.697, 248.025
917.962, 166.031
919.227, 386.947
920.492, 265.081
921.757, 219.240
923.021, 239.430
924.285, 303.660
925.550, 273.916
926.813, 226.195
928.077, 177.535
929.341, 161.905
930.604, 122.299
931.867, 287.743
933.130, 315.229
934.393, 295.740
935.655, 438.279
936.918, 400.851
938.180, 567.449
939.442, 410.077
940.703, 472.739
941.965, 490.429
943.226, 499.830
944.488, 565.584
945.749, 613.345
947.009, 669.144
948.270, 708.972
949.530, 750.558
950.791, 716.711
952.051, 754.622
953.311, 711.562
954.570, 675.532
955.830, 846.667
957.089, 972.700
958.348, 998.591
959.607, 1080.689
960.866, 931.818
962.124, 1070.728
963.383, 1048.936
964.641, 1163.114
965.899, 1297.382
967.156, 1360.694
968.414, 1402.039
969.671, 1487.421
970.928, 1587.774
972.185, 1645.247
973.442, 1844.703
974.699, 1765.242
975.955, 2023.812
977.211, 2181.425
978.468, 2257.072
979.723, 2537.750
980.979, 2682.462
982.234, 2840.207
983.490, 3259.982
984.745, 3153.797
986.000, 3553.645
987.254, 3835.527
988.509, 3856.447
989.763, 4503.412
991.017, 4540.414
992.271, 4973.457
993.525, 5063.544
994.779, 5838.678
996.032, 5903.852
997.285, 6154.076
998.538, 6817.359
999.791, 7170.187
1001.044, 8141.158
1002.296, 8425.658
1003.548, 9490.201
1004.800, 10361.617
1006.052, 11517.293
1007.304, 13028.012
1008.555, 14428.814
1009.807, 16242.559
1011.058, 18233.510
1012.309, 20417.766
1013.559, 23251.826
1014.810, 25556.980
1016.060, 28283.184
1017.310, 31337.459
1018.560, 34076.012
1019.810, 35901.695
1021.060, 37948.918
1022.309, 39466.492
1023.558, 39276.133
1024.807, 39207.816
1026.056, 37021.555
1027.305, 35223.316
1028.553, 32322.215
1029.801, 29938.125
1031.049, 26788.279
1032.297, 23686.391
1033.545, 21510.328
1034.793, 19540.568
1036.040, 17469.869
1037.287, 16011.141
1038.534, 15221.646
1039.781, 14114.175
1041.027, 13410.122
1042.274, 12318.652
1043.520, 11992.517
1044.766, 11772.244
1046.012, 11051.968
1047.257, 10697.996
1048.503, 10339.802
1049.748, 10207.203
1050.993, 9522.090
1052.238, 9399.727
1053.483, 8982.770
1054.727, 8267.845
1055.971, 8118.959
1057.216, 7706.108
1058.459, 7369.813
1059.703, 7028.025
1060.947, 6832.463
1062.190, 6728.162
1063.433, 6595.289
1064.676, 6632.618
1065.919, 6658.976
1067.162, 6459.358
1068.404, 6545.770
1069.646, 6075.207
1070.888, 5996.708
1072.130, 5898.226
1073.372, 5442.239
1074.613, 4927.795
1075.855, 4682.363
1077.096, 4213.080
1078.337, 3725.355
1079.578, 3746.994
1080.818, 3211.942
1082.059, 3053.406
1083.299, 2847.167
1084.539, 2696.898
1085.779, 2518.765
1087.018, 2451.648
1088.258, 2345.188
1089.497, 2217.109
1090.736, 2179.211
1091.975, 2124.073
1093.213, 2015.956
1094.452, 1913.861
1095.690, 2032.787
1096.928, 1804.733
1098.166, 1919.699
1099.404, 1921.771
1100.642, 1888.774
1101.879, 1677.796
1103.116, 1716.179
1104.353, 1666.257
1105.590, 1666.613
1106.827, 1430.215
1108.063, 1548.328
1109.299, 1486.758
1110.536, 1582.904
1111.771, 1560.032
1113.007, 1552.212
1114.243, 1642.404
1115.478, 1658.377
1116.713, 1603.604
1117.948, 1728.707
1119.183, 1728.021
1120.418, 1564.890
1121.652, 1823.462
1122.886, 2305.563
1124.120, 2391.048
1125.354, 2428.074
1126.588, 2048.030
1127.821, 2121.514
1129.055, 1965.203
1130.288, 2029.726
1131.521, 2168.099
1132.753, 2228.874
1133.986, 2214.707
1135.218, 2271.389
1136.450, 2734.365
1137.682, 2505.387
1138.914, 2938.443
1140.146, 2827.585
1141.377, 3145.686
1142.609, 3223.689
1143.840, 3158.750
1145.071, 3260.923
1146.301, 3268.810
1147.532, 3278.039
1148.762, 3199.846
1149.992, 2869.749
1151.222, 2775.810
1152.452, 2507.939
1153.682, 2339.721
1154.911, 2304.244
1156.140, 2014.281
1157.369, 1703.285
1158.598, 1504.154
1159.827, 1453.999
1161.055, 1320.851
1162.284, 1081.273
1163.512, 954.736
1164.740, 856.524
1165.967, 708.576
1167.195, 655.154
1168.422, 582.261
1169.650, 516.438
1170.877, 438.120
1172.103, 310.058
1173.330, 225.860
1174.557, 232.456
1175.783, 260.977
1177.009, 300.805
1178.235, 130.333
1179.461, 93.436
1180.686, 6.171
1181.912, 6.608
1183.137, 88.625
1184.362, 78.415
1185.587, 113.433
1186.811, 127.842
1188.036, 148.247
1189.260, 47.917
1190.484, 3.096
1191.708, 43.443
1192.932, 80.705
1194.155, 47.169
1195.378, 94.821
1196.602, 30.387
1197.825, 57.404
1199.047, 10.630
1200.270, 68.250
1201.492, 74.476
1202.715, 126.768
1203.937, 140.555
1205.159, 24.907
1206.380, 44.701
1207.602, 32.399
1208.823, 124.254
1210.044, 78.646
1211.265, 41.949
1212.486, 57.587
1213.707, 137.357
1214.927, 85.062
1216.147, 48.721
1217.367, 41.149
1218.587, 5.874
1219.807, 48.396
1221.027, 55.915
1222.246, 68.917
1223.465, 118.822
1224.684, 5.343
1225.903, 141.476
1227.121, 70.388
1228.340, 45.354
1229.558, 69.773
1230.776, 87.169
1231.994, 1.302
1233.212, 65.534
1234.429, 10.550
1235.646, 3.766
1236.864, 37.898
1238.081, 177.683
1239.297, 111.842
1240.514, 191.865
1241.730, 117.948
1242.947, 176.145
1244.163, 195.943
1245.378, 99.734
1246.594, 200.401
1247.810, 164.972
1249.025, 48.028
1250.240, 127.551
1251.455, 14.030
1252.670, 10.611
1253.885, 208.994
1255.099, 72.265
1256.313, 168.955
1257.527, 41.750
1258.741, 255.487
1259.955, 164.703
1261.168, 20.130
1262.382, 202.853
1263.595, 12.922
1264.808, 152.016
1266.021, 62.012
1267.233, 101.898
1268.446, 44.966
1269.658, 133.903
1270.870, 3.080
1272.082, 56.669
1273.294, 149.724
1274.505, 105.488
1275.716, 150.126
1276.928, 210.700
1278.139, 37.252
1279.349, 89.725
1280.560, 130.255
1281.770, 74.586
1282.981, 35.877
1284.191, 36.114
1285.401, 70.229
1286.610, 37.258
1287.820, 41.176
1289.029, 40.639
1290.239, 38.407
1291.448, 21.696
1292.656, 75.357
1293.865, 52.972
1295.073, 115.532
1296.282, 93.050
1297.490, 45.524
1298.698, 150.949
1299.906, 214.332
1301.113, 102.669
1302.320, 107.958
1303.528, 137.203
1304.735, 60.400
1305.942, 145.549
1307.148, 80.651
1308.355, 243.703
1309.561, 34.707
1310.767, 111.656
1311.973, 71.553
1313.179, 31.395
1314.384, 102.180
1315.590, 191.913
1316.795, 130.600
1318.000, 162.238
1319.205, 0.827
1320.410, 228.352
1321.614, 154.828
1322.819, 18.755
1324.023, 67.122
1325.227, 4.596
1326.431, 227.611
1327.634, 110.768
1328.838, 37.129
1330.041, 53.896
1331.244, 32.508
1332.447, 209.705
1333.650, 9.451
1334.852, 26.438
1336.055, 67.980
1337.257, 75.346
1338.459, 146.334
1339.661, 8.303
1340.862, 141.281
1342.064, 77.252
1343.265, 97.729
1344.466, 68.451
1345.667, 158.754
1346.868, 21.014
1348.068, 312.219
1349.269, 102.387
1350.469, 88.984
1351.669, 210.062
1352.869, 140.096
1354.069, 268.479
1355.268, 224.611
1356.468, 209.158
1357.667, 172.436
1358.866, 184.014
1360.065, 189.830
1361.263, 259.621
1362.462, 110.750
1363.660, 214.439
1364.858, 268.627
1366.056, 91.271
1367.254, 317.898
1368.451, 237.377
1369.649, 319.705
1370.846, 59.221
1372.043, 244.395
1373.240, 188.051
1374.436, 118.094
1375.633, 175.418
1376.829, 143.943
1378.025, 188.949
1379.221, 131.779
1380.417, 140.150
1381.613, 220.404
1382.808, 128.391
1384.003, 158.312
1385.199, 141.334
1386.393, 111.887
1387.588, 167.246
1388.783, 232.971
1389.977, 223.244
1391.171, 255.408
1392.365, 112.830
1393.559, 229.041
1394.753, 270.156
1395.946, 187.594
1397.140, 363.510
1398.333, 166.652
1399.526, 213.957
1400.719, 339.551
1401.911, 247.109
1403.104, 226.729
1404.296, 310.396
1405.488, 63.969
1406.680, 275.441
1407.872, 44.559
1409.063, 273.057
1410.255, 284.807
1411.446, 174.262
1412.637, 197.350
1413.828, 131.949
1415.018, 238.383
1416.209, 177.781
1417.399, 195.418
1418.589, 209.770
1419.779, 248.809
1420.969, 212.879
1422.159, 336.033
1423.348, 175.691
1424.537, 212.234
1425.726, 368.850
1426.915, 180.180
1428.104, 224.391
1429.293, 187.639
1430.481, 205.396
1431.669, 116.996
1432.857, 249.598
1434.045, 276.498
1435.233, 187.701
1436.420, 327.180
1437.608, 324.076
1438.795, 270.885
1439.982, 324.203
1441.169, 245.850
1442.355, 292.914
1443.542, 347.043
1444.728, 450.061
1445.914, 411.295
1447.100, 320.688
1448.286, 349.686
1449.472, 403.633
1450.657, 380.775
1451.842, 459.348
1453.027, 309.361
1454.212, 304.678
1455.397, 565.520
1456.581, 313.748
1457.766, 412.896
1458.950, 440.012
1460.134, 316.766
1461.318, 537.084
1462.501, 260.918
1463.685, 273.621
1464.868, 426.133
1466.051, 242.010
1467.234, 488.932
1468.417, 365.949
1469.600, 273.576
1470.782, 360.279
1471.965, 497.186
1473.147, 161.824
1474.329, 406.951
1475.510, 233.225
1476.692, 206.082
1477.873, 269.748
1479.055, 241.992
1480.236, 273.273
1481.416, 299.699
1482.597, 301.025
1483.778, 307.896
1484.958, 308.045
1486.138, 223.176
1487.318, 167.307
1488.498, 501.455
1489.678, 130.656
1490.857, 329.887
1492.037, 153.146
1493.216, 289.441
1494.395, 313.932
1495.574, 170.615
1496.752, 317.492
1497.931, 89.553
1499.109, 172.805
