##NAMES=Wavellite
##RRUFFID=R040176
##IDEAL CHEMISTRY=Al_3_(PO_4_)_2_(OH)_3_&#183;5H_2_O
##LOCALITY=Montgomery County, Arkansas, USA
##OWNER=RRUFF
##SOURCE=University of Arizona Mineral Museum
##DESCRIPTION=Pale green radial aggregates
##STATUS=The identification of this mineral has been confirmed by X-ray diffraction and chemical analysis
##URL=rruff.info/R040176
##MEASURED CHEMISTRY=(Al_0.88_V_0.03_)_3_(P_0.97_O_4_)_2_((OH)_1.74_F_0.26_)_3_Â·5H_2_O
##PIN_ID=M00066
##ORIENTATION=Laser parallel to b* (0 1 0). Fiducial mark perpendicular to laser is parallel to c [0 0 1]
104.516, 0.000
105.908, 306.461
107.300, 485.899
108.691, 453.580
110.082, 692.181
111.473, 831.173
112.864, 1069.707
114.254, 1375.270
115.644, 1803.911
117.034, 1948.868
118.424, 2030.058
119.813, 1731.252
121.203, 1920.273
122.592, 1479.451
123.981, 1364.545
125.369, 1181.247
126.758, 751.392
128.146, 618.875
129.534, 374.086
130.922, 230.735
132.309, 206.417
133.696, 133.409
135.083, 21.564
136.470, 109.853
137.857, 25.589
139.243, 228.324
140.630, 20.836
142.016, 76.582
143.401, 86.471
144.787, 29.117
146.172, 115.207
147.557, 39.855
148.942, 66.885
150.327, 1.035
151.711, 14.345
153.096, 56.013
154.480, 245.140
155.863, 290.065
157.247, 443.824
158.630, 551.450
160.013, 665.974
161.396, 894.408
162.779, 1020.769
164.161, 1116.062
165.544, 973.291
166.926, 1035.460
168.308, 766.575
169.689, 527.924
171.070, 303.809
172.452, 306.881
173.833, 204.468
175.213, 104.298
176.594, 123.422
177.974, 16.510
179.354, 40.670
180.734, 64.946
182.114, 231.302
183.493, 250.729
184.872, 550.225
186.251, 767.787
187.630, 1020.404
189.008, 1230.977
190.387, 1453.831
191.765, 1570.683
193.143, 1629.634
194.520, 1678.687
195.898, 1439.838
197.275, 1301.083
198.652, 1321.419
200.029, 1352.839
201.405, 1269.342
202.782, 1312.925
204.158, 1436.581
205.534, 1641.325
206.909, 1938.168
208.285, 2013.314
209.660, 2271.613
211.035, 2599.155
212.410, 2455.827
213.784, 2432.645
215.159, 2233.557
216.533, 1893.534
217.907, 1721.568
219.281, 1370.654
220.654, 1242.771
222.027, 1036.908
223.400, 898.054
224.773, 718.146
226.146, 534.229
227.518, 454.322
228.891, 418.426
230.263, 147.540
231.634, 143.664
233.006, 114.801
234.377, 15.052
235.748, 30.891
237.119, 187.717
238.490, 167.530
239.860, 31.332
241.231, 206.118
242.601, 118.894
243.970, 178.654
245.340, 72.404
246.709, 107.141
248.079, 95.863
249.448, 172.425
250.816, 54.727
252.185, 301.026
253.553, 395.230
254.921, 467.259
256.289, 752.116
257.657, 910.812
259.024, 1141.400
260.391, 1362.982
261.758, 1548.591
263.125, 1890.228
264.492, 2131.891
265.858, 2520.584
267.224, 2861.307
268.590, 3402.057
269.956, 3749.879
271.321, 4378.627
272.687, 4872.899
274.052, 5217.512
275.416, 5420.367
276.781, 5602.591
278.146, 5710.570
279.510, 5596.836
280.874, 5634.174
282.237, 5363.564
283.601, 5142.001
284.964, 4702.480
286.327, 4380.980
287.690, 4306.494
289.053, 4098.928
290.416, 3902.382
291.778, 3869.784
293.140, 3446.190
294.502, 3181.617
295.863, 2775.063
297.225, 2592.527
298.586, 2658.008
299.947, 2336.506
301.308, 2280.018
302.668, 2090.127
304.029, 2139.897
305.389, 2254.744
306.749, 2447.129
308.108, 2708.609
309.468, 2900.977
310.827, 3056.311
312.186, 3264.134
313.545, 3512.767
314.903, 3481.593
316.262, 3469.215
317.620, 3110.604
318.978, 3036.217
320.336, 2666.512
321.693, 2313.653
323.051, 2007.334
324.408, 1917.441
325.765, 1484.952
327.121, 1463.785
328.478, 1080.724
329.834, 919.067
331.190, 826.621
332.546, 739.014
333.902, 454.558
335.257, 497.707
336.612, 323.737
337.967, 307.513
339.322, 281.120
340.677, 248.597
342.031, 251.890
343.385, 172.164
344.739, 254.288
346.093, 287.846
347.446, 188.423
348.799, 295.019
350.153, 365.634
351.505, 516.267
352.858, 617.718
354.210, 647.586
355.563, 838.271
356.915, 922.974
358.267, 975.691
359.618, 1273.426
360.969, 1417.175
362.321, 1768.937
363.672, 1760.715
365.022, 2070.506
366.373, 2211.310
367.723, 2383.127
369.073, 2622.956
370.423, 2691.798
371.773, 3057.648
373.122, 3222.511
374.471, 3593.379
375.821, 4095.256
377.169, 4328.141
378.518, 5118.029
379.866, 5143.926
381.215, 5844.828
382.563, 6422.734
383.910, 6982.646
385.258, 7851.562
386.605, 8746.483
387.952, 9735.410
389.299, 10390.341
390.646, 11727.280
391.992, 12494.223
393.339, 13522.170
394.685, 14683.135
396.031, 15741.106
397.376, 17128.590
398.722, 17834.232
400.067, 18889.332
401.412, 19765.719
402.757, 20564.422
404.101, 21476.904
405.446, 22352.988
406.790, 23047.789
408.134, 23708.197
409.478, 24294.541
410.821, 24875.625
412.165, 25002.713
413.508, 24518.809
414.851, 24792.953
416.193, 24241.102
417.536, 23036.258
418.878, 22114.430
420.220, 20720.656
421.562, 19425.912
422.904, 17205.195
424.245, 16117.479
425.586, 15059.793
426.927, 13202.114
428.268, 12145.481
429.609, 10584.898
430.949, 9369.330
432.289, 8274.775
433.629, 7682.270
434.969, 6408.806
436.309, 5796.348
437.648, 4777.922
438.987, 4245.510
440.326, 3476.148
441.665, 2997.809
443.003, 2480.463
444.342, 2190.130
445.680, 1811.792
447.018, 1523.508
448.355, 1393.228
449.693, 1021.990
451.030, 844.791
452.367, 662.605
453.704, 694.475
455.041, 380.339
456.377, 320.254
457.713, 243.165
459.049, 146.090
460.385, 59.040
461.721, 30.854
463.056, 128.013
464.391, 7.026
465.726, 1.971
467.061, 32.023
468.395, 83.978
469.730, 245.024
471.064, 72.808
472.398, 108.368
473.731, 4.412
475.065, 203.808
476.398, 46.108
477.731, 52.450
479.064, 14.188
480.397, 82.188
481.729, 31.607
483.062, 8.066
484.394, 14.550
485.725, 23.951
487.057, 9.561
488.389, 6.162
489.720, 125.365
491.051, 4.193
492.382, 53.223
493.712, 25.586
495.043, 230.054
496.373, 59.471
497.703, 121.876
499.032, 188.285
500.362, 464.684
501.691, 231.073
503.020, 430.489
504.349, 286.901
505.678, 515.306
507.007, 624.699
508.335, 497.081
509.663, 579.453
510.991, 736.813
512.319, 881.161
513.646, 849.498
514.973, 1077.820
516.300, 1051.132
517.627, 1224.051
518.954, 1545.715
520.280, 1555.986
521.607, 1892.244
522.933, 2106.487
524.259, 2431.715
525.584, 2588.930
526.910, 3142.130
528.235, 3605.313
529.560, 4055.481
530.885, 4682.637
532.209, 5103.770
533.534, 5627.891
534.858, 6414.994
536.182, 6881.809
537.506, 7668.148
538.829, 8006.200
540.152, 8266.232
541.476, 8676.253
542.799, 8998.248
544.121, 8863.230
545.444, 9110.191
546.766, 9061.134
548.088, 8870.692
549.410, 8948.637
550.732, 8802.491
552.053, 8880.605
553.375, 8674.734
554.696, 8592.558
556.017, 8625.562
557.337, 8620.356
558.658, 8666.802
559.978, 8586.130
561.298, 8163.841
562.618, 8368.435
563.938, 8068.486
565.257, 7817.928
566.576, 8038.217
567.895, 7603.112
569.214, 7614.044
570.533, 7577.014
571.851, 7328.358
573.170, 6840.340
574.488, 6994.773
575.805, 6477.938
577.123, 6288.705
578.440, 5949.263
579.758, 5860.688
581.075, 5677.746
582.391, 5265.484
583.708, 5411.827
585.024, 4928.869
586.341, 4868.781
587.657, 4851.539
588.972, 4850.529
590.288, 4821.743
591.603, 4601.920
592.918, 4625.704
594.233, 4524.131
595.548, 4623.383
596.863, 4961.102
598.177, 4980.854
599.491, 5114.264
600.805, 5414.536
602.119, 5465.947
603.432, 5592.415
604.746, 6132.632
606.059, 6559.827
607.372, 6603.377
608.685, 6779.697
609.997, 7382.453
611.309, 7451.279
612.621, 8008.199
613.933, 8114.594
615.245, 8425.861
616.557, 8833.547
617.868, 9171.602
619.179, 9420.960
620.490, 9615.815
621.801, 9843.784
623.111, 10249.493
624.421, 10346.668
625.731, 10799.711
627.041, 10566.690
628.351, 11342.549
629.660, 10817.220
630.970, 11306.937
632.279, 11805.679
633.588, 11593.700
634.896, 11747.225
636.205, 11352.465
637.513, 11468.190
638.821, 11254.178
640.129, 11488.456
641.437, 11307.229
642.744, 11238.270
644.051, 10771.955
645.358, 10637.683
646.665, 10407.915
647.972, 10100.700
649.278, 9787.224
650.584, 9330.320
651.890, 8620.052
653.196, 8398.600
654.502, 7754.067
655.807, 7418.245
657.113, 6664.654
658.418, 6363.019
659.722, 6157.585
661.027, 5430.857
662.331, 4919.082
663.636, 4731.262
664.940, 4380.394
666.244, 3977.479
667.547, 3729.518
668.851, 3325.510
670.154, 3126.027
671.457, 2960.355
672.760, 2734.209
674.062, 2636.016
675.365, 2463.775
676.667, 2213.488
677.969, 1884.155
679.271, 1918.774
680.572, 1794.349
681.874, 1453.876
683.175, 1557.355
684.476, 1513.790
685.777, 1200.177
687.077, 1036.519
688.378, 877.813
689.678, 926.062
690.978, 873.265
692.278, 890.420
693.577, 495.529
694.877, 727.595
696.176, 472.611
697.475, 650.584
698.774, 555.510
700.072, 609.389
701.371, 354.223
702.669, 424.013
703.967, 163.755
705.265, 287.446
706.562, 497.093
707.860, 240.691
709.157, 44.245
710.454, 401.723
711.751, 111.155
713.047, 302.530
714.344, 146.861
715.640, 201.141
716.936, 43.373
718.232, 26.531
719.527, 236.609
720.823, 150.642
722.118, 89.623
723.413, 108.545
724.708, 36.413
726.002, 101.207
727.297, 163.947
728.591, 84.361
729.885, 133.196
731.179, 181.703
732.472, 54.163
733.766, 99.440
735.059, 35.182
736.352, 38.972
737.645, 81.058
738.937, 6.909
740.230, 146.037
741.522, 83.062
742.814, 98.287
744.106, 26.355
745.397, 87.932
746.689, 94.542
747.980, 90.142
749.271, 60.133
750.562, 52.644
751.853, 16.521
753.143, 129.481
754.433, 30.583
755.723, 197.229
757.013, 3.000
758.303, 125.700
759.592, 163.641
760.881, 9.866
762.170, 125.688
763.459, 124.371
764.748, 22.184
766.036, 185.068
767.325, 243.889
768.613, 183.190
769.901, 52.578
771.188, 33.693
772.476, 90.036
773.763, 11.480
775.050, 241.980
776.337, 49.340
777.624, 35.625
778.910, 5.123
780.196, 26.913
781.482, 10.237
782.768, 77.622
784.054, 27.506
785.339, 104.399
786.625, 10.364
787.910, 163.366
789.195, 125.569
790.479, 101.506
791.764, 99.354
793.048, 68.812
794.332, 40.982
795.616, 16.765
796.900, 60.473
798.183, 120.244
799.467, 56.063
800.750, 24.586
802.033, 19.215
803.316, 15.820
804.598, 100.408
805.880, 171.025
807.163, 143.438
808.445, 201.882
809.726, 76.696
811.008, 38.676
812.289, 25.028
813.570, 92.639
814.851, 45.643
816.132, 97.904
817.413, 50.149
818.693, 95.375
819.973, 190.583
821.253, 15.774
822.533, 125.949
823.813, 243.107
825.092, 134.251
826.371, 197.380
827.650, 31.493
828.929, 199.594
830.208, 178.681
831.486, 306.755
832.764, 14.816
834.042, 207.865
835.320, 190.902
836.598, 104.929
837.875, 195.944
839.152, 251.949
840.429, 137.945
841.706, 262.933
842.983, 264.911
844.259, 177.881
845.536, 428.843
846.812, 129.799
848.088, 159.746
849.363, 124.688
850.639, 245.625
851.914, 299.556
853.189, 141.480
854.464, 130.402
855.739, 225.320
857.013, 357.234
858.288, 282.512
859.562, 212.382
860.836, 307.289
862.110, 429.975
863.383, 175.596
864.656, 380.504
865.930, 388.211
867.203, 340.119
868.475, 317.371
869.748, 291.941
871.020, 298.834
872.292, 513.006
873.564, 506.760
874.836, 548.143
876.108, 483.717
877.379, 488.688
878.650, 732.643
879.922, 677.574
881.192, 781.113
882.463, 707.002
883.733, 909.424
885.004, 836.102
886.274, 853.160
887.544, 785.416
888.813, 886.904
890.083, 1136.510
891.352, 1107.537
892.621, 1341.955
893.890, 1420.666
895.159, 1411.494
896.427, 1469.467
897.695, 1479.191
898.964, 1546.088
900.232, 1666.227
901.499, 1711.137
902.767, 1834.416
904.034, 2020.926
905.301, 1839.828
906.568, 2081.760
907.835, 2170.082
909.102, 2145.531
910.368, 2048.834
911.634, 2286.068
912.900, 2334.613
914.166, 2247.189
915.432, 2624.400
916.697, 2424.852
917.962, 2280.879
919.227, 2683.840
920.492, 2542.707
921.757, 2432.105
923.021, 2556.641
924.285, 2650.779
925.550, 2606.553
926.813, 2714.428
928.077, 2568.023
929.341, 2487.918
930.604, 2601.828
931.867, 2534.828
933.130, 2297.654
934.393, 2282.654
935.655, 2516.641
936.918, 2072.834
938.180, 2392.518
939.442, 2069.176
940.703, 2156.506
941.965, 2150.211
943.226, 1995.781
944.488, 1840.586
945.749, 2104.586
947.009, 2215.383
948.270, 2270.139
949.530, 2392.248
950.791, 2297.234
952.051, 2423.895
953.311, 2341.977
954.570, 2190.152
955.830, 2523.383
957.089, 2447.727
958.348, 2422.262
959.607, 2419.721
960.866, 2464.227
962.124, 2258.061
963.383, 2209.709
964.641, 2334.404
965.899, 2235.898
967.156, 2259.701
968.414, 2190.557
969.671, 2047.455
970.928, 2351.410
972.185, 2154.412
973.442, 2355.467
974.699, 2398.607
975.955, 2632.797
977.211, 2764.783
978.468, 2673.379
979.723, 3047.762
980.979, 3099.201
982.234, 3146.689
983.490, 3732.230
984.745, 3414.826
986.000, 4029.469
987.254, 4175.166
988.509, 4228.912
989.763, 4841.715
991.017, 4980.568
992.271, 5389.477
993.525, 5604.434
994.779, 5956.445
996.032, 6643.506
997.285, 7031.633
998.538, 7699.812
999.791, 8096.041
1001.044, 9286.340
1002.296, 9645.688
1003.548, 10730.086
1004.800, 11534.578
1006.052, 12831.129
1007.304, 14148.738
1008.555, 15558.402
1009.807, 17308.119
1011.058, 19336.904
1012.309, 21366.754
1013.559, 23798.656
1014.810, 25964.641
1016.060, 28000.684
1017.310, 30951.789
1018.560, 33117.945
1019.810, 34514.160
1021.060, 36060.430
1022.309, 37021.797
1023.558, 36391.215
1024.807, 35897.695
1026.056, 33697.246
1027.305, 31367.873
1028.553, 28633.570
1029.801, 25983.334
1031.049, 22678.197
1032.297, 20064.975
1033.545, 17599.006
1034.793, 15868.711
1036.040, 13588.842
1037.287, 12241.082
1038.534, 11311.426
1039.781, 10255.848
1041.027, 9767.334
1042.274, 8666.906
1043.520, 8130.176
1044.766, 8034.727
1046.012, 7520.508
1047.257, 7133.379
1048.503, 6790.789
1049.748, 7045.781
1050.993, 6391.859
1052.238, 6452.016
1053.483, 6377.469
1054.727, 5939.969
1055.971, 5748.346
1057.216, 5991.811
1058.459, 5576.348
1059.703, 5641.406
1060.947, 5269.049
1062.190, 5717.980
1063.433, 5571.438
1064.676, 5364.520
1065.919, 5629.477
1067.162, 5523.830
1068.404, 5821.172
1069.646, 5273.812
1070.888, 5238.768
1072.130, 5391.918
1073.372, 4794.676
1074.613, 4424.916
1075.855, 4138.203
1077.096, 3664.930
1078.337, 3367.203
1079.578, 3562.953
1080.818, 3049.824
1082.059, 3080.141
1083.299, 2771.188
1084.539, 2714.271
1085.779, 2630.717
1087.018, 2601.465
1088.258, 2492.703
1089.497, 2576.797
1090.736, 2431.377
1091.975, 2451.512
1093.213, 2515.531
1094.452, 2462.967
1095.690, 2605.496
1096.928, 2354.887
1098.166, 2376.686
1099.404, 2089.682
1100.642, 2172.129
1101.879, 1975.191
1103.116, 2100.361
1104.353, 1778.336
1105.590, 1999.492
1106.827, 1578.172
1108.063, 1854.072
1109.299, 1618.277
1110.536, 1667.242
1111.771, 1638.121
1113.007, 1475.109
1114.243, 1738.854
1115.478, 1613.768
1116.713, 1469.906
1117.948, 1600.654
1119.183, 1798.736
1120.418, 1527.205
1121.652, 1776.785
1122.886, 2387.201
1124.120, 2431.027
1125.354, 2183.555
1126.588, 1711.062
1127.821, 1623.660
1129.055, 1484.129
1130.288, 1660.787
1131.521, 1709.408
1132.753, 1731.295
1133.986, 1671.604
1135.218, 1648.195
1136.450, 2052.264
1137.682, 1679.650
1138.914, 2302.609
1140.146, 1971.775
1141.377, 2298.430
1142.609, 2278.826
1143.840, 2543.252
1145.071, 2765.658
1146.301, 2681.154
1147.532, 2742.967
1148.762, 2858.111
1149.992, 2705.143
1151.222, 2533.684
1152.452, 2517.066
1153.682, 2499.697
1154.911, 2095.949
1156.140, 2027.758
1157.369, 1896.654
1158.598, 1552.750
1159.827, 1515.727
1161.055, 1569.414
1162.284, 1271.162
1163.512, 1165.244
1164.740, 940.486
1165.967, 870.455
1167.195, 720.068
1168.422, 596.148
1169.650, 517.082
1170.877, 377.316
1172.103, 349.234
1173.330, 246.789
1174.557, 219.713
1175.783, 245.570
1177.009, 108.873
1178.235, 112.316
1179.461, 48.930
1180.686, 56.316
1181.912, 37.543
1183.137, 15.965
1184.362, 180.668
1185.587, 59.736
1186.811, 287.004
1188.036, 515.951
1189.260, 73.678
1190.484, 33.512
1191.708, 39.379
1192.932, 36.895
1194.155, 38.193
1195.378, 96.164
1196.602, 6.525
1197.825, 36.969
1199.047, 118.764
1200.270, 5.393
1201.492, 59.871
1202.715, 133.631
1203.937, 269.232
1205.159, 130.002
1206.380, 8.904
1207.602, 330.863
1208.823, 279.668
1210.044, 76.451
1211.265, 8.254
1212.486, 78.279
1213.707, 96.912
1214.927, 42.635
1216.147, 24.070
1217.367, 64.732
1218.587, 47.996
1219.807, 118.836
1221.027, 43.928
1222.246, 23.498
1223.465, 93.506
1224.684, 66.420
1225.903, 39.689
1227.121, 96.338
1228.340, 59.391
1229.558, 85.688
1230.776, 89.248
1231.994, 22.182
1233.212, 87.596
1234.429, 103.889
1235.646, 151.488
1236.864, 58.680
1238.081, 254.117
1239.297, 30.561
1240.514, 134.414
1241.730, 127.213
1242.947, 170.975
1244.163, 84.672
1245.378, 51.277
1246.594, 192.816
1247.810, 62.699
1249.025, 141.965
1250.240, 100.641
1251.455, 10.143
1252.670, 16.518
1253.885, 1.387
1255.099, 92.758
1256.313, 158.672
1257.527, 122.482
1258.741, 173.260
1259.955, 239.953
1261.168, 10.598
1262.382, 165.584
1263.595, 313.100
1264.808, 60.865
1266.021, 110.254
1267.233, 102.568
1268.446, 66.730
1269.658, 296.369
1270.870, 33.299
1272.082, 134.633
1273.294, 17.727
1274.505, 71.477
1275.716, 127.525
1276.928, 136.119
1278.139, 110.875
1279.349, 217.295
1280.560, 154.633
1281.770, 283.807
1282.981, 93.879
1284.191, 121.873
1285.401, 273.832
1286.610, 162.949
1287.820, 225.643
1289.029, 222.227
1290.239, 45.732
1291.448, 211.145
1292.656, 158.461
1293.865, 56.697
1295.073, 140.848
1296.282, 209.918
1297.490, 34.096
1298.698, 50.775
1299.906, 133.561
1301.113, 174.254
1302.320, 164.865
1303.528, 69.400
1304.735, 73.838
1305.942, 119.188
1307.148, 56.447
1308.355, 156.611
1309.561, 146.695
1310.767, 167.693
1311.973, 303.609
1313.179, 82.449
1314.384, 45.250
1315.590, 287.908
1316.795, 176.488
1318.000, 97.982
1319.205, 2.385
1320.410, 182.680
1321.614, 108.893
1322.819, 40.980
1324.023, 226.018
1325.227, 34.068
1326.431, 285.873
1327.634, 214.975
1328.838, 40.391
1330.041, 118.119
1331.244, 239.535
1332.447, 309.869
1333.650, 148.123
1334.852, 242.264
1336.055, 81.693
1337.257, 106.818
1338.459, 344.727
1339.661, 213.557
1340.862, 309.838
1342.064, 190.510
1343.265, 140.109
1344.466, 128.641
1345.667, 306.857
1346.868, 297.023
1348.068, 377.309
1349.269, 301.525
1350.469, 170.664
1351.669, 398.250
1352.869, 228.238
1354.069, 223.912
1355.268, 326.082
1356.468, 177.953
1357.667, 484.980
1358.866, 482.275
1360.065, 94.043
1361.263, 329.215
1362.462, 213.254
1363.660, 331.775
1364.858, 408.668
1366.056, 216.064
1367.254, 306.006
1368.451, 123.908
1369.649, 314.312
1370.846, 223.266
1372.043, 173.959
1373.240, 183.148
1374.436, 286.607
1375.633, 188.916
1376.829, 367.836
1378.025, 247.492
1379.221, 207.516
1380.417, 292.623
1381.613, 220.191
1382.808, 235.115
1384.003, 300.977
1385.199, 346.410
1386.393, 400.967
1387.588, 408.137
1388.783, 415.277
1389.977, 352.348
1391.171, 359.215
1392.365, 225.707
1393.559, 235.984
1394.753, 359.629
1395.946, 193.613
1397.140, 373.285
1398.333, 273.809
1399.526, 419.461
1400.719, 388.148
1401.911, 329.018
1403.104, 483.881
1404.296, 302.262
1405.488, 203.531
1406.680, 423.488
1407.872, 231.318
1409.063, 382.244
1410.255, 429.893
1411.446, 191.303
1412.637, 469.340
1413.828, 215.641
1415.018, 314.234
1416.209, 220.688
1417.399, 512.621
1418.589, 183.730
1419.779, 487.346
1420.969, 205.488
1422.159, 327.010
1423.348, 246.174
1424.537, 326.836
1425.726, 337.877
1426.915, 296.779
1428.104, 188.059
1429.293, 130.766
1430.481, 287.139
1431.669, 278.191
1432.857, 307.088
1434.045, 205.262
1435.233, 324.025
1436.420, 247.789
1437.608, 317.484
1438.795, 212.658
1439.982, 237.564
1441.169, 291.684
1442.355, 204.850
1443.542, 351.562
1444.728, 430.154
1445.914, 364.086
1447.100, 322.068
1448.286, 353.762
1449.472, 264.746
1450.657, 290.729
1451.842, 562.594
1453.027, 328.674
1454.212, 217.211
1455.397, 516.057
1456.581, 130.951
1457.766, 516.883
1458.950, 433.967
1460.134, 299.957
1461.318, 470.309
1462.501, 262.410
1463.685, 299.768
1464.868, 421.879
1466.051, 226.773
1467.234, 536.686
1468.417, 434.070
1469.600, 270.887
1470.782, 516.723
1471.965, 359.154
1473.147, 176.834
1474.329, 455.184
1475.510, 388.051
1476.692, 328.781
1477.873, 301.939
1479.055, 491.285
1480.236, 345.678
1481.416, 590.092
1482.597, 242.492
1483.778, 373.869
1484.958, 155.281
1486.138, 263.680
1487.318, 163.100
1488.498, 147.762
1489.678, 174.965
1490.857, 224.166
1492.037, 103.525
1493.216, 292.904
1494.395, 307.295
1495.574, 57.707
1496.752, 165.238
1497.931, 2.092
1499.109, 2.889
1500.287, 61.719
1501.465, 5.205
1502.643, 13.951
1503.820, 2.842
