##NAMES=Wavellite
##RRUFFID=R040176
##IDEAL CHEMISTRY=Al_3_(PO_4_)_2_(OH)_3_&#183;5H_2_O
##LOCALITY=Montgomery County, Arkansas, USA
##OWNER=RRUFF
##SOURCE=University of Arizona Mineral Museum
##DESCRIPTION=Pale green radial aggregates
##STATUS=The identification of this mineral has been confirmed by X-ray diffraction and chemical analysis
##URL=rruff.info/R040176
##MEASURED CHEMISTRY=(Al_0.88_V_0.03_)_3_(P_0.97_O_4_)_2_((OH)_1.74_F_0.26_)_3_Â·5H_2_O
##PIN_ID=S00512
##ORIENTATION=Laser parallel to -c* (0 0 -1). Fiducial mark perpendicular to laser is parallel to a [1 0 0]
89.193, 0.000
90.587, 3.931
91.981, 343.382
93.375, 925.369
94.768, 1645.085
96.161, 2725.618
97.554, 4002.546
98.947, 5400.636
100.340, 6473.478
101.732, 7229.743
103.124, 7562.157
104.516, 7840.121
105.908, 7050.526
107.300, 6009.719
108.691, 4521.198
110.082, 3289.944
111.473, 2338.241
112.864, 1736.181
114.254, 1373.601
115.644, 1365.795
117.034, 1339.373
118.424, 1256.041
119.813, 1160.159
121.203, 1188.171
122.592, 1005.440
123.981, 907.266
125.369, 804.891
126.758, 627.520
128.146, 455.322
129.534, 340.442
130.922, 405.001
132.309, 200.080
133.696, 111.753
135.083, 45.906
136.470, 102.192
137.857, 179.024
139.243, 525.115
140.630, 667.944
142.016, 857.287
143.401, 1112.008
144.787, 1342.396
146.172, 1506.827
147.557, 1623.946
148.942, 1805.724
150.327, 1716.130
151.711, 1918.142
153.096, 1965.744
154.480, 2343.925
155.863, 2473.666
157.247, 2604.928
158.630, 2772.667
160.013, 2994.863
161.396, 3219.507
162.779, 3279.586
164.161, 3335.090
165.544, 3333.006
166.926, 3185.325
168.308, 2960.035
169.689, 2822.128
171.070, 2468.594
172.452, 2256.330
173.833, 1951.152
175.213, 1583.178
176.594, 1223.464
177.974, 818.039
179.354, 663.921
180.734, 362.116
182.114, 166.625
183.493, 0.446
184.872, 89.424
186.251, 249.115
187.630, 294.230
189.008, 440.284
190.387, 374.021
191.765, 345.494
193.143, 379.713
194.520, 349.684
195.898, 384.422
197.275, 330.935
198.652, 166.254
200.029, 27.407
201.405, 177.601
202.782, 538.475
204.158, 923.281
205.534, 1415.590
206.909, 1949.245
208.285, 2543.062
209.660, 3175.042
211.035, 3771.190
212.410, 4004.531
213.784, 4046.077
215.159, 3895.870
216.533, 3567.948
217.907, 3164.297
219.281, 2811.975
220.654, 2498.666
222.027, 2218.900
223.400, 1945.121
224.773, 1826.504
226.146, 1701.489
227.518, 1699.997
228.891, 1570.454
230.263, 1518.092
231.634, 1567.901
233.006, 1691.895
234.377, 1825.047
235.748, 1880.352
237.119, 2015.805
238.490, 2127.408
239.860, 2535.156
241.231, 2488.049
242.601, 2842.085
243.970, 2968.262
245.340, 3278.577
246.709, 3373.032
248.079, 3479.623
249.448, 3802.349
250.816, 3627.208
252.185, 3810.198
253.553, 3876.318
254.921, 3861.056
256.289, 3807.651
257.657, 3716.089
259.024, 3514.831
260.391, 3303.569
261.758, 3017.104
263.125, 2774.279
264.492, 2756.990
265.858, 2582.156
267.224, 2532.707
268.590, 2575.580
269.956, 2685.721
271.321, 3065.094
272.687, 3337.670
274.052, 3753.430
275.416, 4060.356
276.781, 4541.159
278.146, 5050.270
279.510, 5583.941
280.874, 6213.279
282.237, 6852.619
283.601, 7520.967
284.964, 7859.332
286.327, 8577.729
287.690, 9286.163
289.053, 9866.636
290.416, 10106.158
291.778, 10486.732
293.140, 10381.366
294.502, 10330.057
295.863, 9629.811
297.225, 9525.627
298.586, 8914.508
299.947, 8730.837
301.308, 8724.800
302.668, 8806.507
304.029, 9344.702
305.389, 10316.429
306.749, 11580.719
308.108, 13017.606
309.468, 14968.436
310.827, 16660.398
312.186, 18531.494
313.545, 19645.717
314.903, 20639.064
316.262, 20524.539
317.620, 19351.129
318.978, 17968.838
320.336, 16116.662
321.693, 14073.598
323.051, 12154.646
324.408, 10552.802
325.765, 9043.337
327.121, 7775.725
328.478, 6694.908
329.834, 5831.480
331.190, 5228.902
332.546, 4783.482
333.902, 4326.512
335.257, 4216.476
336.612, 4078.519
337.967, 4093.710
339.322, 4330.199
340.677, 4665.105
342.031, 5442.289
343.385, 5937.209
344.739, 6932.196
346.093, 7844.846
347.446, 8897.013
348.799, 10110.441
350.153, 11385.188
351.505, 12582.003
352.858, 13276.705
354.210, 13802.199
355.563, 13693.605
356.915, 13269.091
358.267, 12447.380
359.618, 11385.870
360.969, 10047.988
362.321, 9039.406
363.672, 7838.180
365.022, 6958.000
366.373, 6255.352
367.723, 5851.230
369.073, 5620.227
370.423, 5629.148
371.773, 5877.227
373.122, 6051.051
374.471, 6439.248
375.821, 7242.519
377.169, 7672.854
378.518, 8772.249
379.866, 9438.701
381.215, 10591.214
382.563, 11781.783
383.910, 12813.409
385.258, 13926.092
386.605, 15380.831
387.952, 16675.629
389.299, 17496.484
390.646, 18718.398
391.992, 19180.367
393.339, 19795.396
394.685, 20090.482
396.031, 19725.623
397.376, 19622.820
398.722, 18671.070
400.067, 18033.381
401.412, 16851.740
402.757, 15886.158
404.101, 15416.636
405.446, 14097.162
406.790, 13143.735
408.134, 12352.364
409.478, 11320.044
410.821, 10581.775
412.165, 9578.564
413.508, 8540.399
414.851, 7955.287
416.193, 7106.225
417.536, 6121.258
418.878, 5487.378
420.220, 4948.580
421.562, 4408.861
422.904, 3656.208
424.245, 3295.625
425.586, 3010.104
426.927, 2494.635
428.268, 2313.236
429.609, 1890.903
430.949, 1594.612
432.289, 1351.371
433.629, 1149.849
434.969, 934.041
436.309, 941.946
437.648, 795.920
438.987, 792.948
440.326, 574.061
441.665, 464.222
443.003, 413.454
444.342, 444.772
445.680, 359.138
447.018, 347.571
448.355, 467.076
449.693, 225.648
451.030, 321.297
452.367, 236.001
453.704, 253.777
455.041, 186.586
456.377, 274.473
457.713, 238.403
459.049, 197.370
460.385, 139.395
461.721, 249.467
463.056, 310.570
464.391, 322.721
465.726, 281.902
467.061, 355.117
468.395, 308.382
469.730, 299.688
471.064, 501.059
472.398, 332.483
473.731, 476.954
475.065, 308.462
476.398, 348.022
477.731, 308.625
479.064, 486.272
480.397, 383.957
481.729, 357.674
483.062, 360.436
484.394, 203.249
485.725, 265.108
487.057, 210.020
488.389, 158.968
489.720, 161.943
491.051, 12.944
492.382, 11.987
493.712, 5.042
495.043, 83.165
496.373, 65.689
497.703, 47.555
499.032, 5.582
500.362, 74.257
501.691, 132.123
503.020, 3.960
504.349, 123.958
505.678, 133.933
507.007, 120.972
508.335, 105.053
509.663, 140.153
510.991, 106.255
512.319, 57.337
513.646, 166.346
514.973, 26.348
516.300, 38.287
517.627, 60.839
518.954, 36.942
520.280, 158.660
521.607, 6.616
522.933, 46.071
524.259, 76.222
525.584, 24.477
526.910, 101.795
528.235, 84.076
529.560, 34.361
530.885, 125.642
532.209, 13.927
533.534, 35.197
534.858, 182.461
536.182, 143.729
537.506, 285.999
538.829, 312.271
540.152, 384.545
541.476, 567.821
542.799, 669.058
544.121, 828.354
545.444, 980.650
546.766, 1166.927
548.088, 1301.202
549.410, 1495.475
550.732, 1703.746
552.053, 1953.624
553.375, 2328.568
554.696, 2532.830
556.017, 2924.943
557.337, 3255.196
558.658, 3550.375
559.978, 3867.615
561.298, 4061.014
562.618, 4566.850
563.938, 4864.068
565.257, 5259.691
566.576, 5446.193
567.895, 5656.453
569.214, 6104.503
570.533, 6215.875
571.851, 6369.135
573.170, 6410.704
574.488, 6688.785
575.805, 6581.118
577.123, 6668.943
578.440, 6574.357
579.758, 6451.340
581.075, 6463.117
582.391, 6170.856
583.708, 5999.955
585.024, 5774.026
586.341, 5462.473
587.657, 5311.199
588.972, 5023.632
590.288, 4781.157
591.603, 4521.802
592.918, 4319.363
594.233, 4081.959
595.548, 3927.089
596.863, 3712.263
598.177, 3411.462
599.491, 3284.721
600.805, 3044.981
602.119, 2901.891
603.432, 2626.811
604.746, 2711.738
606.059, 2606.003
607.372, 2596.107
608.685, 2472.624
609.997, 2591.035
611.309, 2429.941
612.621, 2533.042
613.933, 2553.359
615.245, 2659.947
616.557, 2784.145
617.868, 2946.922
619.179, 3018.310
620.490, 3148.109
621.801, 3272.631
623.111, 3574.203
624.421, 3548.979
625.731, 3760.030
627.041, 3749.146
628.351, 4193.871
629.660, 4079.360
630.970, 4273.238
632.279, 4619.198
633.588, 4691.205
634.896, 4655.300
636.205, 4750.493
637.513, 4782.189
638.821, 4842.078
640.129, 4835.207
641.437, 4930.203
642.744, 4845.553
644.051, 4702.777
645.358, 4749.477
646.665, 4729.203
647.972, 4563.911
649.278, 4356.057
650.584, 4213.807
651.890, 3993.822
653.196, 4005.036
654.502, 3714.389
655.807, 3659.081
657.113, 3293.142
658.418, 3142.924
659.722, 3017.721
661.027, 2768.203
662.331, 2680.769
663.636, 2432.594
664.940, 2341.441
666.244, 2150.673
667.547, 2158.417
668.851, 1855.487
670.154, 1948.071
671.457, 1882.638
672.760, 1589.742
674.062, 1776.112
675.365, 1525.278
676.667, 1548.546
677.969, 1427.969
679.271, 1335.450
680.572, 1272.946
681.874, 1217.951
683.175, 1162.438
684.476, 1093.415
685.777, 968.291
687.077, 923.253
688.378, 822.074
689.678, 848.162
690.978, 705.890
692.278, 787.555
693.577, 524.166
694.877, 654.727
696.176, 558.232
697.475, 524.688
698.774, 411.089
700.072, 575.438
701.371, 449.733
702.669, 434.977
703.967, 240.166
705.265, 484.303
706.562, 458.387
707.860, 263.418
709.157, 188.396
710.454, 340.316
711.751, 140.185
713.047, 276.991
714.344, 134.743
715.640, 261.433
716.936, 121.068
718.232, 99.641
719.527, 256.145
720.823, 164.594
722.118, 176.985
723.413, 121.319
724.708, 84.592
726.002, 112.792
727.297, 202.928
728.591, 62.009
729.885, 124.014
731.179, 107.956
732.472, 83.835
733.766, 33.644
735.059, 20.368
736.352, 80.003
737.645, 22.570
738.937, 35.052
740.230, 107.450
741.522, 10.213
742.814, 0.021
744.106, 119.159
745.397, 75.236
746.689, 43.246
747.980, 14.182
749.271, 64.031
750.562, 46.188
751.853, 0.521
753.143, 113.949
754.433, 11.474
755.723, 70.188
757.013, 129.975
758.303, 12.079
759.592, 69.945
760.881, 77.095
762.170, 76.370
763.459, 100.771
764.748, 37.308
766.036, 94.948
767.325, 94.281
768.613, 121.547
769.901, 0.517
771.188, 23.434
772.476, 55.682
773.763, 3.903
775.050, 24.499
776.337, 10.563
777.624, 88.997
778.910, 66.508
780.196, 10.035
781.482, 31.348
782.768, 73.325
784.054, 40.103
785.339, 0.967
786.625, 17.105
787.910, 39.878
789.195, 11.943
790.479, 16.075
791.764, 7.273
793.048, 44.466
794.332, 38.841
795.616, 71.223
796.900, 47.695
798.183, 80.246
799.467, 26.889
800.750, 33.406
802.033, 25.656
803.316, 102.134
804.598, 23.981
805.880, 223.939
807.163, 44.989
808.445, 57.121
809.726, 82.277
811.008, 78.492
812.289, 31.776
813.570, 39.085
814.851, 29.592
816.132, 4.244
817.413, 47.896
818.693, 13.444
819.973, 98.213
821.253, 20.128
822.533, 2.467
823.813, 212.194
825.092, 4.151
826.371, 51.518
827.650, 168.172
828.929, 52.816
830.208, 135.434
831.486, 183.039
832.764, 0.665
834.042, 19.271
835.320, 130.870
836.598, 160.443
837.875, 194.007
839.152, 188.543
840.429, 199.765
841.706, 168.545
842.983, 185.011
844.259, 158.461
845.536, 137.892
846.812, 132.300
848.088, 83.685
849.363, 120.046
850.639, 138.386
851.914, 222.704
853.189, 213.000
854.464, 141.276
855.739, 125.532
857.013, 202.768
858.288, 48.984
859.562, 162.184
860.836, 169.362
862.110, 197.525
863.383, 224.160
864.656, 197.509
865.930, 211.761
867.203, 242.857
868.475, 206.007
869.748, 177.073
871.020, 82.960
872.292, 169.390
873.564, 257.417
874.836, 150.019
876.108, 113.724
877.379, 106.646
878.650, 106.334
879.922, 119.534
881.192, 199.400
882.463, 161.936
883.733, 227.939
885.004, 227.669
886.274, 266.891
887.544, 172.501
888.813, 202.475
890.083, 249.731
891.352, 210.959
892.621, 304.804
893.890, 359.658
895.159, 326.118
896.427, 271.276
897.695, 271.400
898.964, 287.141
900.232, 400.213
901.499, 377.461
902.767, 392.651
904.034, 478.291
905.301, 485.868
906.568, 507.399
907.835, 529.514
909.102, 619.290
910.368, 537.056
911.634, 542.794
912.900, 574.521
914.166, 655.893
915.432, 830.408
916.697, 813.493
917.962, 637.669
919.227, 920.352
920.492, 880.821
921.757, 811.061
923.021, 906.013
924.285, 1011.348
925.550, 1016.090
926.813, 996.215
928.077, 1069.950
929.341, 1111.953
930.604, 1164.887
931.867, 1294.612
933.130, 1335.056
934.393, 1314.429
935.655, 1424.187
936.918, 1289.167
938.180, 1585.756
939.442, 1430.246
940.703, 1453.674
941.965, 1657.998
943.226, 1583.217
944.488, 1487.137
945.749, 1515.417
947.009, 1541.024
948.270, 1613.041
949.530, 1679.050
950.791, 1734.173
952.051, 1763.804
953.311, 1671.394
954.570, 1601.010
955.830, 1732.423
957.089, 1739.174
958.348, 1837.303
959.607, 1692.408
960.866, 1753.383
962.124, 1739.952
963.383, 1749.946
964.641, 1775.880
965.899, 1787.600
967.156, 1880.993
968.414, 1948.320
969.671, 1904.801
970.928, 2070.918
972.185, 1900.475
973.442, 2224.569
974.699, 2260.138
975.955, 2323.812
977.211, 2626.456
978.468, 2635.212
979.723, 3000.008
980.979, 3073.844
982.234, 3234.729
983.490, 3624.653
984.745, 3593.620
986.000, 4094.654
987.254, 4326.730
988.509, 4401.850
989.763, 4837.010
991.017, 5037.211
992.271, 5398.455
993.525, 5845.748
994.779, 6336.108
996.032, 6798.512
997.285, 7399.967
998.538, 8043.463
999.791, 8410.004
1001.044, 9473.602
1002.296, 9927.246
1003.548, 11166.937
1004.800, 11821.705
1006.052, 13081.520
1007.304, 14416.379
1008.555, 15640.285
1009.807, 17505.240
1011.058, 19332.244
1012.309, 21363.289
1013.559, 23928.398
1014.810, 26110.553
1016.060, 28566.756
1017.310, 31378.012
1018.560, 33628.324
1019.810, 35183.691
1021.060, 37190.113
1022.309, 37955.598
1023.558, 37550.148
1024.807, 36954.754
1026.056, 34705.434
1027.305, 32589.172
1028.553, 29881.961
1029.801, 27069.820
1031.049, 23931.730
1032.297, 21271.701
1033.545, 18889.736
1034.793, 17267.846
1036.040, 15408.015
1037.287, 14152.260
1038.534, 13143.578
1039.781, 12403.964
1041.027, 12056.416
1042.274, 11127.953
1043.520, 11052.560
1044.766, 11280.234
1046.012, 11032.993
1047.257, 10666.820
1048.503, 10725.730
1049.748, 10947.716
1050.993, 10547.762
1052.238, 10630.886
1053.483, 10365.066
1054.727, 9653.336
1055.971, 9011.682
1057.216, 8598.211
1058.459, 7648.723
1059.703, 7120.328
1060.947, 6489.037
1062.190, 5825.917
1063.433, 5126.217
1064.676, 4628.167
1065.919, 4150.575
1067.162, 3717.239
1068.404, 3567.150
1069.646, 3111.465
1070.888, 2721.502
1072.130, 2756.055
1073.372, 2369.455
1074.613, 2127.394
1075.855, 2006.050
1077.096, 1740.307
1078.337, 1653.458
1079.578, 1612.312
1080.818, 1467.345
1082.059, 1279.555
1083.299, 1189.429
1084.539, 1215.311
1085.779, 1126.661
1087.018, 1131.771
1088.258, 1105.037
1089.497, 1126.372
1090.736, 953.769
1091.975, 930.370
1093.213, 934.889
1094.452, 902.953
1095.690, 1011.146
1096.928, 846.616
1098.166, 831.357
1099.404, 785.516
1100.642, 944.384
1101.879, 842.304
1103.116, 1014.379
1104.353, 830.386
1105.590, 968.395
1106.827, 814.237
1108.063, 1057.279
1109.299, 1004.816
1110.536, 1076.579
1111.771, 1162.632
1113.007, 1137.057
1114.243, 1250.525
1115.478, 1345.953
1116.713, 1263.447
1117.948, 1396.033
1119.183, 1567.655
1120.418, 1457.316
1121.652, 1795.011
1122.886, 2040.795
1124.120, 2181.570
1125.354, 2360.571
1126.588, 2097.583
1127.821, 2211.457
1129.055, 2357.363
1130.288, 2493.084
1131.521, 2713.053
1132.753, 2937.309
1133.986, 3130.340
1135.218, 3350.611
1136.450, 3813.798
1137.682, 3878.918
1138.914, 4517.068
1140.146, 4689.244
1141.377, 5098.748
1142.609, 5538.815
1143.840, 5744.279
1145.071, 6284.846
1146.301, 6790.148
1147.532, 6971.627
1148.762, 7663.041
1149.992, 7941.978
1151.222, 8767.609
1152.452, 8833.897
1153.682, 8749.782
1154.911, 8684.284
1156.140, 8666.205
1157.369, 8097.464
1158.598, 7692.088
1159.827, 7342.725
1161.055, 6963.430
1162.284, 6218.225
1163.512, 5787.964
1164.740, 5171.230
1165.967, 4724.850
1167.195, 4240.818
1168.422, 3834.901
1169.650, 3310.379
1170.877, 2950.373
1172.103, 2502.550
1173.330, 2103.633
1174.557, 1984.977
1175.783, 1805.747
1177.009, 1585.252
1178.235, 1410.440
1179.461, 1233.409
1180.686, 1013.585
1181.912, 870.958
1183.137, 717.361
1184.362, 621.752
1185.587, 580.294
1186.811, 518.719
1188.036, 442.861
1189.260, 479.832
1190.484, 409.744
1191.708, 303.047
1192.932, 391.072
1194.155, 209.244
1195.378, 171.721
1196.602, 160.105
1197.825, 89.875
1199.047, 8.474
1200.270, 119.732
1201.492, 56.283
1202.715, 203.770
1203.937, 6.039
1205.159, 107.393
1206.380, 120.324
1207.602, 18.555
1208.823, 104.886
1210.044, 24.830
1211.265, 22.313
1212.486, 20.286
1213.707, 26.550
1214.927, 112.656
1216.147, 32.288
1217.367, 30.692
1218.587, 3.746
1219.807, 64.098
1221.027, 49.459
1222.246, 65.501
1223.465, 189.987
1224.684, 47.181
1225.903, 7.808
1227.121, 64.818
1228.340, 66.836
1229.558, 56.325
1230.776, 77.393
1231.994, 6.492
1233.212, 76.851
1234.429, 25.658
1235.646, 15.877
1236.864, 49.156
1238.081, 55.431
1239.297, 67.150
1240.514, 38.375
1241.730, 14.255
1242.947, 62.813
1244.163, 41.919
1245.378, 5.726
1246.594, 40.779
1247.810, 56.845
1249.025, 94.342
1250.240, 87.203
1251.455, 55.002
1252.670, 67.119
1253.885, 82.929
1255.099, 38.809
1256.313, 0.716
1257.527, 43.421
1258.741, 120.181
1259.955, 146.991
1261.168, 74.290
1262.382, 24.455
1263.595, 97.013
1264.808, 84.999
1266.021, 117.903
1267.233, 93.307
1268.446, 48.789
1269.658, 157.312
1270.870, 23.852
1272.082, 31.081
1273.294, 109.664
1274.505, 85.213
1275.716, 5.465
1276.928, 101.597
1278.139, 73.735
1279.349, 130.348
1280.560, 51.646
1281.770, 82.595
1282.981, 169.356
1284.191, 112.067
1285.401, 130.871
1286.610, 16.437
1287.820, 55.904
1289.029, 78.849
1290.239, 21.663
1291.448, 176.412
1292.656, 103.604
1293.865, 5.248
1295.073, 47.830
1296.282, 93.854
1297.490, 78.192
1298.698, 60.680
1299.906, 149.498
1301.113, 67.235
1302.320, 53.926
1303.528, 144.561
1304.735, 47.143
1305.942, 23.665
1307.148, 126.113
1308.355, 146.756
1309.561, 39.066
1310.767, 220.292
1311.973, 16.467
1313.179, 37.572
1314.384, 19.613
1315.590, 56.583
1316.795, 9.491
1318.000, 32.329
1319.205, 9.097
1320.410, 42.790
1321.614, 86.417
1322.819, 73.483
1324.023, 60.790
1325.227, 39.198
1326.431, 15.701
1327.634, 62.787
1328.838, 9.031
1330.041, 50.059
1331.244, 112.073
1332.447, 48.022
1333.650, 10.897
1334.852, 56.693
1336.055, 25.414
1337.257, 56.062
1338.459, 162.640
1339.661, 25.845
1340.862, 8.584
1342.064, 104.933
1343.265, 47.217
1344.466, 154.428
1345.667, 124.677
1346.868, 51.760
1348.068, 169.772
1349.269, 138.637
1350.469, 69.526
1351.669, 164.345
1352.869, 83.094
1354.069, 192.676
1355.268, 169.863
1356.468, 31.568
1357.667, 115.702
1358.866, 223.688
1360.065, 100.368
1361.263, 180.099
1362.462, 64.144
1363.660, 45.246
1364.858, 257.526
1366.056, 174.247
1367.254, 116.276
1368.451, 172.711
1369.649, 143.247
1370.846, 110.141
1372.043, 137.738
1373.240, 116.149
1374.436, 145.886
1375.633, 56.611
1376.829, 159.875
1378.025, 176.184
1379.221, 8.572
1380.417, 222.035
1381.613, 88.685
1382.808, 44.880
1384.003, 166.058
1385.199, 251.232
1386.393, 175.710
1387.588, 130.737
1388.783, 171.960
1389.977, 140.511
1391.171, 221.146
1392.365, 109.079
1393.559, 122.392
1394.753, 268.118
1395.946, 243.771
1397.140, 166.285
1398.333, 177.360
1399.526, 180.774
1400.719, 148.042
1401.911, 282.927
1403.104, 223.665
1404.296, 244.685
1405.488, 207.060
1406.680, 277.516
1407.872, 157.644
1409.063, 162.261
1410.255, 274.777
1411.446, 42.595
1412.637, 220.232
1413.828, 211.289
1415.018, 298.101
1416.209, 185.590
1417.399, 186.262
1418.589, 225.578
1419.779, 273.553
1420.969, 131.898
1422.159, 221.256
1423.348, 160.776
1424.537, 229.155
1425.726, 269.463
1426.915, 241.347
1428.104, 205.479
1429.293, 241.399
1430.481, 192.868
1431.669, 136.979
1432.857, 253.037
1434.045, 220.548
1435.233, 236.476
1436.420, 344.119
1437.608, 322.016
1438.795, 257.556
1439.982, 210.503
1441.169, 261.157
1442.355, 290.925
1443.542, 278.879
1444.728, 333.423
1445.914, 283.272
1447.100, 270.654
1448.286, 337.059
1449.472, 237.072
1450.657, 124.611
1451.842, 357.080
1453.027, 291.972
1454.212, 298.330
1455.397, 426.060
1456.581, 229.015
1457.766, 226.506
1458.950, 394.644
1460.134, 277.849
1461.318, 341.113
1462.501, 206.555
1463.685, 232.344
1464.868, 346.047
1466.051, 72.721
1467.234, 348.204
1468.417, 192.690
1469.600, 258.206
1470.782, 239.914
1471.965, 295.267
1473.147, 295.218
1474.329, 347.387
1475.510, 285.927
1476.692, 166.599
1477.873, 117.824
1479.055, 219.240
1480.236, 179.557
1481.416, 186.220
1482.597, 118.097
1483.778, 148.418
1484.958, 181.614
1486.138, 118.762
1487.318, 75.963
1488.498, 254.348
1489.678, 108.661
1490.857, 140.930
1492.037, 133.131
1493.216, 322.298
1494.395, 156.861
