##NAMES=Wavellite
##RRUFFID=R040176
##IDEAL CHEMISTRY=Al_3_(PO_4_)_2_(OH)_3_&#183;5H_2_O
##LOCALITY=Montgomery County, Arkansas, USA
##OWNER=RRUFF
##SOURCE=University of Arizona Mineral Museum
##DESCRIPTION=Pale green radial aggregates
##STATUS=The identification of this mineral has been confirmed by X-ray diffraction and chemical analysis
##URL=rruff.info/R040176
##MEASURED CHEMISTRY=(Al_0.88_V_0.03_)_3_(P_0.97_O_4_)_2_((OH)_1.74_F_0.26_)_3_Â·5H_2_O
##PIN_ID=L00054
##ORIENTATION=Laser parallel to -a* (-1 0 0). Fiducial mark perpendicular to laser is parallel to b [0 1 0]
79.427, 0.000
80.823, 89.248
82.218, 256.793
83.614, 442.838
85.009, 381.961
86.404, 268.836
87.798, 182.549
89.193, 498.295
90.587, 691.969
91.981, 1161.695
93.375, 1539.934
94.768, 1959.807
96.161, 2829.006
97.554, 3497.334
98.947, 4315.428
100.340, 5050.422
101.732, 5342.768
103.124, 5399.113
104.516, 5082.395
105.908, 4714.289
107.300, 3982.152
108.691, 3340.309
110.082, 2870.799
111.473, 2684.000
112.864, 2484.965
114.254, 2865.684
115.644, 3219.703
117.034, 3886.344
118.424, 3712.881
119.813, 3537.551
121.203, 2668.556
122.592, 1980.077
123.981, 1400.279
125.369, 754.316
126.758, 455.317
128.146, 329.399
129.534, 476.901
130.922, 363.938
132.309, 574.187
133.696, 295.343
135.083, 571.225
136.470, 453.438
137.857, 756.777
139.243, 688.225
140.630, 719.096
142.016, 694.364
143.401, 911.005
144.787, 940.995
146.172, 1060.312
147.557, 1083.901
148.942, 1245.699
150.327, 1491.668
151.711, 1740.986
153.096, 1952.078
154.480, 2453.507
155.863, 2903.079
157.247, 3348.782
158.630, 3984.616
160.013, 4681.575
161.396, 5216.651
162.779, 5741.847
164.161, 5970.225
165.544, 5983.838
166.926, 5568.705
168.308, 4737.830
169.689, 3885.210
171.070, 3166.839
172.452, 2361.701
173.833, 1565.789
175.213, 1125.090
176.594, 478.588
177.974, 110.268
179.354, 95.891
180.734, 373.896
182.114, 606.758
183.493, 451.450
184.872, 406.825
186.251, 410.823
187.630, 368.682
189.008, 283.128
190.387, 96.252
191.765, 24.060
193.143, 12.590
194.520, 57.125
195.898, 405.987
197.275, 484.957
198.652, 797.989
200.029, 1065.010
201.405, 1394.039
202.782, 1670.075
204.158, 2296.118
205.534, 2831.153
206.909, 3242.182
208.285, 4104.203
209.660, 4941.207
211.035, 5209.180
212.410, 5564.053
213.784, 5590.309
215.159, 5519.822
216.533, 5826.716
217.907, 5639.188
219.281, 5381.521
220.654, 5122.824
222.027, 5061.149
223.400, 4740.495
224.773, 4217.860
226.146, 4083.243
227.518, 3436.640
228.891, 2972.054
230.263, 2573.480
231.634, 2141.883
233.006, 1770.374
234.377, 1525.841
235.748, 1320.318
237.119, 1170.805
238.490, 1052.302
239.860, 765.810
241.231, 991.327
242.601, 686.854
243.970, 743.389
245.340, 765.482
246.709, 689.123
248.079, 949.685
249.448, 893.871
250.816, 1174.503
252.185, 1268.461
253.553, 1240.656
254.921, 1350.021
256.289, 1296.509
257.657, 1328.086
259.024, 1313.711
260.391, 1344.343
261.758, 1232.958
263.125, 1458.539
264.492, 1452.078
265.858, 1586.571
267.224, 1758.014
268.590, 1959.404
269.956, 2492.739
271.321, 2847.940
272.687, 3850.953
274.052, 3533.775
275.416, 3952.427
276.781, 4137.928
278.146, 4065.290
279.510, 4152.529
280.874, 4283.656
282.237, 4289.683
283.601, 4327.900
284.964, 4311.180
286.327, 4319.002
287.690, 4204.361
289.053, 4194.871
290.416, 4110.717
291.778, 3733.428
293.140, 3573.535
294.502, 3275.697
295.863, 3000.213
297.225, 2783.646
298.586, 2509.410
299.947, 2577.091
301.308, 2680.457
302.668, 3085.424
304.029, 3714.943
305.389, 4382.132
306.749, 5277.080
308.108, 6392.366
309.468, 7259.149
310.827, 8274.491
312.186, 8959.040
313.545, 9483.356
314.903, 9411.013
316.262, 8771.301
317.620, 7963.225
318.978, 6874.367
320.336, 5819.936
321.693, 4960.657
323.051, 4133.473
324.408, 3458.430
325.765, 2996.445
327.121, 2434.908
328.478, 2076.016
329.834, 1854.974
331.190, 1633.228
332.546, 1416.826
333.902, 1408.266
335.257, 1375.667
336.612, 1281.445
337.967, 1371.033
339.322, 1390.361
340.677, 1758.684
342.031, 1907.416
343.385, 2463.625
344.739, 2715.460
346.093, 3050.750
347.446, 3600.853
348.799, 4128.811
350.153, 4720.566
351.505, 5082.012
352.858, 5274.855
354.210, 5437.451
355.563, 5340.592
356.915, 5131.457
358.267, 4801.111
359.618, 4213.256
360.969, 3956.379
362.321, 3365.480
363.672, 3087.561
365.022, 2847.618
366.373, 2653.653
367.723, 2676.666
369.073, 2764.655
370.423, 2846.621
371.773, 3003.563
373.122, 3194.482
374.471, 3697.378
375.821, 3859.250
377.169, 4655.102
378.518, 4970.936
379.866, 5622.754
381.215, 6346.562
382.563, 7008.355
383.910, 7994.137
385.258, 8889.906
386.605, 10096.669
387.952, 10763.419
389.299, 11993.160
390.646, 12727.889
391.992, 13676.605
393.339, 14434.324
394.685, 14858.033
396.031, 15951.752
397.376, 15748.455
398.722, 16339.151
400.067, 16344.839
401.412, 16244.536
402.757, 16982.223
404.101, 16397.898
405.446, 16344.571
406.790, 16193.254
408.134, 16301.921
409.478, 15900.607
410.821, 15455.277
412.165, 14585.936
413.508, 13973.801
414.851, 13349.215
416.193, 12324.799
417.536, 11474.341
418.878, 10561.841
420.220, 9509.299
421.562, 8070.712
422.904, 7449.087
424.245, 6456.439
425.586, 5497.752
426.927, 4994.075
428.268, 4055.389
429.609, 3408.696
430.949, 2927.973
432.289, 2567.240
433.629, 1963.494
434.969, 1776.713
436.309, 1277.909
437.648, 1233.082
438.987, 885.264
440.326, 1056.412
441.665, 798.538
443.003, 531.669
444.342, 280.778
445.680, 158.887
447.018, 36.169
448.355, 77.957
449.693, 64.977
451.030, 23.090
452.367, 53.277
453.704, 60.063
455.041, 48.195
456.377, 149.396
457.713, 49.990
459.049, 146.665
460.385, 167.474
461.721, 116.425
463.056, 157.496
464.391, 133.700
465.726, 64.030
467.061, 91.448
468.395, 175.967
469.730, 46.369
471.064, 64.344
472.398, 67.843
473.731, 95.017
475.065, 63.032
476.398, 269.048
477.731, 361.037
479.064, 119.986
480.397, 75.885
481.729, 180.718
483.062, 164.493
484.394, 77.214
485.725, 100.867
487.057, 253.464
488.389, 340.004
489.720, 154.490
491.051, 308.918
492.382, 227.288
493.712, 266.632
495.043, 275.915
496.373, 425.139
497.703, 470.323
499.032, 597.455
500.362, 579.533
501.691, 659.560
503.020, 680.537
504.349, 799.512
505.678, 892.556
507.007, 881.729
508.335, 972.992
509.663, 1111.330
510.991, 1200.746
512.319, 1119.226
513.646, 1317.747
514.973, 1371.261
516.300, 1461.098
517.627, 1647.204
518.954, 1664.612
520.280, 1855.962
521.607, 1904.254
522.933, 2098.487
524.259, 2154.662
525.584, 2242.777
526.910, 2524.833
528.235, 2720.830
529.560, 2904.764
530.885, 3127.470
532.209, 3310.573
533.534, 3537.208
534.858, 3713.898
536.182, 3969.031
537.506, 4211.600
538.829, 4373.703
540.152, 4468.189
541.476, 4728.328
542.799, 4544.891
544.121, 4977.154
545.444, 4929.495
546.766, 4748.084
548.088, 5056.475
549.410, 4976.125
550.732, 5026.254
552.053, 5110.756
553.375, 4949.809
554.696, 5075.615
556.017, 5041.814
557.337, 5242.320
558.658, 5318.185
559.978, 5190.045
561.298, 5430.951
562.618, 5355.091
563.938, 5276.533
565.257, 5665.723
566.576, 5488.889
567.895, 5655.295
569.214, 5738.969
570.533, 5834.883
571.851, 5608.029
573.170, 5769.506
574.488, 5627.699
575.805, 5461.742
577.123, 5504.465
578.440, 5466.354
579.758, 5327.167
581.075, 5038.855
582.391, 5270.402
583.708, 4980.040
585.024, 4797.149
586.341, 4948.075
587.657, 4784.666
588.972, 4666.959
590.288, 4328.066
591.603, 4093.094
592.918, 3945.238
594.233, 3996.689
595.548, 3982.212
596.863, 3931.838
598.177, 3815.506
599.491, 4007.959
600.805, 3913.469
602.119, 3840.615
603.432, 3981.664
604.746, 4195.422
606.059, 4250.629
607.372, 4269.715
608.685, 4441.760
609.997, 4573.290
611.309, 4712.340
612.621, 4797.969
613.933, 5021.580
615.245, 5290.659
616.557, 5635.100
617.868, 5806.549
619.179, 6166.391
620.490, 6344.527
621.801, 6864.236
623.111, 7106.719
624.421, 7614.843
625.731, 7467.369
627.041, 8074.078
628.351, 7985.625
629.660, 8103.933
630.970, 8436.890
632.279, 8400.602
633.588, 8505.431
634.896, 8416.151
636.205, 8577.812
637.513, 8593.541
638.821, 8862.124
640.129, 8863.405
641.437, 9002.904
642.744, 8780.163
644.051, 8828.825
645.358, 8850.036
646.665, 8435.354
647.972, 8357.440
649.278, 7759.275
650.584, 7569.092
651.890, 7323.568
653.196, 6765.991
654.502, 6499.277
655.807, 5819.332
657.113, 5501.553
658.418, 5152.684
659.722, 4773.761
661.027, 4261.713
662.331, 3876.580
663.636, 3751.356
664.940, 3275.042
666.244, 3087.639
667.547, 2799.143
668.851, 2665.557
670.154, 2359.877
671.457, 2066.104
672.760, 2048.241
674.062, 1852.285
675.365, 1861.235
676.667, 1716.094
677.969, 1593.859
679.271, 1512.524
680.572, 1382.346
681.874, 1269.604
683.175, 1171.002
684.476, 1028.309
685.777, 931.523
687.077, 655.646
688.378, 920.679
689.678, 765.620
690.978, 686.470
692.278, 476.229
693.577, 605.895
694.877, 446.470
696.176, 575.948
697.475, 400.338
698.774, 520.630
700.072, 333.830
701.371, 295.933
702.669, 224.937
703.967, 245.838
705.265, 402.641
706.562, 269.350
707.860, 54.959
709.157, 247.438
710.454, 21.820
711.751, 192.059
713.047, 149.197
714.344, 119.231
715.640, 10.158
716.936, 104.940
718.232, 142.614
719.527, 48.186
720.823, 10.632
722.118, 115.938
723.413, 93.857
724.708, 51.153
726.002, 4.046
727.297, 50.202
728.591, 71.385
729.885, 135.862
731.179, 140.243
732.472, 174.140
733.766, 131.134
735.059, 126.823
736.352, 64.829
737.645, 16.268
738.937, 55.495
740.230, 142.846
741.522, 63.388
742.814, 93.091
744.106, 4.033
745.397, 75.964
746.689, 62.123
747.980, 12.566
749.271, 27.858
750.562, 32.414
751.853, 149.103
753.143, 6.018
754.433, 41.971
755.723, 142.093
757.013, 44.396
758.303, 155.831
759.592, 115.448
760.881, 113.224
762.170, 117.146
763.459, 60.191
764.748, 62.329
766.036, 25.568
767.325, 93.879
768.613, 54.295
769.901, 87.796
771.188, 62.371
772.476, 68.030
773.763, 51.750
775.050, 57.633
776.337, 80.334
777.624, 73.211
778.910, 81.855
780.196, 88.158
781.482, 100.241
782.768, 45.378
784.054, 54.591
785.339, 55.858
786.625, 164.207
787.910, 111.645
789.195, 108.205
790.479, 40.864
791.764, 30.596
793.048, 59.611
794.332, 67.772
795.616, 4.115
796.900, 48.944
798.183, 40.040
799.467, 38.919
800.750, 69.830
802.033, 20.306
803.316, 176.509
804.598, 165.720
805.880, 89.941
807.163, 79.562
808.445, 97.856
809.726, 53.648
811.008, 66.111
812.289, 59.531
813.570, 22.910
814.851, 163.248
816.132, 29.546
817.413, 81.803
818.693, 218.021
819.973, 135.202
821.253, 158.346
822.533, 303.452
823.813, 263.522
825.092, 200.558
826.371, 293.559
827.650, 218.525
828.929, 284.459
830.208, 350.360
831.486, 135.230
832.764, 365.069
834.042, 251.879
835.320, 389.659
836.598, 516.410
837.875, 482.134
839.152, 394.830
840.429, 535.500
841.706, 496.144
842.983, 503.762
844.259, 552.637
845.536, 566.928
846.812, 629.974
848.088, 581.502
849.363, 706.409
850.639, 743.854
851.914, 658.556
853.189, 666.759
854.464, 762.446
855.739, 802.906
857.013, 982.363
858.288, 1036.410
859.562, 1133.115
860.836, 1286.265
862.110, 977.961
863.383, 1150.027
864.656, 983.261
865.930, 1058.024
867.203, 766.401
868.475, 922.345
869.748, 688.215
871.020, 810.963
872.292, 843.397
873.564, 781.458
874.836, 761.694
876.108, 750.962
877.379, 731.753
878.650, 717.282
879.922, 665.497
881.192, 679.409
882.463, 765.919
883.733, 851.639
885.004, 807.439
886.274, 863.486
887.544, 1059.297
888.813, 886.119
890.083, 920.990
891.352, 1062.938
892.621, 1036.729
893.890, 1182.977
895.159, 1137.342
896.427, 1217.979
897.695, 1414.850
898.964, 1368.840
900.232, 1384.844
901.499, 1413.678
902.767, 1475.080
904.034, 1507.518
905.301, 1618.729
906.568, 1634.041
907.835, 1835.191
909.102, 1747.420
910.368, 1772.969
911.634, 1943.713
912.900, 1909.199
914.166, 2173.029
915.432, 1864.838
916.697, 1857.469
917.962, 2172.180
919.227, 1985.402
920.492, 2110.584
921.757, 2052.451
923.021, 2207.420
924.285, 2153.207
925.550, 2306.875
926.813, 2286.479
928.077, 2066.711
929.341, 2226.400
930.604, 2189.793
931.867, 2072.926
933.130, 2023.883
934.393, 2196.320
935.655, 1948.477
936.918, 2237.322
938.180, 2005.301
939.442, 1999.750
940.703, 2040.725
941.965, 2082.145
943.226, 2106.736
944.488, 1971.477
945.749, 2167.680
947.009, 2112.006
948.270, 2104.992
949.530, 2266.408
950.791, 2311.619
952.051, 2269.170
953.311, 2237.938
954.570, 2331.062
955.830, 2372.107
957.089, 2308.797
958.348, 2385.953
959.607, 2279.170
960.866, 2105.119
962.124, 2113.492
963.383, 2108.926
964.641, 2084.420
965.899, 2066.961
967.156, 2006.594
968.414, 2005.283
969.671, 2126.035
970.928, 2083.848
972.185, 2179.721
973.442, 2152.656
974.699, 2426.652
975.955, 2466.713
977.211, 2486.834
978.468, 2684.020
979.723, 3019.268
980.979, 2942.578
982.234, 3635.955
983.490, 3450.395
984.745, 4132.898
986.000, 4202.469
987.254, 4571.104
988.509, 5178.805
989.763, 5417.570
991.017, 5724.406
992.271, 6058.305
993.525, 6380.273
994.779, 7148.311
996.032, 7733.447
997.285, 8317.652
998.538, 8791.928
999.791, 10118.273
1001.044, 10850.691
1002.296, 11956.180
1003.548, 12311.742
1004.800, 12784.375
1006.052, 13719.084
1007.304, 14448.867
1008.555, 15886.734
1009.807, 17275.678
1011.058, 18824.697
1012.309, 20546.234
1013.559, 22412.996
1014.810, 24240.268
1016.060, 26440.643
1017.310, 28494.098
1018.560, 29936.643
1019.810, 31810.266
1021.060, 32710.990
1022.309, 32309.801
1023.558, 32088.699
1024.807, 29938.682
1026.056, 28375.768
1027.305, 25545.934
1028.553, 23427.232
1029.801, 20804.623
1031.049, 18288.109
1032.297, 16989.713
1033.545, 15112.398
1034.793, 13083.164
1036.040, 12110.008
1037.287, 11449.932
1038.534, 10539.934
1039.781, 10487.012
1041.027, 9702.188
1042.274, 9643.480
1043.520, 9630.883
1044.766, 9340.449
1046.012, 9018.141
1047.257, 9068.965
1048.503, 9503.887
1049.748, 9133.930
1050.993, 8768.281
1052.238, 8451.723
1053.483, 8018.281
1054.727, 7480.518
1055.971, 7144.205
1057.216, 6629.391
1058.459, 6156.312
1059.703, 5878.346
1060.947, 5429.402
1062.190, 5369.891
1063.433, 5080.111
1064.676, 4955.133
1065.919, 4538.238
1067.162, 4692.930
1068.404, 4224.051
1069.646, 4069.562
1070.888, 4095.482
1072.130, 3665.494
1073.372, 3453.086
1074.613, 3314.768
1075.855, 3083.701
1077.096, 2826.664
1078.337, 3067.236
1079.578, 2571.521
1080.818, 2788.930
1082.059, 2645.871
1083.299, 2612.270
1084.539, 2520.920
1085.779, 2379.365
1087.018, 2149.750
1088.258, 2279.193
1089.497, 2050.418
1090.736, 2075.730
1091.975, 1922.125
1093.213, 1799.586
1094.452, 1851.105
1095.690, 1492.680
1096.928, 1677.311
1098.166, 1728.996
1099.404, 1711.521
1100.642, 1559.316
1101.879, 1737.160
1103.116, 1645.055
1104.353, 1902.002
1105.590, 1801.994
1106.827, 1963.070
1108.063, 2057.191
1109.299, 2224.447
1110.536, 2286.113
1111.771, 2321.455
1113.007, 2329.930
1114.243, 2290.078
1115.478, 2174.479
1116.713, 2067.916
1117.948, 2220.395
1119.183, 1928.914
1120.418, 2190.473
1121.652, 2343.070
1122.886, 2551.705
1124.120, 2504.375
1125.354, 2223.082
1126.588, 2240.828
1127.821, 1920.605
1129.055, 2264.426
1130.288, 2151.275
1131.521, 2170.158
1132.753, 2186.100
1133.986, 2253.105
1135.218, 2615.166
1136.450, 2511.287
1137.682, 3019.469
1138.914, 2965.709
1140.146, 3138.006
1141.377, 3432.541
1142.609, 3615.955
1143.840, 4085.938
1145.071, 4495.957
1146.301, 4527.543
1147.532, 4985.184
1148.762, 5120.883
1149.992, 5396.637
1151.222, 5348.445
1152.452, 5583.312
1153.682, 5409.230
1154.911, 5776.203
1156.140, 5362.230
1157.369, 5231.312
1158.598, 5028.812
1159.827, 4678.395
1161.055, 4257.635
1162.284, 3932.926
1163.512, 3513.344
1164.740, 3186.736
1165.967, 2639.168
1167.195, 2573.588
1168.422, 2122.979
1169.650, 2011.361
1170.877, 1649.732
1172.103, 1428.072
1173.330, 1225.350
1174.557, 1041.725
1175.783, 894.271
1177.009, 803.135
1178.235, 651.230
1179.461, 554.254
1180.686, 459.193
1181.912, 331.018
1183.137, 346.848
1184.362, 289.471
1185.587, 177.518
1186.811, 273.504
1188.036, 172.387
1189.260, 78.383
1190.484, 139.393
1191.708, 58.881
1192.932, 65.133
1194.155, 20.340
1195.378, 32.316
1196.602, 28.730
1197.825, 42.953
1199.047, 5.992
1200.270, 219.287
1201.492, 46.521
1202.715, 162.314
1203.937, 129.891
1205.159, 120.656
1206.380, 77.809
1207.602, 74.350
1208.823, 119.176
1210.044, 89.648
1211.265, 156.439
1212.486, 233.635
1213.707, 86.775
1214.927, 29.408
1216.147, 179.803
1217.367, 43.574
1218.587, 59.291
1219.807, 65.016
1221.027, 116.535
1222.246, 244.113
1223.465, 256.723
1224.684, 103.340
1225.903, 158.693
1227.121, 252.545
1228.340, 8.479
1229.558, 52.324
1230.776, 277.299
1231.994, 95.369
1233.212, 24.520
1234.429, 56.840
1235.646, 127.654
1236.864, 166.066
1238.081, 157.408
1239.297, 107.727
1240.514, 89.863
1241.730, 162.938
1242.947, 82.137
1244.163, 144.668
1245.378, 21.010
1246.594, 212.809
1247.810, 190.439
1249.025, 218.002
1250.240, 153.502
1251.455, 148.936
1252.670, 157.285
1253.885, 209.557
1255.099, 30.746
1256.313, 92.160
1257.527, 214.818
1258.741, 136.719
1259.955, 9.422
1261.168, 163.365
1262.382, 131.006
1263.595, 202.574
1264.808, 147.068
1266.021, 183.490
1267.233, 205.844
1268.446, 377.127
1269.658, 258.369
1270.870, 518.521
1272.082, 436.611
1273.294, 450.650
1274.505, 413.016
1275.716, 461.969
1276.928, 436.020
1278.139, 392.287
1279.349, 387.090
1280.560, 324.920
1281.770, 204.770
1282.981, 224.637
1284.191, 327.465
1285.401, 304.307
1286.610, 161.162
1287.820, 319.029
1289.029, 4.908
1290.239, 160.797
1291.448, 253.678
1292.656, 269.559
1293.865, 307.439
1295.073, 399.324
1296.282, 274.209
1297.490, 436.096
1298.698, 534.986
1299.906, 379.879
1301.113, 385.779
1302.320, 328.693
1303.528, 193.615
1304.735, 255.545
1305.942, 357.428
1307.148, 488.201
1308.355, 340.887
1309.561, 498.539
1310.767, 456.363
1311.973, 482.770
1313.179, 510.373
1314.384, 717.432
1315.590, 556.045
1316.795, 473.932
1318.000, 378.275
1319.205, 666.891
1320.410, 447.973
1321.614, 445.600
1322.819, 479.139
1324.023, 345.912
1325.227, 419.342
1326.431, 415.467
1327.634, 209.035
1328.838, 95.195
1330.041, 164.955
1331.244, 189.666
1332.447, 24.334
1333.650, 3.646
1334.852, 26.797
1336.055, 22.277
1337.257, 9.205
1338.459, 28.150
1339.661, 95.805
1340.862, 70.125
1342.064, 78.133
1343.265, 54.115
1344.466, 10.072
1345.667, 63.014
1346.868, 95.936
1348.068, 155.840
1349.269, 94.734
1350.469, 292.461
1351.669, 150.949
1352.869, 323.188
1354.069, 281.775
1355.268, 46.188
1356.468, 247.219
1357.667, 221.998
1358.866, 75.439
1360.065, 276.514
1361.263, 24.797
1362.462, 230.119
1363.660, 231.900
1364.858, 273.996
1366.056, 288.822
1367.254, 262.697
1368.451, 242.727
1369.649, 172.137
1370.846, 336.816
1372.043, 280.037
1373.240, 250.461
1374.436, 401.916
1375.633, 333.262
1376.829, 298.354
1378.025, 377.957
1379.221, 435.312
1380.417, 320.916
1381.613, 310.580
1382.808, 173.232
1384.003, 264.414
1385.199, 261.418
1386.393, 140.557
1387.588, 262.783
1388.783, 202.332
1389.977, 397.254
1391.171, 177.953
1392.365, 223.463
1393.559, 342.051
1394.753, 182.863
1395.946, 252.039
1397.140, 229.711
1398.333, 239.363
1399.526, 223.139
1400.719, 88.873
1401.911, 168.547
1403.104, 67.350
1404.296, 53.795
1405.488, 197.627
1406.680, 115.312
1407.872, 192.672
1409.063, 338.225
1410.255, 133.318
1411.446, 189.953
1412.637, 31.359
1413.828, 146.305
1415.018, 117.037
1416.209, 181.818
1417.399, 1.867
1418.589, 277.189
1419.779, 0.000
##END=



