##NAMES=Wavellite
##RRUFFID=R040176
##IDEAL CHEMISTRY=Al_3_(PO_4_)_2_(OH)_3_&#183;5H_2_O
##LOCALITY=Montgomery County, Arkansas, USA
##OWNER=RRUFF
##SOURCE=University of Arizona Mineral Museum
##DESCRIPTION=Pale green radial aggregates
##STATUS=The identification of this mineral has been confirmed by X-ray diffraction and chemical analysis
##URL=rruff.info/R040176
##MEASURED CHEMISTRY=(Al_0.88_V_0.03_)_3_(P_0.97_O_4_)_2_((OH)_1.74_F_0.26_)_3_Â·5H_2_O
##PIN_ID=M00066
##ORIENTATION=Laser parallel to b* (0 1 0). Fiducial mark perpendicular to laser is parallel to c [0 0 1]
103.124, 0.000
104.516, 0.765
105.908, 5.134
107.300, 172.095
108.691, 88.688
110.082, 257.323
111.473, 315.779
112.864, 820.908
114.254, 1437.675
115.644, 2001.316
117.034, 2294.420
118.424, 2499.266
119.813, 2351.477
121.203, 2494.809
122.592, 2171.920
123.981, 1988.658
125.369, 1838.751
126.758, 1376.750
128.146, 1318.075
129.534, 989.058
130.922, 1059.958
132.309, 844.994
133.696, 662.333
135.083, 499.110
136.470, 659.435
137.857, 559.621
139.243, 818.928
140.630, 891.567
142.016, 1068.807
143.401, 982.784
144.787, 1214.190
146.172, 1060.000
147.557, 997.188
148.942, 869.736
150.327, 705.625
151.711, 723.838
153.096, 633.362
154.480, 669.184
155.863, 514.296
157.247, 429.700
158.630, 562.407
160.013, 470.409
161.396, 559.699
162.779, 707.261
164.161, 715.055
165.544, 622.475
166.926, 431.285
168.308, 242.707
169.689, 144.325
171.070, 5.440
172.452, 17.881
173.833, 175.716
175.213, 217.379
176.594, 269.874
177.974, 185.206
179.354, 108.382
180.734, 129.600
182.114, 361.730
183.493, 586.009
184.872, 1186.431
186.251, 1452.979
187.630, 2086.595
189.008, 2445.303
190.387, 2850.113
191.765, 3076.030
193.143, 2903.057
194.520, 2910.189
195.898, 2330.429
197.275, 2271.768
198.652, 1795.205
200.029, 1670.737
201.405, 1650.362
202.782, 1642.080
204.158, 1672.914
205.534, 2132.872
206.909, 2775.961
208.285, 3094.213
209.660, 3582.720
211.035, 3836.559
212.410, 3572.663
213.784, 3163.937
215.159, 2577.297
216.533, 2119.812
217.907, 1674.391
219.281, 1291.038
220.654, 994.707
222.027, 753.794
223.400, 487.420
224.773, 440.562
226.146, 484.763
227.518, 405.023
228.891, 347.346
230.263, 288.728
231.634, 457.168
233.006, 532.668
234.377, 459.228
235.748, 426.848
237.119, 509.524
238.490, 458.142
239.860, 490.057
241.231, 472.908
242.601, 386.817
243.970, 407.782
245.340, 411.803
246.709, 421.879
248.079, 398.011
249.448, 616.197
250.816, 439.438
252.185, 740.737
253.553, 699.309
254.921, 669.497
256.289, 800.960
257.657, 724.477
259.024, 895.051
260.391, 901.681
261.758, 1014.367
263.125, 991.111
264.492, 1259.912
265.858, 1419.771
267.224, 1548.688
268.590, 2025.343
269.956, 2247.357
271.321, 2799.171
272.687, 3232.311
274.052, 3446.656
275.416, 3686.165
276.781, 4280.809
278.146, 4241.559
279.510, 4010.390
280.874, 4391.289
282.237, 4205.244
283.601, 4383.258
284.964, 3848.322
286.327, 3691.417
287.690, 3777.488
289.053, 3560.545
290.416, 3336.600
291.778, 3202.663
293.140, 2828.740
294.502, 2593.838
295.863, 2137.962
297.225, 2006.114
298.586, 1886.298
299.947, 1718.516
301.308, 1753.740
302.668, 1819.011
304.029, 1966.955
305.389, 2324.923
306.749, 2728.262
308.108, 3043.698
309.468, 3777.586
310.827, 4083.148
312.186, 4546.209
313.545, 4901.910
314.903, 4826.049
316.262, 4941.570
317.620, 4419.186
318.978, 3863.448
320.336, 3365.057
321.693, 3031.114
323.051, 2528.192
324.408, 2324.985
325.765, 1713.041
327.121, 1832.109
328.478, 1314.449
329.834, 1261.838
331.190, 1073.688
332.546, 1068.172
333.902, 988.973
335.257, 890.896
336.612, 923.146
337.967, 958.401
339.322, 965.559
340.677, 988.998
342.031, 1007.258
343.385, 1042.406
344.739, 1173.283
346.093, 1067.200
347.446, 1140.156
348.799, 1323.151
350.153, 1528.186
351.505, 1857.257
352.858, 1963.366
354.210, 2025.512
355.563, 2079.695
356.915, 2227.914
358.267, 2219.167
359.618, 2282.457
360.969, 1960.780
362.321, 2065.137
363.672, 1949.527
365.022, 1857.950
366.373, 1945.405
367.723, 1950.242
369.073, 1997.411
370.423, 2133.960
371.773, 2205.537
373.122, 2298.143
374.471, 2514.775
375.821, 3018.434
377.169, 2877.117
378.518, 3626.824
379.866, 3491.554
381.215, 3980.309
382.563, 4352.084
383.910, 4722.884
385.258, 5258.707
386.605, 5567.556
387.952, 6219.430
389.299, 6357.378
390.646, 7038.351
391.992, 7260.347
393.339, 7786.367
394.685, 8200.468
396.031, 8622.594
397.376, 9458.771
398.722, 9501.969
400.067, 10170.191
401.412, 10210.439
402.757, 10646.731
404.101, 11476.076
405.446, 11367.443
406.790, 11509.850
408.134, 11499.289
409.478, 11678.758
410.821, 11569.321
412.165, 11507.962
413.508, 11288.646
414.851, 11277.386
416.193, 10675.173
417.536, 10294.974
418.878, 10003.847
420.220, 9706.759
421.562, 9528.701
422.904, 9280.702
424.245, 9176.724
425.586, 9038.764
426.927, 8704.821
428.268, 8909.923
429.609, 8421.067
430.949, 8235.287
432.289, 7783.585
433.629, 7537.947
434.969, 6471.363
436.309, 6193.815
437.648, 5053.289
438.987, 4330.777
440.326, 3752.330
441.665, 3000.894
443.003, 2452.505
444.342, 2228.139
445.680, 1811.783
447.018, 1364.488
448.355, 1242.205
449.693, 876.939
451.030, 788.705
452.367, 536.479
453.704, 549.355
455.041, 173.240
456.377, 331.158
457.713, 120.084
459.049, 193.018
460.385, 44.961
461.721, 134.912
463.056, 147.912
464.391, 87.078
465.726, 38.104
467.061, 69.861
468.395, 64.164
469.730, 70.211
471.064, 52.717
472.398, 198.352
473.731, 37.486
475.065, 297.670
476.398, 144.977
477.731, 119.352
479.064, 127.785
480.397, 179.283
481.729, 55.869
483.062, 16.477
484.394, 29.092
485.725, 12.727
487.057, 130.369
488.389, 14.947
489.720, 203.262
491.051, 58.424
492.382, 101.889
493.712, 162.201
495.043, 186.551
496.373, 19.898
497.703, 71.252
499.032, 66.672
500.362, 294.143
501.691, 294.680
503.020, 293.262
504.349, 110.863
505.678, 250.461
507.007, 166.051
508.335, 350.641
509.663, 212.221
510.991, 316.797
512.319, 344.365
513.646, 366.922
514.973, 408.473
516.300, 270.016
517.627, 655.549
518.954, 771.072
520.280, 486.584
521.607, 866.088
522.933, 840.578
524.259, 987.059
525.584, 1651.527
526.910, 1359.984
528.235, 1727.430
529.560, 1787.861
530.885, 2244.277
532.209, 2284.684
533.534, 2488.072
534.858, 2872.449
536.182, 3215.809
537.506, 3408.154
538.829, 3554.486
540.152, 3685.043
541.476, 3756.182
542.799, 3932.045
544.121, 3824.312
545.444, 3914.801
546.766, 3925.289
548.088, 3795.072
549.410, 3990.555
550.732, 4076.729
552.053, 3894.436
553.375, 3792.758
554.696, 3534.871
556.017, 3510.139
557.337, 3553.482
558.658, 3593.061
559.978, 3283.004
561.298, 3204.021
562.618, 3481.936
563.938, 3172.080
565.257, 3199.945
566.576, 3528.176
567.895, 2962.840
569.214, 3158.896
570.533, 3214.553
571.851, 3181.783
573.170, 3112.727
574.488, 2944.135
575.805, 2780.281
577.123, 2662.412
578.440, 2551.535
579.758, 2704.250
581.075, 2574.758
582.391, 2515.166
583.708, 2673.445
585.024, 2455.764
586.341, 2329.406
587.657, 2741.148
588.972, 2865.910
590.288, 2932.477
591.603, 2941.650
592.918, 3102.525
594.233, 3109.719
595.548, 3312.354
596.863, 3492.764
598.177, 3512.795
599.491, 3625.033
600.805, 3990.588
602.119, 3873.094
603.432, 4214.980
604.746, 4465.631
606.059, 4864.719
607.372, 4713.369
608.685, 5082.219
609.997, 5394.961
611.309, 5313.846
612.621, 5715.402
613.933, 5742.445
615.245, 5955.906
616.557, 6084.398
617.868, 6387.402
619.179, 6475.711
620.490, 6599.508
621.801, 6469.713
623.111, 6821.918
624.421, 6778.434
625.731, 7059.512
627.041, 6590.490
628.351, 7298.041
629.660, 6789.939
630.970, 7044.553
632.279, 7168.348
633.588, 6982.428
634.896, 6847.850
636.205, 6582.812
637.513, 6577.605
638.821, 6517.277
640.129, 6539.387
641.437, 6480.879
642.744, 6476.662
644.051, 6119.188
645.358, 6009.027
646.665, 6315.350
647.972, 5885.541
649.278, 5806.711
650.584, 5384.805
651.890, 5346.203
653.196, 5558.193
654.502, 5280.139
655.807, 5411.443
657.113, 5275.539
658.418, 4614.066
659.722, 4917.125
661.027, 4469.807
662.331, 4058.436
663.636, 4171.012
664.940, 3944.129
666.244, 3422.598
667.547, 3355.014
668.851, 2955.379
670.154, 2937.686
671.457, 2657.943
672.760, 2351.145
674.062, 2459.293
675.365, 2206.389
676.667, 1893.432
677.969, 1580.420
679.271, 1594.357
680.572, 1356.238
681.874, 1112.068
683.175, 1261.842
684.476, 1345.562
685.777, 1007.230
687.077, 822.844
688.378, 600.406
689.678, 794.912
690.978, 603.367
692.278, 599.768
693.577, 529.154
694.877, 580.410
696.176, 278.650
697.475, 385.836
698.774, 232.969
700.072, 491.043
701.371, 274.064
702.669, 268.031
703.967, 73.059
705.265, 257.699
706.562, 378.400
707.860, 200.049
709.157, 102.359
710.454, 337.062
711.751, 8.564
713.047, 250.689
714.344, 192.889
715.640, 154.031
716.936, 23.113
718.232, 25.902
719.527, 259.957
720.823, 20.766
722.118, 80.475
723.413, 65.111
724.708, 195.330
726.002, 126.980
727.297, 186.201
728.591, 218.674
729.885, 100.234
731.179, 175.078
732.472, 112.133
733.766, 2.498
735.059, 39.033
736.352, 76.516
737.645, 67.803
738.937, 116.053
740.230, 107.246
741.522, 39.617
742.814, 27.596
744.106, 141.676
745.397, 125.062
746.689, 105.320
747.980, 67.863
749.271, 2.527
750.562, 51.721
751.853, 150.912
753.143, 131.947
754.433, 163.045
755.723, 66.008
757.013, 11.824
758.303, 311.588
759.592, 139.691
760.881, 122.883
762.170, 14.412
763.459, 24.121
764.748, 158.264
766.036, 317.393
767.325, 430.719
768.613, 55.207
769.901, 206.771
771.188, 132.713
772.476, 19.615
773.763, 248.469
775.050, 146.715
776.337, 199.973
777.624, 84.621
778.910, 119.252
780.196, 109.857
781.482, 191.426
782.768, 136.336
784.054, 198.510
785.339, 47.008
786.625, 100.523
787.910, 52.004
789.195, 242.531
790.479, 62.062
791.764, 75.592
793.048, 7.127
794.332, 38.328
795.616, 124.186
796.900, 90.676
798.183, 150.148
799.467, 125.406
800.750, 9.992
802.033, 60.359
803.316, 150.303
804.598, 179.959
805.880, 169.807
807.163, 209.328
808.445, 134.436
809.726, 114.482
811.008, 28.533
812.289, 92.527
813.570, 20.504
814.851, 69.439
816.132, 240.361
817.413, 101.262
818.693, 35.857
819.973, 276.996
821.253, 49.830
822.533, 124.643
823.813, 471.439
825.092, 156.219
826.371, 61.980
827.650, 115.727
828.929, 83.455
830.208, 56.729
831.486, 95.057
832.764, 22.549
834.042, 154.219
835.320, 159.875
836.598, 226.521
837.875, 241.150
839.152, 227.770
840.429, 182.377
841.706, 456.975
842.983, 176.564
844.259, 29.143
845.536, 412.713
846.812, 180.275
848.088, 179.828
849.363, 81.375
850.639, 233.672
851.914, 245.203
853.189, 175.309
854.464, 68.832
855.739, 194.111
857.013, 83.734
858.288, 103.307
859.562, 49.523
860.836, 164.031
862.110, 275.982
863.383, 259.900
864.656, 219.809
865.930, 340.139
867.203, 190.377
868.475, 244.357
869.748, 265.959
871.020, 201.461
872.292, 352.047
873.564, 467.389
874.836, 270.990
876.108, 282.207
877.379, 268.971
878.650, 391.328
879.922, 394.062
881.192, 509.246
882.463, 386.459
883.733, 378.670
885.004, 504.889
886.274, 383.104
887.544, 399.311
888.813, 458.379
890.083, 443.762
891.352, 530.670
892.621, 567.689
893.890, 557.654
895.159, 571.281
896.427, 577.793
897.695, 712.289
898.964, 682.486
900.232, 751.051
901.499, 721.611
902.767, 810.451
904.034, 858.047
905.301, 813.852
906.568, 1097.023
907.835, 1022.977
909.102, 1133.602
910.368, 1051.258
911.634, 910.523
912.900, 1215.059
914.166, 1008.162
915.432, 1415.691
916.697, 1180.027
917.962, 1065.463
919.227, 1396.750
920.492, 1225.354
921.757, 1213.471
923.021, 1350.168
924.285, 1255.818
925.550, 1368.965
926.813, 1393.797
928.077, 1404.156
929.341, 1283.096
930.604, 1488.908
931.867, 1388.930
933.130, 1185.012
934.393, 1196.160
935.655, 1468.352
936.918, 1091.588
938.180, 1457.693
939.442, 1261.033
940.703, 1250.291
941.965, 1456.721
943.226, 1394.158
944.488, 1475.461
945.749, 1155.020
947.009, 1473.035
948.270, 1347.723
949.530, 1168.457
950.791, 1349.240
952.051, 1420.746
953.311, 1192.541
954.570, 1254.461
955.830, 1324.994
957.089, 1456.012
958.348, 1462.725
959.607, 1211.842
960.866, 1355.014
962.124, 1275.834
963.383, 1217.211
964.641, 1349.701
965.899, 1273.916
967.156, 1267.539
968.414, 1163.240
969.671, 1313.992
970.928, 1416.213
972.185, 1298.084
973.442, 1574.004
974.699, 1547.004
975.955, 1825.059
977.211, 1650.170
978.468, 1718.338
979.723, 2164.568
980.979, 1951.852
982.234, 2250.219
983.490, 2799.637
984.745, 2299.131
986.000, 2889.674
987.254, 3081.309
988.509, 2966.006
989.763, 3526.766
991.017, 3701.594
992.271, 3832.477
993.525, 4195.412
994.779, 4312.418
996.032, 4783.484
997.285, 5035.658
998.538, 5479.910
999.791, 5398.221
1001.044, 6660.588
1002.296, 6628.021
1003.548, 7641.514
1004.800, 8243.074
1006.052, 9066.707
1007.304, 10194.398
1008.555, 11065.145
1009.807, 12608.004
1011.058, 13941.930
1012.309, 15694.926
1013.559, 17536.006
1014.810, 19339.209
1016.060, 20795.469
1017.310, 23000.832
1018.560, 24743.266
1019.810, 25741.766
1021.060, 26908.338
1022.309, 27817.023
1023.558, 27298.799
1024.807, 27052.643
1026.056, 25024.568
1027.305, 23620.570
1028.553, 21609.648
1029.801, 19720.865
1031.049, 17205.318
1032.297, 15289.754
1033.545, 13899.426
1034.793, 12643.105
1036.040, 11207.840
1037.287, 10216.703
1038.534, 9536.129
1039.781, 8596.188
1041.027, 8409.305
1042.274, 7502.504
1043.520, 7470.771
1044.766, 7348.105
1046.012, 6633.527
1047.257, 6515.080
1048.503, 6121.652
1049.748, 6311.777
1050.993, 5762.621
1052.238, 6098.980
1053.483, 5531.066
1054.727, 5441.115
1055.971, 5018.217
1057.216, 5072.416
1058.459, 4864.666
1059.703, 4819.002
1060.947, 4506.395
1062.190, 4558.803
1063.433, 4449.475
1064.676, 4509.309
1065.919, 4536.129
1067.162, 4353.869
1068.404, 4761.602
1069.646, 4121.484
1070.888, 4105.082
1072.130, 4228.635
1073.372, 3646.787
1074.613, 3594.734
1075.855, 3531.359
1077.096, 3004.986
1078.337, 2759.242
1079.578, 3086.145
1080.818, 2585.562
1082.059, 2583.482
1083.299, 2467.898
1084.539, 2542.584
1085.779, 2510.486
1087.018, 2666.523
1088.258, 2763.164
1089.497, 2872.684
1090.736, 3075.846
1091.975, 3098.672
1093.213, 3289.082
1094.452, 3171.059
1095.690, 3717.826
1096.928, 3315.529
1098.166, 3697.824
1099.404, 4064.410
1100.642, 3403.316
1101.879, 3239.279
1103.116, 3183.273
1104.353, 2923.350
1105.590, 3029.871
1106.827, 2634.596
1108.063, 2808.309
1109.299, 2396.203
1110.536, 2687.230
1111.771, 2642.164
1113.007, 2573.271
1114.243, 2696.881
1115.478, 2940.957
1116.713, 2391.307
1117.948, 2609.299
1119.183, 2853.293
1120.418, 2601.148
1121.652, 3073.609
1122.886, 3611.629
1124.120, 3669.365
1125.354, 3336.291
1126.588, 2943.361
1127.821, 2943.480
1129.055, 2583.707
1130.288, 3000.229
1131.521, 3009.262
1132.753, 3090.629
1133.986, 3017.342
1135.218, 3216.963
1136.450, 3716.754
1137.682, 3436.598
1138.914, 4125.387
1140.146, 3935.369
1141.377, 4337.453
1142.609, 4474.840
1143.840, 4582.039
1145.071, 5035.096
1146.301, 5190.238
1147.532, 4985.344
1148.762, 4933.004
1149.992, 4640.564
1151.222, 4383.473
1152.452, 3975.041
1153.682, 3996.025
1154.911, 3264.762
1156.140, 3462.590
1157.369, 2657.477
1158.598, 2446.764
1159.827, 2144.562
1161.055, 2245.688
1162.284, 1552.453
1163.512, 1444.727
1164.740, 1226.377
1165.967, 1120.121
1167.195, 992.666
1168.422, 1028.689
1169.650, 712.809
1170.877, 630.379
1172.103, 353.648
1173.330, 328.594
1174.557, 159.240
1175.783, 451.324
1177.009, 217.561
1178.235, 230.893
1179.461, 271.131
1180.686, 2.482
1181.912, 59.258
1183.137, 139.477
1184.362, 196.428
1185.587, 184.590
1186.811, 0.395
1188.036, 11.135
1189.260, 75.432
1190.484, 350.652
1191.708, 172.840
1192.932, 123.656
1194.155, 99.723
1195.378, 44.844
1196.602, 103.734
1197.825, 3.938
1199.047, 121.389
1200.270, 3.910
1201.492, 138.434
1202.715, 275.219
1203.937, 241.020
1205.159, 199.875
1206.380, 16.203
1207.602, 175.254
1208.823, 189.199
1210.044, 104.764
1211.265, 4.418
1212.486, 75.348
1213.707, 40.887
1214.927, 46.916
1216.147, 179.270
1217.367, 36.633
1218.587, 32.379
1219.807, 51.502
1221.027, 56.549
1222.246, 0.535
1223.465, 80.123
1224.684, 135.994
1225.903, 24.031
1227.121, 94.971
1228.340, 120.428
1229.558, 144.816
1230.776, 74.385
1231.994, 36.773
1233.212, 47.373
1234.429, 247.463
1235.646, 220.211
1236.864, 31.412
1238.081, 125.680
1239.297, 13.758
1240.514, 116.775
1241.730, 302.760
1242.947, 68.285
1244.163, 81.863
1245.378, 25.943
1246.594, 294.014
1247.810, 221.688
1249.025, 212.076
1250.240, 204.412
1251.455, 117.824
1252.670, 81.391
1253.885, 104.689
1255.099, 71.936
1256.313, 12.877
1257.527, 279.633
1258.741, 184.551
1259.955, 189.092
1261.168, 68.201
1262.382, 38.576
1263.595, 126.955
1264.808, 20.664
1266.021, 179.590
1267.233, 335.098
1268.446, 39.182
1269.658, 234.883
1270.870, 62.869
1272.082, 170.736
1273.294, 35.539
1274.505, 148.232
1275.716, 20.172
1276.928, 209.287
1278.139, 1.670
1279.349, 298.939
1280.560, 46.930
1281.770, 62.033
1282.981, 62.922
1284.191, 40.689
1285.401, 263.371
1286.610, 243.934
1287.820, 33.398
1289.029, 225.764
1290.239, 137.953
1291.448, 23.186
1292.656, 113.223
1293.865, 154.186
1295.073, 97.062
1296.282, 134.867
1297.490, 67.588
1298.698, 35.227
1299.906, 159.773
1301.113, 346.238
1302.320, 149.621
1303.528, 56.918
1304.735, 104.123
1305.942, 28.764
1307.148, 169.240
1308.355, 249.152
1309.561, 13.984
1310.767, 176.709
1311.973, 89.355
1313.179, 47.906
1314.384, 9.354
1315.590, 127.688
1316.795, 143.934
1318.000, 166.088
1319.205, 63.156
1320.410, 158.123
1321.614, 150.002
1322.819, 57.207
1324.023, 274.369
1325.227, 60.070
1326.431, 335.303
1327.634, 227.650
1328.838, 30.914
1330.041, 156.072
1331.244, 242.668
1332.447, 296.625
1333.650, 19.539
1334.852, 134.352
1336.055, 96.086
1337.257, 155.727
1338.459, 167.287
1339.661, 233.725
1340.862, 202.174
1342.064, 247.100
1343.265, 242.332
1344.466, 155.059
1345.667, 291.055
1346.868, 212.070
1348.068, 431.008
1349.269, 363.875
1350.469, 266.668
1351.669, 325.389
1352.869, 479.039
1354.069, 428.090
1355.268, 507.092
1356.468, 245.459
1357.667, 541.658
1358.866, 514.607
1360.065, 415.646
1361.263, 846.271
1362.462, 380.396
1363.660, 229.906
1364.858, 475.809
1366.056, 191.352
1367.254, 309.326
1368.451, 338.941
1369.649, 363.963
1370.846, 342.027
1372.043, 458.373
1373.240, 239.164
1374.436, 390.215
1375.633, 420.818
1376.829, 297.305
1378.025, 278.230
1379.221, 286.447
1380.417, 404.283
1381.613, 383.908
1382.808, 457.160
1384.003, 495.225
1385.199, 479.973
1386.393, 511.814
1387.588, 370.496
1388.783, 381.021
1389.977, 376.234
1391.171, 415.203
1392.365, 286.809
1393.559, 346.535
1394.753, 418.568
1395.946, 350.521
1397.140, 550.145
1398.333, 453.031
1399.526, 461.279
1400.719, 353.674
1401.911, 483.609
1403.104, 519.039
1404.296, 391.895
1405.488, 381.092
1406.680, 464.879
1407.872, 279.377
1409.063, 210.854
1410.255, 293.930
1411.446, 216.285
1412.637, 449.713
1413.828, 352.266
1415.018, 461.951
1416.209, 484.033
1417.399, 459.678
1418.589, 373.697
1419.779, 398.105
1420.969, 378.000
1422.159, 430.383
1423.348, 377.270
1424.537, 445.363
1425.726, 440.123
1426.915, 341.703
1428.104, 305.988
1429.293, 476.590
1430.481, 381.992
1431.669, 270.773
1432.857, 501.197
1434.045, 457.541
1435.233, 406.043
1436.420, 600.529
1437.608, 549.408
1438.795, 412.131
1439.982, 583.545
1441.169, 555.158
1442.355, 434.561
1443.542, 375.936
1444.728, 406.572
1445.914, 343.348
1447.100, 513.082
1448.286, 465.422
1449.472, 552.854
1450.657, 318.236
1451.842, 729.438
1453.027, 616.238
1454.212, 502.123
1455.397, 746.111
1456.581, 386.254
1457.766, 589.584
1458.950, 623.648
1460.134, 293.475
1461.318, 558.525
1462.501, 420.113
1463.685, 376.070
1464.868, 584.818
1466.051, 300.424
1467.234, 682.100
1468.417, 368.762
1469.600, 355.520
1470.782, 642.334
1471.965, 625.316
1473.147, 649.928
1474.329, 652.107
1475.510, 601.844
1476.692, 347.850
1477.873, 289.949
1479.055, 380.102
1480.236, 402.215
1481.416, 493.266
1482.597, 470.299
1483.778, 349.188
1484.958, 401.166
1486.138, 270.145
1487.318, 189.166
1488.498, 258.176
1489.678, 195.287
1490.857, 420.484
1492.037, 197.768
1493.216, 381.148
1494.395, 367.693
1495.574, 221.518
1496.752, 594.514
1497.931, 72.678
1499.109, 536.982
1500.287, 16.398
1501.465, 119.926
1502.643, 85.594
1503.820, 26.564
