##NAMES=Weloganite
##RRUFFID=R050217
##IDEAL CHEMISTRY=Na_2_Sr_3_Zr^4+^(C^4+^O_3_)_6_&#183;3H_2_O
##LOCALITY=Francon Quarry, Montréal, Québec, Canada
##OWNER=RRUFF
##SOURCE=Marcus Origlieri
##DESCRIPTION=Tan colored tapered hexagonal single crystals
##STATUS=The identification of this mineral has been confirmed by X-ray diffraction and chemical analysis
##URL=rruff.info/R050217
##MEASURED CHEMISTRY=Na_2.00_(Sr_2.93_Ca_0.07_)_Σ=3_(Zr_0.90_Hf_0.10_)_Σ=1_(CO_3_)_6_·3H_2_O
##PIN_ID=L00360
##ORIENTATION=Laser parallel to c* (0 0 1). Fiducial mark perpendicular to laser is parallel to [1 1 0]
91.981, 0.000
93.375, 19.795
94.768, 22.210
96.161, 193.990
97.554, 480.613
98.947, 830.526
100.340, 855.402
101.732, 951.197
103.124, 1266.334
104.516, 1753.795
105.908, 2142.572
107.300, 2118.344
108.691, 1698.271
110.082, 1126.868
111.473, 659.924
112.864, 338.452
114.254, 570.662
115.644, 1175.871
117.034, 1827.481
118.424, 2464.977
119.813, 2665.902
121.203, 3046.857
122.592, 3111.486
123.981, 2956.477
125.369, 2936.544
126.758, 2664.440
128.146, 2750.938
129.534, 2949.832
130.922, 3482.967
132.309, 3577.291
133.696, 3752.768
135.083, 3782.259
136.470, 4083.596
137.857, 4175.643
139.243, 4601.287
140.630, 5137.420
142.016, 5854.949
143.401, 6660.778
144.787, 7722.820
146.172, 8824.000
147.557, 9808.243
148.942, 10441.479
150.327, 10651.646
151.711, 10944.689
153.096, 11156.550
154.480, 11671.180
155.863, 11552.530
157.247, 10834.557
158.630, 9883.212
160.013, 8688.462
161.396, 7709.268
162.779, 7164.594
164.161, 6799.406
165.544, 6400.674
166.926, 5843.445
168.308, 5563.707
169.689, 4848.056
171.070, 4287.817
172.452, 3943.970
173.833, 3718.317
175.213, 3524.490
176.594, 3488.641
177.974, 3171.042
179.354, 3089.576
180.734, 2673.250
182.114, 2089.233
183.493, 1535.510
184.872, 1250.053
186.251, 1040.792
187.630, 1183.735
189.008, 1576.914
190.387, 2059.238
191.765, 2436.731
193.143, 2829.349
194.520, 3271.100
195.898, 3468.990
197.275, 3451.004
198.652, 3317.110
200.029, 3306.303
201.405, 3135.562
202.782, 3122.900
204.158, 3032.309
205.534, 2925.141
206.909, 2832.268
208.285, 2706.896
209.660, 2492.509
211.035, 2314.152
212.410, 1948.824
213.784, 2192.518
215.159, 2199.228
216.533, 2523.955
217.907, 2969.677
219.281, 3292.391
220.654, 3845.086
222.027, 4251.766
223.400, 4571.422
224.773, 4408.050
226.146, 4040.645
227.518, 3749.202
228.891, 3549.717
230.263, 3413.184
231.634, 3492.602
233.006, 3609.960
234.377, 3652.257
235.748, 3767.486
237.119, 3785.646
238.490, 3444.729
239.860, 3214.738
241.231, 2643.670
242.601, 2190.468
243.970, 1762.978
245.340, 1362.752
246.709, 1200.611
248.079, 828.092
249.448, 929.529
250.816, 713.420
252.185, 791.043
253.553, 1000.240
254.921, 1414.464
256.289, 1752.962
257.657, 2238.574
259.024, 2858.820
260.391, 3696.326
261.758, 4543.562
263.125, 5046.459
264.492, 5434.807
265.858, 5426.857
267.224, 4859.224
268.590, 4543.168
269.956, 4093.829
271.321, 4018.267
272.687, 3837.104
274.052, 3699.737
275.416, 3455.066
276.781, 3250.484
278.146, 2953.287
279.510, 2432.683
280.874, 2232.724
282.237, 1806.455
283.601, 1511.258
284.964, 1079.395
286.327, 833.051
287.690, 643.269
289.053, 489.464
290.416, 299.281
291.778, 205.620
293.140, 17.331
294.502, 141.131
295.863, 47.122
297.225, 148.987
298.586, 277.057
299.947, 310.153
301.308, 708.896
302.668, 959.722
304.029, 1234.673
305.389, 1711.386
306.749, 2212.544
308.108, 2797.379
309.468, 3516.182
310.827, 4058.851
312.186, 4931.863
313.545, 5823.293
314.903, 6559.165
316.262, 7292.476
317.620, 7497.230
318.978, 7738.157
320.336, 7404.911
321.693, 6871.886
323.051, 6304.569
324.408, 5468.935
325.765, 4753.685
327.121, 4097.415
328.478, 3329.626
329.834, 2654.260
331.190, 2398.991
332.546, 2025.483
333.902, 1512.066
335.257, 1427.406
336.612, 1095.935
337.967, 955.216
339.322, 855.433
340.677, 711.735
342.031, 702.988
343.385, 772.165
344.739, 823.398
346.093, 907.118
347.446, 1056.243
348.799, 1322.930
350.153, 1537.826
351.505, 1802.316
352.858, 2054.761
354.210, 2346.922
355.563, 2693.099
356.915, 3115.052
358.267, 3506.914
359.618, 3842.678
360.969, 4292.265
362.321, 4631.739
363.672, 4593.120
365.022, 4477.218
366.373, 4468.379
367.723, 3855.111
369.073, 3498.584
370.423, 3093.209
371.773, 2665.469
373.122, 2214.800
374.471, 1843.641
375.821, 1599.448
377.169, 1329.232
378.518, 1142.790
379.866, 866.117
381.215, 689.050
382.563, 501.406
383.910, 368.365
385.258, 228.789
386.605, 161.500
387.952, 149.085
389.299, 29.247
390.646, 28.924
391.992, 146.740
393.339, 65.726
394.685, 119.863
396.031, 94.969
397.376, 54.435
398.722, 161.054
400.067, 205.856
401.412, 200.855
402.757, 275.052
404.101, 242.484
405.446, 154.946
406.790, 207.639
408.134, 155.831
409.478, 161.938
410.821, 202.738
412.165, 114.815
413.508, 193.779
414.851, 116.223
416.193, 107.147
417.536, 200.259
418.878, 104.708
420.220, 116.993
421.562, 165.458
422.904, 209.413
424.245, 130.060
425.586, 19.146
426.927, 106.281
428.268, 18.351
429.609, 71.249
430.949, 116.167
432.289, 67.634
433.629, 109.746
434.969, 34.680
436.309, 64.250
437.648, 40.096
438.987, 47.465
440.326, 26.990
441.665, 24.269
443.003, 38.744
444.342, 6.291
445.680, 68.967
447.018, 117.332
448.355, 84.972
449.693, 70.096
451.030, 143.332
452.367, 107.040
453.704, 262.191
455.041, 138.832
456.377, 86.708
457.713, 188.590
459.049, 153.205
460.385, 195.771
461.721, 178.370
463.056, 273.308
464.391, 223.121
465.726, 241.436
467.061, 347.149
468.395, 303.198
469.730, 255.686
471.064, 328.281
472.398, 256.206
473.731, 359.041
475.065, 272.116
476.398, 307.008
477.731, 346.722
479.064, 426.326
480.397, 353.699
481.729, 340.938
483.062, 461.965
484.394, 391.833
485.725, 455.529
487.057, 458.062
488.389, 408.447
489.720, 468.665
491.051, 455.715
492.382, 482.628
493.712, 469.374
495.043, 495.004
496.373, 468.466
497.703, 492.757
499.032, 494.888
500.362, 642.862
501.691, 638.675
503.020, 640.333
504.349, 609.835
505.678, 715.173
507.007, 600.356
508.335, 686.412
509.663, 617.314
510.991, 695.052
512.319, 685.632
513.646, 733.050
514.973, 708.309
516.300, 740.410
517.627, 740.351
518.954, 741.613
520.280, 761.179
521.607, 765.250
522.933, 764.579
524.259, 807.750
525.584, 768.786
526.910, 847.675
528.235, 884.420
529.560, 823.012
530.885, 885.459
532.209, 842.754
533.534, 933.898
534.858, 915.891
536.182, 894.732
537.506, 922.421
538.829, 992.959
540.152, 992.347
541.476, 979.586
542.799, 1070.676
544.121, 816.616
545.444, 987.404
546.766, 975.042
548.088, 911.534
549.410, 1132.149
550.732, 1042.453
552.053, 1106.295
553.375, 1082.904
554.696, 899.459
556.017, 1007.101
557.337, 980.800
558.658, 951.333
559.978, 947.581
561.298, 953.677
562.618, 924.654
563.938, 831.217
565.257, 808.822
566.576, 873.673
567.895, 749.339
569.214, 869.188
570.533, 783.055
571.851, 670.027
573.170, 690.636
574.488, 719.713
575.805, 678.971
577.123, 662.001
578.440, 574.656
579.758, 564.166
581.075, 615.264
582.391, 464.240
583.708, 503.834
585.024, 469.035
586.341, 459.413
587.657, 471.229
588.972, 485.112
590.288, 544.837
591.603, 446.275
592.918, 381.740
594.233, 468.779
595.548, 381.452
596.863, 458.321
598.177, 417.060
599.491, 421.425
600.805, 318.337
602.119, 385.725
603.432, 268.185
604.746, 413.430
606.059, 300.260
607.372, 371.615
608.685, 290.061
609.997, 368.939
611.309, 236.340
612.621, 292.393
613.933, 221.377
615.245, 367.174
616.557, 384.096
617.868, 344.799
619.179, 289.455
620.490, 397.433
621.801, 383.291
623.111, 454.978
624.421, 312.853
625.731, 429.221
627.041, 279.850
628.351, 488.539
629.660, 323.188
630.970, 298.229
632.279, 471.946
633.588, 441.131
634.896, 445.783
636.205, 408.896
637.513, 482.842
638.821, 407.812
640.129, 461.334
641.437, 533.702
642.744, 571.722
644.051, 577.244
645.358, 557.233
646.665, 554.160
647.972, 657.377
649.278, 644.380
650.584, 583.482
651.890, 598.244
653.196, 758.224
654.502, 747.869
655.807, 747.297
657.113, 802.066
658.418, 829.471
659.722, 862.201
661.027, 971.877
662.331, 952.877
663.636, 1017.199
664.940, 1106.464
666.244, 1120.986
667.547, 1312.673
668.851, 1317.069
670.154, 1368.876
671.457, 1374.800
672.760, 1401.883
674.062, 1607.677
675.365, 1606.587
676.667, 1856.232
677.969, 1940.883
679.271, 2086.108
680.572, 1869.665
681.874, 1432.088
683.175, 1216.896
684.476, 1124.776
685.777, 945.508
687.077, 761.556
688.378, 615.154
689.678, 713.188
690.978, 574.856
692.278, 599.384
693.577, 456.758
694.877, 542.185
696.176, 571.666
697.475, 624.095
698.774, 635.352
700.072, 616.797
701.371, 577.482
702.669, 518.706
703.967, 487.562
705.265, 504.800
706.562, 368.889
707.860, 348.941
709.157, 227.992
710.454, 447.018
711.751, 257.840
713.047, 360.849
714.344, 408.838
715.640, 361.839
716.936, 419.394
718.232, 258.912
719.527, 432.009
720.823, 383.977
722.118, 389.915
723.413, 663.345
724.708, 838.200
726.002, 1227.440
727.297, 1661.618
728.591, 1667.382
729.885, 1520.336
731.179, 1305.478
732.472, 1280.515
733.766, 1661.913
735.059, 1821.698
736.352, 1786.518
737.645, 1693.657
738.937, 1354.295
740.230, 1222.191
741.522, 1096.982
742.814, 1178.819
744.106, 1194.731
745.397, 1585.774
746.689, 1961.167
747.980, 2360.225
749.271, 2743.112
750.562, 2845.394
751.853, 2758.394
753.143, 2394.785
754.433, 2445.039
755.723, 2685.353
757.013, 4378.284
758.303, 5908.539
759.592, 8744.301
760.881, 11361.771
762.170, 10564.792
763.459, 7855.145
764.748, 4900.195
766.036, 3057.599
767.325, 2189.374
768.613, 1374.493
769.901, 1071.195
771.188, 778.700
772.476, 538.296
773.763, 503.757
775.050, 318.008
776.337, 404.736
777.624, 352.418
778.910, 216.421
780.196, 169.849
781.482, 111.012
782.768, 38.083
784.054, 78.109
785.339, 0.364
786.625, 98.070
787.910, 93.093
789.195, 175.122
790.479, 54.157
791.764, 16.129
793.048, 24.162
794.332, 6.842
795.616, 18.810
796.900, 16.205
798.183, 12.778
799.467, 67.772
800.750, 13.804
802.033, 48.155
803.316, 125.884
804.598, 150.013
805.880, 205.088
807.163, 101.705
808.445, 31.503
809.726, 27.694
811.008, 52.902
812.289, 20.865
813.570, 31.363
814.851, 20.606
816.132, 79.142
817.413, 19.104
818.693, 143.358
819.973, 29.681
821.253, 24.987
822.533, 10.338
823.813, 13.337
825.092, 34.019
826.371, 8.294
827.650, 93.396
828.929, 47.908
830.208, 62.774
831.486, 18.464
832.764, 57.838
834.042, 0.844
835.320, 96.468
836.598, 55.814
837.875, 52.683
839.152, 37.454
840.429, 61.910
841.706, 57.711
842.983, 21.659
844.259, 44.974
845.536, 152.616
846.812, 39.269
848.088, 77.931
849.363, 133.604
850.639, 131.287
851.914, 128.981
853.189, 71.688
854.464, 8.404
855.739, 195.138
857.013, 250.882
858.288, 154.639
859.562, 32.411
860.836, 66.196
862.110, 199.995
863.383, 158.637
864.656, 378.464
865.930, 363.298
867.203, 409.155
868.475, 402.026
869.748, 491.913
871.020, 208.812
872.292, 293.729
873.564, 133.659
874.836, 79.605
876.108, 13.433
877.379, 11.540
878.650, 83.529
879.922, 123.534
881.192, 105.554
882.463, 12.590
883.733, 129.643
885.004, 105.711
886.274, 18.204
887.544, 5.894
888.813, 134.008
890.083, 23.140
891.352, 58.287
892.621, 342.455
893.890, 367.638
895.159, 476.840
896.427, 137.059
897.695, 70.296
898.964, 125.550
900.232, 75.820
901.499, 110.108
902.767, 74.415
904.034, 160.738
905.301, 42.079
906.568, 141.437
907.835, 157.829
909.102, 139.239
910.368, 36.668
911.634, 109.114
912.900, 240.580
914.166, 376.062
915.432, 277.564
916.697, 197.083
917.962, 38.622
919.227, 242.179
920.492, 162.756
921.757, 164.353
923.021, 181.971
924.285, 201.605
925.550, 158.259
926.813, 196.930
928.077, 310.619
929.341, 115.326
930.604, 121.051
931.867, 256.790
933.130, 251.550
934.393, 200.325
935.655, 342.018
936.918, 144.829
938.180, 289.839
939.442, 246.688
940.703, 84.557
941.965, 177.440
943.226, 212.343
944.488, 112.155
945.749, 211.030
947.009, 311.041
948.270, 214.405
949.530, 117.338
950.791, 293.170
952.051, 273.697
953.311, 71.584
954.570, 107.675
955.830, 243.773
957.089, 307.908
958.348, 244.179
959.607, 126.352
960.866, 157.547
962.124, 235.072
963.383, 126.191
964.641, 384.454
965.899, 252.966
967.156, 346.158
968.414, 153.496
969.671, 191.892
970.928, 220.812
972.185, 200.769
973.442, 349.212
974.699, 222.208
975.955, 317.697
977.211, 182.208
978.468, 284.400
979.723, 375.957
980.979, 231.345
982.234, 178.948
983.490, 571.576
984.745, 155.611
986.000, 410.264
987.254, 779.182
988.509, 224.503
989.763, 368.035
991.017, 458.833
992.271, 266.015
993.525, 354.873
994.779, 320.074
996.032, 506.982
997.285, 439.947
998.538, 320.938
999.791, 211.979
1001.044, 570.045
1002.296, 320.146
1003.548, 512.280
1004.800, 346.477
1006.052, 486.697
1007.304, 394.943
1008.555, 359.229
1009.807, 457.538
1011.058, 363.875
1012.309, 451.241
1013.559, 408.638
1014.810, 372.061
1016.060, 262.510
1017.310, 451.004
1018.560, 403.524
1019.810, 335.080
1021.060, 501.663
1022.309, 422.282
1023.558, 437.928
1024.807, 502.599
1026.056, 658.296
1027.305, 626.781
1028.553, 645.530
1029.801, 733.305
1031.049, 718.936
1032.297, 648.933
1033.545, 754.785
1034.793, 701.664
1036.040, 688.569
1037.287, 752.182
1038.534, 818.138
1039.781, 811.122
1041.027, 947.131
1042.274, 843.166
1043.520, 1104.227
1044.766, 1085.313
1046.012, 995.428
1047.257, 967.566
1048.503, 1072.732
1049.748, 1202.232
1050.993, 1381.141
1052.238, 1631.384
1053.483, 1791.652
1054.727, 1980.947
1055.971, 2536.270
1057.216, 3453.754
1058.459, 4134.127
1059.703, 4565.526
1060.947, 4635.951
1062.190, 5012.400
1063.433, 5434.877
1064.676, 6490.379
1065.919, 7599.906
1067.162, 8595.461
1068.404, 9914.348
1069.646, 11182.952
1070.888, 14507.582
1072.130, 19977.238
1073.372, 26697.920
1074.613, 33255.633
1075.855, 34963.359
1077.096, 31692.123
1078.337, 31104.908
1079.578, 37204.719
1080.818, 44406.562
1082.059, 43898.418
1083.299, 34028.297
1084.539, 23825.221
1085.779, 16191.160
1087.018, 11037.126
1088.258, 7455.123
1089.497, 5407.144
1090.736, 3930.191
1091.975, 3047.263
1093.213, 2546.360
1094.452, 1992.484
1095.690, 1920.634
1096.928, 1490.814
1098.166, 1456.027
1099.404, 1330.242
1100.642, 1322.512
1101.879, 968.828
1103.116, 1092.177
1104.353, 777.549
1105.590, 852.953
1106.827, 590.408
1108.063, 721.944
1109.299, 441.504
1110.536, 565.089
1111.771, 437.912
1113.007, 437.569
1114.243, 471.249
1115.478, 534.351
1116.713, 299.094
1117.948, 410.165
1119.183, 259.166
1120.418, 414.493
1121.652, 495.009
1122.886, 504.730
1124.120, 231.555
1125.354, 323.744
1126.588, 269.535
1127.821, 209.360
1129.055, 353.028
1130.288, 121.130
1131.521, 261.622
1132.753, 257.202
1133.986, 214.663
1135.218, 179.061
1136.450, 268.267
1137.682, 74.504
1138.914, 392.480
1140.146, 89.771
1141.377, 109.274
1142.609, 130.620
1143.840, 23.990
1145.071, 127.544
1146.301, 176.955
1147.532, 239.134
1148.762, 138.612
1149.992, 68.193
1151.222, 67.402
1152.452, 59.187
1153.682, 184.717
1154.911, 203.268
1156.140, 304.385
1157.369, 68.113
1158.598, 142.721
1159.827, 137.121
1161.055, 222.692
1162.284, 222.095
1163.512, 144.036
1164.740, 220.214
1165.967, 213.932
1167.195, 169.283
1168.422, 180.865
1169.650, 56.002
1170.877, 135.791
1172.103, 161.596
1173.330, 27.418
1174.557, 93.256
1175.783, 135.113
1177.009, 141.988
1178.235, 172.498
1179.461, 174.787
1180.686, 173.711
1181.912, 164.650
1183.137, 131.607
1184.362, 163.580
1185.587, 165.650
1186.811, 41.578
1188.036, 202.600
1189.260, 155.641
1190.484, 150.695
1191.708, 28.768
1192.932, 129.855
1194.155, 119.959
1195.378, 262.078
1196.602, 14.211
1197.825, 174.359
1199.047, 6.523
1200.270, 126.703
1201.492, 72.900
1202.715, 316.113
1203.937, 104.660
1205.159, 176.551
1206.380, 55.775
1207.602, 159.016
1208.823, 38.271
1210.044, 175.539
1211.265, 237.824
1212.486, 60.125
1213.707, 169.439
1214.927, 14.230
1216.147, 195.109
1217.367, 68.494
1218.587, 180.904
1219.807, 130.328
1221.027, 81.768
1222.246, 179.219
1223.465, 100.688
1224.684, 70.170
1225.903, 172.666
1227.121, 129.180
1228.340, 57.703
1229.558, 235.236
1230.776, 247.781
1231.994, 263.336
1233.212, 22.898
1234.429, 149.469
1235.646, 131.047
1236.864, 22.631
1238.081, 154.223
1239.297, 26.824
1240.514, 155.443
1241.730, 289.076
1242.947, 224.717
1244.163, 296.010
1245.378, 23.010
1246.594, 198.641
1247.810, 128.305
1249.025, 99.027
1250.240, 267.619
1251.455, 20.725
1252.670, 89.928
1253.885, 107.592
1255.099, 100.266
1256.313, 179.152
1257.527, 23.348
1258.741, 186.338
1259.955, 142.033
1261.168, 45.262
1262.382, 91.436
1263.595, 22.869
1264.808, 37.209
1266.021, 13.424
1267.233, 141.053
1268.446, 12.635
1269.658, 124.225
1270.870, 101.881
1272.082, 42.395
1273.294, 76.982
1274.505, 107.555
1275.716, 68.117
1276.928, 123.674
1278.139, 62.764
1279.349, 170.789
1280.560, 4.350
1281.770, 62.914
1282.981, 83.484
1284.191, 23.939
1285.401, 89.639
1286.610, 31.779
1287.820, 65.799
1289.029, 72.381
1290.239, 118.029
1291.448, 57.531
1292.656, 92.902
1293.865, 16.645
1295.073, 27.805
1296.282, 20.256
1297.490, 132.715
1298.698, 58.801
1299.906, 156.318
1301.113, 34.158
1302.320, 14.354
1303.528, 26.869
1304.735, 0.613
1305.942, 3.094
1307.148, 27.426
1308.355, 219.941
1309.561, 65.537
1310.767, 175.969
1311.973, 29.525
1313.179, 190.975
1314.384, 27.523
1315.590, 233.971
1316.795, 157.465
1318.000, 120.963
1319.205, 84.463
1320.410, 159.963
1321.614, 223.467
1322.819, 209.035
1324.023, 285.363
1325.227, 199.994
1326.431, 333.510
1327.634, 290.033
1328.838, 216.561
1330.041, 350.092
1331.244, 460.633
1332.447, 383.180
1333.650, 313.734
1334.852, 370.293
1336.055, 449.178
1337.257, 463.754
1338.459, 536.334
1339.661, 680.920
1340.862, 787.516
1342.064, 945.119
1343.265, 1194.480
1344.466, 1276.359
1345.667, 1546.400
1346.868, 1551.557
1348.068, 2019.203
1349.269, 2241.260
1350.469, 2456.365
1351.669, 2913.043
1352.869, 3050.736
1354.069, 2940.441
1355.268, 3030.309
1356.468, 2546.039
1357.667, 2574.785
1358.866, 2468.082
1360.065, 2213.609
1361.263, 2469.064
1362.462, 2161.566
1363.660, 2272.391
1364.858, 2554.336
1366.056, 2500.145
1367.254, 2507.955
1368.451, 2754.309
1369.649, 2751.387
1370.846, 2556.258
1372.043, 2708.699
1373.240, 2646.916
1374.436, 2565.041
1375.633, 2455.004
1376.829, 2333.771
1378.025, 2356.371
1379.221, 2172.809
1380.417, 2193.109
1381.613, 2058.314
1382.808, 2097.559
1384.003, 2164.809
1385.199, 2128.064
1386.393, 2212.314
1387.588, 1926.354
1388.783, 2078.549
1389.977, 1863.764
1391.171, 1912.982
1392.365, 1533.904
1393.559, 1358.518
1394.753, 1370.281
1395.946, 1046.197
1397.140, 1042.371
1398.333, 775.553
1399.526, 873.742
1400.719, 631.939
1401.911, 791.822
1403.104, 691.713
1404.296, 793.885
1405.488, 771.016
1406.680, 876.537
1407.872, 696.902
1409.063, 1049.848
1410.255, 1326.172
1411.446, 1225.506
1412.637, 1841.346
1413.828, 1958.713
1415.018, 2028.502
1416.209, 2385.072
1417.399, 2236.873
1418.589, 1834.285
1419.779, 2047.725
1420.969, 1597.359
1422.159, 1384.994
1423.348, 997.623
1424.537, 1050.250
1425.726, 789.875
1426.915, 711.496
1428.104, 570.111
1429.293, 534.727
1430.481, 487.332
1431.669, 415.930
1432.857, 414.520
1434.045, 409.105
1435.233, 311.678
1436.420, 321.164
1437.608, 477.828
1438.795, 286.410
1439.982, 341.980
1441.169, 359.537
1442.355, 191.076
1443.542, 310.480
1444.728, 287.840
1445.914, 349.178
1447.100, 324.482
1448.286, 354.762
1449.472, 387.031
1450.657, 165.303
1451.842, 327.588
1453.027, 290.895
1454.212, 104.176
1455.397, 510.422
1456.581, 271.740
1457.766, 252.025
1458.950, 236.320
1460.134, 216.654
1461.318, 250.305
1462.501, 151.229
1463.685, 271.543
1464.868, 255.836
1466.051, 137.258
1467.234, 342.926
1468.417, 91.885
1469.600, 274.939
1470.782, 238.107
1471.965, 368.480
1473.147, 177.918
1474.329, 403.379
1475.510, 325.871
1476.692, 240.395
1477.873, 45.953
1479.055, 241.549
1480.236, 114.186
1481.416, 391.869
1482.597, 204.602
1483.778, 319.393
1484.958, 246.254
1486.138, 200.201
1487.318, 56.240
1488.498, 43.695
1489.678, 200.643
1490.857, 50.025
1492.037, 60.547
1493.216, 233.225
1494.395, 197.074
1495.574, 262.109
1496.752, 118.305
1497.931, 169.656
1499.109, 307.164
1500.287, 74.842
1501.465, 155.660
1502.643, 66.375
1503.820, 1.191
1504.998, 230.244
1506.175, 157.211
1507.352, 220.883
