##NAMES=Weloganite
##RRUFFID=R050217
##IDEAL CHEMISTRY=Na_2_Sr_3_Zr^4+^(C^4+^O_3_)_6_&#183;3H_2_O
##LOCALITY=Francon Quarry, Montréal, Québec, Canada
##OWNER=RRUFF
##SOURCE=Marcus Origlieri
##DESCRIPTION=Tan colored tapered hexagonal single crystals
##STATUS=The identification of this mineral has been confirmed by X-ray diffraction and chemical analysis
##URL=rruff.info/R050217
##MEASURED CHEMISTRY=Na_2.00_(Sr_2.93_Ca_0.07_)_Σ=3_(Zr_0.90_Hf_0.10_)_Σ=1_(CO_3_)_6_·3H_2_O
##PIN_ID=L00260
##ORIENTATION=Laser parallel to a* (1 0 0). Fiducial mark perpendicular to laser is parallel to -c [0 0 -1]
98.947, 0.000
100.340, 7.683
101.732, 2.919
103.124, 123.767
104.516, 136.959
105.908, 246.239
107.300, 452.970
108.691, 500.492
110.082, 423.883
111.473, 129.315
112.864, 31.668
114.254, 42.296
115.644, 254.889
117.034, 453.390
118.424, 833.933
119.813, 1178.832
121.203, 1747.535
122.592, 1851.558
123.981, 1984.472
125.369, 2328.903
126.758, 2374.521
128.146, 2449.030
129.534, 2641.620
130.922, 2715.715
132.309, 2891.455
133.696, 3080.209
135.083, 3223.812
136.470, 3593.122
137.857, 3522.082
139.243, 4021.687
140.630, 4315.902
142.016, 4894.613
143.401, 5461.672
144.787, 6308.980
146.172, 6991.442
147.557, 7652.979
148.942, 8353.519
150.327, 9171.985
151.711, 9632.305
153.096, 9681.411
154.480, 9942.251
155.863, 9820.771
157.247, 9813.934
158.630, 9221.688
160.013, 8606.005
161.396, 7743.844
162.779, 6862.173
164.161, 6256.960
165.544, 5699.170
166.926, 5244.781
168.308, 4776.764
169.689, 4374.991
171.070, 3978.742
172.452, 3647.697
173.833, 3356.209
175.213, 3008.686
176.594, 2805.385
177.974, 2456.152
179.354, 2372.955
180.734, 2271.604
182.114, 1934.838
183.493, 1583.854
184.872, 1528.745
186.251, 1239.712
187.630, 1340.822
189.008, 1309.105
190.387, 1467.477
191.765, 1897.987
193.143, 2166.599
194.520, 2440.350
195.898, 2499.248
197.275, 2820.246
198.652, 2763.313
200.029, 2913.370
201.405, 2943.397
202.782, 2938.393
204.158, 2764.363
205.534, 2898.323
206.909, 2830.288
208.285, 2511.272
209.660, 2621.273
211.035, 2515.300
212.410, 2311.349
213.784, 2308.419
215.159, 2321.506
216.533, 2499.616
217.907, 2733.736
219.281, 2999.865
220.654, 3108.990
222.027, 3282.106
223.400, 3591.215
224.773, 3844.310
226.146, 3735.379
227.518, 3628.426
228.891, 3369.438
230.263, 3170.412
231.634, 3143.355
233.006, 3170.258
234.377, 3098.115
235.748, 3108.916
237.119, 3131.657
238.490, 2875.338
239.860, 2855.959
241.231, 2452.514
242.601, 2171.999
243.970, 1778.413
245.340, 1481.223
246.709, 1359.656
248.079, 1027.475
249.448, 1124.812
250.816, 947.398
252.185, 1077.105
253.553, 1211.596
254.921, 1270.005
256.289, 1692.108
257.657, 2123.995
259.024, 2479.425
260.391, 3014.090
261.758, 3472.353
263.125, 3881.611
264.492, 4122.998
265.858, 4242.785
267.224, 4236.338
268.590, 4117.338
269.956, 3618.800
271.321, 3620.886
272.687, 3328.287
274.052, 3143.681
275.416, 2891.292
276.781, 2736.006
278.146, 2535.660
279.510, 2426.840
280.874, 2153.178
282.237, 1961.824
283.601, 1727.091
284.964, 1473.174
286.327, 1031.485
287.690, 990.560
289.053, 760.437
290.416, 551.316
291.778, 513.458
293.140, 323.673
294.502, 285.670
295.863, 146.331
297.225, 418.712
298.586, 446.084
299.947, 501.068
301.308, 736.752
302.668, 885.354
304.029, 1237.989
305.389, 1605.797
306.749, 1882.410
308.108, 2341.574
309.468, 2827.943
310.827, 3401.196
312.186, 4021.704
313.545, 4458.910
314.903, 5102.019
316.262, 5542.940
317.620, 5771.400
318.978, 6108.720
320.336, 5941.661
321.693, 5766.979
323.051, 5318.299
324.408, 5031.580
325.765, 4265.854
327.121, 4032.971
328.478, 3322.456
329.834, 2861.907
331.190, 2483.787
332.546, 2121.039
333.902, 1798.484
335.257, 1592.993
336.612, 1261.758
337.967, 1092.747
339.322, 894.949
340.677, 907.735
342.031, 887.338
343.385, 815.618
344.739, 971.041
346.093, 1046.326
347.446, 1101.419
348.799, 1291.995
350.153, 1640.689
351.505, 1894.335
352.858, 2148.698
354.210, 2387.385
355.563, 2647.889
356.915, 2889.242
358.267, 3093.856
359.618, 3535.408
360.969, 3521.158
362.321, 3930.666
363.672, 3869.195
365.022, 3847.506
366.373, 3756.928
367.723, 3489.042
369.073, 3267.781
370.423, 2931.099
371.773, 2532.555
373.122, 2143.712
374.471, 1902.370
375.821, 1693.406
377.169, 1248.633
378.518, 1123.948
379.866, 859.578
381.215, 701.315
382.563, 610.928
383.910, 384.341
385.258, 221.925
386.605, 164.059
387.952, 183.092
389.299, 55.023
390.646, 83.852
391.992, 73.426
393.339, 62.770
394.685, 47.307
396.031, 157.972
397.376, 36.640
398.722, 173.243
400.067, 104.840
401.412, 139.495
402.757, 208.097
404.101, 71.194
405.446, 193.350
406.790, 175.370
408.134, 112.459
409.478, 128.068
410.821, 74.097
412.165, 112.600
413.508, 250.251
414.851, 25.851
416.193, 95.269
417.536, 191.250
418.878, 100.916
420.220, 37.774
421.562, 25.734
422.904, 201.853
424.245, 96.307
425.586, 0.578
426.927, 8.885
428.268, 111.430
429.609, 74.100
430.949, 76.092
432.289, 38.769
433.629, 37.769
434.969, 129.763
436.309, 94.389
437.648, 111.829
438.987, 14.184
440.326, 52.828
441.665, 4.657
443.003, 13.597
444.342, 27.644
445.680, 62.197
447.018, 40.275
448.355, 32.200
449.693, 22.606
451.030, 27.820
452.367, 71.706
453.704, 181.290
455.041, 27.952
456.377, 241.117
457.713, 202.459
459.049, 302.642
460.385, 407.702
461.721, 501.710
463.056, 541.456
464.391, 552.396
465.726, 526.587
467.061, 599.620
468.395, 467.538
469.730, 430.458
471.064, 467.131
472.398, 272.146
473.731, 492.775
475.065, 238.068
476.398, 346.221
477.731, 290.373
479.064, 304.619
480.397, 258.562
481.729, 308.410
483.062, 309.890
484.394, 243.233
485.725, 315.438
487.057, 333.506
488.389, 299.459
489.720, 302.284
491.051, 270.979
492.382, 317.571
493.712, 315.024
495.043, 376.368
496.373, 363.578
497.703, 263.653
499.032, 437.609
500.362, 525.438
501.691, 366.142
503.020, 398.737
504.349, 375.219
505.678, 384.565
507.007, 400.760
508.335, 484.886
509.663, 439.863
510.991, 434.711
512.319, 473.435
513.646, 418.031
514.973, 655.495
516.300, 435.842
517.627, 592.057
518.954, 588.152
520.280, 364.122
521.607, 559.955
522.933, 534.677
524.259, 567.273
525.584, 520.757
526.910, 574.112
528.235, 643.343
529.560, 723.452
530.885, 669.444
532.209, 719.416
533.534, 579.068
534.858, 705.708
536.182, 638.229
537.506, 595.627
538.829, 780.903
540.152, 689.061
541.476, 696.099
542.799, 721.019
544.121, 656.821
545.444, 771.504
546.766, 772.069
548.088, 772.770
549.410, 748.435
550.732, 811.310
552.053, 724.299
553.375, 799.798
554.696, 742.723
556.017, 684.620
557.337, 635.520
558.658, 582.790
559.978, 553.431
561.298, 492.845
562.618, 554.933
563.938, 527.962
565.257, 439.995
566.576, 662.828
567.895, 470.290
569.214, 507.454
570.533, 557.694
571.851, 518.213
573.170, 408.794
574.488, 539.165
575.805, 358.898
577.123, 440.324
578.440, 403.148
579.758, 367.671
581.075, 334.688
582.391, 337.395
583.708, 415.478
585.024, 236.400
586.341, 247.485
587.657, 459.521
588.972, 480.248
590.288, 383.410
591.603, 284.684
592.918, 265.256
594.233, 274.357
595.548, 331.687
596.863, 210.469
598.177, 254.918
599.491, 247.080
600.805, 260.945
602.119, 263.722
603.432, 131.069
604.746, 254.803
606.059, 287.370
607.372, 272.346
608.685, 85.620
609.997, 268.975
611.309, 99.150
612.621, 223.307
613.933, 107.729
615.245, 230.519
616.557, 234.614
617.868, 232.732
619.179, 215.246
620.490, 247.968
621.801, 171.942
623.111, 321.777
624.421, 329.415
625.731, 399.215
627.041, 84.430
628.351, 342.392
629.660, 209.455
630.970, 267.176
632.279, 368.136
633.588, 333.135
634.896, 280.251
636.205, 222.762
637.513, 260.565
638.821, 247.207
640.129, 360.624
641.437, 423.961
642.744, 514.010
644.051, 457.215
645.358, 416.632
646.665, 484.505
647.972, 432.019
649.278, 442.170
650.584, 461.924
651.890, 373.904
653.196, 680.026
654.502, 599.960
655.807, 680.502
657.113, 608.755
658.418, 544.367
659.722, 612.943
661.027, 695.441
662.331, 668.001
663.636, 863.577
664.940, 877.371
666.244, 856.379
667.547, 956.135
668.851, 916.389
670.154, 1005.410
671.457, 1069.820
672.760, 1013.322
674.062, 1229.747
675.365, 1183.586
676.667, 1503.539
677.969, 1432.153
679.271, 1624.107
680.572, 1472.666
681.874, 1245.170
683.175, 1280.562
684.476, 1138.124
685.777, 754.925
687.077, 753.622
688.378, 632.429
689.678, 542.396
690.978, 551.339
692.278, 594.150
693.577, 477.301
694.877, 493.087
696.176, 347.688
697.475, 430.244
698.774, 473.785
700.072, 460.388
701.371, 443.679
702.669, 275.282
703.967, 245.848
705.265, 344.376
706.562, 515.869
707.860, 282.328
709.157, 149.716
710.454, 372.159
711.751, 125.592
713.047, 386.887
714.344, 195.982
715.640, 298.932
716.936, 274.803
718.232, 97.483
719.527, 520.522
720.823, 325.482
722.118, 446.174
723.413, 492.793
724.708, 564.764
726.002, 797.964
727.297, 1263.420
728.591, 1208.780
729.885, 1459.824
731.179, 1381.443
732.472, 1408.434
733.766, 1263.764
735.059, 1377.070
736.352, 1344.273
737.645, 1350.375
738.937, 1286.621
740.230, 1131.271
741.522, 872.171
742.814, 1061.187
744.106, 1101.152
745.397, 1310.387
746.689, 1575.052
747.980, 1796.362
749.271, 2115.616
750.562, 2361.018
751.853, 2404.669
753.143, 2135.727
754.433, 2189.200
755.723, 2596.667
757.013, 3109.246
758.303, 4699.881
759.592, 6019.863
760.881, 7899.531
762.170, 8562.347
763.459, 7361.168
764.748, 5367.900
766.036, 3394.357
767.325, 2684.418
768.613, 1621.172
769.901, 1114.441
771.188, 838.309
772.476, 605.200
773.763, 562.085
775.050, 176.896
776.337, 420.842
777.624, 224.467
778.910, 259.718
780.196, 182.998
781.482, 264.268
782.768, 82.406
784.054, 52.663
785.339, 120.448
786.625, 153.484
787.910, 70.730
789.195, 106.059
790.479, 69.097
791.764, 56.986
793.048, 99.045
794.332, 57.063
795.616, 44.316
796.900, 10.429
798.183, 126.825
799.467, 70.919
800.750, 35.698
802.033, 30.493
803.316, 147.881
804.598, 120.242
805.880, 107.631
807.163, 205.446
808.445, 61.525
809.726, 102.391
811.008, 17.349
812.289, 12.685
813.570, 110.280
814.851, 77.296
816.132, 100.656
817.413, 10.614
818.693, 109.422
819.973, 177.494
821.253, 83.416
822.533, 32.657
823.813, 4.740
825.092, 14.179
826.371, 24.033
827.650, 80.345
828.929, 19.049
830.208, 138.875
831.486, 173.804
832.764, 66.255
834.042, 10.663
835.320, 60.390
836.598, 85.538
837.875, 32.476
839.152, 51.421
840.429, 17.628
841.706, 133.323
842.983, 22.282
844.259, 58.751
845.536, 144.203
846.812, 89.164
848.088, 249.135
849.363, 93.115
850.639, 130.104
851.914, 230.102
853.189, 75.109
854.464, 11.127
855.739, 239.154
857.013, 300.191
858.288, 47.238
859.562, 85.295
860.836, 178.361
862.110, 344.438
863.383, 122.334
864.656, 335.434
865.930, 322.275
867.203, 430.396
868.475, 371.527
869.748, 485.674
871.020, 262.834
872.292, 383.688
873.564, 251.875
874.836, 109.074
876.108, 111.289
877.379, 22.514
878.650, 151.750
879.922, 156.000
881.192, 188.275
882.463, 124.561
883.733, 208.859
885.004, 83.168
886.274, 139.490
887.544, 121.826
888.813, 206.174
890.083, 93.535
891.352, 140.908
892.621, 81.295
893.890, 115.693
895.159, 170.104
896.427, 2.471
897.695, 11.037
898.964, 163.402
900.232, 239.855
901.499, 112.318
902.767, 162.797
904.034, 192.287
905.301, 30.211
906.568, 215.295
907.835, 276.816
909.102, 249.346
910.368, 149.889
911.634, 312.445
912.900, 253.014
914.166, 35.404
915.432, 348.178
916.697, 174.771
917.962, 50.619
919.227, 260.986
920.492, 149.605
921.757, 239.236
923.021, 188.883
924.285, 130.539
925.550, 330.207
926.813, 190.885
928.077, 208.576
929.341, 125.279
930.604, 213.992
931.867, 274.715
933.130, 152.459
934.393, 96.217
935.655, 361.986
936.918, 64.730
938.180, 426.523
939.442, 194.328
940.703, 141.141
941.965, 308.963
943.226, 168.801
944.488, 20.645
945.749, 150.504
947.009, 357.375
948.270, 385.252
949.530, 169.375
950.791, 218.277
952.051, 568.041
953.311, 278.898
954.570, 22.930
955.830, 310.084
957.089, 171.039
958.348, 189.654
959.607, 139.633
960.866, 233.625
962.124, 183.691
963.383, 119.762
964.641, 282.807
965.899, 292.576
967.156, 296.465
968.414, 284.623
969.671, 118.781
970.928, 275.795
972.185, 274.992
973.442, 199.205
974.699, 312.857
975.955, 397.852
977.211, 213.141
978.468, 185.354
979.723, 301.668
980.979, 247.219
982.234, 158.596
983.490, 245.314
984.745, 226.074
986.000, 285.408
987.254, 330.986
988.509, 284.447
989.763, 349.926
991.017, 174.445
992.271, 271.531
993.525, 244.090
994.779, 344.662
996.032, 279.201
997.285, 346.855
998.538, 311.525
999.791, 68.242
1001.044, 426.988
1002.296, 33.748
1003.548, 338.525
1004.800, 301.344
1006.052, 300.193
1007.304, 356.053
1008.555, 415.936
1009.807, 402.830
1011.058, 396.738
1012.309, 392.660
1013.559, 507.596
1014.810, 424.545
1016.060, 280.508
1017.310, 437.484
1018.560, 517.477
1019.810, 211.506
1021.060, 441.547
1022.309, 669.609
1023.558, 432.686
1024.807, 463.773
1026.056, 401.879
1027.305, 533.992
1028.553, 501.119
1029.801, 671.258
1031.049, 553.178
1032.297, 382.346
1033.545, 485.523
1034.793, 687.715
1036.040, 673.918
1037.287, 542.135
1038.534, 763.363
1039.781, 607.602
1041.027, 874.854
1042.274, 688.115
1043.520, 800.389
1044.766, 1027.676
1046.012, 892.973
1047.257, 1023.215
1048.503, 937.299
1049.748, 1290.631
1050.993, 1054.975
1052.238, 1643.332
1053.483, 1597.697
1054.727, 1829.074
1055.971, 2179.654
1057.216, 3053.061
1058.459, 3493.473
1059.703, 4018.895
1060.947, 4019.324
1062.190, 4370.770
1063.433, 4882.225
1064.676, 5574.719
1065.919, 6395.191
1067.162, 7340.676
1068.404, 8545.617
1069.646, 9816.121
1070.888, 12102.637
1072.130, 16182.166
1073.372, 21171.707
1074.613, 25886.254
1075.855, 28343.812
1077.096, 27498.387
1078.337, 27793.967
1079.578, 32508.555
1080.818, 37249.156
1082.059, 38324.297
1083.299, 31700.914
1084.539, 24016.545
1085.779, 17018.188
1087.018, 12032.836
1088.258, 8267.494
1089.497, 5901.162
1090.736, 4234.855
1091.975, 3415.541
1093.213, 2588.311
1094.452, 2176.018
1095.690, 1971.732
1096.928, 1396.457
1098.166, 1318.189
1099.404, 1239.934
1100.642, 1230.689
1101.879, 999.473
1103.116, 1099.814
1104.353, 722.213
1105.590, 888.076
1106.827, 617.947
1108.063, 702.854
1109.299, 373.787
1110.536, 589.930
1111.771, 483.479
1113.007, 376.172
1114.243, 468.939
1115.478, 419.182
1116.713, 239.211
1117.948, 310.248
1119.183, 271.289
1120.418, 35.359
1121.652, 241.439
1122.886, 220.139
1124.120, 157.230
1125.354, 308.836
1126.588, 92.939
1127.821, 237.271
1129.055, 55.514
1130.288, 295.637
1131.521, 277.795
1132.753, 160.904
1133.986, 120.945
1135.218, 78.238
1136.450, 310.648
1137.682, 135.877
1138.914, 344.318
1140.146, 11.549
1141.377, 77.398
1142.609, 122.537
1143.840, 26.326
1145.071, 203.018
1146.301, 137.166
1147.532, 199.693
1148.762, 234.719
1149.992, 79.988
1151.222, 170.527
1152.452, 131.355
1153.682, 300.434
1154.911, 20.648
1156.140, 219.254
1157.369, 154.424
1158.598, 71.570
1159.827, 108.715
1161.055, 70.252
1162.284, 114.193
1163.512, 158.334
1164.740, 155.689
1165.967, 364.826
1167.195, 274.527
1168.422, 408.631
1169.650, 185.207
1170.877, 103.332
1172.103, 52.459
1173.330, 173.578
1174.557, 195.697
1175.783, 284.814
1177.009, 259.930
1178.235, 50.588
1179.461, 371.494
1180.686, 37.613
1181.912, 113.852
1183.137, 278.924
1184.362, 272.066
1185.587, 293.922
1186.811, 240.197
1188.036, 237.256
1189.260, 173.312
1190.484, 150.365
1191.708, 204.414
1192.932, 127.762
1194.155, 119.502
1195.378, 94.541
1196.602, 182.580
1197.825, 282.611
1199.047, 77.641
1200.270, 300.662
1201.492, 34.686
1202.715, 440.703
1203.937, 9.723
1205.159, 181.738
1206.380, 292.750
1207.602, 276.758
1208.823, 42.766
1210.044, 147.768
1211.265, 235.770
1212.486, 196.770
1213.707, 305.768
1214.927, 81.768
1216.147, 231.773
1217.367, 170.783
1218.587, 152.793
1219.807, 178.803
1221.027, 69.807
1222.246, 197.807
1223.465, 30.805
1224.684, 217.803
1225.903, 113.787
1227.121, 207.775
1228.340, 29.240
1229.558, 45.900
1230.776, 199.699
1231.994, 101.670
1233.212, 145.639
1234.429, 225.607
1235.646, 232.572
1236.864, 42.535
1238.081, 210.496
1239.297, 30.453
1240.514, 258.373
1241.730, 313.238
1242.947, 153.084
1244.163, 67.928
1245.378, 83.770
1246.594, 215.596
1247.810, 225.387
1249.025, 10.133
1250.240, 303.873
1251.455, 128.600
1252.670, 200.312
1253.885, 166.984
1255.099, 57.635
1256.313, 0.279
1257.527, 69.162
1258.741, 71.031
1259.955, 56.014
1261.168, 30.932
1262.382, 75.373
1263.595, 111.674
1264.808, 257.963
1266.021, 90.242
1267.233, 186.514
1268.446, 4.260
1269.658, 117.939
1270.870, 81.875
1272.082, 144.275
1273.294, 27.410
1274.505, 91.463
1275.716, 107.619
1276.928, 67.691
1278.139, 9.246
1279.349, 163.797
1280.560, 54.016
1281.770, 0.965
1282.981, 2.039
1284.191, 64.973
1285.401, 90.980
1286.610, 25.246
1287.820, 124.672
1289.029, 133.580
1290.239, 191.092
1291.448, 223.738
1292.656, 98.445
1293.865, 42.674
1295.073, 47.066
1296.282, 17.793
1297.490, 87.496
1298.698, 27.826
1299.906, 60.816
1301.113, 4.555
1302.320, 71.053
1303.528, 99.641
1304.735, 191.219
1305.942, 30.781
1307.148, 161.326
1308.355, 178.861
1309.561, 27.383
1310.767, 318.891
1311.973, 70.615
1313.179, 94.848
1314.384, 5.701
1315.590, 179.736
1316.795, 130.168
1318.000, 176.594
1319.205, 82.014
1320.410, 207.426
1321.614, 112.834
1322.819, 16.236
1324.023, 151.869
1325.227, 66.262
1326.431, 36.543
1327.634, 177.037
1328.838, 58.420
1330.041, 163.801
1331.244, 473.176
1332.447, 484.555
1333.650, 417.932
1334.852, 573.311
1336.055, 423.691
1337.257, 438.076
1338.459, 545.467
1339.661, 569.863
1340.862, 756.268
1342.064, 789.680
1343.265, 881.104
1344.466, 994.541
1345.667, 1490.994
1346.868, 1518.461
1348.068, 1946.947
1349.269, 2237.447
1350.469, 2265.977
1351.669, 2707.539
1352.869, 2655.129
1354.069, 2724.826
1355.268, 2753.490
1356.468, 2198.199
1357.667, 2467.959
1358.866, 2368.154
1360.065, 1970.041
1361.263, 2276.031
1362.462, 2078.080
1363.660, 2065.154
1364.858, 2261.650
1366.056, 2295.469
1367.254, 2244.900
1368.451, 2294.320
1369.649, 2274.873
1370.846, 2249.158
1372.043, 2254.871
1373.240, 2213.219
1374.436, 2175.543
1375.633, 2192.789
1376.829, 2009.096
1378.025, 1990.395
1379.221, 1727.680
1380.417, 1955.352
1381.613, 1897.609
1382.808, 1611.836
1384.003, 1851.279
1385.199, 1800.289
1386.393, 1813.551
1387.588, 1569.541
1388.783, 1617.520
1389.977, 1342.553
1391.171, 1602.609
1392.365, 1127.475
1393.559, 1075.199
1394.753, 1182.479
1395.946, 901.533
1397.140, 1039.090
1398.333, 786.111
1399.526, 784.721
1400.719, 523.904
1401.911, 796.285
1403.104, 627.826
1404.296, 656.912
1405.488, 570.852
1406.680, 807.822
1407.872, 791.537
1409.063, 963.506
1410.255, 1297.148
1411.446, 1405.965
1412.637, 1726.641
1413.828, 1701.422
1415.018, 2164.180
1416.209, 2316.348
1417.399, 2314.041
1418.589, 1935.518
1419.779, 2051.113
1420.969, 1472.803
1422.159, 1434.473
1423.348, 1063.117
1424.537, 926.740
1425.726, 957.338
1426.915, 741.908
1428.104, 668.447
1429.293, 508.957
1430.481, 545.432
1431.669, 413.865
1432.857, 465.254
1434.045, 507.592
1435.233, 342.852
1436.420, 617.029
1437.608, 432.152
1438.795, 433.209
1439.982, 480.225
1441.169, 363.154
1442.355, 271.992
1443.542, 300.738
1444.728, 351.387
1445.914, 267.943
1447.100, 416.674
1448.286, 373.514
1449.472, 304.285
1450.657, 208.250
1451.842, 424.266
1453.027, 288.369
1454.212, 295.582
1455.397, 578.303
1456.581, 207.350
1457.766, 364.613
1458.950, 466.893
1460.134, 378.295
1461.318, 506.895
1462.501, 338.539
1463.685, 350.244
1464.868, 541.002
1466.051, 156.818
1467.234, 589.695
1468.417, 57.646
1469.600, 377.682
1470.782, 604.809
1471.965, 604.049
1473.147, 163.422
1474.329, 502.953
1475.510, 373.666
1476.692, 353.600
1477.873, 295.783
1479.055, 354.238
1480.236, 267.982
1481.416, 259.838
1482.597, 383.387
1483.778, 250.021
1484.958, 263.961
1486.138, 376.225
1487.318, 178.852
1488.498, 578.893
1489.678, 250.398
1490.857, 191.438
1492.037, 177.076
1493.216, 541.383
1494.395, 413.430
1495.574, 40.299
1496.752, 390.105
1497.931, 241.012
1499.109, 325.211
1500.287, 28.943
1501.465, 396.510
1502.643, 9.604
1503.820, 295.449
1504.998, 433.639
1506.175, 76.055
1507.352, 0.000
##END=



