##NAMES=Weloganite
##RRUFFID=R050217
##IDEAL CHEMISTRY=Na_2_Sr_3_Zr^4+^(C^4+^O_3_)_6_&#183;3H_2_O
##LOCALITY=Francon Quarry, Montréal, Québec, Canada
##OWNER=RRUFF
##SOURCE=Marcus Origlieri
##DESCRIPTION=Tan colored tapered hexagonal single crystals
##STATUS=The identification of this mineral has been confirmed by X-ray diffraction and chemical analysis
##URL=rruff.info/R050217
##MEASURED CHEMISTRY=Na_2.00_(Sr_2.93_Ca_0.07_)_Σ=3_(Zr_0.90_Hf_0.10_)_Σ=1_(CO_3_)_6_·3H_2_O
##PIN_ID=L00260
##ORIENTATION=Laser parallel to a* (1 0 0). Fiducial mark perpendicular to laser is parallel to -c [0 0 -1]
97.554, 0.000
98.947, 0.445
100.340, 0.077
101.732, 121.809
103.124, 236.580
104.516, 341.578
105.908, 577.007
107.300, 613.659
108.691, 565.232
110.082, 420.127
111.473, 202.387
112.864, 101.256
114.254, 78.866
115.644, 40.472
117.034, 91.029
118.424, 167.294
119.813, 183.037
121.203, 368.011
122.592, 485.007
123.981, 804.846
125.369, 1075.372
126.758, 1120.445
128.146, 1311.944
129.534, 1492.756
130.922, 1756.783
132.309, 1902.933
133.696, 2161.123
135.083, 2399.277
136.470, 2829.327
137.857, 3286.570
139.243, 3815.888
140.630, 4507.312
142.016, 5323.434
143.401, 6218.217
144.787, 6796.625
146.172, 7409.637
147.557, 8200.222
148.942, 8882.349
150.327, 9824.996
151.711, 10192.134
153.096, 10264.744
154.480, 10280.795
155.863, 10102.266
157.247, 9555.130
158.630, 8989.368
160.013, 7919.957
161.396, 6635.875
162.779, 5449.105
164.161, 4523.627
165.544, 3645.426
166.926, 3235.485
168.308, 2798.786
169.689, 2646.317
171.070, 2285.063
172.452, 2073.012
173.833, 1892.150
175.213, 1709.465
176.594, 1579.958
177.974, 1434.467
179.354, 1367.613
180.734, 1192.034
182.114, 1103.459
183.493, 985.978
184.872, 1117.724
186.251, 1103.654
187.630, 1201.776
189.008, 1210.050
190.387, 1339.538
191.765, 1468.293
193.143, 1557.260
194.520, 1737.402
195.898, 1849.689
197.275, 1992.106
198.652, 2044.682
200.029, 2264.401
201.405, 2168.264
202.782, 2218.237
204.158, 2301.322
205.534, 2433.527
206.909, 2551.834
208.285, 2457.239
209.660, 2491.694
211.035, 2519.184
212.410, 2432.714
213.784, 2614.321
215.159, 2586.964
216.533, 2774.641
217.907, 3030.345
219.281, 3226.081
220.654, 3605.837
222.027, 3877.613
223.400, 4307.405
224.773, 4607.208
226.146, 4998.021
227.518, 5196.842
228.891, 5278.670
230.263, 5158.498
231.634, 5194.319
233.006, 5116.133
234.377, 4950.938
235.748, 4819.729
237.119, 4714.511
238.490, 4592.275
239.860, 4452.020
241.231, 4033.746
242.601, 3655.446
243.970, 3358.125
245.340, 3039.777
246.709, 2824.402
248.079, 2454.000
249.448, 2416.571
250.816, 2038.110
252.185, 1833.619
253.553, 1749.186
254.921, 1715.302
256.289, 1706.244
257.657, 1839.626
259.024, 1869.714
260.391, 2130.296
261.758, 2070.463
263.125, 2057.173
264.492, 2117.297
265.858, 1933.428
267.224, 1718.825
268.590, 1571.394
269.956, 1446.271
271.321, 1474.396
272.687, 1401.462
274.052, 1455.273
275.416, 1350.206
276.781, 1687.203
278.146, 1724.817
279.510, 1685.932
280.874, 1703.769
282.237, 1627.941
283.601, 1692.413
284.964, 1492.983
286.327, 1290.546
287.690, 1281.156
289.053, 1143.619
290.416, 966.686
291.778, 915.431
293.140, 821.916
294.502, 761.418
295.863, 689.687
297.225, 634.094
298.586, 596.653
299.947, 653.812
301.308, 714.729
302.668, 777.504
304.029, 1002.073
305.389, 1171.366
306.749, 1443.550
308.108, 1714.403
309.468, 1980.367
310.827, 2239.196
312.186, 2675.810
313.545, 2949.200
314.903, 3377.161
316.262, 3681.607
317.620, 3873.323
318.978, 4141.491
320.336, 4294.182
321.693, 4323.929
323.051, 4220.282
324.408, 4190.386
325.765, 3989.543
327.121, 4073.496
328.478, 3644.935
329.834, 3557.906
331.190, 3545.915
332.546, 3468.872
333.902, 3400.196
335.257, 3353.021
336.612, 3250.662
337.967, 3229.139
339.322, 3159.717
340.677, 3101.508
342.031, 3214.711
343.385, 3307.585
344.739, 3563.271
346.093, 3737.798
347.446, 4144.863
348.799, 4657.247
350.153, 5084.803
351.505, 5797.099
352.858, 6351.782
354.210, 6918.142
355.563, 7455.348
356.915, 8019.025
358.267, 8572.145
359.618, 9181.042
360.969, 9343.090
362.321, 9705.709
363.672, 9705.698
365.022, 9650.179
366.373, 9132.858
367.723, 8673.615
369.073, 7729.959
370.423, 7091.395
371.773, 6236.597
373.122, 5467.130
374.471, 4799.742
375.821, 4267.892
377.169, 3507.750
378.518, 3149.793
379.866, 2526.558
381.215, 2271.522
382.563, 1917.563
383.910, 1629.163
385.258, 1378.003
386.605, 1103.501
387.952, 1014.314
389.299, 762.873
390.646, 794.219
391.992, 591.813
393.339, 493.101
394.685, 382.291
396.031, 350.788
397.376, 349.085
398.722, 257.448
400.067, 213.425
401.412, 257.348
402.757, 188.700
404.101, 164.597
405.446, 125.768
406.790, 80.879
408.134, 0.827
409.478, 94.131
410.821, 102.049
412.165, 16.911
413.508, 22.705
414.851, 9.686
416.193, 23.436
417.536, 21.190
418.878, 64.748
420.220, 17.753
421.562, 60.143
422.904, 128.673
424.245, 60.334
425.586, 16.820
426.927, 69.931
428.268, 0.578
429.609, 106.531
430.949, 103.805
432.289, 71.237
433.629, 48.427
434.969, 101.684
436.309, 34.097
437.648, 77.570
438.987, 34.688
440.326, 18.372
441.665, 87.984
443.003, 110.177
444.342, 95.190
445.680, 45.350
447.018, 89.671
448.355, 8.659
449.693, 50.005
451.030, 40.862
452.367, 17.121
453.704, 26.831
455.041, 7.907
456.377, 49.930
457.713, 2.126
459.049, 18.337
460.385, 6.003
461.721, 20.569
463.056, 18.622
464.391, 42.853
465.726, 34.953
467.061, 40.763
468.395, 103.254
469.730, 90.783
471.064, 114.798
472.398, 2.905
473.731, 85.066
475.065, 22.051
476.398, 48.718
477.731, 42.397
479.064, 109.299
480.397, 82.834
481.729, 156.423
483.062, 104.826
484.394, 124.166
485.725, 70.413
487.057, 20.583
488.389, 106.651
489.720, 141.637
491.051, 81.545
492.382, 145.394
493.712, 110.271
495.043, 178.996
496.373, 102.643
497.703, 112.208
499.032, 192.716
500.362, 167.160
501.691, 130.524
503.020, 156.828
504.349, 178.051
505.678, 196.195
507.007, 141.280
508.335, 214.283
509.663, 189.208
510.991, 226.070
512.319, 170.855
513.646, 207.558
514.973, 231.193
516.300, 167.750
517.627, 239.225
518.954, 285.622
520.280, 242.941
521.607, 338.184
522.933, 242.357
524.259, 355.465
525.584, 300.499
526.910, 273.455
528.235, 363.334
529.560, 333.139
530.885, 379.869
532.209, 291.523
533.534, 263.102
534.858, 364.603
536.182, 424.028
537.506, 370.381
538.829, 426.659
540.152, 368.863
541.476, 339.993
542.799, 458.046
544.121, 367.026
545.444, 464.932
546.766, 351.764
548.088, 401.621
549.410, 462.303
550.732, 370.914
552.053, 432.449
553.375, 451.988
554.696, 359.378
556.017, 395.897
557.337, 368.138
558.658, 455.303
559.978, 449.396
561.298, 334.418
562.618, 431.363
563.938, 353.235
565.257, 355.033
566.576, 381.672
567.895, 282.758
569.214, 362.253
570.533, 362.684
571.851, 365.661
573.170, 307.564
574.488, 368.307
575.805, 308.974
577.123, 251.583
578.440, 245.279
579.758, 301.740
581.075, 303.355
582.391, 286.174
583.708, 308.732
585.024, 276.432
586.341, 231.721
587.657, 284.185
588.972, 325.826
590.288, 328.468
591.603, 240.987
592.918, 126.771
594.233, 231.034
595.548, 220.375
596.863, 340.825
598.177, 210.812
599.491, 182.664
600.805, 273.988
602.119, 188.767
603.432, 184.335
604.746, 191.882
606.059, 235.500
607.372, 212.130
608.685, 225.001
609.997, 289.215
611.309, 210.831
612.621, 154.733
613.933, 132.637
615.245, 165.786
616.557, 142.804
617.868, 219.673
619.179, 172.940
620.490, 198.415
621.801, 110.080
623.111, 229.954
624.421, 206.041
625.731, 259.217
627.041, 127.701
628.351, 173.047
629.660, 225.138
630.970, 272.941
632.279, 306.767
633.588, 280.629
634.896, 290.326
636.205, 201.014
637.513, 311.217
638.821, 234.872
640.129, 353.485
641.437, 267.050
642.744, 375.778
644.051, 265.619
645.358, 388.810
646.665, 423.402
647.972, 319.330
649.278, 323.084
650.584, 242.919
651.890, 335.843
653.196, 310.408
654.502, 369.681
655.807, 354.752
657.113, 332.455
658.418, 360.964
659.722, 488.417
661.027, 359.688
662.331, 350.159
663.636, 352.081
664.940, 540.271
666.244, 328.667
667.547, 459.543
668.851, 454.002
670.154, 436.872
671.457, 572.801
672.760, 502.096
674.062, 776.688
675.365, 940.031
676.667, 1299.239
677.969, 1691.495
679.271, 2172.062
680.572, 2381.010
681.874, 2071.473
683.175, 1798.487
684.476, 1436.490
685.777, 1069.676
687.077, 805.935
688.378, 717.084
689.678, 737.031
690.978, 647.736
692.278, 622.679
693.577, 392.967
694.877, 646.839
696.176, 486.901
697.475, 552.677
698.774, 595.285
700.072, 545.249
701.371, 501.883
702.669, 409.768
703.967, 220.250
705.265, 289.897
706.562, 322.669
707.860, 400.104
709.157, 218.755
710.454, 301.415
711.751, 184.678
713.047, 244.052
714.344, 247.270
715.640, 325.785
716.936, 304.266
718.232, 316.226
719.527, 453.555
720.823, 465.520
722.118, 618.454
723.413, 877.465
724.708, 1203.029
726.002, 1714.893
727.297, 2383.723
728.591, 2611.531
729.885, 2623.564
731.179, 2405.324
732.472, 2131.822
733.766, 2511.004
735.059, 2793.126
736.352, 2952.562
737.645, 2821.016
738.937, 2287.445
740.230, 1978.982
741.522, 1518.386
742.814, 1496.570
744.106, 1623.989
745.397, 1995.625
746.689, 2315.312
747.980, 2777.661
749.271, 3294.982
750.562, 3473.349
751.853, 3491.684
753.143, 3079.553
754.433, 2613.895
755.723, 2691.078
757.013, 2783.734
758.303, 3702.087
759.592, 4790.470
760.881, 6268.910
762.170, 6528.580
763.459, 5554.150
764.748, 3962.806
766.036, 2529.754
767.325, 1969.392
768.613, 1261.790
769.901, 909.047
771.188, 654.529
772.476, 454.927
773.763, 439.666
775.050, 239.218
776.337, 280.900
777.624, 134.150
778.910, 163.005
780.196, 179.760
781.482, 226.737
782.768, 161.154
784.054, 6.175
785.339, 96.683
786.625, 220.759
787.910, 7.167
789.195, 200.901
790.479, 82.038
791.764, 54.676
793.048, 48.664
794.332, 84.495
795.616, 132.413
796.900, 1.297
798.183, 78.176
799.467, 37.966
800.750, 40.879
802.033, 57.713
803.316, 99.420
804.598, 52.334
805.880, 128.031
807.163, 72.628
808.445, 6.725
809.726, 87.096
811.008, 36.527
812.289, 68.037
813.570, 77.439
814.851, 69.027
816.132, 47.486
817.413, 63.063
818.693, 2.338
819.973, 80.729
821.253, 51.888
822.533, 47.455
823.813, 75.788
825.092, 38.884
826.371, 47.413
827.650, 119.700
828.929, 14.985
830.208, 90.261
831.486, 10.529
832.764, 16.210
834.042, 45.887
835.320, 31.321
836.598, 110.522
837.875, 31.719
839.152, 63.907
840.429, 3.090
841.706, 161.266
842.983, 8.437
844.259, 24.604
845.536, 141.766
846.812, 19.924
848.088, 181.075
849.363, 130.223
850.639, 180.364
851.914, 261.546
853.189, 147.682
854.464, 403.812
855.739, 616.940
857.013, 271.064
858.288, 60.087
859.562, 106.207
860.836, 109.323
862.110, 204.438
863.383, 105.472
864.656, 394.581
865.930, 337.485
867.203, 577.593
868.475, 524.699
869.748, 774.804
871.020, 651.907
872.292, 542.011
873.564, 391.114
874.836, 243.219
876.108, 93.323
877.379, 62.429
878.650, 267.536
879.922, 189.646
881.192, 111.757
882.463, 38.131
883.733, 169.972
885.004, 58.074
886.274, 40.182
887.544, 28.707
888.813, 197.399
890.083, 73.510
891.352, 7.623
892.621, 91.739
893.890, 0.141
895.159, 78.983
896.427, 135.111
897.695, 46.244
898.964, 226.380
900.232, 204.520
901.499, 112.663
902.767, 150.814
904.034, 150.972
905.301, 70.133
906.568, 137.296
907.835, 135.464
909.102, 116.638
910.368, 38.815
911.634, 126.997
912.900, 452.188
914.166, 66.385
915.432, 272.587
916.697, 67.792
917.962, 94.001
919.227, 165.235
920.492, 100.473
921.757, 160.721
923.021, 201.974
924.285, 198.231
925.550, 226.496
926.813, 211.764
928.077, 128.035
929.341, 107.311
930.604, 123.545
931.867, 183.831
933.130, 97.120
934.393, 66.413
935.655, 156.711
936.918, 16.373
938.180, 151.518
939.442, 182.830
940.703, 149.504
941.965, 188.823
943.226, 207.844
944.488, 201.147
945.749, 189.315
947.009, 194.798
948.270, 135.139
949.530, 102.519
950.791, 115.688
952.051, 243.659
953.311, 112.693
954.570, 4.165
955.830, 223.058
957.089, 100.200
958.348, 87.689
959.607, 155.943
960.866, 145.113
962.124, 71.282
963.383, 3.314
964.641, 239.035
965.899, 56.994
967.156, 164.425
968.414, 101.781
969.671, 64.782
970.928, 103.914
972.185, 19.457
973.442, 169.281
974.699, 17.719
975.955, 216.290
977.211, 189.081
978.468, 16.591
979.723, 162.266
980.979, 169.679
982.234, 125.376
983.490, 317.805
984.745, 9.680
986.000, 234.011
987.254, 232.625
988.509, 66.418
989.763, 211.069
991.017, 75.873
992.271, 98.440
993.525, 58.273
994.779, 193.485
996.032, 302.198
997.285, 100.081
998.538, 234.831
999.791, 32.736
1001.044, 299.652
1002.296, 5.421
1003.548, 173.516
1004.800, 248.463
1006.052, 107.421
1007.304, 250.390
1008.555, 128.370
1009.807, 262.510
1011.058, 259.512
1012.309, 302.525
1013.559, 365.551
1014.810, 234.587
1016.060, 161.634
1017.310, 306.694
1018.560, 285.766
1019.810, 143.849
1021.060, 284.941
1022.309, 334.046
1023.558, 262.162
1024.807, 358.291
1026.056, 354.431
1027.305, 433.582
1028.553, 373.745
1029.801, 567.920
1031.049, 433.105
1032.297, 288.304
1033.545, 342.015
1034.793, 565.235
1036.040, 454.469
1037.287, 547.713
1038.534, 530.004
1039.781, 579.271
1041.027, 677.553
1042.274, 529.845
1043.520, 638.147
1044.766, 863.440
1046.012, 771.768
1047.257, 741.108
1048.503, 869.460
1049.748, 1051.824
1050.993, 1015.199
1052.238, 1304.589
1053.483, 1524.988
1054.727, 1575.401
1055.971, 2080.826
1057.216, 2929.262
1058.459, 3405.711
1059.703, 3759.172
1060.947, 3999.645
1062.190, 3942.945
1063.433, 4326.826
1064.676, 4895.336
1065.919, 5560.858
1067.162, 5992.392
1068.404, 6902.089
1069.646, 7743.646
1070.888, 9198.099
1072.130, 12104.679
1073.372, 15235.272
1074.613, 18384.881
1075.855, 21358.498
1077.096, 23104.125
1078.337, 27452.766
1079.578, 36811.418
1080.818, 46119.090
1082.059, 49712.762
1083.299, 42386.453
1084.539, 32610.148
1085.779, 23386.859
1087.018, 16289.348
1088.258, 11094.090
1089.497, 7736.848
1090.736, 5717.625
1091.975, 4186.412
1093.213, 3384.240
1094.452, 2678.082
1095.690, 2449.936
1096.928, 1865.830
1098.166, 1752.737
1099.404, 1484.970
1100.642, 1338.906
1101.879, 1059.868
1103.116, 1116.593
1104.353, 892.534
1105.590, 847.564
1106.827, 736.606
1108.063, 759.698
1109.299, 515.801
1110.536, 666.661
1111.771, 563.580
1113.007, 466.302
1114.243, 526.785
1115.478, 528.113
1116.713, 403.510
1117.948, 432.758
1119.183, 503.037
1120.418, 337.328
1121.652, 272.629
1122.886, 348.955
1124.120, 168.293
1125.354, 317.062
1126.588, 180.432
1127.821, 180.811
1129.055, 152.099
1130.288, 280.495
1131.521, 237.903
1132.753, 238.640
1133.986, 194.991
1135.218, 174.846
1136.450, 391.309
1137.682, 63.781
1138.914, 197.262
1140.146, 21.752
1141.377, 122.251
1142.609, 23.243
1143.840, 70.269
1145.071, 23.021
1146.301, 585.759
1147.532, 139.294
1148.762, 206.838
1149.992, 665.389
1151.222, 127.903
1152.452, 294.471
1153.682, 193.045
1154.911, 35.628
1156.140, 112.218
1157.369, 6.185
1158.598, 122.418
1159.827, 179.027
1161.055, 239.646
1162.284, 258.320
1163.512, 163.904
1164.740, 210.544
1165.967, 117.190
1167.195, 20.845
1168.422, 251.506
1169.650, 9.175
1170.877, 172.850
1172.103, 168.533
1173.330, 76.222
1174.557, 102.919
1175.783, 125.621
1177.009, 162.331
1178.235, 93.048
1179.461, 111.771
1180.686, 190.501
1181.912, 125.244
1183.137, 264.996
1184.362, 161.752
1185.587, 112.517
1186.811, 159.293
1188.036, 194.073
1189.260, 111.862
1190.484, 153.656
1191.708, 35.459
1192.932, 200.266
1194.155, 146.080
1195.378, 142.901
1196.602, 93.728
1197.825, 258.561
1199.047, 127.400
1200.270, 200.247
1201.492, 70.100
1202.715, 235.958
1203.937, 29.822
1205.159, 122.694
1206.380, 223.582
1207.602, 168.479
1208.823, 15.620
1210.044, 5.720
1211.265, 116.181
1212.486, 234.088
1213.707, 187.002
1214.927, 93.076
1216.147, 143.807
1217.367, 15.303
1218.587, 145.587
1219.807, 116.482
1221.027, 92.385
1222.246, 91.296
1223.465, 82.972
1224.684, 111.135
1225.903, 92.064
1227.121, 117.001
1228.340, 126.323
1229.558, 75.892
1230.776, 94.853
1231.994, 50.818
1233.212, 9.208
1234.429, 159.764
1235.646, 214.738
1236.864, 81.716
1238.081, 173.693
1239.297, 68.677
1240.514, 190.667
1241.730, 233.663
1242.947, 212.664
1244.163, 122.644
1245.378, 2.630
1246.594, 333.620
1247.810, 184.605
1249.025, 91.459
1250.240, 196.404
1251.455, 113.272
1252.670, 103.144
1253.885, 121.020
1255.099, 43.872
1256.313, 23.271
1257.527, 89.425
1258.741, 102.086
1259.955, 81.410
1261.168, 78.176
1262.382, 9.529
1263.595, 89.235
1264.808, 109.920
1266.021, 102.605
1267.233, 20.294
1268.446, 87.985
1269.658, 157.678
1270.870, 81.629
1272.082, 59.044
1273.294, 46.718
1274.505, 5.606
1275.716, 52.065
1276.928, 134.738
1278.139, 142.586
1279.349, 112.051
1280.560, 14.311
1281.770, 181.322
1282.981, 19.957
1284.191, 24.592
1285.401, 135.228
1286.610, 199.865
1287.820, 91.504
1289.029, 144.559
1290.239, 63.802
1291.448, 156.818
1292.656, 179.439
1293.865, 45.062
1295.073, 93.686
1296.282, 38.309
1297.490, 115.934
1298.698, 158.557
1299.906, 64.182
1301.113, 76.807
1302.320, 156.432
1303.528, 70.910
1304.735, 94.535
1305.942, 115.160
1307.148, 123.785
1308.355, 138.408
1309.561, 148.031
1310.767, 300.652
1311.973, 134.275
1313.179, 232.896
1314.384, 41.518
1315.590, 260.139
1316.795, 175.760
1318.000, 305.381
1319.205, 153.006
1320.410, 367.633
1321.614, 248.262
1322.819, 189.893
1324.023, 264.529
1325.227, 275.170
1326.431, 467.811
1327.634, 493.457
1328.838, 298.109
1330.041, 475.766
1331.244, 472.426
1332.447, 683.090
1333.650, 831.758
1334.852, 702.432
1336.055, 649.111
1337.257, 743.793
1338.459, 802.484
1339.661, 896.180
1340.862, 1026.879
1342.064, 1160.586
1343.265, 1381.389
1344.466, 1526.137
1345.667, 1747.865
1346.868, 2056.602
1348.068, 2475.346
1349.269, 2982.102
1350.469, 3055.594
1351.669, 3366.367
1352.869, 3253.154
1354.069, 3343.137
1355.268, 3276.561
1356.468, 2795.385
1357.667, 2916.314
1358.866, 2636.314
1360.065, 2358.234
1361.263, 2285.330
1362.462, 2224.594
1363.660, 2323.641
1364.858, 2405.664
1366.056, 2427.713
1367.254, 2642.855
1368.451, 2551.846
1369.649, 2727.850
1370.846, 2473.895
1372.043, 2740.773
1373.240, 2590.635
1374.436, 2726.146
1375.633, 2558.957
1376.829, 2304.180
1378.025, 2371.186
1379.221, 2198.592
1380.417, 2361.613
1381.613, 2278.277
1382.808, 2286.445
1384.003, 2296.617
1385.199, 2528.787
1386.393, 2289.641
1387.588, 2225.812
1388.783, 2276.932
1389.977, 2065.055
1391.171, 2149.316
1392.365, 1761.092
1393.559, 1660.748
1394.753, 1626.467
1395.946, 1468.361
1397.140, 1364.256
1398.333, 1245.010
1399.526, 1207.238
1400.719, 1154.652
1401.911, 1197.617
1403.104, 1261.691
1404.296, 1337.402
1405.488, 1419.111
1406.680, 1697.814
1407.872, 2043.084
1409.063, 2324.738
1410.255, 2961.391
1411.446, 3591.041
1412.637, 4453.689
1413.828, 5096.334
1415.018, 5948.982
1416.209, 6261.625
1417.399, 6352.268
1418.589, 5824.906
1419.779, 5300.543
1420.969, 4274.178
1422.159, 3601.809
1423.348, 2967.439
1424.537, 2395.064
1425.726, 1967.689
1426.915, 1655.305
1428.104, 1238.918
1429.293, 1113.527
1430.481, 802.131
1431.669, 866.725
1432.857, 712.314
1434.045, 682.896
1435.233, 589.471
1436.420, 624.035
1437.608, 661.570
1438.795, 566.072
1439.982, 405.580
1441.169, 506.078
1442.355, 388.594
1443.542, 340.137
1444.728, 460.664
1445.914, 200.170
1447.100, 355.652
1448.286, 438.113
1449.472, 378.541
1450.657, 137.930
1451.842, 386.312
1453.027, 335.699
1454.212, 184.066
1455.397, 434.404
1456.581, 188.820
1457.766, 396.223
1458.950, 421.977
1460.134, 244.834
1461.318, 339.746
1462.501, 173.727
1463.685, 169.961
1464.868, 407.227
1466.051, 46.568
1467.234, 391.992
1468.417, 112.439
1469.600, 212.914
1470.782, 274.422
1471.965, 340.957
1473.147, 233.527
1474.329, 244.135
1475.510, 319.783
1476.692, 79.473
1477.873, 31.211
1479.055, 282.998
1480.236, 153.842
1481.416, 244.748
1482.597, 99.723
1483.778, 96.775
1484.958, 19.908
1486.138, 36.133
1487.318, 93.461
1488.498, 281.910
1489.678, 67.488
1490.857, 83.211
1492.037, 43.928
1493.216, 121.064
1494.395, 132.184
1495.574, 117.430
1496.752, 99.811
1497.931, 78.475
1499.109, 51.080
1500.287, 40.877
1501.465, 32.850
1502.643, 35.191
1503.820, 35.686
1504.998, 61.537
1506.175, 76.496
1507.352, 81.359
1508.529, 29.203
1509.706, 63.812
1510.882, 67.355
1512.059, 61.688
1513.235, 179.500
1514.411, 234.814
1515.587, 7.400
