##NAMES=Weloganite
##RRUFFID=R050217
##IDEAL CHEMISTRY=Na_2_Sr_3_Zr^4+^(C^4+^O_3_)_6_&#183;3H_2_O
##LOCALITY=Francon Quarry, Montréal, Québec, Canada
##OWNER=RRUFF
##SOURCE=Marcus Origlieri
##DESCRIPTION=Tan colored tapered hexagonal single crystals
##STATUS=The identification of this mineral has been confirmed by X-ray diffraction and chemical analysis
##URL=rruff.info/R050217
##MEASURED CHEMISTRY=Na_2.00_(Sr_2.93_Ca_0.07_)_Σ=3_(Zr_0.90_Hf_0.10_)_Σ=1_(CO_3_)_6_·3H_2_O
##PIN_ID=L00360
##ORIENTATION=Laser parallel to c* (0 0 1). Fiducial mark perpendicular to laser is parallel to [1 1 0]
94.768, 0.000
96.161, 30.474
97.554, 317.476
98.947, 465.797
100.340, 543.136
101.732, 581.807
103.124, 1005.486
104.516, 1495.086
105.908, 1803.415
107.300, 1816.496
108.691, 1223.887
110.082, 651.706
111.473, 63.461
112.864, 142.052
114.254, 140.184
115.644, 605.382
117.034, 1294.918
118.424, 2039.244
119.813, 2163.884
121.203, 2517.423
122.592, 2618.493
123.981, 2564.767
125.369, 2437.953
126.758, 2325.797
128.146, 2557.066
129.534, 2667.557
130.922, 3166.082
132.309, 3219.479
133.696, 3320.653
135.083, 3176.604
136.470, 3613.309
137.857, 3699.641
139.243, 4255.465
140.630, 4726.658
142.016, 5704.119
143.401, 6393.750
144.787, 7604.490
146.172, 8432.294
147.557, 9487.033
148.942, 9952.641
150.327, 10185.061
151.711, 10207.237
153.096, 10523.116
154.480, 10898.646
155.863, 10799.787
157.247, 10023.494
158.630, 8959.730
160.013, 7814.457
161.396, 7001.641
162.779, 6229.248
164.161, 5964.249
165.544, 5757.613
166.926, 5429.316
168.308, 4686.330
169.689, 4154.734
171.070, 3615.941
172.452, 3289.349
173.833, 2971.176
175.213, 2883.211
176.594, 2877.200
177.974, 2746.708
179.354, 2598.206
180.734, 2187.783
182.114, 1604.471
183.493, 1086.281
184.872, 725.221
186.251, 674.265
187.630, 967.366
189.008, 1264.580
190.387, 1765.872
191.765, 2240.211
193.143, 2478.646
194.520, 2956.482
195.898, 3076.041
197.275, 3171.688
198.652, 3063.398
200.029, 2921.150
201.405, 2798.953
202.782, 2776.801
204.158, 2790.689
205.534, 2624.631
206.909, 2486.162
208.285, 2351.427
209.660, 2050.331
211.035, 1904.228
212.410, 1668.104
213.784, 1801.959
215.159, 1956.786
216.533, 2299.586
217.907, 2584.352
219.281, 2955.074
220.654, 3488.748
222.027, 3832.369
223.400, 4158.939
224.773, 3977.456
226.146, 3503.912
227.518, 3372.306
228.891, 3125.631
230.263, 3055.882
231.634, 3186.055
233.006, 3257.145
234.377, 3336.143
235.748, 3646.046
237.119, 3498.853
238.490, 3446.557
239.860, 2790.156
241.231, 2226.652
242.601, 1937.143
243.970, 1464.499
245.340, 1190.180
246.709, 922.111
248.079, 581.421
249.448, 703.666
250.816, 421.720
252.185, 678.253
253.553, 830.562
254.921, 1183.087
256.289, 1633.458
257.657, 2159.721
259.024, 2596.886
260.391, 3362.718
261.758, 4052.236
263.125, 4567.822
264.492, 4709.994
265.858, 4804.043
267.224, 4484.846
268.590, 4049.868
269.956, 3497.387
271.321, 3414.154
272.687, 3369.628
274.052, 3261.006
275.416, 3020.334
276.781, 2814.255
278.146, 2640.968
279.510, 2232.603
280.874, 1888.273
282.237, 1600.398
283.601, 1253.742
284.964, 867.758
286.327, 670.293
287.690, 437.207
289.053, 216.387
290.416, 52.152
291.778, 133.047
293.140, 62.276
294.502, 29.503
295.863, 48.746
297.225, 12.668
298.586, 228.579
299.947, 395.820
301.308, 690.255
302.668, 930.333
304.029, 1299.832
305.389, 1633.574
306.749, 2127.957
308.108, 2698.659
309.468, 3374.059
310.827, 3987.843
312.186, 4906.078
313.545, 5593.636
314.903, 6442.739
316.262, 6936.134
317.620, 7034.591
318.978, 7272.138
320.336, 6956.163
321.693, 6494.698
323.051, 5916.591
324.408, 5254.323
325.765, 4389.512
327.121, 3841.875
328.478, 3092.244
329.834, 2620.413
331.190, 2230.986
332.546, 1831.897
333.902, 1406.048
335.257, 1132.058
336.612, 921.583
337.967, 760.456
339.322, 687.232
340.677, 655.422
342.031, 628.614
343.385, 667.392
344.739, 864.223
346.093, 805.778
347.446, 912.683
348.799, 1289.651
350.153, 1424.205
351.505, 1778.460
352.858, 1962.526
354.210, 2272.836
355.563, 2583.828
356.915, 3024.725
358.267, 3378.530
359.618, 3776.929
360.969, 4054.506
362.321, 4407.687
363.672, 4514.743
365.022, 4375.421
366.373, 4185.135
367.723, 3673.581
369.073, 3333.815
370.423, 2953.742
371.773, 2600.551
373.122, 2081.207
374.471, 1759.687
375.821, 1658.092
377.169, 1205.244
378.518, 1067.272
379.866, 821.176
381.215, 724.956
382.563, 462.611
383.910, 339.141
385.258, 298.545
386.605, 149.823
387.952, 149.971
389.299, 26.009
390.646, 10.861
391.992, 46.409
393.339, 33.835
394.685, 56.541
396.031, 134.160
397.376, 97.088
398.722, 150.190
400.067, 157.483
401.412, 186.969
402.757, 190.658
404.101, 191.762
405.446, 200.302
406.790, 171.006
408.134, 176.620
409.478, 142.362
410.821, 78.585
412.165, 116.850
413.508, 146.368
414.851, 74.206
416.193, 118.154
417.536, 82.556
418.878, 32.984
420.220, 68.727
421.562, 26.788
422.904, 120.433
424.245, 58.798
425.586, 63.622
426.927, 67.660
428.268, 50.559
429.609, 8.178
430.949, 52.495
432.289, 19.819
433.629, 13.747
434.969, 2.712
436.309, 65.055
437.648, 0.326
438.987, 101.147
440.326, 66.623
441.665, 52.437
443.003, 50.510
444.342, 104.111
445.680, 149.512
447.018, 144.835
448.355, 140.869
449.693, 59.878
451.030, 208.693
452.367, 131.122
453.704, 235.599
455.041, 65.172
456.377, 154.158
457.713, 136.360
459.049, 158.812
460.385, 190.208
461.721, 187.509
463.056, 263.991
464.391, 193.794
465.726, 233.994
467.061, 206.834
468.395, 244.763
469.730, 212.862
471.064, 246.361
472.398, 281.937
473.731, 338.456
475.065, 296.447
476.398, 278.270
477.731, 351.919
479.064, 474.405
480.397, 305.733
481.729, 464.892
483.062, 413.893
484.394, 430.731
485.725, 373.411
487.057, 471.926
488.389, 464.298
489.720, 496.512
491.051, 431.572
492.382, 534.499
493.712, 472.269
495.043, 483.917
496.373, 482.406
497.703, 513.737
499.032, 562.951
500.362, 608.030
501.691, 586.956
503.020, 664.742
504.349, 630.376
505.678, 674.873
507.007, 569.223
508.335, 531.842
509.663, 607.842
510.991, 656.142
512.319, 678.227
513.646, 595.957
514.973, 648.088
516.300, 646.159
517.627, 641.867
518.954, 712.501
520.280, 644.652
521.607, 713.793
522.933, 718.029
524.259, 781.493
525.584, 746.815
526.910, 783.989
528.235, 808.019
529.560, 853.904
530.885, 854.549
532.209, 863.246
533.534, 877.703
534.858, 867.032
536.182, 921.219
537.506, 903.267
538.829, 989.175
540.152, 955.945
541.476, 937.575
542.799, 1060.067
544.121, 964.422
545.444, 1041.638
546.766, 996.247
548.088, 968.668
549.410, 1061.235
550.732, 1067.707
552.053, 1113.206
553.375, 981.105
554.696, 996.191
556.017, 930.021
557.337, 934.797
558.658, 897.862
559.978, 911.097
561.298, 848.111
562.618, 854.529
563.938, 825.517
565.257, 819.612
566.576, 806.195
567.895, 713.082
569.214, 780.778
570.533, 663.147
571.851, 628.791
573.170, 606.263
574.488, 545.692
575.805, 568.584
577.123, 492.153
578.440, 490.541
579.758, 491.401
581.075, 587.614
582.391, 456.677
583.708, 510.334
585.024, 503.421
586.341, 408.992
587.657, 436.373
588.972, 484.181
590.288, 424.931
591.603, 345.911
592.918, 383.591
594.233, 390.720
595.548, 379.205
596.863, 356.007
598.177, 312.453
599.491, 421.304
600.805, 307.283
602.119, 366.945
603.432, 367.612
604.746, 342.487
606.059, 367.027
607.372, 327.250
608.685, 318.393
609.997, 368.697
611.309, 309.034
612.621, 287.597
613.933, 328.053
615.245, 322.526
616.557, 358.313
617.868, 323.575
619.179, 388.468
620.490, 360.123
621.801, 329.082
623.111, 435.559
624.421, 300.727
625.731, 326.181
627.041, 313.238
628.351, 464.513
629.660, 345.316
630.970, 314.579
632.279, 495.419
633.588, 409.616
634.896, 503.417
636.205, 440.061
637.513, 478.497
638.821, 439.342
640.129, 427.562
641.437, 518.306
642.744, 605.206
644.051, 591.665
645.358, 554.138
646.665, 610.915
647.972, 609.496
649.278, 626.436
650.584, 675.283
651.890, 605.529
653.196, 724.008
654.502, 589.388
655.807, 744.672
657.113, 678.044
658.418, 813.736
659.722, 958.877
661.027, 916.658
662.331, 974.808
663.636, 1018.680
664.940, 1061.564
666.244, 1106.052
667.547, 1162.897
668.851, 1210.785
670.154, 1271.131
671.457, 1358.278
672.760, 1396.482
674.062, 1498.499
675.365, 1581.434
676.667, 1808.600
677.969, 1948.422
679.271, 1965.842
680.572, 1798.848
681.874, 1432.969
683.175, 1176.978
684.476, 1043.085
685.777, 917.236
687.077, 807.525
688.378, 629.763
689.678, 653.981
690.978, 566.885
692.278, 566.017
693.577, 390.232
694.877, 678.402
696.176, 479.528
697.475, 655.608
698.774, 514.646
700.072, 603.638
701.371, 544.587
702.669, 569.496
703.967, 552.695
705.265, 402.196
706.562, 480.008
707.860, 419.794
709.157, 352.569
710.454, 350.334
711.751, 261.094
713.047, 344.872
714.344, 315.660
715.640, 364.474
716.936, 412.470
718.232, 308.199
719.527, 471.121
720.823, 507.087
722.118, 451.099
723.413, 656.152
724.708, 855.077
726.002, 1234.210
727.297, 1284.219
728.591, 1604.890
729.885, 1440.707
731.179, 1339.338
732.472, 1326.156
733.766, 1539.729
735.059, 1786.348
736.352, 1674.043
737.645, 1596.194
738.937, 1315.899
740.230, 1063.902
741.522, 924.955
742.814, 1021.692
744.106, 1151.620
745.397, 1640.795
746.689, 1976.802
747.980, 2352.521
749.271, 2775.464
750.562, 2705.268
751.853, 2643.281
753.143, 2239.260
754.433, 2149.080
755.723, 2609.391
757.013, 3436.267
758.303, 5715.438
759.592, 8519.643
760.881, 11019.761
762.170, 10312.001
763.459, 7399.100
764.748, 4417.327
766.036, 2658.729
767.325, 1847.844
768.613, 1255.882
769.901, 964.142
771.188, 729.407
772.476, 551.857
773.763, 537.191
775.050, 300.821
776.337, 328.361
777.624, 257.785
778.910, 261.644
780.196, 160.999
781.482, 183.490
782.768, 122.948
784.054, 115.838
785.339, 119.485
786.625, 150.024
787.910, 103.312
789.195, 100.844
790.479, 41.765
791.764, 67.689
793.048, 79.614
794.332, 36.549
795.616, 122.484
796.900, 4.424
798.183, 145.365
799.467, 64.686
800.750, 74.231
802.033, 11.849
803.316, 110.932
804.598, 67.933
805.880, 146.199
807.163, 67.599
808.445, 12.403
809.726, 164.786
811.008, 85.056
812.289, 4.639
813.570, 66.663
814.851, 34.010
816.132, 67.314
817.413, 25.663
818.693, 17.020
819.973, 21.622
821.253, 58.725
822.533, 74.092
823.813, 75.515
825.092, 64.872
826.371, 46.278
827.650, 10.305
828.929, 63.104
830.208, 105.471
831.486, 89.056
832.764, 88.351
834.042, 60.215
835.320, 25.210
836.598, 15.365
837.875, 78.950
839.152, 61.545
840.429, 13.150
841.706, 111.765
842.983, 59.388
844.259, 63.975
845.536, 117.647
846.812, 47.280
848.088, 34.924
849.363, 75.579
850.639, 135.243
851.914, 166.919
853.189, 103.606
854.464, 129.497
855.739, 53.019
857.013, 92.744
858.288, 62.482
859.562, 47.232
860.836, 79.996
862.110, 79.775
863.383, 144.566
864.656, 290.371
865.930, 344.190
867.203, 377.024
868.475, 422.872
869.748, 335.734
871.020, 193.609
872.292, 196.499
873.564, 143.402
874.836, 98.319
876.108, 86.251
877.379, 101.195
878.650, 108.155
879.922, 45.129
881.192, 77.120
882.463, 32.128
883.733, 22.561
885.004, 33.188
886.274, 31.243
887.544, 46.312
888.813, 121.399
890.083, 62.501
891.352, 100.618
892.621, 160.750
893.890, 46.896
895.159, 78.060
896.427, 48.238
897.695, 59.436
898.964, 135.647
900.232, 175.875
901.499, 47.118
902.767, 32.621
904.034, 70.646
905.301, 71.932
906.568, 145.230
907.835, 147.547
909.102, 176.878
910.368, 69.227
911.634, 70.589
912.900, 143.969
914.166, 34.362
915.432, 202.772
916.697, 7.802
917.962, 4.361
919.227, 132.094
920.492, 124.565
921.757, 135.054
923.021, 127.559
924.285, 109.269
925.550, 132.614
926.813, 76.165
928.077, 151.731
929.341, 169.312
930.604, 214.910
931.867, 179.521
933.130, 161.162
934.393, 139.819
935.655, 181.081
936.918, 122.180
938.180, 252.883
939.442, 242.603
940.703, 198.336
941.965, 152.085
943.226, 211.838
944.488, 169.995
945.749, 161.408
947.009, 119.217
948.270, 191.039
949.530, 180.051
950.791, 152.612
952.051, 225.667
953.311, 234.549
954.570, 260.024
955.830, 267.043
957.089, 258.990
958.348, 124.184
959.607, 153.162
960.866, 134.160
962.124, 172.340
963.383, 101.578
964.641, 228.626
965.899, 178.083
967.156, 260.168
968.414, 249.687
969.671, 81.617
970.928, 112.039
972.185, 205.198
973.442, 222.425
974.699, 42.805
975.955, 175.022
977.211, 93.061
978.468, 44.219
979.723, 188.522
980.979, 202.056
982.234, 106.407
983.490, 397.778
984.745, 66.814
986.000, 174.242
987.254, 278.784
988.509, 109.253
989.763, 355.743
991.017, 152.265
992.271, 204.806
993.525, 165.372
994.779, 210.669
996.032, 236.602
997.285, 204.248
998.538, 256.915
999.791, 229.754
1001.044, 223.978
1002.296, 197.152
1003.548, 230.947
1004.800, 214.795
1006.052, 294.663
1007.304, 265.553
1008.555, 307.470
1009.807, 367.407
1011.058, 251.366
1012.309, 334.346
1013.559, 270.366
1014.810, 312.415
1016.060, 246.485
1017.310, 328.582
1018.560, 335.699
1019.810, 322.845
1021.060, 346.682
1022.309, 410.218
1023.558, 309.445
1024.807, 363.692
1026.056, 297.961
1027.305, 408.251
1028.553, 360.562
1029.801, 443.894
1031.049, 517.239
1032.297, 460.613
1033.545, 535.009
1034.793, 569.426
1036.040, 496.862
1037.287, 658.321
1038.534, 616.801
1039.781, 696.302
1041.027, 767.822
1042.274, 634.365
1043.520, 831.929
1044.766, 940.514
1046.012, 894.118
1047.257, 868.383
1048.503, 905.030
1049.748, 1203.698
1050.993, 1149.387
1052.238, 1450.096
1053.483, 1604.052
1054.727, 1787.804
1055.971, 2247.574
1057.216, 3261.366
1058.459, 3903.179
1059.703, 4443.014
1060.947, 4365.869
1062.190, 4632.743
1063.433, 5200.640
1064.676, 6234.557
1065.919, 7308.492
1067.162, 8246.336
1068.404, 9598.247
1069.646, 10814.245
1070.888, 13951.267
1072.130, 19447.305
1073.372, 25876.369
1074.613, 32098.449
1075.855, 33645.555
1077.096, 30442.680
1078.337, 29732.818
1079.578, 35412.984
1080.818, 42871.168
1082.059, 42501.297
1083.299, 32663.521
1084.539, 22516.766
1085.779, 15038.299
1087.018, 10085.587
1088.258, 6927.893
1089.497, 5037.220
1090.736, 3595.566
1091.975, 2801.933
1093.213, 2306.320
1094.452, 1907.729
1095.690, 1854.155
1096.928, 1483.793
1098.166, 1255.070
1099.404, 1062.558
1100.642, 1052.066
1101.879, 841.612
1103.116, 831.131
1104.353, 685.721
1105.590, 670.358
1106.827, 515.017
1108.063, 579.732
1109.299, 414.467
1110.536, 484.222
1111.771, 458.038
1113.007, 322.894
1114.243, 368.770
1115.478, 358.683
1116.713, 339.612
1117.948, 334.577
1119.183, 307.567
1120.418, 277.221
1121.652, 272.612
1122.886, 236.675
1124.120, 207.772
1125.354, 262.235
1126.588, 86.189
1127.821, 223.279
1129.055, 19.527
1130.288, 281.349
1131.521, 201.588
1132.753, 211.569
1133.986, 99.861
1135.218, 46.172
1136.450, 301.502
1137.682, 8.850
1138.914, 242.425
1140.146, 73.806
1141.377, 99.020
1142.609, 40.567
1143.840, 102.854
1145.071, 66.209
1146.301, 230.676
1147.532, 184.570
1148.762, 22.585
1149.992, 70.270
1151.222, 68.798
1152.452, 65.545
1153.682, 78.004
1154.911, 39.675
1156.140, 64.516
1157.369, 61.115
1158.598, 42.730
1159.827, 109.359
1161.055, 105.331
1162.284, 117.731
1163.512, 91.403
1164.740, 42.908
1165.967, 161.606
1167.195, 30.173
1168.422, 277.897
1169.650, 215.467
1170.877, 97.218
1172.103, 20.980
1173.330, 56.757
1174.557, 60.546
1175.783, 98.350
1177.009, 150.165
1178.235, 35.006
1179.461, 50.825
1180.686, 41.670
1181.912, 73.523
1183.137, 120.392
1184.362, 144.271
1185.587, 109.163
1186.811, 5.066
1188.036, 169.982
1189.260, 74.910
1190.484, 40.849
1191.708, 186.799
1192.932, 198.762
1194.155, 22.265
1195.378, 123.715
1196.602, 93.706
1197.825, 190.708
1199.047, 109.722
1200.270, 126.746
1201.492, 130.786
1202.715, 114.657
1203.937, 137.971
1205.159, 112.974
1206.380, 130.062
1207.602, 94.159
1208.823, 9.269
1210.044, 155.389
1211.265, 173.519
1212.486, 99.660
1213.707, 155.812
1214.927, 6.977
1216.147, 90.152
1217.367, 111.357
1218.587, 214.575
1219.807, 183.015
1221.027, 145.045
1222.246, 112.302
1223.465, 128.568
1224.684, 67.847
1225.903, 176.134
1227.121, 141.428
1228.340, 61.270
1229.558, 100.014
1230.776, 31.301
1231.994, 4.408
1233.212, 52.890
1234.429, 136.199
1235.646, 62.521
1236.864, 71.853
1238.081, 196.194
1239.297, 41.549
1240.514, 228.912
1241.730, 247.269
1242.947, 94.635
1244.163, 37.012
1245.378, 78.399
1246.594, 145.797
1247.810, 126.204
1249.025, 72.378
1250.240, 193.031
1251.455, 37.452
1252.670, 50.858
1253.885, 150.266
1255.099, 147.673
1256.313, 172.219
1257.527, 147.714
1258.741, 163.874
1259.955, 76.276
1261.168, 20.688
1262.382, 51.087
1263.595, 50.447
1264.808, 101.803
1266.021, 92.064
1267.233, 67.444
1268.446, 63.770
1269.658, 33.076
1270.870, 35.623
1272.082, 25.334
1273.294, 26.999
1274.505, 74.188
1275.716, 21.770
1276.928, 24.478
1278.139, 59.270
1279.349, 63.971
1280.560, 31.215
1281.770, 143.464
1282.981, 59.716
1284.191, 30.029
1285.401, 27.221
1286.610, 3.525
1287.820, 101.727
1289.029, 89.272
1290.239, 59.470
1291.448, 94.775
1292.656, 115.978
1293.865, 3.240
1295.073, 27.542
1296.282, 43.668
1297.490, 111.118
1298.698, 90.065
1299.906, 142.251
1301.113, 9.562
1302.320, 97.620
1303.528, 106.805
1304.735, 155.991
1305.942, 62.824
1307.148, 17.655
1308.355, 132.507
1309.561, 0.330
1310.767, 102.829
1311.973, 19.012
1313.179, 113.140
1314.384, 52.709
1315.590, 194.425
1316.795, 84.562
1318.000, 154.696
1319.205, 64.833
1320.410, 140.415
1321.614, 252.555
1322.819, 40.698
1324.023, 320.854
1325.227, 208.005
1326.431, 323.160
1327.634, 282.321
1328.838, 129.486
1330.041, 250.658
1331.244, 320.889
1332.447, 440.070
1333.650, 359.259
1334.852, 374.451
1336.055, 506.649
1337.257, 443.854
1338.459, 554.275
1339.661, 636.854
1340.862, 743.079
1342.064, 806.312
1343.265, 823.552
1344.466, 1077.802
1345.667, 1345.060
1346.868, 1433.327
1348.068, 1956.782
1349.269, 2068.062
1350.469, 2386.920
1351.669, 2900.223
1352.869, 2910.539
1354.069, 2881.863
1355.268, 2846.206
1356.468, 2424.562
1357.667, 2427.927
1358.866, 2420.310
1360.065, 2188.793
1361.263, 2358.594
1362.462, 2176.705
1363.660, 2315.132
1364.858, 2386.580
1366.056, 2357.386
1367.254, 2482.881
1368.451, 2565.397
1369.649, 2668.562
1370.846, 2544.570
1372.043, 2673.415
1373.240, 2505.945
1374.436, 2381.100
1375.633, 2478.988
1376.829, 2286.506
1378.025, 2180.295
1379.221, 2133.088
1380.417, 2077.883
1381.613, 2160.684
1382.808, 2050.488
1384.003, 2033.297
1385.199, 2144.871
1386.393, 1983.648
1387.588, 1947.428
1388.783, 1966.209
1389.977, 1751.996
1391.171, 1791.785
1392.365, 1401.580
1393.559, 1367.381
1394.753, 1209.186
1395.946, 1014.154
1397.140, 1006.672
1398.333, 752.465
1399.526, 858.732
1400.719, 654.439
1401.911, 679.438
1403.104, 748.113
1404.296, 631.799
1405.488, 661.559
1406.680, 848.072
1407.872, 748.809
1409.063, 898.918
1410.255, 1129.680
1411.446, 1268.078
1412.637, 1695.633
1413.828, 1722.586
1415.018, 2080.756
1416.209, 2167.453
1417.399, 2179.297
1418.589, 1795.488
1419.779, 1917.676
1420.969, 1359.855
1422.159, 1375.049
1423.348, 1037.234
1424.537, 843.418
1425.726, 829.594
1426.915, 742.764
1428.104, 541.932
1429.293, 531.094
1430.481, 562.252
1431.669, 322.404
1432.857, 488.545
1434.045, 446.678
1435.233, 359.789
1436.420, 479.889
1437.608, 377.977
1438.795, 259.049
1439.982, 325.070
1441.169, 347.023
1442.355, 271.945
1443.542, 212.830
1444.728, 194.045
1445.914, 117.586
1447.100, 164.514
1448.286, 233.428
1449.472, 327.303
1450.657, 164.135
1451.842, 387.965
1453.027, 315.793
1454.212, 284.574
1455.397, 593.311
1456.581, 234.998
1457.766, 310.760
1458.950, 342.586
1460.134, 249.447
1461.318, 260.320
1462.501, 0.627
1463.685, 207.684
1464.868, 292.131
1466.051, 119.742
1467.234, 433.455
1468.417, 257.352
1469.600, 112.273
1470.782, 308.221
1471.965, 231.197
1473.147, 71.207
1474.329, 216.252
1475.510, 153.336
1476.692, 198.461
1477.873, 202.637
1479.055, 246.865
1480.236, 47.164
1481.416, 201.541
1482.597, 132.004
1483.778, 277.564
1484.958, 212.234
1486.138, 204.029
1487.318, 165.971
1488.498, 138.023
1489.678, 76.352
1490.857, 143.441
1492.037, 28.945
1493.216, 137.594
1494.395, 253.389
1495.574, 306.996
1496.752, 333.578
1497.931, 324.248
1499.109, 313.373
1500.287, 177.057
1501.465, 138.996
1502.643, 38.789
1503.820, 57.869
1504.998, 258.279
1506.175, 237.834
1507.352, 33.678
1508.529, 236.865
1509.706, 244.898
1510.882, 110.658
1512.059, 147.600
1513.235, 46.908
1514.411, 102.795
