##NAMES=Whewellite
##RRUFFID=R050240
##IDEAL CHEMISTRY=Ca(C_2_)^6+^O_4_&#183;H_2_O
##LOCALITY=Huron River, Milan, Ohio, USA
##OWNER=RRUFF
##SOURCE=Marcus Origlieri
##DESCRIPTION=White fragment
##STATUS=The identification of this mineral has been confirmed by X-ray diffraction and chemical analysis
##URL=rruff.info/R050240
##MEASURED CHEMISTRY=Ca_1.00_C_2_O_4_Â·H_2_O
##PIN_ID=L00839
##ORIENTATION=Laser parallel to c* (0 0 1). Fiducial mark perpendicular to laser is parallel to a [1 0 0]
107.0470, 0.0000000E+00
108.2800, 177.6201
109.5120, 76.76562
110.7440, 112.1279
111.9760, 7.918945
113.2080, 38.74707
114.4400, 130.4424
115.6710, 299.2246
116.9030, 391.6553
118.1340, 507.0039
119.3650, 506.6943
120.5960, 670.2656
121.8270, 1004.346
123.0580, 1177.634
124.2880, 1480.883
125.5190, 1750.887
126.7490, 2187.469
127.9790, 2572.188
129.2090, 2980.750
130.4390, 3515.188
131.6680, 3999.676
132.8980, 4568.125
134.1270, 5067.458
135.3560, 5565.615
136.5850, 5837.541
137.8140, 6289.178
139.0430, 6318.493
140.2710, 6388.445
141.5000, 5978.990
142.7280, 5316.096
143.9560, 4756.730
145.1840, 3953.849
146.4120, 3417.407
147.6390, 2736.368
148.8670, 2176.702
150.0940, 1946.382
151.3210, 1604.385
152.5490, 1372.691
153.7750, 958.2881
155.0020, 854.1562
156.2290, 687.2852
157.4550, 629.6621
158.6810, 564.2803
159.9080, 712.1377
161.1340, 530.3506
162.3590, 411.7686
163.5850, 576.3838
164.8110, 486.2549
166.0360, 309.3691
167.2610, 411.6367
168.4860, 406.1611
169.7110, 490.0254
170.9360, 574.0938
172.1610, 633.2725
173.3850, 713.6182
174.6100, 691.1289
175.8340, 675.8203
177.0580, 821.6758
178.2820, 859.7666
179.5050, 1039.898
180.7290, 1156.223
181.9520, 1458.475
183.1760, 1721.706
184.3990, 1983.977
185.6220, 2505.279
186.8450, 2968.583
188.0670, 3433.947
189.2900, 3962.324
190.5120, 4617.733
191.7340, 5140.189
192.9560, 5344.688
194.1780, 5557.221
195.4000, 5368.801
196.6220, 4998.441
197.8430, 4854.158
199.0640, 4664.949
200.2860, 4630.793
201.5070, 4624.686
202.7270, 4550.633
203.9480, 4516.659
205.1690, 4495.702
206.3890, 4401.798
207.6090, 4091.943
208.8290, 3995.130
210.0490, 3867.872
211.2690, 3452.208
212.4890, 3296.977
213.7080, 2968.980
214.9280, 2814.392
216.1470, 2970.842
217.3660, 2818.168
218.5850, 2953.689
219.8030, 3158.253
221.0220, 3349.853
222.2400, 3332.426
223.4590, 3048.028
224.6770, 2803.666
225.8950, 2277.342
227.1120, 2007.053
228.3300, 1775.058
229.5480, 1548.445
230.7650, 1263.180
231.9820, 1370.883
233.1990, 1110.713
234.4160, 1205.443
235.6330, 1172.206
236.8490, 1220.000
238.0660, 1275.810
239.2820, 1311.636
240.4980, 1448.869
241.7140, 1514.724
242.9300, 1715.659
244.1460, 1813.128
245.3610, 1851.578
246.5770, 2226.465
247.7920, 2331.995
249.0070, 2122.354
250.2220, 2135.233
251.4370, 1973.682
252.6510, 1651.582
253.8660, 1498.188
255.0800, 1136.626
256.2940, 1072.242
257.5080, 1109.034
258.7220, 710.8535
259.9360, 733.3984
261.1490, 498.3174
262.3630, 551.0801
263.5760, 476.0547
264.7890, 462.2100
266.0020, 389.9629
267.2150, 469.4238
268.4270, 495.0566
269.6400, 351.8232
270.8520, 400.7139
272.0640, 335.7207
273.2760, 349.9229
274.4880, 350.1387
275.7000, 360.6484
276.9120, 271.0488
278.1230, 289.3438
279.3340, 261.0986
280.5450, 255.7383
281.7560, 336.4502
282.9670, 317.4170
284.1780, 266.2607
285.3880, 306.5508
286.5980, 262.1943
287.8090, 248.6309
289.0190, 236.7021
290.2290, 66.71289
291.4380, 65.88086
292.6480, 63.09473
293.8570, 191.7012
295.0670, 357.9990
296.2760, 169.3369
297.4850, 150.3574
298.6930, 166.7695
299.9020, 45.25488
301.1110, 3.737305
302.3190, 94.27734
303.5270, 6.823242
304.7350, 48.52051
305.9430, 191.0059
307.1510, 61.64062
308.3580, 35.29980
309.5660, 7.984375
310.7730, 18.57324
311.9800, 6.841797
313.1870, 63.91016
314.3940, 74.67285
315.6010, 18.53418
316.8070, 83.27539
318.0130, 113.8984
319.2200, 79.92773
320.4260, 76.77051
321.6310, 51.62695
322.8370, 155.4971
324.0430, 8.381836
325.2480, 165.2803
326.4540, 29.81055
327.6590, 52.10840
328.8640, 88.04004
330.0680, 26.98438
331.2730, 157.9414
332.4780, 111.9102
333.6820, 165.8916
334.8860, 45.11621
336.0900, 102.1182
337.2940, 47.87305
338.4980, 77.87598
339.7010, 222.8887
340.9050, 84.91309
342.1080, 164.9473
343.3110, 125.9912
344.5140, 95.04590
345.7170, 84.10938
346.9200, 8.817383
348.1220, 20.26270
349.3240, 133.6426
350.5270, 43.56738
351.7290, 92.49121
352.9310, 57.57227
354.1320, 25.64258
355.3340, 4.717773
356.5350, 112.8008
357.7370, 75.11328
358.9380, 139.9395
360.1390, 3.997070
361.3400, 74.06055
362.5400, 106.1270
363.7410, 132.1973
364.9410, 33.27441
366.1410, 53.64453
367.3410, 53.39844
368.5410, 24.44727
369.7410, 96.50000
370.9400, 204.5576
372.1400, 57.37988
373.3390, 66.67090
374.5380, 197.6836
375.7370, 15.32129
376.9360, 46.67285
378.1350, 26.34570
379.3330, 80.36914
380.5310, 4.405273
381.7300, 86.56055
382.9280, 18.51660
384.1260, 72.47656
385.3230, 140.5752
386.5210, 33.33984
387.7180, 0.2539060
388.9160, 140.1377
390.1130, 152.0225
391.3100, 57.91113
392.5060, 206.7666
393.7030, 35.37793
394.9000, 128.4688
396.0960, 66.30762
397.2920, 30.84961
398.4880, 23.00391
399.6840, 98.84375
400.8800, 15.32715
402.0750, 56.78711
403.2710, 0.9169920
404.4660, 97.03320
405.6610, 175.8096
406.8560, 25.66602
408.0510, 172.5352
409.2450, 11.41602
410.4400, 35.69727
411.6340, 170.2100
412.8280, 82.10449
414.0220, 40.00684
415.2160, 90.96094
416.4100, 0.8789060
417.6030, 168.7920
418.7970, 0.2539060
419.9900, 105.6934
421.1830, 232.6670
422.3760, 45.65527
423.5690, 50.66797
424.7610, 119.7129
425.9540, 2.760742
427.1460, 100.8145
428.3380, 7.885742
429.5300, 35.95020
430.7220, 33.97070
431.9140, 123.0791
433.1050, 12.13086
434.2970, 99.17578
435.4880, 212.2217
436.6790, 29.26953
437.8700, 125.3135
439.0610, 169.3584
440.2510, 0.4023440
441.4420, 94.43164
442.6320, 48.46191
443.8220, 165.4902
445.0120, 51.52930
446.2020, 128.5732
447.3910, 202.6162
448.5810, 86.66016
449.7700, 165.7021
450.9600, 219.7422
452.1490, 150.7822
453.3370, 30.18066
454.5260, 84.57422
455.7150, 145.4980
456.9030, 16.50293
458.0910, 148.4658
459.2800, 126.1650
460.4670, 228.1299
461.6550, 150.0146
462.8430, 183.9746
464.0300, 99.93555
465.2180, 230.8926
466.4050, 144.8477
467.5920, 111.8213
468.7790, 173.7930
469.9650, 166.1299
471.1520, 125.1133
472.3380, 150.0947
473.5250, 165.0732
474.7110, 149.0479
475.8970, 258.0195
477.0820, 239.9883
478.2680, 163.6172
479.4540, 284.4277
480.6390, 183.3867
481.8240, 207.3398
483.0090, 188.2910
484.1940, 322.2383
485.3780, 287.1816
486.5630, 321.1230
487.7470, 452.0586
488.9320, 208.9922
490.1160, 409.7051
491.3000, 218.9941
492.4830, 531.5020
493.6670, 673.7559
494.8500, 901.4082
496.0340, 863.3184
497.2170, 1076.225
498.4000, 1202.127
499.5820, 1350.025
500.7650, 1369.371
501.9480, 1483.262
503.1300, 1425.150
504.3120, 1398.031
505.4940, 1189.906
506.6760, 1228.781
507.8580, 1076.650
509.0390, 1133.830
510.2210, 1127.691
511.4020, 1191.549
512.5830, 1011.400
513.7640, 1271.248
514.9450, 1318.996
516.1250, 1366.838
517.3060, 1621.674
518.4860, 1743.793
519.6660, 1444.621
520.8460, 1638.848
522.0260, 1546.926
523.2060, 1389.186
524.3850, 1252.006
525.5650, 994.8242
526.7440, 1098.637
527.9230, 650.1133
529.1020, 665.9180
530.2810, 760.2344
531.4590, 585.0332
532.6380, 628.1289
533.8160, 292.9219
534.9940, 250.7109
536.1720, 268.9727
537.3500, 169.7559
538.5270, 157.5332
539.7050, 272.8223
540.8820, 303.6230
542.0590, 14.82812
543.2360, 122.4531
544.4130, 138.5762
545.5900, 136.4453
546.7660, 290.8066
547.9430, 53.55078
549.1190, 162.3301
550.2950, 0.6074220
551.4710, 167.6973
552.6470, 40.93164
553.8220, 182.6484
554.9980, 257.3633
556.1730, 38.07422
557.3480, 148.7812
558.5230, 150.4082
559.6980, 147.9766
560.8730, 251.4805
562.0470, 248.5566
563.2220, 279.7070
564.3960, 266.1055
565.5700, 310.1250
566.7440, 205.8047
567.9170, 321.3867
569.0910, 391.3887
570.2640, 356.0684
571.4380, 464.7676
572.6110, 421.0059
573.7840, 516.6562
574.9570, 377.4102
576.1290, 455.0508
577.3020, 315.6836
578.4740, 383.9629
579.6460, 689.5801
580.8180, 601.1953
581.9900, 710.1582
583.1620, 852.7637
584.3330, 838.3418
585.5040, 989.5508
586.6760, 1089.111
587.8470, 1139.229
589.0180, 1201.742
590.1880, 1317.311
591.3590, 1460.871
592.5290, 1622.459
593.7000, 1597.008
594.8700, 1479.818
596.0400, 1282.357
597.2090, 1686.891
598.3790, 1294.432
599.5490, 1398.953
600.7180, 1273.471
601.8870, 1247.982
603.0560, 868.5078
604.2250, 892.3691
605.3940, 841.8809
606.5620, 746.6016
607.7300, 816.9824
608.8990, 535.4785
610.0670, 413.9688
611.2350, 559.0098
612.4020, 463.4883
613.5700, 449.9648
614.7370, 346.4355
615.9050, 506.8945
617.0720, 252.3516
618.2390, 358.8027
619.4060, 316.2520
620.5720, 273.7148
621.7390, 282.1719
622.9050, 261.6211
624.0710, 219.7383
625.2370, 219.4082
626.4030, 168.1914
627.5690, 178.6172
628.7340, 226.1328
629.9000, 190.5449
631.0650, 1.333984
632.2300, 366.7832
633.3950, 331.1934
634.5600, 317.6152
635.7240, 112.0449
636.8890, 281.4668
638.0530, 225.8828
639.2170, 198.2910
640.3810, 215.6953
641.5450, 176.1094
642.7080, 134.5176
643.8720, 247.9199
645.0350, 222.3164
646.1980, 334.7070
647.3610, 320.0918
648.5240, 267.4727
649.6870, 257.8594
650.8490, 155.2383
652.0120, 162.5625
653.1740, 222.9805
654.3360, 185.3438
655.4980, 100.7148
656.6600, 200.0820
657.8210, 40.59961
658.9830, 170.9570
660.1440, 94.31055
661.3050, 9.664063
662.4660, 167.0254
663.6270, 157.9688
664.7870, 226.3242
665.9480, 256.6230
667.1080, 196.0156
668.2680, 232.3887
669.4280, 214.9453
670.5880, 111.3105
671.7480, 37.67188
672.9070, 133.0234
674.0670, 136.3691
675.2260, 163.7109
676.3850, 102.0586
677.5440, 224.4004
678.7030, 7.740234
679.8610, 301.0742
681.0200, 26.41211
682.1780, 181.1289
683.3360, 33.45117
684.4940, 268.7871
685.6520, 226.1211
686.8090, 114.4785
687.9670, 65.83008
689.1240, 33.17773
690.2810, 173.5156
691.4380, 36.14844
692.5950, 277.1445
693.7520, 110.4551
694.9080, 173.7578
696.0650, 178.2930
697.2210, 188.5566
698.3770, 105.1465
699.5330, 111.0742
700.6880, 53.69922
701.8440, 15.52148
702.9990, 55.36523
704.1550, 81.41797
705.3100, 168.7930
706.4650, 30.16406
707.6190, 34.14453
708.7740, 80.84180
709.9290, 31.17188
711.0830, 119.7246
712.2370, 146.6875
713.3910, 134.6484
714.5450, 201.1992
715.6980, 277.5664
716.8520, 230.5176
718.0050, 309.4668
719.1580, 323.1113
720.3110, 241.3535
721.4640, 189.2969
722.6170, 65.23633
723.7700, 40.82617
724.9220, 86.07812
726.0740, 14.97461
727.2260, 141.8652
728.3780, 90.75586
729.5300, 186.6406
730.6810, 58.52539
731.8330, 100.4043
732.9840, 132.2832
734.1350, 87.17578
735.2860, 136.0664
736.4370, 132.9512
737.5880, 180.8457
738.7380, 254.7383
739.8880, 83.62695
741.0390, 144.5137
742.1890, 17.39453
743.3380, 67.27734
744.4880, 27.15820
745.6380, 64.97070
746.7870, 159.8574
747.9360, 111.6816
749.0850, 60.49609
750.2340, 115.2812
751.3830, 333.0566
752.5310, 247.8301
753.6800, 180.5996
754.8280, 141.3652
755.9760, 97.12891
757.1240, 133.8926
758.2720, 108.6602
759.4190, 115.4062
760.5670, 92.16016
761.7140, 83.91211
762.8610, 15.65820
764.0080, 93.40234
765.1550, 58.69531
766.3020, 30.85352
767.4480, 78.63477
768.5950, 4.382813
769.7410, 33.76172
770.8870, 115.5020
772.0330, 44.24023
773.1780, 206.9727
774.3240, 198.7070
775.4690, 244.4355
776.6140, 382.1875
777.7590, 373.9336
778.9040, 253.6797
780.0490, 496.4219
781.1940, 189.1660
782.3380, 90.90820
783.4820, 99.65039
784.6260, 194.3887
785.7700, 365.1270
786.9140, 324.8633
788.0580, 170.5977
789.2010, 76.33203
790.3450, 46.06445
791.4880, 43.82227
792.6310, 40.58008
793.7730, 54.16797
794.9160, 9.095703
796.0590, 96.57812
797.2010, 147.3320
798.3430, 157.0859
799.4850, 77.99023
800.6270, 24.26172
801.7690, 189.4707
802.9100, 302.2012
804.0520, 223.9355
805.1930, 228.6641
806.3340, 1.392578
807.4750, 114.1250
808.6160, 51.85938
809.7560, 75.29102
810.8970, 125.0234
812.0370, 130.7520
813.1770, 50.48438
814.3170, 78.21289
815.4570, 29.94727
816.5960, 199.8008
817.7360, 128.5352
818.8750, 139.8320
820.0140, 43.56641
821.1530, 108.9746
822.2920, 207.7090
823.4310, 102.4453
824.5690, 139.1816
825.7070, 89.87109
826.8460, 122.2852
827.9840, 16.02344
829.1220, 70.27930
830.2590, 84.02539
831.3970, 98.77148
832.5340, 7.472656
833.6710, 37.72070
834.8080, 294.0137
835.9450, 147.8867
837.0820, 147.6230
838.2190, 204.7422
839.3550, 69.26562
840.4910, 46.29688
841.6270, 22.70508
842.7630, 158.4492
843.8990, 80.09961
845.0350, 303.7422
846.1700, 10.49219
847.3060, 34.87695
848.4410, 340.8711
849.5760, 267.6211
850.7100, 363.3750
851.8450, 204.1309
852.9800, 237.8906
854.1140, 262.6543
855.2480, 353.4219
856.3820, 381.1895
857.5160, 612.9629
858.6500, 834.7383
859.7830, 773.5000
860.9170, 984.6680
862.0500, 905.4570
863.1830, 1022.771
864.3160, 959.6934
865.4480, 911.1133
866.5810, 977.2988
867.7130, 748.0762
868.8460, 783.8242
869.9780, 667.6426
871.1100, 561.4668
872.2410, 744.2949
873.3730, 671.1309
874.5050, 631.9727
875.6360, 737.8770
876.7670, 750.7285
877.8980, 833.5820
879.0290, 869.6543
880.1590, 885.5176
881.2900, 1030.174
882.4200, 1083.170
883.5500, 1241.047
884.6800, 1240.932
885.8100, 1409.266
886.9400, 1389.158
888.0690, 1782.057
889.1990, 2267.961
890.3280, 2925.900
891.4570, 3474.787
892.5860, 4828.707
893.7140, 6159.633
894.8430, 7526.568
895.9710, 7459.504
897.1000, 6037.449
898.2280, 4258.400
899.3560, 2694.102
900.4830, 1648.062
901.6110, 955.0430
902.7380, 1044.406
903.8660, 606.3984
904.9930, 502.0176
906.1200, 368.9707
907.2460, 489.9883
908.3730, 607.0332
909.5000, 360.0918
910.6260, 306.1562
911.7520, 508.9941
912.8780, 433.0703
914.0040, 419.1523
915.1290, 478.2422
916.2550, 563.3379
917.3800, 439.7227
918.5050, 357.8320
919.6300, 385.9453
920.7550, 579.0645
921.8800, 703.1914
923.0040, 810.3242
924.1290, 639.4629
925.2530, 782.6074
926.3770, 433.0723
927.5010, 684.2285
928.6250, 713.7207
929.7480, 871.8887
930.8720, 713.9062
931.9950, 721.0898
933.1180, 831.2754
934.2410, 926.4707
935.3640, 773.6738
936.4860, 869.3027
937.6090, 965.5195
938.7310, 714.7422
939.8530, 971.9863
940.9750, 964.2363
942.0970, 772.7480
943.2180, 797.0098
944.3400, 855.2793
945.4610, 655.5566
946.5820, 572.8398
947.7030, 811.1289
948.8240, 660.4258
949.9450, 696.7891
951.0650, 727.0977
952.1860, 506.4199
953.3060, 569.7461
954.4260, 560.0977
955.5460, 461.4570
956.6650, 359.8262
957.7850, 444.2168
958.9040, 378.6113
960.0230, 284.0156
961.1420, 116.4238
962.2610, 311.8438
963.3800, 332.2695
964.4990, 48.87891
965.6170, 276.3379
966.7350, 317.4238
967.8530, 66.61914
968.9710, 167.1230
970.0890, 215.6055
971.2070, 137.1289
972.3240, 69.65820
973.4410, 188.2148
974.5580, 166.7910
975.6750, 162.3926
976.7920, 113.0293
977.9090, 108.9238
979.0250, 12.66211
980.1410, 35.02148
981.2580, 227.7109
982.3740, 113.4824
983.4890, 152.1992
984.6050, 28.92578
985.7200, 89.69727
986.8360, 167.4785
987.9510, 68.26562
989.0660, 215.0742
990.1810, 288.8887
991.2950, 127.7109
992.4100, 41.56836
993.5240, 346.4336
994.6390, 46.30664
995.7530, 163.2031
996.8660, 171.1055
997.9800, 35.97070
999.0940, 479.9492
1000.207, 148.8770
1001.320, 364.8086
1002.433, 31.25000
1003.546, 194.6914
1004.659, 72.89844
1005.772, 86.86719
1006.884, 149.7031
1007.996, 166.6680
1009.108, 3.357422
1010.220, 418.6230
1011.332, 179.6094
1012.444, 42.39648
1013.555, 256.5898
1014.666, 131.5840
1015.777, 199.5840
1016.888, 195.6152
1017.999, 189.6699
1019.110, 118.7344
1020.220, 95.82227
1021.331, 36.92578
1022.441, 304.0332
1023.551, 198.1484
1024.661, 382.2715
1025.770, 186.4004
1026.880, 10.53711
1027.989, 94.67773
1029.098, 44.82422
1030.207, 58.98047
1031.316, 75.14258
1032.425, 224.3105
1033.533, 103.4863
1034.642, 225.5527
1035.750, 71.25781
1036.858, 121.9082
1037.966, 146.0781
1039.073, 103.2578
1040.181, 252.4434
1041.288, 203.4961
1042.396, 188.6934
1043.503, 223.8965
1044.610, 88.83984
1045.716, 120.3340
1046.823, 40.51367
1047.929, 177.6992
1049.036, 19.88867
1050.142, 6.916016
1051.248, 25.33203
1052.353, 147.4863
1053.459, 42.69531
1054.564, 179.9102
1055.670, 209.1309
1056.775, 129.3574
1057.880, 150.5879
1058.985, 113.1738
1060.089, 216.0137
1061.194, 6.792969
1062.298, 95.40234
1063.402, 215.5996
1064.506, 117.8457
1065.610, 64.05664
1066.713, 82.27539
1067.817, 285.4980
1068.920, 8.726563
1070.023, 399.9668
1071.126, 246.2148
1072.229, 220.5977
1073.332, 147.8555
1074.435, 25.88281
1075.537, 171.3711
1076.639, 196.6387
1077.741, 128.9102
1078.843, 33.18750
1079.945, 269.4707
1081.046, 408.7559
1082.148, 17.94922
1083.249, 97.33594
1084.350, 251.6270
1085.451, 283.9238
1086.551, 328.3613
1087.652, 318.6660
1088.752, 218.9805
1089.853, 224.7461
1090.953, 207.1035
1092.053, 99.46484
1093.152, 271.8320
1094.252, 276.2051
1095.351, 243.5820
1096.451, 14.92578
1097.550, 28.44727
1098.649, 23.17578
1099.748, 115.1914
1100.846, 73.56445
1101.945, 169.9922
1103.043, 313.3887
1104.141, 88.78906
1105.239, 216.1934
1106.337, 69.59961
1107.434, 288.0098
1108.532, 253.4238
1109.629, 93.84180
1110.726, 279.2637
1111.823, 83.46094
1112.920, 179.8906
1114.017, 262.3242
1115.113, 231.7637
1116.210, 260.2070
1117.306, 309.2871
1118.402, 292.7383
1119.498, 201.1895
1120.593, 359.4570
1121.689, 368.9160
1122.784, 129.3770
1123.879, 217.5293
1124.974, 374.9941
1126.069, 223.4609
1127.164, 301.9316
1128.259, 225.4023
1129.353, 103.5586
1130.447, 97.90625
1131.541, 78.38477
1132.635, 217.8633
1133.729, 263.3438
1134.822, 177.8906
1135.916, 16.37500
1137.009, 27.85938
1138.102, 2.302734
1139.195, 265.8203
1140.288, 133.3008
1141.380, 139.7227
1142.473, 355.2070
1143.565, 82.69141
1144.657, 93.62305
1145.749, 251.1133
1146.841, 105.6035
1147.932, 131.0977
1149.024, 98.92773
1150.115, 316.4238
1151.206, 74.92383
1152.297, 304.7695
1153.388, 236.2695
1154.479, 111.7715
1155.569, 158.2773
1156.659, 229.7812
1157.750, 177.2891
1158.839, 242.7969
1159.929, 183.3066
1161.019, 146.8184
1162.108, 64.33008
1163.198, 139.8438
1164.287, 196.3613
1165.376, 29.12109
1166.465, 143.3711
1167.553, 168.3945
1168.642, 102.8906
1169.730, 279.3887
1170.818, 278.8906
1171.906, 96.60742
1172.994, 233.8359
1174.082, 191.2832
1175.170, 27.73242
1176.257, 188.4160
1177.344, 384.8691
1178.431, 81.32031
1179.518, 171.7773
1180.605, 268.2363
1181.691, 308.4121
1182.778, 416.8770
1183.864, 334.5410
1184.950, 255.8105
1186.036, 195.2812
1187.122, 305.7559
1188.207, 346.2324
1189.292, 346.7070
1190.378, 341.2324
1191.463, 305.0156
1192.548, 167.5137
1193.632, 283.0039
1194.717, 19.49414
1195.801, 175.9902
1196.886, 335.4863
1197.970, 152.9863
1199.054, 198.4902
1200.137, 218.9961
1201.221, 306.5059
1202.305, 41.98438
1203.388, 200.5020
1204.471, 88.99414
1205.554, 69.20508
1206.637, 184.6895
1207.719, 198.3770
1208.802, 116.8789
1209.884, 43.38281
1210.966, 78.88867
1212.048, 169.3965
1213.130, 192.8477
1214.212, 200.3652
1215.293, 247.8828
1216.374, 60.59570
1217.456, 30.89062
1218.536, 331.3809
1219.617, 47.51953
1220.698, 402.4707
1221.778, 220.3691
1222.859, 341.8418
1223.939, 225.3145
1225.019, 168.7891
1226.099, 18.26953
1227.178, 316.5879
1228.258, 151.0723
1229.337, 76.93359
1230.417, 231.4219
1231.496, 18.91406
1232.574, 122.5352
1233.653, 140.0312
1234.732, 134.5332
1235.810, 143.0371
1236.888, 149.3242
1237.966, 282.0547
1239.044, 208.5684
1240.122, 223.0840
1241.199, 357.6055
1242.277, 184.1289
1243.354, 160.6582
1244.431, 406.1895
1245.508, 142.7266
1246.585, 148.7383
1247.661, 95.72266
1248.738, 247.1855
1249.814, 38.34961
1250.890, 333.0957
1251.966, 312.5430
1253.042, 103.0020
1254.117, 156.3965
1255.193, 325.7969
1256.268, 288.2051
1257.343, 250.6133
1258.418, 37.97070
1259.493, 81.42188
1260.567, 214.8262
1261.642, 47.23438
1262.716, 188.6445
1263.790, 227.0605
1264.864, 182.4844
1265.938, 179.6543
1267.011, 101.0723
1268.085, 101.6387
1269.158, 325.0801
1270.231, 169.5293
1271.304, 84.98242
1272.377, 45.44141
1273.450, 302.9043
1274.522, 481.3828
1275.594, 104.8652
1276.666, 183.3496
1277.738, 71.15625
1278.810, 168.3027
1279.882, 297.7656
1280.953, 19.76172
1282.025, 21.70312
1283.096, 38.17383
1284.167, 129.6504
1285.238, 57.13281
1286.308, 222.6211
1287.379, 18.11523
1288.449, 194.6289
