##NAMES=Whewellite
##RRUFFID=R050240
##IDEAL CHEMISTRY=Ca(C_2_)^6+^O_4_&#183;H_2_O
##LOCALITY=Huron River, Milan, Ohio, USA
##OWNER=RRUFF
##SOURCE=Marcus Origlieri
##DESCRIPTION=White fragment
##STATUS=The identification of this mineral has been confirmed by X-ray diffraction and chemical analysis
##URL=rruff.info/R050240
##MEASURED CHEMISTRY=Ca_1.00_C_2_O_4_Â·H_2_O
##PIN_ID=L01973
##ORIENTATION=Laser parallel to b* (0 1 0). Fiducial mark perpendicular to laser is parallel to -c [0 0 -1]
100.8830, 0.0000000E+00
102.1160, 55.74121
103.3490, 13.74707
104.5820, 9.654297
105.8150, 179.7231
107.0470, 349.0840
108.2800, 252.6138
109.5120, 295.5059
110.7440, 375.7822
111.9760, 328.9805
113.2080, 696.9766
114.4400, 927.8877
115.6710, 1137.020
116.9030, 1314.831
118.1340, 1709.891
119.3650, 2170.834
120.5960, 2635.342
121.8270, 3227.130
123.0580, 3729.952
124.2880, 4605.593
125.5190, 5167.870
126.7490, 5993.623
127.9790, 6799.716
129.2090, 7877.067
130.4390, 8437.621
131.6680, 8868.293
132.8980, 9251.038
134.1270, 9162.783
135.3560, 9125.444
136.5850, 8845.960
137.8140, 8587.259
139.0430, 8019.246
140.2710, 7144.849
141.5000, 6536.006
142.7280, 5838.669
143.9560, 5030.801
145.1840, 4235.365
146.4120, 3696.330
147.6390, 3085.671
148.8670, 2579.361
150.0940, 2084.381
151.3210, 1688.709
152.5490, 1369.326
153.7750, 1158.216
155.0020, 892.4629
156.2290, 769.2666
157.4550, 597.4053
158.6810, 520.6152
159.9080, 384.7891
161.1340, 337.3467
162.3590, 320.3242
163.5850, 248.8057
164.8110, 185.6768
166.0360, 235.7100
167.2610, 123.8643
168.4860, 297.1904
169.7110, 204.7109
170.9360, 377.3340
172.1610, 391.1348
173.3850, 493.9609
174.6100, 614.7510
175.8340, 793.3389
177.0580, 940.7881
178.2820, 1202.528
179.5050, 1451.539
180.7290, 1786.885
181.9520, 2144.225
183.1760, 2494.573
184.3990, 2876.927
185.6220, 3375.303
186.8450, 3833.713
188.0670, 4515.141
189.2900, 4980.593
190.5120, 5546.077
191.7340, 5989.613
192.9560, 6174.182
194.1780, 6907.779
195.4000, 7459.412
196.6220, 7805.079
197.8430, 8546.772
199.0640, 9157.496
200.2860, 10018.25
201.5070, 10762.03
202.7270, 11272.84
203.9480, 11795.67
205.1690, 11911.54
206.3890, 11738.43
207.6090, 11199.83
208.8290, 10293.11
210.0490, 9615.295
211.2690, 8611.070
212.4890, 8089.092
213.7080, 7238.682
214.9280, 6848.332
216.1470, 6624.863
217.3660, 6348.620
218.5850, 6248.296
219.8030, 6404.143
221.0220, 6091.447
222.2400, 5851.473
223.4590, 5294.143
224.6770, 4504.992
225.8950, 3848.825
227.1120, 3257.324
228.3300, 2654.762
229.5480, 2283.161
230.7650, 1874.549
231.9820, 1668.221
233.1990, 1471.797
234.4160, 1305.667
235.6330, 1271.411
236.8490, 1341.722
238.0660, 1146.010
239.2820, 1260.889
240.4980, 1248.096
241.7140, 1387.508
242.9300, 1396.283
244.1460, 1574.896
245.3610, 1567.199
246.5770, 1615.445
247.7920, 1618.322
249.0070, 1550.935
250.2220, 1485.938
251.4370, 1289.235
252.6510, 1108.725
253.8660, 1140.278
255.0800, 852.8623
256.2940, 883.4229
257.5080, 654.7344
258.7220, 603.0176
259.9360, 471.9131
261.1490, 470.1436
262.3630, 411.3594
263.5760, 472.0684
264.7890, 341.6162
266.0020, 287.3076
267.2150, 321.1074
268.4270, 304.3252
269.6400, 310.1777
270.8520, 398.9814
272.0640, 299.7158
273.2760, 489.1094
274.4880, 368.5225
275.7000, 398.0088
276.9120, 485.5615
278.1230, 426.3691
279.3340, 384.9385
280.5450, 364.6846
281.7560, 466.0557
282.9670, 375.1230
284.1780, 310.9746
285.3880, 457.8594
286.5980, 238.7773
287.8090, 240.7236
289.0190, 130.4180
290.2290, 114.8916
291.4380, 190.4688
292.6480, 156.5098
293.8570, 191.6162
295.0670, 242.6895
296.2760, 162.7783
297.4850, 94.87988
298.6930, 92.99219
299.9020, 99.11523
301.1110, 67.03125
302.3190, 57.84961
303.5270, 32.52051
304.7350, 50.92383
305.9430, 9.059570
307.1510, 85.66797
308.3580, 51.79492
309.5660, 47.91309
310.7730, 125.0225
311.9800, 49.30957
313.1870, 37.79297
314.3940, 33.72461
315.6010, 62.67578
316.8070, 88.65137
318.0130, 49.65918
319.2200, 90.75977
320.4260, 36.75781
321.6310, 115.8447
322.8370, 96.97070
324.0430, 83.13086
325.2480, 66.32324
326.4540, 11.45605
327.6590, 51.77734
328.8640, 18.96289
330.0680, 16.31152
331.2730, 27.60449
332.4780, 52.91895
333.6820, 61.55078
334.8860, 16.36621
336.0900, 61.02246
337.2940, 11.44336
338.4980, 18.11523
339.7010, 119.3428
340.9050, 102.8496
342.1080, 21.59766
343.3110, 90.02832
344.5140, 81.55762
345.7170, 87.18555
346.9200, 111.8555
348.1220, 2.422852
349.3240, 27.31934
350.5270, 19.09473
351.7290, 138.8896
352.9310, 13.24707
354.1320, 8.660156
355.3340, 62.37500
356.5350, 13.64160
357.7370, 56.74609
358.9380, 51.06738
360.1390, 161.8496
361.3400, 0.6074220
362.5400, 35.31348
363.7410, 26.99512
364.9410, 19.63086
366.1410, 30.79590
367.3410, 8.708984
368.5410, 17.83984
369.7410, 63.51172
370.9400, 18.17285
372.1400, 52.94922
373.3390, 11.22168
374.5380, 53.35742
375.7370, 110.4492
376.9360, 9.482422
378.1350, 49.55078
379.3330, 19.45801
380.5310, 2.522461
381.7300, 6.632813
382.9280, 88.19531
384.1260, 83.00586
385.3230, 196.7842
386.5210, 78.51660
387.7180, 22.21680
388.9160, 53.89453
390.1130, 73.55566
391.3100, 79.20605
392.5060, 127.8770
393.7030, 147.5547
394.9000, 99.24023
396.0960, 56.92578
397.2920, 75.06445
398.4880, 7.303711
399.6840, 64.95703
400.8800, 111.5957
402.0750, 62.22461
403.2710, 26.83496
404.4660, 87.41602
405.6610, 121.9814
406.8560, 48.56836
408.0510, 123.0938
409.2450, 130.6035
410.4400, 62.37793
411.6340, 91.84473
412.8280, 70.99902
414.0220, 78.02832
415.2160, 86.10156
416.4100, 115.4688
417.6030, 174.8154
418.7970, 199.1416
419.9900, 160.4473
421.1830, 108.7305
422.3760, 76.99023
423.5690, 73.84863
424.7610, 91.41602
425.9540, 110.5859
427.1460, 140.7295
428.3380, 213.8486
429.5300, 240.9463
430.7220, 157.0176
431.9140, 93.06738
433.1050, 154.0859
434.2970, 139.0801
435.4880, 231.0498
436.6790, 138.9932
437.8700, 172.9121
439.0610, 153.8086
440.2510, 208.6768
441.4420, 258.5215
442.6320, 296.3418
443.8220, 314.1357
445.0120, 314.9043
446.2020, 190.6465
447.3910, 131.3643
448.5810, 223.0576
449.7700, 120.7314
450.9600, 181.3750
452.1490, 344.9932
453.3370, 234.5850
454.5260, 265.1504
455.7150, 276.7041
456.9030, 299.1484
458.0910, 327.6846
459.2800, 261.8936
460.4670, 396.6641
461.6550, 283.3232
462.8430, 403.7725
464.0300, 403.8652
465.2180, 395.6543
466.4050, 497.4482
467.5920, 416.9082
468.7790, 491.2051
469.9650, 461.5225
471.1520, 513.4023
472.3380, 547.6709
473.5250, 723.1406
474.7110, 536.9941
475.8970, 807.4072
477.0820, 756.2295
478.2680, 948.3799
479.4540, 1076.004
480.6390, 1260.246
481.8240, 1399.324
483.0090, 1481.092
484.1940, 1930.765
485.3780, 2127.775
486.5630, 2469.762
487.7470, 2982.393
488.9320, 3593.916
490.1160, 4485.397
491.3000, 5512.594
492.4830, 6774.004
493.6670, 8126.449
494.8500, 9378.759
496.0340, 10851.21
497.2170, 12419.24
498.4000, 13373.01
499.5820, 14519.63
500.7650, 14224.54
501.9480, 13788.25
503.1300, 12630.09
504.3120, 11011.20
505.4940, 9595.948
506.6760, 8087.148
507.8580, 6408.980
509.0390, 5325.832
510.2210, 4219.998
511.4020, 3499.480
512.5830, 2877.022
513.7640, 2482.385
514.9450, 2139.413
516.1250, 2003.350
517.3060, 1741.706
518.4860, 1523.176
519.6660, 1426.757
520.8460, 1114.889
522.0260, 998.5820
523.2060, 879.2656
524.3850, 810.9883
525.5650, 766.3818
526.7440, 655.7617
527.9230, 641.1270
529.1020, 509.4600
530.2810, 366.2393
531.4590, 371.0986
532.6380, 280.6494
533.8160, 294.5420
534.9940, 416.1006
536.1720, 335.3633
537.3500, 331.6504
538.5270, 333.7451
539.7050, 231.7500
540.8820, 303.2402
542.0590, 230.9590
543.2360, 283.2090
544.4130, 142.7363
545.5900, 260.8955
546.7660, 322.8955
547.9430, 65.08789
549.1190, 202.3721
550.2950, 230.5352
551.4710, 35.68164
552.6470, 284.8369
553.8220, 175.6797
554.9980, 139.9854
556.1730, 118.4248
557.3480, 193.0156
558.5230, 260.0186
559.6980, 236.0664
560.8730, 137.1016
562.0470, 198.1240
563.2220, 117.0049
564.3960, 231.1035
565.5700, 228.1895
566.7440, 268.6572
567.9170, 277.3564
569.0910, 259.7803
570.2640, 274.2305
571.4380, 241.1475
572.6110, 257.6318
573.7840, 263.9170
574.9570, 289.2588
576.1290, 287.0947
577.3020, 329.9512
578.4740, 331.4365
579.6460, 363.6465
580.8180, 481.6475
581.9900, 437.5645
583.1620, 604.3623
584.3330, 681.1484
585.5040, 756.9238
586.6760, 829.6865
587.8470, 861.6855
589.0180, 912.8916
590.1880, 1029.949
591.3590, 1002.522
592.5290, 1130.966
593.7000, 1017.664
594.8700, 1028.353
596.0400, 1100.081
597.2090, 1094.747
598.3790, 932.5430
599.5490, 717.2002
600.7180, 679.8574
601.8870, 625.8682
603.0560, 381.5312
604.2250, 509.2422
605.3940, 494.9844
606.5620, 392.1670
607.7300, 362.8604
608.8990, 211.8271
610.0670, 279.5332
611.2350, 163.2275
612.4020, 151.9238
613.5700, 245.6094
614.7370, 281.2910
615.9050, 222.1045
617.0720, 151.8027
618.2390, 121.5410
619.4060, 102.2197
620.5720, 206.9219
621.7390, 121.6035
622.9050, 217.2744
624.0710, 86.96973
625.2370, 85.68457
626.4030, 110.3896
627.5690, 112.0869
628.7340, 13.79883
629.9000, 75.52441
631.0650, 134.2754
632.2300, 139.0215
633.3950, 18.22949
634.5600, 139.5078
635.7240, 46.27832
636.8890, 6.958984
638.0530, 92.79590
639.2170, 112.5430
640.3810, 69.29199
641.5450, 213.0557
642.7080, 32.81152
643.8720, 333.5586
645.0350, 44.69336
646.1980, 73.01855
647.3610, 81.72852
648.5240, 115.4336
649.6870, 255.3428
650.8490, 218.0586
652.0120, 100.7812
653.1740, 45.49805
654.3360, 263.2207
655.4980, 147.1719
656.6600, 254.6660
657.8210, 88.53809
658.9830, 36.81055
660.1440, 339.5156
661.3050, 170.2461
662.4660, 141.0449
663.6270, 9.910156
664.7870, 184.1719
665.9480, 123.9170
667.1080, 188.6572
668.2680, 92.39062
669.4280, 38.11816
670.5880, 25.15234
671.7480, 30.44531
672.9070, 39.76465
674.0670, 107.8848
675.2260, 172.5293
676.3850, 125.4512
677.5440, 43.91699
678.7030, 125.5547
679.8610, 40.14941
681.0200, 139.1904
682.1780, 256.7871
683.3360, 142.3779
684.4940, 71.96582
685.6520, 243.5566
686.8090, 210.1436
687.9670, 15.68652
689.1240, 113.2646
690.2810, 100.8350
691.4380, 244.1172
692.5950, 229.6816
693.7520, 119.2979
694.9080, 134.8564
696.0650, 157.4131
697.2210, 134.9658
698.3770, 116.6143
699.5330, 106.3877
700.6880, 89.67578
701.8440, 58.12891
702.9990, 72.65820
704.1550, 43.18457
705.3100, 48.70996
706.4650, 177.2334
707.6190, 150.7529
708.7740, 164.2666
709.9290, 134.7773
711.0830, 41.28223
712.2370, 65.78223
713.3910, 90.28027
714.5450, 93.77539
715.6980, 171.2656
716.8520, 142.7520
718.0050, 23.23438
719.1580, 88.70898
720.3110, 44.17969
721.4640, 92.64648
722.6170, 111.1084
723.7700, 72.86621
724.9220, 150.0205
726.0740, 21.47070
727.2260, 8.4960997E-02
728.3780, 9.651367
729.5300, 72.76758
730.6810, 52.18359
731.8330, 148.5967
732.9840, 96.00586
734.1350, 37.58789
735.2860, 83.78711
736.4370, 34.16016
737.5880, 117.5293
738.7380, 97.89551
739.8880, 42.74121
741.0390, 145.5889
742.1890, 54.91602
743.3380, 46.23926
744.4880, 77.44141
745.6380, 72.82715
746.7870, 89.90820
747.9360, 64.29883
749.0850, 87.50293
750.2340, 111.7041
751.3830, 125.9014
752.5310, 231.0957
753.6800, 28.28613
754.8280, 56.47266
755.9760, 47.65527
757.1240, 129.8359
758.2720, 55.01270
759.4190, 313.1855
760.5670, 177.3564
761.7140, 113.5234
762.8610, 234.6865
764.0080, 130.8467
765.1550, 210.0029
766.3020, 124.1582
767.4480, 183.9395
768.5950, 189.0869
769.7410, 161.2305
770.8870, 121.3711
772.0330, 154.8555
773.1780, 152.3906
774.3240, 164.1035
775.4690, 189.2480
776.6140, 257.3721
777.7590, 249.4941
778.9040, 410.6113
780.0490, 131.7275
781.1940, 356.6973
782.3380, 182.8057
783.4820, 169.6650
784.6260, 323.7686
785.7700, 256.8760
786.9140, 2.979492
788.0580, 99.07910
789.2010, 104.1748
790.3450, 66.26855
791.4880, 144.2910
792.6310, 1.378906
793.7730, 25.53906
794.9160, 8.524414
796.0590, 38.41602
797.2010, 13.49707
798.3430, 55.52539
799.4850, 25.56641
800.6270, 10.62305
801.7690, 6.659180
802.9100, 79.43164
804.0520, 80.51953
805.1930, 192.6055
806.3340, 194.6865
807.4750, 60.65723
808.6160, 124.6768
809.7560, 64.36523
810.8970, 110.4717
812.0370, 93.54199
813.1770, 150.3896
814.3170, 174.5986
815.4570, 49.89258
816.5960, 136.0645
817.7360, 91.12109
818.8750, 66.78613
820.0140, 120.6914
821.1530, 191.5967
822.2920, 83.47559
823.4310, 168.3770
824.5690, 88.27734
825.7070, 209.7480
826.8460, 181.6445
827.9840, 38.54004
829.1220, 93.43457
830.2590, 4.335938
831.3970, 26.70508
832.5340, 41.31445
833.6710, 96.03223
834.8080, 60.92871
835.9450, 105.8232
837.0820, 69.71680
838.2190, 195.6094
839.3550, 213.4365
840.4910, 195.3242
841.6270, 369.0996
842.7630, 165.8984
843.8990, 280.7988
845.0350, 315.6973
846.1700, 294.5938
847.3060, 274.4902
848.4410, 388.2588
849.5760, 368.1299
850.7100, 351.0244
851.8450, 590.9189
852.9800, 546.8135
854.1140, 737.7061
855.2480, 1000.351
856.3820, 1397.243
857.5160, 1779.027
858.6500, 2204.919
859.7830, 2616.810
860.9170, 2883.699
862.0500, 2897.590
863.1830, 2574.254
864.3160, 2285.414
865.4480, 1969.978
866.5810, 1715.589
867.7130, 1180.695
868.8460, 1251.585
869.9780, 1168.476
871.1100, 1016.328
872.2410, 1180.639
873.3730, 1247.399
874.5050, 1281.294
875.6360, 1535.188
876.7670, 1460.737
877.8980, 1693.633
879.0290, 1846.489
880.1590, 1811.312
881.2900, 1976.713
882.4200, 2329.612
883.5500, 2211.284
884.6800, 2579.223
885.8100, 3017.165
886.9400, 3461.108
888.0690, 4583.055
889.1990, 5724.002
890.3280, 7004.815
891.4570, 8607.752
892.5860, 10898.65
893.7140, 12501.61
894.8430, 12399.55
895.9710, 10000.51
897.1000, 7468.473
898.2280, 5630.438
899.3560, 3749.403
900.4830, 2458.373
901.6110, 1653.344
902.7380, 1173.316
903.8660, 880.2939
904.9930, 817.2734
906.1200, 828.2549
907.2460, 694.2393
908.3730, 730.2334
909.5000, 671.2295
910.6260, 655.2305
911.7520, 693.2354
912.8780, 903.2480
914.0040, 797.2637
915.1290, 915.2852
916.2550, 893.3096
917.3800, 854.3369
918.5050, 821.3682
919.6300, 879.4229
920.7550, 777.9141
921.8800, 824.9746
923.0040, 875.8428
924.1290, 803.9082
925.2530, 915.9766
926.3770, 883.0469
927.5010, 830.1221
928.6250, 1080.987
929.7480, 826.3145
930.8720, 1221.262
931.9950, 896.8164
933.1180, 1055.947
934.2410, 1177.931
935.3640, 1176.471
936.4860, 956.8613
937.6090, 1221.639
938.7310, 1074.754
939.8530, 1218.871
940.9750, 1039.990
942.0970, 1112.111
943.2180, 1040.235
944.3400, 1227.369
945.4610, 1003.518
946.5820, 769.6807
947.7030, 955.8457
948.8240, 775.7295
949.9450, 737.8994
951.0650, 635.2139
952.1860, 745.4043
953.3060, 472.1562
954.4260, 530.3525
955.5460, 443.5518
956.6650, 259.7539
957.7850, 446.9600
958.9040, 404.1689
960.0230, 252.3809
961.1420, 298.5977
962.2610, 353.8203
963.3800, 98.04492
964.4990, 151.8916
965.6170, 169.0684
966.7350, 86.30371
967.8530, 66.60059
968.9710, 33.87109
970.0890, 111.1426
971.2070, 78.16895
972.3240, 79.69824
973.4410, 86.97949
974.5580, 108.2646
975.6750, 121.0137
976.7920, 103.3066
977.9090, 172.6016
979.0250, 23.89844
980.1410, 73.19922
981.2580, 65.50195
982.3740, 146.8154
983.4890, 215.1328
984.6050, 144.4609
985.7200, 164.3125
986.8360, 17.12598
987.9510, 89.46973
989.0660, 82.81445
990.1810, 68.16309
991.2950, 79.51562
992.4100, 116.9111
993.5240, 9.229492
994.6390, 176.5898
995.7530, 72.95117
996.8660, 0.6835940
997.9800, 190.7109
999.0940, 45.08594
1000.207, 75.46875
1001.320, 115.8545
1002.433, 27.24316
1003.546, 2.632813
1004.659, 0.1269530
1005.772, 18.37598
1006.884, 96.44531
1007.996, 18.89648
1009.108, 140.3535
1010.220, 199.8086
1011.332, 177.2832
1012.444, 144.8027
1013.555, 223.3281
1014.666, 171.8828
1015.777, 124.4082
1016.888, 171.5020
1017.999, 123.0938
1019.110, 165.6855
1020.220, 213.2793
1021.331, 210.6172
1022.441, 203.4707
1023.551, 225.1641
1024.661, 300.7695
1025.770, 241.3926
1026.880, 238.0156
1027.989, 205.6387
1029.098, 130.2637
1030.207, 139.8906
1031.316, 199.5195
1032.425, 232.1465
1033.533, 158.7793
1034.642, 246.4141
1035.750, 277.0488
1036.858, 190.6914
1037.966, 194.3320
1039.073, 178.0469
1040.181, 183.6895
1041.288, 154.3340
1042.396, 121.0000
1043.503, 184.6660
1044.610, 183.3340
1045.716, 225.7461
1046.823, 234.4121
1047.929, 199.9434
1049.036, 38.63867
1050.142, 196.3320
1051.248, 254.0273
1052.353, 17.31445
1053.459, 28.89258
1054.564, 197.7871
1055.670, 219.4668
1056.775, 106.1465
1057.880, 174.8242
1058.985, 4.503906
1060.089, 131.1816
1061.194, 258.9902
1062.298, 168.6660
1063.402, 138.3496
1064.506, 177.6680
1065.610, 11.36328
1066.713, 79.93945
1067.817, 73.48438
1068.920, 119.6309
1070.023, 52.11914
1071.126, 10.40234
1072.229, 122.9238
1073.332, 98.72266
1074.435, 174.9609
1075.537, 100.4785
1076.639, 62.99609
1077.741, 144.5078
1078.843, 327.0215
1079.945, 308.5312
1081.046, 471.0391
1082.148, 933.5840
1083.249, 901.1289
1084.350, 1282.684
1085.451, 1366.236
1086.551, 1340.811
1087.652, 1176.381
1088.752, 845.9551
1089.853, 531.5273
1090.953, 595.0938
1092.053, 272.7051
1093.152, 280.2695
1094.252, 218.1016
1095.351, 158.6641
1096.451, 22.78125
1097.550, 216.0918
1098.649, 235.6562
1099.748, 7.216797
1100.846, 30.42383
1101.945, 378.9766
1103.043, 135.5293
1104.141, 248.0801
1105.239, 182.6270
1106.337, 61.17188
1107.434, 31.28711
1108.532, 219.2285
1109.629, 143.7422
1110.726, 138.2500
1111.823, 182.7559
1112.920, 53.25586
1114.017, 152.5176
1115.113, 271.0117
1116.210, 144.5312
1117.306, 293.0234
1118.402, 71.51172
1119.498, 171.1621
1120.593, 413.6406
1121.689, 165.1172
1122.784, 243.7207
1123.879, 148.1914
1124.974, 97.65430
1126.069, 227.1133
1127.164, 230.5684
1128.259, 46.01758
1129.353, 36.44141
1130.447, 268.8809
1131.541, 56.31445
1132.635, 198.7422
1133.729, 141.1660
1134.822, 116.5840
1135.916, 31.41016
1137.009, 12.04688
1138.102, 273.1426
1139.195, 169.5352
1140.288, 74.91992
1141.380, 345.3008
1142.473, 332.8203
1143.565, 154.6348
1144.657, 292.9980
1145.749, 155.3535
1146.841, 140.9277
1147.932, 111.0410
1149.024, 186.2227
1150.115, 126.4766
1151.206, 283.7227
1152.297, 157.9629
1153.388, 198.1973
1154.479, 46.42383
1155.569, 148.7949
1156.659, 230.4004
1157.750, 120.6035
1158.839, 118.8867
1159.929, 214.0742
1161.019, 239.2539
1162.108, 188.4258
1163.198, 242.1523
1164.287, 207.6230
1165.376, 280.7715
1166.465, 139.9121
1167.553, 202.9297
1168.642, 271.0547
1169.730, 60.17188
1170.818, 164.3906
1171.906, 173.4902
1172.994, 311.6523
1174.082, 161.7363
1175.170, 289.8145
1176.257, 24.88281
1177.344, 157.9375
1178.431, 22.04688
1179.518, 183.2012
1180.605, 223.2207
1181.691, 176.2324
1182.778, 10.23438
1183.864, 65.21484
1184.950, 123.7500
1186.036, 316.7109
1187.122, 253.6660
1188.207, 215.6094
1189.292, 92.54688
1190.378, 93.47266
1191.463, 56.39453
1192.548, 192.3066
1193.632, 121.2090
1194.717, 7.898438
1195.801, 228.9629
1196.886, 219.8164
1197.970, 324.7832
1199.054, 325.3203
1200.137, 157.5605
1201.221, 246.2090
1202.305, 126.0254
1203.388, 70.83203
1204.471, 129.6328
1205.554, 147.4238
1206.637, 235.2090
1207.719, 148.9883
1208.802, 237.7578
1209.884, 159.5195
1210.966, 170.2773
1212.048, 161.0273
1213.130, 207.7676
1214.212, 158.5000
1215.293, 162.2266
1216.374, 188.9434
1217.456, 77.65430
1218.536, 227.0625
1219.617, 246.7578
1220.698, 173.4434
1221.778, 57.21094
1222.859, 119.8809
1223.939, 25.54297
1225.019, 264.1934
1226.099, 67.83594
1227.178, 21.85547
1228.258, 227.0508
1229.337, 235.6699
1230.417, 80.78125
1231.496, 225.7598
1232.574, 186.2969
1233.653, 159.4297
1234.732, 257.9492
1235.810, 198.5742
1236.888, 182.0781
1237.966, 162.1152
1239.044, 166.5547
1240.122, 108.0859
1241.199, 137.5605
1242.277, 161.0273
1243.354, 5.511719
1244.431, 245.9258
1245.508, 8.697266
1246.585, 292.8301
1247.661, 114.2246
1248.738, 4.615234
1249.814, 264.9824
1250.890, 130.3457
1251.966, 34.69922
1253.042, 148.0469
1254.117, 124.3867
1255.193, 92.72070
1256.268, 204.0469
1257.343, 264.3633
1258.418, 156.6777
1259.493, 65.95703
1260.567, 231.2559
1261.642, 191.5469
1262.716, 194.8340
1263.790, 89.11328
1264.864, 66.61328
1265.938, 0.4687500
1267.011, 30.69727
1268.085, 117.4727
1269.158, 237.6348
1270.231, 62.79297
1271.304, 22.94531
1272.377, 148.9102
1273.450, 148.1387
1274.522, 183.1836
1275.594, 16.22070
1276.666, 10.75000
1277.738, 61.72656
1278.810, 87.72852
1279.882, 195.7266
1280.953, 179.6387
1282.025, 130.7090
