##NAMES=Whewellite
##RRUFFID=R050240
##IDEAL CHEMISTRY=Ca(C_2_)^6+^O_4_&#183;H_2_O
##LOCALITY=Huron River, Milan, Ohio, USA
##OWNER=RRUFF
##SOURCE=Marcus Origlieri
##DESCRIPTION=White fragment
##STATUS=The identification of this mineral has been confirmed by X-ray diffraction and chemical analysis
##URL=rruff.info/R050240
##MEASURED CHEMISTRY=Ca_1.00_C_2_O_4_Â·H_2_O
##PIN_ID=L01310
##ORIENTATION=Laser parallel to (-1 0 -1). Fiducial mark perpendicular to laser is parallel to b [0 1 0]
107.0470, 0.0000000E+00
108.2800, 75.97607
109.5120, 120.8374
110.7440, 23.74121
111.9760, 192.3784
113.2080, 235.1289
114.4400, 367.8081
115.6710, 457.6187
116.9030, 726.1216
118.1340, 890.2803
119.3650, 1106.316
120.5960, 1538.632
121.8270, 1837.353
123.0580, 2330.450
124.2880, 2802.606
125.5190, 3217.595
126.7490, 3633.216
127.9790, 4297.294
129.2090, 4890.671
130.4390, 5373.217
131.6680, 5845.824
132.8980, 6473.401
134.1270, 6709.893
135.3560, 7196.248
136.5850, 7513.042
137.8140, 7675.682
139.0430, 7568.024
140.2710, 7409.020
141.5000, 7002.612
142.7280, 6296.752
143.9560, 5488.397
145.1840, 4756.491
146.4120, 3855.986
147.6390, 3021.848
148.8670, 2363.043
150.0940, 1672.549
151.3210, 1346.343
152.5490, 969.4053
153.7750, 629.7227
155.0020, 431.3799
156.2290, 364.2734
157.4550, 235.4312
158.6810, 137.8906
159.9080, 191.7959
161.1340, 114.9961
162.3590, 113.5850
163.5850, 90.59570
164.8110, 24.30078
166.0360, 16.71680
167.2610, 46.13477
168.4860, 153.7988
169.7110, 240.5078
170.9360, 183.3262
172.1610, 206.3369
173.3850, 363.5039
174.6100, 423.4062
175.8340, 610.9492
177.0580, 749.2754
178.2820, 1007.678
179.5050, 1275.154
180.7290, 1526.638
181.9520, 1809.035
183.1760, 2172.320
184.3990, 2588.578
185.6220, 2861.874
186.8450, 3170.156
188.0670, 3717.435
189.2900, 4295.730
190.5120, 4642.037
191.7340, 4973.395
192.9560, 5449.774
194.1780, 5623.174
195.4000, 5815.594
196.6220, 5838.045
197.8430, 5713.572
199.0640, 5665.158
200.2860, 5594.774
201.5070, 5638.330
202.7270, 5739.137
203.9480, 5980.823
205.1690, 5931.562
206.3890, 5856.320
207.6090, 6031.379
208.8290, 5742.126
210.0490, 5609.258
211.2690, 5218.326
212.4890, 4775.748
213.7080, 4385.057
214.9280, 3877.709
216.1470, 3696.508
217.3660, 3175.512
218.5850, 3080.592
219.8030, 3025.127
221.0220, 2743.751
222.2400, 2750.329
223.4590, 2478.824
224.6770, 2293.096
225.8950, 2058.120
227.1120, 1853.726
228.3300, 1409.833
229.5480, 1113.256
230.7650, 953.6904
231.9820, 960.1377
233.1990, 758.5957
234.4160, 839.2412
235.6330, 783.6045
236.8490, 850.1104
238.0660, 721.5635
239.2820, 738.0615
240.4980, 741.3936
241.7140, 706.0938
242.9300, 718.1338
244.1460, 730.8857
245.3610, 707.2119
246.5770, 761.5645
247.7920, 756.8369
249.0070, 647.0811
250.2220, 741.7930
251.4370, 528.0850
252.6510, 610.3037
253.8660, 497.1826
255.0800, 425.8994
256.2940, 397.3857
257.5080, 504.9307
258.7220, 369.1738
259.9360, 386.2285
261.1490, 182.9932
262.3630, 266.7812
263.5760, 283.8115
264.7890, 177.2373
266.0020, 231.8242
267.2150, 200.5547
268.4270, 168.9229
269.6400, 307.6699
270.8520, 281.7451
272.0640, 359.9170
273.2760, 267.5859
274.4880, 255.9443
275.7000, 259.7988
276.9120, 320.2832
278.1230, 254.1318
279.3340, 346.6924
280.5450, 183.4844
281.7560, 209.1641
282.9670, 235.8867
284.1780, 184.6533
285.3880, 123.6787
286.5980, 202.3828
287.8090, 168.8066
289.0190, 162.7139
290.2290, 176.4541
291.4380, 51.41602
292.6480, 169.4971
293.8570, 92.54492
295.0670, 59.00684
296.2760, 24.16406
297.4850, 28.78125
298.6930, 51.28613
299.9020, 122.0244
301.1110, 6.119141
302.3190, 71.15430
303.5270, 31.34375
304.7350, 29.46777
305.9430, 8.599609
307.1510, 72.26367
308.3580, 15.07520
309.5660, 63.11328
310.7730, 7.939453
311.9800, 67.81152
313.1870, 27.30176
314.3940, 70.58789
315.6010, 52.49414
316.8070, 86.41406
318.0130, 31.35547
319.2200, 46.69043
320.4260, 3.331055
321.6310, 37.36621
322.8370, 83.60449
324.0430, 24.60156
325.2480, 49.61035
326.4540, 62.63770
327.6590, 24.68652
328.8640, 18.25293
330.0680, 94.56250
331.2730, 9.488281
332.4780, 48.40918
333.6820, 94.67676
334.8860, 13.79395
336.0900, 11.92285
337.2940, 45.93750
338.4980, 53.30762
339.7010, 1.154297
340.9050, 16.00879
342.1080, 3.186523
343.3110, 21.37305
344.5140, 51.57715
345.7170, 21.19531
346.9200, 18.05469
348.1220, 59.32812
349.3240, 34.37207
350.5270, 118.0635
351.7290, 29.74512
352.9310, 105.3975
354.1320, 26.04004
355.3340, 61.65137
356.5350, 99.23438
357.7370, 96.76660
358.9380, 3.718750
360.1390, 55.21973
361.3400, 69.21777
362.5400, 26.38965
363.7410, 88.97559
364.9410, 27.66992
366.1410, 16.36816
367.3410, 7.096680
368.5410, 63.15625
369.7410, 2.391602
370.9400, 36.59863
372.1400, 82.77734
373.3390, 19.91504
374.5380, 105.0439
375.7370, 126.1611
376.9360, 170.2695
378.1350, 69.36914
379.3330, 7.428711
380.5310, 47.46094
381.7300, 80.46973
382.9280, 27.55078
384.1260, 12.60254
385.3230, 67.32617
386.5210, 52.24316
387.7180, 14.15137
388.9160, 68.03809
390.1130, 74.91504
391.3100, 6.756836
392.5060, 18.41895
393.7030, 114.3770
394.9000, 116.1592
396.0960, 60.91602
397.2920, 50.66406
398.4880, 167.4141
399.6840, 18.16797
400.8800, 200.9150
402.0750, 90.67480
403.2710, 34.43457
404.4660, 3.188477
405.6610, 9.070313
406.8560, 28.64258
408.0510, 232.3438
409.2450, 76.04004
410.4400, 151.7285
411.6340, 39.40918
412.8280, 32.07715
414.0220, 121.7451
415.2160, 135.4414
416.4100, 46.10547
417.6030, 6.942383
418.7970, 46.56445
419.9900, 195.1992
421.1830, 55.82324
422.3760, 176.4316
423.5690, 64.02930
424.7610, 134.6152
425.9540, 119.2080
427.1460, 154.7881
428.3380, 28.36621
429.5300, 38.91797
430.7220, 29.54980
431.9140, 163.9287
433.1050, 42.39453
434.2970, 201.8555
435.4880, 75.30371
436.6790, 80.73535
437.8700, 59.15430
439.0610, 33.66797
440.2510, 204.0439
441.4420, 180.6426
442.6320, 30.00977
443.8220, 119.2793
445.0120, 113.5547
446.2020, 184.8154
447.3910, 235.0596
448.5810, 113.2891
449.7700, 135.5020
450.9600, 71.75977
452.1490, 80.95410
453.3370, 136.1367
454.5260, 159.0674
455.7150, 182.3779
456.9030, 200.5576
458.0910, 198.1719
459.2800, 207.4961
460.4670, 140.4814
461.6550, 131.3379
462.8430, 14.41797
464.0300, 191.4551
465.2180, 100.4912
466.4050, 174.2480
467.5920, 86.16602
468.7790, 91.74805
469.9650, 94.52051
471.1520, 160.2979
472.3380, 46.24609
473.5250, 122.1973
474.7110, 217.1338
475.8970, 274.0547
477.0820, 135.4307
478.2680, 233.5127
479.4540, 125.6387
480.6390, 35.54297
481.8240, 190.4287
483.0090, 370.0293
484.1940, 236.7383
485.3780, 258.0586
486.5630, 349.3594
487.7470, 417.7920
488.9320, 448.1006
490.1160, 527.0879
491.3000, 555.6270
492.4830, 607.3848
493.6670, 743.2246
494.8500, 718.9551
496.0340, 797.6729
497.2170, 990.3760
498.4000, 947.0664
499.5820, 1154.743
500.7650, 1225.408
501.9480, 1116.974
503.1300, 1189.293
504.3120, 1217.918
505.4940, 1121.929
506.6760, 1073.528
507.8580, 811.3438
509.0390, 862.8145
510.2210, 945.8125
511.4020, 694.3643
512.5830, 757.8525
513.7640, 673.3828
514.9450, 714.9004
516.1250, 731.0762
517.3060, 779.5723
518.4860, 795.0557
519.6660, 756.5303
520.8460, 896.9922
522.0260, 649.3789
523.2060, 911.8193
524.3850, 587.2480
525.5650, 699.3281
526.7440, 573.3066
527.9230, 453.7100
529.1020, 454.1025
530.2810, 239.5371
531.4590, 384.9092
532.6380, 242.2715
533.8160, 271.1963
534.9940, 124.5205
536.1720, 77.85352
537.3500, 183.1768
538.5270, 178.4902
539.7050, 293.7666
540.8820, 175.0605
542.0590, 118.2939
543.2360, 120.5703
544.4130, 110.8359
545.5900, 383.5947
546.7660, 72.71777
547.9430, 132.3320
549.1190, 222.8965
550.2950, 44.11426
551.4710, 234.3232
552.6470, 175.5234
553.8220, 198.2021
554.9980, 126.2217
556.1730, 36.39355
557.3480, 63.49902
558.5230, 25.24316
559.6980, 169.3672
560.8730, 254.7363
562.0470, 274.8584
563.2220, 224.7148
564.3960, 172.8184
565.5700, 262.5322
566.7440, 233.8936
567.9170, 322.9688
569.0910, 275.4512
570.2640, 353.2871
571.4380, 315.4727
572.6110, 281.0918
573.7840, 424.1201
574.9570, 358.6328
576.1290, 369.6436
577.3020, 426.5479
578.4740, 240.1953
579.6460, 505.7568
580.8180, 317.6064
581.9900, 484.5830
583.1620, 715.5527
584.3330, 496.8594
585.5040, 635.8125
586.6760, 733.7578
587.8470, 657.6963
589.0180, 835.6260
590.1880, 806.5469
591.3590, 796.6094
592.5290, 899.3535
593.7000, 887.1748
594.8700, 866.0791
596.0400, 901.9883
597.2090, 865.8916
598.3790, 732.3203
599.5490, 864.2236
600.7180, 635.1289
601.8870, 776.0439
603.0560, 621.9590
604.2250, 756.2676
605.3940, 612.1680
606.5620, 488.0615
607.7300, 432.9668
608.8990, 525.8701
610.0670, 374.1377
611.2350, 330.0527
612.4020, 459.9678
613.5700, 269.4209
614.7370, 356.3223
615.9050, 361.2158
617.0720, 343.1035
618.2390, 207.7002
619.4060, 290.6035
620.5720, 264.5029
621.7390, 293.8779
622.9050, 372.7637
624.0710, 156.6445
625.2370, 364.5244
626.4030, 249.3994
627.5690, 141.2764
628.7340, 238.1631
629.9000, 360.0410
631.0650, 210.9219
632.2300, 259.8135
633.3950, 34.69922
634.5600, 303.5771
635.7240, 280.4492
636.8890, 301.3154
638.0530, 201.1748
639.2170, 322.0293
640.3810, 156.8779
641.5450, 339.7197
642.7080, 196.5615
643.8720, 176.4180
645.0350, 177.2676
646.1980, 261.1230
647.3610, 225.9736
648.5240, 157.8320
649.6870, 308.6943
650.8490, 207.5596
652.0120, 42.41992
653.1740, 114.2803
654.3360, 73.13477
655.4980, 298.9854
656.6600, 169.8330
657.8210, 107.6758
658.9830, 408.5127
660.1440, 282.3447
661.3050, 161.1738
662.4660, 268.0029
663.6270, 303.8271
664.7870, 217.6475
665.9480, 230.4248
667.1080, 129.2627
668.2680, 133.0957
669.4280, 115.8643
670.5880, 118.7529
671.7480, 103.5771
672.9070, 146.3975
674.0670, 141.2207
675.2260, 209.0537
676.3850, 241.8828
677.5440, 313.7070
678.7030, 171.5293
679.8610, 144.3477
681.0200, 194.1602
682.1780, 199.9766
683.3360, 183.7891
684.4940, 32.59668
685.6520, 18.59473
686.8090, 18.20117
687.9670, 18.00586
689.1240, 131.8096
690.2810, 259.6094
691.4380, 87.40820
692.5950, 106.2012
693.7520, 48.00488
694.9080, 47.75781
696.0650, 53.51953
697.2210, 61.20312
698.3770, 63.74121
699.5330, 97.52832
700.6880, 100.1426
701.8440, 164.8125
702.9990, 166.4795
704.1550, 3.854492
705.3100, 60.19727
706.4650, 143.4209
707.6190, 30.95898
708.7740, 72.63574
709.9290, 181.2354
711.0830, 8.835938
712.2370, 127.4541
713.3910, 61.92969
714.5450, 131.6807
715.6980, 182.2910
716.8520, 5.093750
718.0050, 24.51367
719.1580, 56.12207
720.3110, 36.73438
721.4640, 61.82520
722.6170, 109.9551
723.7700, 96.58398
724.9220, 41.21582
726.0740, 101.8467
727.2260, 77.47656
728.3780, 65.10645
729.5300, 46.26562
730.6810, 8.333984
731.8330, 66.93555
732.9840, 118.5352
734.1350, 44.86426
735.2860, 106.7070
736.4370, 21.72070
737.5880, 100.8359
738.7380, 102.3936
739.8880, 65.94922
741.0390, 91.50684
742.1890, 136.0625
743.3380, 15.62598
744.4880, 35.18848
745.6380, 38.75195
746.7870, 108.3145
747.9360, 5.123047
749.0850, 30.43457
750.2340, 72.99219
751.3830, 78.44922
752.5310, 80.06836
753.6800, 248.5850
754.8280, 116.1025
755.9760, 155.3799
757.1240, 77.05469
758.2720, 33.49121
759.4190, 35.92578
760.5670, 150.3633
761.7140, 41.80176
762.8610, 84.53125
764.0080, 149.6807
765.1550, 108.1211
766.3020, 117.5635
767.4480, 231.0049
768.5950, 348.4482
769.7410, 257.8916
770.8870, 109.3359
772.0330, 247.6855
773.1780, 448.1309
774.3240, 334.5771
775.4690, 494.0254
776.6140, 555.4727
777.7590, 499.9219
778.9040, 424.3730
780.0490, 440.8232
781.1940, 420.2764
782.3380, 498.7295
783.4820, 292.1855
784.6260, 372.6406
785.7700, 309.0986
786.9140, 163.5566
788.0580, 138.0166
789.2010, 178.4873
790.3450, 30.95801
791.4880, 143.4316
792.6310, 280.9062
793.7730, 129.3818
794.9160, 27.85938
796.0590, 119.3389
797.2010, 221.8203
798.3430, 64.30371
799.4850, 79.78809
800.6270, 75.27539
801.7690, 100.7637
802.9100, 25.74512
804.0520, 42.73926
805.1930, 22.22461
806.3340, 30.71191
807.4750, 47.20215
808.6160, 107.6934
809.7560, 140.1885
810.8970, 155.6943
812.0370, 84.18359
813.1770, 149.6855
814.3170, 91.18945
815.4570, 8.696289
816.5960, 10.22168
817.7360, 94.74707
818.8750, 194.2773
820.0140, 157.8115
821.1530, 36.34766
822.2920, 82.88281
823.4310, 115.6006
824.5690, 29.02441
825.7070, 21.45410
826.8460, 146.0049
827.9840, 61.55664
829.1220, 120.1143
830.2590, 149.6719
831.3970, 46.61914
832.5340, 86.20117
833.6710, 95.84375
834.8080, 232.4336
835.9450, 93.02734
837.0820, 200.9492
838.2190, 231.5508
839.3550, 139.1943
840.4910, 293.8408
841.6270, 288.7402
842.7630, 276.1191
843.8990, 301.4346
845.0350, 325.6836
846.1700, 225.3730
847.3060, 342.0684
848.4410, 252.6357
849.5760, 397.3408
850.7100, 289.5342
851.8450, 511.2490
852.9800, 662.5146
854.1140, 640.5430
855.2480, 766.2734
856.3820, 845.0068
857.5160, 942.7461
858.6500, 1338.490
859.7830, 1500.238
860.9170, 1626.762
862.0500, 1564.521
863.1830, 1715.285
864.3160, 1647.783
865.4480, 1664.846
866.5810, 1525.484
867.7130, 1542.242
868.8460, 1456.040
869.9780, 1362.844
871.1100, 1586.641
872.2410, 1290.456
873.3730, 1447.763
874.5050, 1573.609
875.6360, 1741.462
876.7670, 1856.221
877.8980, 1833.185
879.0290, 2064.055
880.1590, 2263.932
881.2900, 2314.814
882.4200, 2190.703
883.5500, 2317.597
884.6800, 2430.139
885.8100, 2343.045
886.9400, 2477.957
888.0690, 2754.955
889.1990, 2958.881
890.3280, 3147.813
891.4570, 3285.553
892.5860, 3128.004
893.7140, 3417.957
894.8430, 3605.914
895.9710, 3569.881
897.1000, 3075.861
898.2280, 2736.848
899.3560, 1955.842
900.4830, 1501.006
901.6110, 1010.016
902.7380, 961.0312
903.8660, 921.0566
904.9930, 675.0859
906.1200, 593.1230
907.2460, 770.1680
908.3730, 821.2207
909.5000, 729.2812
910.6260, 747.3496
911.7520, 805.4238
912.8780, 948.5078
914.0040, 845.5977
915.1290, 986.6934
916.2550, 826.7969
917.3800, 984.9102
918.5050, 1221.029
919.6300, 1051.158
920.7550, 1094.291
921.8800, 1189.434
923.0040, 1100.584
924.1290, 1175.715
925.2530, 1279.879
926.3770, 1281.051
927.5010, 1383.283
928.6250, 1320.463
929.7480, 1472.682
930.8720, 1557.906
931.9950, 1477.139
933.1180, 1495.379
934.2410, 1454.627
935.3640, 1464.881
936.4860, 1601.146
937.6090, 1811.432
938.7310, 1565.777
939.8530, 1640.076
940.9750, 1526.385
942.0970, 1687.703
943.2180, 1574.025
944.3400, 1480.357
945.4610, 1687.699
946.5820, 1177.051
947.7030, 1366.408
948.8240, 1066.777
949.9450, 1060.152
951.0650, 861.1875
952.1860, 973.5801
953.3060, 803.9766
954.4260, 542.3828
955.5460, 655.7988
956.6650, 459.2207
957.7850, 522.6504
958.9040, 475.0957
960.0230, 456.5508
961.1420, 474.0234
962.2610, 328.5039
963.3800, 354.6016
964.4990, 339.4863
965.6170, 258.9902
966.7350, 261.2812
967.8530, 100.8145
968.9710, 207.3730
970.0890, 178.9414
971.2070, 320.5137
972.3240, 92.12305
973.4410, 92.15430
974.5580, 236.7793
975.6750, 102.4102
976.7920, 184.0527
977.9090, 29.27734
979.0250, 155.5137
980.1410, 165.5449
981.2580, 201.2383
982.3740, 172.9531
983.4890, 84.67578
984.6050, 137.5977
985.7200, 46.09766
986.8360, 48.20312
987.9510, 53.50977
989.0660, 187.2344
990.1810, 135.9648
991.2950, 37.69922
992.4100, 96.44141
993.5240, 49.18945
994.6390, 30.05664
995.7530, 35.58594
996.8660, 193.4531
997.9800, 139.9258
999.0940, 137.6973
1000.207, 265.4727
1001.320, 18.28711
1002.433, 147.1074
1003.546, 69.93164
1004.659, 174.7656
1005.772, 74.61719
1006.884, 84.90430
1007.996, 55.77539
1009.108, 144.7812
1010.220, 167.6660
1011.332, 75.55273
1012.444, 36.44727
1013.555, 91.34570
1014.666, 212.2539
1015.777, 151.1680
1016.888, 155.0859
1017.999, 32.01367
1019.110, 142.9434
1020.220, 221.8828
1021.331, 180.8242
1022.441, 169.7930
1023.551, 89.76758
1024.661, 130.7480
1025.770, 83.73047
1026.880, 55.75977
1027.989, 52.79492
1029.098, 13.83398
1030.207, 115.0195
1031.316, 98.07031
1032.425, 161.3496
1033.533, 7.595703
1034.642, 11.46289
1035.750, 182.5254
1036.858, 53.59180
1037.966, 165.6641
1039.073, 82.73828
1040.181, 21.81641
1041.288, 191.9004
1042.396, 24.98828
1043.503, 159.0859
1044.610, 389.2070
1045.716, 61.33398
1046.823, 183.4609
1047.929, 78.59766
1049.036, 212.7383
1050.142, 109.8887
1051.248, 197.0508
1052.353, 166.2148
1053.459, 45.38477
1054.564, 145.5586
1055.670, 115.7344
1056.775, 41.08594
1057.880, 262.0762
1058.985, 25.25977
1060.089, 160.5039
1061.194, 181.6895
1062.298, 70.87891
1063.402, 95.09180
1064.506, 248.3027
1065.610, 161.5332
1066.713, 141.7637
1067.817, 88.00000
1068.920, 71.23633
1070.023, 45.65039
1071.126, 92.89062
1072.229, 45.13867
1073.332, 141.3887
1074.435, 41.64062
1075.537, 181.8945
1076.639, 142.1523
1077.741, 154.9434
1078.843, 119.2012
1079.945, 143.4785
1081.046, 399.1602
1082.148, 256.4395
1083.249, 59.28125
1084.350, 265.9688
1085.451, 99.21875
1086.551, 231.4668
1087.652, 297.7344
1088.752, 283.1914
1089.853, 217.4609
1090.953, 226.7305
1092.053, 172.0020
1093.152, 169.3535
1094.252, 49.71875
1095.351, 125.0215
1096.451, 165.3281
1097.550, 74.63281
1098.649, 56.05859
1099.748, 146.2109
1100.846, 205.4844
1101.945, 192.7578
1103.043, 47.04102
1104.141, 63.32422
1105.239, 128.3828
1106.337, 49.83789
1107.434, 85.29688
1108.532, 72.51758
1109.629, 226.7344
1110.726, 9.296875
1111.823, 62.48828
1112.920, 225.6895
1114.017, 116.1855
1115.113, 348.3633
1116.210, 81.53711
1117.306, 272.9297
1118.402, 242.1211
1119.498, 255.2637
1120.593, 134.4512
1121.689, 197.6387
1122.784, 174.1445
1123.879, 219.0098
1124.974, 184.1914
1126.069, 178.3711
1127.164, 145.7793
1128.259, 26.95703
1129.353, 17.86719
1130.447, 228.2910
1131.541, 213.4473
1132.635, 109.5664
1133.729, 190.7207
1134.822, 104.8730
1135.916, 84.01953
1137.009, 192.1680
1138.102, 58.68750
1139.195, 202.4160
1140.288, 17.51758
1141.380, 156.1289
1142.473, 146.2227
1143.565, 91.31445
1144.657, 196.4062
1145.749, 110.3906
1146.841, 199.4844
1147.932, 158.5684
1149.024, 188.6465
1150.115, 149.7227
1151.206, 241.7949
1152.297, 154.8672
1153.388, 171.9355
1154.479, 129.0020
1155.569, 126.0625
1156.659, 214.1230
1157.750, 37.17773
1158.839, 98.28516
1159.929, 202.3340
1161.019, 1.617188
1162.108, 68.41211
1163.198, 19.44336
1164.287, 116.4648
1165.376, 33.32031
1166.465, 189.3340
1167.553, 148.3477
1168.642, 133.3555
1169.730, 92.36133
1170.818, 106.5840
1171.906, 67.36133
1172.994, 143.3555
1174.082, 96.52734
1175.170, 120.2871
1176.257, 92.27148
1177.344, 172.2500
1178.431, 157.7383
1179.518, 217.6719
1180.605, 189.7031
1181.691, 242.7539
1182.778, 278.1973
1183.864, 215.3223
1184.950, 268.6250
1186.036, 132.5703
1187.122, 111.5137
1188.207, 134.4785
1189.292, 316.5703
1190.378, 57.50000
1191.463, 182.3809
1192.548, 140.2617
1193.632, 84.96680
1194.717, 76.83789
1195.801, 238.9727
1196.886, 210.8340
1197.970, 153.6914
1199.054, 315.5410
1200.137, 23.61133
1201.221, 299.2031
1202.305, 86.01172
1203.388, 70.81445
1204.471, 89.61328
1205.554, 192.4082
1206.637, 141.1973
1207.719, 24.98242
1208.802, 254.8125
1209.884, 465.6621
1210.966, 31.42578
1212.048, 279.1816
1213.130, 198.9297
1214.212, 86.02539
1215.293, 232.7734
1216.374, 192.5078
1217.456, 177.8320
1218.536, 39.55469
1219.617, 210.2715
1220.698, 163.9844
1221.778, 60.69141
1222.859, 6.607422
1223.939, 95.06836
1225.019, 135.7070
1226.099, 267.3730
1227.178, 306.0352
1228.258, 294.6895
1229.337, 164.5762
1230.417, 247.2207
1231.496, 110.8594
1232.574, 238.9043
1233.653, 139.5332
1234.732, 288.3906
1235.810, 210.5957
1236.888, 35.21289
1237.966, 62.82031
1239.044, 156.4219
1240.122, 82.02148
1241.199, 250.4941
1242.277, 86.74023
1243.354, 28.67188
1244.431, 234.8789
1245.508, 107.4277
1246.585, 123.9746
1247.661, 228.4492
1248.738, 45.98438
1249.814, 84.54492
1250.890, 102.0684
1251.966, 302.5879
1253.042, 136.1035
1254.117, 49.61328
1255.193, 65.12305
1256.268, 168.6270
1257.343, 160.1328
1258.418, 74.63281
1259.493, 78.42188
1260.567, 122.9141
1261.642, 40.59766
1262.716, 122.8535
1263.790, 95.30078
1264.864, 93.74414
1265.938, 54.18164
1267.011, 110.6172
1268.085, 202.6211
1269.158, 78.04883
1270.231, 14.34570
1271.304, 215.7637
1272.377, 183.1777
1273.450, 48.59180
1274.522, 5.001953
1275.594, 30.40039
1276.666, 147.7949
1277.738, 170.1855
1278.810, 195.5742
1279.882, 214.9609
1280.953, 193.3477
1282.025, 79.73242
1283.096, 121.1133
1284.167, 62.49219
1285.238, 47.87109
1286.308, 45.24805
1287.379, 22.62305
1288.449, 157.9980
