##NAMES=Whewellite
##RRUFFID=R050240
##IDEAL CHEMISTRY=Ca(C_2_)^6+^O_4_&#183;H_2_O
##LOCALITY=Huron River, Milan, Ohio, USA
##OWNER=RRUFF
##SOURCE=Marcus Origlieri
##DESCRIPTION=White fragment
##STATUS=The identification of this mineral has been confirmed by X-ray diffraction and chemical analysis
##URL=rruff.info/R050240
##MEASURED CHEMISTRY=Ca_1.00_C_2_O_4_Â·H_2_O
##PIN_ID=L00839
##ORIENTATION=Laser parallel to c* (0 0 1). Fiducial mark perpendicular to laser is parallel to a [1 0 0]
107.0470, 0.0000000E+00
108.2800, 240.8145
109.5120, 83.33984
110.7440, 30.99316
111.9760, 26.56250
113.2080, 66.60742
114.4400, 193.8203
115.6710, 269.7930
116.9030, 353.5557
118.1340, 461.3535
119.3650, 756.5850
120.5960, 944.7783
121.8270, 1178.560
123.0580, 1530.615
124.2880, 1771.691
125.5190, 2085.565
126.7490, 2563.050
127.9790, 3168.973
129.2090, 3458.189
130.4390, 4187.573
131.6680, 4690.014
132.8980, 5377.453
134.1270, 6002.830
135.3560, 6607.070
136.5850, 7287.104
137.8140, 7662.863
139.0430, 7995.305
140.2710, 7910.385
141.5000, 7332.047
142.7280, 6527.258
143.9560, 5549.979
145.1840, 4572.164
146.4120, 3852.582
147.6390, 3067.796
148.8670, 2452.064
150.0940, 1882.722
151.3210, 1387.688
152.5490, 1119.949
153.7750, 961.4932
155.0020, 856.3086
156.2290, 605.4033
157.4550, 509.0957
158.6810, 419.1182
159.9080, 348.3232
161.1340, 376.0889
162.3590, 360.9043
163.5850, 401.8896
164.8110, 499.0479
166.0360, 413.3486
167.2610, 404.8203
168.4860, 554.5010
169.7110, 279.3857
170.9360, 354.4824
172.1610, 544.7246
173.3850, 512.0557
174.6100, 686.4756
175.8340, 662.0371
177.0580, 723.7305
178.2820, 871.5518
179.5050, 997.6797
180.7290, 1204.662
181.9520, 1423.463
183.1760, 1718.354
184.3990, 2017.201
185.6220, 2373.037
186.8450, 2750.887
188.0670, 3347.795
189.2900, 4124.781
190.5120, 4434.821
191.7340, 5149.893
192.9560, 5471.000
194.1780, 5404.211
195.4000, 5199.475
196.6220, 5133.859
197.8430, 4963.333
199.0640, 4980.895
200.2860, 4878.566
201.5070, 4885.281
202.7270, 5226.045
203.9480, 5308.856
205.1690, 5454.391
206.3890, 5219.488
207.6090, 5113.240
208.8290, 4800.012
210.0490, 4536.729
211.2690, 4102.127
212.4890, 3905.199
213.7080, 3526.502
214.9280, 3188.594
216.1470, 2803.580
217.3660, 2744.350
218.5850, 2722.406
219.8030, 2448.520
221.0220, 2424.590
222.2400, 2509.042
223.4590, 2326.277
224.6770, 1929.549
225.8950, 1620.508
227.1120, 1427.827
228.3300, 1168.750
229.5480, 914.4648
230.7650, 871.9639
231.9820, 817.4326
233.1990, 832.1924
234.4160, 838.6221
235.6330, 744.6934
236.8490, 744.0938
238.0660, 819.5195
239.2820, 645.9678
240.4980, 896.4414
241.7140, 702.9365
242.9300, 737.1934
244.1460, 881.9678
245.3610, 860.8994
246.5770, 771.4277
247.7920, 918.3877
249.0070, 837.7764
250.2220, 872.5078
251.4370, 849.4316
252.6510, 748.7344
253.8660, 751.0635
255.0800, 709.0752
256.2940, 640.3203
257.5080, 639.5801
258.7220, 534.0508
259.9360, 444.0469
261.1490, 416.3037
262.3630, 453.7930
263.5760, 225.4902
264.7890, 307.3779
266.0020, 202.7539
267.2150, 377.7930
268.4270, 346.3135
269.6400, 547.8750
270.8520, 515.4531
272.0640, 400.2061
273.2760, 577.0654
274.4880, 541.0234
275.7000, 561.0781
276.9120, 578.2197
278.1230, 523.6631
279.3340, 526.9707
280.5450, 448.3428
281.7560, 473.4697
282.9670, 467.9746
284.1780, 344.5938
285.3880, 380.7930
286.5980, 337.4688
287.8090, 276.1953
289.0190, 137.1914
290.2290, 159.0117
291.4380, 89.41406
292.6480, 184.7217
293.8570, 152.6660
295.0670, 114.6465
296.2760, 34.66309
297.4850, 81.47363
298.6930, 212.5576
299.9020, 114.6738
301.1110, 122.8193
302.3190, 52.00684
303.5270, 106.8125
304.7350, 96.23828
305.9430, 110.7432
307.1510, 50.97559
308.3580, 13.25781
309.5660, 61.88184
310.7730, 155.1533
311.9800, 71.55859
313.1870, 28.73535
314.3940, 81.90527
315.6010, 55.07910
316.8070, 8.225586
318.0130, 15.34961
319.2200, 64.99609
320.4260, 91.35254
321.6310, 53.28027
322.8370, 81.09082
324.0430, 4.471680
325.2480, 211.9863
326.4540, 44.61426
327.6590, 77.78613
328.8640, 78.54785
330.0680, 69.96973
331.2730, 264.0078
332.4780, 101.4482
333.6820, 25.10254
334.8860, 8.200195
336.0900, 58.09375
337.2940, 183.5635
338.4980, 62.04297
339.7010, 129.5283
340.9050, 50.02148
342.1080, 233.5215
343.3110, 35.97266
344.5140, 40.53223
345.7170, 270.0420
346.9200, 71.55762
348.1220, 71.92285
349.3240, 110.5869
350.5270, 215.0938
351.7290, 66.56055
352.9310, 21.99902
354.1320, 84.44043
355.3340, 102.1289
356.5350, 5.734375
357.7370, 38.65039
358.9380, 66.03809
360.1390, 52.58301
361.3400, 74.78809
362.5400, 9.846680
363.7410, 30.51758
364.9410, 48.88574
366.1410, 29.91113
367.3410, 50.26660
368.5410, 54.98242
369.7410, 42.35156
370.9400, 76.71484
372.1400, 61.07910
373.3390, 21.42578
374.5380, 88.77539
375.7370, 5.879883
376.9360, 176.4336
378.1350, 66.25195
379.3330, 60.03027
380.5310, 2.311523
381.7300, 186.5908
382.9280, 218.8721
384.1260, 18.15234
385.3230, 32.56543
386.5210, 85.70605
387.7180, 18.97461
388.9160, 2.771484
390.1130, 44.52539
391.3100, 158.7070
392.5060, 228.9307
393.7030, 16.14844
394.9000, 175.3516
396.0960, 25.55371
397.2920, 161.7559
398.4880, 26.02637
399.6840, 91.18848
400.8800, 28.42188
402.0750, 16.67188
403.2710, 110.9385
404.4660, 62.21777
405.6610, 186.6299
406.8560, 132.9316
408.0510, 85.76074
409.2450, 1.090820
410.4400, 9.740234
411.6340, 28.53906
412.8280, 12.70605
414.0220, 27.40625
415.2160, 40.87109
416.4100, 113.1523
417.6030, 89.47168
418.7970, 213.5967
419.9900, 127.9219
421.1830, 51.24805
422.3760, 45.42383
423.5690, 82.86816
424.7610, 19.15918
425.9540, 65.44531
427.1460, 6.270508
428.3380, 82.97949
429.5300, 96.25488
430.7220, 124.4873
431.9140, 24.28125
433.1050, 153.9209
434.2970, 45.87988
435.4880, 33.27637
436.6790, 157.4336
437.8700, 106.5977
439.0610, 62.75879
440.2510, 24.92383
441.4420, 173.0781
442.6320, 145.2295
443.8220, 236.3779
445.0120, 70.52148
446.2020, 66.53027
447.3910, 284.2979
448.5810, 41.51172
449.7700, 171.0146
450.9600, 169.9688
452.1490, 31.08691
453.3370, 102.1973
454.5260, 156.3037
455.7150, 81.35840
456.9030, 49.45605
458.0910, 24.99707
459.2800, 67.37793
460.4670, 23.53516
461.6550, 141.2969
462.8430, 100.3252
464.0300, 127.3477
465.2180, 127.7949
466.4050, 152.8086
467.5920, 42.81836
468.7790, 113.8203
469.9650, 121.5020
471.1520, 4.492188
472.3380, 76.47070
473.5250, 0.4433590
474.7110, 119.3945
475.8970, 107.3398
477.0820, 29.57031
478.2680, 17.30273
479.4540, 163.2188
480.6390, 163.1328
481.8240, 106.0410
483.0090, 108.9453
484.1940, 72.83984
485.3780, 75.35352
486.5630, 146.2695
487.7470, 113.1523
488.9320, 286.0273
490.1160, 368.8965
491.3000, 543.4805
492.4830, 561.3398
493.6670, 531.1953
494.8500, 579.0430
496.0340, 700.9375
497.2170, 830.7832
498.4000, 798.4102
499.5820, 748.9004
500.7650, 931.7305
501.9480, 860.7363
503.1300, 928.7109
504.3120, 894.5273
505.4940, 897.7285
506.6760, 973.5352
507.8580, 811.3359
509.0390, 571.1328
510.2210, 580.9258
511.4020, 775.7129
512.5830, 628.5059
513.7640, 801.2930
514.9450, 859.0957
516.1250, 968.8945
517.3060, 998.6895
518.4860, 1030.568
519.6660, 866.5762
520.8460, 1003.414
522.0260, 957.2500
523.2060, 845.6855
524.3850, 873.5117
525.5650, 840.3457
526.7440, 748.1738
527.9230, 603.6680
529.1020, 433.5059
530.2810, 437.0254
531.4590, 380.0312
532.6380, 275.7363
533.8160, 395.5605
534.9940, 286.3789
536.1720, 317.0762
537.3500, 294.2773
538.5270, 262.6953
539.7050, 184.4961
540.8820, 191.9902
542.0590, 61.78516
543.2360, 196.5762
544.4130, 128.1387
545.5900, 148.9316
546.7660, 39.71875
547.9430, 253.5020
549.1190, 16.61523
550.2950, 62.60156
551.4710, 63.94531
552.6470, 181.8750
553.8220, 18.46484
554.9980, 81.13867
556.1730, 222.9121
557.3480, 255.6211
558.5230, 83.85547
559.6980, 6.554688
560.8730, 221.2441
562.0470, 102.9258
563.2220, 238.6055
564.3960, 312.0488
565.5700, 88.71680
566.7440, 358.6953
567.9170, 442.3535
569.0910, 352.7559
570.2640, 277.9551
571.4380, 420.5996
572.6110, 363.2383
573.7840, 101.6504
574.9570, 145.2812
576.1290, 460.3672
577.3020, 291.3164
578.4740, 400.6895
579.6460, 349.3027
580.8180, 267.4180
581.9900, 295.2637
583.1620, 465.8652
584.3330, 437.4590
585.5040, 544.0488
586.6760, 785.6348
587.8470, 696.2227
589.0180, 651.8223
590.1880, 794.2285
591.3590, 782.8496
592.5290, 836.4727
593.7000, 815.7168
594.8700, 808.3301
596.0400, 694.9375
597.2090, 688.5547
598.3790, 784.1191
599.5490, 827.1211
600.7180, 598.7773
601.8870, 560.8535
603.0560, 651.4707
604.2250, 598.0859
605.3940, 587.6953
606.5620, 584.3105
607.7300, 447.9199
608.8990, 471.4023
610.0670, 392.0078
611.2350, 341.6133
612.4020, 263.1602
613.5700, 345.7598
614.7370, 305.7520
615.9050, 301.3438
617.0720, 246.9336
618.2390, 367.0879
619.4060, 218.8457
620.5720, 280.4316
621.7390, 213.0156
622.9050, 189.6875
624.0710, 242.1836
625.2370, 173.9297
626.4030, 240.5039
627.5690, 257.0801
628.7340, 240.9629
629.9000, 258.2227
631.0650, 256.7891
632.2300, 309.3711
633.3950, 355.9492
634.5600, 262.5234
635.7240, 306.5508
636.8890, 52.12500
638.0530, 87.69727
639.2170, 225.2891
640.3810, 159.8809
641.5450, 313.4688
642.7080, 214.0566
643.8720, 181.6523
645.0350, 288.2480
646.1980, 220.8418
647.3610, 239.5527
648.5240, 251.0449
649.6870, 230.6133
650.8490, 260.1992
652.0120, 287.1660
653.1740, 333.7461
654.3360, 202.9648
655.4980, 192.5410
656.6600, 273.2266
657.8210, 345.7949
658.9830, 320.1074
660.1440, 211.4531
661.3050, 334.4277
662.4660, 206.0078
663.6270, 247.5859
664.7870, 260.5371
665.9480, 76.11133
667.1080, 182.6797
668.2680, 133.6094
669.4280, 5.183594
670.5880, 85.74805
671.7480, 176.1816
672.9070, 94.75781
674.0670, 129.3301
675.2260, 132.9883
676.3850, 188.5527
677.5440, 128.1172
678.7030, 215.6758
679.8610, 231.2344
681.0200, 76.79883
682.1780, 149.3594
683.3360, 188.3770
684.4940, 191.9316
685.6520, 199.4863
686.8090, 164.9160
687.9670, 26.97656
689.1240, 174.0000
690.2810, 3.291016
691.4380, 84.24023
692.5950, 176.7734
693.7520, 192.8633
694.9080, 219.4043
696.0650, 108.9531
697.2210, 122.5020
698.3770, 177.9707
699.5330, 74.63672
700.6880, 132.1035
701.8440, 257.5664
702.9990, 207.0254
704.1550, 234.5020
705.3100, 152.9746
706.4650, 122.4512
707.6190, 80.07812
708.7740, 36.35352
709.9290, 70.80859
711.0830, 152.2617
712.2370, 317.7129
713.3910, 143.1777
714.5450, 206.6387
715.6980, 15.88281
716.8520, 16.41797
718.0050, 163.0273
719.1580, 12.52930
720.3110, 132.8965
721.4640, 120.3281
722.6170, 68.75586
723.7700, 137.6309
724.9220, 102.7051
726.0740, 161.0293
727.2260, 118.4492
728.3780, 123.8887
729.5300, 171.3281
730.6810, 112.7656
731.8330, 224.2070
732.9840, 199.8516
734.1350, 110.0957
735.2860, 164.5352
736.4370, 125.9746
737.5880, 3.587891
738.7380, 15.15820
739.8880, 234.2793
741.0390, 70.71875
742.1890, 253.1562
743.3380, 109.5918
744.4880, 151.0352
745.6380, 133.4785
746.7870, 114.9219
747.9360, 237.3633
749.0850, 65.80273
750.2340, 12.24219
751.3830, 80.68164
752.5310, 87.81055
753.6800, 153.5859
754.8280, 137.6816
755.9760, 45.51367
757.1240, 132.9766
758.2720, 111.4434
759.4190, 173.9102
760.5670, 106.3750
761.7140, 44.83789
762.8610, 19.29883
764.0080, 65.75977
765.1550, 179.2188
766.3020, 218.6758
767.4480, 325.1348
768.5950, 134.5918
769.7410, 246.0488
770.8870, 256.5039
772.0330, 329.9590
773.1780, 15.58594
774.3240, 352.8555
775.4690, 278.2949
776.6140, 280.7363
777.7590, 568.1777
778.9040, 422.6152
780.0490, 485.0527
781.1940, 398.4922
782.3380, 381.6211
783.4820, 382.7168
784.6260, 314.8027
785.7700, 355.2422
786.9140, 237.6777
788.0580, 206.1133
789.2010, 32.45117
790.3450, 261.9629
791.4880, 68.62305
792.6310, 243.7520
793.7730, 19.12695
794.9160, 54.50000
796.0590, 142.8730
797.2010, 194.7539
798.3430, 16.48633
799.4850, 46.76562
800.6270, 97.01953
801.7690, 33.72461
802.9100, 110.5098
804.0520, 210.7422
805.1930, 50.02344
806.3340, 257.1797
807.4750, 143.6914
808.6160, 9.101563
809.7560, 170.0957
810.8970, 66.29492
812.0370, 14.49219
813.1770, 218.6914
814.3170, 56.89258
815.4570, 238.0918
816.5960, 274.2949
817.7360, 256.4961
818.8750, 82.69922
820.0140, 38.09570
821.1530, 225.0898
822.2920, 56.27344
823.4310, 139.4590
824.5690, 56.35352
825.7070, 224.4863
826.8460, 299.6484
827.9840, 329.7305
829.1220, 417.6855
830.2590, 120.1035
831.3970, 398.2949
832.5340, 145.4883
833.6710, 52.68164
834.8080, 132.3477
835.9450, 136.5508
837.0820, 14.77148
838.2190, 193.9902
839.3550, 93.21484
840.4910, 304.4414
841.6270, 183.6719
842.7630, 315.9082
843.8990, 323.1484
845.0350, 456.5879
846.1700, 221.7266
847.3060, 375.9941
848.4410, 425.4004
849.5760, 275.6758
850.7100, 407.9512
851.8450, 483.2324
852.9800, 404.7871
854.1140, 540.3164
855.2480, 627.6074
856.3820, 732.3906
857.5160, 849.6895
858.6500, 947.9883
859.7830, 953.2891
860.9170, 1427.598
862.0500, 1416.904
863.1830, 1587.219
864.3160, 1460.232
865.4480, 1513.559
866.5810, 1589.893
867.7130, 1409.793
868.8460, 1229.131
869.9780, 1108.473
871.1100, 895.8164
872.2410, 970.1660
873.3730, 1188.520
874.5050, 1030.982
875.6360, 1162.777
876.7670, 1236.141
877.8980, 1307.508
879.0290, 1604.877
880.1590, 1282.393
881.2900, 1758.770
882.4200, 1626.154
883.5500, 1596.543
884.6800, 1760.936
885.8100, 1734.359
886.9400, 1778.467
888.0690, 1734.871
889.1990, 2027.541
890.3280, 2129.951
891.4570, 2484.369
892.5860, 2762.777
893.7140, 3002.203
894.8430, 3591.631
895.9710, 3701.061
897.1000, 3065.496
898.2280, 2360.928
899.3560, 1476.197
900.4830, 1430.645
901.6110, 938.1152
902.7380, 883.6113
903.8660, 793.1152
904.9930, 714.6211
906.1200, 617.1309
907.2460, 598.6484
908.3730, 569.0000
909.5000, 601.2461
910.6260, 668.7793
911.7520, 648.3184
912.8780, 905.8633
914.0040, 755.4102
915.1290, 679.9629
916.2550, 979.5215
917.3800, 954.0840
918.5050, 803.6523
919.6300, 837.2227
920.7550, 808.8008
921.8800, 929.3945
923.0040, 999.9902
924.1290, 913.5938
925.2530, 1115.875
926.3770, 1018.486
927.5010, 944.4688
928.6250, 1100.096
929.7480, 1177.617
930.8720, 1195.258
931.9950, 1232.908
933.1180, 1281.047
934.2410, 1074.318
935.3640, 1205.990
936.4860, 1094.668
937.6090, 1104.992
938.7310, 1246.697
939.8530, 1088.408
940.9750, 1259.775
942.0970, 1168.500
943.2180, 1161.238
944.3400, 1257.143
945.4610, 1083.928
946.5820, 979.7188
947.7030, 974.4277
948.8240, 982.2324
949.9450, 787.0488
951.0650, 876.8672
952.1860, 790.6953
953.3060, 650.5312
954.4260, 569.3730
955.5460, 584.7598
956.6650, 334.6191
957.7850, 320.4824
958.9040, 357.3594
960.0230, 537.7285
961.1420, 187.6211
962.2610, 353.5234
963.3800, 279.4395
964.4990, 331.3613
965.6170, 209.2930
966.7350, 195.2324
967.8530, 164.1797
968.9710, 272.1348
970.0890, 351.7324
971.2070, 237.4922
972.3240, 91.50781
973.4410, 45.53320
974.5580, 98.57031
975.6750, 180.6152
976.7920, 101.7480
977.9090, 118.8086
979.0250, 255.8789
980.1410, 119.0801
981.2580, 166.1895
982.3740, 8.691406
983.4890, 29.43555
984.6050, 100.5664
985.7200, 95.70703
986.8360, 49.85547
987.9510, 31.01953
989.0660, 50.42188
990.1810, 13.38867
991.2950, 45.58984
992.4100, 78.79102
993.5240, 234.0195
994.6390, 132.2754
995.7530, 116.5410
996.8660, 42.80859
997.9800, 100.9023
999.0940, 156.8926
1000.207, 243.1562
1001.320, 45.57422
1002.433, 288.6914
1003.546, 157.9609
1004.659, 145.2402
1005.772, 85.52539
1006.884, 100.8184
1007.996, 268.1211
1009.108, 270.4355
1010.220, 241.7656
1011.332, 20.10156
1012.444, 164.4473
1013.555, 55.20312
1014.666, 96.17383
1015.777, 198.5215
1016.888, 368.8828
1017.999, 210.2539
1019.110, 1.367188
1020.220, 66.01758
1021.331, 129.4121
1022.441, 91.18750
1023.551, 126.1836
1024.661, 91.56055
1025.770, 140.9492
1026.880, 170.3438
1027.989, 145.7441
1029.098, 148.1562
1030.207, 168.5918
1031.316, 111.0352
1032.425, 124.4863
1033.533, 85.93945
1034.642, 114.2090
1035.750, 77.34375
1036.858, 60.82617
1037.966, 168.3125
1039.073, 194.8066
1040.181, 197.4590
1041.288, 113.8184
1042.396, 197.1328
1043.503, 123.6641
1044.610, 111.2012
1045.716, 175.7461
1046.823, 150.2988
1047.929, 111.8555
1049.036, 212.4219
1050.142, 125.9941
1051.248, 84.57227
1052.353, 137.1602
1053.459, 126.0684
1054.564, 285.1504
1055.670, 114.7734
1056.775, 174.4023
1057.880, 1.962891
1058.985, 201.6875
1060.089, 144.0742
1061.194, 131.7598
1062.298, 225.4492
1063.402, 209.0605
1064.506, 155.7656
1065.610, 132.7461
1066.713, 114.5137
1067.817, 121.6621
1068.920, 229.4551
1070.023, 244.1738
1071.126, 292.9883
1072.229, 67.80859
1073.332, 139.6348
1074.435, 199.4844
1075.537, 264.3418
1076.639, 315.9004
1077.741, 143.7734
1078.843, 145.6562
1079.945, 201.5430
1081.046, 190.4375
1082.148, 295.2480
1083.249, 382.2422
1084.350, 415.1523
1085.451, 562.0684
1086.551, 435.9961
1087.652, 606.9277
1088.752, 272.8770
1089.853, 218.8301
1090.953, 440.5742
1092.053, 247.5371
1093.152, 94.52344
1094.252, 144.5156
1095.351, 118.5156
1096.451, 130.5156
1097.550, 229.5254
1098.649, 135.5352
1099.748, 100.5742
1100.846, 206.6191
1101.945, 7.304688
1103.043, 45.22461
1104.141, 25.12695
1105.239, 64.92773
1106.337, 92.17969
1107.434, 94.27930
1108.532, 14.61719
1109.629, 173.4824
1110.726, 131.5859
1111.823, 83.30469
1112.920, 122.7617
1114.017, 168.8340
1115.113, 87.77734
1116.210, 253.8574
1117.306, 465.9414
1118.402, 258.0312
1119.498, 424.1250
1120.593, 334.2207
1121.689, 322.3203
1122.784, 267.4258
1123.879, 160.5371
1124.974, 197.5605
1126.069, 206.5664
1127.164, 177.6875
1128.259, 242.8125
1129.353, 114.0215
1130.447, 18.54297
1131.541, 65.57812
1132.635, 227.7031
1133.729, 77.26172
1134.822, 189.3945
1135.916, 93.52734
1137.009, 250.6680
1138.102, 183.8105
1139.195, 95.95703
1140.288, 178.1094
1141.380, 154.2617
1142.473, 124.4199
1143.565, 214.5781
1144.657, 151.7422
1145.749, 11.77148
1146.841, 161.9414
1147.932, 147.7246
1149.024, 303.9023
1150.115, 37.08398
1151.206, 203.2383
1152.297, 67.42773
1153.388, 25.61914
1154.479, 138.5488
1155.569, 68.74609
1156.659, 37.94922
1157.750, 30.15234
1158.839, 162.3633
1159.929, 138.5762
1161.019, 139.0078
1162.108, 230.2305
1163.198, 117.4531
1164.287, 88.67969
1165.376, 55.09180
1166.465, 86.89258
1167.553, 55.26172
1168.642, 283.4219
1169.730, 337.5820
1170.818, 307.7461
1171.906, 280.9160
1172.994, 2.912109
1174.082, 291.2539
1175.170, 225.4551
1176.257, 106.6270
1177.344, 321.8047
1178.431, 120.9883
1179.518, 337.1719
1180.605, 125.3594
1181.691, 183.5508
1182.778, 272.7480
1183.864, 6.945313
1184.950, 14.85938
1186.036, 145.8496
1187.122, 127.0430
1188.207, 449.2383
1189.292, 137.3770
1190.378, 0.5781250
1191.463, 157.7754
1192.548, 352.9766
1193.632, 2.820313
1194.717, 162.3789
1195.801, 10.58203
1196.886, 193.7852
1197.970, 7.992188
1199.054, 48.19531
1200.137, 37.59766
1201.221, 48.58398
1202.305, 50.77148
1203.388, 285.9629
1204.471, 95.72461
1205.554, 159.9238
1206.637, 117.8789
1207.719, 232.2598
1208.802, 185.2812
1209.884, 183.4238
1210.966, 339.6328
1212.048, 247.7812
1213.130, 210.9316
1214.212, 289.0820
1215.293, 199.2383
1216.374, 344.4805
1217.456, 323.6406
1218.536, 24.81641
1219.617, 423.9824
1220.698, 0.1503910
1221.778, 162.3145
1222.859, 145.5352
1223.939, 134.7012
1225.019, 64.87109
1226.099, 283.0449
1227.178, 78.22070
1228.258, 257.3965
1229.337, 333.5664
1230.417, 266.7461
1231.496, 195.5664
1232.574, 168.1406
1233.653, 84.57812
1234.732, 97.62305
1235.810, 0.3320310
1236.888, 93.85547
1237.966, 222.0430
1239.044, 183.1543
1240.122, 287.3477
1241.199, 288.5430
1242.277, 192.6426
1243.354, 264.8438
1244.431, 335.0469
1245.508, 32.25391
1246.585, 329.4668
1247.661, 28.68164
1248.738, 222.8984
1249.814, 34.11719
1250.890, 420.3418
1251.966, 158.5703
1253.042, 433.7988
1254.117, 107.0312
1255.193, 101.7324
1256.268, 65.44922
1257.343, 53.63281
1258.418, 22.17969
1259.493, 93.99219
1260.567, 392.6484
1261.642, 89.84766
1262.716, 307.0508
1263.790, 123.2637
1264.864, 541.4824
1265.938, 122.7031
1267.011, 150.9297
1268.085, 194.1602
1269.158, 177.3926
1270.231, 76.63086
1271.304, 269.8730
1272.377, 290.1191
1273.450, 155.3691
1274.522, 267.6230
1275.594, 149.8555
1276.666, 17.86914
1277.738, 114.3926
1278.810, 79.66211
1279.882, 124.9375
1280.953, 229.2168
1282.025, 105.5039
1283.096, 129.7930
1284.167, 234.1074
1285.238, 156.2383
1286.308, 72.75195
1287.379, 84.08398
1288.449, 74.42188
