##NAMES=Whewellite
##RRUFFID=R050240
##IDEAL CHEMISTRY=Ca(C_2_)^6+^O_4_&#183;H_2_O
##LOCALITY=Huron River, Milan, Ohio, USA
##OWNER=RRUFF
##SOURCE=Marcus Origlieri
##DESCRIPTION=White fragment
##STATUS=The identification of this mineral has been confirmed by X-ray diffraction and chemical analysis
##URL=rruff.info/R050240
##MEASURED CHEMISTRY=Ca_1.00_C_2_O_4_Â·H_2_O
##PIN_ID=L01615
##ORIENTATION=Laser parallel to -a* (-1 0 0). Fiducial mark perpendicular to laser is parallel to b [0 1 0]
87.30800, 0.0000000E+00
88.54200, 71.84766
89.77700, 101.9539
91.01200, 116.8176
92.24600, 38.25171
93.48000, 23.67798
94.71400, 27.15967
95.94800, 29.97583
97.18200, 25.58643
98.41600, 68.58765
99.64900, 77.01343
100.8830, 177.2803
102.1160, 225.0425
103.3490, 247.0210
104.5820, 374.9902
105.8150, 504.7593
107.0470, 672.1565
108.2800, 886.0229
109.5120, 893.2134
110.7440, 952.5996
111.9760, 1210.069
113.2080, 1479.522
114.4400, 1814.872
115.6710, 2214.046
116.9030, 2733.003
118.1340, 3344.701
119.3650, 4248.120
120.5960, 4989.218
121.8270, 5901.961
123.0580, 6852.312
124.2880, 7852.225
125.5190, 9128.650
126.7490, 10542.53
127.9790, 12367.82
129.2090, 14456.47
130.4390, 16855.47
131.6680, 18957.78
132.8980, 21442.37
134.1270, 23979.24
135.3560, 26389.36
136.5850, 27785.72
137.8140, 28865.29
139.0430, 27621.08
140.2710, 25748.07
141.5000, 22598.25
142.7280, 18811.61
143.9560, 15209.23
145.1840, 12028.29
146.4120, 9386.517
147.6390, 7182.002
148.8670, 5521.869
150.0940, 4349.155
151.3210, 3506.665
152.5490, 2630.436
153.7750, 2274.283
155.0020, 1883.384
156.2290, 1614.748
157.4550, 1400.260
158.6810, 1204.902
159.9080, 1065.707
161.1340, 1036.353
162.3590, 909.0610
163.5850, 915.7004
164.8110, 959.2466
166.0360, 976.7266
167.2610, 1063.180
168.4860, 1138.622
169.7110, 1268.054
170.9360, 1506.480
172.1610, 1769.916
173.3850, 1978.358
174.6100, 2280.807
175.8340, 2688.270
177.0580, 3129.749
178.2820, 3620.242
179.5050, 4093.749
180.7290, 4777.274
181.9520, 5726.813
183.1760, 6736.373
184.3990, 7917.950
185.6220, 9155.554
186.8450, 10679.18
188.0670, 12453.85
189.2900, 14314.53
190.5120, 15526.22
191.7340, 15944.94
192.9560, 15510.67
194.1780, 14537.42
195.4000, 13676.19
196.6220, 12693.97
197.8430, 12111.95
199.0640, 11751.89
200.2860, 11391.20
201.5070, 11535.67
202.7270, 11817.81
203.9480, 11992.48
205.1690, 11876.50
206.3890, 11443.48
207.6090, 10670.38
208.8290, 9743.258
210.0490, 8651.245
211.2690, 7731.766
212.4890, 6863.881
213.7080, 6222.221
214.9280, 5505.133
216.1470, 4867.257
217.3660, 4408.940
218.5850, 3834.841
219.8030, 3377.168
221.0220, 3146.049
222.2400, 2824.164
223.4590, 2481.099
224.6770, 2127.180
225.8950, 1862.707
227.1120, 1638.072
228.3300, 1467.110
229.5480, 1303.714
230.7650, 1337.697
231.9820, 1211.804
233.1990, 1290.107
234.4160, 1337.889
235.6330, 1317.549
236.8490, 1350.430
238.0660, 1340.594
239.2820, 1245.823
240.4980, 1208.977
241.7140, 1167.716
242.9300, 1282.321
244.1460, 1169.143
245.3610, 1200.163
246.5770, 1128.205
247.7920, 1134.027
249.0070, 1053.579
250.2220, 953.4944
251.4370, 900.5210
252.6510, 877.3674
253.8660, 893.4380
255.0800, 866.8357
256.2940, 824.5352
257.5080, 896.7317
258.7220, 954.8992
259.9360, 879.2949
261.1490, 833.5859
262.3630, 861.0376
263.5760, 978.9255
264.7890, 1039.465
266.0020, 1108.049
267.2150, 1180.577
268.4270, 1208.142
269.6400, 1157.741
270.8520, 1300.370
272.0640, 1294.027
273.2760, 1410.710
274.4880, 1421.416
275.7000, 1464.144
276.9120, 1372.891
278.1230, 1263.657
279.3340, 1247.454
280.5450, 1128.450
281.7560, 991.3325
282.9670, 828.6567
284.1780, 734.9587
285.3880, 614.8667
286.5980, 515.7251
287.8090, 458.4275
289.0190, 351.4092
290.2290, 333.2825
291.4380, 278.1594
292.6480, 207.0383
293.8570, 230.9534
295.0670, 154.8325
296.2760, 91.70801
297.4850, 83.61475
298.6930, 51.48096
299.9020, 18.61890
301.1110, 65.47144
302.3190, 79.31543
303.5270, 104.5398
304.7350, 32.50806
305.9430, 5.678467
307.1510, 29.87695
308.3580, 39.95850
309.5660, 0.7343750
310.7730, 84.50049
311.9800, 13.76392
313.1870, 50.03931
314.3940, 93.33423
315.6010, 27.66113
316.8070, 11.00317
318.0130, 5.643066
319.2200, 10.27856
320.4260, 17.76831
321.6310, 27.48267
322.8370, 10.11450
324.0430, 25.29932
325.2480, 56.73022
326.4540, 65.14575
327.6590, 39.63062
328.8640, 27.07397
330.0680, 60.60034
331.2730, 58.15527
332.4780, 87.73828
333.6820, 9.357910
334.8860, 59.99390
336.0900, 70.66016
337.2940, 31.64062
338.4980, 18.92773
339.7010, 36.79858
340.9050, 45.55054
342.1080, 37.33081
343.3110, 46.14429
344.5140, 33.01196
345.7170, 2.127930
346.9200, 44.18652
348.1220, 13.77710
349.3240, 23.23779
350.5270, 19.23145
351.7290, 57.79663
352.9310, 42.89600
354.1320, 11.04663
355.3340, 48.25684
356.5350, 48.53101
357.7370, 21.88013
358.9380, 34.25293
360.1390, 22.68359
361.3400, 20.82959
362.5400, 47.67407
363.7410, 19.78271
364.9410, 25.22437
366.1410, 57.38623
367.3410, 3.941406
368.5410, 24.22021
369.7410, 1.542236
370.9400, 8.344482
372.1400, 29.82983
373.3390, 7.963379
374.5380, 26.07129
375.7370, 17.15576
376.9360, 21.78125
378.1350, 16.24072
379.3330, 2.639160
380.5310, 8.750977
381.7300, 23.22437
382.9280, 11.19385
384.1260, 69.15503
385.3230, 81.11304
386.5210, 100.0747
387.7180, 3.031006
388.9160, 66.96899
390.1130, 16.89917
391.3100, 27.81250
392.5060, 51.71167
393.7030, 35.59985
394.9000, 36.47363
396.0960, 62.33276
397.2920, 47.17944
398.4880, 35.01196
399.6840, 27.82739
400.8800, 63.62329
402.0750, 96.40503
403.2710, 56.17285
404.4660, 113.9248
405.6610, 65.66211
406.8560, 38.38354
408.0510, 70.08472
409.2450, 70.77002
410.4400, 104.4382
411.6340, 108.7275
412.8280, 133.7266
414.0220, 115.3457
415.2160, 138.9490
416.4100, 129.5349
417.6030, 132.1038
418.7970, 133.6594
419.9900, 120.2053
421.1830, 105.7363
422.3760, 99.24976
423.5690, 65.74463
424.7610, 87.21997
425.9540, 47.67676
427.1460, 49.78687
428.3380, 91.52734
429.5300, 38.92505
430.7220, 86.30322
431.9140, 81.67163
433.1050, 119.0205
434.2970, 132.3513
435.4880, 142.6816
436.6790, 102.9934
437.8700, 113.2993
439.0610, 159.5933
440.2510, 104.8684
441.4420, 117.1274
442.6320, 68.37720
443.8220, 115.6055
445.0120, 153.8267
446.2020, 62.03027
447.3910, 84.21143
448.5810, 123.3762
449.7700, 119.4233
450.9600, 105.7610
452.1490, 154.8884
453.3370, 156.9736
454.5260, 149.0315
455.7150, 125.7974
456.9030, 142.0002
458.0910, 161.0854
459.2800, 155.2227
460.4670, 158.9507
461.6550, 156.9351
462.8430, 169.9014
464.0300, 137.8525
465.2180, 168.7227
466.4050, 175.6633
467.5920, 129.5261
468.7790, 97.34009
469.9650, 157.5459
471.1520, 87.27417
472.3380, 146.7097
473.5250, 209.9751
474.7110, 209.3154
475.8970, 164.7227
477.0820, 197.9700
478.2680, 190.9702
479.4540, 219.2256
480.6390, 228.9836
481.8240, 286.7256
483.0090, 308.3806
484.1940, 263.4380
485.3780, 368.4270
486.5630, 392.7922
487.7470, 411.4617
488.9320, 593.7183
490.1160, 688.3567
491.3000, 847.4832
492.4830, 945.0581
493.6670, 1124.593
494.8500, 1389.763
496.0340, 1530.807
497.2170, 1753.790
498.4000, 2036.379
499.5820, 2017.896
500.7650, 2110.031
501.9480, 2087.337
503.1300, 1822.319
504.3120, 1791.616
505.4940, 1503.931
506.6760, 1407.127
507.8580, 1257.404
509.0390, 1217.968
510.2210, 1176.336
511.4020, 1276.498
512.5830, 1242.439
513.7640, 1347.913
514.9450, 1481.092
516.1250, 1539.483
517.3060, 1697.530
518.4860, 1664.263
519.6660, 1716.702
520.8460, 1562.330
522.0260, 1475.897
523.2060, 1364.046
524.3850, 1177.827
525.5650, 1051.092
526.7440, 936.3442
527.9230, 731.5999
529.1020, 651.8457
530.2810, 565.5215
531.4590, 481.7080
532.6380, 409.0232
533.8160, 390.7002
534.9940, 345.1055
536.1720, 374.5925
537.3500, 308.4082
538.5270, 318.4983
539.7050, 303.4502
540.8820, 311.1528
542.0590, 195.6255
543.2360, 236.6670
544.4130, 182.7971
545.5900, 247.7544
546.7660, 256.8667
547.9430, 241.8645
549.1190, 254.4690
550.2950, 276.4602
551.4710, 311.4417
552.6470, 346.5105
553.8220, 334.4758
554.9980, 321.6223
556.1730, 315.7092
557.3480, 327.7441
558.5230, 338.7708
559.6980, 361.5259
560.8730, 375.2842
562.0470, 387.7859
563.2220, 398.7798
564.3960, 412.7502
565.5700, 454.5415
566.7440, 482.4392
567.9170, 509.7861
569.0910, 540.5000
570.2640, 575.4229
571.4380, 612.7993
572.6110, 657.8455
573.7840, 681.6558
574.9570, 701.7178
576.1290, 757.5735
577.3020, 827.8088
578.4740, 875.6792
579.6460, 989.1460
580.8180, 1096.032
581.9900, 1098.471
583.1620, 1279.521
584.3330, 1308.098
585.5040, 1404.663
586.6760, 1541.726
587.8470, 1613.169
589.0180, 1673.669
590.1880, 1757.514
591.3590, 1758.303
592.5290, 1890.566
593.7000, 1833.377
594.8700, 1846.264
596.0400, 1930.069
597.2090, 1925.869
598.3790, 1756.710
599.5490, 1745.528
600.7180, 1587.343
601.8870, 1460.153
603.0560, 1390.991
604.2250, 1292.401
605.3940, 1223.400
606.5620, 1184.972
607.7300, 1181.177
608.8990, 972.9580
610.0670, 956.0449
611.2350, 865.2056
612.4020, 883.9448
613.5700, 770.9146
614.7370, 836.7280
615.9050, 656.8132
617.0720, 638.5654
618.2390, 601.4033
619.4060, 613.2520
620.5720, 524.1145
621.7390, 497.9709
622.9050, 461.6106
624.0710, 418.4585
625.2370, 375.3230
626.4030, 378.1943
627.5690, 334.0745
628.7340, 347.9487
629.9000, 347.8201
631.0650, 331.6858
632.2300, 311.5532
633.3950, 198.4155
634.5600, 344.2725
635.7240, 239.1436
636.8890, 293.0251
638.0530, 284.9092
639.2170, 337.8054
640.3810, 301.0867
641.5450, 231.6296
642.7080, 232.5542
643.8720, 210.4854
645.0350, 195.4126
646.1980, 258.3538
647.3610, 220.2915
648.5240, 200.2253
649.6870, 229.1760
650.8490, 161.1272
652.0120, 268.0752
653.1740, 252.0261
654.3360, 253.9812
655.4980, 151.9331
656.6600, 242.8855
657.8210, 186.8354
658.9830, 177.7844
660.1440, 177.7419
661.3050, 132.6987
662.4660, 227.6599
663.6270, 127.6270
664.7870, 194.5925
665.9480, 143.5588
667.1080, 157.5215
668.2680, 122.4802
669.4280, 120.4353
670.5880, 109.3940
671.7480, 156.3494
672.9070, 147.2065
674.0670, 110.1611
675.2260, 43.11304
676.3850, 114.5042
677.5440, 109.4526
678.7030, 56.39771
679.8610, 48.34058
681.0200, 85.28223
682.1780, 57.22339
683.3360, 81.16211
684.4940, 96.09717
685.6520, 120.0298
686.8090, 102.5432
687.9670, 53.88599
689.1240, 64.81201
690.2810, 61.73535
691.4380, 54.65576
692.5950, 52.57373
693.7520, 85.48828
694.9080, 18.40039
696.0650, 56.30859
697.2210, 94.21436
698.3770, 5.882568
699.5330, 21.98975
700.6880, 2.114990
701.8440, 38.75195
702.9990, 48.61621
704.1550, 24.47803
705.3100, 35.33813
706.4650, 27.99927
707.6190, 11.94556
708.7740, 16.90210
709.9290, 13.25293
711.0830, 29.41724
712.2370, 37.39648
713.3910, 4.579102
714.5450, 61.98218
715.6980, 15.78784
716.8520, 42.44434
718.0050, 19.70459
719.1580, 22.01904
720.3110, 4.259277
721.4640, 29.54565
722.6170, 71.14697
723.7700, 38.16040
724.9220, 1.506348
726.0740, 66.16870
727.2260, 8.168701
728.3780, 14.48535
729.5300, 10.86255
730.6810, 51.22095
731.8330, 17.38916
732.9840, 13.00195
734.1350, 63.59521
735.2860, 60.19092
736.4370, 8.786133
737.5880, 53.37939
738.7380, 44.97241
739.8880, 92.56445
741.0390, 8.154785
742.1890, 6.255859
743.3380, 63.67212
744.4880, 25.12524
745.6380, 3.593750
746.7870, 21.93188
747.9360, 2.542969
749.0850, 3.022461
750.2340, 49.49292
751.3830, 47.99219
752.5310, 25.49438
753.6800, 2.019775
754.8280, 12.53833
755.9760, 20.93335
757.1240, 54.40430
758.2720, 93.87427
759.4190, 95.34302
760.5670, 27.18896
761.7140, 83.26709
762.8610, 27.72241
764.0080, 156.1768
765.1550, 212.6304
766.3020, 174.0830
767.4480, 154.5349
768.5950, 189.9861
769.7410, 247.4368
770.8870, 332.8867
772.0330, 292.3359
773.1780, 374.7847
774.3240, 376.2329
775.4690, 453.6804
776.6140, 491.1287
777.7590, 396.5769
778.9040, 543.0239
780.0490, 383.4702
781.1940, 387.9160
782.3380, 336.3611
783.4820, 345.8054
784.6260, 262.2490
785.7700, 202.6921
786.9140, 232.1348
788.0580, 135.5767
789.2010, 160.0178
790.3450, 141.4585
791.4880, 117.8992
792.6310, 61.34546
793.7730, 77.79150
794.9160, 57.23730
796.0590, 61.68213
797.2010, 66.12769
798.3430, 53.70752
799.4850, 49.01807
800.6270, 37.46362
801.7690, 98.90869
802.9100, 88.35352
804.0520, 72.79761
805.1930, 46.24194
806.3340, 25.68555
807.4750, 74.12915
808.6160, 59.57300
809.7560, 19.98315
810.8970, 49.45166
812.0370, 64.88647
813.1770, 11.67871
814.3170, 19.75171
815.4570, 82.18188
816.5960, 39.61206
817.7360, 49.04248
818.8750, 3.472900
820.0140, 44.90356
821.1530, 25.33398
822.2920, 27.76514
823.4310, 82.19629
824.5690, 87.62793
825.7070, 86.22363
826.8460, 98.49170
827.9840, 67.92480
829.1220, 71.35742
830.2590, 63.79590
831.3970, 69.60303
832.5340, 85.06201
833.6710, 109.0718
834.8080, 126.5132
835.9450, 173.2178
837.0820, 198.9194
838.2190, 223.8721
839.3550, 198.3271
840.4910, 279.7837
841.6270, 360.2295
842.7630, 333.6880
843.8990, 295.1479
845.0350, 323.4966
846.1700, 449.9282
847.3060, 509.2070
848.4410, 417.4746
849.5760, 531.9497
850.7100, 547.2808
851.8450, 644.5156
852.9800, 736.9585
854.1140, 853.4297
855.2480, 1103.334
856.3820, 1345.814
857.5160, 1660.701
858.6500, 2143.008
859.7830, 2613.504
860.9170, 3111.285
862.0500, 3204.563
863.1830, 3293.069
864.3160, 3372.759
865.4480, 3217.248
866.5810, 2896.791
867.7130, 2503.810
868.8460, 2360.327
869.9780, 2201.766
871.1100, 2151.300
872.2410, 2179.849
873.3730, 2363.363
874.5050, 2575.074
875.6360, 2692.639
876.7670, 3012.208
877.8980, 3097.746
879.0290, 3430.098
880.1590, 3505.483
881.2900, 3779.627
882.4200, 3792.798
883.5500, 3895.397
884.6800, 3793.661
885.8100, 3799.907
886.9400, 3920.521
888.0690, 4125.979
889.1990, 4462.600
890.3280, 4878.966
891.4570, 5209.689
892.5860, 6017.329
893.7140, 6547.974
894.8430, 6249.624
895.9710, 5189.280
897.1000, 3889.251
898.2280, 2937.926
899.3560, 2350.605
900.4830, 1829.290
901.6110, 1615.987
902.7380, 1392.690
903.8660, 1422.398
904.9930, 1371.113
906.1200, 1307.832
907.2460, 1401.559
908.3730, 1353.292
909.5000, 1448.030
910.6260, 1663.774
911.7520, 1546.814
912.8780, 1714.570
914.0040, 1864.330
915.1290, 1878.095
916.2550, 1968.867
917.3800, 2030.645
918.5050, 2044.427
919.6300, 2161.217
920.7550, 2212.052
921.8800, 2292.812
923.0040, 2376.619
924.1290, 2521.432
925.2530, 2629.249
926.3770, 2742.110
927.5010, 2704.418
928.6250, 2880.254
929.7480, 3010.095
930.8720, 3012.941
931.9950, 3206.011
933.1180, 3206.872
934.2410, 3292.738
935.3640, 3446.777
936.4860, 3406.656
937.6090, 3585.541
938.7310, 3500.431
939.8530, 3684.326
940.9750, 3597.227
942.0970, 3654.135
943.2180, 3598.089
944.3400, 3375.008
945.4610, 3253.031
946.5820, 2927.962
947.7030, 2715.898
948.8240, 2547.400
949.9450, 2315.349
951.0650, 2094.303
952.1860, 1909.263
953.3060, 1630.229
954.4260, 1597.201
955.5460, 1415.179
956.6650, 1295.163
957.7850, 1065.152
958.9040, 1052.148
960.0230, 953.1489
961.1420, 865.1562
962.2610, 766.1694
963.3800, 847.1885
964.4990, 631.3022
965.6170, 663.3330
966.7350, 581.3701
967.8530, 512.4136
968.9710, 444.4619
970.0890, 431.5166
971.2070, 369.0840
972.3240, 368.7100
973.4410, 319.0635
974.5580, 277.2383
975.6750, 247.2358
976.7920, 207.3633
977.9090, 196.4971
979.0250, 203.6367
980.1410, 102.5664
981.2580, 163.7222
982.3740, 114.8892
983.4890, 160.0791
984.6050, 144.5859
985.7200, 70.51074
986.8360, 110.7583
987.9510, 78.01123
989.0660, 43.28418
990.1810, 75.56934
991.2950, 72.85986
992.4100, 80.15771
993.5240, 127.4780
994.6390, 42.80811
995.7530, 58.15527
996.8660, 64.50879
997.9800, 6.877930
999.0940, 91.30957
1000.207, 82.69336
1001.320, 58.08740
1002.433, 41.52051
1003.546, 81.93945
1004.659, 11.37109
1005.772, 33.28809
1006.884, 30.72949
1007.996, 9.820313
1009.108, 46.40479
1010.220, 15.86426
1011.332, 25.33008
1012.444, 18.20020
1013.555, 0.7260740
1014.666, 16.22949
1015.777, 6.325684
1016.888, 87.85059
1017.999, 53.37939
1019.110, 73.91357
1020.220, 1.454102
1021.331, 1.0254000E-02
1022.441, 46.57129
1023.551, 94.13672
1024.661, 49.30615
1025.770, 44.88916
1026.880, 52.47656
1027.989, 40.12939
1029.098, 63.73828
1030.207, 33.73535
1031.316, 65.86768
1032.425, 164.4736
1033.533, 75.08252
1034.642, 121.5010
1035.750, 78.11670
1036.858, 85.80713
1037.966, 66.42871
1039.073, 30.05615
1040.181, 64.28369
1041.288, 134.9160
1042.396, 13.55859
1043.503, 42.20312
1044.610, 12.14941
1045.716, 36.51758
1046.823, 21.17383
1047.929, 45.83838
1049.036, 5.695801
1050.142, 45.37598
1051.248, 64.06641
1052.353, 82.85400
1053.459, 55.55420
1054.564, 36.25684
1055.670, 56.97021
1056.775, 89.68506
1057.880, 3.401367
1058.985, 1.880859
1060.089, 37.16309
1061.194, 35.54297
1062.298, 72.25293
1063.402, 26.96143
1064.506, 8.330078
1065.610, 15.95801
1066.713, 101.6665
1067.817, 6.545410
1068.920, 47.26270
1070.023, 78.97168
1071.126, 46.68115
1072.229, 23.39062
1073.332, 28.10107
1074.435, 35.81201
1075.537, 1.477051
1076.639, 75.23389
1077.741, 176.1172
1078.843, 55.83740
1079.945, 8.658691
1081.046, 110.3789
1082.148, 139.1030
1083.249, 230.8311
1084.350, 331.5566
1085.451, 349.3052
1086.551, 398.0298
1087.652, 318.7539
1088.752, 349.4829
1089.853, 287.2178
1090.953, 129.9517
1092.053, 76.69141
1093.152, 74.43018
1094.252, 84.16943
1095.351, 11.90723
1096.451, 23.28906
1097.550, 71.43994
1098.649, 81.17383
1099.748, 122.9062
1100.846, 50.63770
1101.945, 58.39746
1103.043, 28.04443
1104.141, 11.33203
1105.239, 3.393555
1106.337, 16.69141
1107.434, 50.39062
1108.532, 67.38623
1109.629, 53.14209
1110.726, 5.836914
1111.823, 29.47070
1112.920, 60.23340
1114.017, 63.90430
1115.113, 160.4165
1116.210, 77.20605
1117.306, 126.7637
1118.402, 103.5664
1119.498, 218.2207
1120.593, 138.0981
1121.689, 112.8018
1122.784, 223.4448
1123.879, 185.0835
1124.974, 78.31641
1126.069, 110.9595
1127.164, 30.58496
1128.259, 33.20605
1129.353, 134.2427
1130.447, 10.07666
1131.541, 34.60449
1132.635, 92.28662
1133.729, 14.06641
1134.822, 41.77734
1135.916, 92.76953
1137.009, 31.51318
1138.102, 22.21631
1139.195, 81.57617
1140.288, 3.604980
1141.380, 58.91357
1142.473, 30.97510
1143.565, 111.4819
1144.657, 79.59277
1145.749, 6.554688
1146.841, 16.45068
1147.932, 56.83838
1149.024, 55.30420
1150.115, 85.76318
1151.206, 73.21533
1152.297, 28.66504
1153.388, 116.1211
1154.479, 67.56250
1155.569, 1.987305
1156.659, 40.46826
1157.750, 81.04785
1158.839, 20.47021
1159.929, 33.51953
1161.019, 17.96973
1162.108, 104.4844
1163.198, 115.8345
1164.287, 109.2588
1165.376, 16.25342
1166.465, 62.05859
1167.553, 21.36230
1168.642, 90.81396
1169.730, 94.82471
1170.818, 4.104980
1171.906, 131.3706
1172.994, 79.42822
1174.082, 89.67822
1175.170, 52.91992
1176.257, 39.04932
1177.344, 92.86816
1178.431, 52.61182
1179.518, 21.18652
1180.605, 94.54590
1181.691, 49.26318
1182.778, 32.16895
1183.864, 93.46729
1184.950, 187.7637
1186.036, 122.9585
1187.122, 142.1562
1188.207, 117.3027
1189.292, 88.42920
1190.378, 68.50830
1191.463, 142.1377
1192.548, 56.23633
1193.632, 136.3257
1194.717, 131.4062
1195.801, 12.28076
1196.886, 131.3369
1197.970, 39.38477
1199.054, 34.29980
1200.137, 75.32764
1201.221, 102.3457
1202.305, 86.43506
1203.388, 101.8462
1204.471, 113.4238
1205.554, 73.40479
1206.637, 74.39404
1207.719, 28.35498
1208.802, 178.2529
1209.884, 37.21484
1210.966, 135.2842
1212.048, 101.5630
1213.130, 61.47266
1214.212, 133.7559
1215.293, 57.64600
1216.374, 96.52588
1217.456, 83.39502
1218.536, 123.1938
1219.617, 156.6240
1220.698, 120.5288
1221.778, 125.8311
1222.859, 92.51270
1223.939, 72.52051
1225.019, 75.31836
1226.099, 52.36475
1227.178, 84.36572
1228.258, 173.5308
1229.337, 96.28564
1230.417, 112.0303
1231.496, 61.76465
1232.574, 6.475098
1233.653, 121.7266
1234.732, 1.872559
1235.810, 16.65381
1236.888, 73.98047
1237.966, 26.28760
1239.044, 53.89795
1240.122, 195.4976
1241.199, 103.0859
1242.277, 58.88477
1243.354, 126.4531
1244.431, 8.990234
1245.508, 29.45898
1246.585, 9.964355
1247.661, 34.50244
1248.738, 81.95752
1249.814, 27.40283
1250.890, 51.83545
1251.966, 94.25781
1253.042, 172.6699
1254.117, 5.928711
1255.193, 3.448730
1256.268, 120.8071
1257.343, 168.1543
1258.418, 19.50781
1259.493, 47.79883
1260.567, 43.04150
1261.642, 41.32666
1262.716, 26.60156
1263.790, 32.87061
1264.864, 15.44287
1265.938, 30.33398
1267.011, 24.08105
1268.085, 3.296875
1269.158, 11.94727
1270.231, 110.9111
1271.304, 8.086914
