##NAMES=Whewellite
##RRUFFID=R050240
##IDEAL CHEMISTRY=Ca(C_2_)^6+^O_4_&#183;H_2_O
##LOCALITY=Huron River, Milan, Ohio, USA
##OWNER=RRUFF
##SOURCE=Marcus Origlieri
##DESCRIPTION=White fragment
##STATUS=The identification of this mineral has been confirmed by X-ray diffraction and chemical analysis
##URL=rruff.info/R050240
##MEASURED CHEMISTRY=Ca_1.00_C_2_O_4_Â·H_2_O
##PIN_ID=L01310
##ORIENTATION=Laser parallel to (-1 0 -1). Fiducial mark perpendicular to laser is parallel to b [0 1 0]
108.2800, 0.0000000E+00
109.5120, 2.274902
110.7440, 4.270020
111.9760, 33.95215
113.2080, 215.1855
114.4400, 337.8232
115.6710, 624.9463
116.9030, 925.1719
118.1340, 1316.352
119.3650, 1715.028
120.5960, 2077.166
121.8270, 2743.213
123.0580, 3437.197
124.2880, 4048.816
125.5190, 4617.445
126.7490, 5594.875
127.9790, 6091.914
129.2090, 6927.386
130.4390, 7798.133
131.6680, 8228.018
132.8980, 8728.925
134.1270, 8780.549
135.3560, 8938.887
136.5850, 8790.664
137.8140, 8515.146
139.0430, 8052.677
140.2710, 7357.984
141.5000, 6568.033
142.7280, 5916.736
143.9560, 5110.012
145.1840, 3902.796
146.4120, 3279.024
147.6390, 2597.640
148.8670, 1961.603
150.0940, 1437.879
151.3210, 1001.438
152.5490, 847.2559
153.7750, 482.3115
155.0020, 451.5840
156.2290, 224.0576
157.4550, 140.7178
158.6810, 5.747070
159.9080, 14.23047
161.1340, 1.738281
162.3590, 24.99609
163.5850, 42.57715
164.8110, 124.2510
166.0360, 81.86816
167.2610, 10.41797
168.4860, 3.117188
169.7110, 165.8984
170.9360, 108.6719
172.1610, 298.6445
173.3850, 355.7559
174.6100, 611.7754
175.8340, 764.6670
177.0580, 958.4385
178.2820, 1419.101
179.5050, 1830.719
180.7290, 2103.271
181.9520, 2645.768
183.1760, 3161.072
184.3990, 3574.269
185.6220, 4049.370
186.8450, 4506.407
188.0670, 5092.401
189.2900, 5533.357
190.5120, 6152.278
191.7340, 6565.172
192.9560, 7217.041
194.1780, 7238.892
195.4000, 7628.730
196.6220, 7961.551
197.8430, 7990.356
199.0640, 8187.172
200.2860, 8257.972
201.5070, 8516.760
202.7270, 8705.535
203.9480, 8991.296
205.1690, 8972.043
206.3890, 9108.777
207.6090, 9030.786
208.8290, 8894.086
210.0490, 8271.525
211.2690, 7808.602
212.4890, 7280.322
213.7080, 7116.797
214.9280, 6399.021
216.1470, 5855.120
217.3660, 5665.346
218.5850, 5531.531
219.8030, 5278.441
221.0220, 5169.977
222.2400, 4961.096
223.4590, 4787.767
224.6770, 4494.682
225.8950, 3852.714
227.1120, 3440.201
228.3300, 2674.450
229.5480, 2411.032
230.7650, 2015.387
231.9820, 1841.920
233.1990, 1569.645
234.4160, 1421.114
235.6330, 1372.877
236.8490, 1587.493
238.0660, 1626.835
239.2820, 1615.242
240.4980, 1709.373
241.7140, 1737.508
242.9300, 1796.596
244.1460, 2001.849
245.3610, 1903.886
246.5770, 2011.897
247.7920, 1913.636
249.0070, 1929.076
250.2220, 1729.146
251.4370, 1676.775
252.6510, 1510.812
253.8660, 1325.207
255.0800, 1135.686
256.2940, 832.3750
257.5080, 885.6514
258.7220, 743.8721
259.9360, 692.5195
261.1490, 315.5381
262.3630, 286.8623
263.5760, 273.7783
264.7890, 249.7773
266.0020, 189.0225
267.2150, 203.5156
268.4270, 203.7832
269.6400, 113.3457
270.8520, 66.67969
272.0640, 109.3018
273.2760, 147.6855
274.4880, 321.1416
275.7000, 94.71680
276.9120, 158.6211
278.1230, 301.2178
279.3340, 159.9941
280.5450, 174.9873
281.7560, 155.1094
282.9670, 222.7451
284.1780, 172.4482
285.3880, 241.0986
286.5980, 233.3389
287.8090, 196.5410
289.0190, 230.2256
290.2290, 179.9170
291.4380, 151.6133
292.6480, 162.6025
293.8570, 202.3193
295.0670, 122.1016
296.2760, 224.9531
297.4850, 45.64258
298.6930, 124.3262
299.9020, 40.00293
301.1110, 168.6699
302.3190, 30.32812
303.5270, 80.13184
304.7350, 7.233398
305.9430, 87.23828
307.1510, 10.18555
308.3580, 54.86719
309.5660, 79.92578
310.7730, 66.07031
311.9800, 114.1182
313.1870, 122.8379
314.3940, 70.58105
315.6010, 96.37402
316.8070, 97.23047
318.0130, 39.89355
319.2200, 46.93750
320.4260, 1.050781
321.6310, 7.918945
322.8370, 37.15039
324.0430, 47.26953
325.2480, 51.55762
326.4540, 3.352539
327.6590, 6.107422
328.8640, 138.1768
330.0680, 78.53809
331.2730, 93.04004
332.4780, 29.41211
333.6820, 61.91113
334.8860, 96.53125
336.0900, 46.94531
337.2940, 14.32715
338.4980, 36.67188
339.7010, 8.017578
340.9050, 116.2490
342.1080, 87.48633
343.3110, 77.69336
344.5140, 15.87012
345.7170, 57.99023
346.9200, 16.08887
348.1220, 56.12988
349.3240, 19.86133
350.5270, 26.90234
351.7290, 3.995117
352.9310, 152.8545
354.1320, 156.6299
355.3340, 160.3018
356.5350, 107.8359
357.7370, 10.73828
358.9380, 6.405273
360.1390, 34.16797
361.3400, 29.65430
362.5400, 8.178711
363.7410, 14.23145
364.9410, 95.14453
366.1410, 71.00879
367.3410, 119.4297
368.5410, 62.57324
369.7410, 173.2852
370.9400, 211.9746
372.1400, 224.6348
373.3390, 165.2256
374.5380, 212.7666
375.7370, 196.7725
376.9360, 131.6963
378.1350, 238.1270
379.3330, 195.4961
380.5310, 278.7891
381.7300, 283.0332
382.9280, 195.2500
384.1260, 86.44238
385.3230, 160.6104
386.5210, 178.7598
387.7180, 26.88770
388.9160, 52.98340
390.1130, 89.05273
391.3100, 85.10059
392.5060, 178.1201
393.7030, 64.10938
394.9000, 286.0625
396.0960, 65.99512
397.2920, 27.89648
398.4880, 273.7520
399.6840, 209.5947
400.8800, 93.43457
402.0750, 73.25586
403.2710, 177.0518
404.4660, 167.8311
405.6610, 160.5879
406.8560, 107.3252
408.0510, 118.8242
409.2450, 111.1885
410.4400, 103.3750
411.6340, 145.0010
412.8280, 118.6064
414.0220, 176.1836
415.2160, 132.7324
416.4100, 266.2588
417.6030, 199.7578
418.7970, 185.2295
419.9900, 129.6729
421.1830, 233.0840
422.3760, 170.5303
423.5690, 133.9033
424.7610, 121.2559
425.9540, 300.5762
427.1460, 186.8672
428.3380, 205.1309
429.5300, 222.3662
430.7220, 41.57129
431.9140, 277.7295
433.1050, 250.8594
434.2970, 240.9600
435.4880, 142.0322
436.6790, 205.0723
437.8700, 189.0830
439.0610, 172.0693
440.2510, 232.0254
441.4420, 267.9561
442.6320, 282.8613
443.8220, 223.7363
445.0120, 277.6064
446.2020, 173.4463
447.3910, 284.2568
448.5810, 288.4775
449.7700, 257.2334
450.9600, 199.0693
452.1490, 228.0127
453.3370, 301.3115
454.5260, 330.5166
455.7150, 174.6885
456.9030, 266.2578
458.0910, 202.0234
459.2800, 217.0771
460.4670, 146.9834
461.6550, 339.4404
462.8430, 188.8877
464.0300, 338.5596
465.2180, 352.6885
466.4050, 384.9180
467.5920, 214.4258
468.7790, 309.7012
469.9650, 309.2158
471.1520, 285.8184
472.3380, 336.3047
473.5250, 170.4541
474.7110, 334.7402
475.8970, 298.8164
477.0820, 436.7754
478.2680, 350.9736
479.4540, 420.7686
480.6390, 525.2158
481.8240, 465.5566
483.0090, 721.5371
484.1940, 680.6660
485.3780, 692.6426
486.5630, 865.5508
487.7470, 1098.663
488.9320, 1284.167
490.1160, 1639.152
491.3000, 2116.566
492.4830, 2445.263
493.6670, 2785.451
494.8500, 3200.016
496.0340, 3511.948
497.2170, 3797.860
498.4000, 4286.754
499.5820, 4426.457
500.7650, 4641.314
501.9480, 4610.396
503.1300, 4403.689
504.3120, 3929.220
505.4940, 3417.271
506.6760, 3120.393
507.8580, 2703.826
509.0390, 2250.872
510.2210, 1829.415
511.4020, 1484.195
512.5830, 1619.896
513.7640, 1564.095
514.9450, 1319.766
516.1250, 1227.401
517.3060, 1059.096
518.4860, 1101.726
519.6660, 1196.213
520.8460, 1081.845
522.0260, 919.4629
523.2060, 904.0908
524.3850, 736.7061
525.5650, 699.3076
526.7440, 550.2686
527.9230, 659.7646
529.1020, 471.3213
530.2810, 348.5039
531.4590, 455.5986
532.6380, 380.5068
533.8160, 415.3252
534.9940, 234.8184
536.1720, 249.1348
537.3500, 175.6426
538.5270, 125.6221
539.7050, 224.0176
540.8820, 96.49219
542.0590, 102.9570
543.2360, 139.7510
544.4130, 133.1436
545.5900, 139.5039
546.7660, 167.9521
547.9430, 163.2070
549.1190, 184.9688
550.2950, 162.0234
551.4710, 105.9297
552.6470, 72.72070
553.8220, 152.1719
554.9980, 66.10352
556.1730, 188.3447
557.3480, 122.2822
558.5230, 119.6982
559.6980, 238.0010
560.8730, 177.2324
562.0470, 295.1748
563.2220, 19.42871
564.3960, 305.6318
565.5700, 215.9893
566.7440, 160.8574
567.9170, 291.1074
569.0910, 154.3926
570.2640, 454.6182
571.4380, 254.8418
572.6110, 425.9512
573.7840, 423.1582
574.9570, 368.3877
576.1290, 453.5801
577.3020, 470.4717
578.4740, 596.6309
579.6460, 649.1953
580.8180, 756.1992
581.9900, 694.9678
583.1620, 896.8301
584.3330, 921.9697
585.5040, 1158.663
586.6760, 1173.787
587.8470, 1232.750
589.0180, 1375.861
590.1880, 1478.799
591.3590, 1414.904
592.5290, 1409.976
593.7000, 1434.828
594.8700, 1461.243
596.0400, 1425.617
597.2090, 1440.425
598.3790, 1408.082
599.5490, 1310.330
600.7180, 1104.604
601.8870, 1003.857
603.0560, 919.1523
604.2250, 637.4424
605.3940, 685.7344
606.5620, 624.0273
607.7300, 458.3330
608.8990, 554.6562
610.0670, 467.9746
611.2350, 361.8867
612.4020, 384.1035
613.5700, 346.4707
614.7370, 336.8623
615.9050, 260.2490
617.0720, 302.6494
618.2390, 274.0713
619.4060, 216.4893
620.5720, 277.3105
621.7390, 237.2295
622.9050, 162.7520
624.0710, 192.5205
625.2370, 206.9434
626.4030, 104.5469
627.5690, 133.9629
628.7340, 165.3828
629.9000, 123.8262
631.0650, 291.2754
632.2300, 129.7227
633.3950, 150.1855
634.5600, 199.6660
635.7240, 111.1572
636.8890, 107.6455
638.0530, 69.12891
639.2170, 167.6074
640.3810, 256.0840
641.5450, 159.5732
642.7080, 195.0771
643.8720, 166.6016
645.0350, 6.853516
646.1980, 160.6973
647.3610, 157.2578
648.5240, 374.8174
649.6870, 215.3760
650.8490, 166.9326
652.0120, 188.4893
653.1740, 30.95508
654.3360, 121.5830
655.4980, 79.11914
656.6600, 6.652344
657.8210, 68.18262
658.9830, 14.96582
660.1440, 32.59961
661.3050, 43.12109
662.4660, 175.6670
663.6270, 114.1846
664.7870, 206.6982
665.9480, 175.4902
667.1080, 215.0010
668.2680, 207.5098
669.4280, 155.1377
670.5880, 191.6514
671.7480, 193.6152
672.9070, 238.3643
674.0670, 212.8828
675.2260, 123.3984
676.3850, 50.91797
677.5440, 57.88574
678.7030, 96.95410
679.8610, 84.48145
681.0200, 89.00781
682.1780, 141.5303
683.3360, 152.0547
684.4940, 143.5811
685.6520, 183.1045
686.8090, 125.6270
687.9670, 131.1475
689.1240, 11.66992
690.2810, 73.19043
691.4380, 118.7119
692.5950, 17.76758
693.7520, 70.73926
694.9080, 104.2480
696.0650, 11.24512
697.2210, 5.251953
698.3770, 64.74609
699.5330, 175.2402
700.6880, 252.7314
701.8440, 27.77734
702.9990, 29.35645
704.1550, 34.90527
705.3100, 10.52734
706.4650, 101.9600
707.6190, 2.389648
708.7740, 35.81641
709.9290, 129.2432
711.0830, 70.66895
712.2370, 115.1025
713.3910, 12.53516
714.5450, 26.96680
715.6980, 148.3975
716.8520, 165.8271
718.0050, 19.74121
719.1580, 168.6748
720.3110, 5.908203
721.4640, 7.500000
722.6170, 43.90039
723.7700, 84.69824
724.9220, 106.6543
726.0740, 90.00586
727.2260, 199.3584
728.3780, 9.290039
729.5300, 103.0537
730.6810, 40.39746
731.8330, 23.74023
732.9840, 186.0820
734.1350, 0.4248050
735.2860, 134.2354
736.4370, 50.97168
737.5880, 137.2627
738.7380, 124.4941
739.8880, 78.72754
741.0390, 67.95898
742.1890, 109.1895
743.3380, 119.4189
744.4880, 127.7383
745.6380, 105.8760
746.7870, 132.1025
747.9360, 19.32812
749.0850, 22.44531
750.2340, 43.23633
751.3830, 40.94629
752.5310, 43.12891
753.6800, 50.98047
754.8280, 103.4902
755.9760, 38.66895
757.1240, 25.84766
758.2720, 20.21777
759.4190, 29.18457
760.5670, 7.653320
761.7140, 19.50000
762.8610, 129.6396
764.0080, 17.22070
765.1550, 74.90625
766.3020, 131.0312
767.4480, 124.1572
768.5950, 201.2803
769.7410, 68.40332
770.8870, 210.5254
772.0330, 205.6465
773.1780, 242.7666
774.3240, 100.8857
775.4690, 279.0039
776.6140, 423.1211
777.7590, 217.2373
778.9040, 428.3535
780.0490, 149.4697
781.1940, 211.5840
782.3380, 228.6982
783.4820, 81.60059
784.6260, 200.7119
785.7700, 258.8223
786.9140, 59.93262
788.0580, 98.04102
789.2010, 176.1699
790.3450, 157.2979
791.4880, 190.9346
792.6310, 147.1221
793.7730, 156.2930
794.9160, 60.41309
796.0590, 70.41797
797.2010, 36.31445
798.3430, 40.79883
799.4850, 83.08887
800.6270, 56.98047
801.7690, 22.04980
802.9100, 23.88184
804.0520, 93.17480
805.1930, 119.2305
806.3340, 53.71289
807.4750, 67.31543
808.6160, 13.65527
809.7560, 43.36719
810.8970, 83.39160
812.0370, 12.41699
813.1770, 82.44238
814.3170, 64.28906
815.4570, 30.49512
816.5960, 68.52148
817.7360, 187.5479
818.8750, 192.5752
820.0140, 233.6035
821.1530, 85.63086
822.2920, 180.6592
823.4310, 96.68848
824.5690, 83.71875
825.7070, 61.74805
826.8460, 68.71777
827.9840, 154.7510
829.1220, 234.7822
830.2590, 108.4990
831.3970, 164.5342
832.5340, 71.56836
833.6710, 9.689453
834.8080, 54.63281
835.9450, 34.96973
837.0820, 149.7529
838.2190, 108.7930
839.3550, 142.8682
840.4910, 183.8428
841.6270, 219.4688
842.7630, 239.4941
843.8990, 137.5693
845.0350, 162.5244
846.1700, 171.6035
847.3060, 245.6855
848.4410, 437.7695
849.5760, 457.8555
850.7100, 335.9131
851.8450, 474.0029
852.9800, 672.0938
854.1140, 728.1875
855.2480, 1237.804
856.3820, 1150.924
857.5160, 1401.410
858.6500, 1885.798
859.7830, 2057.904
860.9170, 2253.449
862.0500, 2312.580
863.1830, 2210.711
864.3160, 2045.848
865.4480, 2002.162
866.5810, 1848.164
867.7130, 1623.449
868.8460, 1565.598
869.9780, 1523.750
871.1100, 1334.695
872.2410, 1422.195
873.3730, 1428.928
874.5050, 1449.096
875.6360, 1460.266
876.7670, 1576.443
877.8980, 1778.621
879.0290, 1843.805
880.1590, 2050.994
881.2900, 2258.184
882.4200, 2294.383
883.5500, 2262.584
884.6800, 2322.791
885.8100, 2888.410
886.9400, 3463.734
888.0690, 4048.955
889.1990, 4917.180
890.3280, 5833.412
891.4570, 6444.648
892.5860, 6803.900
893.7140, 7517.158
894.8430, 8058.016
895.9710, 7456.283
897.1000, 6741.953
898.2280, 5381.893
899.3560, 3784.178
900.4830, 2429.293
901.6110, 1521.594
902.7380, 1128.902
903.8660, 981.2188
904.9930, 873.5410
906.1200, 543.8691
907.2460, 793.2012
908.3730, 749.5410
909.5000, 607.8867
910.6260, 697.2500
911.7520, 849.6289
912.8780, 760.0137
914.0040, 713.4062
915.1290, 827.8027
916.2550, 781.2070
917.3800, 922.6172
918.5050, 988.0371
919.6300, 931.4629
920.7550, 1091.900
921.8800, 742.3398
923.0040, 982.7871
924.1290, 878.8945
925.2530, 1111.355
926.3770, 1174.641
927.5010, 1172.119
928.6250, 1133.189
929.7480, 1126.680
930.8720, 1110.213
931.9950, 1267.461
933.1180, 1091.863
934.2410, 1070.391
935.3640, 1281.898
936.4860, 1270.441
937.6090, 1292.992
938.7310, 1170.266
939.8530, 1231.830
940.9750, 1341.398
942.0970, 1353.854
943.2180, 1134.438
944.3400, 1310.350
945.4610, 1224.615
946.5820, 867.2383
947.7030, 1118.867
948.8240, 896.5059
949.9450, 731.1484
951.0650, 860.8008
952.1860, 813.4746
953.3060, 669.1543
954.4260, 489.8438
955.5460, 569.5371
956.6650, 462.2422
957.7850, 331.9512
958.9040, 274.6699
960.0230, 293.3926
961.1420, 385.1250
962.2610, 349.8633
963.3800, 380.6094
964.4990, 217.3652
965.6170, 123.1328
966.7350, 197.9062
967.8530, 160.6914
968.9710, 63.48438
970.0890, 138.2891
971.2070, 3.900391
972.3240, 108.9141
973.4410, 40.73828
974.5580, 227.5781
975.6750, 128.4355
976.7920, 48.77539
977.9090, 140.6582
979.0250, 185.5488
980.1410, 44.44727
981.2580, 8.351563
982.3740, 116.2656
983.4890, 39.18359
984.6050, 28.11133
985.7200, 144.0449
986.8360, 18.98633
987.9510, 126.9336
989.0660, 92.88867
990.1810, 1.140625
991.2950, 129.8340
992.4100, 71.83594
993.5240, 38.84961
994.6390, 26.87500
995.7530, 127.1895
996.8660, 65.28125
997.9800, 77.38086
999.0940, 106.4863
1000.207, 70.60352
1001.320, 96.72656
1002.433, 158.8574
1003.546, 105.9961
1004.659, 121.1406
1005.772, 161.2949
1006.884, 167.0527
1007.996, 72.71289
1009.108, 170.9375
1010.220, 211.1699
1011.332, 65.40820
1012.444, 142.6641
1013.555, 2.925781
1014.666, 163.1953
1015.777, 261.4746
1016.888, 194.7598
1017.999, 283.0566
1019.110, 210.5508
1020.220, 122.6777
1021.331, 108.0117
1022.441, 81.35156
1023.551, 56.93945
1024.661, 69.05469
1025.770, 68.04492
1026.880, 117.4121
1027.989, 168.7871
1029.098, 195.1816
1030.207, 196.5547
1031.316, 239.1055
1032.425, 181.5449
1033.533, 200.4512
1034.642, 124.7500
1035.750, 190.2168
1036.858, 175.8301
1037.966, 186.3105
1039.073, 149.7969
1040.181, 83.28906
1041.288, 56.78516
1042.396, 104.7500
1043.503, 20.34766
1044.610, 247.9961
1045.716, 209.5137
1046.823, 279.0391
1047.929, 233.5879
1049.036, 211.1426
1050.142, 162.7207
1051.248, 132.8457
1052.353, 113.4453
1053.459, 81.06250
1054.564, 243.6836
1055.670, 63.30859
1056.775, 94.06250
1057.880, 240.5410
1058.985, 175.8496
1060.089, 133.6797
1061.194, 18.78320
1062.298, 4.748047
1063.402, 0.7148440
1064.506, 226.8262
1065.610, 177.3887
1066.713, 252.3457
1067.817, 71.22070
1068.920, 37.82812
1070.023, 170.4375
1071.126, 69.05273
1072.229, 140.6758
1073.332, 64.30273
1074.435, 132.9336
1075.537, 148.5801
1076.639, 97.23438
1077.741, 17.48828
1078.843, 110.2754
1079.945, 137.9336
1081.046, 246.5977
1082.148, 152.2617
1083.249, 269.9297
1084.350, 252.0332
1085.451, 300.7070
1086.551, 236.3828
1087.652, 185.0605
1088.752, 156.7422
1089.853, 123.4453
1090.953, 77.48047
1092.053, 81.80078
1093.152, 62.49219
1094.252, 30.18750
1095.351, 172.8828
1096.451, 244.5801
1097.550, 98.28125
1098.649, 176.9824
1099.748, 67.70312
1100.846, 104.4277
1101.945, 123.1562
1103.043, 193.8887
1104.141, 181.5781
1105.239, 132.3125
1106.337, 80.05078
1107.434, 230.7930
1108.532, 107.4668
1109.629, 210.2207
1110.726, 111.9102
1111.823, 71.59961
1112.920, 243.2910
1114.017, 167.9863
1115.113, 260.6816
1116.210, 218.3789
1117.306, 249.4668
1118.402, 278.7754
1119.498, 322.4727
1120.593, 464.1738
1121.689, 540.8262
1122.784, 497.1777
1123.879, 510.3418
1124.974, 320.0469
1126.069, 165.7539
1127.164, 62.81836
1128.259, 236.8496
1129.353, 107.5176
1130.447, 190.1855
1131.541, 40.85156
1132.635, 189.5215
1133.729, 311.1875
1134.822, 49.85352
1135.916, 47.52344
1137.009, 212.3711
1138.102, 98.03516
1139.195, 164.7012
1140.288, 106.3672
1141.380, 89.02930
1142.473, 94.69531
1143.565, 103.6035
1144.657, 107.6738
1145.749, 126.6797
1146.841, 123.5059
1147.932, 163.1641
1149.024, 154.4727
1150.115, 163.1270
1151.206, 234.7793
1152.297, 164.4336
1153.388, 24.08594
1154.479, 145.7363
1155.569, 294.3848
1156.659, 30.96680
1157.750, 43.65430
1158.839, 175.7520
1159.929, 20.76367
1161.019, 120.3770
1162.108, 172.5391
1163.198, 150.1504
1164.287, 5.240234
1165.376, 166.3555
1166.465, 293.7207
1167.553, 20.31055
1168.642, 75.89844
1169.730, 154.4824
1170.818, 219.0645
1171.906, 256.6445
1172.994, 24.22070
1174.082, 23.20508
1175.170, 17.65625
1176.257, 230.2812
1177.344, 173.8066
1178.431, 232.1523
1179.518, 250.2969
1180.605, 130.8145
1181.691, 14.32812
1182.778, 169.1777
1183.864, 394.1250
1184.950, 201.6250
1186.036, 287.1191
1187.122, 91.61523
1188.207, 263.4062
1189.292, 122.3184
1190.378, 157.9824
1191.463, 75.46289
1192.548, 59.35938
1193.632, 277.8340
1194.717, 231.2754
1195.801, 161.7480
1196.886, 19.78320
1197.970, 18.66211
1199.054, 200.1016
1200.137, 208.5352
1201.221, 197.9668
1202.305, 39.39844
1203.388, 138.8262
1204.471, 151.2520
1205.554, 193.6719
1206.637, 63.09180
1207.719, 7.492188
1208.802, 15.75391
1209.884, 189.6211
1210.966, 158.9961
1212.048, 123.3652
1213.130, 164.7324
1214.212, 36.90625
1215.293, 341.4258
1216.374, 293.7520
1217.456, 185.0762
1218.536, 313.3965
1219.617, 73.71289
1220.698, 145.0293
1221.778, 134.9922
1222.859, 354.6523
1223.939, 141.9590
1225.019, 153.2617
1226.099, 122.5625
1227.178, 79.85938
1228.258, 162.1543
1229.337, 181.9453
1230.417, 197.0762
1231.496, 127.3633
1232.574, 242.6465
1233.653, 57.92578
1234.732, 293.2031
1235.810, 105.4785
1236.888, 276.2773
1237.966, 205.5449
1239.044, 160.3477
1240.122, 121.6113
1241.199, 258.8730
1242.277, 146.1270
1243.354, 159.3828
1244.431, 302.6367
1245.508, 67.88672
1246.585, 214.1367
1247.661, 220.3828
1248.738, 165.6250
1249.814, 98.86719
1250.890, 138.1074
1251.966, 188.3438
1253.042, 50.42188
1254.117, 126.7754
1255.193, 271.9707
1256.268, 108.8379
1257.343, 66.05664
1258.418, 120.1797
1259.493, 115.2988
1260.567, 125.4180
1261.642, 96.53711
1262.716, 51.65039
1263.790, 166.7656
1264.864, 334.8789
1265.938, 10.99023
1267.011, 178.0996
1268.085, 336.2051
1269.158, 107.3105
1270.231, 338.4141
1271.304, 114.5176
1272.377, 26.37891
1273.450, 105.7012
1274.522, 4.781250
1275.594, 0.8164060
1276.666, 186.9219
1277.738, 1.009766
1278.810, 73.04883
1279.882, 146.1074
1280.953, 118.1660
1282.025, 122.2227
1283.096, 144.2812
1284.167, 102.9395
1285.238, 161.4004
1286.308, 27.82812
1287.379, 1.113281
1288.449, 65.06055
1289.519, 139.9102
