##NAMES=Whewellite
##RRUFFID=R050240
##IDEAL CHEMISTRY=Ca(C_2_)^6+^O_4_&#183;H_2_O
##LOCALITY=Huron River, Milan, Ohio, USA
##OWNER=RRUFF
##SOURCE=Marcus Origlieri
##DESCRIPTION=White fragment
##STATUS=The identification of this mineral has been confirmed by X-ray diffraction and chemical analysis
##URL=rruff.info/R050240
##MEASURED CHEMISTRY=Ca_1.00_C_2_O_4_Â·H_2_O
##PIN_ID=L01310
##ORIENTATION=Laser parallel to (-1 0 -1). Fiducial mark perpendicular to laser is parallel to b [0 1 0]
108.2800, 0.0000000E+00
109.5120, 48.24414
110.7440, 11.23682
111.9760, 119.2607
113.2080, 100.9033
114.4400, 466.7363
115.6710, 564.0684
116.9030, 837.7124
118.1340, 1222.450
119.3650, 1588.780
120.5960, 2125.646
121.8270, 2697.543
123.0580, 3213.780
124.2880, 3982.925
125.5190, 4904.977
126.7490, 5919.773
127.9790, 6764.154
129.2090, 7800.953
130.4390, 8949.029
131.6680, 9624.252
132.8980, 10604.51
134.1270, 11090.71
135.3560, 11355.07
136.5850, 11728.34
137.8140, 11664.30
139.0430, 11038.76
140.2710, 10502.04
141.5000, 9646.111
142.7280, 8697.918
143.9560, 7465.372
145.1840, 6343.401
146.4120, 5220.930
147.6390, 4081.896
148.8670, 3167.254
150.0940, 2325.962
151.3210, 1769.985
152.5490, 1304.297
153.7750, 785.8721
155.0020, 617.6875
156.2290, 365.7246
157.4550, 190.9658
158.6810, 107.4111
159.9080, 89.32910
161.1340, 36.87402
162.3590, 61.87891
163.5850, 83.13965
164.8110, 99.08789
166.0360, 61.56641
167.2610, 54.97559
168.4860, 43.96582
169.7110, 7.392578
170.9360, 48.98535
172.1610, 312.7334
173.3850, 354.5234
174.6100, 664.4229
175.8340, 842.4844
177.0580, 1044.496
178.2820, 1456.406
179.5050, 1979.195
180.7290, 2434.870
181.9520, 2812.547
183.1760, 3462.017
184.3990, 3941.332
185.6220, 4711.539
186.8450, 5235.662
188.0670, 5820.715
189.2900, 6451.720
190.5120, 7324.678
191.7340, 7946.603
192.9560, 8484.494
194.1780, 8777.356
195.4000, 9209.195
196.6220, 9406.009
197.8430, 9669.801
199.0640, 9837.565
200.2860, 10028.32
201.5070, 10395.05
202.7270, 10735.77
203.9480, 11080.45
205.1690, 11457.20
206.3890, 11387.84
207.6090, 11438.56
208.8290, 11156.85
210.0490, 10779.38
211.2690, 9942.663
212.4890, 9285.657
213.7080, 8632.826
214.9280, 8009.678
216.1470, 7478.865
217.3660, 6977.881
218.5850, 6771.736
219.8030, 6538.264
221.0220, 6394.094
222.2400, 6055.957
223.4590, 5560.654
224.6770, 5086.407
225.8950, 4623.623
227.1120, 3928.089
228.3300, 3227.289
229.5480, 2861.144
230.7650, 2707.195
231.9820, 2568.631
233.1990, 2545.721
234.4160, 2577.785
235.6330, 2699.573
236.8490, 2867.366
238.0660, 3033.573
239.2820, 3245.800
240.4980, 3492.938
241.7140, 3750.409
242.9300, 3996.818
244.1460, 4222.303
245.3610, 4405.820
246.5770, 4491.562
247.7920, 4643.244
249.0070, 4641.176
250.2220, 4546.484
251.4370, 4226.996
252.6510, 3933.751
253.8660, 3211.912
255.0800, 2877.269
256.2940, 2369.280
257.5080, 2055.303
258.7220, 1685.055
259.9360, 1465.264
261.1490, 1163.107
262.3630, 1110.440
263.5760, 825.5830
264.7890, 821.8076
266.0020, 757.1982
267.2150, 896.3867
268.4270, 798.7275
269.6400, 751.5967
270.8520, 752.6797
272.0640, 598.6191
273.2760, 698.2354
274.4880, 785.4229
275.7000, 646.7354
276.9120, 550.5615
278.1230, 553.7803
279.3340, 530.0557
280.5450, 562.9834
281.7560, 544.2744
282.9670, 432.6514
284.1780, 416.2012
285.3880, 398.5225
286.5980, 401.2139
287.8090, 302.4619
289.0190, 371.8213
290.2290, 306.3174
291.4380, 285.5850
292.6480, 368.8516
293.8570, 259.3633
295.0670, 218.6270
296.2760, 258.1807
297.4850, 150.4307
298.6930, 255.7930
299.9020, 267.2500
301.1110, 28.46875
302.3190, 170.6748
303.5270, 75.86719
304.7350, 36.04395
305.9430, 121.2021
307.1510, 13.33984
308.3580, 93.46289
309.5660, 19.04102
310.7730, 43.83105
311.9800, 1.184570
313.1870, 74.42578
314.3940, 11.58203
315.6010, 92.54883
316.8070, 67.74512
318.0130, 31.99414
319.2200, 139.3027
320.4260, 66.68359
321.6310, 56.87207
322.8370, 47.38770
324.0430, 4.863281
325.2480, 142.7051
326.4540, 24.35840
327.6590, 24.93457
328.8640, 51.81348
330.0680, 65.37988
331.2730, 42.53613
332.4780, 40.34473
333.6820, 77.28223
334.8860, 71.28516
336.0900, 113.6475
337.2940, 20.54395
338.4980, 20.40039
339.7010, 115.2148
340.9050, 38.99512
342.1080, 2.265625
343.3110, 42.57227
344.5140, 88.93848
345.7170, 34.37598
346.9200, 60.13184
348.1220, 17.39941
349.3240, 94.98242
350.5270, 110.3594
351.7290, 1.665039
352.9310, 0.9218750
354.1320, 95.87402
355.3340, 143.2266
356.5350, 66.24512
357.7370, 27.17773
358.9380, 16.96777
360.1390, 19.26074
361.3400, 41.60742
362.5400, 94.91504
363.7410, 111.3789
364.9410, 87.77930
366.1410, 11.11719
367.3410, 37.33301
368.5410, 8.495117
369.7410, 46.37988
370.9400, 48.65820
372.1400, 44.41113
373.3390, 32.43359
374.5380, 19.17578
375.7370, 14.86133
376.9360, 118.4482
378.1350, 67.00000
379.3330, 46.49121
380.5310, 104.8984
381.7300, 72.27344
382.9280, 117.6035
384.1260, 181.8789
385.3230, 163.0918
386.5210, 156.2402
387.7180, 125.3379
388.9160, 98.40625
390.1130, 117.4365
391.3100, 154.4375
392.5060, 281.4121
393.7030, 54.36133
394.9000, 173.2764
396.0960, 185.1670
397.2920, 68.97266
398.4880, 165.7959
399.6840, 175.5479
400.8800, 125.2861
402.0750, 222.0088
403.2710, 204.7119
404.4660, 134.3926
405.6610, 107.0469
406.8560, 187.6709
408.0510, 216.2686
409.2450, 222.8408
410.4400, 98.38281
411.6340, 96.89062
412.8280, 196.3643
414.0220, 166.8066
415.2160, 221.2188
416.4100, 103.5996
417.6030, 193.9453
418.7970, 177.2559
419.9900, 100.5342
421.1830, 244.7812
422.3760, 217.9941
423.5690, 102.1758
424.7610, 229.3174
425.9540, 189.4258
427.1460, 143.5127
428.3380, 199.5625
429.5300, 124.5791
430.7220, 345.5576
431.9140, 200.5039
433.1050, 64.42578
434.2970, 282.3037
435.4880, 289.1465
436.6790, 166.9570
437.8700, 310.7305
439.0610, 154.4727
440.2510, 288.1768
441.4420, 196.8486
442.6320, 171.5010
443.8220, 234.1172
445.0120, 232.0010
446.2020, 248.2139
447.3910, 316.7432
448.5810, 361.1758
449.7700, 346.6387
450.9600, 434.5859
452.1490, 428.9072
453.3370, 369.0957
454.5260, 437.5498
455.7150, 413.7842
456.9030, 379.2422
458.0910, 293.9834
459.2800, 363.1416
460.4670, 388.7588
461.6550, 428.7666
462.8430, 344.7002
464.0300, 350.0977
465.2180, 312.0762
466.4050, 391.9707
467.5920, 373.5850
468.7790, 351.8740
469.9650, 449.5039
471.1520, 492.8711
472.3380, 626.6670
473.5250, 654.5020
474.7110, 458.1602
475.8970, 533.4746
477.0820, 599.3916
478.2680, 585.6230
479.4540, 798.5010
480.6390, 822.1582
481.8240, 816.7324
483.0090, 932.5010
484.1940, 1065.601
485.3780, 1269.706
486.5630, 1436.207
487.7470, 1732.726
488.9320, 2085.329
490.1160, 2566.814
491.3000, 3004.615
492.4830, 3571.479
493.6670, 4231.904
494.8500, 4892.701
496.0340, 5450.657
497.2170, 6131.937
498.4000, 6559.367
499.5820, 7146.277
500.7650, 7624.056
501.9480, 7594.327
503.1300, 7453.404
504.3120, 7008.029
505.4940, 6438.049
506.6760, 5636.142
507.8580, 4862.037
509.0390, 4385.750
510.2210, 3627.521
511.4020, 3366.973
512.5830, 3097.007
513.7640, 3067.015
514.9450, 3151.104
516.1250, 3064.535
517.3060, 3072.426
518.4860, 3241.089
519.6660, 2922.994
520.8460, 3047.291
522.0260, 2862.059
523.2060, 2656.797
524.3850, 2465.117
525.5650, 2166.923
526.7440, 1903.987
527.9230, 1583.955
529.1020, 1394.877
530.2810, 1187.882
531.4590, 916.2363
532.6380, 894.9551
533.8160, 717.8418
534.9940, 642.9434
536.1720, 549.6934
537.3500, 459.5869
538.5270, 526.5742
539.7050, 354.7764
540.8820, 350.6230
542.0590, 374.4980
543.2360, 263.1406
544.4130, 253.1504
545.5900, 196.1045
546.7660, 270.7598
547.9430, 351.1914
549.1190, 130.1523
550.2950, 245.1035
551.4710, 224.0488
552.6470, 230.3350
553.8220, 281.5869
554.9980, 198.5225
556.1730, 256.5225
557.3480, 352.4170
558.5230, 317.6924
559.6980, 478.4512
560.8730, 384.1289
562.0470, 334.6484
563.2220, 408.4932
564.3960, 429.3076
565.5700, 397.5771
566.7440, 586.3926
567.9170, 650.3916
569.0910, 628.8535
570.2640, 667.6270
571.4380, 618.9531
572.6110, 869.7256
573.7840, 852.4268
574.9570, 1020.951
576.1290, 985.6992
577.3020, 1107.439
578.4740, 1273.927
579.6460, 1392.679
580.8180, 1498.959
581.9900, 1723.807
583.1620, 1810.783
584.3330, 1903.252
585.5040, 2305.939
586.6760, 2548.720
587.8470, 2589.394
589.0180, 2984.061
590.1880, 3179.720
591.3590, 3409.374
592.5290, 3432.024
593.7000, 3512.505
594.8700, 3564.605
596.0400, 3494.256
597.2090, 3360.592
598.3790, 3083.264
599.5490, 2812.306
600.7180, 2490.999
601.8870, 2285.712
603.0560, 1913.419
604.2250, 1630.166
605.3940, 1574.933
606.5620, 1309.695
607.7300, 1185.452
608.8990, 939.2051
610.0670, 860.0488
611.2350, 795.4375
612.4020, 610.6748
613.5700, 623.6885
614.7370, 594.5576
615.9050, 557.6523
617.0720, 498.4834
618.2390, 442.9150
619.4060, 380.7949
620.5720, 387.6680
621.7390, 474.5400
622.9050, 357.4141
624.0710, 269.2842
625.2370, 352.1504
626.4030, 284.0234
627.5690, 117.9150
628.7340, 292.8369
629.9000, 114.7754
631.0650, 287.7109
632.2300, 146.6758
633.3950, 233.6562
634.5600, 295.6338
635.7240, 88.61914
636.8890, 107.6133
638.0530, 130.6406
639.2170, 177.6650
640.3810, 186.8477
641.5450, 157.7139
642.7080, 213.7539
643.8720, 240.8096
645.0350, 237.0586
646.1980, 278.9639
647.3610, 203.0361
648.5240, 178.1064
649.6870, 175.1865
650.8490, 186.2686
652.0120, 193.3643
653.1740, 221.4844
654.3360, 319.6064
655.4980, 320.4902
656.6600, 225.6611
657.8210, 68.81836
658.9830, 204.9844
660.1440, 107.1484
661.3050, 341.3125
662.4660, 175.4805
663.6270, 108.3359
664.7870, 190.5029
665.9480, 53.66699
667.1080, 148.8281
668.2680, 229.9863
669.4280, 135.9668
670.5880, 137.1221
671.7480, 58.02930
672.9070, 100.3320
674.0670, 118.4805
675.2260, 164.6270
676.3850, 148.6064
677.5440, 101.7510
678.7030, 129.8936
679.8610, 92.85645
681.0200, 124.2373
682.1780, 100.4062
683.3360, 81.57227
684.4940, 178.7344
685.6520, 38.16016
686.8090, 186.3193
687.9670, 11.47559
689.1240, 270.6299
690.2810, 73.78027
691.4380, 40.92871
692.5950, 220.0762
693.7520, 10.22363
694.9080, 3.631836
696.0650, 76.50586
697.2210, 164.6426
698.3770, 91.77832
699.5330, 138.6514
700.6880, 18.95703
701.8440, 94.16211
702.9990, 70.27734
704.1550, 17.39062
705.3100, 53.50391
706.4650, 34.38574
707.6190, 140.7021
708.7740, 15.78809
709.9290, 44.87305
711.0830, 135.9561
712.2370, 28.96289
713.3910, 145.0996
714.5450, 55.16504
715.6980, 96.22949
716.8520, 87.29102
718.0050, 28.35254
719.1580, 140.4102
720.3110, 102.4688
721.4640, 49.47559
722.6170, 88.54883
723.7700, 135.5723
724.9220, 44.40723
726.0740, 46.58398
727.2260, 91.57324
728.3780, 89.56152
729.5300, 59.54785
730.6810, 72.53320
731.8330, 55.48438
732.9840, 17.53711
734.1350, 50.39453
735.2860, 84.67578
736.4370, 277.2031
737.5880, 8.0077998E-02
738.7380, 128.9512
739.8880, 52.82129
741.0390, 135.6895
742.1890, 58.55664
743.3380, 68.42090
744.4880, 85.28223
745.6380, 128.1436
746.7870, 88.99805
747.9360, 16.80762
749.0850, 66.39062
750.2340, 143.6299
751.3830, 107.9512
752.5310, 13.66309
753.6800, 61.72559
754.8280, 57.84766
755.9760, 66.58301
757.1240, 59.94531
758.2720, 134.4707
759.4190, 215.9951
760.5670, 90.51660
761.7140, 128.0371
762.8610, 104.5537
764.0080, 239.0703
765.1550, 159.5850
766.3020, 170.0986
767.4480, 97.61035
768.5950, 27.11914
769.7410, 11.62793
770.8870, 27.36328
772.0330, 148.6357
773.1780, 118.1367
774.3240, 191.3555
775.4690, 229.1348
776.6140, 219.6299
777.7590, 251.1221
778.9040, 233.6133
780.0490, 353.1025
781.1940, 282.5898
782.3380, 267.1953
783.4820, 274.5576
784.6260, 170.0381
785.7700, 95.51562
786.9140, 81.99316
788.0580, 211.4668
789.2010, 39.93945
790.3450, 199.4102
791.4880, 136.8789
792.6310, 56.65625
793.7730, 77.22559
794.9160, 52.15918
796.0590, 47.56348
797.2010, 104.9668
798.3430, 148.3682
799.4850, 56.76562
800.6270, 8.836914
801.7690, 69.55078
802.9100, 105.9365
804.0520, 74.31836
805.1930, 108.7012
806.3340, 59.91016
807.4750, 44.44336
808.6160, 43.20605
809.7560, 17.88086
810.8970, 87.42969
812.0370, 103.7402
813.1770, 12.95117
814.3170, 121.3467
815.4570, 124.6426
816.5960, 49.93750
817.7360, 149.2314
818.8750, 95.52246
820.0140, 77.81348
821.1530, 122.1016
822.2920, 2.609375
823.4310, 31.66699
824.5690, 65.94824
825.7070, 154.1133
826.8460, 104.3916
827.9840, 101.6709
829.1220, 97.94824
830.2590, 109.7051
831.3970, 99.38672
832.5340, 114.3477
833.6710, 115.2764
834.8080, 104.9043
835.9450, 109.1826
837.0820, 130.4590
838.2190, 95.41797
839.3550, 73.69434
840.4910, 84.96973
841.6270, 162.1621
842.7630, 82.43750
843.8990, 404.3779
845.0350, 152.6533
846.1700, 365.8398
847.3060, 854.1143
848.4410, 580.4688
849.5760, 689.5098
850.7100, 475.3242
851.8450, 509.6289
852.9800, 581.9053
854.1140, 669.1816
855.2480, 971.4307
856.3820, 1304.708
857.5160, 1655.985
858.6500, 1999.868
859.7830, 2317.146
860.9170, 2755.428
862.0500, 2891.607
863.1830, 3213.891
864.3160, 3321.175
865.4480, 3118.461
866.5810, 3065.749
867.7130, 2679.038
868.8460, 2331.492
869.9780, 2000.325
871.1100, 1732.642
872.2410, 1432.276
873.3730, 1365.604
874.5050, 1681.663
875.6360, 1647.010
876.7670, 1681.358
877.8980, 1856.711
879.0290, 2022.065
880.1590, 2145.423
881.2900, 2388.784
882.4200, 2548.147
883.5500, 2796.521
884.6800, 2947.853
885.8100, 3543.773
886.9400, 4431.735
888.0690, 5741.942
889.1990, 7142.293
890.3280, 9042.421
891.4570, 10181.83
892.5860, 11800.68
893.7140, 14065.10
894.8430, 15001.53
895.9710, 15085.99
897.1000, 13468.45
898.2280, 10739.92
899.3560, 7240.428
900.4830, 4421.938
901.6110, 2576.454
902.7380, 1848.978
903.8660, 1402.505
904.9930, 980.0400
906.1200, 999.5635
907.2460, 800.1104
908.3730, 932.6631
909.5000, 880.2217
910.6260, 721.7881
911.7520, 821.3604
912.8780, 846.9385
914.0040, 789.5225
915.1290, 970.1133
916.2550, 1039.711
917.3800, 1019.314
918.5050, 1006.926
919.6300, 1053.543
920.7550, 1273.168
921.8800, 1340.799
923.0040, 1241.437
924.1290, 1305.082
925.2530, 1226.732
926.3770, 1188.391
927.5010, 1549.055
928.6250, 1426.989
929.7480, 1572.648
930.8720, 1377.646
931.9950, 1554.341
933.1180, 1583.042
934.2410, 1802.751
935.3640, 1585.486
936.4860, 1703.536
937.6090, 1811.285
938.7310, 1909.042
939.8530, 1771.806
940.9750, 1747.654
942.0970, 1709.609
943.2180, 1826.396
944.3400, 1787.438
945.4610, 1642.090
946.5820, 1627.900
947.7030, 1490.131
948.8240, 1421.717
949.9450, 1220.553
951.0650, 1203.413
952.1860, 1037.281
953.3060, 948.1582
954.4260, 902.0439
955.5460, 743.9375
956.6650, 606.8398
957.7850, 567.4863
958.9040, 465.4951
960.0230, 575.3340
961.1420, 388.2725
962.2610, 435.2178
963.3800, 472.1719
964.4990, 377.1367
965.6170, 338.1270
966.7350, 349.1094
967.8530, 241.1006
968.9710, 201.1025
970.0890, 168.1123
971.2070, 166.1309
972.3240, 255.1592
973.4410, 116.2012
974.5580, 300.2539
975.6750, 25.31445
976.7920, 88.38477
977.9090, 115.4629
979.0250, 235.5625
980.1410, 231.6699
981.2580, 20.78516
982.3740, 83.91211
983.4890, 26.95312
984.6050, 123.1953
985.7200, 2.644531
986.8360, 172.5215
987.9510, 182.6973
989.0660, 112.8809
990.1810, 70.07617
991.2950, 215.2773
992.4100, 117.4902
993.5240, 145.7422
994.6390, 68.00586
995.7530, 203.2754
996.8660, 242.5684
997.9800, 108.0723
999.0940, 17.42188
1000.207, 62.78125
1001.320, 169.1465
1002.433, 246.5215
1003.546, 199.9238
1004.659, 117.5371
1005.772, 81.98242
1006.884, 39.58398
1007.996, 7.925781
1009.108, 209.5762
1010.220, 132.0879
1011.332, 143.6074
1012.444, 236.1582
1013.555, 65.71875
1014.666, 121.2852
1015.777, 82.16211
1016.888, 205.6758
1017.999, 55.72070
1019.110, 10.01953
1020.220, 29.65625
1021.331, 23.35742
1022.441, 133.1094
1023.551, 58.41992
1024.661, 147.2168
1025.770, 148.0176
1026.880, 36.85156
1027.989, 44.76367
1029.098, 80.80273
1030.207, 116.6582
1031.316, 131.5293
1032.425, 26.11523
1033.533, 259.9980
1034.642, 200.8906
1035.750, 88.78906
1036.858, 171.6953
1037.966, 30.60742
1039.073, 77.52539
1040.181, 152.4512
1041.288, 207.3828
1042.396, 192.3203
1043.503, 199.3242
1044.610, 183.6992
1045.716, 85.19922
1046.823, 90.17578
1047.929, 86.25781
1049.036, 86.84570
1050.142, 99.16016
1051.248, 156.1719
1052.353, 113.1875
1053.459, 156.2129
1054.564, 158.2539
1055.670, 163.4727
1056.775, 160.3594
1057.880, 168.4199
1058.985, 178.4883
1060.089, 131.5605
1061.194, 66.63867
1062.298, 217.7383
1063.402, 114.1328
1064.506, 140.9570
1065.610, 167.0488
1066.713, 28.15234
1067.817, 7.263672
1068.920, 49.37891
1070.023, 197.5020
1071.126, 165.6289
1072.229, 72.76367
1073.332, 53.09961
1074.435, 103.0391
1075.537, 302.1855
1076.639, 193.3359
1077.741, 186.5039
1078.843, 176.6934
1079.945, 266.8867
1081.046, 237.0859
1082.148, 252.1211
1083.249, 230.0469
1084.350, 214.2637
1085.451, 290.4902
1086.551, 211.7207
1087.652, 406.9551
1088.752, 337.1934
1089.853, 349.5352
1090.953, 107.6855
1092.053, 274.9414
1093.152, 225.1992
1094.252, 100.4609
1095.351, 124.7266
1096.451, 117.9961
1097.550, 25.73047
1098.649, 55.53516
1099.748, 129.8262
1100.846, 237.1211
1101.945, 122.4199
1103.043, 227.7188
1104.141, 243.0215
1105.239, 127.3281
1106.337, 94.64062
1107.434, 21.95703
1108.532, 20.27344
1109.629, 6.603516
1110.726, 14.25586
1111.823, 31.24219
1112.920, 110.5684
1114.017, 152.8984
1115.113, 288.2324
1116.210, 161.1426
1117.306, 267.4785
1118.402, 231.7910
1119.498, 302.1309
1120.593, 304.5469
1121.689, 317.8223
1122.784, 305.1719
1123.879, 268.5215
1124.974, 274.6543
1126.069, 191.0078
1127.164, 262.3633
1128.259, 223.7207
1129.353, 0.2089840
1130.447, 144.9609
1131.541, 89.31836
1132.635, 275.6758
1133.729, 65.03320
1134.822, 151.3906
1135.916, 80.66797
1137.009, 57.60938
1138.102, 13.07812
1139.195, 44.77344
1140.288, 39.86719
1141.380, 129.1445
1142.473, 68.01758
1143.565, 91.23047
1144.657, 74.50391
1145.749, 28.77539
1146.841, 32.76758
1147.932, 9.015625
1149.024, 4.583984
1150.115, 0.8437500
1151.206, 6.023438
1152.297, 25.21875
1153.388, 45.48633
1154.479, 3.892578
1155.569, 131.0156
1156.659, 60.24219
1157.750, 125.4668
1158.839, 19.94531
1159.929, 69.83594
1161.019, 27.33398
1162.108, 54.29102
1163.198, 92.54492
1164.287, 174.5605
1165.376, 178.6641
1166.465, 246.7637
1167.553, 93.86133
1168.642, 93.95508
1169.730, 317.0469
1170.818, 126.1348
1171.906, 175.2227
1172.994, 211.3047
1174.082, 176.3848
1175.170, 335.2227
1176.257, 276.8652
1177.344, 162.3672
1178.431, 236.4355
1179.518, 207.4844
1180.605, 160.5488
1181.691, 112.6074
1182.778, 121.2520
1183.864, 145.7148
1184.950, 149.6953
1186.036, 128.8594
1187.122, 150.9023
1188.207, 170.9395
1189.292, 205.9746
1190.378, 195.0059
1191.463, 228.0332
1192.548, 171.0566
1193.632, 310.0742
1194.717, 185.7832
1195.801, 135.7930
1196.886, 91.69727
1197.970, 43.29883
1199.054, 75.66992
1200.137, 242.6309
1201.221, 142.5918
1202.305, 109.5449
1203.388, 158.4961
1204.471, 34.36523
1205.554, 135.3105
1206.637, 92.25000
1207.719, 223.1816
1208.802, 77.24609
1209.884, 129.1738
1210.966, 276.0938
1212.048, 175.0117
1213.130, 35.07227
1214.212, 179.8066
1215.293, 108.0332
1216.374, 111.9023
1217.456, 155.7676
1218.536, 229.6289
1219.617, 254.4844
1220.698, 130.3359
1221.778, 235.7871
1222.859, 134.6270
1223.939, 143.4648
1225.019, 169.2988
1226.099, 42.12500
1227.178, 215.9492
1228.258, 166.7461
1229.337, 85.26562
1230.417, 71.07617
1231.496, 110.8789
1232.574, 106.6797
1233.653, 215.4766
1234.732, 212.2656
1235.810, 248.3379
1236.888, 256.9688
1237.966, 223.1660
1239.044, 207.6699
1240.122, 163.4336
1241.199, 85.19727
1242.277, 93.95508
1243.354, 230.7051
1244.431, 85.45508
1245.508, 242.1973
1246.585, 171.9375
1247.661, 58.67578
1248.738, 92.40625
1249.814, 106.1328
1250.890, 217.8574
1251.966, 87.57422
1253.042, 353.2871
1254.117, 36.00391
1255.193, 49.66602
1256.268, 139.3340
1257.343, 171.9961
1258.418, 19.34570
1259.493, 68.90234
1260.567, 50.66992
1261.642, 184.2422
1262.716, 86.80859
1263.790, 135.3691
1264.864, 18.07422
1265.938, 5.271484
1267.011, 131.7891
1268.085, 177.1758
1269.158, 5.322266
1270.231, 156.1719
1271.304, 119.6602
1272.377, 70.85547
1273.450, 163.5801
1274.522, 130.0117
1275.594, 246.4414
1276.666, 76.86523
1277.738, 113.0586
1278.810, 171.0527
1279.882, 103.8359
1280.953, 241.2285
1282.025, 20.35742
1283.096, 113.0312
1284.167, 16.13477
1285.238, 196.2344
1286.308, 188.6016
1287.379, 10.96680
1288.449, 181.2578
1289.519, 254.4238
