##NAMES=Whewellite
##RRUFFID=R050240
##IDEAL CHEMISTRY=Ca(C_2_)^6+^O_4_&#183;H_2_O
##LOCALITY=Huron River, Milan, Ohio, USA
##OWNER=RRUFF
##SOURCE=Marcus Origlieri
##DESCRIPTION=White fragment
##STATUS=The identification of this mineral has been confirmed by X-ray diffraction and chemical analysis
##URL=rruff.info/R050240
##MEASURED CHEMISTRY=Ca_1.00_C_2_O_4_Â·H_2_O
##PIN_ID=L00839
##ORIENTATION=Laser parallel to c* (0 0 1). Fiducial mark perpendicular to laser is parallel to a [1 0 0]
107.0470, 0.0000000E+00
108.2800, 39.21777
109.5120, 49.69385
110.7440, 43.51221
111.9760, 14.01465
113.2080, 14.19824
114.4400, 185.2944
115.6710, 192.0234
116.9030, 327.5005
118.1340, 500.0728
119.3650, 632.2402
120.5960, 861.6177
121.8270, 1042.916
123.0580, 1187.861
124.2880, 1479.282
125.5190, 1649.002
126.7490, 1900.878
127.9790, 2111.786
129.2090, 2584.617
130.4390, 2808.280
131.6680, 3131.696
132.8980, 3558.812
134.1270, 3743.581
135.3560, 3979.958
136.5850, 4170.894
137.8140, 4237.341
139.0430, 4101.419
140.2710, 3852.619
141.5000, 3484.387
142.7280, 3039.536
143.9560, 2414.037
145.1840, 1898.861
146.4120, 1456.978
147.6390, 1207.365
148.8670, 914.0005
150.0940, 722.8667
151.3210, 639.9497
152.5490, 466.2358
153.7750, 465.7290
155.0020, 320.4287
156.2290, 236.3208
157.4550, 277.4502
158.6810, 130.9312
159.9080, 45.60645
161.1340, 127.4409
162.3590, 221.4448
163.5850, 140.6597
164.8110, 257.9736
166.0360, 192.3955
167.2610, 130.9072
168.4860, 161.5137
169.7110, 243.2070
170.9360, 285.0767
172.1610, 259.0747
173.3850, 307.1431
174.6100, 352.0518
175.8340, 368.5493
177.0580, 467.8794
178.2820, 586.2607
179.5050, 645.7354
180.7290, 897.2754
181.9520, 899.7949
183.1760, 1025.308
184.3990, 1295.814
185.6220, 1617.326
186.8450, 1872.888
188.0670, 2108.491
189.2900, 2573.109
190.5120, 2810.745
191.7340, 3018.400
192.9560, 3135.082
194.1780, 3126.799
195.4000, 3014.557
196.6220, 2900.347
197.8430, 3026.169
199.0640, 3142.519
200.2860, 3227.412
201.5070, 3376.338
202.7270, 3577.069
203.9480, 3698.039
205.1690, 3722.046
206.3890, 3698.176
207.6090, 3568.049
208.8290, 3212.770
210.0490, 2955.010
211.2690, 2695.151
212.4890, 2365.393
213.7080, 2208.712
214.9280, 2088.747
216.1470, 1887.619
217.3660, 1944.194
218.5850, 2100.676
219.8030, 1996.038
221.0220, 1948.424
222.2400, 2051.833
223.4590, 1954.720
224.6770, 1667.178
225.8950, 1195.655
227.1120, 1019.153
228.3300, 896.8750
229.5480, 816.4072
230.7650, 659.0225
231.9820, 580.5879
233.1990, 556.0693
234.4160, 577.4336
235.6330, 509.9697
236.8490, 447.5557
238.0660, 442.2295
239.2820, 419.8066
240.4980, 399.3965
241.7140, 370.6885
242.9300, 376.3486
244.1460, 301.9307
245.3610, 353.5244
246.5770, 314.1289
247.7920, 231.7422
249.0070, 248.3652
250.2220, 216.4883
251.4370, 181.0537
252.6510, 225.2354
253.8660, 186.1543
255.0800, 225.0527
256.2940, 220.2939
257.5080, 247.6885
258.7220, 234.1475
259.9360, 239.0059
261.1490, 144.0518
262.3630, 105.2598
263.5760, 195.2871
264.7890, 128.7715
266.0020, 239.7979
267.2150, 205.5078
268.4270, 75.32910
269.6400, 235.3545
270.8520, 206.3467
272.0640, 130.4180
273.2760, 158.5615
274.4880, 94.77051
275.7000, 167.0410
276.9120, 163.3711
278.1230, 121.7549
279.3340, 188.1895
280.5450, 191.8223
281.7560, 160.5410
282.9670, 68.43164
284.1780, 61.04590
285.3880, 86.69629
286.5980, 12.38281
287.8090, 108.4248
289.0190, 41.43066
290.2290, 18.68750
291.4380, 33.50586
292.6480, 87.33984
293.8570, 49.20020
295.0670, 131.0850
296.2760, 43.97656
297.4850, 163.9473
298.6930, 27.89746
299.9020, 97.46191
301.1110, 22.54883
302.3190, 91.55273
303.5270, 4.427734
304.7350, 18.60742
305.9430, 101.3428
307.1510, 136.8887
308.3580, 56.05273
309.5660, 19.27344
310.7730, 62.65430
311.9800, 44.57910
313.1870, 13.43066
314.3940, 20.17188
315.6010, 92.26758
316.8070, 38.74707
318.0130, 8.279297
319.2200, 28.94043
320.4260, 172.0635
321.6310, 47.61426
322.8370, 11.48926
324.0430, 172.6396
325.2480, 4.228516
326.4540, 65.90820
327.6590, 59.95117
328.8640, 9.819336
330.0680, 65.31445
331.2730, 15.92480
332.4780, 42.06836
333.6820, 66.21484
334.8860, 32.36426
336.0900, 22.51758
337.2940, 17.67383
338.4980, 6.166016
339.7010, 122.0098
340.9050, 57.17383
342.1080, 149.3398
343.3110, 27.50879
344.5140, 34.67578
345.7170, 20.84668
346.9200, 1.018555
348.1220, 29.18262
349.3240, 37.34766
350.5270, 52.51367
351.7290, 5.681641
352.9310, 99.82324
354.1320, 11.95312
355.3340, 50.06055
356.5350, 25.83301
357.7370, 83.26855
358.9380, 48.36816
360.1390, 84.54492
361.3400, 82.51660
362.5400, 50.57617
363.7410, 11.61621
364.9410, 64.65430
366.1410, 9.690430
367.3410, 142.7246
368.5410, 45.75586
369.7410, 73.78613
370.9400, 98.81445
372.1400, 69.84180
373.3390, 44.86426
374.5380, 87.88574
375.7370, 161.9053
376.9360, 66.07910
378.1350, 96.90723
379.3330, 51.86621
380.5310, 26.82227
381.7300, 131.7773
382.9280, 129.7285
384.1260, 78.67676
385.3230, 149.6221
386.5210, 65.56641
387.7180, 40.48730
388.9160, 87.40527
390.1130, 122.3203
391.3100, 25.76562
392.5060, 113.1338
393.7030, 111.4980
394.9000, 9.617188
396.0960, 85.89746
397.2920, 22.23926
398.4880, 228.6865
399.6840, 18.33398
400.8800, 125.5225
402.0750, 20.26074
403.2710, 39.60059
404.4660, 157.4668
405.6610, 112.3389
406.8560, 7.786133
408.0510, 152.0811
409.2450, 53.95605
410.4400, 120.9258
411.6340, 38.81055
412.8280, 33.18164
414.0220, 190.2500
415.2160, 177.1328
416.4100, 100.0146
417.6030, 79.89453
418.7970, 93.77441
419.9900, 250.6514
421.1830, 56.52734
422.3760, 116.4072
423.5690, 7.795898
424.7610, 35.87012
425.9540, 30.72949
427.1460, 83.58203
428.3380, 55.43066
429.5300, 70.27539
430.7220, 33.11719
431.9140, 36.53125
433.1050, 45.35742
434.2970, 32.29395
435.4880, 72.11621
436.6790, 77.93359
437.8700, 96.05078
439.0610, 54.58398
440.2510, 82.23438
441.4420, 58.04492
442.6320, 27.85059
443.8220, 49.76465
445.0120, 66.43066
446.2020, 87.21289
447.3910, 77.92578
448.5810, 141.6943
449.7700, 11.45508
450.9600, 196.2002
452.1490, 8.919922
453.3370, 61.79297
454.5260, 139.2705
455.7150, 69.45605
456.9030, 48.81348
458.0910, 142.7832
459.2800, 91.62598
460.4670, 32.89453
461.6550, 28.40332
462.8430, 158.9014
464.0300, 45.39258
465.2180, 82.88477
466.4050, 133.9629
467.5920, 92.43066
468.7790, 105.7314
469.9650, 84.18652
471.1520, 87.89160
472.3380, 82.93652
473.5250, 29.37109
474.7110, 176.7939
475.8970, 101.2109
477.0820, 80.62109
478.2680, 144.0234
479.4540, 110.4199
480.6390, 155.8096
481.8240, 12.82715
483.0090, 81.19336
484.1940, 75.55078
485.3780, 107.9033
486.5630, 131.2480
487.7470, 160.5850
488.9320, 166.9131
490.1160, 71.06445
491.3000, 257.3789
492.4830, 111.6865
493.6670, 381.9863
494.8500, 207.2227
496.0340, 234.5088
497.2170, 427.7881
498.4000, 506.0605
499.5820, 474.6787
500.7650, 426.9355
501.9480, 507.1846
503.1300, 438.3682
504.3120, 570.6045
505.4940, 431.8340
506.6760, 266.0254
507.8580, 357.2412
509.0390, 296.3516
510.2210, 483.5537
511.4020, 329.7490
512.5830, 407.9385
513.7640, 366.1201
514.9450, 338.2949
516.1250, 439.4629
517.3060, 457.6250
518.4860, 586.7852
519.6660, 476.5195
520.8460, 425.6680
522.0260, 469.8086
523.2060, 291.9434
524.3850, 389.0713
525.5650, 312.1924
526.7440, 384.3076
527.9230, 166.4150
529.1020, 186.5283
530.2810, 175.6348
531.4590, 288.7510
532.6380, 220.8740
533.8160, 397.6025
534.9940, 1.270508
536.1720, 213.8369
537.3500, 17.40137
538.5270, 133.4912
539.7050, 51.35059
540.8820, 46.71582
542.0590, 184.6377
543.2360, 27.81738
544.4130, 131.4326
545.5900, 111.4834
546.7660, 201.5264
547.9430, 321.7900
549.1190, 188.5928
550.2950, 53.14941
551.4710, 162.0527
552.6470, 115.0635
553.8220, 17.94434
554.9980, 42.91504
556.1730, 92.91113
557.3480, 116.8711
558.5230, 223.8232
559.6980, 189.7705
560.8730, 326.7100
562.0470, 214.6426
563.2220, 220.3662
564.3960, 23.28516
565.5700, 41.04395
566.7440, 97.75488
567.9170, 204.3281
569.0910, 232.2490
570.2640, 78.12793
571.4380, 196.0000
572.6110, 194.6738
573.7840, 152.2793
574.9570, 215.7090
576.1290, 155.6445
577.3020, 269.4863
578.4740, 310.8848
579.6460, 295.7109
580.8180, 192.5020
581.9900, 182.3232
583.1620, 115.1318
584.3330, 269.3389
585.5040, 317.0371
586.6760, 348.8291
587.8470, 324.6895
589.0180, 398.4697
590.1880, 426.2432
591.3590, 437.9824
592.5290, 412.6221
593.7000, 472.1406
594.8700, 444.9150
596.0400, 447.6934
597.2090, 424.7109
598.3790, 526.8291
599.5490, 311.5977
600.7180, 378.9844
601.8870, 256.3203
603.0560, 342.5293
604.2250, 361.2773
605.3940, 119.8291
606.5620, 237.5771
607.7300, 319.3232
608.8990, 237.0645
610.0670, 320.0703
611.2350, 193.5957
612.4020, 330.3359
613.5700, 254.0752
614.7370, 228.3379
615.9050, 186.2041
617.0720, 221.9297
618.2390, 177.6514
619.4060, 217.3682
620.5720, 276.0801
621.7390, 189.7891
622.9050, 251.4805
624.0710, 211.1826
625.2370, 263.8809
626.4030, 224.5752
627.5690, 253.2646
628.7340, 198.9512
629.9000, 154.6328
631.0650, 201.3125
632.2300, 117.9883
633.3950, 168.6602
634.5600, 276.3281
635.7240, 97.99414
636.8890, 327.6553
638.0530, 247.3135
639.2170, 53.96777
640.3810, 280.6270
641.5450, 280.2812
642.7080, 189.9336
643.8720, 156.6025
645.0350, 126.2695
646.1980, 346.9326
647.3610, 141.5928
648.5240, 218.2510
649.6870, 325.9053
650.8490, 272.5566
652.0120, 105.2061
653.1740, 220.8506
654.3360, 181.4932
655.4980, 144.1318
656.6600, 175.7998
657.8210, 98.76953
658.9830, 203.3994
660.1440, 111.0449
661.3050, 118.6895
662.4660, 181.3281
663.6270, 99.96680
664.7870, 54.60059
665.9480, 66.23242
667.1080, 159.8613
668.2680, 103.9473
669.4280, 162.5703
670.5880, 186.1143
671.7480, 231.5723
672.9070, 222.1885
674.0670, 216.7100
675.2260, 103.8535
676.3850, 161.4824
677.5440, 56.46289
678.7030, 26.45898
679.8610, 11.26270
681.0200, 63.52148
682.1780, 24.14746
683.3360, 19.58301
684.4940, 144.0303
685.6520, 109.6416
686.8090, 13.25000
687.9670, 2.854492
689.1240, 78.54199
690.2810, 91.05859
691.4380, 48.45898
692.5950, 85.97266
693.7520, 58.99805
694.9080, 30.32422
696.0650, 79.83301
697.2210, 61.33887
698.3770, 105.8438
699.5330, 225.3467
700.6880, 69.84863
701.8440, 21.65332
702.9990, 71.82910
704.1550, 36.79883
705.3100, 126.0723
706.4650, 125.5557
707.6190, 24.04199
708.7740, 98.52637
709.9290, 69.03027
711.0830, 11.53320
712.2370, 43.03516
713.3910, 5.462891
714.5450, 18.35742
715.6980, 115.5156
716.8520, 52.00391
718.0050, 87.44629
719.1580, 90.89551
720.3110, 30.34277
721.4640, 44.79004
722.6170, 54.23535
723.7700, 166.6846
724.9220, 189.1318
726.0740, 12.57910
727.2260, 117.0254
728.3780, 64.47070
729.5300, 195.9160
730.6810, 86.36621
731.8330, 29.81543
732.9840, 29.27539
734.1350, 147.7334
735.2860, 1.212891
736.4370, 191.7148
737.5880, 68.23730
738.7380, 33.75879
739.8880, 151.3125
741.0390, 145.8691
742.1890, 134.4277
743.3380, 125.7676
744.4880, 87.54688
745.6380, 34.10645
746.7870, 73.67480
747.9360, 63.24219
749.0850, 6.811523
750.2340, 29.37793
751.3830, 192.9453
752.5310, 69.51367
753.6800, 8.3007999E-02
754.8280, 264.6514
755.9760, 133.2197
757.1240, 166.7881
758.2720, 124.3584
759.4190, 90.92676
760.5670, 103.4971
761.7140, 158.0713
762.8610, 208.6465
764.0080, 178.2227
765.1550, 192.7988
766.3020, 140.3760
767.4480, 150.9531
768.5950, 94.53027
769.7410, 75.10938
770.8870, 119.6787
772.0330, 359.2695
773.1780, 200.8506
774.3240, 377.4316
775.4690, 394.0146
776.6140, 436.5986
777.7590, 497.1836
778.9040, 465.7695
780.0490, 375.3564
781.1940, 326.9443
782.3380, 311.5322
783.4820, 241.1230
784.6260, 216.7129
785.7700, 295.3047
786.9140, 151.8975
788.0580, 158.4922
789.2010, 115.0879
790.3450, 200.6836
791.4880, 31.28223
792.6310, 98.88086
793.7730, 0.4804690
794.9160, 24.91797
796.0590, 102.6729
797.2010, 19.26465
798.3430, 83.85742
799.4850, 128.4521
800.6270, 34.04980
801.7690, 172.6475
802.9100, 175.2646
804.0520, 184.8975
805.1930, 44.46777
806.3340, 86.14746
807.4750, 59.23730
808.6160, 59.64941
809.7560, 56.91113
810.8970, 67.52734
812.0370, 2.9300000E-03
813.1770, 0.5400390
814.3170, 130.0801
815.4570, 10.37598
816.5960, 132.0625
817.7360, 156.3193
818.8750, 90.86621
820.0140, 171.2998
821.1530, 87.98047
822.2920, 68.53418
823.4310, 15.09082
824.5690, 29.87305
825.7070, 101.5371
826.8460, 78.56641
827.9840, 155.8223
829.1220, 187.3926
830.2590, 209.9678
831.3970, 207.8799
832.5340, 181.1240
833.6710, 174.7227
834.8080, 188.3330
835.9450, 219.9482
837.0820, 170.5674
838.2190, 175.8672
839.3550, 226.0127
840.4910, 141.6660
841.6270, 156.3242
842.7630, 167.9863
843.8990, 304.1523
845.0350, 243.7861
846.1700, 375.3428
847.3060, 381.0186
848.4410, 512.5664
849.5760, 485.2480
850.7100, 533.7295
851.8450, 380.4854
852.9800, 577.1777
854.1140, 521.3086
855.2480, 540.0088
856.3820, 639.7119
857.5160, 1019.419
858.6500, 1026.131
859.7830, 1222.846
860.9170, 1362.564
862.0500, 1194.287
863.1830, 1403.938
864.3160, 1193.668
865.4480, 1187.403
866.5810, 1155.141
867.7130, 1094.884
868.8460, 1102.630
869.9780, 1074.381
871.1100, 1117.996
872.2410, 1116.604
873.3730, 1171.383
874.5050, 1305.168
875.6360, 1406.955
876.7670, 1499.003
877.8980, 1721.798
879.0290, 1706.597
880.1590, 1804.400
881.2900, 1891.207
882.4200, 1789.803
883.5500, 2065.616
884.6800, 1919.435
885.8100, 1757.195
886.9400, 1628.020
888.0690, 1760.854
889.1990, 1750.692
890.3280, 1726.397
891.4570, 1850.245
892.5860, 1819.095
893.7140, 1783.949
894.8430, 1892.809
895.9710, 1837.672
897.1000, 1414.539
898.2280, 1409.410
899.3560, 924.2842
900.4830, 857.1738
901.6110, 653.0693
902.7380, 860.9688
903.8660, 637.8711
904.9930, 546.7773
906.1200, 644.6895
907.2460, 621.6045
908.3730, 656.5254
909.5000, 574.4492
910.6260, 676.3789
911.7520, 641.3125
912.8780, 744.2490
914.0040, 808.1904
915.1290, 788.1367
916.2550, 895.0879
917.3800, 946.0430
918.5050, 913.0029
919.6300, 1026.967
920.7550, 991.4062
921.8800, 815.9082
923.0040, 938.8857
924.1290, 930.8672
925.2530, 832.8623
926.3770, 1164.862
927.5010, 1081.867
928.6250, 982.8750
929.7480, 1147.857
930.8720, 1064.539
931.9950, 1042.562
933.1180, 1141.590
934.2410, 1047.621
935.3640, 1104.656
936.4860, 1283.699
937.6090, 1383.951
938.7310, 1218.049
939.8530, 1207.104
940.9750, 1168.705
942.0970, 1145.768
943.2180, 1176.465
944.3400, 1081.146
945.4610, 1087.225
946.5820, 813.4395
947.7030, 734.5078
948.8240, 723.5879
949.9450, 795.6855
951.0650, 587.4141
952.1860, 634.5215
953.3060, 604.6367
954.4260, 644.7598
955.5460, 518.8848
956.6650, 355.0273
957.7850, 406.1738
958.9040, 318.3242
960.0230, 352.4824
961.1420, 427.6484
962.2610, 255.8418
963.3800, 208.0684
964.4990, 341.1348
965.6170, 438.4453
966.7350, 342.6934
967.8530, 354.3066
968.9710, 225.6309
970.0890, 192.8965
971.2070, 176.1660
972.3240, 101.4434
973.4410, 48.72461
974.5580, 218.6973
975.6750, 259.9961
976.7920, 173.3027
977.9090, 16.38867
979.0250, 20.91992
980.1410, 93.76367
981.2580, 89.51367
982.3740, 18.79492
983.4890, 71.08398
984.6050, 0.3750000
985.7200, 77.67578
986.8360, 71.98828
987.9510, 7.074219
989.0660, 11.64258
990.1810, 24.79492
991.2950, 103.3320
992.4100, 69.68555
993.5240, 63.04102
994.6390, 54.40625
995.7530, 57.77539
996.8660, 146.1504
997.9800, 146.5312
999.0940, 245.9160
1000.207, 249.3438
1001.320, 283.7559
1002.433, 194.1816
1003.546, 107.6133
1004.659, 89.91797
1005.772, 72.50391
1006.884, 132.9316
1007.996, 196.3652
1009.108, 40.80078
1010.220, 7.759766
1011.332, 105.6816
1012.444, 14.12891
1013.555, 46.58008
1014.666, 224.0352
1015.777, 37.50586
1016.888, 28.94336
1017.999, 104.3926
1019.110, 92.84961
1020.220, 66.31055
1021.331, 158.8770
1022.441, 198.3477
1023.551, 300.8223
1024.661, 80.40430
1025.770, 24.90039
1026.880, 63.39844
1027.989, 61.90234
1029.098, 48.44727
1030.207, 110.9941
1031.316, 71.55664
1032.425, 113.1191
1033.533, 60.08789
1034.642, 62.65820
1035.750, 265.2344
1036.858, 150.8125
1037.966, 215.3945
1039.073, 210.9824
1040.181, 110.5723
1041.288, 59.16797
1042.396, 24.77148
1043.503, 4.380859
1044.610, 91.99219
1045.716, 136.6074
1046.823, 162.2266
1047.929, 137.8555
1049.036, 189.1797
1050.142, 150.1270
1051.248, 189.7656
1052.353, 154.4121
1053.459, 23.05859
1054.564, 180.7109
1055.670, 56.36328
1056.775, 206.0215
1057.880, 75.55273
1058.985, 74.21484
1060.089, 133.8828
1061.194, 225.5527
1062.298, 168.0586
1063.402, 201.7656
1064.506, 69.59766
1065.610, 170.2871
1066.713, 93.98047
1067.817, 83.67969
1068.920, 119.3789
1070.023, 71.91797
1071.126, 52.25000
1072.229, 183.4160
1073.332, 58.08398
1074.435, 263.7676
1075.537, 114.4531
1076.639, 128.1562
1077.741, 315.8770
1078.843, 141.6016
1079.945, 209.3496
1081.046, 273.0977
1082.148, 154.8496
1083.249, 197.6035
1084.350, 247.3633
1085.451, 334.1270
1086.551, 289.8887
1087.652, 352.6582
1088.752, 144.4297
1089.853, 193.2109
1090.953, 111.9961
1092.053, 239.7812
1093.152, 63.56836
1094.252, 290.3594
1095.351, 138.1758
1096.451, 11.98828
1097.550, 2.869141
1098.649, 241.1387
1099.748, 304.0098
1100.846, 38.11719
1101.945, 233.7383
1103.043, 129.5957
1104.141, 232.4531
1105.239, 53.31250
1106.337, 90.82617
1107.434, 152.9883
1108.532, 88.80469
1109.629, 211.6230
1110.726, 236.9453
1111.823, 118.7656
1112.920, 82.70508
1114.017, 132.5332
1115.113, 131.3613
1116.210, 42.19531
1117.306, 280.0156
1118.402, 224.8516
1119.498, 194.6914
1120.593, 352.5312
1121.689, 212.3730
1122.784, 318.2188
1123.879, 326.0664
1124.974, 51.91602
1126.069, 85.39062
1127.164, 233.2422
1128.259, 84.20898
1129.353, 214.0645
1130.447, 145.9219
1131.541, 134.8418
1132.635, 166.7012
1133.729, 161.5625
1134.822, 102.4238
1135.916, 61.71289
1137.009, 81.75195
1138.102, 130.5820
1139.195, 225.4121
1140.288, 58.24609
1141.380, 263.0781
1142.473, 127.6562
1143.565, 68.49023
1144.657, 165.3262
1145.749, 206.1621
1146.841, 58.00195
1147.932, 146.0566
1149.024, 61.89648
1150.115, 134.7383
1151.206, 139.5820
1152.297, 12.57422
1153.388, 94.25977
1154.479, 177.0938
1155.569, 7.705078
1156.659, 75.53711
1157.750, 110.3730
1158.839, 75.21094
1159.929, 227.5020
1161.019, 95.33789
1162.108, 158.6992
1163.198, 194.5371
1164.287, 28.62305
1165.376, 106.1914
1166.465, 178.0078
1167.553, 281.8242
1168.642, 145.6406
1169.730, 52.45703
1170.818, 78.27344
1171.906, 66.08984
1172.994, 30.29883
1174.082, 321.1152
1175.170, 142.9355
1176.257, 244.7539
1177.344, 161.5723
1178.431, 29.64648
1179.518, 162.4648
1180.605, 43.28320
1181.691, 242.1035
1182.778, 245.9219
1183.864, 66.74219
1184.950, 80.56055
1186.036, 42.38086
1187.122, 71.20117
1188.207, 17.97852
1189.292, 212.8242
1190.378, 191.6289
1191.463, 148.4316
1192.548, 90.23438
1193.632, 143.0371
1194.717, 236.8418
1195.801, 257.6445
1196.886, 170.4512
1197.970, 154.2539
1199.054, 132.0586
1200.137, 25.86328
1201.221, 37.46094
1202.305, 41.61719
1203.388, 50.42188
1204.471, 93.22852
1205.554, 90.19531
1206.637, 72.83984
1207.719, 118.6465
1208.802, 119.4531
1209.884, 150.9023
1210.966, 182.3320
1212.048, 110.0664
1213.130, 225.8730
1214.212, 115.6777
1215.293, 83.48438
1216.374, 230.2871
1217.456, 51.09375
1218.536, 286.8984
1219.617, 100.9375
1220.698, 100.7402
1221.778, 295.5430
1222.859, 134.3457
1223.939, 130.1484
1225.019, 251.4180
1226.099, 262.9980
1227.178, 277.8672
1228.258, 4.824219
1229.337, 258.1602
1230.417, 198.9453
1231.496, 152.3086
1232.574, 312.0898
1233.653, 377.8730
1234.732, 85.65430
1235.810, 155.4355
1236.888, 107.5391
1237.966, 158.3203
1239.044, 69.09961
1240.122, 126.8770
1241.199, 156.6582
1242.277, 305.4414
1243.354, 236.8223
1244.431, 323.0469
1245.508, 168.4785
1246.585, 91.28125
1247.661, 105.0840
1248.738, 191.8848
1249.814, 46.68555
1250.890, 363.4863
1251.966, 203.2871
1253.042, 52.08984
1254.117, 179.8906
1255.193, 4.691406
1256.268, 228.4844
1257.343, 17.28125
1258.418, 33.07031
1259.493, 220.8594
1260.567, 84.34766
1261.642, 81.38867
1262.716, 151.1289
1263.790, 107.8672
1264.864, 213.6055
1265.938, 77.68750
1267.011, 154.0254
1268.085, 215.7383
1269.158, 138.4512
1270.231, 322.1680
1271.304, 75.88281
1272.377, 169.5996
1273.450, 265.3184
1274.522, 155.0371
1275.594, 217.7598
1276.666, 233.4805
1277.738, 236.2129
1278.810, 227.7324
1279.882, 220.4375
1280.953, 175.4121
1282.025, 129.0449
1283.096, 126.7812
1284.167, 37.47852
1285.238, 236.1426
1286.308, 172.8574
1287.379, 56.57422
