##NAMES=Whewellite
##RRUFFID=R050240
##IDEAL CHEMISTRY=Ca(C_2_)^6+^O_4_&#183;H_2_O
##LOCALITY=Huron River, Milan, Ohio, USA
##OWNER=RRUFF
##SOURCE=Marcus Origlieri
##DESCRIPTION=White fragment
##STATUS=The identification of this mineral has been confirmed by X-ray diffraction and chemical analysis
##URL=rruff.info/R050240
##MEASURED CHEMISTRY=Ca_1.00_C_2_O_4_Â·H_2_O
##PIN_ID=L01615
##ORIENTATION=Laser parallel to -a* (-1 0 0). Fiducial mark perpendicular to laser is parallel to b [0 1 0]
100.8830, 0.0000000E+00
102.1160, 235.1523
103.3490, 15.45020
104.5820, 17.01465
105.8150, 247.6567
107.0470, 161.8730
108.2800, 567.6655
109.5120, 295.0576
110.7440, 310.0410
111.9760, 427.9429
113.2080, 515.4658
114.4400, 972.5840
115.6710, 1183.498
116.9030, 1477.607
118.1340, 1960.439
119.3650, 2369.584
120.5960, 3035.668
121.8270, 3785.355
123.0580, 4592.348
124.2880, 5366.389
125.5190, 6236.261
126.7490, 7277.769
127.9790, 8509.761
129.2090, 9680.142
130.4390, 10702.88
131.6680, 11468.97
132.8980, 12202.35
134.1270, 12303.95
135.3560, 12533.67
136.5850, 12198.38
137.8140, 11801.97
139.0430, 11241.31
140.2710, 10665.32
141.5000, 9791.909
142.7280, 9067.024
143.9560, 7908.610
145.1840, 7063.624
146.4120, 6328.027
147.6390, 5204.787
148.8670, 4433.875
150.0940, 3653.262
151.3210, 2939.925
152.5490, 2355.842
153.7750, 1836.723
155.0020, 1368.670
156.2290, 1073.783
157.4550, 800.7368
158.6810, 615.4106
159.9080, 455.0044
161.1340, 281.4106
162.3590, 165.4741
163.5850, 92.09033
164.8110, 13.38135
166.0360, 39.94092
167.2610, 126.7402
168.4860, 187.5293
169.7110, 205.3174
170.9360, 370.9751
172.1610, 479.4668
173.3850, 744.7852
174.6100, 859.8848
175.8340, 1195.679
177.0580, 1517.247
178.2820, 1899.647
179.5050, 2246.908
180.7290, 2532.047
181.9520, 3017.094
183.1760, 3452.063
184.3990, 4028.963
185.6220, 4686.808
186.8450, 5447.600
188.0670, 6192.344
189.2900, 6804.048
190.5120, 7555.716
191.7340, 8439.344
192.9560, 8808.938
194.1780, 9485.496
195.4000, 10219.03
196.6220, 11296.52
197.8430, 12400.99
199.0640, 13864.43
200.2860, 15141.84
201.5070, 16784.21
202.7270, 18148.56
203.9480, 19457.88
205.1690, 20265.79
206.3890, 20559.78
207.6090, 19633.09
208.8290, 18941.25
210.0490, 17354.29
211.2690, 15973.42
212.4890, 14589.26
213.7080, 13050.94
214.9280, 11974.84
216.1470, 11114.60
217.3660, 10545.48
218.5850, 9998.277
219.8030, 9611.293
221.0220, 9240.025
222.2400, 8464.445
223.4590, 7488.850
224.6770, 6322.579
225.8950, 5281.682
227.1120, 4292.804
228.3300, 3451.584
229.5480, 2936.007
230.7650, 2603.033
231.9820, 2372.489
233.1990, 2089.149
234.4160, 2054.989
235.6330, 2133.413
236.8490, 2086.736
238.0660, 2169.467
239.2820, 2267.204
240.4980, 2164.296
241.7140, 2446.746
242.9300, 2605.441
244.1460, 2605.114
245.3610, 2920.068
246.5770, 2971.925
247.7920, 2934.769
249.0070, 2827.018
250.2220, 2753.819
251.4370, 2457.264
252.6510, 2163.575
253.8660, 2019.755
255.0800, 1725.467
256.2940, 1622.913
257.5080, 1495.804
258.7220, 1443.541
259.9360, 1110.855
261.1490, 1009.674
262.3630, 838.2310
263.5760, 899.3330
264.7890, 922.3135
266.0020, 886.3413
267.2150, 827.4282
268.4270, 735.8340
269.6400, 724.3198
270.8520, 708.7183
272.0640, 561.9619
273.2760, 621.2666
274.4880, 528.9365
275.7000, 440.5576
276.9120, 441.2954
278.1230, 560.7998
279.3340, 441.3066
280.5450, 489.8345
281.7560, 290.3779
282.9670, 443.9316
284.1780, 381.4912
285.3880, 330.0532
286.5980, 500.6133
287.8090, 377.1694
289.0190, 347.7188
290.2290, 414.2578
291.4380, 394.7847
292.6480, 404.2979
293.8570, 393.7944
295.0670, 468.2739
296.2760, 496.7334
297.4850, 537.1709
298.6930, 525.5859
299.9020, 475.4966
301.1110, 451.6128
302.3190, 385.0391
303.5270, 324.9736
304.7350, 226.2363
305.9430, 132.4570
307.1510, 18.63232
308.3580, 1.553223
309.5660, 28.52197
310.7730, 3.163086
311.9800, 33.21484
313.1870, 32.66455
314.3940, 26.51514
315.6010, 16.23730
316.8070, 2.678223
318.0130, 60.43994
319.2200, 47.88818
320.4260, 10.40967
321.6310, 48.99561
322.8370, 109.6553
324.0430, 75.40381
325.2480, 127.2329
326.4540, 3.156738
327.6590, 38.14209
328.8640, 137.1997
330.0680, 48.35400
331.2730, 91.58447
332.4780, 80.90137
333.6820, 50.30273
334.8860, 170.7812
336.0900, 89.36865
337.2940, 30.04443
338.4980, 101.7935
339.7010, 116.6348
340.9050, 91.57324
342.1080, 16.60352
343.3110, 33.70459
344.5140, 58.88281
345.7170, 112.1445
346.9200, 50.50488
348.1220, 18.94775
349.3240, 66.46484
350.5270, 129.0742
351.7290, 37.80420
352.9310, 68.36816
354.1320, 122.5337
355.3340, 9.425781
356.5350, 39.71973
357.7370, 53.01904
358.9380, 16.50684
360.1390, 0.9301760
361.3400, 43.80322
362.5400, 32.29883
363.7410, 33.23730
364.9410, 80.04688
366.1410, 39.70020
367.3410, 20.22705
368.5410, 101.6274
369.7410, 4.890625
370.9400, 62.02393
372.1400, 157.0142
373.3390, 71.89551
374.5380, 143.6885
375.7370, 76.38184
376.9360, 201.9697
378.1350, 153.4873
379.3330, 169.9419
380.5310, 134.3320
381.7300, 149.1543
382.9280, 287.9067
384.1260, 187.1172
385.3230, 212.2827
386.5210, 240.4014
387.7180, 140.4790
388.9160, 264.5107
390.1130, 309.5005
391.3100, 294.4521
392.5060, 202.3823
393.7030, 284.2871
394.9000, 139.1689
396.0960, 236.0122
397.2920, 172.8203
398.4880, 159.5869
399.6840, 266.3086
400.8800, 233.9888
402.0750, 337.6265
403.2710, 255.2231
404.4660, 196.7734
405.6610, 293.2759
406.8560, 206.7324
408.0510, 268.1372
409.2450, 288.4941
410.4400, 302.8018
411.6340, 252.0605
412.8280, 255.2676
414.0220, 296.4253
415.2160, 354.5586
416.4100, 357.6440
417.6030, 279.6792
418.7970, 303.6646
419.9900, 286.5977
421.1830, 351.4849
422.3760, 391.3203
423.5690, 464.1045
424.7610, 484.5518
425.9540, 510.0220
427.1460, 484.1641
428.3380, 530.7490
429.5300, 438.2817
430.7220, 436.7622
431.9140, 474.1899
433.1050, 512.5664
434.2970, 591.8994
435.4880, 568.4121
436.6790, 488.4058
437.8700, 523.5806
439.0610, 550.7031
440.2510, 503.7734
441.4420, 535.4048
442.6320, 506.7563
443.8220, 573.6689
445.0120, 573.5352
446.2020, 665.3491
447.3910, 684.1108
448.5810, 719.8252
449.7700, 727.4878
450.9600, 744.9873
452.1490, 834.2153
453.3370, 807.2036
454.5260, 897.2471
455.7150, 919.5806
456.9030, 882.8135
458.0910, 1009.230
459.2800, 1072.266
460.4670, 1140.811
461.6550, 1172.563
462.8430, 1283.922
464.0300, 1395.453
465.2180, 1316.389
466.4050, 1312.341
467.5920, 1603.279
468.7790, 1450.817
469.9650, 1761.974
471.1520, 1935.778
472.3380, 2062.198
473.5250, 2257.032
474.7110, 2374.987
475.8970, 2546.453
477.0820, 2871.681
478.2680, 3306.189
479.4540, 3701.654
480.6390, 4060.690
481.8240, 4735.074
483.0090, 5441.377
484.1940, 6409.107
485.3780, 7506.398
486.5630, 8868.476
487.7470, 10428.83
488.9320, 12663.71
490.1160, 15509.32
491.3000, 19322.77
492.4830, 23445.11
493.6670, 28081.39
494.8500, 33120.27
496.0340, 38415.14
497.2170, 43590.46
498.4000, 48288.92
499.5820, 51844.20
500.7650, 52749.54
501.9480, 51075.05
503.1300, 47194.55
504.3120, 41300.14
505.4940, 34664.12
506.6760, 28470.04
507.8580, 22619.33
509.0390, 18235.46
510.2210, 14489.51
511.4020, 11910.99
512.5830, 9480.037
513.7640, 7911.534
514.9450, 6635.628
516.1250, 5746.059
517.3060, 4950.813
518.4860, 4380.458
519.6660, 3937.531
520.8460, 3592.261
522.0260, 3189.098
523.2060, 2861.708
524.3850, 2575.159
525.5650, 2251.441
526.7440, 2039.274
527.9230, 1778.267
529.1020, 1567.367
530.2810, 1310.700
531.4590, 1238.894
532.6380, 1064.292
533.8160, 970.5020
534.9940, 940.2109
536.1720, 792.2334
537.3500, 724.3071
538.5270, 799.0713
539.7050, 686.4263
540.8820, 463.6450
542.0590, 572.4609
543.2360, 519.1460
544.4130, 544.3765
545.5900, 474.1016
546.7660, 516.6543
547.9430, 367.5010
549.1190, 398.9385
550.2950, 398.7686
551.4710, 309.5073
552.6470, 413.2925
553.8220, 391.9438
554.9980, 427.8643
556.1730, 264.8374
557.3480, 307.0103
558.5230, 273.8848
559.6980, 268.0273
560.8730, 401.8203
562.0470, 319.9048
563.2220, 356.7080
564.3960, 329.4927
565.5700, 452.2183
566.7440, 485.2417
567.9170, 410.2393
569.0910, 439.0054
570.2640, 427.9082
571.4380, 429.6611
572.6110, 469.3296
573.7840, 484.2275
574.9570, 587.7324
576.1290, 577.3535
577.3020, 607.9844
578.4740, 837.7461
579.6460, 793.3213
580.8180, 919.0513
581.9900, 911.5977
583.1620, 992.3179
584.3330, 1234.836
585.5040, 1271.590
586.6760, 1463.080
587.8470, 1531.634
589.0180, 1678.958
590.1880, 1686.627
591.3590, 1825.169
592.5290, 1868.706
593.7000, 1992.004
594.8700, 1821.198
596.0400, 1778.599
597.2090, 1672.574
598.3790, 1546.436
599.5490, 1447.992
600.7180, 1294.415
601.8870, 1168.629
603.0560, 1032.008
604.2250, 828.3926
605.3940, 678.8892
606.5620, 578.2793
607.7300, 575.9932
608.8990, 441.6440
610.0670, 502.1880
611.2350, 414.6655
612.4020, 391.2817
613.5700, 281.9375
614.7370, 214.5376
615.9050, 292.0771
617.0720, 214.7700
618.2390, 232.3467
619.4060, 178.9692
620.5720, 232.7793
621.7390, 155.4873
622.9050, 107.1787
624.0710, 107.9048
625.2370, 180.6606
626.4030, 108.4258
627.5690, 189.2061
628.7340, 178.0088
629.9000, 108.8486
631.0650, 231.7090
632.2300, 95.58350
633.3950, 179.4844
634.5600, 129.4282
635.7240, 81.39160
636.8890, 149.3535
638.0530, 184.3579
639.2170, 149.3721
640.3810, 65.40869
641.5450, 155.4712
642.7080, 193.5425
643.8720, 95.62646
645.0350, 176.7363
646.1980, 166.8521
647.3610, 95.97412
648.5240, 37.09717
649.6870, 99.22461
650.8490, 162.6245
652.0120, 76.79102
653.1740, 184.9424
654.3360, 29.09717
655.4980, 51.75195
656.6600, 152.3765
657.8210, 68.50146
658.9830, 92.92285
660.1440, 77.04688
661.3050, 176.6665
662.4660, 123.8711
663.6270, 127.9878
664.7870, 225.1030
665.9480, 163.2129
667.1080, 42.32031
668.2680, 39.34619
669.4280, 57.44385
670.5880, 26.54053
671.7480, 15.63135
672.9070, 43.18604
674.0670, 70.39307
675.2260, 92.46924
676.3850, 89.54199
677.5440, 118.6138
678.7030, 122.5879
679.8610, 98.37598
681.0200, 126.4419
682.1780, 70.93555
683.3360, 34.99512
684.4940, 169.8359
685.6520, 34.88574
686.8090, 65.93262
687.9670, 66.97363
689.1240, 32.01367
690.2810, 76.59961
691.4380, 76.28516
692.5950, 46.31250
693.7520, 0.6640630
694.9080, 94.64844
696.0650, 3.308594
697.2210, 118.2588
698.3770, 3.796875
699.5330, 28.13867
700.6880, 18.93066
701.8440, 61.98242
702.9990, 71.89160
704.1550, 9.204102
705.3100, 2.688477
706.4650, 3.571289
707.6190, 54.44824
708.7740, 17.32129
709.9290, 49.18945
711.0830, 96.05273
712.2370, 5.912109
713.3910, 23.23340
714.5450, 141.5996
715.6980, 57.43262
716.8520, 22.26172
718.0050, 71.08594
719.1580, 21.90723
720.3110, 93.72363
721.4640, 16.53711
722.6170, 127.3467
723.7700, 12.84766
724.9220, 98.94336
726.0740, 41.73242
727.2260, 6.482422
728.3780, 7.290039
729.5300, 34.05957
730.6810, 31.82422
731.8330, 54.41406
732.9840, 68.68848
734.1350, 60.99219
735.2860, 65.32910
736.4370, 63.69238
737.5880, 3.903320
738.7380, 39.50781
739.8880, 5.947266
741.0390, 78.60254
742.1890, 69.15039
743.3380, 10.30469
744.4880, 65.22754
745.6380, 29.24316
746.7870, 91.73535
747.9360, 31.71582
749.0850, 40.83496
750.2340, 14.58398
751.3830, 13.00000
752.5310, 28.41113
753.6800, 75.81836
754.8280, 16.22461
755.9760, 78.62500
757.1240, 86.02344
758.2720, 7.418945
759.4190, 33.80957
760.5670, 113.1973
761.7140, 46.58008
762.8610, 198.9609
764.0080, 55.33691
765.1550, 98.70996
766.3020, 95.08008
767.4480, 150.4463
768.5950, 230.8086
769.7410, 200.1660
770.8870, 234.5205
772.0330, 222.8701
773.1780, 235.2158
774.3240, 256.6934
775.4690, 309.8965
776.6140, 340.2305
777.7590, 335.5596
778.9040, 471.8789
780.0490, 297.1982
781.1940, 377.5146
782.3380, 204.8262
783.4820, 154.1318
784.6260, 196.4326
785.7700, 86.72949
786.9140, 57.90918
788.0580, 2.197266
789.2010, 11.74805
790.3450, 136.7393
791.4880, 30.99902
792.6310, 100.1104
793.7730, 194.5752
794.9160, 62.82031
796.0590, 33.93945
797.2010, 52.27539
798.3430, 21.51367
799.4850, 4.678711
800.6270, 68.86621
801.7690, 74.04883
802.9100, 60.22754
804.0520, 59.40039
805.1930, 12.51367
806.3340, 116.5439
807.4750, 33.67285
808.6160, 86.67188
809.7560, 40.37793
810.8970, 82.65137
812.0370, 57.76660
813.1770, 42.87793
814.3170, 57.98438
815.4570, 146.0869
816.5960, 25.81445
817.7360, 25.26660
818.8750, 118.6572
820.0140, 112.3516
821.1530, 11.78906
822.2920, 95.20410
823.4310, 55.04785
824.5690, 84.02051
825.7070, 75.99414
826.8460, 8.180664
827.9840, 44.20996
829.1220, 38.73633
830.2590, 82.57520
831.3970, 26.13281
832.5340, 84.78223
833.6710, 102.4365
834.8080, 58.36816
835.9450, 86.71191
837.0820, 15.50977
838.2190, 150.9189
839.3550, 92.85645
840.4910, 297.8174
841.6270, 158.8184
842.7630, 211.5039
843.8990, 332.1943
845.0350, 208.0996
846.1700, 309.8477
847.3060, 431.7305
848.4410, 448.6797
849.5760, 469.3809
850.7100, 425.4580
851.8450, 653.8428
852.9800, 721.7598
854.1140, 834.5312
855.2480, 1281.473
856.3820, 1657.243
857.5160, 2083.182
858.6500, 2882.931
859.7830, 3822.869
860.9170, 4802.556
862.0500, 5517.492
863.1830, 5682.350
864.3160, 5609.424
865.4480, 5227.141
866.5810, 4537.971
867.7130, 3594.794
868.8460, 2897.852
869.9780, 2356.012
871.1100, 1942.956
872.2410, 1692.324
873.3730, 1624.810
874.5050, 1707.504
875.6360, 1889.510
876.7670, 1935.625
877.8980, 2238.587
879.0290, 2500.551
880.1590, 2942.401
881.2900, 3147.370
882.4200, 3532.307
883.5500, 4149.066
884.6800, 4830.968
885.8100, 5996.946
886.9400, 7861.795
888.0690, 10902.64
889.1990, 14941.56
890.3280, 18934.56
891.4570, 23525.47
892.5860, 30216.50
893.7140, 36978.54
894.8430, 39677.43
895.9710, 34440.43
897.1000, 24800.49
898.2280, 16050.54
899.3560, 9909.604
900.4830, 5878.668
901.6110, 3686.733
902.7380, 2523.805
903.8660, 1950.878
904.9930, 1469.954
906.1200, 1375.040
907.2460, 1165.130
908.3730, 1213.240
909.5000, 1096.353
910.6260, 1071.470
911.7520, 1007.591
912.8780, 967.7148
914.0040, 1138.843
915.1290, 1126.975
916.2550, 1260.111
917.3800, 1264.250
918.5050, 1290.394
919.6300, 1259.542
920.7550, 1262.693
921.8800, 1348.849
923.0040, 1295.009
924.1290, 1406.911
925.2530, 1432.050
926.3770, 1455.223
927.5010, 1560.398
928.6250, 1614.581
929.7480, 1599.780
930.8720, 1563.990
931.9950, 1625.910
933.1180, 1655.129
934.2410, 1610.904
935.3640, 1626.051
936.4860, 1785.288
937.6090, 1776.530
938.7310, 1810.777
939.8530, 1748.312
940.9750, 1791.646
942.0970, 1789.908
943.2180, 1788.222
944.3400, 1726.496
945.4610, 1638.180
946.5820, 1523.468
947.7030, 1450.760
948.8240, 1332.059
949.9450, 1163.361
951.0650, 1178.670
952.1860, 939.3574
953.3060, 897.6777
954.4260, 864.5723
955.5460, 785.9043
956.6650, 696.4688
957.7850, 685.8281
958.9040, 670.1953
960.0230, 415.5693
961.1420, 382.9512
962.2610, 266.7900
963.3800, 332.8135
964.4990, 387.2295
965.6170, 238.6514
966.7350, 267.0830
967.8530, 331.5479
968.9710, 185.1416
970.0890, 249.1582
971.2070, 175.3828
972.3240, 106.8799
973.4410, 180.3945
974.5580, 162.9160
975.6750, 215.4443
976.7920, 177.9834
977.9090, 153.5312
979.0250, 185.0869
980.1410, 58.64941
981.2580, 234.2266
982.3740, 72.81055
983.4890, 31.41016
984.6050, 117.0068
985.7200, 26.38086
986.8360, 138.2344
987.9510, 91.85742
989.0660, 58.48730
990.1810, 175.1221
991.2950, 71.78711
992.4100, 54.47461
993.5240, 261.1836
994.6390, 182.9219
995.7530, 146.6719
996.8660, 5.428711
997.9800, 52.19238
999.0940, 165.9678
1000.207, 122.7490
1001.320, 159.5381
1002.433, 114.0908
1003.546, 191.9092
1004.659, 110.7549
1005.772, 164.6074
1006.884, 160.2822
1007.996, 174.1865
1009.108, 174.0996
1010.220, 225.0322
1011.332, 49.97461
1012.444, 229.9238
1013.555, 167.8799
1014.666, 207.0576
1015.777, 17.96191
1016.888, 192.6377
1017.999, 306.6807
1019.110, 197.1904
1020.220, 303.2588
1021.331, 155.3330
1022.441, 317.4141
1023.551, 232.5000
1024.661, 233.2412
1025.770, 237.3398
1026.880, 193.4492
1027.989, 270.8213
1029.098, 239.9424
1030.207, 339.0684
1031.316, 304.1992
1032.425, 231.3350
1033.533, 425.4766
1034.642, 362.6221
1035.750, 506.7734
1036.858, 343.9287
1037.966, 345.0889
1039.073, 199.6357
1040.181, 173.8369
1041.288, 254.8467
1042.396, 252.0342
1043.503, 252.2266
1044.610, 220.4229
1045.716, 182.6230
1046.823, 204.8281
1047.929, 202.0469
1049.036, 122.2686
1050.142, 96.49512
1051.248, 114.7246
1052.353, 114.9590
1053.459, 80.19727
1054.564, 112.7783
1055.670, 52.68457
1056.775, 123.9336
1057.880, 91.18848
1058.985, 40.45117
1060.089, 34.71777
1061.194, 31.75684
1062.298, 145.2607
1063.402, 91.90625
1064.506, 69.18555
1065.610, 162.4795
1066.713, 3.197266
1067.817, 157.9082
1068.920, 50.21875
1070.023, 13.53125
1071.126, 5.847656
1072.229, 13.29395
1073.332, 11.48535
1074.435, 30.81738
1075.537, 2.581055
1076.639, 34.81348
1077.741, 45.14648
1078.843, 181.4941
1079.945, 269.8438
1081.046, 220.1963
1082.148, 281.5508
1083.249, 473.9072
1084.350, 421.2656
1085.451, 484.6348
1086.551, 397.0059
1087.652, 380.4326
1088.752, 251.2520
1089.853, 325.6641
1090.953, 140.0801
1092.053, 124.6328
1093.152, 34.51270
1094.252, 73.94824
1095.351, 10.61133
1096.451, 66.75781
1097.550, 46.39941
1098.649, 166.6738
1099.748, 38.13965
1100.846, 4.394531
1101.945, 52.92773
1103.043, 119.4834
1104.141, 2.902344
1105.239, 146.1826
1106.337, 72.57031
1107.434, 48.98047
1108.532, 34.40430
1109.629, 46.82715
1110.726, 149.2549
1111.823, 82.74219
1112.920, 164.6387
1114.017, 103.0674
1115.113, 1.494141
1116.210, 139.9199
1117.306, 320.3467
1118.402, 285.3320
1119.498, 440.7568
1120.593, 255.2842
1121.689, 309.7080
1122.784, 328.1631
1123.879, 288.2939
1124.974, 254.9893
1126.069, 176.0996
1127.164, 145.7617
1128.259, 96.77734
1129.353, 25.59180
1130.447, 26.00488
1131.541, 58.41504
1132.635, 51.30273
1133.729, 24.77148
1134.822, 52.61523
1135.916, 45.99902
1137.009, 67.38086
1138.102, 40.23926
1139.195, 99.11133
1140.288, 34.46094
1141.380, 20.80664
1142.473, 65.22266
1143.565, 39.88867
1144.657, 124.2256
1145.749, 3.640625
1146.841, 56.91699
1147.932, 16.96094
1149.024, 121.3438
1150.115, 30.35645
1151.206, 96.91797
1152.297, 79.18848
1153.388, 166.4551
1154.479, 169.7764
1155.569, 80.02441
1156.659, 109.1807
1157.750, 133.9541
1158.839, 8.849609
1159.929, 89.33008
1161.019, 109.5527
1162.108, 114.7246
1163.198, 123.8916
1164.287, 170.0527
1165.376, 74.21094
1166.465, 85.36328
1167.553, 68.51270
1168.642, 164.6553
1169.730, 7.916016
1170.818, 25.20410
1171.906, 46.68066
1172.994, 116.3975
1174.082, 62.46973
1175.170, 63.53711
1176.257, 153.5996
1177.344, 95.65625
1178.431, 183.8662
1179.518, 198.9131
1180.605, 42.95508
1181.691, 126.9912
1182.778, 258.0225
1183.864, 50.04785
1184.950, 107.0684
1186.036, 131.0840
1187.122, 77.09375
1188.207, 146.0977
1189.292, 121.0977
1190.378, 206.0908
1191.463, 217.0791
1192.548, 70.06250
1193.632, 3.959961
1194.717, 113.9990
1195.801, 171.9512
1196.886, 36.89941
1197.970, 5.791992
1199.054, 182.7197
1200.137, 63.64160
1201.221, 156.5586
1202.305, 172.4697
1203.388, 67.08984
1204.471, 43.99023
1205.554, 18.88281
1206.637, 30.72363
1207.719, 59.60156
1208.802, 80.47363
1209.884, 119.3408
1210.966, 85.20020
1212.048, 222.0537
1213.130, 96.90137
1214.212, 198.7432
1215.293, 49.57910
1216.374, 178.4082
1217.456, 44.23047
1218.536, 34.95410
1219.617, 161.8242
1220.698, 151.5977
1221.778, 26.36230
1222.859, 15.12012
1223.939, 114.4668
1225.019, 70.20508
1226.099, 25.34570
1227.178, 121.3535
1228.258, 205.9150
1229.337, 64.59961
1230.417, 137.2783
1231.496, 191.8311
1232.574, 103.9580
1233.653, 142.1816
1234.732, 3.534180
1235.810, 103.1699
1236.888, 122.0361
1237.966, 84.48340
1239.044, 173.0986
1240.122, 142.3281
1241.199, 43.92969
1242.277, 1.474609
1243.354, 112.0996
1244.431, 69.66797
1245.508, 166.2217
1246.585, 179.7764
1247.661, 88.32520
1248.738, 75.86719
1249.814, 34.40527
1250.890, 61.93457
1251.966, 58.54395
1253.042, 37.54102
1254.117, 28.63867
1255.193, 59.24023
1256.268, 58.10938
1257.343, 61.45117
1258.418, 81.78613
1259.493, 117.1152
1260.567, 104.4385
1261.642, 142.0762
1262.716, 152.8242
1263.790, 177.6123
1264.864, 173.9092
1265.938, 162.2012
1267.011, 150.2061
1268.085, 125.2002
1269.158, 56.24316
1270.231, 75.51074
1271.304, 35.77441
1272.377, 16.03027
1273.450, 106.2764
1274.522, 33.51758
1275.594, 1.541992
1276.666, 48.23730
1277.738, 70.35352
1278.810, 222.5303
1279.882, 303.2393
1280.953, 165.4189
1282.025, 235.5938
1283.096, 102.7637
