##NAMES=Whitlockite
##RRUFFID=R070675
##IDEAL CHEMISTRY=Ca_9_Mg(PO_4_)_6_(PO_3_OH)
##LOCALITY=Palermo mine, North Groton, New Hampshire, USA
##OWNER=RRUFF
##SOURCE=Rock Currier
##DESCRIPTION=Colorless blocky modified rhombic crystals
##STATUS=The identification of this mineral is confirmed by single-crystal X-ray diffraction and chemical analysis.
##URL=rruff.info/R070675
##MEASURED CHEMISTRY=(Ca_8.70_Na_0.27_Sr_0.02_Mn_0.01_)_Σ=9_(Mg_0.73_Fe^3+^_0.19_Al_0.08_)_Σ=1_(P_1.00_O_4_)_6_(P_1.00_O_3_((OH)_0.58_F_0.42_)_Σ=1_); OH estimated by charge balance
##PIN_ID=M00295
##ORIENTATION=Laser parallel to c* (0 0 1). Fiducial mark perpendicular to laser is parallel to a [1 0 0]
132.3880, 0.0000000E+00
133.6270, 9.491699
134.8650, 3.785156
136.1040, 9.454834
137.3420, 10.51880
138.5800, 42.20020
139.8180, 44.63037
141.0560, 61.63330
142.2940, 84.48682
143.5310, 95.25244
144.7680, 167.6038
146.0050, 119.2925
147.2420, 195.1475
148.4790, 271.0403
149.7150, 400.8484
150.9510, 471.4580
152.1870, 533.7930
153.4230, 544.6797
154.6590, 623.1250
155.8940, 687.0356
157.1300, 711.3604
158.3650, 852.0811
159.6000, 756.2046
160.8340, 708.7446
162.0690, 780.7031
163.3030, 771.0366
164.5370, 755.6875
165.7710, 840.6060
167.0050, 798.7507
168.2380, 768.0864
169.4720, 821.5852
170.7050, 891.2200
171.9380, 914.9707
173.1700, 955.4573
174.4030, 984.7617
175.6350, 1000.780
176.8680, 945.8682
178.1000, 951.0195
179.3310, 865.2280
180.5630, 786.4966
181.7940, 716.9214
183.0260, 524.5708
184.2570, 525.4463
185.4870, 439.7241
186.7180, 364.3193
187.9480, 402.3025
189.1790, 326.6428
190.4090, 319.2598
191.6390, 260.9839
192.8680, 238.6140
194.0980, 239.1616
195.3270, 232.6013
196.5560, 275.9375
197.7850, 215.1760
199.0140, 280.3213
200.2420, 212.3774
201.4710, 203.3486
202.6990, 165.2388
203.9270, 214.0513
205.1550, 127.7896
206.3820, 194.4521
207.6090, 217.0334
208.8370, 193.5503
210.0640, 229.0166
211.2900, 215.4407
212.5170, 213.8296
213.7440, 269.1877
214.9700, 297.5198
216.1960, 314.1267
217.4220, 346.6343
218.6470, 354.3877
219.8730, 369.6411
221.0980, 386.8792
222.3230, 401.0850
223.5480, 466.3135
224.7730, 437.5112
225.9970, 479.6965
227.2220, 503.8696
228.4460, 433.3818
229.6700, 470.2090
230.8940, 476.9985
232.1170, 480.0168
233.3400, 455.0317
234.5640, 471.3618
235.7870, 466.0188
237.0100, 513.4624
238.2320, 494.6724
239.4550, 547.4438
240.6770, 529.9038
241.8990, 506.3691
243.1210, 591.5183
244.3420, 623.7026
245.5640, 594.3350
246.7850, 611.1904
248.0060, 641.7461
249.2270, 676.1978
250.4480, 694.2124
251.6690, 687.6123
252.8890, 709.6096
254.1090, 745.7961
255.3290, 715.6851
256.5490, 729.4326
257.7680, 708.1785
258.9880, 670.9211
260.2070, 737.6587
261.4260, 752.3901
262.6450, 743.1130
263.8640, 725.8264
265.0820, 747.3989
266.3000, 710.2207
267.5180, 770.9016
268.7360, 746.5718
269.9540, 743.2317
271.1720, 723.8811
272.3890, 783.5210
273.6060, 712.1511
274.8230, 789.7712
276.0400, 802.3823
277.2560, 825.9839
278.4730, 801.5767
279.6890, 794.7981
280.9050, 846.1116
282.1210, 887.5530
283.3370, 864.2820
284.5520, 871.1465
285.7670, 900.1235
286.9820, 790.1948
288.1970, 781.3472
289.4120, 715.5688
290.6270, 702.8511
291.8410, 670.1860
293.0550, 612.9561
294.2690, 529.9890
295.4830, 501.4465
296.6970, 447.9353
297.9100, 378.4517
299.1230, 365.7268
300.3360, 334.5530
301.5490, 327.1328
302.7620, 295.7285
303.9740, 286.3384
305.1860, 222.9604
306.3990, 193.5925
307.6110, 195.7439
308.8220, 201.8796
310.0340, 208.5303
311.2450, 183.1838
312.4560, 192.8391
313.6670, 117.4946
314.8780, 98.14990
316.0890, 94.80298
317.2990, 23.45459
318.5090, 80.10327
319.7200, 42.74878
320.9290, 54.39062
322.1390, 56.02808
323.3490, 0.6611330
324.5580, 11.71265
325.7670, 12.90381
326.9760, 21.48584
328.1850, 5.889893
329.3930, 15.30518
330.6020, 13.73584
331.8100, 7.183105
333.0180, 0.8911130
334.2260, 23.12695
335.4340, 20.36816
336.6410, 28.15332
337.8480, 43.70239
339.0550, 23.28296
340.2620, 53.88965
341.4690, 61.52979
342.6760, 2.205566
343.8820, 20.90063
345.0880, 26.61987
346.2940, 22.36450
347.5000, 57.13281
348.7060, 20.93384
349.9110, 47.75879
351.1160, 66.61328
352.3210, 59.50220
353.5260, 33.42407
354.7310, 34.37109
355.9360, 27.34375
357.1400, 59.34009
358.3440, 49.36816
359.5480, 10.57446
360.7520, 58.49658
361.9550, 67.59912
363.1590, 3.735840
364.3620, 8.889160
365.5650, 57.93945
366.7680, 39.75708
367.9710, 54.02637
369.1730, 16.47827
370.3760, 53.26440
371.5780, 15.04004
372.7800, 8.803223
373.9810, 53.55005
375.1830, 50.88843
376.3840, 133.0322
377.5860, 100.7039
378.7870, 148.3579
379.9880, 164.9890
381.1880, 157.5759
382.3890, 224.1179
383.5890, 227.6221
384.7890, 383.0911
385.9890, 347.5146
387.1890, 499.8958
388.3880, 481.2146
389.5880, 599.4917
390.7870, 649.7205
391.9860, 788.9180
393.1850, 874.0552
394.3840, 1039.171
395.5820, 1110.283
396.7800, 1179.388
397.9790, 1295.485
399.1770, 1412.762
400.3740, 1585.660
401.5720, 1677.741
402.7690, 1831.820
403.9670, 1932.894
405.1640, 2075.967
406.3600, 2181.035
407.5570, 2070.107
408.7540, 2065.179
409.9500, 2084.248
411.1460, 2026.315
412.3420, 1903.377
413.5380, 1782.437
414.7330, 1708.492
415.9290, 1659.546
417.1240, 1594.597
418.3190, 1558.646
419.5140, 1519.706
420.7090, 1472.760
421.9030, 1614.814
423.0970, 1560.865
424.2920, 1602.918
425.4860, 1621.971
426.6790, 1661.023
427.8730, 1726.074
429.0660, 1771.119
430.2600, 1837.164
431.4530, 1910.203
432.6460, 2065.234
433.8380, 2175.259
435.0310, 2192.276
436.2230, 2255.284
437.4150, 2247.285
438.6070, 2290.884
439.7990, 2363.269
440.9910, 2347.247
442.1820, 2382.216
443.3730, 2402.176
444.5640, 2458.125
445.7550, 2491.064
446.9460, 2448.993
448.1370, 2408.913
449.3270, 2300.824
450.5170, 2262.726
451.7070, 2225.407
452.8970, 2186.516
454.0870, 2183.398
455.2760, 2125.269
456.4650, 2119.133
457.6550, 2065.694
458.8430, 1923.826
460.0320, 1911.670
461.2210, 1850.502
462.4090, 1665.330
463.5970, 1518.149
464.7850, 1540.965
465.9730, 1440.778
467.1610, 1391.364
468.3480, 1316.134
469.5360, 1225.850
470.7230, 1205.928
471.9100, 1222.944
473.0970, 1170.341
474.2830, 1144.794
475.4700, 1076.620
476.6560, 1108.923
477.8420, 1150.678
479.0280, 1086.318
480.2140, 1084.700
481.3990, 1098.075
482.5850, 1058.699
483.7700, 1011.369
484.9550, 1037.526
486.1400, 981.3779
487.3240, 912.0215
488.5090, 818.2717
489.6930, 743.7583
490.8770, 702.0295
492.0610, 652.5403
493.2450, 547.3525
494.4290, 489.9688
495.6120, 427.0071
496.7950, 320.6526
497.9780, 282.2227
499.1610, 230.2107
500.3440, 172.1829
501.5260, 176.7656
502.7090, 138.9548
503.8910, 192.9326
505.0730, 162.3335
506.2550, 65.72827
507.4360, 148.8523
508.6180, 123.4851
509.7990, 77.11255
510.9800, 7.960449
512.1610, 80.71582
513.3420, 106.3672
514.5230, 60.73218
515.7030, 76.86328
516.8830, 23.41333
518.0630, 58.97290
519.2430, 73.99414
520.4230, 93.27905
521.6020, 118.8760
522.7820, 130.1406
523.9610, 157.3098
525.1400, 177.0400
526.3190, 185.8467
527.4970, 186.9094
528.6760, 230.3879
529.8540, 257.5283
531.0320, 302.0952
532.2100, 317.6614
533.3880, 380.0691
534.5660, 419.0305
535.7430, 502.7793
536.9200, 604.6230
538.0970, 676.5134
539.2740, 730.3164
540.4510, 855.0811
541.6270, 990.9170
542.8040, 1086.658
543.9800, 1261.771
545.1560, 1509.452
546.3320, 1649.542
547.5080, 1805.409
548.6830, 1866.420
549.8580, 1901.388
551.0340, 2045.058
552.2090, 1947.250
553.3830, 1915.742
554.5580, 1953.776
555.7320, 1858.333
556.9070, 1996.570
558.0810, 1894.409
559.2550, 1897.378
560.4280, 1832.370
561.6020, 1772.889
562.7750, 1773.870
563.9490, 1625.099
565.1220, 1503.247
566.2950, 1287.317
567.4670, 1156.384
568.6400, 1007.557
569.8120, 895.1340
570.9840, 780.5205
572.1560, 680.6521
573.3280, 611.5930
574.5000, 552.4377
575.6710, 524.4131
576.8430, 493.6165
578.0140, 498.3589
579.1850, 507.4968
580.3560, 549.7092
581.5260, 568.0288
582.6970, 575.2969
583.8670, 665.5381
585.0370, 790.7571
586.2070, 898.9492
587.3770, 1059.194
588.5460, 1189.453
589.7160, 1314.766
590.8850, 1426.430
592.0540, 1543.349
593.2230, 1594.211
594.3920, 1642.502
595.5600, 1659.489
596.7290, 1531.482
597.8970, 1652.468
599.0650, 1731.410
600.2330, 1835.604
601.4000, 1992.515
602.5680, 2050.072
603.7350, 2134.667
604.9020, 2214.475
606.0690, 2224.285
607.2360, 2041.479
608.4030, 1893.136
609.5690, 1840.068
610.7360, 1619.345
611.9020, 1555.340
613.0680, 1465.155
614.2340, 1406.934
615.3990, 1406.258
616.5650, 1373.629
617.7300, 1377.354
618.8950, 1424.381
620.0600, 1448.012
621.2250, 1490.223
622.3890, 1461.281
623.5540, 1550.778
624.7180, 1495.673
625.8820, 1434.737
627.0460, 1428.060
628.2100, 1285.767
629.3730, 1262.188
630.5370, 1281.865
631.7000, 1180.541
632.8630, 1149.153
634.0260, 1084.004
635.1890, 878.8357
636.3510, 659.5452
637.5140, 593.9277
638.6760, 403.5425
639.8380, 390.7229
641.0000, 328.8945
642.1610, 250.8174
643.3230, 212.4021
644.4840, 186.2539
645.6450, 137.1045
646.8060, 105.2151
647.9670, 128.7888
649.1280, 102.4351
650.2880, 61.96631
651.4490, 34.35620
652.6090, 99.84033
653.7690, 71.30273
654.9290, 81.90991
656.0880, 152.8154
657.2480, 119.2446
658.4070, 54.53516
659.5660, 32.88818
660.7250, 62.21338
661.8840, 61.51392
663.0430, 37.78931
664.2010, 11.03760
665.3600, 73.25366
666.5180, 43.46924
667.6760, 70.94995
668.8330, 69.11279
669.9910, 137.0320
671.1480, 122.1255
672.3060, 80.19629
673.4630, 102.6667
674.6200, 73.69263
675.7770, 61.52710
676.9330, 54.50000
678.0900, 63.44678
679.2460, 68.80493
680.4020, 58.70166
681.5580, 68.72437
682.7140, 38.63501
683.8690, 77.45190
685.0250, 38.24438
686.1800, 59.01904
687.3350, 9.755859
688.4900, 10.45581
689.6450, 76.11914
690.7990, 35.47095
691.9540, 112.0793
693.1080, 41.66357
694.2620, 94.34521
695.4160, 32.87622
696.5700, 53.37646
697.7230, 43.84961
698.8770, 23.70581
700.0300, 85.68384
701.1830, 40.04907
702.3360, 28.38574
703.4890, 30.69092
704.6410, 32.98730
705.7930, 32.17896
706.9460, 27.22803
708.0980, 58.63110
709.2500, 14.78906
710.4010, 65.91309
711.5530, 68.16113
712.7040, 71.33130
713.8560, 67.18530
715.0070, 126.2109
716.1580, 38.21411
717.3080, 22.94824
718.4590, 101.2607
719.6090, 71.18140
720.7590, 79.07812
721.9090, 80.95166
723.0590, 81.80127
724.2090, 83.62817
725.3590, 66.43140
726.5080, 61.21143
727.6570, 45.96753
728.8060, 34.69824
729.9550, 0.4018550
731.1040, 22.06665
732.2530, 45.70166
733.4010, 106.3120
734.5490, 15.90137
735.6970, 85.45898
736.8450, 137.9951
737.9930, 23.49023
739.1400, 88.97461
740.2880, 1.418213
741.4350, 20.82520
742.5820, 3.795654
743.7290, 4.454834
744.8760, 27.15308
746.0220, 15.09888
747.1690, 48.32178
748.3150, 1.523193
749.4610, 35.69043
750.6070, 24.16504
751.7530, 66.93262
752.8980, 18.01001
754.0440, 18.93848
755.1890, 66.06934
756.3340, 24.05737
757.4790, 56.97778
758.6240, 3.074707
759.7680, 1.205811
760.9130, 7.630615
762.0570, 5.439453
763.2010, 0.7800290
764.3450, 26.96924
765.4890, 38.69849
766.6320, 5.408203
767.7760, 38.09131
768.9190, 36.75562
770.0620, 47.59888
771.2050, 52.00659
772.3480, 4.469238
773.4900, 19.03833
774.6330, 30.47290
775.7750, 3.026367
776.9170, 60.60718
778.0590, 29.24585
779.2010, 41.92407
780.3420, 5.649170
781.4840, 58.40112
782.6250, 27.20703
783.7660, 96.05029
784.9070, 25.98608
786.0480, 42.94629
787.1890, 12.00781
788.3290, 23.77148
789.4690, 8.253174
790.6100, 15.67603
791.7490, 48.08252
792.8890, 5.327393
794.0290, 48.42798
795.1680, 30.59082
796.3080, 7.868164
797.4470, 43.03931
798.5860, 38.80469
799.7250, 56.40405
800.8630, 15.23730
802.0020, 44.87134
803.1400, 2.406250
804.2780, 27.33740
805.4160, 2.145996
806.5540, 18.39673
807.6920, 48.28052
808.8300, 4.937012
809.9670, 32.59058
811.1040, 2.947021
812.2410, 21.64600
813.3780, 21.64282
814.5150, 6.865479
815.6510, 35.84277
816.7880, 30.46216
817.9240, 5.322998
819.0600, 50.03345
820.1960, 111.8560
821.3320, 26.16064
822.4670, 101.9626
823.6030, 36.09692
824.7380, 51.99463
825.8730, 48.91943
827.0080, 24.87573
828.1430, 17.78516
829.2770, 35.12964
830.4120, 58.08374
831.5460, 59.15210
832.6800, 42.69165
833.8140, 29.61353
834.9480, 52.38892
836.0810, 11.12671
837.2150, 38.31934
838.3480, 12.03613
839.4810, 21.48877
840.6140, 6.3479999E-03
841.7470, 11.58740
842.8800, 66.15601
844.0120, 10.60449
845.1450, 55.63330
846.2770, 19.68286
847.4090, 10.21655
848.5410, 7.094482
849.6720, 35.94751
850.8040, 9.162354
851.9350, 21.47510
853.0660, 35.76489
854.1970, 53.41748
855.3280, 63.83643
856.4590, 11.96948
857.5900, 63.14209
858.7200, 71.32837
859.8500, 41.52515
860.9800, 118.7363
862.1100, 63.88281
863.2400, 117.0044
864.3700, 4.980713
865.4990, 84.76758
866.6280, 91.17993
867.7570, 93.65308
868.8860, 85.68677
870.0150, 143.0142
871.1440, 90.32495
872.2720, 48.63257
873.4010, 94.97510
874.5290, 43.05615
875.6570, 59.41016
876.7850, 58.11011
877.9120, 144.7622
879.0400, 60.19336
880.1670, 118.6138
881.2940, 81.64111
882.4210, 120.1995
883.5480, 119.4812
884.6750, 189.4102
885.8020, 143.6221
886.9280, 262.0100
888.0540, 270.4341
889.1800, 230.3140
890.3060, 272.1440
891.4320, 427.6172
892.5580, 405.7900
893.6830, 477.3540
894.8080, 506.3447
895.9330, 599.4961
897.0580, 555.2134
898.1830, 657.8589
899.3080, 601.1777
900.4320, 728.6528
901.5570, 752.2058
902.6810, 794.0654
903.8050, 824.6851
904.9290, 855.3391
906.0520, 873.0796
907.1760, 1003.614
908.2990, 990.1960
909.4230, 1071.927
910.5460, 1268.014
911.6690, 1352.902
912.7910, 1514.252
913.9140, 1737.634
915.0360, 2015.296
916.1590, 2324.297
917.2810, 2533.056
918.4030, 2935.837
919.5240, 3324.369
920.6460, 3627.449
921.7680, 3963.457
922.8890, 4023.586
924.0100, 4235.745
925.1310, 4175.929
926.2520, 3848.140
927.3730, 3473.220
928.4930, 2960.007
929.6130, 2615.227
930.7340, 2253.650
931.8540, 1862.014
932.9740, 1675.404
934.0930, 1458.819
935.2130, 1437.260
936.3320, 1493.737
937.4520, 1466.244
938.5710, 1645.753
939.6900, 1895.997
940.8090, 2016.561
941.9270, 2152.379
943.0460, 2481.037
944.1640, 2765.733
945.2820, 3104.036
946.4000, 3632.792
947.5180, 4147.749
948.6360, 4988.570
949.7530, 6046.418
950.8710, 7332.861
951.9880, 9346.771
953.1050, 11800.55
954.2220, 14899.28
955.3390, 18480.45
956.4550, 22900.48
957.5720, 27675.52
958.6880, 33302.61
959.8040, 38451.73
960.9200, 43158.90
962.0360, 47468.37
963.1520, 50886.59
964.2670, 53601.84
965.3820, 55559.00
966.4980, 56601.31
967.6130, 55536.65
968.7280, 53217.02
969.8420, 49029.45
970.9570, 43174.89
972.0710, 36933.38
973.1850, 30441.90
974.3000, 24135.45
975.4140, 18805.02
976.5270, 14810.64
977.6410, 11564.29
978.7540, 9137.982
979.8680, 7605.701
980.9810, 6235.458
982.0940, 5414.099
983.2070, 5037.825
984.3200, 4715.874
985.4320, 4541.758
986.5440, 4423.071
987.6570, 4613.866
988.7690, 4444.484
989.8810, 4719.503
990.9920, 4893.552
992.1040, 4863.635
993.2160, 4918.751
994.3270, 4873.899
995.4380, 4885.079
996.5490, 4773.292
997.6600, 4645.537
998.7710, 4445.817
999.8810, 4224.142
1000.991, 4090.508
1002.102, 3771.908
1003.212, 3534.344
1004.322, 3288.812
1005.431, 3004.317
1006.541, 2840.863
1007.651, 2764.441
1008.760, 2736.067
1009.869, 2642.729
1010.978, 2802.431
1012.087, 2844.168
1013.195, 2881.948
1014.304, 2860.769
1015.412, 3060.648
1016.521, 3158.564
1017.629, 3268.518
1018.737, 3517.510
1019.844, 3569.538
1020.952, 3719.615
1022.059, 3845.726
1023.167, 3993.876
1024.274, 4134.070
1025.381, 4113.301
1026.488, 4188.567
1027.594, 4072.887
1028.701, 4101.248
1029.807, 3932.646
1030.913, 3796.083
1032.019, 3567.125
1033.125, 3385.176
1034.231, 3253.958
1035.337, 2993.397
1036.442, 2804.416
1037.548, 2596.907
1038.653, 2433.189
1039.758, 2185.045
1040.863, 2105.239
1041.967, 1958.943
1043.072, 1659.623
1044.176, 1717.500
1045.280, 1617.833
1046.384, 1457.249
1047.488, 1412.941
1048.592, 1394.018
1049.696, 1363.217
1050.799, 1344.377
1051.903, 1366.771
1053.006, 1403.799
1054.109, 1434.971
1055.212, 1522.917
1056.314, 1544.327
1057.417, 1624.625
1058.519, 1692.027
1059.621, 1740.997
1060.724, 1778.454
1061.826, 1831.506
1062.927, 1812.784
1064.029, 1793.321
1065.130, 1776.964
1066.232, 1771.634
1067.333, 1750.293
1068.434, 1785.418
1069.535, 1722.166
1070.636, 1663.019
1071.736, 1649.827
1072.837, 1540.675
1073.937, 1570.538
1075.037, 1653.313
1076.137, 1599.889
1077.237, 1595.523
1078.337, 1694.587
1079.436, 1749.063
1080.535, 1818.194
1081.635, 1875.280
1082.734, 1861.618
1083.833, 1959.960
1084.931, 1962.135
1086.030, 2008.335
1087.128, 1910.567
1088.227, 2099.601
1089.325, 2029.877
1090.423, 2151.197
1091.521, 2072.610
1092.618, 2019.087
1093.716, 1908.286
1094.813, 1819.694
1095.911, 1793.123
1097.008, 1639.572
1098.105, 1651.052
1099.202, 1639.552
1100.298, 1563.072
1101.395, 1507.613
1102.491, 1425.174
1103.587, 1372.928
1104.683, 1325.353
1105.779, 1258.970
1106.875, 1155.606
1107.971, 1085.261
1109.066, 999.1255
1110.161, 943.0400
1111.256, 865.3354
1112.351, 842.0640
1113.446, 853.8105
1114.541, 802.5742
1115.636, 744.7373
1116.730, 714.3330
1117.824, 549.9795
1118.918, 602.8159
1120.012, 434.6724
1121.106, 349.5513
1122.200, 353.4458
1123.293, 329.3555
1124.387, 276.2817
1125.480, 213.2241
1126.573, 204.1807
1127.666, 246.1528
1128.759, 234.1392
1129.851, 129.1392
1130.944, 170.4014
1132.036, 123.4302
1133.128, 158.4722
1134.220, 149.5269
1135.312, 119.5962
1136.404, 163.6807
1137.495, 145.5850
1138.587, 106.6958
1139.678, 143.8193
1140.769, 122.7764
1141.860, 76.92334
1142.951, 100.0815
1144.041, 52.24951
1145.132, 71.42822
1146.222, 138.7061
1147.313, 116.3545
1148.403, 214.1509
1149.493, 151.3691
1150.582, 64.97314
1151.672, 111.8306
1152.761, 53.07568
1153.851, 89.44824
1154.940, 133.7119
1156.029, 141.5054
1157.118, 109.1406
1158.207, 33.42529
1159.295, 16.71729
1160.384, 16.01514
1161.472, 31.31885
1162.560, 18.49023
1163.648, 17.18115
1164.736, 33.00732
1165.824, 64.64453
1166.911, 55.36328
1167.999, 81.10059
1169.086, 75.86768
1170.173, 84.66406
1171.260, 52.49414
1172.347, 41.63672
1173.434, 76.91260
1174.520, 95.80566
1175.606, 84.40186
1176.693, 8.373535
1177.779, 70.34814
1178.865, 19.64502
1179.951, 21.21143
1181.036, 17.77393
1182.122, 22.24023
1183.207, 13.26562
1184.292, 1.299316
1185.377, 21.80908
1186.462, 17.23438
1187.547, 13.92041
1188.632, 14.87793
1189.716, 39.21631
1190.800, 2.322266
1191.885, 36.30322
1192.969, 24.87646
1194.052, 10.02979
1195.136, 36.94873
1196.220, 40.77979
1197.303, 12.77295
1198.387, 33.40234
1199.470, 18.39697
1200.553, 12.09961
1201.636, 28.04004
1202.718, 30.81055
1203.801, 23.11963
1204.883, 37.45361
1205.966, 33.05615
1207.048, 3.544434
1208.130, 3.180176
1209.211, 9.236816
1210.293, 21.41211
1211.375, 39.18262
1212.456, 16.85205
1213.537, 19.25879
1214.618, 53.17969
1215.699, 54.22607
1216.780, 33.82861
1217.861, 7.443848
1218.941, 35.04297
1220.022, 97.59375
1221.102, 87.15869
1222.182, 130.7139
1223.262, 165.2598
1224.342, 138.7983
1225.422, 111.3276
1226.501, 112.8481
1227.580, 92.36133
1228.660, 103.6548
1229.739, 99.46289
1230.818, 132.3237
1231.896, 91.79785
1232.975, 102.2612
1234.054, 89.71533
1235.132, 229.1592
1236.210, 107.5923
1237.288, 116.0156
1238.366, 188.4277
1239.444, 77.05762
1240.521, 114.6323
1241.599, 119.2446
1242.676, 164.6226
1243.753, 127.9795
1244.830, 105.3247
1245.907, 169.8579
1246.984, 112.2344
1248.061, 138.5815
1249.137, 161.9082
1250.214, 149.2236
1251.290, 194.5000
1252.366, 84.88037
1253.442, 174.2554
1254.517, 189.7598
1255.593, 186.9824
1256.668, 73.39941
1257.744, 108.5952
1258.819, 130.7773
1259.894, 3.081543
1260.969, 100.3149
1262.044, 124.4590
1263.118, 147.7124
1264.193, 109.9673
1265.267, 118.8125
1266.341, 13.87891
1267.415, 111.5518
1268.489, 106.6958
1269.563, 39.72900
1270.636, 167.9316
1271.710, 103.9014
1272.783, 113.8564
1273.856, 90.80713
1274.929, 11.91211
1276.002, 57.80420
1277.075, 52.81494
1278.147, 105.6670
1279.220, 63.59619
1280.292, 53.48242
1281.364, 116.4019
1282.436, 37.85596
1283.508, 148.6104
1284.580, 60.34814
1285.652, 69.10059
1286.723, 122.8052
1287.794, 102.4868
1288.865, 133.1519
1289.936, 120.8003
1291.007, 49.45020
1292.078, 120.6919
1293.149, 47.74805
1294.219, 121.2065
1295.289, 129.1909
1296.360, 134.3281
1297.430, 150.0068
1298.499, 130.9106
1299.569, 150.2749
