##NAMES=Whitlockite
##RRUFFID=R070675
##IDEAL CHEMISTRY=Ca_9_Mg(PO_4_)_6_(PO_3_OH)
##LOCALITY=Palermo mine, North Groton, New Hampshire, USA
##OWNER=RRUFF
##SOURCE=Rock Currier
##DESCRIPTION=Colorless blocky modified rhombic crystals
##STATUS=The identification of this mineral is confirmed by single-crystal X-ray diffraction and chemical analysis.
##URL=rruff.info/R070675
##MEASURED CHEMISTRY=(Ca_8.70_Na_0.27_Sr_0.02_Mn_0.01_)_Σ=9_(Mg_0.73_Fe^3+^_0.19_Al_0.08_)_Σ=1_(P_1.00_O_4_)_6_(P_1.00_O_3_((OH)_0.58_F_0.42_)_Σ=1_); OH estimated by charge balance
##PIN_ID=M00691
##ORIENTATION=Laser parallel to a* (1 0 0). Fiducial mark perpendicular to laser is parallel to c [0 0 1]
137.3420, 0.0000000E+00
138.5800, 1.657715
139.8180, 53.32373
141.0560, 50.85059
142.2940, 42.72949
143.5310, 77.35059
144.7680, 92.61963
146.0050, 295.2148
147.2420, 375.2256
148.4790, 442.9893
149.7150, 448.0107
150.9510, 517.9653
152.1870, 606.5815
153.4230, 688.6216
154.6590, 794.9014
155.8940, 727.2549
157.1300, 695.5396
158.3650, 862.6318
159.6000, 646.4292
160.8340, 708.8530
162.0690, 632.8921
163.3030, 620.5347
164.5370, 658.2358
165.7710, 549.9502
167.0050, 676.1558
168.2380, 554.8062
169.4720, 568.8389
170.7050, 644.1958
171.9380, 553.8286
173.1700, 605.6982
174.4030, 565.7686
175.6350, 608.0107
176.8680, 564.3984
178.1000, 653.9141
179.3310, 647.5439
180.5630, 538.2764
181.7940, 495.1001
183.0260, 372.0093
184.2570, 264.3638
185.4870, 336.0640
186.7180, 236.2910
187.9480, 214.8091
189.1790, 210.4121
190.4090, 204.4214
191.6390, 13.52148
192.8680, 74.72412
194.0980, 31.13770
195.3270, 194.7134
196.5560, 162.3809
197.7850, 148.1143
199.0140, 169.7563
200.2420, 62.28467
201.4710, 24.70557
202.6990, 63.02344
203.9270, 68.24512
205.1550, 28.37500
206.3820, 76.41602
207.6090, 112.3730
208.8370, 104.2500
210.0640, 88.05029
211.2900, 139.7661
212.5170, 175.3838
213.7440, 141.9307
214.9700, 165.4233
216.1960, 116.8730
217.4220, 166.2881
218.6470, 126.6738
219.8730, 223.0366
221.0980, 142.3784
222.3230, 170.7041
223.5480, 239.0146
224.7730, 287.3125
225.9970, 327.9321
227.2220, 342.7837
228.4460, 386.1396
229.6700, 349.6655
230.8940, 327.6729
232.1170, 323.6377
233.3400, 345.6943
234.5640, 394.2739
235.7870, 436.2036
237.0100, 394.2739
238.2320, 397.1777
239.4550, 384.6938
240.6770, 384.4224
241.8990, 362.2148
243.1210, 442.4722
244.3420, 414.2944
245.5640, 456.5269
246.7850, 446.5845
248.0060, 344.3477
249.2270, 488.8975
250.4480, 507.1250
251.6690, 469.0566
252.8890, 588.5923
254.1090, 545.8892
255.3290, 619.1372
256.5490, 617.2388
257.7680, 617.5303
258.9880, 645.2031
260.2070, 565.8765
261.4260, 634.5488
262.6450, 573.2183
263.8640, 560.8843
265.0820, 543.5449
266.3000, 508.2012
267.5180, 485.8496
268.7360, 513.4907
269.9540, 525.1230
271.1720, 608.7461
272.3890, 591.3604
273.6060, 672.9653
274.8230, 714.5615
276.0400, 735.1494
277.2560, 704.7285
278.4730, 642.3003
279.6890, 774.8647
280.9050, 747.4351
282.1210, 837.2192
283.3370, 865.3330
284.5520, 831.9722
285.7670, 670.9678
286.9820, 793.0381
288.1970, 684.5264
289.4120, 686.2109
290.6270, 478.0552
291.8410, 533.0322
293.0550, 389.1201
294.2690, 479.3047
295.4830, 399.5718
296.6970, 231.9111
297.9100, 322.3125
299.1230, 302.7695
300.3360, 268.2749
301.5490, 211.8223
302.7620, 210.7754
303.9740, 216.0254
305.1860, 168.6714
306.3990, 163.3433
307.6110, 95.03809
308.8220, 98.55615
310.0340, 39.48291
311.2450, 93.22510
312.4560, 98.97949
313.6670, 105.7427
314.8780, 9.514160
316.0890, 31.29004
317.2990, 20.07031
318.5090, 49.85303
319.7200, 21.36279
320.9290, 27.58545
322.1390, 155.8179
323.3490, 4.906250
324.5580, 25.62744
325.7670, 60.34570
326.9760, 40.93848
328.1850, 20.23975
329.3930, 43.55371
330.6020, 53.88721
331.8100, 43.24609
333.0180, 47.18652
334.2260, 1.040527
335.4340, 36.46777
336.6410, 3.078125
337.8480, 4.485840
339.0550, 81.02246
340.2620, 40.51562
341.4690, 15.00928
342.6760, 36.55859
343.8820, 137.1401
345.0880, 5.779785
346.2940, 85.55762
347.5000, 45.87842
348.7060, 35.18408
349.9110, 34.52637
351.1160, 7.733887
352.3210, 48.97607
353.5260, 71.79688
354.7310, 4.608398
355.9360, 21.55811
357.1400, 6.709473
358.3440, 56.84375
359.5480, 56.03467
360.7520, 77.94727
361.9550, 64.10059
363.1590, 62.86426
364.3620, 40.13525
365.5650, 4.122070
366.7680, 72.09131
367.9710, 16.95215
369.1730, 40.98096
370.3760, 29.09814
371.5780, 38.20459
372.7800, 3.337402
373.9810, 195.5156
375.1830, 5.668945
376.3840, 221.0610
377.5860, 170.7803
378.7870, 222.4580
379.9880, 127.0796
381.1880, 213.6465
382.3890, 280.1787
383.5890, 266.6899
384.7890, 299.1948
385.9890, 435.6582
387.1890, 514.0474
388.3880, 584.4302
389.5880, 636.7852
390.7870, 652.1353
391.9860, 858.4355
393.1850, 1005.720
394.3840, 1093.975
395.5820, 1171.189
396.7800, 1291.366
397.9790, 1442.530
399.1770, 1606.674
400.3740, 1895.779
401.5720, 1877.866
402.7690, 1974.940
403.9670, 2276.010
405.1640, 2295.073
406.3600, 2202.143
407.5570, 2189.217
408.7540, 2220.293
409.9500, 2062.366
411.1460, 1931.448
412.3420, 1908.532
413.5380, 1779.613
414.7330, 1727.694
415.9290, 1578.772
417.1240, 1574.846
418.3190, 1511.914
419.5140, 1549.978
420.7090, 1500.038
421.9030, 1529.092
423.0970, 1580.141
424.2920, 1627.189
425.4860, 1586.232
426.6790, 1620.271
427.8730, 1748.305
429.0660, 1715.341
430.2600, 1771.389
431.4530, 1952.439
432.6460, 1838.502
433.8380, 1764.560
435.0310, 1992.611
436.2230, 1821.655
437.4150, 1807.692
438.6070, 1891.738
439.7990, 1814.773
440.9910, 1868.804
442.1820, 1802.828
443.3730, 1843.841
444.5640, 1737.847
445.7550, 1824.845
446.9460, 1809.834
448.1370, 1838.814
449.3270, 1791.783
450.5170, 1818.742
451.7070, 1803.704
452.8970, 1816.661
454.0870, 1741.608
455.2760, 1794.566
456.4650, 1736.513
457.6550, 1698.449
458.8430, 1751.374
460.0320, 1589.287
461.2210, 1556.203
462.4090, 1538.109
463.5970, 1589.549
464.7850, 1287.557
465.9730, 1370.455
467.1610, 1272.164
468.3480, 1126.022
469.5360, 1121.869
470.7230, 1015.758
471.9100, 1144.887
473.0970, 872.5029
474.2830, 1102.411
475.4700, 919.9297
476.6560, 996.1533
477.8420, 964.2441
479.0280, 895.0576
480.2140, 951.2974
481.3990, 1102.019
482.5850, 1050.797
483.7700, 1055.567
484.9550, 975.4731
486.1400, 947.9756
487.3240, 826.1152
488.5090, 823.4512
489.6930, 811.1660
490.8770, 732.8730
492.0610, 576.5708
493.2450, 424.9185
494.4290, 405.8403
495.6120, 388.5068
496.7950, 323.3809
497.9780, 338.4443
499.1610, 320.8105
500.3440, 243.4746
501.5260, 193.1050
502.7090, 181.7715
503.8910, 105.0225
505.0730, 253.6216
506.2550, 91.74121
507.4360, 154.3110
508.6180, 162.5640
509.7990, 56.13428
510.9800, 137.9980
512.1610, 57.48779
513.3420, 110.5288
514.5230, 94.99707
515.7030, 105.7095
516.8830, 115.2427
518.0630, 98.58154
519.2430, 211.1401
520.4230, 69.93750
521.6020, 166.9028
522.7820, 57.54248
523.9610, 268.0386
525.1400, 220.7935
526.3190, 138.6694
527.4970, 191.2026
528.6760, 168.5142
529.8540, 234.6021
531.0320, 244.2271
532.2100, 326.3330
533.3880, 432.0869
534.5660, 473.7227
535.7430, 586.3652
536.9200, 602.9600
538.0970, 590.4531
539.2740, 754.3271
540.4510, 804.1787
541.6270, 1038.199
542.8040, 1351.659
543.9800, 1430.769
545.1560, 1687.379
546.3320, 1749.833
547.5080, 1773.683
548.6830, 1723.044
549.8580, 1706.342
551.0340, 1555.093
552.2090, 1410.849
553.3830, 1386.747
554.5580, 1297.689
555.7320, 1249.277
556.9070, 1425.166
558.0810, 1524.638
559.2550, 1549.099
560.4280, 1611.559
561.6020, 1552.014
562.7750, 1609.459
563.9490, 1539.936
565.1220, 1496.958
566.2950, 1284.467
567.4670, 1072.866
568.6400, 858.5752
569.8120, 766.1768
570.9840, 691.3750
572.1560, 619.0063
573.3280, 581.0195
574.5000, 518.5918
575.6710, 499.0669
576.8430, 468.0439
578.0140, 471.5967
579.1850, 459.3164
580.3560, 445.6431
581.5260, 491.5566
582.6970, 418.1885
583.8670, 503.5215
585.0370, 585.8115
586.2070, 699.0376
587.3770, 717.2197
588.5460, 894.7725
589.7160, 1035.002
590.8850, 1071.143
592.0540, 1194.520
593.2230, 1184.259
594.3920, 1186.454
595.5600, 1236.943
596.7290, 1326.082
597.8970, 1339.181
599.0650, 1300.401
600.2330, 1442.456
601.4000, 1486.197
602.5680, 1590.603
603.7350, 1575.672
604.9020, 1604.416
606.0690, 1674.605
607.2360, 1538.441
608.4030, 1474.495
609.5690, 1302.456
610.7360, 1242.689
611.9020, 1062.632
613.0680, 1020.741
614.2340, 1099.674
615.3990, 1097.608
616.5650, 1052.554
617.7300, 1253.093
618.8950, 1261.013
620.0600, 1276.500
621.2250, 1227.463
622.3890, 1305.355
623.5540, 1495.897
624.7180, 1218.973
625.8820, 1427.829
627.0460, 1356.720
628.2100, 1192.626
629.3730, 1343.535
630.5370, 1310.821
631.7000, 1314.931
632.8630, 1116.856
634.0260, 971.8184
635.1890, 993.6113
636.3510, 852.3857
637.5140, 547.0068
638.6760, 441.7793
639.8380, 393.5361
641.0000, 160.2793
642.1610, 259.0049
643.3230, 245.7344
644.4840, 107.5156
645.6450, 132.3281
646.8060, 212.0547
647.9670, 184.0215
649.1280, 186.7979
650.2880, 260.4971
651.4490, 118.1699
652.6090, 92.54932
653.7690, 4.798828
654.9290, 6.701172
656.0880, 110.3730
657.2480, 1.023926
658.4070, 84.56152
659.5660, 39.12793
660.7250, 26.01953
661.8840, 62.54150
663.0430, 131.0195
664.2010, 45.50195
665.3600, 35.80664
666.5180, 88.24512
667.6760, 55.67041
668.8330, 58.05859
669.9910, 72.98242
671.1480, 6.018066
672.3060, 54.47803
673.4630, 71.33838
674.6200, 5.364258
675.7770, 81.30176
676.9330, 103.5254
678.0900, 45.62012
679.2460, 47.64355
680.4020, 0.4526370
681.5580, 125.0176
682.7140, 34.73926
683.8690, 77.81201
685.0250, 152.6655
686.1800, 1.396484
687.3350, 6.590332
688.4900, 11.38770
689.6450, 82.29980
690.7990, 13.81494
691.9540, 20.02002
693.1080, 67.03809
694.2620, 33.96533
695.4160, 71.87891
696.5700, 145.8291
697.7230, 172.5791
698.8770, 189.1045
700.0300, 173.8721
701.1830, 170.7783
702.3360, 126.3813
703.4890, 59.98779
704.6410, 111.5405
705.7930, 144.0708
706.9460, 77.57812
708.0980, 185.0605
709.2500, 5.479492
710.4010, 29.93115
711.5530, 15.69238
712.7040, 81.66943
713.8560, 138.9683
715.0070, 132.2446
716.1580, 101.5000
717.3080, 13.26807
718.4590, 107.9126
719.6090, 48.07080
720.7590, 62.20117
721.9090, 93.30615
723.0590, 99.38867
724.2090, 31.44971
725.3590, 136.4800
726.5080, 58.48877
727.6570, 95.47217
728.8060, 128.4346
729.9550, 13.62354
731.1040, 13.26855
732.2530, 85.12549
733.4010, 49.03955
734.5490, 88.72803
735.6970, 62.47412
736.8450, 184.1982
737.9930, 93.90234
739.1400, 24.41504
740.2880, 45.21582
741.4350, 74.82227
742.5820, 171.4082
743.7290, 170.9746
744.8760, 12.47900
746.0220, 72.02295
747.1690, 141.5044
748.3150, 5.033691
749.4610, 122.3872
750.6070, 4.209961
751.7530, 102.1533
752.8980, 88.49756
754.0440, 3.176758
755.1890, 76.88916
756.3340, 101.3223
757.4790, 23.51514
758.6240, 56.68311
759.7680, 105.8320
760.9130, 17.96240
762.0570, 33.06836
763.2010, 62.15332
764.3450, 51.22021
765.4890, 51.26904
766.6320, 46.32031
767.7760, 18.31152
768.9190, 22.30127
770.0620, 29.27002
771.2050, 25.22021
772.3480, 75.15088
773.4900, 48.06494
774.6330, 43.03760
775.7750, 123.8091
776.9170, 49.63916
778.0590, 172.4541
779.2010, 138.2529
780.3420, 72.03613
781.4840, 20.80420
782.6250, 14.55615
783.7660, 89.29102
784.9070, 23.98926
786.0480, 11.69482
787.1890, 15.36182
788.3290, 172.0142
789.4690, 18.34814
790.6100, 61.25488
791.7490, 75.81104
792.8890, 39.73779
794.0290, 121.8018
795.1680, 47.37402
796.3080, 105.8423
797.4470, 33.95166
798.5860, 93.05420
799.7250, 29.63574
800.8630, 40.78809
802.0020, 45.06885
803.1400, 72.91992
804.2780, 5.230957
805.4160, 113.6191
806.5540, 53.42725
807.6920, 1.443848
808.8300, 39.81787
809.9670, 30.86914
811.1040, 15.82861
812.2410, 34.64111
813.3780, 9.212891
814.5150, 39.67041
815.6510, 19.96289
816.7880, 16.25391
817.9240, 67.73535
819.0600, 37.68896
820.1960, 107.6836
821.3320, 60.46143
822.4670, 222.4795
823.6030, 51.03613
824.7380, 96.97656
825.8730, 4.037598
827.0080, 51.58252
828.1430, 62.10791
829.2770, 108.5249
830.4120, 6.240723
831.5460, 57.61621
832.6800, 38.31836
833.8140, 1.624023
834.9480, 55.93408
836.0810, 41.26611
837.2150, 33.38623
838.3480, 103.0366
839.4810, 0.6406250
840.6140, 95.68555
841.7470, 82.22949
842.8800, 55.87207
844.0120, 113.1924
845.1450, 88.83350
846.2770, 44.41309
847.4090, 23.77441
848.5410, 1.258789
849.6720, 105.1377
850.8040, 229.7798
851.9350, 198.4238
853.0660, 128.9683
854.1970, 171.1719
855.3280, 73.75684
856.4590, 248.7451
857.5900, 315.0059
858.7200, 219.5537
859.8500, 242.1357
860.9800, 199.7705
862.1100, 229.4414
863.2400, 203.7314
864.3700, 215.3350
865.4990, 232.0205
866.6280, 161.4590
867.7570, 132.5273
868.8860, 91.13281
870.0150, 32.43457
871.1440, 68.08008
872.2720, 111.5752
873.4010, 190.3057
874.5290, 176.2324
875.6570, 179.3242
876.7850, 135.3691
877.9120, 156.0410
879.0400, 85.81348
880.1670, 128.5957
881.2940, 136.5420
882.4210, 44.26660
883.5480, 162.0781
884.6750, 63.61230
885.8020, 249.4453
886.9280, 157.1152
888.0540, 170.9707
889.1800, 231.8389
890.3060, 319.7070
891.4320, 390.9941
892.5580, 462.8994
893.6830, 544.2500
894.8080, 587.7529
895.9330, 595.0684
897.0580, 677.3633
898.1830, 708.1201
899.3080, 767.1152
900.4320, 717.0889
901.5570, 825.0850
902.6810, 833.1006
903.8050, 962.7363
904.9290, 878.5547
906.0520, 1085.555
907.1760, 1211.537
908.2990, 1179.703
909.4230, 1244.903
910.5460, 1422.290
911.6690, 1591.560
912.7910, 1878.893
913.9140, 2182.774
915.0360, 2763.645
916.1590, 2940.063
917.2810, 3391.460
918.4030, 3854.836
919.5240, 4079.321
920.6460, 4321.593
921.7680, 4648.074
922.8890, 4479.633
924.0100, 4301.233
925.1310, 3864.129
926.2520, 3517.790
927.3730, 2968.479
928.4930, 2550.297
929.6130, 2107.050
930.7340, 1879.830
931.8540, 1694.666
932.9740, 1607.180
934.0930, 1521.078
935.2130, 1508.024
936.3320, 1454.971
937.4520, 1530.096
938.5710, 1799.092
939.6900, 1653.104
940.8090, 1994.158
941.9270, 2076.229
943.0460, 2176.131
944.1640, 2465.083
945.2820, 2842.684
946.4000, 2965.124
947.5180, 3448.656
948.6360, 4081.916
949.7530, 4875.315
950.8710, 5921.795
951.9880, 7435.500
953.1050, 9411.450
954.2220, 11696.26
955.3390, 14829.72
956.4550, 18725.40
957.5720, 23196.01
958.6880, 28003.58
959.8040, 32643.34
960.9200, 36748.97
962.0360, 39692.64
963.1520, 42315.37
964.2670, 44729.93
965.3820, 45710.59
966.4980, 46040.27
967.6130, 44975.93
968.7280, 42014.80
969.8420, 38356.77
970.9570, 33915.48
972.0710, 28727.50
973.1850, 23662.55
974.3000, 19031.61
975.4140, 15090.74
976.5270, 11761.91
977.6410, 9397.113
978.7540, 7588.353
979.8680, 6435.623
980.9810, 5643.942
982.0940, 5403.299
983.2070, 5328.663
984.3200, 5421.102
985.4320, 5487.572
986.5440, 5660.076
987.6570, 6060.612
988.7690, 6086.211
989.8810, 6003.846
990.9920, 6076.518
992.1040, 5809.227
993.2160, 5650.967
994.3270, 5187.740
995.4380, 4806.557
996.5490, 4510.406
997.6600, 3942.290
998.7710, 3782.207
999.8810, 3405.159
1000.991, 3061.159
1002.102, 3105.207
1003.212, 2808.289
1004.322, 2651.428
1005.431, 2317.601
1006.541, 2298.808
1007.651, 2111.047
1008.760, 2339.322
1009.869, 2361.646
1010.978, 2423.005
1012.087, 2467.398
1013.195, 2642.825
1014.304, 2748.286
1015.412, 2889.823
1016.521, 3043.334
1017.629, 3204.908
1018.737, 3423.525
1019.844, 3597.178
1020.952, 3930.873
1022.059, 3969.602
1023.167, 4238.508
1024.274, 4348.312
1025.381, 4447.178
1026.488, 4523.082
1027.594, 4551.021
1028.701, 4563.994
1029.807, 4447.001
1030.913, 4147.043
1032.019, 4006.469
1033.125, 3780.632
1034.231, 3478.775
1035.337, 3274.394
1036.442, 2916.603
1037.548, 2594.197
1038.653, 2395.477
1039.758, 2105.377
1040.863, 2048.887
1041.967, 1832.399
1043.072, 1742.004
1044.176, 1557.712
1045.280, 1436.555
1046.384, 1320.073
1047.488, 1260.703
1048.592, 1261.280
1049.696, 1134.979
1050.799, 1076.434
1051.903, 1140.102
1053.006, 1193.137
1054.109, 1170.055
1055.212, 1153.819
1056.314, 1132.614
1057.417, 1195.867
1058.519, 1390.535
1059.621, 1385.770
1060.724, 1361.799
1061.826, 1525.111
1062.927, 1538.096
1064.029, 1592.130
1065.130, 1602.166
1066.232, 1490.176
1067.333, 1445.332
1068.434, 1357.469
1069.535, 1478.646
1070.636, 1443.861
1071.736, 1429.103
1072.837, 1299.435
1073.937, 1503.759
1075.037, 1316.108
1076.137, 1411.484
1077.237, 1597.595
1078.337, 1510.390
1079.436, 1441.323
1080.535, 1654.282
1081.635, 1696.520
1082.734, 1647.435
1083.833, 1538.128
1084.931, 1538.099
1086.030, 1541.149
1087.128, 1546.839
1088.227, 1712.758
1089.325, 1440.510
1090.423, 1509.366
1091.521, 1449.219
1092.618, 1638.115
1093.716, 1567.209
1094.813, 1646.148
1095.911, 1555.269
1097.008, 1539.271
1098.105, 1429.409
1099.202, 1527.119
1100.298, 1359.201
1101.395, 1403.304
1102.491, 1354.691
1103.587, 1230.856
1104.683, 1136.054
1105.779, 1163.282
1106.875, 1104.015
1107.971, 991.2803
1109.066, 911.8818
1110.161, 861.1855
1111.256, 937.5059
1112.351, 716.8438
1113.446, 771.1982
1114.541, 608.5693
1115.636, 509.9561
1116.730, 629.3721
1117.824, 458.7910
1118.918, 506.2266
1120.012, 475.5059
1121.106, 340.0635
1122.200, 437.5430
1123.293, 226.0371
1124.387, 269.5449
1125.480, 167.0684
1126.573, 248.3506
1127.666, 261.9004
1128.759, 86.46387
1129.851, 199.0410
1130.944, 173.8584
1132.036, 113.4619
1133.128, 50.61914
1134.220, 92.24512
1135.312, 145.8838
1136.404, 157.5342
1137.495, 156.1953
1138.587, 182.1895
1139.678, 221.5488
1140.769, 186.2422
1141.860, 188.1377
1142.951, 159.6592
1144.041, 175.3818
1145.132, 129.1172
1146.222, 158.8604
1147.313, 154.6133
1148.403, 103.3760
1149.493, 98.14551
1150.582, 158.9248
1151.672, 67.71094
1152.761, 141.5059
1153.851, 8.693359
1154.940, 131.1143
1156.029, 210.9277
1157.118, 113.3398
1158.207, 108.1670
1159.295, 97.11719
1160.384, 20.95898
1161.472, 21.80859
1162.560, 61.33789
1163.648, 1.500977
1164.736, 11.33984
1165.824, 78.81445
1166.911, 52.00488
1167.999, 37.17188
1169.086, 5.641602
1170.173, 18.54004
1171.260, 50.72656
1172.347, 84.93066
1173.434, 30.16797
1174.520, 118.4150
1175.606, 182.7139
1176.693, 5.900391
1177.779, 128.4854
1178.865, 93.07129
1179.951, 0.3730470
1181.036, 36.81641
1182.122, 70.72266
1183.207, 95.73633
1184.292, 41.24219
1185.377, 103.2324
1186.462, 112.7061
1187.547, 122.2100
1188.632, 73.31543
1189.716, 2.878906
1190.800, 35.44727
1191.885, 21.03711
1192.969, 70.35742
1194.052, 129.2471
1195.136, 21.07617
1196.220, 45.60156
1197.303, 7.692383
1198.387, 19.98145
1199.470, 54.61426
1200.553, 62.89941
1201.636, 60.18164
1202.718, 12.46094
1203.801, 49.73633
1204.883, 26.08008
1205.966, 75.34668
1207.048, 16.38965
1208.130, 8.489258
1209.211, 6.722656
1210.293, 10.05176
1211.375, 3.341797
1212.456, 6.964844
1213.537, 2.041992
1214.618, 13.11523
1215.699, 5.738281
1216.780, 62.38965
1217.861, 20.36816
1218.941, 40.48145
1220.022, 13.41211
1221.102, 124.9766
1222.182, 235.0479
1223.262, 26.11426
1224.342, 40.16992
1225.422, 75.78125
1226.501, 77.20605
1227.580, 6.184570
1228.660, 16.41113
1229.739, 66.35547
1230.818, 113.2900
1231.896, 7.357422
1232.975, 156.2617
1234.054, 264.1924
1235.132, 113.0322
1236.210, 8.089844
1237.288, 303.9209
1238.366, 4.243164
1239.444, 150.0781
1240.521, 200.9209
1241.599, 134.7051
1242.676, 141.4775
1243.753, 94.24023
1244.830, 265.9932
1245.907, 63.73633
1246.984, 155.4678
1248.061, 197.4648
1249.137, 6.827148
1250.214, 25.84570
1251.290, 223.5098
1252.366, 195.1631
1253.442, 203.8936
1254.517, 176.5215
1255.593, 39.13965
1256.668, 173.7363
1257.744, 164.3369
1258.819, 197.9102
1259.894, 62.47266
1260.969, 221.1846
1262.044, 22.71875
1263.118, 186.3242
1264.193, 86.84082
1265.267, 99.34473
1266.341, 281.8359
1267.415, 168.3135
1268.489, 193.8018
1269.563, 152.2539
1270.636, 98.69238
1271.710, 133.1758
1272.783, 212.5889
1273.856, 231.4844
1274.929, 198.8691
1276.002, 281.2422
1277.075, 225.6016
1278.147, 150.9473
1279.220, 184.2959
1280.292, 119.6143
1281.364, 202.9170
1282.436, 168.2080
1283.508, 178.3408
1284.580, 272.6035
1285.652, 65.85156
1286.723, 227.0801
1287.794, 94.29590
1288.865, 125.2949
1289.936, 110.5684
1291.007, 224.7402
1292.078, 169.5459
1293.149, 112.6357
1294.219, 259.7910
1295.289, 243.4795
1296.360, 281.5781
1297.430, 226.5352
1298.499, 171.6035
1299.569, 198.0693
1300.639, 246.9463
1301.708, 240.8359
1302.778, 287.7402
1303.847, 134.7656
