##NAMES=Whitlockite
##RRUFFID=R070675
##IDEAL CHEMISTRY=Ca_9_Mg(PO_4_)_6_(PO_3_OH)
##LOCALITY=Palermo mine, North Groton, New Hampshire, USA
##OWNER=RRUFF
##SOURCE=Rock Currier
##DESCRIPTION=Colorless blocky modified rhombic crystals
##STATUS=The identification of this mineral is confirmed by single-crystal X-ray diffraction and chemical analysis.
##URL=rruff.info/R070675
##MEASURED CHEMISTRY=(Ca_8.70_Na_0.27_Sr_0.02_Mn_0.01_)_Σ=9_(Mg_0.73_Fe^3+^_0.19_Al_0.08_)_Σ=1_(P_1.00_O_4_)_6_(P_1.00_O_3_((OH)_0.58_F_0.42_)_Σ=1_); OH estimated by charge balance
##PIN_ID=M00295
##ORIENTATION=Laser parallel to c* (0 0 1). Fiducial mark perpendicular to laser is parallel to a [1 0 0]
132.3880, 0.0000000E+00
133.6270, 39.34583
134.8650, 3.273926
136.1040, 92.05615
137.3420, 5.471680
138.5800, 2.869873
139.8180, 40.60791
141.0560, 90.14160
142.2940, 102.1531
143.5310, 124.1997
144.7680, 133.9338
146.0050, 217.0962
147.2420, 265.5159
148.4790, 298.0581
149.7150, 466.5886
150.9510, 558.9812
152.1870, 561.1211
153.4230, 641.9094
154.6590, 660.2612
155.8940, 796.1050
157.1300, 788.3877
158.3650, 845.1121
159.6000, 882.3044
160.8340, 844.9836
162.0690, 923.1279
163.3030, 939.6770
164.5370, 945.5635
165.7710, 977.7302
167.0050, 1000.130
168.2380, 1019.724
169.4720, 1046.478
170.7050, 1077.802
171.9380, 1106.364
173.1700, 1139.458
174.4030, 1174.633
175.6350, 1189.880
176.8680, 1135.191
178.1000, 1112.557
179.3310, 1039.941
180.5630, 928.4431
181.7940, 827.1924
183.0260, 746.2932
184.2570, 554.8657
185.4870, 464.8682
186.7180, 399.3362
187.9480, 432.2593
189.1790, 353.4568
190.4090, 360.8042
191.6390, 314.1038
192.8680, 282.3237
194.0980, 232.3962
195.3270, 302.3240
196.5560, 281.1143
197.7850, 274.7742
199.0140, 280.3096
200.2420, 236.7263
201.4710, 300.0298
202.6990, 282.2249
203.9270, 289.3162
205.1550, 261.3079
206.3820, 262.2021
207.6090, 235.0034
208.8370, 300.7283
210.0640, 357.3894
211.2900, 267.9978
212.5170, 298.5608
213.7440, 394.0840
214.9700, 345.5723
216.1960, 369.0286
217.4220, 460.4563
218.6470, 427.8572
219.8730, 449.2341
221.0980, 481.5876
222.3230, 425.9199
223.5480, 462.2314
224.7730, 502.5225
225.9970, 494.7942
227.2220, 531.1184
228.4460, 540.8826
229.6700, 527.4885
230.8940, 587.6152
232.1170, 586.3862
233.3400, 548.4492
234.5640, 612.5962
235.7870, 613.1523
237.0100, 629.0400
238.2320, 672.9038
239.4550, 674.2341
240.6770, 655.7368
241.8990, 684.9646
243.1210, 697.9854
244.3420, 727.6389
245.5640, 772.2803
246.7850, 812.7446
248.0060, 805.3000
249.2270, 763.3259
250.4480, 848.3494
251.6690, 880.7666
252.8890, 815.3853
254.1090, 804.9381
255.3290, 834.3733
256.5490, 811.7549
257.7680, 830.1302
258.9880, 864.4976
260.2070, 808.8547
261.4260, 838.1997
262.6450, 776.5305
263.8640, 742.8466
265.0820, 839.1472
266.3000, 737.4324
267.5180, 784.7024
268.7360, 806.9575
269.9540, 770.1980
271.1720, 769.4238
272.3890, 852.6360
273.6060, 795.8342
274.8230, 839.0188
276.0400, 763.1897
277.2560, 903.3479
278.4730, 896.4929
279.6890, 910.5129
280.9050, 920.7656
282.1210, 918.1685
283.3370, 905.7664
284.5520, 901.4022
285.7670, 868.2271
286.9820, 813.1794
288.1970, 807.2146
289.4120, 696.3208
290.6270, 687.4885
291.8410, 641.7097
293.0550, 590.9771
294.2690, 562.2847
295.4830, 498.6276
296.6970, 477.0005
297.9100, 400.3990
299.1230, 337.8202
300.3360, 396.2603
301.5490, 319.7168
302.7620, 290.1873
303.9740, 308.6694
305.1860, 251.1613
306.3990, 227.6604
307.6110, 180.1644
308.8220, 254.6711
310.0340, 226.1785
311.2450, 219.6852
312.4560, 192.1893
313.6670, 124.6898
314.8780, 121.1859
316.0890, 69.67676
317.2990, 77.16138
318.5090, 109.6394
319.7200, 47.11035
320.9290, 84.57324
322.1390, 37.02808
323.3490, 14.47400
324.5580, 19.09009
325.7670, 11.67285
326.9760, 6.272461
328.1850, 29.88916
329.3930, 12.46899
330.6020, 41.18958
331.8100, 12.88049
333.0180, 44.59900
334.2260, 47.35510
335.4340, 45.15100
336.6410, 7.012939
337.8480, 59.84961
339.0550, 16.75574
340.2620, 75.69373
341.4690, 22.67859
342.6760, 36.69580
343.8820, 59.74854
345.0880, 52.84253
346.2940, 68.30164
347.5000, 25.15112
348.7060, 53.35754
349.9110, 86.60193
351.1160, 21.89233
352.3210, 22.21179
353.5260, 79.55981
354.7310, 9.951416
355.9360, 8.367798
357.1400, 33.80859
358.3440, 42.28040
359.5480, 23.78516
360.7520, 10.68188
361.9550, 15.12952
363.1590, 6.441162
364.3620, 56.96484
365.5650, 19.35535
366.7680, 0.7277830
367.9710, 80.07922
369.1730, 0.5837400
370.3760, 79.73230
371.5780, 96.03394
372.7800, 116.3214
373.9810, 79.59290
375.1830, 102.8245
376.3840, 171.0154
377.5860, 148.1685
378.7870, 198.2729
379.9880, 249.3153
381.1880, 322.3120
382.3890, 345.2483
383.5890, 406.8199
384.7890, 439.9656
385.9890, 505.7351
387.1890, 588.4308
388.3880, 643.0891
389.5880, 759.6924
390.7870, 833.2573
391.9860, 898.7761
393.1850, 1076.281
394.3840, 1256.770
395.5820, 1354.243
396.7800, 1451.704
397.9790, 1653.161
399.1770, 1797.615
400.3740, 1905.065
401.5720, 2092.510
402.7690, 2249.951
403.9670, 2382.387
405.1640, 2406.819
406.3600, 2537.246
407.5570, 2619.669
408.7540, 2574.087
409.9500, 2437.504
411.1460, 2378.916
412.3420, 2300.325
413.5380, 2156.728
414.7330, 2130.125
415.9290, 1923.518
417.1240, 1948.908
418.3190, 1861.297
419.5140, 1773.685
420.7090, 1754.072
421.9030, 1771.455
423.0970, 1839.832
424.2920, 1859.208
425.4860, 1864.579
426.6790, 1981.947
427.8730, 2031.314
429.0660, 2017.677
430.2600, 2210.032
431.4530, 2315.378
432.6460, 2263.717
433.8380, 2398.047
435.0310, 2493.371
436.2230, 2534.686
437.4150, 2551.992
438.6070, 2652.288
439.7990, 2660.573
440.9910, 2756.849
442.1820, 2786.112
443.3730, 2722.364
444.5640, 2860.606
445.7550, 2783.833
446.9460, 2754.051
448.1370, 2834.256
449.3270, 2806.449
450.5170, 2742.632
451.7070, 2633.801
452.8970, 2715.958
454.0870, 2563.101
455.2760, 2537.232
456.4650, 2483.350
457.6550, 2383.457
458.8430, 2262.564
460.0320, 2156.657
461.2210, 2083.740
462.4090, 2014.810
463.5970, 1894.819
464.7850, 1817.095
465.9730, 1726.789
467.1610, 1623.559
468.3480, 1554.564
469.5360, 1457.993
470.7230, 1455.723
471.9100, 1367.929
473.0970, 1346.531
474.2830, 1352.949
475.4700, 1382.105
476.6560, 1319.240
477.8420, 1358.177
479.0280, 1308.215
480.2140, 1364.459
481.3990, 1369.539
482.5850, 1379.291
483.7700, 1322.322
484.9550, 1252.647
486.1400, 1180.068
487.3240, 1094.200
488.5090, 1011.276
489.6930, 902.7725
490.8770, 821.8445
492.0610, 719.1328
493.2450, 595.3096
494.4290, 474.5322
495.6120, 484.7146
496.7950, 341.2769
497.9780, 373.1877
499.1610, 300.1799
500.3440, 266.5535
501.5260, 211.3738
502.7090, 205.3337
503.8910, 170.3953
505.0730, 188.3938
506.2550, 128.4622
507.4360, 124.0977
508.6180, 111.2634
509.7990, 140.7305
510.9800, 145.5881
512.1610, 142.0559
513.3420, 100.8560
514.5230, 138.8452
515.7030, 89.83325
516.8830, 83.63940
518.0630, 136.6724
519.2430, 156.8853
520.4230, 176.3889
521.6020, 137.8701
522.7820, 231.0054
523.9610, 230.0220
525.1400, 275.5151
526.3190, 202.0305
527.4970, 224.4165
528.6760, 295.4475
529.8540, 356.0481
531.0320, 363.0037
532.2100, 385.9910
533.3880, 484.8994
534.5660, 516.3484
535.7430, 607.5889
536.9200, 705.1389
538.0970, 822.8804
539.2740, 948.3513
540.4510, 1141.909
541.6270, 1323.291
542.8040, 1485.489
543.9800, 1812.597
545.1560, 1962.833
546.3320, 2169.881
547.5080, 2394.067
548.6830, 2393.048
549.8580, 2569.284
551.0340, 2475.056
552.2090, 2542.186
553.3830, 2403.249
554.5580, 2444.100
555.7320, 2440.064
556.9070, 2437.004
558.0810, 2330.288
559.2550, 2296.143
560.4280, 2240.707
561.6020, 2173.672
562.7750, 2145.671
563.9490, 1959.396
565.1220, 1741.631
566.2950, 1645.431
567.4670, 1411.854
568.6400, 1226.880
569.8120, 1004.254
570.9840, 894.0046
572.1560, 861.6252
573.3280, 749.7805
574.5000, 700.5715
575.6710, 561.3589
576.8430, 596.0505
578.0140, 544.9531
579.1850, 524.9922
580.3560, 628.5938
581.5260, 678.3577
582.6970, 745.9336
583.8670, 814.5796
585.0370, 903.2490
586.2070, 1025.743
587.3770, 1229.345
588.5460, 1375.911
589.7160, 1602.526
590.8850, 1724.362
592.0540, 1852.793
593.2230, 1784.268
594.3920, 1872.669
595.5600, 1904.958
596.7290, 1943.372
597.8970, 2088.416
599.0650, 2074.463
600.2330, 2141.700
601.4000, 2245.692
602.5680, 2397.943
603.7350, 2429.286
604.9020, 2506.478
606.0690, 2505.892
607.2360, 2349.074
608.4030, 2159.042
609.5690, 1972.261
610.7360, 1810.523
611.9020, 1663.721
613.0680, 1609.655
614.2340, 1537.734
615.3990, 1533.314
616.5650, 1461.461
617.7300, 1501.805
618.8950, 1476.137
620.0600, 1561.389
621.2250, 1491.929
622.3890, 1525.585
623.5540, 1556.518
624.7180, 1513.659
625.8820, 1448.556
627.0460, 1415.910
628.2100, 1415.216
629.3730, 1318.928
630.5370, 1303.350
631.7000, 1238.793
632.8630, 1176.226
634.0260, 995.4766
635.1890, 907.6194
636.3510, 727.3489
637.5140, 558.0417
638.6760, 519.0776
639.8380, 330.1980
641.0000, 198.2634
642.1610, 190.3279
643.3230, 220.3867
644.4840, 88.86865
645.6450, 65.11987
646.8060, 96.96680
647.9670, 104.7666
649.1280, 68.75049
650.2880, 50.86450
651.4490, 47.73730
652.6090, 65.69287
653.7690, 45.98315
654.9290, 61.54150
656.0880, 70.55835
657.2480, 42.69019
658.4070, 30.24561
659.5660, 50.34204
660.7250, 74.12549
661.8840, 38.07861
663.0430, 60.88086
664.2010, 16.53125
665.3600, 15.82202
666.5180, 22.48145
667.6760, 54.11450
668.8330, 10.72412
669.9910, 66.46826
671.1480, 57.41309
672.3060, 79.93872
673.4630, 25.77051
674.6200, 41.28760
675.7770, 24.54541
676.9330, 16.29395
678.0900, 27.41406
679.2460, 22.78198
680.4020, 32.53833
681.5580, 44.28320
682.7140, 50.70605
683.8690, 40.26099
685.0250, 54.98999
686.1800, 41.81543
687.3350, 59.91699
688.4900, 37.07056
689.6450, 14.76611
690.7990, 43.03931
691.9540, 47.11523
693.1080, 70.15625
694.2620, 53.17261
695.4160, 54.16406
696.5700, 30.44629
697.7230, 10.38379
698.8770, 18.35132
700.0300, 7.981689
701.1830, 44.05151
702.3360, 78.55688
703.4890, 31.70288
704.6410, 61.94067
705.7930, 23.69824
706.9460, 7.410889
708.0980, 24.22070
709.2500, 59.88013
710.4010, 82.49292
711.5530, 30.08203
712.7040, 49.77222
713.8560, 11.56812
715.0070, 58.24609
716.1580, 39.72314
717.3080, 32.17310
718.4590, 62.59521
719.6090, 43.99390
720.7590, 60.36719
721.9090, 49.71655
723.0590, 46.04175
724.2090, 67.34204
725.3590, 47.78882
726.5080, 48.93237
727.6570, 43.10132
728.8060, 30.30615
729.9550, 60.48413
731.1040, 49.63989
732.2530, 58.77173
733.4010, 80.88135
734.5490, 48.96948
735.6970, 18.03491
736.8450, 17.92896
737.9930, 75.06128
739.1400, 17.03003
740.2880, 61.97021
741.4350, 40.88892
742.5820, 66.78540
743.7290, 32.66064
744.8760, 59.51245
746.0220, 36.65674
747.1690, 43.12012
748.3150, 5.875488
749.4610, 41.59961
750.6070, 11.30249
751.7530, 75.97705
752.8980, 18.63184
754.0440, 10.73901
755.1890, 30.14844
756.3340, 38.39380
757.4790, 64.08496
758.6240, 34.62988
759.7680, 12.77490
760.9130, 25.84595
762.0570, 32.48804
763.2010, 10.19800
764.3450, 33.92065
765.4890, 1.691650
766.6320, 40.49390
767.7760, 20.34717
768.9190, 37.24072
770.0620, 11.81714
771.2050, 19.14819
772.3480, 2.151367
773.4900, 3.815918
774.6330, 3.960449
775.7750, 2.323975
776.9170, 15.56592
778.0590, 43.43701
779.2010, 33.11792
780.3420, 19.12769
781.4840, 13.05249
782.6250, 10.26367
783.7660, 20.57129
784.9070, 4.845215
786.0480, 13.85571
787.1890, 43.52100
788.3290, 6.028320
789.4690, 45.57568
790.6100, 97.10376
791.7490, 22.80933
792.8890, 3.512939
794.0290, 34.14478
795.1680, 57.97095
796.3080, 0.9768070
797.4470, 37.15698
798.5860, 19.62280
799.7250, 66.63013
800.8630, 33.55981
802.0020, 9.998047
803.1400, 15.51587
804.2780, 49.13770
805.4160, 33.81421
806.5540, 1.541748
807.6920, 7.553467
808.8300, 56.61938
809.9670, 94.64087
811.1040, 42.24512
812.2410, 38.66943
813.3780, 73.56885
814.5150, 0.5969240
815.6510, 17.87671
816.7880, 33.94946
817.9240, 12.62354
819.0600, 4.135010
820.1960, 9.574463
821.3320, 0.1616210
822.4670, 23.42114
823.6030, 57.84766
824.7380, 15.46362
825.8730, 19.19360
827.0080, 7.405762
828.1430, 2.006592
829.2770, 18.46851
830.4120, 16.12549
831.5460, 27.67798
832.6800, 13.80811
833.8140, 29.36768
834.9480, 3.043701
836.0810, 28.17969
837.2150, 11.73657
838.3480, 27.36841
839.4810, 44.69531
840.6140, 21.57764
841.7470, 4.2725001E-02
842.8800, 1.855225
844.0120, 8.865723
845.1450, 5.1514000E-02
846.2770, 37.57788
847.4090, 48.22070
848.5410, 8.685059
849.6720, 47.24023
850.8040, 11.81104
851.9350, 56.69946
853.0660, 113.9871
854.1970, 133.1252
855.3280, 27.68872
856.4590, 65.07812
857.5900, 21.64355
858.7200, 100.1272
859.8500, 63.57642
860.9800, 139.1899
862.1100, 77.68408
863.2400, 142.2034
864.3700, 128.6641
865.4990, 171.8921
866.6280, 127.5156
867.7570, 152.0864
868.8860, 94.72046
870.0150, 143.4568
871.1440, 133.0603
872.2720, 76.02271
873.4010, 93.97485
874.5290, 69.72827
875.6570, 144.7188
876.7850, 146.4407
877.9120, 48.06372
879.0400, 127.8303
880.1670, 45.36768
881.2940, 93.13037
882.4210, 118.1023
883.5480, 104.8237
884.6750, 169.5049
885.8020, 222.2495
886.9280, 242.2651
888.0540, 318.1328
889.1800, 261.5088
890.3060, 425.3206
891.4320, 439.9475
892.5580, 595.7766
893.6830, 540.3452
894.8080, 550.7998
895.9330, 618.1577
897.0580, 648.2441
898.1830, 755.1541
899.3080, 754.3167
900.4320, 769.0356
901.5570, 853.8281
902.6810, 853.2522
903.8050, 851.0063
904.9290, 948.7666
906.0520, 953.5732
907.1760, 1073.609
908.2990, 1111.782
909.4230, 1204.400
910.5460, 1255.086
911.6690, 1484.459
912.7910, 1716.770
913.9140, 1792.161
915.0360, 2148.587
916.1590, 2405.043
917.2810, 2787.079
918.4030, 3161.352
919.5240, 3596.037
920.6460, 3836.771
921.7680, 4174.325
922.8890, 4386.766
924.0100, 4403.615
925.1310, 4272.058
926.2520, 4103.335
927.3730, 3722.346
928.4930, 3188.901
929.6130, 2721.352
930.7340, 2284.395
931.8540, 1920.909
932.9740, 1729.743
934.0930, 1594.415
935.2130, 1485.255
936.3320, 1534.249
937.4520, 1597.603
938.5710, 1720.594
939.6900, 1938.613
940.8090, 2086.661
941.9270, 2283.594
943.0460, 2585.338
944.1640, 2844.503
945.2820, 3209.381
946.4000, 3687.581
947.5180, 4353.056
948.6360, 5281.367
949.7530, 6342.665
950.8710, 7856.043
951.9880, 9746.040
953.1050, 12181.06
954.2220, 15577.40
955.3390, 19254.62
956.4550, 23754.13
957.5720, 28962.71
958.6880, 34303.32
959.8040, 39522.95
960.9200, 44439.05
962.0360, 48427.57
963.1520, 51971.30
964.2670, 54972.06
965.3820, 56558.86
966.4980, 57188.68
967.6130, 56102.23
968.7280, 53650.12
969.8420, 49217.00
970.9570, 43667.20
972.0710, 36965.97
973.1850, 30524.31
974.3000, 24361.01
975.4140, 19260.64
976.5270, 15221.74
977.6410, 12036.90
978.7540, 9269.964
979.8680, 7678.185
980.9810, 6443.458
982.0940, 5796.766
983.2070, 5258.977
984.3200, 5007.092
985.4320, 4845.330
986.5440, 4723.777
987.6570, 4837.260
988.7690, 4821.778
989.8810, 4995.329
990.9920, 5138.914
992.1040, 5185.533
993.2160, 5350.186
994.3270, 5353.875
995.4380, 5262.595
996.5490, 5069.351
997.6600, 5046.140
998.7710, 4847.965
999.8810, 4657.826
1000.991, 4389.720
1002.102, 4093.648
1003.212, 3875.611
1004.322, 3532.606
1005.431, 3205.637
1006.541, 3127.707
1007.651, 2917.825
1008.760, 2895.978
1009.869, 2837.168
1010.978, 2826.392
1012.087, 2868.660
1013.195, 2867.964
1014.304, 2980.302
1015.412, 3072.168
1016.521, 3307.098
1017.629, 3337.556
1018.737, 3552.056
1019.844, 3698.590
1020.952, 3872.163
1022.059, 3943.770
1023.167, 4142.414
1024.274, 4330.104
1025.381, 4225.847
1026.488, 4303.626
1027.594, 4297.462
1028.701, 4076.353
1029.807, 4110.283
1030.913, 3852.301
1032.019, 3724.312
1033.125, 3451.699
1034.231, 3345.939
1035.337, 3091.560
1036.442, 2913.814
1037.548, 2614.735
1038.653, 2461.878
1039.758, 2221.768
1040.863, 2136.302
1041.967, 1941.352
1043.072, 1821.594
1044.176, 1727.208
1045.280, 1545.777
1046.384, 1541.243
1047.488, 1542.001
1048.592, 1481.598
1049.696, 1436.223
1050.799, 1440.211
1051.903, 1431.908
1053.006, 1389.646
1054.109, 1545.419
1055.212, 1656.253
1056.314, 1604.125
1057.417, 1699.060
1058.519, 1778.086
1059.621, 1871.068
1060.724, 1888.234
1061.826, 1843.450
1062.927, 1939.279
1064.029, 1875.131
1065.130, 1827.403
1066.232, 1900.579
1067.333, 1756.216
1068.434, 1808.508
1069.535, 1752.834
1070.636, 1652.402
1071.736, 1665.785
1072.837, 1684.517
1073.937, 1667.704
1075.037, 1719.006
1076.137, 1718.904
1077.237, 1806.528
1078.337, 1837.312
1079.436, 1887.013
1080.535, 1810.028
1081.635, 1991.711
1082.734, 1966.320
1083.833, 2124.865
1084.931, 2081.270
1086.030, 2125.303
1087.128, 2223.208
1088.227, 2323.046
1089.325, 2125.907
1090.423, 2210.789
1091.521, 2182.693
1092.618, 2157.620
1093.716, 2153.084
1094.813, 2086.552
1095.911, 2055.555
1097.008, 1964.580
1098.105, 1865.626
1099.202, 1800.692
1100.298, 1729.652
1101.395, 1667.222
1102.491, 1602.020
1103.587, 1529.175
1104.683, 1437.354
1105.779, 1296.557
1106.875, 1266.790
1107.971, 1197.046
1109.066, 1137.322
1110.161, 1093.719
1111.256, 941.9282
1112.351, 952.2598
1113.446, 893.6089
1114.541, 732.9756
1115.636, 735.3630
1116.730, 659.7744
1117.824, 545.2046
1118.918, 444.6511
1120.012, 408.1155
1121.106, 398.5967
1122.200, 389.0933
1123.293, 378.6050
1124.387, 337.1318
1125.480, 316.6741
1126.573, 285.2324
1127.666, 227.8054
1128.759, 170.3928
1129.851, 199.9951
1130.944, 200.6108
1132.036, 199.2410
1133.128, 254.8843
1134.220, 217.5408
1135.312, 118.2104
1136.404, 141.8931
1137.495, 155.0239
1138.587, 178.2437
1139.678, 138.9636
1140.769, 207.6956
1141.860, 132.4463
1142.951, 173.5630
1144.041, 174.3425
1145.132, 153.1328
1146.222, 151.9348
1147.313, 96.74658
1148.403, 167.6343
1149.493, 202.8059
1150.582, 130.7886
1151.672, 185.6487
1152.761, 247.6021
1153.851, 112.4839
1154.940, 153.8906
1156.029, 232.1646
1157.118, 224.0549
1158.207, 76.14185
1159.295, 132.6172
1160.384, 88.52783
1161.472, 51.55542
1162.560, 24.47192
1163.648, 11.62012
1164.736, 30.71143
1165.824, 92.80981
1166.911, 84.70166
1167.999, 77.10645
1169.086, 79.30371
1170.173, 90.53247
1171.260, 82.79810
1172.347, 90.09888
1173.434, 18.43823
1174.520, 96.78442
1175.606, 60.17456
1176.693, 38.59106
1177.779, 78.02466
1178.865, 38.48340
1179.951, 71.65601
1181.036, 3.831055
1182.122, 37.67773
1183.207, 59.03345
1184.292, 25.59521
1185.377, 34.55957
1186.462, 5.929688
1187.547, 5.416016
1188.632, 4.674805
1189.716, 56.15430
1190.800, 4.631836
1191.885, 32.89575
1192.969, 41.91699
1194.052, 40.73560
1195.136, 10.96045
1196.220, 7.455566
1197.303, 49.05029
1198.387, 28.68945
1199.470, 30.01685
1200.553, 9.660400
1201.636, 27.64624
1202.718, 9.334473
1203.801, 65.37329
1204.883, 6.819092
1205.966, 26.47852
1207.048, 36.67529
1208.130, 4.336182
1209.211, 35.16772
1210.293, 13.13940
1211.375, 41.86719
1212.456, 2.983154
1213.537, 11.71484
1214.618, 9.477783
1215.699, 20.59521
1216.780, 27.57324
1217.861, 99.78198
1218.941, 88.88867
1220.022, 139.9114
1221.102, 66.14258
1222.182, 72.14868
1223.262, 131.6846
1224.342, 112.4993
1225.422, 150.4246
1226.501, 111.3804
1227.580, 189.6797
1228.660, 122.6292
1229.739, 119.5684
1230.818, 127.5996
1231.896, 158.9551
1232.975, 141.5386
1234.054, 140.1162
1235.132, 126.0442
1236.210, 110.1003
1237.288, 103.1511
1238.366, 91.30957
1239.444, 170.1863
1240.521, 97.23853
1241.599, 227.0740
1242.676, 124.8972
1243.753, 109.8213
1244.830, 192.3755
1245.907, 161.3228
1246.984, 146.4319
1248.061, 103.2126
1249.137, 118.3779
1250.214, 177.2773
1251.290, 102.9976
1252.366, 164.7048
1253.442, 124.3979
1254.517, 119.1741
1255.593, 89.19409
1256.668, 86.39111
1257.744, 76.97510
1258.819, 91.43042
1259.894, 93.08740
1260.969, 106.8325
1262.044, 171.4114
1263.118, 89.97485
1264.193, 111.6443
1265.267, 138.3164
1266.341, 55.83789
1267.415, 53.69141
1268.489, 135.1724
1269.563, 115.7822
1270.636, 133.9016
1271.710, 9.917236
1272.783, 100.4858
1273.856, 103.9695
1274.929, 179.6777
1276.002, 158.0242
1277.075, 88.35376
1278.147, 71.08350
1279.220, 84.48511
1280.292, 98.77075
1281.364, 90.22437
1282.436, 100.5017
1283.508, 65.72119
1284.580, 36.91797
1285.652, 141.1191
1286.723, 87.26782
1287.794, 33.53003
1288.865, 154.6523
1289.936, 197.8552
1291.007, 93.87402
1292.078, 175.9148
1293.149, 145.6025
1294.219, 184.5288
1295.289, 109.0332
1296.360, 132.9358
1297.430, 114.1965
1298.499, 111.4705
