##NAMES=Whitlockite
##RRUFFID=R070675
##IDEAL CHEMISTRY=Ca_9_Mg(PO_4_)_6_(PO_3_OH)
##LOCALITY=Palermo mine, North Groton, New Hampshire, USA
##OWNER=RRUFF
##SOURCE=Rock Currier
##DESCRIPTION=Colorless blocky modified rhombic crystals
##STATUS=The identification of this mineral is confirmed by single-crystal X-ray diffraction and chemical analysis.
##URL=rruff.info/R070675
##MEASURED CHEMISTRY=(Ca_8.70_Na_0.27_Sr_0.02_Mn_0.01_)_Σ=9_(Mg_0.73_Fe^3+^_0.19_Al_0.08_)_Σ=1_(P_1.00_O_4_)_6_(P_1.00_O_3_((OH)_0.58_F_0.42_)_Σ=1_); OH estimated by charge balance
##PIN_ID=M00295
##ORIENTATION=Laser parallel to c* (0 0 1). Fiducial mark perpendicular to laser is parallel to a [1 0 0]
132.3880, 0.0000000E+00
133.6270, 81.27588
134.8650, 1.676270
136.1040, 5.041260
137.3420, 34.70532
138.5800, 6.852783
139.8180, 78.54297
141.0560, 21.32520
142.2940, 57.07495
143.5310, 158.4575
144.7680, 239.2024
146.0050, 291.1118
147.2420, 317.0620
148.4790, 434.9475
149.7150, 549.6580
150.9510, 653.0869
152.1870, 687.1370
153.4230, 823.7236
154.6590, 871.7742
155.8940, 928.2285
157.1300, 911.0491
158.3650, 1030.262
159.6000, 1003.906
160.8340, 1114.987
162.0690, 1095.468
163.3030, 1059.293
164.5370, 1034.403
165.7710, 1042.745
167.0050, 1009.277
168.2380, 1041.961
169.4720, 1077.769
170.7050, 1139.675
171.9380, 1068.662
173.1700, 1218.716
174.4030, 1295.826
175.6350, 1233.983
176.8680, 1165.181
178.1000, 1259.413
179.3310, 1083.678
180.5630, 910.0322
181.7940, 830.7605
183.0260, 760.8906
184.2570, 652.5884
185.4870, 622.7683
186.7180, 533.2905
187.9480, 488.0791
189.1790, 399.0574
190.4090, 371.0298
191.6390, 323.9517
192.8680, 320.7754
194.0980, 349.4836
195.3270, 286.8467
196.5560, 186.4653
197.7850, 227.7417
199.0140, 215.8838
200.2420, 249.8979
201.4710, 200.7896
202.6990, 253.5640
203.9270, 249.2266
205.1550, 168.7817
206.3820, 195.2373
207.6090, 193.6052
208.8370, 234.8975
210.0640, 224.1255
211.2900, 305.2996
212.5170, 351.4258
213.7440, 314.5095
214.9700, 297.5542
216.1960, 373.5635
217.4220, 399.5405
218.6470, 412.4868
219.8730, 387.4043
221.0980, 492.2947
222.3230, 487.1589
223.5480, 521.9978
224.7730, 470.8125
225.9970, 496.8428
227.2220, 490.3760
228.4460, 568.9536
229.6700, 525.6409
230.8940, 545.4292
232.1170, 613.7153
233.3400, 516.4641
234.5640, 613.8867
235.7870, 595.6821
237.0100, 598.8215
238.2320, 626.2822
239.4550, 651.9626
240.6770, 594.5662
241.8990, 747.7021
243.1210, 684.3071
244.3420, 788.7900
245.5640, 763.6143
246.7850, 759.1187
248.0060, 718.1936
249.2270, 816.2273
250.4480, 798.1973
251.6690, 822.8398
252.8890, 831.5044
254.1090, 757.7175
255.3290, 860.3682
256.5490, 881.3293
257.7680, 900.1072
258.9880, 792.8735
260.2070, 896.6257
261.4260, 754.3623
262.6450, 818.0823
263.8640, 890.7854
265.0820, 798.4705
266.3000, 829.1387
267.5180, 810.7888
268.7360, 816.4219
269.9540, 790.0383
271.1720, 831.6384
272.3890, 825.2227
273.6060, 848.7910
274.8230, 820.3445
276.0400, 910.8831
277.2560, 939.4070
278.4730, 950.9165
279.6890, 944.0076
280.9050, 948.9875
282.1210, 998.8560
283.3370, 965.5552
284.5520, 1008.456
285.7670, 922.8201
286.9820, 925.3442
288.1970, 888.9337
289.4120, 787.5801
290.6270, 766.2739
291.8410, 687.0095
293.0550, 660.7808
294.2690, 606.5828
295.4830, 552.0718
296.6970, 499.2610
297.9100, 466.1295
299.1230, 423.0133
300.3360, 414.0776
301.5490, 350.8168
302.7620, 343.7322
303.9740, 313.6539
305.1860, 232.5804
306.3990, 253.5094
307.6110, 258.4385
308.8220, 175.3662
310.0340, 179.2904
311.2450, 164.2100
312.4560, 134.1234
313.6670, 138.0299
314.8780, 95.92896
316.0890, 134.8195
317.2990, 131.7012
318.5090, 61.57349
319.7200, 27.43518
320.9290, 57.28540
322.1390, 10.87549
323.3490, 22.94556
324.5580, 51.24609
325.7670, 27.46667
326.9760, 27.71094
328.1850, 51.01953
329.3930, 56.26685
330.6020, 9.590576
331.8100, 5.941895
333.0180, 77.32153
334.2260, 46.74963
335.4340, 79.21924
336.6410, 37.73889
337.8480, 50.29810
339.0550, 23.89929
340.2620, 81.53552
341.4690, 66.22095
342.6760, 33.95166
343.8820, 63.71814
345.0880, 6.527954
346.2940, 22.36548
347.5000, 25.23462
348.7060, 50.13550
349.9110, 29.07422
351.1160, 45.04456
352.3210, 54.05078
353.5260, 32.09497
354.7310, 7.170532
355.9360, 9.728760
357.1400, 27.39197
358.3440, 5.457397
359.5480, 9.714355
360.7520, 25.08899
361.9550, 1.873901
363.1590, 44.63708
364.3620, 0.6173100
365.5650, 20.10632
366.7680, 22.18811
367.9710, 46.48975
369.1730, 75.15100
370.3760, 79.79590
371.5780, 41.42334
372.7800, 18.03064
373.9810, 39.88501
375.1830, 44.65393
376.3840, 70.60474
377.5860, 123.0331
378.7870, 118.4015
379.9880, 193.6954
381.1880, 188.9297
382.3890, 274.0994
383.5890, 317.2078
384.7890, 414.2668
385.9890, 431.2856
387.1890, 480.2543
388.3880, 577.1669
389.5880, 690.0450
390.7870, 810.8948
391.9860, 913.7211
393.1850, 1011.530
394.3840, 1064.323
395.5820, 1212.091
396.7800, 1284.849
397.9790, 1436.597
399.1770, 1594.334
400.3740, 1736.063
401.5720, 1922.789
402.7690, 2056.510
403.9670, 2161.227
405.1640, 2334.947
406.3600, 2415.666
407.5570, 2495.381
408.7540, 2405.089
409.9500, 2438.795
411.1460, 2306.503
412.3420, 2216.217
413.5380, 2126.926
414.7330, 2017.632
415.9290, 1909.333
417.1240, 1902.031
418.3190, 1767.724
419.5140, 1916.414
420.7090, 1829.099
421.9030, 1813.777
423.0970, 1808.454
424.2920, 1813.132
425.4860, 1851.411
426.6790, 1958.481
427.8730, 1971.148
429.0660, 2046.809
430.2600, 2147.462
431.4530, 2155.104
432.6460, 2263.744
433.8380, 2310.382
435.0310, 2427.013
436.2230, 2474.633
437.4150, 2438.248
438.6070, 2529.850
439.7990, 2601.444
440.9910, 2620.028
442.1820, 2755.598
443.3730, 2600.156
444.5640, 2750.702
445.7550, 2758.245
446.9460, 2829.776
448.1370, 2706.294
449.3270, 2801.802
450.5170, 2734.297
451.7070, 2790.780
452.8970, 2665.248
454.0870, 2569.704
455.2760, 2469.147
456.4650, 2483.597
457.6550, 2375.034
458.8430, 2428.466
460.0320, 2353.882
461.2210, 2263.286
462.4090, 2116.528
463.5970, 2020.597
464.7850, 1957.787
465.9730, 1828.660
467.1610, 1755.625
468.3480, 1726.891
469.5360, 1591.615
470.7230, 1467.289
471.9100, 1433.343
473.0970, 1464.158
474.2830, 1343.875
475.4700, 1406.787
476.6560, 1383.188
477.8420, 1366.476
479.0280, 1407.695
480.2140, 1422.494
481.3990, 1345.475
482.5850, 1431.086
483.7700, 1325.053
484.9550, 1312.955
486.1400, 1206.858
487.3240, 1144.883
488.5090, 1068.476
489.6930, 986.0542
490.8770, 902.4506
492.0610, 815.2722
493.2450, 716.7305
494.4290, 564.5251
495.6120, 513.0623
496.7950, 418.9651
497.9780, 324.4214
499.1610, 348.7739
500.3440, 321.9470
501.5260, 227.1497
502.7090, 182.4163
503.8910, 163.9639
505.0730, 100.9399
506.2550, 147.6357
507.4360, 169.4302
508.6180, 127.9722
509.7990, 134.3840
510.9800, 98.23315
512.1610, 198.0364
513.3420, 109.9395
514.5230, 156.6516
515.7030, 124.1743
516.8830, 122.0264
518.0630, 158.9912
519.2430, 120.9939
520.4230, 157.0549
521.6020, 207.1895
522.7820, 184.2417
523.9610, 184.4636
525.1400, 218.7600
526.3190, 294.1384
527.4970, 271.6074
528.6760, 299.1494
529.8540, 365.8118
531.0320, 329.4253
532.2100, 354.7271
533.3880, 465.0027
534.5660, 589.2126
535.7430, 645.4033
536.9200, 691.5815
538.0970, 825.7295
539.2740, 972.0962
540.4510, 1113.288
541.6270, 1392.042
542.8040, 1577.195
543.9800, 1777.380
545.1560, 2063.073
546.3320, 2228.165
547.5080, 2361.537
548.6830, 2483.960
549.8580, 2540.280
551.0340, 2523.860
552.2090, 2551.654
553.3830, 2539.772
554.5580, 2440.812
555.7320, 2524.708
556.9070, 2492.854
558.0810, 2549.423
559.2550, 2420.830
560.4280, 2451.336
561.6020, 2422.425
562.7750, 2255.542
563.9490, 2062.262
565.1220, 1903.197
566.2950, 1712.998
567.4670, 1467.541
568.6400, 1303.591
569.8120, 1124.361
570.9840, 978.4854
572.1560, 836.4094
573.3280, 733.0115
574.5000, 667.6797
575.6710, 593.7441
576.8430, 611.6055
578.0140, 618.9106
579.1850, 656.7458
580.3560, 593.1892
581.5260, 675.4502
582.6970, 744.1592
583.8670, 841.0269
585.0370, 942.7681
586.2070, 1084.931
587.3770, 1202.848
588.5460, 1348.541
589.7160, 1467.925
590.8850, 1695.795
592.0540, 1804.432
593.2230, 1844.167
594.3920, 1803.923
595.5600, 1916.626
596.7290, 1901.150
597.8970, 1906.833
599.0650, 2071.222
600.2330, 2206.642
601.4000, 2255.276
602.5680, 2534.797
603.7350, 2601.489
604.9020, 2594.836
606.0690, 2487.057
607.2360, 2405.378
608.4030, 2176.893
609.5690, 1956.316
610.7360, 1915.026
611.9020, 1699.474
613.0680, 1616.226
614.2340, 1600.799
615.3990, 1531.155
616.5650, 1511.926
617.7300, 1505.794
618.8950, 1513.574
620.0600, 1498.771
621.2250, 1565.286
622.3890, 1537.562
623.5540, 1486.915
624.7180, 1531.218
625.8820, 1494.524
627.0460, 1498.208
628.2100, 1419.633
629.3730, 1359.379
630.5370, 1388.171
631.7000, 1238.531
632.8630, 1239.538
634.0260, 1084.567
635.1890, 941.8198
636.3510, 690.3345
637.5140, 609.9355
638.6760, 428.2456
639.8380, 318.8076
641.0000, 273.2561
642.1610, 183.4580
643.3230, 171.1453
644.4840, 127.9294
645.6450, 130.2397
646.8060, 154.3730
647.9670, 69.66626
649.1280, 103.7664
650.2880, 51.06152
651.4490, 101.2678
652.6090, 78.31299
653.7690, 75.07886
654.9290, 63.81152
656.0880, 38.08130
657.2480, 28.60815
658.4070, 46.72632
659.5660, 87.22827
660.7250, 64.05347
661.8840, 110.9937
663.0430, 73.70850
664.2010, 59.84473
665.3600, 50.65356
666.5180, 38.42822
667.6760, 32.56860
668.8330, 22.86426
669.9910, 26.71509
671.1480, 56.37744
672.3060, 62.81274
673.4630, 79.29077
674.6200, 82.16064
675.7770, 86.59766
676.9330, 91.13135
678.0900, 50.63940
679.2460, 75.20557
680.4020, 21.66040
681.5580, 6.084229
682.7140, 68.71948
683.8690, 23.08228
685.0250, 8.770752
686.1800, 3.536133
687.3350, 45.92529
688.4900, 56.17163
689.6450, 37.11206
690.7990, 1.808594
691.9540, 18.86719
693.1080, 94.28198
694.2620, 23.32495
695.4160, 74.44946
696.5700, 39.39111
697.7230, 50.76489
698.8770, 43.68579
700.0300, 78.57593
701.1830, 72.43945
702.3360, 31.27539
703.4890, 1.084473
704.6410, 26.84375
705.7930, 7.662109
706.9460, 69.70874
708.0980, 27.87305
709.2500, 59.49707
710.4010, 85.09277
711.5530, 7.509277
712.7040, 0.9621580
713.8560, 25.52100
715.0070, 83.96997
716.1580, 10.39331
717.3080, 80.77710
718.4590, 32.13525
719.6090, 38.46216
720.7590, 96.75879
721.9090, 61.03076
723.0590, 79.27588
724.2090, 7.503906
725.3590, 49.66919
726.5080, 75.81519
727.6570, 25.93628
728.8060, 47.02588
729.9550, 74.08838
731.1040, 53.12622
732.2530, 49.13843
733.4010, 51.12476
734.5490, 49.91479
735.6970, 47.97900
736.8450, 1.152832
737.9930, 88.67456
739.1400, 44.47876
740.2880, 12.25781
741.4350, 8.003418
742.5820, 97.71411
743.7290, 16.40234
744.8760, 86.05957
746.0220, 39.69458
747.1690, 49.30518
748.3150, 27.89307
749.4610, 40.45459
750.6070, 23.99243
751.7530, 4.504150
752.8980, 47.98096
754.0440, 20.43604
755.1890, 100.8640
756.3340, 36.27051
757.4790, 8.654297
758.6240, 26.00757
759.7680, 58.33667
760.9130, 34.64502
762.0570, 46.93091
763.2010, 45.19556
764.3450, 34.56079
765.4890, 23.63110
766.6320, 12.80029
767.7760, 54.05664
768.9190, 15.97363
770.0620, 10.93091
771.2050, 27.92456
772.3480, 34.03662
773.4900, 5.021729
774.6330, 7.112305
775.7750, 19.23560
776.9170, 24.16138
778.0590, 23.12695
779.2010, 8.841797
780.3420, 24.11523
781.4840, 0.5727540
782.6250, 8.764648
783.7660, 15.86816
784.9070, 6.530762
786.0480, 19.97168
787.1890, 12.45068
788.3290, 12.11792
789.4690, 26.56982
790.6100, 39.16895
791.7490, 23.83325
792.8890, 17.58325
794.0290, 5.474854
795.1680, 33.47168
796.3080, 40.80151
797.4470, 14.19214
798.5860, 82.11597
799.7250, 47.92114
800.8630, 55.93311
802.0020, 52.05859
803.1400, 21.69678
804.2780, 18.66138
805.4160, 31.88013
806.5540, 23.72095
807.6920, 11.69946
808.8300, 54.58936
809.9670, 34.88647
811.1040, 9.146240
812.2410, 43.40942
813.3780, 6.309326
814.5150, 42.03906
815.6510, 1.469727
816.7880, 35.17578
817.9240, 58.24072
819.0600, 8.114014
820.1960, 30.47998
821.3320, 64.45239
822.4670, 29.81641
823.6030, 72.48364
824.7380, 52.23486
825.8730, 24.90942
827.0080, 63.86621
828.1430, 9.067139
829.2770, 3.583008
830.4120, 18.90698
831.5460, 59.44946
832.6800, 34.08154
833.8140, 67.15967
834.9480, 19.89722
836.0810, 36.83789
837.2150, 28.18115
838.3480, 8.479248
839.4810, 3.158691
840.6140, 5.608887
841.7470, 22.82324
842.8800, 10.98535
844.0120, 53.72900
845.1450, 25.81567
846.2770, 15.99072
847.4090, 37.64746
848.5410, 59.06592
849.6720, 47.28882
850.8040, 50.77856
851.9350, 92.14355
853.0660, 89.05249
854.1970, 44.41748
855.3280, 132.1619
856.4590, 155.0764
857.5900, 140.5308
858.7200, 220.8145
859.8500, 112.2129
860.9800, 170.1782
862.1100, 141.3782
863.2400, 198.7910
864.3700, 194.5010
865.4990, 181.7156
866.6280, 159.1538
867.7570, 186.4827
868.8860, 165.7808
870.0150, 192.1230
871.1440, 119.6338
872.2720, 185.9771
873.4010, 93.60522
874.5290, 189.1951
875.6570, 79.56055
876.7850, 115.0315
877.9120, 116.3254
879.0400, 170.9570
880.1670, 93.70801
881.2940, 162.3589
882.4210, 170.8113
883.5480, 199.3672
884.6750, 222.6406
885.8020, 241.1826
886.9280, 241.4155
888.0540, 324.8416
889.1800, 402.4858
890.3060, 515.7178
891.4320, 426.4714
892.5580, 474.1284
893.6830, 573.9883
894.8080, 643.5420
895.9330, 766.3491
897.0580, 778.0869
898.1830, 821.8989
899.3080, 836.7268
900.4320, 921.1892
901.5570, 965.9355
902.6810, 1021.376
903.8050, 1068.790
904.9290, 1087.669
906.0520, 1212.937
907.1760, 1225.217
908.2990, 1349.312
909.4230, 1493.188
910.5460, 1513.005
911.6690, 1659.127
912.7910, 1965.003
913.9140, 2193.021
915.0360, 2586.013
916.1590, 2835.141
917.2810, 3330.911
918.4030, 3749.160
919.5240, 4375.602
920.6460, 4609.896
921.7680, 5161.386
922.8890, 5373.696
924.0100, 5382.103
925.1310, 5344.675
926.2520, 4864.536
927.3730, 4397.433
928.4930, 3890.798
929.6130, 3248.925
930.7340, 2731.464
931.8540, 2316.623
932.9740, 2008.474
934.0930, 1835.236
935.2130, 1839.237
936.3320, 1825.835
937.4520, 1836.767
938.5710, 1965.750
939.6900, 2078.305
940.8090, 2354.884
941.9270, 2478.832
943.0460, 2820.979
944.1640, 3136.365
945.2820, 3615.949
946.4000, 4123.828
947.5180, 4778.104
948.6360, 5734.429
949.7530, 6907.799
950.8710, 8394.118
951.9880, 10376.55
953.1050, 13150.02
954.2220, 16519.28
955.3390, 20896.81
956.4550, 25722.57
957.5720, 31340.17
958.6880, 37648.68
959.8040, 43585.34
960.9200, 48449.33
962.0360, 52932.56
963.1520, 56231.16
964.2670, 58580.93
965.3820, 60535.82
966.4980, 61436.63
967.6130, 60743.63
968.7280, 58338.20
969.8420, 53989.23
970.9570, 47603.30
972.0710, 40680.41
973.1850, 34097.54
974.3000, 27672.72
975.4140, 21784.95
976.5270, 17183.75
977.6410, 13454.06
978.7540, 10674.90
979.8680, 8721.288
980.9810, 7268.711
982.0940, 6390.324
983.2070, 5760.828
984.3200, 5445.378
985.4320, 5309.970
986.5440, 5240.598
987.6570, 5316.270
988.7690, 5344.979
989.8810, 5365.728
990.9920, 5585.517
992.1040, 5646.342
993.2160, 5765.207
994.3270, 5819.107
995.4380, 5854.056
996.5490, 5812.563
997.6600, 5736.070
998.7710, 5571.137
999.8810, 5366.242
1000.991, 5070.385
1002.102, 4712.567
1003.212, 4450.786
1004.322, 4149.044
1005.431, 3821.363
1006.541, 3533.719
1007.651, 3460.122
1008.760, 3319.563
1009.869, 3193.043
1010.978, 3329.568
1012.087, 3237.142
1013.195, 3348.754
1014.304, 3464.408
1015.412, 3578.099
1016.521, 3683.830
1017.629, 3837.599
1018.737, 4039.415
1019.844, 4186.269
1020.952, 4298.163
1022.059, 4438.101
1023.167, 4757.076
1024.274, 4845.097
1025.381, 4947.157
1026.488, 4899.258
1027.594, 4856.008
1028.701, 4864.583
1029.807, 4622.806
1030.913, 4459.063
1032.019, 4320.361
1033.125, 4053.695
1034.231, 3810.050
1035.337, 3617.666
1036.442, 3228.391
1037.548, 3091.571
1038.653, 2800.250
1039.758, 2619.054
1040.863, 2417.429
1041.967, 2146.527
1043.072, 2081.349
1044.176, 1917.283
1045.280, 1745.715
1046.384, 1691.650
1047.488, 1567.610
1048.592, 1555.605
1049.696, 1434.454
1050.799, 1534.488
1051.903, 1535.102
1053.006, 1565.081
1054.109, 1715.227
1055.212, 1641.408
1056.314, 1679.172
1057.417, 1720.429
1058.519, 1904.912
1059.621, 1913.255
1060.724, 1942.638
1061.826, 2054.388
1062.927, 2048.845
1064.029, 2002.343
1065.130, 2014.463
1066.232, 1950.092
1067.333, 1847.772
1068.434, 1839.041
1069.535, 1863.109
1070.636, 1719.125
1071.736, 1763.945
1072.837, 1723.788
1073.937, 1669.806
1075.037, 1672.444
1076.137, 1679.121
1077.237, 1791.563
1078.337, 1814.575
1079.436, 1847.024
1080.535, 1798.543
1081.635, 1881.622
1082.734, 1902.785
1083.833, 1957.946
1084.931, 2001.134
1086.030, 2003.348
1087.128, 1997.591
1088.227, 2094.859
1089.325, 2153.169
1090.423, 2166.515
1091.521, 2117.091
1092.618, 2164.561
1093.716, 2071.009
1094.813, 2041.493
1095.911, 2019.006
1097.008, 1932.544
1098.105, 1884.107
1099.202, 1909.702
1100.298, 1742.327
1101.395, 1715.985
1102.491, 1710.669
1103.587, 1525.373
1104.683, 1437.100
1105.779, 1452.849
1106.875, 1313.619
1107.971, 1167.414
1109.066, 1251.231
1110.161, 1097.253
1111.256, 1003.119
1112.351, 981.0034
1113.446, 948.9070
1114.541, 876.8604
1115.636, 827.0278
1116.730, 669.7739
1117.824, 686.7583
1118.918, 567.7605
1120.012, 493.7810
1121.106, 454.8191
1122.200, 400.8757
1123.293, 375.2031
1124.387, 363.0417
1125.480, 303.1504
1126.573, 332.2754
1127.666, 222.4165
1128.759, 226.5740
1129.851, 240.7478
1130.944, 149.9368
1132.036, 245.1404
1133.128, 135.3591
1134.220, 155.5916
1135.312, 182.8452
1136.404, 154.1130
1137.495, 161.4448
1138.587, 110.7485
1139.678, 161.0647
1140.769, 182.3938
1141.860, 99.27637
1142.951, 154.7263
1144.041, 134.1125
1145.132, 238.4902
1146.222, 82.87988
1147.313, 231.3926
1148.403, 192.8049
1149.493, 109.7607
1150.582, 163.1936
1151.672, 221.6367
1152.761, 147.0886
1153.851, 157.5920
1154.940, 149.1985
1156.029, 127.6868
1157.118, 107.9158
1158.207, 111.8748
1159.295, 94.01147
1160.384, 113.8494
1161.472, 65.37720
1162.560, 49.91138
1163.648, 7.814697
1164.736, 28.00024
1165.824, 52.45776
1166.911, 52.93140
1167.999, 95.42139
1169.086, 84.94897
1170.173, 102.3179
1171.260, 93.06885
1172.347, 103.7546
1173.434, 62.39526
1174.520, 24.97290
1175.606, 12.69409
1176.693, 59.39697
1177.779, 58.14868
1178.865, 124.9268
1179.951, 104.4924
1181.036, 8.345459
1182.122, 45.47754
1183.207, 13.38916
1184.292, 83.21216
1185.377, 61.73682
1186.462, 24.13818
1187.547, 41.92871
1188.632, 15.99292
1189.716, 19.05811
1190.800, 35.27783
1191.885, 51.66113
1192.969, 29.60303
1194.052, 14.78394
1195.136, 36.20435
1196.220, 76.86377
1197.303, 25.52148
1198.387, 50.48022
1199.470, 7.658447
1200.553, 43.08472
1201.636, 71.24951
1202.718, 25.80176
1203.801, 22.30347
1204.883, 14.54712
1205.966, 13.88916
1207.048, 9.963623
1208.130, 16.91211
1209.211, 12.87573
1210.293, 12.80371
1211.375, 31.34692
1212.456, 29.30981
1213.537, 42.59448
1214.618, 97.30225
1215.699, 59.19531
1216.780, 44.37305
1217.861, 100.9539
1218.941, 96.59619
1220.022, 45.38574
1221.102, 4.941895
1222.182, 37.68091
1223.262, 160.5564
1224.342, 89.40674
1225.422, 58.84912
1226.501, 127.7651
1227.580, 53.68335
1228.660, 108.1606
1229.739, 108.2371
1230.818, 121.6936
1231.896, 106.8289
1232.975, 103.3059
1234.054, 157.1028
1235.132, 86.51489
1236.210, 100.2346
1237.288, 170.3025
1238.366, 104.8103
1239.444, 47.23975
1240.521, 66.59033
1241.599, 161.0740
1242.676, 141.3997
1243.753, 62.05640
1244.830, 156.3555
1245.907, 121.6611
1246.984, 108.9346
1248.061, 139.2134
1249.137, 150.5801
1250.214, 110.9250
1251.290, 124.4233
1252.366, 156.8477
1253.442, 172.2554
1254.517, 176.4507
1255.593, 185.2024
1256.668, 193.0234
1257.744, 192.2920
1258.819, 100.6804
1259.894, 119.8157
1260.969, 149.9526
1262.044, 85.05396
1263.118, 110.4309
1264.193, 158.6311
1265.267, 105.9211
1266.341, 83.05811
1267.415, 96.02808
1268.489, 107.0303
1269.563, 129.0159
1270.636, 63.03760
1271.710, 45.02637
1272.783, 93.98584
1273.856, 156.1223
1274.929, 113.0999
1276.002, 89.97046
1277.075, 141.1399
1278.147, 37.13623
1279.220, 152.9390
1280.292, 150.7241
1281.364, 108.4915
1282.436, 102.3391
1283.508, 51.41821
1284.580, 169.9800
1285.652, 67.76270
1286.723, 132.4211
1287.794, 109.2654
1288.865, 87.88550
1289.936, 151.5730
1291.007, 143.1519
1292.078, 132.8164
1293.149, 133.3567
1294.219, 136.9097
1295.289, 146.2205
1296.360, 134.4419
1297.430, 139.2461
1298.499, 141.5789
1299.569, 119.8105
