##NAMES=Whitlockite
##RRUFFID=R070675
##IDEAL CHEMISTRY=Ca_9_Mg(PO_4_)_6_(PO_3_OH)
##LOCALITY=Palermo mine, North Groton, New Hampshire, USA
##OWNER=RRUFF
##SOURCE=Rock Currier
##DESCRIPTION=Colorless blocky modified rhombic crystals
##STATUS=The identification of this mineral is confirmed by single-crystal X-ray diffraction and chemical analysis.
##URL=rruff.info/R070675
##MEASURED CHEMISTRY=(Ca_8.70_Na_0.27_Sr_0.02_Mn_0.01_)_Σ=9_(Mg_0.73_Fe^3+^_0.19_Al_0.08_)_Σ=1_(P_1.00_O_4_)_6_(P_1.00_O_3_((OH)_0.58_F_0.42_)_Σ=1_); OH estimated by charge balance
##PIN_ID=M00691
##ORIENTATION=Laser parallel to a* (1 0 0). Fiducial mark perpendicular to laser is parallel to c [0 0 1]
137.3420, 0.0000000E+00
138.5800, 34.53516
139.8180, 57.02417
141.0560, 104.4983
142.2940, 95.76953
143.5310, 168.8806
144.7680, 216.6238
146.0050, 308.3354
147.2420, 232.7810
148.4790, 347.4587
149.7150, 304.9299
150.9510, 339.9404
152.1870, 328.0916
153.4230, 339.3979
154.6590, 342.4143
155.8940, 321.0007
157.1300, 323.7861
158.3650, 326.6240
159.6000, 268.2690
160.8340, 332.0930
162.0690, 241.9792
163.3030, 223.5403
164.5370, 250.0720
165.7710, 270.6213
167.0050, 194.7346
168.2380, 120.0576
169.4720, 156.1157
170.7050, 117.1357
171.9380, 108.2551
173.1700, 144.8274
174.4030, 104.2356
175.6350, 190.0098
176.8680, 140.5659
178.1000, 154.1465
179.3310, 136.7485
180.5630, 24.36890
181.7940, 30.00488
183.0260, 26.66675
184.2570, 11.49194
185.4870, 26.36084
186.7180, 0.8005370
187.9480, 46.07275
189.1790, 37.18774
190.4090, 44.45728
191.6390, 8.872803
192.8680, 35.76514
194.0980, 71.48853
195.3270, 18.62622
196.5560, 48.65381
197.7850, 0.4213870
199.0140, 9.406982
200.2420, 52.14453
201.4710, 37.79565
202.6990, 10.36450
203.9270, 31.85474
205.1550, 29.72974
206.3820, 43.38477
207.6090, 32.10767
208.8370, 35.10474
210.0640, 73.74512
211.2900, 43.35132
212.5170, 0.5805660
213.7440, 38.46924
214.9700, 74.50635
216.1960, 91.53247
217.4220, 108.5491
218.6470, 136.5566
219.8730, 140.7122
221.0980, 86.54468
222.3230, 161.5242
223.5480, 156.4927
224.7730, 182.2478
225.9970, 226.3962
227.2220, 187.3989
228.4460, 192.0100
229.6700, 148.6157
230.8940, 191.6433
232.1170, 203.6169
233.3400, 203.1094
234.5640, 252.3584
235.7870, 287.1128
237.0100, 223.2402
238.2320, 252.8672
239.4550, 257.9678
240.6770, 307.0911
241.8990, 267.8647
243.1210, 329.0964
244.3420, 305.3000
245.5640, 308.7288
246.7850, 280.4048
248.0060, 305.3918
249.2270, 373.4333
250.4480, 368.0750
251.6690, 357.6357
252.8890, 412.1978
254.1090, 419.7637
255.3290, 436.3374
256.5490, 392.9136
257.7680, 443.4912
258.9880, 432.9441
260.2070, 484.6401
261.4260, 457.2061
262.6450, 458.7646
263.8640, 486.3152
265.0820, 458.8567
266.3000, 493.3889
267.5180, 499.8201
268.7360, 530.4272
269.9540, 523.9341
271.1720, 544.4331
272.3890, 542.9250
273.6060, 603.4097
274.8230, 624.8875
276.0400, 646.3577
277.2560, 689.8215
278.4730, 666.2788
279.6890, 695.7297
280.9050, 738.1748
282.1210, 756.6135
283.3370, 798.0464
284.5520, 784.1655
285.7670, 783.7949
286.9820, 780.0259
288.1970, 735.6113
289.4120, 704.2561
290.6270, 655.9417
291.8410, 615.6553
293.0550, 621.3875
294.2690, 547.1299
295.4830, 532.8770
296.6970, 472.6248
297.9100, 450.3706
299.1230, 458.1089
300.3360, 418.8389
301.5490, 425.5574
302.7620, 388.5684
303.9740, 288.9375
305.1860, 309.5999
306.3990, 224.2451
307.6110, 162.8748
308.8220, 158.4875
310.0340, 174.0854
311.2450, 136.6692
312.4560, 108.1975
313.6670, 99.71313
314.8780, 105.2139
316.0890, 90.70190
317.2990, 98.17041
318.5090, 30.56421
319.7200, 82.90674
320.9290, 35.16602
322.1390, 30.58496
323.3490, 16.35693
324.5580, 24.85400
325.7670, 32.94458
326.9760, 43.23511
328.1850, 22.59326
329.3930, 30.44116
330.6020, 33.68848
331.8100, 53.19312
333.0180, 64.14600
334.2260, 3.094727
335.4340, 3.064697
336.6410, 26.05591
337.8480, 1.924072
339.0550, 29.89307
340.2620, 25.96240
341.4690, 3.941406
342.6760, 38.82690
343.8820, 24.35034
345.0880, 9.504639
346.2940, 5.320313
347.5000, 23.07886
348.7060, 7.995117
349.9110, 23.32080
351.1160, 14.18750
352.3210, 18.05493
353.5260, 10.98022
354.7310, 79.67700
355.9360, 47.94409
357.1400, 77.62109
358.3440, 48.22559
359.5480, 66.10132
360.7520, 124.5312
361.9550, 86.17090
363.1590, 118.8010
364.3620, 115.4224
365.5650, 119.0347
366.7680, 130.7493
367.9710, 144.4580
369.1730, 155.4629
370.3760, 198.2822
371.5780, 248.2603
372.7800, 243.9587
373.9810, 294.5083
375.1830, 292.0925
376.3840, 391.9768
377.5860, 330.4329
378.7870, 441.8613
379.9880, 540.2583
381.1880, 562.5845
382.3890, 642.8835
383.5890, 733.1499
384.7890, 832.3796
385.9890, 1007.581
387.1890, 1097.757
388.3880, 1293.905
389.5880, 1467.021
390.7870, 1658.120
391.9860, 1909.220
393.1850, 2114.325
394.3840, 2364.431
395.5820, 2694.543
396.7800, 3009.657
397.9790, 3417.772
399.1770, 3798.891
400.3740, 4195.009
401.5720, 4719.125
402.7690, 4965.240
403.9670, 5120.357
405.1640, 5188.481
406.3600, 5230.603
407.5570, 5201.728
408.7540, 4948.850
409.9500, 4616.971
411.1460, 4311.092
412.3420, 4015.213
413.5380, 3756.545
414.7330, 3359.449
415.9290, 3305.563
417.1240, 3101.677
418.3190, 2942.788
419.5140, 2951.898
420.7090, 2746.009
421.9030, 2604.124
423.0970, 2555.240
424.2920, 2531.355
425.4860, 2475.468
426.6790, 2465.578
427.8730, 2457.686
429.0660, 2478.790
430.2600, 2556.889
431.4530, 2695.981
432.6460, 2510.068
433.8380, 2598.148
435.0310, 2532.220
436.2230, 2497.285
437.4150, 2421.341
438.6070, 2294.389
439.7990, 2304.430
440.9910, 2206.461
442.1820, 2229.486
443.3730, 2130.502
444.5640, 2031.510
445.7550, 2002.509
446.9460, 1971.500
448.1370, 1887.484
449.3270, 1875.458
450.5170, 1842.424
451.7070, 1760.851
452.8970, 1663.333
454.0870, 1599.275
455.2760, 1574.210
456.4650, 1469.140
457.6550, 1448.062
458.8430, 1442.978
460.0320, 1321.842
461.2210, 1285.726
462.4090, 1244.200
463.5970, 1191.012
464.7850, 1109.532
465.9730, 1037.037
467.1610, 989.1714
468.3480, 941.0840
469.5360, 914.1287
470.7230, 873.6938
471.9100, 879.6816
473.0970, 849.1750
474.2830, 702.6309
475.4700, 752.6868
476.6560, 691.0513
477.8420, 641.2419
479.0280, 693.4299
480.2140, 681.1709
481.3990, 686.6680
482.5850, 702.2405
483.7700, 668.0618
484.9550, 625.7471
486.1400, 614.2234
487.3240, 581.1462
488.5090, 530.0007
489.6930, 475.7620
490.8770, 357.7727
492.0610, 410.7297
493.2450, 248.7280
494.4290, 274.3601
495.6120, 237.6157
496.7950, 167.7683
497.9780, 175.4924
499.1610, 123.1216
500.3440, 140.8696
501.5260, 126.4961
502.7090, 103.1990
503.8910, 56.04150
505.0730, 126.8167
506.2550, 98.64795
507.4360, 71.47388
508.6180, 11.29395
509.7990, 7.092285
510.9800, 16.60522
512.1610, 7.189209
513.3420, 16.14697
514.5230, 2.653564
515.7030, 45.46631
516.8830, 24.38745
518.0630, 15.55859
519.2430, 50.30005
520.4230, 67.24902
521.6020, 62.23462
522.7820, 105.3130
523.9610, 63.33130
525.1400, 35.39062
526.3190, 109.3403
527.4970, 88.27100
528.6760, 161.2703
529.8540, 142.2759
531.0320, 166.1396
532.2100, 208.3962
533.3880, 240.2566
534.5660, 325.2539
535.7430, 417.3027
536.9200, 415.9294
538.0970, 512.0894
539.2740, 556.5823
540.4510, 612.5801
541.6270, 765.9971
542.8040, 845.0098
543.9800, 857.3242
545.1560, 1033.070
546.3320, 1131.925
547.5080, 1144.981
548.6830, 1166.001
549.8580, 1164.882
551.0340, 1082.947
552.2090, 1064.221
553.3830, 1014.633
554.5580, 954.6511
555.7320, 935.4485
556.9070, 985.2681
558.0810, 872.4114
559.2550, 1032.162
560.4280, 1072.542
561.6020, 1040.524
562.7750, 987.0781
563.9490, 1003.692
565.1220, 986.5493
566.2950, 843.4609
567.4670, 707.1892
568.6400, 661.1523
569.8120, 574.9946
570.9840, 591.8467
572.1560, 516.7935
573.3280, 429.8267
574.5000, 460.7822
575.6710, 355.5059
576.8430, 381.3062
578.0140, 343.0356
579.1850, 341.6741
580.3560, 374.4670
581.5260, 426.1062
582.6970, 400.1475
583.8670, 485.7573
585.0370, 556.3477
586.2070, 512.0454
587.3770, 665.7681
588.5460, 720.4580
589.7160, 876.0085
590.8850, 900.6484
592.0540, 911.1794
593.2230, 935.0107
594.3920, 966.6421
595.5600, 914.3804
596.7290, 966.6077
597.8970, 934.0884
599.0650, 1049.887
600.2330, 1080.348
601.4000, 1052.799
602.5680, 1144.412
603.7350, 1164.330
604.9020, 1235.864
606.0690, 1301.971
607.2360, 1332.386
608.4030, 1294.802
609.5690, 1300.925
610.7360, 1392.942
611.9020, 1380.932
613.0680, 1438.565
614.2340, 1432.816
615.3990, 1569.363
616.5650, 1545.767
617.7300, 1722.181
618.8950, 1767.658
620.0600, 1903.334
621.2250, 1949.605
622.3890, 2000.347
623.5540, 1964.882
624.7180, 1987.748
625.8820, 1981.735
627.0460, 2058.175
628.2100, 2055.842
629.3730, 2070.606
630.5370, 2035.070
631.7000, 1994.485
632.8630, 1882.589
634.0260, 1743.521
635.1890, 1595.151
636.3510, 1354.135
637.5140, 1085.835
638.6760, 857.9739
639.8380, 637.3423
641.0000, 456.1172
642.1610, 393.1196
643.3230, 282.3928
644.4840, 311.6812
645.6450, 180.9294
646.8060, 146.1592
647.9670, 177.3745
649.1280, 128.4717
650.2880, 132.5369
651.4490, 51.26685
652.6090, 21.10278
653.7690, 76.83325
654.9290, 111.1965
656.0880, 52.57227
657.2480, 22.61816
658.4070, 63.29907
659.5660, 40.43726
660.7250, 30.59619
661.8840, 16.62012
663.0430, 23.91040
664.2010, 19.35864
665.3600, 39.51147
666.5180, 44.10889
667.6760, 28.04346
668.8330, 27.16211
669.9910, 61.72900
671.1480, 7.836426
672.3060, 21.46216
673.4630, 23.64819
674.6200, 6.865479
675.7770, 16.10449
676.9330, 6.531250
678.0900, 6.563232
679.2460, 3.762207
680.4020, 12.17944
681.5580, 46.93945
682.7140, 20.07959
683.8690, 5.426025
685.0250, 13.01929
686.1800, 42.22607
687.3350, 2.160156
688.4900, 82.34253
689.6450, 46.00415
690.7990, 29.05054
691.9540, 21.45752
693.1080, 48.84058
694.2620, 93.23975
695.4160, 85.58350
696.5700, 37.91846
697.7230, 112.2715
698.8770, 24.02930
700.0300, 51.86182
701.1830, 2.898438
702.3360, 18.25928
703.4890, 78.70532
704.6410, 66.29834
705.7930, 112.4514
706.9460, 55.57080
708.0980, 98.66919
709.2500, 53.74854
710.4010, 52.80664
711.5530, 43.84375
712.7040, 48.85938
713.8560, 88.85327
715.0070, 67.99438
716.1580, 81.94922
717.3080, 112.8848
718.4590, 60.80176
719.6090, 94.51855
720.7590, 35.57666
721.9090, 95.43213
723.0590, 104.2693
724.2090, 68.08765
725.3590, 58.88696
726.5080, 63.66626
727.6570, 98.42627
728.8060, 69.16821
729.9550, 112.8909
731.1040, 38.59521
732.2530, 61.27881
733.4010, 42.94336
734.5490, 19.58765
735.6970, 87.20679
736.8450, 34.80859
737.9930, 118.9165
739.1400, 145.4792
740.2880, 46.02417
741.4350, 13.45020
742.5820, 55.03589
743.7290, 18.50342
744.8760, 83.94678
746.0220, 6.627441
747.1690, 16.76318
748.3150, 0.8706050
749.4610, 19.46387
750.6070, 4.775146
751.7530, 12.05786
752.8980, 38.44385
754.0440, 95.55371
755.1890, 75.77490
756.3340, 52.97876
757.4790, 27.16479
758.6240, 9.330811
759.7680, 0.4716800
760.9130, 3.582764
762.0570, 17.66626
763.2010, 13.70605
764.3450, 46.76709
765.4890, 21.78857
766.6320, 2.209717
767.7760, 3.123535
768.9190, 29.70825
770.0620, 7.635986
771.2050, 32.54028
772.3480, 6.427002
773.4900, 8.290039
774.6330, 14.13062
775.7750, 12.04858
776.9170, 31.73975
778.0590, 7.488037
779.2010, 11.74536
780.3420, 70.96680
781.4840, 31.66333
782.6250, 36.34473
783.7660, 48.01123
784.9070, 55.66333
786.0480, 36.30054
787.1890, 33.92407
788.3290, 19.46606
789.4690, 34.97827
790.6100, 57.33105
791.7490, 59.14014
792.8890, 6.337402
794.0290, 59.68530
795.1680, 28.88037
796.3080, 9.250244
797.4470, 7.509766
798.5860, 14.71313
799.7250, 1.195313
800.8630, 4.064209
802.0020, 21.99561
803.1400, 4.843262
804.2780, 24.30713
805.4160, 0.6276860
806.5540, 36.58862
807.6920, 16.43604
808.8300, 58.69849
809.9670, 40.40161
811.1040, 47.65112
812.2410, 22.21558
813.3780, 63.51221
814.5150, 6.805664
815.6510, 18.55029
816.7880, 51.61401
817.9240, 45.22632
819.0600, 11.46021
820.1960, 35.01489
821.3320, 5.975830
822.4670, 17.15674
823.6030, 48.51025
824.7380, 53.85229
825.8730, 6.082764
827.0080, 16.51245
828.1430, 18.83057
829.2770, 22.02197
830.4120, 0.4077150
831.5460, 11.48633
832.6800, 63.88916
833.8140, 1.499512
834.9480, 15.73047
836.0810, 18.60815
837.2150, 38.89673
838.3480, 67.18457
839.4810, 55.35156
840.6140, 39.78638
841.7470, 0.7053220
842.8800, 47.36743
844.0120, 86.78174
845.1450, 16.40479
846.2770, 86.80518
847.4090, 57.19849
848.5410, 8.493408
849.6720, 44.85400
850.8040, 9.565430
851.9350, 67.92578
853.0660, 58.47607
854.1970, 63.10596
855.3280, 22.57031
856.4590, 33.17725
857.5900, 14.37085
858.7200, 47.98560
859.8500, 96.60913
860.9800, 101.1147
862.1100, 151.5845
863.2400, 69.07764
864.3700, 11.69946
865.4990, 64.22266
866.6280, 59.84521
867.7570, 52.15747
868.8860, 50.66040
870.0150, 114.0471
871.1440, 90.93604
872.2720, 90.56274
873.4010, 28.13745
874.5290, 70.48828
875.6570, 44.11597
876.7850, 151.5740
877.9120, 96.72046
879.0400, 36.24292
880.1670, 78.18726
881.2940, 117.8296
882.4210, 92.47583
883.5480, 107.4087
884.6750, 199.4561
885.8020, 101.5251
886.9280, 187.9575
888.0540, 272.7798
889.1800, 305.3000
890.3060, 323.9795
891.4320, 359.6646
892.5580, 437.2898
893.6830, 477.7168
894.8080, 507.5562
895.9330, 530.9250
897.0580, 574.7031
898.1830, 601.7744
899.3080, 678.9182
900.4320, 672.6091
901.5570, 770.0806
902.6810, 770.4592
903.8050, 793.2002
904.9290, 789.8782
906.0520, 850.9341
907.1760, 814.6794
908.2990, 1010.764
909.4230, 923.9812
910.5460, 1144.502
911.6690, 1222.591
912.7910, 1403.467
913.9140, 1571.935
915.0360, 1818.196
916.1590, 2063.198
917.2810, 2366.189
918.4030, 2664.218
919.5240, 2915.261
920.6460, 3175.328
921.7680, 3153.406
922.8890, 3094.497
924.0100, 2874.624
925.1310, 2672.820
926.2520, 2404.960
927.3730, 2094.735
928.4930, 1664.634
929.6130, 1477.815
930.7340, 1325.011
931.8540, 1119.142
932.9740, 993.2529
934.0930, 1047.497
935.2130, 1026.249
936.3320, 1045.872
937.4520, 1009.421
938.5710, 1070.094
939.6900, 1142.427
940.8090, 1181.437
941.9270, 1297.278
943.0460, 1433.587
944.1640, 1635.024
945.2820, 1786.495
946.4000, 2008.015
947.5180, 2234.549
948.6360, 2710.281
949.7530, 3264.493
950.8710, 3986.129
951.9880, 4824.851
953.1050, 6230.041
954.2220, 7818.206
955.3390, 9945.165
956.4550, 12730.92
957.5720, 15714.98
958.6880, 19306.36
959.8040, 22485.47
960.9200, 25582.12
962.0360, 27854.38
963.1520, 29493.28
964.2670, 31032.20
965.3820, 31383.11
966.4980, 31583.07
967.6130, 30586.05
968.7280, 28969.01
969.8420, 26287.57
970.9570, 23328.05
972.0710, 20040.14
973.1850, 16457.30
974.3000, 13289.17
975.4140, 10602.90
976.5270, 8391.068
977.6410, 6538.278
978.7540, 5149.511
979.8680, 4298.767
980.9810, 3702.047
982.0940, 3385.351
983.2070, 3314.681
984.3200, 3334.035
985.4320, 3346.247
986.5440, 3536.647
987.6570, 3628.075
988.7690, 3666.537
989.8810, 3729.024
990.9920, 3622.535
992.1040, 3546.072
993.2160, 3431.604
994.3270, 3245.222
995.4380, 3063.834
996.5490, 2854.471
997.6600, 2567.134
998.7710, 2298.821
999.8810, 2093.534
1000.991, 1950.272
1002.102, 1802.035
1003.212, 1701.824
1004.322, 1486.639
1005.431, 1428.484
1006.541, 1394.358
1007.651, 1364.730
1008.760, 1380.656
1009.869, 1432.607
1010.978, 1338.583
1012.087, 1438.597
1013.195, 1398.638
1014.304, 1554.710
1015.412, 1652.814
1016.521, 1637.957
1017.629, 1722.130
1018.737, 1803.337
1019.844, 1826.573
1020.952, 2084.839
1022.059, 1976.135
1023.167, 2216.456
1024.274, 2249.803
1025.381, 2132.175
1026.488, 2197.572
1027.594, 2229.005
1028.701, 2201.467
1029.807, 2176.961
1030.913, 2057.775
1032.019, 2061.369
1033.125, 1973.736
1034.231, 1748.354
1035.337, 1566.999
1036.442, 1489.681
1037.548, 1413.878
1038.653, 1281.045
1039.758, 1247.072
1040.863, 1103.904
1041.967, 1047.677
1043.072, 1023.852
1044.176, 994.0127
1045.280, 940.2729
1046.384, 848.2271
1047.488, 821.6274
1048.592, 714.7686
1049.696, 852.1631
1050.799, 716.2104
1051.903, 779.2803
1053.006, 768.4448
1054.109, 724.5796
1055.212, 846.7905
1056.314, 773.9634
1057.417, 839.1670
1058.519, 899.9424
1059.621, 929.2056
1060.724, 980.5103
1061.826, 1031.838
1062.927, 1066.189
1064.029, 1078.562
1065.130, 1031.409
1066.232, 1118.828
1067.333, 1209.812
1068.434, 1126.277
1069.535, 1098.768
1070.636, 1176.288
1071.736, 1160.833
1072.837, 1272.636
1073.937, 1291.226
1075.037, 1478.849
1076.137, 1538.226
1077.237, 1563.236
1078.337, 1660.261
1079.436, 1911.443
1080.535, 1949.997
1081.635, 2086.173
1082.734, 2137.020
1083.833, 2393.114
1084.931, 2464.016
1086.030, 2522.947
1087.128, 2515.899
1088.227, 2521.924
1089.325, 2480.921
1090.423, 2570.940
1091.521, 2443.988
1092.618, 2377.067
1093.716, 2274.165
1094.813, 2432.291
1095.911, 2249.428
1097.008, 2239.581
1098.105, 2054.752
1099.202, 2103.939
1100.298, 1860.158
1101.395, 1946.394
1102.491, 1866.648
1103.587, 1745.161
1104.683, 1724.661
1105.779, 1605.408
1106.875, 1557.327
1107.971, 1444.697
1109.066, 1334.082
1110.161, 1317.481
1111.256, 1212.897
1112.351, 1126.328
1113.446, 1028.773
1114.541, 902.2334
1115.636, 875.7085
1116.730, 720.1982
1117.824, 778.7026
1118.918, 747.3691
1120.012, 682.5781
1121.106, 533.1250
1122.200, 543.6865
1123.293, 387.2607
1124.387, 459.8481
1125.480, 300.9517
1126.573, 389.5649
1127.666, 364.1914
1128.759, 372.9722
1129.851, 247.6274
1130.944, 243.4814
1132.036, 353.1660
1133.128, 195.8647
1134.220, 111.5889
1135.312, 165.3154
1136.404, 219.8359
1137.495, 112.0762
1138.587, 151.8374
1139.678, 140.7964
1140.769, 241.5825
1141.860, 57.37988
1142.951, 168.2578
1144.041, 119.6567
1145.132, 167.1270
1146.222, 140.2817
1147.313, 130.2026
1148.403, 124.5645
1149.493, 117.6714
1150.582, 110.5488
1151.672, 140.4351
1152.761, 136.3291
1153.851, 92.23145
1154.940, 113.1411
1156.029, 82.07080
1157.118, 100.0815
1158.207, 96.80518
1159.295, 58.68701
1160.384, 59.68945
1161.472, 13.35791
1162.560, 1.307617
1163.648, 27.34766
1164.736, 27.37891
1165.824, 47.37646
1166.911, 22.65527
1167.999, 17.37109
1169.086, 10.39746
1170.173, 111.1587
1171.260, 8.0077998E-02
1172.347, 27.14502
1173.434, 90.21582
1174.520, 53.10742
1175.606, 89.22998
1176.693, 1.611816
1177.779, 106.3291
1178.865, 66.52930
1179.951, 32.67773
1181.036, 47.11719
1182.122, 53.88330
1183.207, 44.51807
1184.292, 2.232910
1185.377, 1.4648000E-02
1186.462, 64.53320
1187.547, 6.299805
1188.632, 31.62451
1189.716, 58.11719
1190.800, 42.85986
1191.885, 49.60254
1192.969, 93.35596
1194.052, 45.09961
1195.136, 7.156250
1196.220, 40.63916
1197.303, 27.62256
1198.387, 11.10107
1199.470, 9.893066
1200.553, 48.61572
1201.636, 58.71289
1202.718, 0.2001950
1203.801, 31.95752
1204.883, 49.67188
1205.966, 76.32520
1207.048, 69.15576
1208.130, 0.4731450
1209.211, 36.31592
1210.293, 57.32617
1211.375, 16.76465
1212.456, 9.427246
1213.537, 5.685547
1214.618, 35.41162
1215.699, 54.93408
1216.780, 27.45215
1217.861, 25.03320
1218.941, 79.45801
1220.022, 22.94482
1221.102, 74.42725
1222.182, 87.90479
1223.262, 113.4102
1224.342, 18.93408
1225.422, 92.43555
1226.501, 31.89258
1227.580, 34.38623
1228.660, 59.83203
1229.739, 105.2729
1230.818, 56.70752
1231.896, 71.13574
1232.975, 14.55859
1234.054, 15.99609
1235.132, 80.40039
1236.210, 132.9189
1237.288, 118.3091
1238.366, 65.69238
1239.444, 91.06787
1240.521, 146.4365
1241.599, 100.7983
1242.676, 125.1523
1243.753, 152.4990
1244.830, 143.8379
1245.907, 51.17676
1246.984, 133.4995
1248.061, 26.97119
1249.137, 20.72461
1250.214, 103.5483
1251.290, 38.81299
1252.366, 52.06836
1253.442, 82.31543
1254.517, 19.55371
1255.593, 73.77686
1256.668, 52.07227
1257.744, 33.66064
1258.819, 90.46973
1259.894, 33.12988
1260.969, 150.0239
1262.044, 91.57617
1263.118, 45.97021
1264.193, 54.01660
1265.267, 19.15186
1266.341, 27.61426
1267.415, 96.71729
1268.489, 40.02539
1269.563, 78.10498
1270.636, 103.1777
1271.710, 48.23877
1272.783, 28.54688
1273.856, 27.37109
1274.929, 11.89258
1276.002, 17.60400
1277.075, 33.57666
1278.147, 44.53467
1279.220, 85.59424
1280.292, 138.5273
1281.364, 125.8848
1282.436, 113.4170
1283.508, 117.3169
1284.580, 63.20361
1285.652, 58.07812
1286.723, 6.939941
1287.794, 92.78516
1288.865, 105.6069
1289.936, 70.46729
1291.007, 60.97754
1292.078, 79.72314
1293.149, 8.288574
1294.219, 67.45020
1295.289, 18.17578
1296.360, 147.8779
1297.430, 130.0830
1298.499, 19.49219
1299.569, 55.72949
1300.639, 114.3354
1301.708, 84.01611
1302.778, 48.31152
