##NAMES=Witherite
##RRUFFID=R050148
##IDEAL CHEMISTRY=BaCO_3_
##LOCALITY=Settlingstones mine, Fourstones, Northumberland, England
##OWNER=RRUFF
##SOURCE=Jim McGlasson
##DESCRIPTION=Tan colored crystal fragment
##STATUS=The identification of this mineral has been confirmed by X-ray diffraction and chemical analysis
##URL=rruff.info/R050148
##MEASURED CHEMISTRY=(Ba_0.96_Sr_0.04_)CO_3_
##PIN_ID=L00254
##ORIENTATION=Laser parallel to c* (0 0 1). Fiducial mark perpendicular to laser is parallel to a [1 0 0]
99.917, 0.000
101.314, 108.493
102.712, 47.621
104.109, 5.708
105.505, 15.125
106.902, 9.740
108.298, 85.660
109.694, 118.549
111.090, 148.346
112.486, 204.601
113.881, 254.963
115.277, 283.148
116.672, 348.928
118.066, 340.116
119.461, 430.556
120.855, 449.121
122.249, 448.701
123.643, 489.198
125.036, 586.525
126.430, 652.608
127.823, 725.299
129.216, 795.793
130.608, 900.791
132.001, 985.333
133.393, 1035.883
134.785, 1073.214
136.176, 1103.875
137.568, 1077.262
138.959, 1047.042
140.350, 1003.196
141.741, 1017.707
143.131, 1060.546
144.521, 1126.686
145.911, 1208.103
147.301, 1258.780
148.691, 1424.701
150.080, 1690.853
151.469, 2185.228
152.858, 2865.815
154.247, 3875.607
155.635, 4958.595
157.024, 6190.771
158.411, 7142.127
159.799, 7511.660
161.187, 6852.360
162.574, 5625.226
163.961, 4113.251
165.348, 2862.429
166.734, 2055.760
168.121, 1429.237
169.507, 1105.857
170.893, 900.613
172.278, 775.512
173.664, 674.539
175.049, 623.690
176.434, 534.968
177.819, 545.364
179.203, 543.880
180.587, 469.535
181.971, 454.356
183.355, 424.256
184.739, 416.150
186.122, 402.038
187.505, 383.932
188.888, 319.875
190.271, 401.857
191.653, 322.889
193.035, 368.959
194.417, 338.077
195.799, 327.248
197.180, 427.468
198.562, 348.740
199.943, 304.097
201.324, 369.536
202.704, 339.086
204.084, 362.697
205.465, 359.361
206.844, 419.079
208.224, 430.853
209.603, 412.682
210.983, 498.567
212.362, 617.515
213.740, 786.532
215.119, 913.618
216.497, 958.757
217.875, 1112.949
219.253, 1273.194
220.631, 1503.496
222.008, 1640.879
223.385, 1860.316
224.762, 1792.827
226.139, 1734.399
227.515, 1511.021
228.891, 1346.691
230.267, 1145.411
231.643, 903.182
233.018, 798.103
234.394, 717.975
235.769, 547.894
237.144, 533.909
238.518, 422.922
239.893, 445.978
241.267, 324.078
242.641, 391.726
244.014, 325.905
245.388, 270.125
246.761, 263.386
248.134, 281.688
249.507, 283.044
250.879, 240.682
252.252, 178.125
253.624, 196.606
254.996, 189.124
256.367, 211.949
257.739, 206.583
259.110, 183.269
260.481, 188.725
261.852, 210.963
263.222, 180.175
264.592, 179.966
265.962, 217.927
267.332, 181.103
268.702, 173.586
270.071, 132.355
271.440, 156.956
272.809, 141.039
274.178, 111.459
275.546, 140.979
276.915, 106.713
278.283, 99.585
279.650, 112.075
281.018, 79.563
282.385, 100.804
283.752, 117.147
285.119, 128.586
286.486, 138.468
287.852, 63.517
289.218, 130.214
290.584, 108.989
291.950, 58.841
293.316, 165.801
294.681, 98.791
296.046, 79.847
297.411, 101.138
298.775, 66.316
300.140, 13.240
301.504, 126.112
302.868, 54.643
304.231, 24.039
305.595, 134.485
306.958, 66.981
308.321, 64.523
309.684, 47.110
311.047, 78.743
312.409, 88.422
313.771, 85.155
315.133, 53.927
316.495, 104.740
317.856, 50.633
319.217, 99.521
320.578, 44.446
321.939, 74.989
323.299, 49.984
324.660, 95.013
326.020, 89.007
327.380, 49.335
328.739, 79.462
330.099, 81.620
331.458, 49.810
332.817, 61.029
334.176, 52.740
335.534, 13.554
336.892, 43.858
338.251, 52.231
339.608, 33.061
340.966, 48.519
342.323, 19.944
343.681, 29.517
345.037, 38.335
346.394, 40.530
347.751, 31.036
349.107, 34.579
350.463, 48.130
351.819, 88.704
353.174, 19.473
354.530, 101.092
355.885, 61.733
357.240, 73.396
358.594, 38.187
359.949, 45.250
361.303, 22.977
362.657, 26.032
364.011, 8.793
365.365, 58.995
366.718, 38.803
368.071, 81.856
369.424, 12.702
370.777, 66.940
372.129, 4.115
373.481, 47.786
374.833, 28.706
376.185, 15.644
377.537, 47.599
378.888, 34.571
380.239, 15.682
381.590, 28.688
382.941, 27.291
384.291, 16.745
385.642, 68.796
386.992, 28.862
388.341, 27.944
389.691, 18.040
391.040, 62.151
392.389, 78.276
393.738, 26.415
395.087, 1.568
396.435, 58.175
397.784, 14.646
399.132, 40.545
400.479, 22.188
401.827, 63.410
403.174, 41.733
404.521, 24.981
405.868, 12.237
407.215, 15.505
408.561, 17.557
409.908, 13.936
411.254, 35.375
412.599, 40.674
413.945, 43.013
415.290, 6.354
416.636, 36.859
417.980, 54.485
419.325, 49.155
420.670, 11.355
422.014, 19.257
423.358, 9.815
424.702, 9.239
426.045, 26.695
427.389, 17.100
428.732, 17.473
430.075, 19.972
431.417, 36.547
432.760, 20.346
434.102, 15.156
435.444, 18.127
436.786, 54.060
438.127, 69.370
439.469, 30.685
440.810, 42.118
442.151, 11.764
443.492, 30.479
444.832, 14.089
446.172, 39.720
447.512, 22.365
448.852, 21.976
450.192, 6.690
451.531, 48.384
452.870, 59.804
454.209, 1.509
455.548, 61.225
456.887, 14.953
458.225, 50.309
459.563, 50.421
460.901, 38.835
462.238, 13.096
463.576, 68.352
464.913, 22.340
466.250, 27.389
467.587, 21.144
468.923, 32.991
470.259, 57.742
471.596, 58.325
472.931, 54.133
474.267, 78.936
475.603, 26.720
476.938, 26.517
478.273, 6.318
479.608, 45.126
480.942, 76.964
482.276, 7.183
483.611, 72.637
484.944, 44.478
486.278, 38.690
487.612, 93.127
488.945, 27.038
490.278, 31.866
491.611, 49.136
492.943, 34.973
494.276, 25.814
495.608, 29.094
496.940, 46.510
498.271, 12.363
499.603, 0.220
500.934, 31.925
502.265, 15.469
503.596, 36.312
504.927, 1.159
506.257, 22.998
507.587, 51.833
508.917, 8.304
510.247, 39.522
511.577, 54.451
512.906, 12.285
514.235, 72.120
515.564, 35.957
516.892, 51.795
518.221, 16.635
519.549, 8.831
520.877, 27.314
522.205, 11.153
523.533, 8.990
524.860, 68.746
526.187, 59.581
527.514, 15.417
528.841, 102.250
530.167, 12.084
531.493, 23.915
532.820, 41.707
534.145, 109.537
535.471, 43.368
536.796, 99.199
538.122, 36.029
539.447, 23.860
540.771, 68.689
542.096, 33.518
543.420, 38.908
544.744, 35.751
546.068, 55.596
547.392, 83.440
548.715, 37.283
550.039, 46.124
551.362, 40.964
552.684, 80.802
554.007, 46.640
555.329, 21.415
556.652, 64.398
557.973, 52.994
559.295, 20.137
560.617, 70.940
561.938, 34.927
563.259, 103.736
564.580, 47.543
565.901, 99.348
567.221, 2.850
568.541, 1.079
569.861, 109.795
571.181, 42.438
572.501, 46.298
573.820, 154.025
575.139, 29.183
576.458, 134.917
577.777, 43.949
579.095, 45.492
580.414, 52.197
581.732, 18.449
583.049, 46.729
584.367, 45.119
585.685, 72.136
587.002, 56.828
588.319, 69.081
589.636, 51.766
590.952, 19.313
592.268, 62.424
593.585, 28.090
594.900, 35.746
596.216, 14.458
597.532, 18.094
598.847, 22.096
600.162, 20.154
601.477, 20.412
602.792, 93.988
604.106, 72.968
605.420, 96.533
606.734, 72.092
608.048, 58.406
609.361, 52.959
610.675, 20.506
611.988, 62.318
613.301, 83.811
614.614, 73.438
615.926, 100.108
617.238, 91.333
618.550, 109.715
619.862, 75.532
621.174, 62.843
622.485, 32.149
623.797, 51.636
625.108, 50.115
626.418, 42.944
627.729, 128.051
629.039, 25.510
630.349, 15.958
631.659, 18.216
632.969, 89.314
634.279, 55.136
635.588, 57.006
636.897, 91.347
638.206, 53.808
639.515, 53.178
640.823, 87.958
642.131, 55.347
643.439, 91.702
644.747, 108.887
646.055, 46.228
647.362, 117.561
648.669, 28.887
649.976, 77.202
651.283, 75.510
652.589, 65.811
653.896, 73.104
655.202, 96.398
656.508, 62.636
657.814, 84.435
659.119, 23.624
660.424, 101.863
661.729, 95.108
663.034, 84.852
664.339, 171.370
665.643, 51.594
666.947, 118.794
668.251, 44.690
669.555, 127.891
670.859, 76.913
672.162, 101.098
673.465, 65.276
674.768, 130.448
676.071, 115.505
677.373, 131.304
678.676, 86.453
679.978, 187.288
681.280, 101.016
682.581, 201.142
683.883, 281.261
685.184, 417.148
686.485, 983.252
687.786, 1895.977
689.087, 3502.006
690.387, 4755.090
691.687, 4355.372
692.987, 2931.438
694.287, 1523.521
695.586, 862.702
696.886, 489.625
698.185, 279.662
699.484, 204.692
700.783, 202.662
702.081, 194.034
703.379, 170.109
704.677, 68.110
705.975, 112.103
707.273, 132.087
708.570, 83.150
709.868, 180.123
711.165, 49.088
712.462, 109.629
713.758, 150.578
715.055, 2.519
716.351, 160.008
717.647, 43.591
718.943, 92.407
720.238, 98.435
721.533, 124.323
722.829, 72.204
724.124, 10.439
725.418, 40.003
726.713, 77.841
728.007, 53.693
729.301, 125.507
730.595, 49.630
731.889, 209.832
733.182, 80.599
734.476, 28.307
735.769, 123.042
737.061, 72.798
738.354, 5.142
739.647, 94.553
740.939, 52.310
742.231, 130.023
743.523, 100.730
744.814, 92.599
746.106, 108.281
747.397, 79.258
748.688, 92.945
749.978, 88.665
751.269, 72.579
752.559, 90.401
753.849, 74.562
755.139, 79.604
756.429, 22.490
757.719, 77.494
759.008, 4.862
760.297, 137.809
761.586, 54.426
762.875, 13.038
764.163, 145.686
765.451, 125.268
766.739, 24.129
768.027, 154.709
769.315, 34.283
770.602, 91.850
771.890, 141.409
773.177, 1.972
774.463, 65.244
775.750, 18.793
777.036, 64.334
778.323, 78.598
779.609, 56.141
780.894, 130.661
782.180, 105.090
783.465, 71.618
784.750, 58.657
786.035, 16.375
787.320, 29.268
788.605, 12.765
789.889, 10.367
791.173, 149.727
792.457, 32.197
793.741, 63.638
795.024, 113.063
796.307, 36.519
797.591, 83.375
798.873, 77.817
800.156, 94.264
801.439, 104.618
802.721, 101.307
804.003, 104.276
805.285, 92.471
806.566, 86.889
807.848, 67.302
809.129, 39.709
810.410, 49.615
811.691, 44.307
812.971, 61.903
814.252, 74.999
815.532, 82.390
816.812, 126.829
818.092, 43.211
819.371, 59.597
820.651, 118.949
821.930, 0.329
823.209, 151.602
824.488, 103.964
825.766, 70.324
827.045, 127.678
828.323, 70.028
829.601, 84.372
830.878, 88.711
832.156, 45.049
833.433, 113.382
834.710, 73.710
835.987, 83.048
837.264, 52.380
838.540, 50.710
839.817, 111.036
841.093, 125.462
842.369, 71.782
843.644, 73.155
844.920, 15.465
846.195, 59.768
847.470, 37.167
848.745, 21.462
850.020, 109.752
851.294, 92.042
852.568, 93.393
853.842, 55.330
855.116, 3.910
856.390, 28.143
857.663, 86.371
858.936, 84.595
860.209, 116.797
861.482, 25.127
862.755, 136.130
864.027, 71.341
865.299, 36.449
866.571, 101.666
867.843, 101.879
869.115, 112.760
870.386, 37.025
871.657, 177.989
872.928, 17.175
874.199, 71.355
875.470, 134.533
876.740, 26.708
878.010, 146.742
879.280, 106.740
880.550, 57.917
881.820, 162.103
883.089, 27.292
884.358, 12.043
885.627, 90.228
886.896, 54.409
888.164, 98.278
889.433, 39.455
890.701, 94.631
891.969, 86.220
893.236, 49.595
894.504, 123.540
895.771, 85.694
897.038, 1.847
898.305, 139.996
899.572, 44.143
900.838, 85.291
902.105, 121.437
903.371, 33.593
904.637, 23.750
905.902, 3.091
907.168, 137.071
908.433, 87.233
909.698, 46.067
910.963, 147.241
912.228, 19.003
913.492, 109.173
914.757, 70.342
916.021, 20.037
917.285, 78.119
918.548, 58.273
919.812, 36.152
921.075, 40.306
922.338, 102.354
923.601, 91.505
924.864, 74.654
926.126, 32.116
927.388, 114.016
928.650, 32.753
929.912, 46.881
931.174, 106.009
932.435, 45.136
933.697, 183.263
934.958, 73.390
936.218, 52.516
937.479, 91.643
938.739, 100.379
940.000, 43.395
941.260, 48.110
942.520, 52.770
943.779, 138.907
945.039, 82.960
946.298, 100.096
947.557, 170.231
948.816, 29.668
950.074, 80.452
951.333, 37.572
952.591, 96.897
953.849, 123.015
955.107, 172.131
956.365, 157.249
957.622, 94.367
958.879, 96.483
960.136, 73.598
961.393, 25.706
962.650, 121.819
963.906, 53.932
965.162, 6.956
966.418, 149.155
967.674, 14.272
968.930, 136.389
970.185, 93.546
971.441, 107.704
972.696, 78.817
973.950, 76.245
975.205, 37.359
976.459, 81.662
977.714, 61.774
978.968, 31.894
980.222, 59.005
981.475, 35.063
982.729, 138.468
983.982, 43.580
985.235, 61.689
986.488, 111.245
987.740, 43.355
988.993, 53.971
990.245, 75.079
991.497, 4.186
992.749, 74.370
994.000, 15.486
995.252, 158.602
996.503, 50.509
997.754, 5.623
999.005, 102.899
1000.256, 55.884
1001.506, 29.000
1002.756, 13.158
1004.006, 52.283
1005.256, 84.735
1006.506, 65.504
1007.755, 58.562
1009.005, 72.717
1010.254, 5.505
1011.502, 85.637
1012.751, 22.191
1014.000, 80.941
1015.248, 24.312
1016.496, 117.948
1017.744, 108.299
1018.991, 187.717
1020.239, 69.006
1021.486, 95.604
1022.733, 123.868
1023.980, 144.895
1025.227, 76.083
1026.473, 114.254
1027.719, 91.368
1028.965, 145.548
1030.211, 69.729
1031.457, 217.918
1032.702, 72.106
1033.948, 147.245
1035.193, 96.541
1036.438, 242.813
1037.682, 357.027
1038.927, 444.243
1040.171, 322.898
1041.415, 335.238
1042.659, 331.923
1043.903, 225.978
1045.146, 325.218
1046.390, 331.583
1047.633, 370.681
1048.876, 374.943
1050.118, 437.207
1051.361, 557.474
1052.603, 629.258
1053.845, 948.520
1055.087, 1685.885
1056.329, 3570.710
1057.571, 11993.972
1058.812, 38257.234
1060.053, 51490.496
1061.294, 34713.746
1062.535, 13227.093
1063.775, 5730.344
1065.016, 2719.603
1066.256, 1466.814
1067.496, 782.069
1068.736, 478.324
1069.975, 346.577
1071.214, 341.827
1072.454, 245.076
1073.693, 357.320
1074.931, 163.561
1076.170, 187.079
1077.408, 265.318
1078.647, 190.567
1079.885, 289.813
1081.122, 133.055
1082.360, 137.781
1083.597, 235.037
1084.835, 112.298
1086.072, 203.713
1087.308, 163.966
1088.545, 160.415
1089.781, 180.665
1091.018, 249.912
1092.254, 174.275
1093.490, 227.517
1094.725, 143.755
1095.961, 180.989
1097.196, 140.218
1098.431, 95.143
1099.666, 165.365
1100.900, 0.417
1102.135, 63.794
1103.369, 239.001
1104.603, 162.204
1105.837, 118.655
1107.071, 102.848
1108.304, 100.037
1109.538, 205.221
1110.771, 106.396
1112.004, 105.758
1113.236, 196.928
1114.469, 91.840
1115.701, 128.708
1116.933, 137.810
1118.165, 43.961
1119.397, 44.218
1120.629, 57.357
1121.860, 83.855
1123.091, 163.987
1124.322, 11.296
1125.553, 188.696
1126.783, 55.811
1128.014, 93.099
1129.244, 178.202
1130.474, 1.464
1131.704, 75.941
1132.933, 104.024
1134.163, 44.899
1135.392, 149.730
1136.621, 9.227
1137.850, 154.816
1139.079, 106.842
1140.307, 43.757
1141.535, 126.953
1142.763, 131.087
1143.991, 105.084
1145.219, 186.430
1146.446, 23.481
1147.674, 94.127
1148.901, 76.597
1150.128, 58.925
1151.354, 170.344
1152.581, 6.610
1153.807, 94.657
1155.033, 102.969
1156.259, 65.913
1157.485, 9.752
1158.710, 169.402
1159.936, 46.437
1161.161, 147.938
1162.386, 24.524
1163.611, 4.607
1164.835, 35.691
1166.060, 18.177
1167.284, 52.875
1168.508, 58.917
1169.732, 60.188
1170.955, 109.629
1172.179, 80.061
1173.402, 83.895
1174.625, 111.306
1175.848, 143.320
1177.070, 97.249
1178.293, 129.410
1179.515, 96.263
1180.737, 104.997
1181.959, 46.992
1183.181, 78.703
1184.402, 142.601
1185.624, 121.644
1186.845, 8.321
1188.066, 79.910
1189.286, 27.229
1190.507, 104.535
1191.727, 151.677
1192.947, 76.284
1194.167, 154.428
1195.387, 158.311
1196.607, 112.881
1197.826, 170.444
1199.045, 25.691
1200.264, 163.819
1201.483, 85.780
1202.702, 2.264
1203.920, 194.861
1205.138, 134.482
1206.356, 135.920
1207.574, 164.346
1208.792, 87.759
1210.009, 166.157
1211.227, 173.706
1212.444, 124.286
1213.661, 202.651
1214.877, 130.986
1216.094, 200.325
1217.310, 171.935
1218.526, 127.247
1219.742, 175.546
1220.958, 129.976
1222.173, 192.295
1223.389, 139.606
1224.604, 155.729
1225.819, 183.972
1227.034, 202.203
1228.248, 35.374
1229.463, 245.575
1230.677, 189.648
1231.891, 97.116
1233.105, 229.285
1234.318, 88.713
1235.532, 302.005
1236.745, 186.140
1237.958, 108.314
1239.171, 219.432
1240.384, 138.537
1241.596, 150.637
1242.809, 178.725
1244.021, 109.041
1245.233, 186.115
1246.444, 218.180
1247.656, 170.028
1248.867, 178.065
1250.079, 232.093
1251.290, 79.109
1252.500, 148.113
1253.711, 186.107
1254.921, 235.096
1256.132, 196.066
1257.342, 96.025
1258.552, 264.973
1259.761, 223.909
1260.971, 3.133
1262.180, 266.760
1263.389, 269.639
1264.598, 115.460
1265.807, 243.253
1267.015, 57.075
1268.223, 155.885
1269.432, 99.667
1270.640, 76.491
1271.847, 211.225
1273.055, 100.920
1274.262, 207.627
1275.470, 104.296
1276.677, 55.707
1277.883, 188.477
1279.090, 170.064
1280.296, 31.192
1281.503, 190.751
1282.709, 139.769
1283.915, 152.597
1285.120, 145.055
1286.326, 26.582
1287.531, 97.787
1288.736, 185.129
1289.941, 58.456
1291.146, 105.494
1292.350, 25.594
1293.555, 42.914
1294.759, 58.628
1295.963, 15.477
1297.167, 68.718
1298.370, 122.621
1299.574, 58.783
1300.777, 146.928
1301.980, 54.005
1303.183, 12.569
1304.386, 113.457
1305.588, 13.680
1306.790, 2.713
1307.993, 235.997
1309.195, 30.603
1310.396, 76.090
1311.598, 88.694
1312.799, 23.418
1314.000, 152.143
1315.201, 25.854
1316.402, 25.649
1317.603, 130.397
1318.803, 34.859
1320.003, 81.862
1321.203, 99.565
1322.403, 15.751
1323.603, 111.902
1324.802, 181.534
1326.002, 72.146
1327.201, 161.538
1328.400, 28.960
1329.599, 53.581
1330.797, 161.103
1331.995, 72.840
1333.194, 84.513
1334.392, 97.607
1335.589, 30.001
1336.787, 176.377
1337.985, 84.390
1339.182, 58.926
1340.379, 194.225
1341.576, 12.494
1342.772, 52.768
1343.969, 193.495
1345.165, 5.271
1346.361, 195.812
1347.557, 93.203
1348.753, 84.392
1349.949, 159.569
1351.144, 139.735
1352.339, 206.892
1353.534, 160.905
1354.729, 1.957
1355.924, 72.168
1357.118, 204.286
1358.312, 0.402
1359.506, 221.510
1360.700, 51.618
1361.894, 131.727
1363.088, 202.838
1364.281, 83.955
1365.474, 107.081
1366.667, 107.218
1367.860, 30.630
1369.052, 167.530
1370.245, 172.717
1371.437, 64.064
1372.629, 185.710
1373.821, 14.837
1375.013, 48.517
1376.204, 213.403
1377.395, 50.167
1378.586, 80.109
1379.777, 187.109
1380.968, 104.211
1382.159, 301.295
1383.349, 221.235
1384.539, 174.283
1385.729, 347.313
1386.919, 59.056
1388.109, 203.049
1389.298, 237.819
1390.487, 169.775
1391.676, 308.815
1392.865, 227.591
1394.054, 260.062
1395.242, 326.718
1396.431, 178.237
1397.619, 112.852
1398.807, 381.005
1399.995, 175.788
1401.182, 115.884
1402.370, 302.646
1403.557, 99.502
1404.744, 220.976
1405.931, 370.013
1407.118, 117.203
1408.304, 234.131
1409.490, 190.186
1410.676, 119.273
1411.862, 352.221
1413.048, 41.370
1414.234, 168.535
1415.419, 382.902
1416.604, 91.065
1417.789, 289.545
1418.974, 252.939
1420.159, 54.725
1421.343, 174.241
1422.528, 255.265
1423.712, 165.032
1424.896, 344.852
1426.079, 3.913
1427.263, 97.342
1428.446, 269.501
1429.629, 87.615
1430.812, 246.204
1431.995, 194.449
1433.178, 33.196
1434.360, 219.033
1435.543, 46.750
1436.725, 17.454
1437.907, 192.757
1439.088, 250.660
1440.270, 149.753
1441.451, 199.334
1442.632, 106.547
1443.813, 182.610
1444.994, 172.039
1446.175, 96.821
1447.355, 296.749
1448.535, 185.297
1449.715, 124.027
1450.895, 262.885
1452.075, 111.770
1453.255, 100.067
1454.434, 258.790
1455.613, 107.450
1456.792, 216.051
1457.971, 264.574
1459.149, 43.004
1460.328, 241.367
1461.506, 259.562
1462.684, 87.824
1463.862, 276.062
1465.040, 74.258
1466.217, 191.784
1467.395, 290.039
1468.572, 178.226
1469.749, 286.034
1470.925, 244.345
1472.102, 172.642
1473.278, 310.059
1474.455, 128.647
1475.631, 167.420
1476.807, 250.373
1477.982, 158.182
1479.158, 136.784
1480.333, 325.369
1481.508, 93.992
1482.683, 142.814
1483.858, 411.935
1485.033, 101.085
1486.207, 280.264
1487.381, 269.486
1488.555, 178.756
1489.729, 348.092
1490.903, 117.519
1492.076, 97.049
1493.250, 396.730
1494.423, 166.561
1495.596, 136.555
1496.769, 316.765
1497.941, 27.312
1499.114, 298.316
1500.286, 209.615
1501.458, 91.231
1502.630, 313.187
1503.802, 205.546
1504.973, 88.388
1506.145, 371.803
1507.316, 185.900
1508.487, 140.813
1509.657, 476.646
1510.828, 193.587
1511.999, 151.919
1513.169, 422.017
1514.339, 5.605
1515.509, 309.838
1516.678, 307.070
1517.848, 0.000
##END=



