##NAMES=Witherite
##RRUFFID=R050148
##IDEAL CHEMISTRY=BaCO_3_
##LOCALITY=Settlingstones mine, Fourstones, Northumberland, England
##OWNER=RRUFF
##SOURCE=Jim McGlasson
##DESCRIPTION=Tan colored crystal fragment
##STATUS=The identification of this mineral has been confirmed by X-ray diffraction and chemical analysis
##URL=rruff.info/R050148
##MEASURED CHEMISTRY=(Ba_0.96_Sr_0.04_)CO_3_
##PIN_ID=M00097
##ORIENTATION=Laser parallel to -b* (0 -1 0). Fiducial mark perpendicular to laser is parallel to c [0 0 1]
50.765, 0.000
52.166, 4.581
53.566, 5.713
54.966, 14.225
56.365, 21.356
57.765, 3.852
59.164, 8.934
60.563, 12.668
61.962, 1.838
63.360, 10.292
64.758, 9.564
66.157, 20.549
67.554, 7.163
68.952, 33.335
70.349, 33.008
71.747, 43.132
73.144, 36.667
74.540, 65.573
75.937, 99.818
77.333, 199.372
78.729, 439.209
80.125, 521.307
81.521, 419.648
82.916, 397.216
84.311, 369.994
85.706, 374.970
87.101, 364.133
88.496, 517.474
89.890, 700.984
91.284, 1077.653
92.678, 1478.474
94.071, 1814.435
95.465, 1697.524
96.858, 1225.730
98.251, 976.046
99.644, 758.467
101.036, 718.987
102.428, 756.603
103.820, 812.309
105.212, 757.103
106.604, 594.980
107.995, 517.940
109.387, 450.978
110.777, 447.094
112.168, 440.284
113.559, 421.547
114.949, 409.880
116.339, 587.282
117.729, 763.751
119.119, 442.286
120.508, 410.889
121.897, 386.553
123.286, 423.289
124.675, 438.088
126.063, 444.957
127.452, 481.880
128.840, 469.857
130.228, 569.887
131.615, 643.969
133.003, 756.102
134.390, 921.271
135.777, 1135.443
137.164, 1408.620
138.550, 1533.801
139.937, 1645.983
141.323, 1492.182
142.709, 1380.399
144.094, 1187.641
145.480, 1084.913
146.865, 1114.221
148.250, 1147.552
149.635, 1203.907
151.019, 1261.290
152.403, 1364.711
153.788, 1564.161
155.171, 1807.637
156.555, 2184.140
157.939, 2545.672
159.322, 3113.230
160.705, 3726.819
162.088, 4519.440
163.470, 5126.093
164.853, 4814.774
166.235, 4147.499
167.617, 2887.253
168.998, 2039.034
170.380, 1475.841
171.761, 1012.675
173.142, 765.535
174.523, 563.434
175.904, 516.359
177.284, 444.312
178.664, 437.294
180.044, 376.300
181.424, 385.331
182.803, 380.391
184.183, 376.481
185.562, 360.595
186.940, 282.733
188.319, 307.084
189.698, 297.267
191.076, 248.473
192.454, 248.703
193.831, 238.547
195.209, 218.818
196.586, 250.115
197.963, 223.749
199.340, 251.625
200.717, 258.986
202.093, 252.368
203.470, 243.772
204.846, 255.196
206.221, 235.641
207.597, 260.106
208.972, 289.651
210.347, 322.160
211.722, 350.689
213.097, 397.253
214.472, 506.842
215.846, 620.452
217.220, 787.678
218.594, 983.931
219.967, 1188.751
221.341, 1447.116
222.714, 1429.488
224.087, 1496.881
225.460, 1445.408
226.832, 1414.462
228.204, 1369.122
229.577, 1307.076
230.948, 1236.848
232.320, 1016.672
233.692, 882.696
235.063, 728.613
236.434, 632.078
237.805, 550.080
239.175, 472.818
240.545, 413.447
241.916, 345.560
243.286, 334.707
244.655, 282.887
246.025, 259.099
247.394, 241.343
248.763, 202.620
250.132, 218.145
251.501, 192.047
252.869, 153.792
254.237, 150.177
255.605, 113.587
256.973, 158.025
258.340, 130.487
259.708, 135.976
261.075, 109.485
262.442, 108.068
263.808, 131.620
265.175, 92.193
266.541, 116.788
267.907, 61.403
269.273, 82.523
270.639, 77.177
272.004, 52.150
273.369, 72.847
274.734, 57.684
276.099, 97.448
277.463, 67.199
278.828, 51.336
280.192, 76.126
281.556, 52.932
282.919, 43.881
284.283, 35.718
285.646, 86.571
287.009, 38.440
288.372, 53.323
289.734, 48.221
291.097, 66.133
292.459, 98.089
293.821, 38.032
295.183, 54.995
296.544, 68.965
297.905, 41.948
299.266, 70.261
300.627, 63.272
301.988, 50.296
303.348, 17.575
304.709, 64.628
306.069, 43.694
307.428, 1.773
308.788, 66.864
310.147, 13.969
311.507, 72.086
312.865, 33.149
314.224, 44.297
315.583, 31.456
316.941, 20.628
318.299, 43.811
319.657, 17.006
321.015, 23.212
322.372, 50.429
323.729, 11.343
325.086, 23.896
326.443, 18.145
327.800, 51.411
329.156, 23.689
330.512, 8.976
331.868, 16.441
333.224, 24.252
334.579, 64.067
335.935, 16.395
337.290, 35.732
338.645, 56.451
339.999, 6.808
341.354, 9.174
342.708, 15.451
344.062, 43.047
345.416, 22.027
346.769, 41.371
348.123, 13.778
349.476, 4.193
350.829, 36.616
352.182, 19.047
353.534, 19.485
354.887, 31.951
356.239, 48.408
357.591, 50.870
358.942, 11.340
360.294, 40.817
361.645, 56.343
362.996, 4.169
364.347, 24.514
365.698, 39.248
367.048, 25.758
368.398, 17.393
369.748, 13.917
371.098, 41.556
372.448, 32.155
373.797, 25.698
375.146, 6.819
376.495, 25.375
377.844, 47.937
379.192, 3.252
380.540, 20.328
381.889, 18.700
383.236, 78.900
384.584, 21.512
385.932, 51.136
387.279, 53.771
388.626, 3.943
389.973, 52.603
391.319, 9.727
392.666, 36.951
394.012, 60.661
395.358, 6.641
396.704, 27.064
398.049, 16.758
399.394, 36.961
400.740, 21.312
402.084, 17.582
403.429, 75.150
404.774, 20.891
406.118, 28.641
407.462, 10.397
408.806, 11.591
410.150, 0.617
411.493, 7.604
412.836, 16.819
414.179, 12.032
415.522, 15.465
416.865, 32.262
418.207, 32.029
419.549, 10.839
420.891, 0.923
422.233, 12.017
423.575, 1.153
424.916, 28.682
426.257, 7.523
427.598, 42.864
428.939, 39.717
430.279, 12.425
431.619, 16.495
432.959, 7.641
434.299, 25.880
435.639, 2.248
436.978, 0.627
438.318, 30.777
439.657, 29.338
440.996, 5.600
442.334, 24.481
443.673, 1.633
445.011, 11.326
446.349, 10.219
447.687, 61.350
449.024, 41.251
450.361, 23.156
451.699, 39.065
453.036, 1.979
454.372, 27.751
455.709, 19.311
457.045, 49.604
458.381, 50.522
459.717, 4.556
461.053, 24.103
462.388, 22.029
463.724, 2.110
465.059, 43.820
466.394, 13.757
467.728, 24.758
469.063, 32.710
470.397, 61.915
471.731, 35.872
473.065, 15.169
474.398, 17.288
475.732, 13.247
477.065, 55.286
478.398, 12.249
479.731, 9.215
481.063, 18.184
482.396, 14.155
483.728, 69.127
485.060, 38.990
486.391, 48.966
487.723, 69.502
489.054, 28.481
490.385, 61.462
491.716, 3.444
493.047, 40.427
494.377, 79.532
495.708, 17.517
497.038, 100.503
498.368, 0.510
499.697, 80.475
501.027, 14.461
502.356, 16.447
503.685, 6.153
505.014, 2.859
506.342, 69.643
507.671, 35.627
508.999, 60.611
510.327, 13.598
511.655, 14.585
512.982, 41.572
514.310, 12.017
515.637, 50.005
516.964, 30.993
518.291, 17.981
519.617, 36.970
520.944, 11.958
522.270, 25.946
523.596, 6.879
524.921, 5.865
526.247, 89.849
527.572, 9.833
528.897, 60.815
530.222, 10.193
531.547, 9.212
532.871, 34.759
534.196, 0.270
535.520, 20.696
536.844, 24.661
538.167, 11.375
539.491, 59.526
540.814, 4.479
542.137, 82.919
543.460, 28.867
544.783, 54.814
546.105, 44.761
547.427, 1.706
548.749, 95.646
550.071, 35.584
551.393, 30.287
552.714, 19.223
554.035, 29.157
555.356, 100.937
556.677, 3.869
557.998, 49.292
559.318, 40.217
560.638, 64.443
561.958, 60.814
563.278, 28.779
564.597, 31.701
565.917, 59.621
567.236, 4.656
568.555, 9.569
569.874, 30.474
571.192, 55.232
572.511, 44.568
573.829, 0.913
575.147, 37.985
576.464, 5.048
577.782, 74.838
579.099, 9.721
580.416, 9.923
581.733, 38.806
583.050, 42.634
584.366, 71.512
585.683, 4.388
586.999, 62.276
588.315, 50.145
589.630, 20.525
590.946, 71.389
592.261, 16.051
593.576, 52.793
594.891, 78.513
596.206, 11.321
597.520, 50.155
598.834, 6.382
600.148, 39.438
601.462, 53.255
602.776, 19.941
604.089, 63.780
605.402, 12.590
606.715, 57.395
608.028, 74.198
609.341, 32.997
610.653, 62.051
611.965, 2.185
613.277, 26.599
614.589, 77.373
615.901, 68.151
617.212, 49.925
618.523, 0.621
619.834, 60.141
621.145, 3.817
622.456, 57.702
623.766, 50.443
625.076, 23.186
626.386, 100.942
627.696, 14.678
629.006, 39.409
630.315, 61.135
631.624, 12.074
632.933, 56.352
634.242, 24.056
635.551, 73.755
636.859, 45.740
638.167, 40.434
639.475, 74.125
640.783, 60.813
642.090, 27.497
643.398, 90.178
644.705, 12.145
646.012, 80.515
647.318, 43.172
648.625, 60.824
649.931, 67.586
651.237, 3.232
652.543, 96.870
653.849, 61.505
655.155, 86.136
656.460, 91.392
657.765, 42.016
659.070, 99.636
660.375, 36.253
661.679, 61.899
662.984, 58.976
664.288, 48.587
665.592, 53.193
666.895, 42.129
668.199, 56.728
669.502, 64.363
670.805, 7.954
672.108, 94.522
673.411, 56.102
674.713, 66.678
676.016, 89.250
677.318, 44.819
678.620, 55.341
679.921, 93.920
681.223, 86.290
682.524, 123.611
683.825, 72.160
685.126, 98.587
686.427, 146.289
687.727, 249.718
689.028, 366.192
690.328, 905.725
691.628, 1923.681
692.927, 2824.206
694.227, 3093.727
695.526, 2311.001
696.825, 1212.669
698.124, 746.801
699.423, 446.309
700.721, 375.813
702.020, 275.316
703.318, 175.815
704.616, 200.785
705.913, 109.288
707.211, 109.775
708.508, 88.265
709.805, 65.760
711.102, 85.242
712.399, 50.725
713.695, 44.739
714.992, 50.215
716.288, 67.688
717.584, 53.161
718.879, 25.637
720.175, 61.756
721.470, 72.224
722.765, 19.688
724.060, 109.719
725.355, 57.921
726.649, 23.142
727.944, 96.590
729.238, 32.047
730.532, 82.787
731.825, 22.229
733.119, 44.704
734.412, 109.138
735.705, 10.294
736.998, 92.449
738.291, 56.870
739.584, 56.288
740.876, 52.701
742.168, 27.990
743.460, 78.397
744.752, 40.800
746.043, 55.141
747.334, 67.540
748.626, 40.331
749.916, 80.724
751.207, 53.114
752.498, 54.231
753.788, 76.615
755.078, 54.940
756.368, 78.323
757.658, 53.703
758.947, 23.457
760.237, 76.831
761.526, 45.967
762.815, 95.334
764.104, 56.698
765.392, 9.069
766.680, 93.424
767.969, 60.922
769.257, 44.254
770.544, 84.604
771.832, 48.952
773.119, 65.296
774.406, 28.903
775.693, 6.426
776.980, 22.829
778.267, 7.838
779.553, 46.483
780.839, 24.260
782.125, 80.083
783.411, 56.127
784.697, 53.419
785.982, 61.709
787.267, 4.503
788.552, 96.778
789.837, 42.979
791.122, 3.255
792.406, 49.892
793.690, 35.161
794.974, 36.453
796.258, 81.716
797.542, 24.929
798.825, 94.187
800.108, 37.883
801.391, 21.136
802.674, 65.386
803.957, 1.634
805.239, 95.877
806.522, 23.486
807.804, 85.724
809.085, 75.961
810.367, 30.195
811.649, 93.429
812.930, 56.661
814.211, 31.890
815.492, 5.521
816.772, 29.746
818.053, 81.970
819.333, 62.205
820.613, 0.575
821.893, 64.639
823.173, 11.852
824.452, 50.062
825.732, 81.812
827.011, 49.019
828.290, 86.223
829.568, 19.424
830.847, 55.624
832.125, 55.822
833.403, 13.018
834.681, 66.212
835.959, 36.405
837.236, 65.597
838.514, 72.788
839.791, 31.023
841.068, 97.146
842.345, 62.865
843.621, 53.040
844.898, 90.213
846.174, 31.387
847.450, 78.562
848.726, 44.737
850.001, 0.914
851.277, 24.089
852.552, 60.264
853.827, 75.437
855.102, 20.045
856.376, 35.215
857.651, 68.384
858.925, 13.581
860.199, 106.749
861.473, 80.971
862.746, 10.137
864.020, 90.300
865.293, 26.963
866.566, 49.124
867.839, 73.285
869.112, 32.446
870.384, 49.605
871.656, 46.703
872.928, 7.186
874.200, 68.964
875.472, 50.113
876.744, 85.143
878.015, 42.301
879.286, 9.542
880.557, 99.540
881.828, 14.691
883.098, 117.838
884.369, 42.989
885.639, 69.068
886.909, 80.222
888.178, 29.625
889.448, 53.193
890.717, 49.329
891.987, 63.464
893.256, 105.598
894.524, 4.268
895.793, 55.846
897.061, 61.976
898.330, 43.110
899.598, 81.244
900.865, 4.376
902.133, 60.514
903.401, 56.651
904.668, 14.788
905.935, 69.926
907.202, 20.062
908.468, 51.203
909.735, 92.344
911.001, 6.516
912.267, 36.594
913.533, 76.729
914.799, 20.864
916.064, 102.999
917.330, 12.133
918.595, 20.011
919.860, 119.145
921.124, 40.281
922.389, 44.418
923.653, 29.553
924.918, 64.692
926.182, 88.830
927.445, 3.029
928.709, 57.827
929.972, 63.961
931.236, 47.109
932.499, 119.251
933.761, 0.376
935.024, 125.518
936.286, 40.661
937.549, 56.803
938.811, 47.946
940.073, 52.375
941.334, 37.523
942.596, 111.673
943.857, 8.467
945.118, 45.679
946.379, 2.824
947.640, 73.969
948.900, 107.113
950.161, 18.258
951.421, 95.403
952.681, 22.555
953.940, 53.707
955.200, 71.860
956.459, 15.733
957.719, 37.886
958.978, 70.042
960.236, 70.197
961.495, 36.353
962.753, 82.509
964.012, 51.665
965.270, 106.821
966.527, 10.023
967.785, 78.983
969.043, 62.136
970.300, 5.289
971.557, 52.442
972.814, 16.264
974.071, 77.418
975.327, 35.534
976.583, 9.689
977.840, 97.897
979.095, 15.055
980.351, 53.213
981.607, 91.372
982.862, 16.531
984.117, 62.691
985.372, 94.834
986.627, 32.995
987.882, 102.156
989.136, 44.318
990.390, 71.481
991.644, 35.482
992.898, 14.355
994.152, 79.803
995.405, 9.963
996.659, 67.122
997.912, 64.099
999.165, 12.260
1000.417, 97.420
1001.670, 32.484
1002.922, 48.660
1004.174, 105.864
1005.426, 11.959
1006.678, 81.215
1007.930, 85.476
1009.181, 0.662
1010.432, 148.838
1011.683, 22.975
1012.934, 43.209
1014.185, 105.363
1015.435, 13.448
1016.685, 93.744
1017.935, 87.995
1019.185, 86.188
1020.435, 73.386
1021.684, 21.365
1022.934, 162.827
1024.183, 106.468
1025.432, 25.728
1026.680, 101.921
1027.929, 33.412
1029.177, 86.606
1030.425, 102.469
1031.673, 28.666
1032.921, 161.854
1034.169, 144.175
1035.416, 94.373
1036.663, 147.572
1037.911, 68.887
1039.157, 186.093
1040.404, 253.371
1041.650, 347.575
1042.897, 441.780
1044.143, 255.053
1045.389, 160.886
1046.634, 203.094
1047.880, 115.327
1049.125, 250.566
1050.371, 275.786
1051.615, 300.956
1052.860, 376.176
1054.105, 332.515
1055.349, 503.758
1056.593, 732.978
1057.837, 999.371
1059.081, 1998.591
1060.325, 4940.848
1061.568, 19340.748
1062.812, 48407.969
1064.055, 47665.281
1065.298, 24582.502
1066.540, 9289.729
1067.783, 3918.124
1069.025, 1954.354
1070.267, 924.585
1071.509, 648.816
1072.751, 493.046
1073.993, 314.038
1075.234, 306.270
1076.475, 262.500
1077.716, 229.619
1078.957, 250.852
1080.198, 163.271
1081.438, 183.595
1082.679, 174.832
1083.919, 110.118
1085.159, 226.365
1086.398, 104.612
1087.638, 185.861
1088.877, 175.109
1090.116, 111.361
1091.355, 186.698
1092.594, 124.950
1093.833, 169.844
1095.071, 179.096
1096.309, 106.320
1097.547, 156.572
1098.785, 202.822
1100.023, 67.080
1101.260, 128.435
1102.498, 120.684
1103.735, 94.108
1104.972, 191.356
1106.208, 47.604
1107.445, 155.852
1108.681, 130.099
1109.918, 46.346
1111.154, 145.656
1112.389, 78.902
1113.625, 125.146
1114.860, 141.391
1116.096, 47.230
1117.331, 115.618
1118.566, 75.860
1119.800, 74.089
1121.035, 115.539
1122.269, 61.783
1123.503, 37.128
1124.737, 129.449
1125.971, 7.689
1127.205, 84.075
1128.438, 112.312
1129.671, 44.549
1130.904, 175.975
1132.137, 53.208
1133.370, 86.652
1134.602, 94.883
1135.834, 34.112
1137.066, 107.559
1138.298, 101.786
1139.530, 36.010
1140.762, 94.251
1141.993, 30.935
1143.224, 58.270
1144.455, 119.688
1145.686, 18.086
1146.917, 141.169
1148.147, 89.385
1149.377, 10.599
1150.607, 161.388
1151.837, 21.607
1153.067, 101.823
1154.296, 102.890
1155.526, 8.103
1156.755, 105.883
1157.984, 73.266
1159.213, 48.471
1160.441, 99.023
1161.670, 58.241
1162.898, 31.473
1164.126, 48.976
1165.354, 21.171
1166.581, 106.363
1167.809, 96.944
1169.036, 25.132
1170.263, 116.543
1171.490, 13.845
1172.717, 21.027
1173.943, 92.428
1175.170, 37.397
1176.396, 78.756
1177.622, 6.718
1178.848, 73.429
1180.073, 90.622
1181.299, 9.820
1182.524, 48.961
1183.749, 112.308
1184.974, 12.501
1186.199, 136.633
1187.423, 23.501
1188.648, 57.635
1189.872, 146.870
1191.096, 26.215
1192.320, 54.338
1193.543, 70.914
1194.767, 15.869
1195.990, 36.240
1197.213, 54.874
1198.436, 73.976
1199.659, 145.074
1200.881, 18.337
1202.104, 41.427
1203.326, 98.598
1204.548, 6.679
1205.770, 121.756
1206.991, 40.151
1208.213, 18.219
1209.434, 159.368
1210.655, 31.464
1211.876, 119.523
1213.096, 108.421
1214.317, 10.637
1215.537, 179.680
1216.757, 97.937
1217.977, 119.969
1219.197, 131.995
1220.417, 8.635
1221.636, 103.375
1222.855, 109.421
1224.074, 37.577
1225.293, 114.581
1226.512, 10.999
1227.731, 35.154
1228.949, 155.150
1230.167, 36.573
1231.385, 59.579
1232.603, 124.569
1233.820, 59.150
1235.038, 152.135
1236.255, 82.267
1237.472, 38.332
1238.689, 190.310
1239.906, 57.285
1241.122, 104.259
1242.338, 133.231
1243.555, 67.432
1244.771, 111.398
1245.986, 59.361
1247.202, 36.320
1248.417, 155.277
1249.633, 20.230
1250.848, 115.179
1252.063, 122.124
1253.277, 95.160
1254.492, 142.101
1255.706, 125.037
1256.920, 48.984
1258.134, 171.914
1259.348, 83.822
1260.562, 170.029
1261.775, 133.913
1262.988, 31.795
1264.201, 84.664
1265.414, 170.512
1266.627, 17.983
1267.839, 101.814
1269.052, 43.640
1270.264, 49.499
1271.476, 163.315
1272.688, 34.075
1273.899, 138.880
1275.111, 143.680
1276.322, 24.476
1277.533, 168.262
1278.744, 20.042
1279.955, 76.813
1281.165, 130.581
1282.376, 19.325
1283.586, 79.063
1284.796, 122.796
1286.006, 70.524
1287.215, 158.246
1288.425, 47.957
1289.634, 27.655
1290.843, 179.347
1292.052, 64.216
1293.261, 91.199
1294.469, 134.872
1295.678, 48.519
1296.886, 151.010
1298.094, 93.616
1299.302, 15.243
1300.509, 99.948
1301.717, 31.529
1302.924, 29.085
1304.131, 104.671
1305.338, 12.752
1306.545, 73.989
1307.752, 70.553
1308.958, 34.895
1310.164, 85.813
1311.370, 114.288
1312.576, 12.187
1313.782, 112.539
1314.987, 39.992
1316.193, 51.497
1317.398, 113.886
1318.603, 27.297
1319.807, 148.769
1321.012, 89.939
1322.216, 7.398
1323.421, 183.601
1324.625, 68.046
1325.829, 66.485
1327.032, 117.837
1328.236, 31.265
1329.439, 67.681
1330.642, 114.975
1331.845, 1.656
1333.048, 118.659
1334.251, 57.010
1335.453, 30.353
1336.656, 106.921
1337.858, 4.242
1339.060, 59.555
1340.261, 140.627
1341.463, 30.112
1342.664, 208.162
1343.866, 143.478
1345.067, 43.731
1346.267, 144.821
1347.468, 63.995
1348.669, 115.183
1349.869, 169.357
1351.069, 18.511
1352.269, 100.617
1353.469, 66.462
1354.668, 5.473
1355.868, 206.490
1357.067, 2.365
1358.266, 46.618
1359.465, 151.316
1360.664, 34.204
1361.862, 91.917
1363.061, 131.929
1364.259, 17.040
1365.457, 146.047
1366.655, 77.736
1367.852, 51.299
1369.050, 227.955
1370.247, 11.603
1371.444, 51.330
1372.641, 137.047
1373.838, 11.667
1375.035, 86.363
1376.231, 171.062
1377.427, 3.746
1378.623, 148.316
1379.819, 55.799
1381.015, 71.472
1382.211, 172.138
1383.406, 99.725
1384.601, 104.378
1385.796, 144.855
1386.991, 38.496
1388.185, 180.876
1389.380, 230.277
1390.574, 102.712
1391.768, 232.320
1392.962, 109.686
1394.156, 104.015
1395.350, 258.325
1396.543, 74.909
1397.736, 182.477
1398.929, 172.662
1400.122, 95.184
1401.315, 176.755
1402.507, 198.430
1403.700, 30.518
1404.892, 203.405
1406.084, 100.552
1407.276, 120.943
1408.467, 201.226
1409.659, 0.563
1410.850, 158.828
1412.041, 161.697
1413.232, 79.646
1414.423, 239.942
1415.614, 187.662
1416.804, 93.794
1417.994, 289.737
1419.184, 156.914
1420.374, 136.973
1421.564, 315.677
1422.753, 232.140
1423.943, 424.188
1425.132, 546.992
1426.321, 464.840
1427.510, 443.826
1428.698, 367.960
1429.887, 163.495
1431.075, 287.512
1432.263, 108.975
1433.451, 135.704
1434.639, 233.325
1435.827, 22.675
1437.014, 157.642
1438.201, 163.352
1439.388, 20.867
1440.575, 140.155
1441.762, 160.022
1442.949, 65.566
1444.135, 247.846
1445.321, 81.616
1446.507, 128.352
1447.693, 241.493
1448.879, 46.151
1450.064, 156.771
1451.250, 194.358
1452.435, 46.656
1453.620, 130.117
1454.805, 124.621
1455.989, 35.328
1457.174, 220.904
1458.358, 83.721
1459.542, 107.360
1460.726, 169.858
1461.910, 124.450
1463.093, 148.013
1464.277, 226.578
1465.460, 43.134
1466.643, 191.789
1467.826, 171.420
1469.009, 5.931
1470.191, 295.783
1471.373, 111.263
1472.556, 168.931
1473.738, 249.436
1474.919, 76.460
1476.101, 154.775
1477.283, 194.169
1478.464, 23.675
1479.645, 243.094
1480.826, 180.354
1482.007, 2.643
1483.187, 205.538
1484.368, 137.749
1485.548, 74.908
1486.728, 228.648
1487.908, 83.534
1489.088, 164.824
1490.268, 228.245
1491.447, 42.537
1492.626, 163.847
1493.805, 186.937
1494.984, 4.147
1496.163, 191.588
1497.341, 142.899
1498.520, 48.115
1499.698, 205.074
1500.876, 59.599
1502.054, 40.478
1503.232, 186.204
1504.409, 0.185
1505.586, 0.000
##END=



