##NAMES=Witherite
##RRUFFID=R050148
##IDEAL CHEMISTRY=BaCO_3_
##LOCALITY=Settlingstones mine, Fourstones, Northumberland, England
##OWNER=RRUFF
##SOURCE=Jim McGlasson
##DESCRIPTION=Tan colored crystal fragment
##STATUS=The identification of this mineral has been confirmed by X-ray diffraction and chemical analysis
##URL=rruff.info/R050148
##MEASURED CHEMISTRY=(Ba_0.96_Sr_0.04_)CO_3_
##PIN_ID=L00254
##ORIENTATION=Laser parallel to c* (0 0 1). Fiducial mark perpendicular to laser is parallel to a [1 0 0]
105.505, 0.000
106.902, 4.860
108.298, 71.648
109.694, 40.196
111.090, 57.684
112.486, 101.110
113.881, 112.001
115.277, 192.723
116.672, 196.130
118.066, 249.393
119.461, 255.881
120.855, 312.109
122.249, 321.695
123.643, 349.332
125.036, 378.770
126.430, 398.804
127.823, 450.264
129.216, 512.998
130.608, 591.876
132.001, 637.787
133.393, 735.636
134.785, 707.344
136.176, 828.841
137.568, 814.063
138.959, 938.954
140.350, 1087.467
141.741, 1204.560
143.131, 1421.194
144.521, 1640.336
145.911, 1747.959
147.301, 1862.036
148.691, 1957.530
150.080, 2089.399
151.469, 2420.615
152.858, 2806.151
154.247, 3471.992
155.635, 4208.121
157.024, 4634.529
158.411, 5077.191
159.799, 4903.628
161.187, 4942.287
162.574, 3988.695
163.961, 3092.321
165.348, 2114.174
166.734, 1563.239
168.121, 1072.490
169.507, 850.916
170.893, 675.518
172.278, 561.299
173.664, 430.252
175.049, 348.368
176.434, 342.669
177.819, 284.154
179.203, 360.701
180.587, 266.469
181.971, 287.379
183.355, 290.437
184.739, 205.669
186.122, 254.020
187.505, 220.555
188.888, 218.219
190.271, 209.824
191.653, 213.401
193.035, 205.972
194.417, 203.578
195.799, 195.184
197.180, 205.838
198.562, 203.529
199.943, 223.268
201.324, 220.225
202.704, 240.075
204.084, 252.216
205.465, 228.145
206.844, 304.513
208.224, 337.656
209.603, 412.901
210.983, 506.190
212.362, 641.761
213.740, 774.166
215.119, 949.924
216.497, 924.529
217.875, 1251.121
219.253, 1288.200
220.631, 1359.897
222.008, 1546.809
223.385, 1719.800
224.762, 1797.229
226.139, 1763.123
227.515, 1705.269
228.891, 1404.347
230.267, 1238.398
231.643, 962.507
233.018, 860.673
234.394, 684.919
235.769, 579.726
237.144, 464.272
238.518, 428.003
239.893, 407.678
241.267, 291.545
242.641, 349.187
244.014, 264.118
245.388, 219.033
246.761, 240.362
248.134, 241.013
249.507, 176.711
250.879, 141.451
252.252, 168.101
253.624, 173.163
254.996, 111.991
256.367, 123.448
257.739, 87.162
259.110, 75.511
260.481, 136.153
261.852, 155.351
263.222, 108.032
264.592, 99.344
265.962, 86.445
267.332, 151.066
268.702, 73.371
270.071, 129.221
271.440, 175.903
272.809, 80.377
274.178, 70.974
275.546, 62.764
276.915, 83.877
278.283, 51.322
279.650, 51.952
281.018, 51.809
282.385, 64.053
283.752, 48.286
285.119, 17.746
286.486, 64.279
287.852, 38.943
289.218, 57.729
290.584, 29.629
291.950, 72.838
293.316, 27.947
294.681, 12.749
296.046, 37.536
297.411, 5.466
298.775, 2.532
300.140, 7.492
301.504, 48.320
302.868, 12.768
304.231, 51.655
305.595, 35.860
306.958, 17.292
308.321, 53.611
309.684, 25.567
311.047, 9.547
312.409, 0.397
313.771, 19.127
315.133, 14.275
316.495, 28.467
317.856, 14.299
319.217, 18.974
320.578, 89.882
321.939, 19.216
323.299, 46.818
324.660, 69.245
326.020, 5.304
327.380, 40.181
328.739, 23.711
330.099, 21.741
331.458, 36.841
332.817, 5.453
334.176, 54.093
335.534, 10.239
336.892, 11.530
338.251, 70.250
339.608, 11.006
340.966, 44.762
342.323, 51.275
343.681, 88.539
345.037, 14.379
346.394, 51.241
347.751, 10.877
349.107, 31.255
350.463, 4.823
351.819, 46.287
353.174, 42.245
354.530, 23.227
355.885, 5.528
357.240, 1.575
358.594, 85.581
359.949, 9.634
361.303, 1.295
362.657, 50.474
364.011, 20.422
365.365, 28.893
366.718, 9.973
368.071, 21.436
369.424, 14.223
370.777, 10.787
372.129, 2.404
373.481, 15.152
374.833, 23.064
376.185, 5.528
377.537, 11.714
378.888, 96.604
380.239, 13.134
381.590, 37.696
382.941, 19.879
384.291, 21.531
385.642, 23.900
386.992, 23.209
388.341, 48.467
389.691, 52.071
391.040, 15.821
392.389, 35.167
393.738, 16.547
395.087, 23.087
396.435, 23.825
397.784, 2.207
399.132, 52.406
400.479, 17.010
401.827, 18.405
403.174, 17.807
404.521, 13.533
405.868, 15.880
407.215, 18.667
408.561, 24.777
409.908, 7.607
411.254, 34.819
412.599, 37.208
413.945, 48.735
415.290, 39.690
416.636, 12.597
417.980, 41.830
419.325, 70.868
420.670, 0.304
422.014, 25.787
423.358, 35.364
424.702, 27.012
426.045, 19.585
427.389, 34.835
428.732, 47.060
430.075, 24.557
431.417, 31.963
432.760, 14.342
434.102, 26.059
435.444, 5.493
436.786, 27.974
438.127, 73.440
439.469, 12.556
440.810, 71.056
442.151, 27.981
443.492, 15.648
444.832, 51.452
446.172, 15.369
447.512, 63.923
448.852, 63.488
450.192, 30.073
451.531, 31.667
452.870, 12.271
454.209, 22.947
455.548, 17.052
456.887, 43.306
458.225, 3.879
459.563, 3.002
460.901, 34.367
462.238, 15.191
463.576, 20.191
464.913, 18.416
466.250, 10.383
467.587, 60.998
468.923, 75.475
470.259, 58.097
471.596, 21.234
472.931, 62.408
474.267, 13.010
475.603, 114.709
476.938, 72.568
478.273, 59.189
479.608, 37.666
480.942, 10.292
482.276, 1.920
483.611, 11.686
484.944, 9.854
486.278, 38.916
487.612, 45.486
488.945, 35.097
490.278, 71.793
491.611, 57.546
492.943, 45.158
494.276, 40.046
495.608, 74.657
496.940, 34.154
498.271, 106.764
499.603, 99.393
500.934, 77.867
502.265, 31.716
503.596, 130.182
504.927, 111.887
506.257, 65.487
507.587, 147.085
508.917, 30.928
510.247, 71.519
511.577, 34.482
512.906, 59.066
514.235, 107.893
515.564, 4.472
516.892, 52.053
518.221, 85.615
519.549, 109.175
520.877, 62.731
522.205, 21.259
523.533, 56.802
524.860, 38.915
526.187, 67.450
527.514, 36.793
528.841, 41.317
530.167, 37.536
531.493, 69.827
532.820, 39.334
534.145, 111.491
535.471, 42.999
536.796, 131.373
538.122, 26.869
539.447, 64.355
540.771, 45.504
542.096, 38.843
543.420, 39.311
544.744, 47.156
546.068, 110.609
547.392, 19.191
548.715, 119.626
550.039, 27.192
551.362, 61.622
552.684, 59.046
554.007, 85.465
555.329, 33.271
556.652, 67.673
557.973, 72.036
559.295, 58.968
560.617, 84.351
561.938, 69.729
563.259, 46.101
564.580, 141.961
565.901, 60.318
567.221, 60.911
568.541, 15.319
569.861, 96.253
571.181, 34.572
572.501, 59.395
573.820, 72.595
575.139, 11.678
576.458, 100.313
577.777, 29.417
579.095, 87.586
580.414, 59.580
581.732, 15.998
583.049, 50.315
584.367, 84.172
585.685, 41.287
587.002, 49.699
588.319, 33.955
589.636, 53.117
590.952, 41.645
592.268, 126.697
593.585, 59.840
594.900, 56.779
596.216, 79.908
597.532, 26.029
598.847, 101.084
600.162, 28.816
601.477, 20.248
602.792, 14.897
604.106, 36.122
605.420, 79.186
606.734, 83.185
608.048, 91.558
609.361, 84.542
610.675, 95.038
611.988, 58.282
613.301, 97.236
614.614, 47.080
615.926, 19.020
617.238, 34.386
618.550, 77.682
619.862, 94.135
621.174, 71.813
622.485, 99.916
623.797, 36.636
625.108, 70.167
626.418, 60.025
627.729, 132.875
629.039, 58.716
630.349, 58.619
631.659, 82.442
632.969, 51.835
634.279, 42.658
635.588, 73.452
636.897, 111.237
638.206, 128.511
639.515, 129.343
640.823, 119.810
642.131, 100.981
643.439, 91.093
644.747, 63.841
646.055, 72.581
647.362, 53.297
648.669, 1.473
649.976, 104.172
651.283, 40.863
652.589, 80.710
653.896, 112.381
655.202, 144.266
656.508, 61.920
657.814, 132.566
659.119, 5.530
660.424, 70.979
661.729, 8.594
663.034, 81.189
664.339, 82.796
665.643, 34.379
666.947, 138.713
668.251, 32.324
669.555, 81.698
670.859, 5.231
672.162, 116.745
673.465, 61.948
674.768, 89.064
676.071, 106.550
677.373, 90.038
678.676, 91.606
679.978, 160.395
681.280, 129.905
682.581, 114.290
683.883, 248.738
685.184, 439.086
686.485, 1009.341
687.786, 1910.662
689.087, 3026.077
690.387, 3928.243
691.687, 3784.195
692.987, 2783.406
694.287, 1575.788
695.586, 916.520
696.886, 556.881
698.185, 315.431
699.484, 223.484
700.783, 178.526
702.081, 207.964
703.379, 48.289
704.677, 92.659
705.975, 46.965
707.273, 148.602
708.570, 100.888
709.868, 166.139
711.165, 45.434
712.462, 78.199
713.758, 111.450
715.055, 24.792
716.351, 197.001
717.647, 87.300
718.943, 75.519
720.238, 57.477
721.533, 120.680
722.829, 139.839
724.124, 54.000
725.418, 147.983
726.713, 86.155
728.007, 49.017
729.301, 164.136
730.595, 12.297
731.889, 153.154
733.182, 119.294
734.476, 9.784
735.769, 85.900
737.061, 36.036
738.354, 40.994
739.647, 50.892
740.939, 89.021
742.231, 123.780
743.523, 20.710
744.814, 59.380
746.106, 42.366
747.397, 4.198
748.688, 70.443
749.978, 116.488
751.269, 90.498
752.559, 57.536
753.849, 70.933
755.139, 129.955
756.429, 78.559
757.719, 118.806
759.008, 60.242
760.297, 31.951
761.586, 82.941
762.875, 25.076
764.163, 76.062
765.451, 67.010
766.739, 74.954
768.027, 125.820
769.315, 117.040
770.602, 71.470
771.890, 139.440
773.177, 71.857
774.463, 81.763
775.750, 66.672
777.036, 117.068
778.323, 58.972
779.609, 6.438
780.894, 108.446
782.180, 118.303
783.465, 72.174
784.750, 37.034
786.035, 76.870
787.320, 98.730
788.605, 6.501
789.889, 57.098
791.173, 126.932
792.457, 3.759
793.741, 12.424
795.024, 69.377
796.307, 67.176
797.591, 48.807
798.873, 82.600
800.156, 92.428
801.439, 98.208
802.721, 5.896
804.003, 59.221
805.285, 79.979
806.566, 22.601
807.848, 94.492
809.129, 12.230
810.410, 86.302
811.691, 143.007
812.971, 9.952
814.252, 119.482
815.532, 134.276
816.812, 141.952
818.092, 39.647
819.371, 43.337
820.651, 115.626
821.930, 31.306
823.209, 87.665
824.488, 46.451
825.766, 64.871
827.045, 57.532
828.323, 4.824
829.601, 52.826
830.878, 63.407
832.156, 27.048
833.433, 99.774
834.710, 34.408
835.987, 22.037
837.264, 47.573
838.540, 17.528
839.817, 76.807
841.093, 18.416
842.369, 80.021
843.644, 91.621
844.920, 35.783
846.195, 135.786
847.470, 54.351
848.745, 57.913
850.020, 87.473
851.294, 0.028
852.568, 100.577
853.842, 81.122
855.116, 7.665
856.390, 88.201
857.663, 88.642
858.936, 88.174
860.209, 45.435
861.482, 69.065
862.755, 187.566
864.027, 40.062
865.299, 35.386
866.571, 108.875
867.843, 22.362
869.115, 148.319
870.386, 28.805
871.657, 84.287
872.928, 75.780
874.199, 104.229
875.470, 76.717
876.740, 74.203
878.010, 80.619
879.280, 75.498
880.550, 1.587
881.820, 62.976
883.089, 103.453
884.358, 46.138
885.627, 144.615
886.896, 15.902
888.164, 63.820
889.433, 26.305
890.701, 108.590
891.969, 76.962
893.236, 33.419
894.504, 91.899
895.771, 99.379
897.038, 63.421
898.305, 155.900
899.572, 79.295
900.838, 21.080
902.105, 161.383
903.371, 43.858
904.637, 89.331
905.902, 54.802
907.168, 86.273
908.433, 161.742
909.698, 23.224
910.963, 152.707
912.228, 22.199
913.492, 83.563
914.757, 105.052
916.021, 0.158
917.285, 110.640
918.548, 40.121
919.812, 113.600
921.075, 97.076
922.338, 36.551
923.601, 152.024
924.864, 195.500
926.126, 51.974
927.388, 195.447
928.650, 11.082
929.912, 109.383
931.174, 29.845
932.435, 105.227
933.697, 38.706
934.958, 45.182
936.218, 31.656
937.479, 128.085
938.739, 141.557
940.000, 178.024
941.260, 112.473
942.520, 42.938
943.779, 101.401
945.039, 80.365
946.298, 142.473
947.557, 144.930
948.816, 52.615
950.074, 97.815
951.333, 28.242
952.591, 110.667
953.849, 42.090
955.107, 106.057
956.365, 131.482
957.622, 4.922
958.879, 5.175
960.136, 107.594
961.393, 8.286
962.650, 98.126
963.906, 3.375
965.162, 25.705
966.418, 19.249
967.674, 21.654
968.930, 115.155
970.185, 117.780
971.441, 58.177
972.696, 120.630
973.950, 12.976
975.205, 13.375
976.459, 88.029
977.714, 47.430
978.968, 56.013
980.222, 70.790
981.475, 55.813
982.729, 89.850
983.982, 20.131
985.235, 106.499
986.488, 85.036
987.740, 22.726
988.993, 88.869
990.245, 89.057
991.497, 75.411
992.749, 90.607
994.000, 57.959
995.252, 116.312
996.503, 101.130
997.754, 104.501
999.005, 139.138
1000.256, 102.583
1001.506, 141.957
1002.756, 132.968
1004.006, 47.345
1005.256, 62.806
1006.506, 118.947
1007.755, 32.324
1009.005, 117.768
1010.254, 60.146
1011.502, 75.493
1012.751, 177.697
1014.000, 69.077
1015.248, 83.447
1016.496, 120.796
1017.744, 91.193
1018.991, 83.283
1020.239, 101.852
1021.486, 86.920
1022.733, 71.042
1023.980, 86.451
1025.227, 125.054
1026.473, 111.846
1027.719, 187.248
1028.965, 144.018
1030.211, 173.471
1031.457, 208.749
1032.702, 101.463
1033.948, 125.875
1035.193, 106.454
1036.438, 165.977
1037.682, 348.435
1038.927, 526.197
1040.171, 384.542
1041.415, 330.962
1042.659, 197.071
1043.903, 176.443
1045.146, 197.175
1046.390, 271.951
1047.633, 394.369
1048.876, 386.901
1050.118, 541.505
1051.361, 601.971
1052.603, 621.074
1053.845, 1033.504
1055.087, 1649.937
1056.329, 3518.588
1057.571, 11621.012
1058.812, 36623.898
1060.053, 53006.219
1061.294, 39928.633
1062.535, 17101.287
1063.775, 7843.688
1065.016, 3706.084
1066.256, 1928.613
1067.496, 1046.009
1068.736, 550.589
1069.975, 474.984
1071.214, 431.500
1072.454, 279.864
1073.693, 467.240
1074.931, 265.610
1076.170, 210.128
1077.408, 352.488
1078.647, 175.607
1079.885, 197.958
1081.122, 157.255
1082.360, 192.253
1083.597, 256.587
1084.835, 270.925
1086.072, 271.501
1087.308, 293.827
1088.545, 214.177
1089.781, 177.491
1091.018, 319.861
1092.254, 176.166
1093.490, 249.464
1094.725, 132.759
1095.961, 240.239
1097.196, 214.524
1098.431, 89.294
1099.666, 186.581
1100.900, 95.795
1102.135, 114.051
1103.369, 191.344
1104.603, 205.587
1105.837, 74.823
1107.071, 142.905
1108.304, 101.417
1109.538, 201.631
1110.771, 133.498
1112.004, 59.745
1113.236, 153.711
1114.469, 49.837
1115.701, 103.926
1116.933, 61.018
1118.165, 26.178
1119.397, 90.455
1120.629, 72.609
1121.860, 150.848
1123.091, 165.856
1124.322, 24.858
1125.553, 204.365
1126.783, 43.466
1128.014, 95.060
1129.244, 150.360
1130.474, 16.683
1131.704, 93.466
1132.933, 195.438
1134.163, 35.678
1135.392, 202.977
1136.621, 31.378
1137.850, 171.854
1139.079, 93.346
1140.307, 92.658
1141.535, 190.979
1142.763, 126.581
1143.991, 86.558
1145.219, 241.903
1146.446, 33.139
1147.674, 79.688
1148.901, 168.035
1150.128, 126.968
1151.354, 173.924
1152.581, 82.779
1153.807, 131.896
1155.033, 172.333
1156.259, 87.169
1157.485, 103.342
1158.710, 167.242
1159.936, 5.839
1161.161, 179.247
1162.386, 162.499
1163.611, 141.310
1164.835, 164.110
1166.060, 19.596
1167.284, 73.161
1168.508, 172.834
1169.732, 43.435
1170.955, 221.445
1172.179, 73.533
1173.402, 28.193
1174.625, 267.277
1175.848, 35.169
1177.070, 110.782
1178.293, 102.648
1179.515, 55.774
1180.737, 133.343
1181.959, 96.283
1183.181, 17.180
1184.402, 156.750
1185.624, 52.383
1186.845, 216.859
1188.066, 213.030
1189.286, 7.009
1190.507, 177.746
1191.727, 61.804
1192.947, 50.195
1194.167, 180.890
1195.387, 117.401
1196.607, 99.743
1197.826, 93.876
1199.045, 37.477
1200.264, 307.788
1201.483, 204.899
1202.702, 94.133
1203.920, 314.348
1205.138, 40.027
1206.356, 162.418
1207.574, 194.840
1208.792, 69.998
1210.009, 166.127
1211.227, 162.597
1212.444, 75.888
1213.661, 258.966
1214.877, 107.913
1216.094, 152.001
1217.310, 122.036
1218.526, 175.185
1219.742, 246.178
1220.958, 177.348
1222.173, 117.381
1223.389, 248.612
1224.604, 94.352
1225.819, 211.263
1227.034, 230.465
1228.248, 49.602
1229.463, 313.222
1230.677, 185.651
1231.891, 89.741
1233.105, 246.521
1234.318, 150.634
1235.532, 219.391
1236.745, 144.137
1237.958, 173.135
1239.171, 313.854
1240.384, 158.561
1241.596, 114.365
1242.809, 228.047
1244.021, 81.715
1245.233, 156.382
1246.444, 212.037
1247.656, 205.679
1248.867, 150.307
1250.079, 201.923
1251.290, 175.536
1252.500, 238.108
1253.711, 57.682
1254.921, 208.236
1256.132, 192.778
1257.342, 151.555
1258.552, 225.064
1259.761, 270.558
1260.971, 241.782
1262.180, 316.332
1263.389, 232.648
1264.598, 134.177
1265.807, 161.539
1267.015, 139.859
1268.223, 209.291
1269.432, 196.587
1270.640, 69.932
1271.847, 184.436
1273.055, 48.438
1274.262, 113.729
1275.470, 121.877
1276.677, 22.863
1277.883, 190.646
1279.090, 122.718
1280.296, 105.524
1281.503, 99.672
1282.709, 58.420
1283.915, 53.724
1285.120, 93.994
1286.326, 89.872
1287.531, 36.713
1288.736, 191.532
1289.941, 58.700
1291.146, 103.642
1292.350, 39.097
1293.555, 4.724
1294.759, 219.660
1295.963, 5.698
1297.167, 13.917
1298.370, 115.428
1299.574, 44.000
1300.777, 184.540
1301.980, 93.106
1303.183, 22.405
1304.386, 151.048
1305.588, 105.657
1306.790, 44.931
1307.993, 221.570
1309.195, 10.920
1310.396, 47.245
1311.598, 208.755
1312.799, 54.135
1314.000, 213.115
1315.201, 113.899
1316.402, 61.099
1317.603, 204.241
1318.803, 54.004
1320.003, 2.132
1321.203, 165.862
1322.403, 46.114
1323.603, 36.816
1324.802, 193.521
1326.002, 48.495
1327.201, 160.277
1328.400, 54.080
1329.599, 121.958
1330.797, 196.468
1331.995, 13.296
1333.194, 34.104
1334.392, 79.192
1335.589, 7.052
1336.787, 195.365
1337.985, 2.285
1339.182, 47.597
1340.379, 170.954
1341.576, 26.589
1342.772, 70.804
1343.969, 202.943
1345.165, 13.486
1346.361, 170.059
1347.557, 168.583
1348.753, 33.096
1349.949, 95.131
1351.144, 83.825
1352.339, 142.294
1353.534, 170.422
1354.729, 58.872
1355.924, 97.312
1357.118, 215.435
1358.312, 16.138
1359.506, 132.096
1360.700, 140.501
1361.894, 108.771
1363.088, 147.171
1364.281, 95.586
1365.474, 123.986
1366.667, 72.245
1367.860, 0.671
1369.052, 178.863
1370.245, 67.336
1371.437, 4.148
1372.629, 239.775
1373.821, 10.092
1375.013, 67.214
1376.204, 186.491
1377.395, 55.996
1378.586, 155.448
1379.777, 204.937
1380.968, 74.208
1382.159, 223.292
1383.349, 252.713
1384.539, 112.063
1385.729, 341.438
1386.919, 210.317
1388.109, 239.593
1389.298, 208.896
1390.487, 168.177
1391.676, 197.297
1392.865, 236.404
1394.054, 135.619
1395.242, 264.347
1396.431, 172.668
1397.619, 150.736
1398.807, 279.607
1399.995, 78.026
1401.182, 115.932
1402.370, 174.163
1403.557, 142.378
1404.744, 144.206
1405.931, 200.517
1407.118, 36.709
1408.304, 143.966
1409.490, 121.979
1410.676, 96.213
1411.862, 364.437
1413.048, 37.021
1414.234, 53.478
1415.419, 215.112
1416.604, 83.287
1417.789, 141.145
1418.974, 77.106
1420.159, 30.764
1421.343, 146.729
1422.528, 228.409
1423.712, 65.754
1424.896, 372.840
1426.079, 10.324
1427.263, 125.197
1428.446, 254.499
1429.629, 117.886
1430.812, 85.232
1431.995, 220.020
1433.178, 12.956
1434.360, 204.050
1435.543, 111.812
1436.725, 18.598
1437.907, 182.941
1439.088, 160.506
1440.270, 87.887
1441.451, 144.997
1442.632, 90.467
1443.813, 47.386
1444.994, 142.814
1446.175, 78.449
1447.355, 255.132
1448.535, 132.430
1449.715, 39.092
1450.895, 335.998
1452.075, 93.056
1453.255, 120.032
1454.434, 206.922
1455.613, 63.700
1456.792, 210.423
1457.971, 267.080
1459.149, 22.826
1460.328, 409.326
1461.506, 135.913
1462.684, 161.498
1463.862, 277.669
1465.040, 173.309
1466.217, 219.221
1467.395, 245.539
1468.572, 176.847
1469.749, 223.546
1470.925, 309.849
1472.102, 224.441
1473.278, 331.405
1474.455, 198.437
1475.631, 183.438
1476.807, 309.501
1477.982, 276.547
1479.158, 143.570
1480.333, 290.202
1481.508, 97.354
1482.683, 104.547
1483.858, 401.195
1485.033, 1.599
1486.207, 185.591
1487.381, 272.859
1488.555, 0.630
1489.729, 316.785
1490.903, 134.340
1492.076, 2.048
1493.250, 330.157
1494.423, 98.494
1495.596, 167.051
1496.769, 345.941
1497.941, 95.088
1499.114, 194.533
1500.286, 254.312
1501.458, 122.368
1502.630, 350.593
1503.802, 231.468
1504.973, 80.263
1506.145, 342.075
1507.316, 294.559
1508.487, 147.817
1509.657, 562.585
1510.828, 238.730
1511.999, 327.822
1513.169, 320.396
1514.339, 1.427
1515.509, 0.000
##END=



