##NAMES=Witherite
##RRUFFID=R040040
##IDEAL CHEMISTRY=BaCO_3_
##LOCALITY=Cave-in-Rock, Hardin County, Illinois, USA
##OWNER=RRUFF
##SOURCE=University of Arizona Mineral Museum
##DESCRIPTION=Tan colored prismatic group of columnar crystals
##STATUS=The identification of this mineral has been confirmed by X-ray diffraction and chemical analysis
##URL=rruff.info/R040040
##MEASURED CHEMISTRY=(Ba_0.98_Sr_0.02_)_Î£=1_CO_3_; CO_2_ estimated by difference
##PIN_ID=L00241
##ORIENTATION=Laser parallel to -a* (-1 0 0). Fiducial mark perpendicular to laser is parallel to -c [0 0 -1]
91.284, 0.000
92.678, 364.790
94.071, 343.408
95.465, 169.619
96.858, 29.568
98.251, 96.861
99.644, 291.908
101.036, 462.065
102.428, 328.191
103.820, 299.489
105.212, 312.361
106.604, 332.272
107.995, 447.774
109.387, 424.496
110.777, 551.126
112.168, 616.412
113.559, 712.210
114.949, 856.613
116.339, 939.448
117.729, 1193.489
119.119, 1233.564
120.508, 1553.529
121.897, 1823.270
123.286, 2227.690
124.675, 2714.710
126.063, 3430.263
127.452, 4509.288
128.840, 5924.737
130.228, 8621.565
131.615, 11878.740
133.003, 17836.229
134.390, 25094.230
135.777, 32213.945
137.164, 36905.371
138.550, 31647.250
139.937, 24339.010
141.323, 16490.770
142.709, 11782.450
144.094, 8874.099
145.480, 7185.792
146.865, 6687.456
148.250, 6179.097
149.635, 6820.705
151.019, 7672.357
152.403, 9594.007
153.788, 11225.646
155.171, 11487.278
156.555, 10828.942
157.939, 9180.598
159.322, 8852.255
160.705, 7933.915
162.088, 6375.575
163.470, 4777.238
164.853, 3216.903
166.235, 2362.574
167.617, 1562.250
168.998, 1231.935
170.380, 885.667
171.761, 806.405
173.142, 704.151
174.523, 624.913
175.904, 881.655
177.284, 944.140
178.664, 1589.428
180.044, 2330.279
181.424, 2684.397
182.803, 2508.242
184.183, 1726.105
185.562, 1307.943
186.940, 848.850
188.319, 670.822
189.698, 595.416
191.076, 509.489
192.454, 442.647
193.831, 609.920
195.209, 611.288
196.586, 573.493
197.963, 633.202
199.340, 614.729
200.717, 577.323
202.093, 633.827
203.470, 462.517
204.846, 578.259
206.221, 370.052
207.597, 411.893
208.972, 390.406
210.347, 378.624
211.722, 724.583
213.097, 587.649
214.472, 936.694
215.846, 1166.780
217.220, 1542.906
218.594, 1743.343
219.967, 1596.854
221.341, 1759.056
222.714, 1564.285
224.087, 1751.540
225.460, 1662.816
226.832, 1694.367
228.204, 1552.740
229.577, 1308.133
230.948, 1228.543
232.320, 864.974
233.692, 751.419
235.063, 598.882
236.434, 563.360
237.805, 463.854
239.175, 333.363
240.545, 425.886
241.916, 278.422
243.286, 281.972
244.655, 267.552
246.025, 173.167
247.394, 263.822
248.763, 158.430
250.132, 293.049
251.501, 134.679
252.869, 139.320
254.237, 185.970
255.605, 77.629
256.973, 98.972
258.340, 13.369
259.708, 41.752
261.075, 56.230
262.442, 107.949
263.808, 78.077
265.175, 186.321
266.541, 103.403
267.907, 225.328
269.273, 123.146
270.639, 153.844
272.004, 171.450
273.369, 107.983
274.734, 61.429
276.099, 4.206
277.463, 39.924
278.828, 44.726
280.192, 77.589
281.556, 63.514
282.919, 112.492
284.283, 6.531
285.646, 163.615
287.009, 42.260
288.372, 137.896
289.734, 58.087
291.097, 14.311
292.459, 22.869
293.821, 48.151
295.183, 139.853
296.544, 67.185
297.905, 58.539
299.266, 140.356
300.627, 25.258
301.988, 43.126
303.348, 30.479
304.709, 9.909
306.069, 142.582
307.428, 45.975
308.788, 132.371
310.147, 9.232
311.507, 87.163
312.865, 50.572
314.224, 32.991
315.583, 77.464
316.941, 95.898
318.299, 163.334
319.657, 72.771
321.015, 124.214
322.372, 63.656
323.729, 15.898
325.086, 153.675
326.443, 66.117
327.800, 9.427
329.156, 81.142
330.512, 23.593
331.868, 108.044
333.224, 13.496
334.579, 60.947
335.935, 20.733
337.290, 120.184
338.645, 67.634
339.999, 32.084
341.354, 110.474
342.708, 11.759
344.062, 176.908
345.416, 4.694
346.769, 148.243
348.123, 65.533
349.476, 57.757
350.829, 161.697
352.182, 29.102
353.534, 133.042
354.887, 43.083
356.239, 153.038
357.591, 191.998
358.942, 20.541
360.294, 150.500
361.645, 120.507
362.996, 85.463
364.347, 151.422
365.698, 122.380
367.048, 188.341
368.398, 120.562
369.748, 99.528
371.098, 140.497
372.448, 63.458
373.797, 204.415
375.146, 149.373
376.495, 221.332
377.844, 59.347
379.192, 124.307
380.540, 141.269
381.889, 57.368
383.236, 242.321
384.584, 50.289
385.932, 129.242
387.279, 117.195
388.626, 134.147
389.973, 237.098
391.319, 83.047
392.666, 199.996
394.012, 112.943
395.358, 42.891
396.704, 128.837
398.049, 38.783
399.394, 186.726
400.740, 6.333
402.084, 143.766
403.429, 230.694
404.774, 141.620
406.118, 238.544
407.462, 100.478
408.806, 210.600
410.150, 139.515
411.493, 132.461
412.836, 216.372
414.179, 95.280
415.522, 225.186
416.865, 129.089
418.207, 172.422
419.549, 188.314
420.891, 98.258
422.233, 319.171
423.575, 115.143
424.916, 111.821
426.257, 152.748
427.598, 141.154
428.939, 155.624
430.279, 38.428
431.619, 251.965
432.959, 84.219
434.299, 66.345
435.639, 113.222
436.978, 21.927
438.318, 184.979
439.657, 11.950
440.996, 97.130
442.334, 176.103
443.673, 54.072
445.011, 137.147
446.349, 69.109
447.687, 160.202
449.024, 30.628
450.361, 92.578
451.699, 139.521
453.036, 33.540
454.372, 218.581
455.709, 66.511
457.045, 66.352
458.381, 164.347
459.717, 17.801
461.053, 245.305
462.388, 107.008
463.724, 88.688
465.059, 157.122
466.394, 15.066
467.728, 149.046
469.063, 105.831
470.397, 191.628
471.731, 67.835
473.065, 26.601
474.398, 146.196
475.732, 21.950
477.065, 152.636
478.398, 132.479
479.731, 80.211
481.063, 111.989
482.396, 147.718
483.728, 156.704
485.060, 8.276
486.391, 82.427
487.723, 106.207
489.054, 16.960
490.385, 187.657
491.716, 50.325
493.047, 155.986
494.377, 135.835
495.708, 8.479
497.038, 220.266
498.368, 60.989
499.697, 94.620
501.027, 106.242
502.356, 107.856
503.685, 202.247
505.014, 8.845
506.342, 145.396
507.671, 8.081
508.999, 10.651
510.327, 156.289
511.655, 5.844
512.982, 136.388
514.310, 31.439
515.637, 196.968
516.964, 87.511
518.291, 76.954
519.617, 167.366
520.944, 42.838
522.270, 93.303
523.596, 175.760
524.921, 76.210
526.247, 185.652
527.572, 14.088
528.897, 105.512
530.222, 157.949
531.547, 90.377
532.871, 81.799
534.196, 67.212
535.520, 178.618
536.844, 48.017
538.167, 91.408
539.491, 305.791
540.814, 29.166
542.137, 246.533
543.460, 59.892
544.783, 163.243
546.105, 189.585
547.427, 110.922
548.749, 300.250
550.071, 91.571
551.393, 87.882
552.714, 98.187
554.035, 95.684
555.356, 277.968
556.677, 67.260
557.998, 156.505
559.318, 127.780
560.638, 37.917
561.958, 225.315
563.278, 93.590
564.597, 92.806
565.917, 66.013
567.236, 24.224
568.555, 205.449
569.874, 63.667
571.192, 136.890
572.511, 123.104
573.829, 102.318
575.147, 171.525
576.464, 9.722
577.782, 99.906
579.099, 62.081
580.416, 110.772
581.733, 231.938
583.050, 9.894
584.366, 238.501
585.683, 42.672
586.999, 95.742
588.315, 171.955
589.630, 5.565
590.946, 213.694
592.261, 87.979
593.576, 12.515
594.891, 219.795
596.206, 65.105
597.520, 224.707
598.834, 35.988
600.148, 140.082
601.462, 113.348
602.776, 16.235
604.089, 203.990
605.402, 58.206
606.715, 189.812
608.028, 136.014
609.341, 121.205
610.653, 132.564
611.965, 41.429
613.277, 122.001
614.589, 193.761
615.901, 55.905
617.212, 139.352
618.523, 23.028
619.834, 195.138
621.145, 14.758
622.456, 75.318
623.766, 106.951
625.076, 19.731
626.386, 137.803
627.696, 87.840
629.006, 89.867
630.315, 212.330
631.624, 61.671
632.933, 157.753
634.242, 31.352
635.551, 69.560
636.859, 131.965
638.167, 1.146
639.475, 244.666
640.783, 35.593
642.090, 15.436
643.398, 272.216
644.705, 31.959
646.012, 247.829
647.318, 96.492
648.625, 226.263
649.931, 170.352
651.237, 44.099
652.543, 289.021
653.849, 69.309
655.155, 83.021
656.460, 157.586
657.765, 114.274
659.070, 161.951
660.375, 143.802
661.679, 195.457
662.984, 145.798
664.288, 83.437
665.592, 204.697
666.895, 90.281
668.199, 176.885
669.502, 213.299
670.805, 15.953
672.108, 208.435
673.411, 181.705
674.713, 218.256
676.016, 234.225
677.318, 155.756
678.620, 300.232
679.921, 111.752
681.223, 111.261
682.524, 310.770
683.825, 130.399
685.126, 341.627
686.427, 431.356
687.727, 965.822
689.028, 2358.405
690.328, 3228.850
691.628, 3669.281
692.927, 2749.928
694.227, 2300.282
695.526, 2310.682
696.825, 1215.307
698.124, 917.542
699.423, 647.910
700.721, 770.374
702.020, 743.718
703.318, 254.475
704.616, 270.797
705.913, 163.108
707.211, 194.427
708.508, 230.714
709.805, 77.010
711.102, 285.274
712.399, 192.527
713.695, 171.852
714.992, 223.081
716.288, 169.562
717.584, 220.609
718.879, 108.960
720.175, 186.347
721.470, 190.528
722.765, 8.598
724.060, 266.349
725.355, 164.653
726.649, 213.111
727.944, 327.218
729.238, 160.560
730.532, 260.644
731.825, 189.716
733.119, 145.343
734.412, 376.391
735.705, 14.621
736.998, 237.381
738.291, 136.369
739.584, 81.204
740.876, 356.167
742.168, 36.991
743.460, 304.090
744.752, 82.982
746.043, 193.837
747.334, 343.703
748.626, 89.557
749.916, 274.852
751.207, 155.678
752.498, 62.456
753.788, 229.253
755.078, 6.173
756.368, 261.583
757.658, 96.326
758.947, 136.946
760.237, 320.883
761.526, 37.452
762.815, 240.374
764.104, 199.050
765.392, 90.714
766.680, 268.364
767.969, 34.805
769.257, 175.593
770.544, 237.232
771.832, 60.722
773.119, 341.333
774.406, 148.665
775.693, 160.312
776.980, 201.031
778.267, 4.462
779.553, 268.116
780.839, 129.333
782.125, 134.857
783.411, 274.352
784.697, 28.840
785.982, 336.888
787.267, 19.524
788.552, 143.985
789.837, 196.490
791.122, 11.817
792.406, 256.350
793.690, 31.298
794.974, 111.071
796.258, 294.165
797.542, 17.953
798.825, 262.968
800.108, 149.197
801.391, 170.501
802.674, 332.780
803.957, 46.063
805.239, 178.333
806.522, 80.348
807.804, 17.408
809.085, 194.664
810.367, 17.216
811.649, 147.076
812.930, 204.247
814.211, 80.410
815.492, 256.693
816.772, 112.832
818.053, 287.962
819.333, 136.179
820.613, 62.317
821.893, 191.369
823.173, 57.485
824.452, 106.593
825.732, 160.053
827.011, 63.861
828.290, 352.175
829.568, 123.635
830.847, 146.677
832.125, 232.138
833.403, 127.158
834.681, 200.187
835.959, 151.798
837.236, 96.808
838.514, 259.834
839.791, 55.973
841.068, 287.971
842.345, 97.384
843.621, 156.304
844.898, 255.226
846.174, 74.264
847.450, 143.167
848.726, 182.327
850.001, 71.211
851.277, 230.088
852.552, 129.468
853.827, 98.327
855.102, 187.178
856.376, 26.018
857.651, 224.848
858.925, 173.919
860.199, 122.729
861.473, 301.533
862.746, 39.673
864.020, 168.896
865.293, 127.820
866.566, 106.562
867.839, 185.298
869.112, 64.024
870.384, 242.740
871.656, 91.483
872.928, 80.166
874.200, 278.891
875.472, 132.392
876.744, 304.269
878.015, 82.900
879.286, 48.479
880.557, 250.105
881.828, 31.019
883.098, 257.530
884.369, 156.074
885.639, 154.611
886.909, 243.141
888.178, 28.335
889.448, 227.646
890.717, 296.136
891.987, 34.619
893.256, 262.870
894.524, 111.343
895.793, 75.941
897.061, 344.399
898.330, 42.636
899.598, 261.093
900.865, 139.543
902.133, 57.813
903.401, 346.278
904.668, 104.736
905.935, 242.886
907.202, 201.330
908.468, 147.956
909.735, 266.391
911.001, 204.655
912.267, 63.088
913.533, 371.513
914.799, 59.528
916.064, 217.938
917.330, 256.339
918.595, 224.557
919.860, 242.946
921.124, 39.085
922.389, 249.273
923.653, 207.625
924.918, 145.655
926.182, 373.993
927.445, 102.324
928.709, 160.648
929.972, 338.974
931.236, 105.733
932.499, 444.045
933.761, 152.330
935.024, 260.629
936.286, 358.921
937.549, 3.237
938.811, 335.061
940.073, 112.884
941.334, 231.165
942.596, 369.455
943.857, 87.233
945.118, 355.895
946.379, 191.226
947.640, 189.426
948.900, 357.948
950.161, 5.868
951.421, 202.793
952.681, 341.053
953.940, 109.305
955.200, 388.089
956.459, 156.002
957.719, 194.239
958.978, 352.288
960.236, 118.616
961.495, 347.193
962.753, 83.545
964.012, 181.756
965.270, 310.402
966.527, 78.420
967.785, 286.621
969.043, 274.763
970.300, 62.945
971.557, 347.544
972.814, 155.458
974.071, 183.624
975.327, 432.104
976.583, 39.814
977.840, 258.317
979.095, 171.883
980.351, 10.007
981.607, 288.979
982.862, 52.906
984.117, 115.178
985.372, 287.263
986.627, 54.657
987.882, 353.812
989.136, 111.826
990.390, 69.865
991.644, 314.068
992.898, 2.097
994.152, 349.987
995.405, 160.898
996.659, 88.951
997.912, 367.646
999.165, 55.683
1000.417, 293.950
1001.670, 312.621
1002.922, 0.647
1004.174, 439.199
1005.426, 147.682
1006.678, 295.689
1007.930, 264.146
1009.181, 62.141
1010.432, 320.167
1011.683, 208.882
1012.934, 146.923
1014.185, 492.225
1015.435, 80.807
1016.685, 448.894
1017.935, 137.797
1019.185, 165.875
1020.435, 273.736
1021.684, 157.204
1022.934, 325.178
1024.183, 433.538
1025.432, 202.227
1026.680, 471.615
1027.929, 270.835
1029.177, 308.766
1030.425, 413.488
1031.673, 52.497
1032.921, 408.326
1034.169, 467.036
1035.416, 155.467
1036.663, 493.543
1037.911, 312.208
1039.157, 578.271
1040.404, 766.355
1041.650, 345.243
1042.897, 592.950
1044.143, 361.026
1045.389, 439.409
1046.634, 647.298
1047.880, 477.971
1049.125, 645.705
1050.371, 683.746
1051.615, 627.061
1052.860, 1054.834
1054.105, 1063.215
1055.349, 1501.723
1056.593, 2639.744
1057.837, 5978.621
1059.081, 27766.635
1060.325, 53564.633
1061.568, 52613.391
1062.812, 23411.150
1064.055, 7819.430
1065.298, 2997.236
1066.540, 1775.190
1067.783, 633.588
1069.025, 941.523
1070.267, 579.447
1071.509, 455.558
1072.751, 683.462
1073.993, 271.356
1075.234, 469.240
1076.475, 567.111
1077.716, 184.969
1078.957, 532.818
1080.198, 310.653
1081.438, 228.571
1082.679, 506.392
1083.919, 174.202
1085.159, 422.035
1086.398, 399.856
1087.638, 157.200
1088.877, 405.081
1090.116, 272.943
1091.355, 221.412
1092.594, 369.280
1093.833, 77.023
1095.071, 394.865
1096.309, 262.705
1097.547, 110.619
1098.785, 578.434
1100.023, 75.644
1101.260, 394.018
1102.498, 441.795
1103.735, 49.549
1104.972, 457.958
1106.208, 315.690
1107.445, 204.083
1108.681, 561.789
1109.918, 99.490
1111.154, 397.341
1112.389, 394.905
1113.625, 82.788
1114.860, 520.973
1116.096, 188.465
1117.331, 196.075
1118.566, 483.669
1119.800, 108.954
1121.035, 299.282
1122.269, 316.771
1123.503, 54.243
1124.737, 422.097
1125.971, 227.653
1127.205, 165.571
1128.438, 283.269
1129.671, 0.231
1130.904, 319.047
1132.137, 273.973
1133.370, 68.693
1134.602, 500.651
1135.834, 105.318
1137.066, 183.140
1138.298, 321.069
1139.530, 108.062
1140.762, 395.892
1141.993, 243.460
1143.224, 49.387
1144.455, 468.611
1145.686, 15.575
1146.917, 342.640
1148.147, 170.505
1149.377, 17.520
1150.607, 526.773
1151.837, 103.227
1153.067, 90.169
1154.296, 549.242
1155.526, 26.623
1156.755, 293.802
1157.984, 409.744
1159.213, 76.571
1160.441, 520.565
1161.670, 210.059
1162.898, 146.819
1164.126, 566.764
1165.354, 54.141
1166.581, 271.231
1167.809, 411.334
1169.036, 62.037
1170.263, 457.336
1171.490, 185.346
1172.717, 151.859
1173.943, 509.005
1175.170, 46.277
1176.396, 292.733
1177.622, 540.775
1178.848, 77.200
1180.073, 513.416
1181.299, 155.026
1182.524, 221.352
1183.749, 598.394
1184.974, 166.588
1186.199, 432.817
1187.423, 542.440
1188.648, 119.141
1189.872, 565.466
1191.096, 312.176
1192.320, 228.259
1193.543, 514.854
1194.767, 8.417
1195.990, 417.546
1197.213, 324.396
1198.436, 49.670
1199.659, 596.160
1200.881, 248.937
1202.104, 204.700
1203.326, 720.427
1204.548, 127.185
1205.770, 492.838
1206.991, 438.605
1208.213, 154.921
1209.434, 640.473
1210.655, 267.472
1211.876, 322.953
1213.096, 628.402
1214.317, 234.703
1215.537, 620.078
1216.757, 575.421
1217.977, 261.525
1219.197, 546.805
1220.417, 452.762
1221.636, 447.970
1222.855, 783.141
1224.074, 338.906
1225.293, 404.005
1226.512, 409.196
1227.731, 324.895
1228.949, 779.885
1230.167, 375.553
1231.385, 448.979
1232.603, 434.410
1233.820, 379.163
1235.038, 513.949
1236.255, 598.719
1237.472, 250.334
1238.689, 765.052
1239.906, 479.744
1241.122, 494.561
1242.338, 729.202
1243.555, 374.214
1244.771, 529.231
1245.986, 683.793
1247.202, 258.511
1248.417, 593.021
1249.633, 537.502
1250.848, 242.354
1252.063, 936.777
1253.277, 241.176
1254.492, 516.628
1255.706, 600.966
1256.920, 364.918
1258.134, 649.195
1259.348, 353.438
1260.562, 277.733
1261.775, 891.909
1262.988, 426.047
1264.201, 460.182
1265.414, 594.208
1266.627, 231.773
1267.839, 665.732
1269.052, 599.647
1270.264, 312.882
1271.476, 696.645
1272.688, 290.314
1273.899, 343.785
1275.111, 637.286
1276.322, 119.877
1277.533, 793.286
1278.744, 446.666
1279.955, 65.999
1281.165, 739.296
1282.376, 272.117
1283.586, 235.208
1284.796, 618.342
1286.006, 261.012
1287.215, 204.069
1288.425, 627.084
1289.634, 102.840
1290.843, 460.361
1292.052, 412.300
1293.261, 165.071
1294.469, 597.646
1295.678, 59.459
1296.886, 422.571
1298.094, 424.949
1299.302, 66.918
1300.509, 300.372
1301.717, 341.969
1302.924, 75.598
1304.131, 547.497
1305.338, 40.898
1306.545, 128.723
1307.752, 512.959
1308.958, 24.334
1310.164, 256.438
1311.370, 318.368
1312.576, 139.972
1313.782, 601.920
1314.987, 38.080
1316.193, 119.525
1317.398, 543.867
1318.603, 254.623
1319.807, 225.912
1321.012, 536.562
1322.216, 107.738
1323.421, 408.866
1324.625, 379.023
1325.829, 9.945
1327.032, 500.427
1328.236, 230.992
1329.439, 81.858
1330.642, 562.182
1331.845, 22.946
1333.048, 283.651
1334.251, 363.585
1335.453, 264.195
1336.656, 704.737
1337.858, 274.877
1339.060, 235.329
1340.261, 633.107
1341.463, 183.440
1342.664, 393.708
1343.866, 669.879
1345.067, 39.947
1346.267, 499.790
1347.468, 519.441
1348.669, 159.424
1349.869, 648.430
1351.069, 359.058
1352.269, 218.825
1353.469, 618.177
1354.668, 107.850
1355.868, 397.168
1357.067, 596.977
1358.266, 176.501
1359.465, 535.526
1360.664, 404.957
1361.862, 194.344
1363.061, 813.287
1364.259, 212.531
1365.457, 451.729
1366.655, 630.850
1367.852, 229.908
1369.050, 608.855
1370.247, 347.805
1371.444, 216.705
1372.641, 555.440
1373.838, 204.258
1375.035, 66.959
1376.231, 241.770
1377.427, 248.548
1378.623, 400.086
1379.819, 587.779
1381.015, 40.737
1382.211, 711.256
1383.406, 583.199
1384.601, 245.001
1385.796, 746.233
1386.991, 278.018
1388.185, 209.048
1389.380, 799.998
1390.574, 231.429
1391.768, 462.747
1392.962, 723.659
1394.156, 165.110
1395.350, 835.724
1396.543, 687.130
1397.736, 148.036
1398.929, 868.447
1400.122, 478.031
1401.315, 569.242
1402.507, 937.995
1403.700, 247.551
1404.892, 617.868
1406.084, 907.836
1407.276, 345.366
1408.467, 744.840
1409.659, 582.771
1410.850, 363.496
1412.041, 1050.771
1413.232, 478.773
1414.423, 499.701
1415.614, 1143.004
1416.804, 407.588
1417.994, 1208.613
1419.184, 1284.443
1420.374, 1502.023
1421.564, 3449.547
1422.753, 3076.746
1423.943, 2225.980
1425.132, 2197.691
1426.321, 1013.000
1427.510, 717.066
1428.698, 1045.094
1429.887, 293.215
1431.075, 770.250
1432.263, 717.766
1433.451, 216.648
1434.639, 834.230
1435.827, 321.225
1437.014, 259.678
1438.201, 817.094
1439.388, 163.152
1440.575, 200.141
1441.762, 918.623
1442.949, 85.643
1444.135, 472.746
1445.321, 719.938
1446.507, 108.012
1447.693, 655.016
1448.879, 425.330
1450.064, 222.836
1451.250, 690.041
1452.435, 123.082
1453.620, 8.641
1454.805, 684.270
1455.989, 119.068
1457.174, 583.826
1458.358, 457.580
1459.542, 36.826
1460.726, 716.039
1461.910, 491.170
1463.093, 54.846
1464.277, 749.547
1465.460, 234.107
1466.643, 348.658
1467.826, 823.150
1469.009, 157.926
1470.191, 562.996
1471.373, 648.184
1472.556, 133.254
1473.738, 708.229
1474.919, 523.246
1476.101, 128.152
1477.283, 802.912
1478.464, 206.602
1479.645, 360.980
1480.826, 613.811
1482.007, 206.938
1483.187, 347.492
1484.368, 768.363
1485.548, 18.025
1486.728, 506.977
1487.908, 596.188
1489.088, 79.873
1490.268, 744.979
1491.447, 404.258
1492.626, 13.783
1493.805, 940.652
1494.984, 5.059
1496.163, 259.236
1497.341, 772.885
1498.520, 16.984
1499.698, 350.395
1500.876, 544.289
1502.054, 118.217
1503.232, 662.443
1504.409, 486.555
1505.586, 129.068
1506.763, 973.275
1507.940, 569.781
1509.117, 209.510
1510.294, 1129.346
1511.470, 192.438
1512.647, 435.111
1513.823, 778.893
1514.999, 123.139
1516.174, 639.430
1517.350, 537.520
1518.526, 1.807
1519.701, 822.453
1520.876, 0.000
##END=



