##NAMES=Witherite
##RRUFFID=R050148
##IDEAL CHEMISTRY=BaCO_3_
##LOCALITY=Settlingstones mine, Fourstones, Northumberland, England
##OWNER=RRUFF
##SOURCE=Jim McGlasson
##DESCRIPTION=Tan colored crystal fragment
##STATUS=The identification of this mineral has been confirmed by X-ray diffraction and chemical analysis
##URL=rruff.info/R050148
##MEASURED CHEMISTRY=(Ba_0.96_Sr_0.04_)CO_3_
##PIN_ID=M00358
##ORIENTATION=Laser parallel to a* (1 0 0). Fiducial mark perpendicular to laser is parallel to -b [0 -1 0]
50.765, 0.000
52.166, 38.351
53.566, 56.289
54.966, 52.295
56.365, 56.039
57.765, 42.039
59.164, 28.750
60.563, 27.274
61.962, 55.775
63.360, 24.008
64.758, 38.921
66.157, 38.462
67.554, 11.583
68.952, 14.239
70.349, 31.608
71.747, 21.991
73.144, 0.943
74.540, 19.508
75.937, 80.330
77.333, 168.499
78.729, 344.989
80.125, 460.781
81.521, 512.856
82.916, 586.198
84.311, 559.794
85.706, 563.631
87.101, 533.700
88.496, 612.989
89.890, 688.490
91.284, 907.196
92.678, 1195.099
94.071, 1484.188
95.465, 1726.450
96.858, 1348.870
98.251, 1171.438
99.644, 1062.144
101.036, 1032.982
102.428, 1162.946
103.820, 1284.031
105.212, 1311.235
106.604, 1085.554
107.995, 981.984
109.387, 880.524
110.777, 883.170
112.168, 910.921
113.559, 853.775
114.949, 884.731
116.339, 817.787
117.729, 869.943
119.119, 830.196
120.508, 878.544
121.897, 902.987
123.286, 895.524
124.675, 886.153
126.063, 877.873
127.452, 899.685
128.840, 949.587
130.228, 1050.578
131.615, 1032.657
133.003, 1186.822
134.390, 1310.058
135.777, 1523.323
137.164, 1866.614
138.550, 2225.930
139.937, 2501.263
141.323, 2503.614
142.709, 2292.992
144.094, 2091.385
145.480, 1903.777
146.865, 1984.206
148.250, 1957.673
149.635, 2090.181
151.019, 2156.732
152.403, 2274.326
153.788, 2472.965
155.171, 2844.648
156.555, 3421.376
157.939, 3795.154
159.322, 4296.978
160.705, 4950.854
162.088, 5693.780
163.470, 6689.756
164.853, 6478.781
166.235, 5806.854
167.617, 4281.976
168.998, 3044.147
170.380, 2263.366
171.761, 1661.633
173.142, 1330.948
174.523, 1017.315
175.904, 941.747
177.284, 796.245
178.664, 736.790
180.044, 705.380
181.424, 732.025
182.803, 681.721
184.183, 679.468
185.562, 687.261
186.940, 649.101
188.319, 580.988
189.698, 580.920
191.076, 552.901
192.454, 533.930
193.831, 551.007
195.209, 524.147
196.586, 542.330
197.963, 507.559
199.340, 509.842
200.717, 540.190
202.093, 570.594
203.470, 478.045
204.846, 545.540
206.221, 514.079
207.597, 494.661
208.972, 525.281
210.347, 470.940
211.722, 572.638
213.097, 567.381
214.472, 619.179
215.846, 693.025
217.220, 801.481
218.594, 944.937
219.967, 1059.386
221.341, 1324.826
222.714, 1428.215
224.087, 1514.587
225.460, 1624.995
226.832, 1681.037
228.204, 1869.345
229.577, 1898.416
230.948, 1851.873
232.320, 1570.400
233.692, 1433.991
235.063, 1150.650
236.434, 1013.366
237.805, 920.993
239.175, 792.802
240.545, 700.704
241.916, 622.661
243.286, 556.672
244.655, 508.735
246.025, 472.848
247.394, 487.010
248.763, 390.220
250.132, 430.486
251.501, 331.799
252.869, 320.155
254.237, 288.556
255.605, 327.000
256.973, 287.486
258.340, 322.014
259.708, 336.582
261.075, 243.189
262.442, 240.877
263.808, 291.581
265.175, 236.323
266.541, 248.103
267.907, 233.918
269.273, 210.283
270.639, 202.177
272.004, 192.106
273.369, 223.071
274.734, 165.070
276.099, 200.215
277.463, 186.280
278.828, 156.379
280.192, 177.522
281.556, 200.698
282.919, 176.905
284.283, 154.143
285.646, 171.412
287.009, 134.711
288.372, 192.040
289.734, 194.398
291.097, 149.786
292.459, 202.203
293.821, 135.657
295.183, 167.379
296.544, 177.888
297.905, 177.426
299.266, 181.122
300.627, 112.718
301.988, 136.341
303.348, 138.991
304.709, 132.667
306.069, 122.371
307.428, 79.100
308.788, 164.465
310.147, 101.249
311.507, 87.059
312.865, 132.875
314.224, 80.741
315.583, 172.633
316.941, 65.552
318.299, 87.496
319.657, 88.467
321.015, 25.809
322.372, 108.830
323.729, 34.875
325.086, 133.946
326.443, 93.041
327.800, 98.294
329.156, 91.025
330.512, 47.193
331.868, 101.413
333.224, 58.038
334.579, 98.276
335.935, 42.398
337.290, 49.681
338.645, 71.987
339.999, 69.315
341.354, 68.665
342.708, 87.719
344.062, 53.113
345.416, 73.343
346.769, 66.865
348.123, 67.999
349.476, 85.574
350.829, 91.084
352.182, 26.177
353.534, 57.727
354.887, 82.793
356.239, 59.393
357.591, 128.013
358.942, 73.285
360.294, 49.943
361.645, 108.619
362.996, 87.313
364.347, 95.026
365.698, 47.756
367.048, 62.505
368.398, 44.270
369.748, 65.053
371.098, 70.853
372.448, 37.199
373.797, 83.032
375.146, 84.352
376.495, 89.219
377.844, 54.101
379.192, 43.041
380.540, 78.961
381.889, 26.031
383.236, 84.799
384.584, 54.392
385.932, 53.403
387.279, 34.438
388.626, 22.536
389.973, 89.617
391.319, 3.737
392.666, 41.865
394.012, 55.015
395.358, 65.189
396.704, 87.385
398.049, 27.603
399.394, 79.511
400.740, 22.785
402.084, 26.533
403.429, 33.852
404.774, 14.327
406.118, 81.685
407.462, 35.063
408.806, 38.481
410.150, 14.899
411.493, 58.374
412.836, 71.830
414.179, 6.304
415.522, 79.948
416.865, 37.460
418.207, 33.173
419.549, 20.733
420.891, 9.310
422.233, 17.988
423.575, 4.398
424.916, 41.900
426.257, 6.547
427.598, 19.209
428.939, 38.888
430.279, 27.416
431.619, 56.815
432.959, 9.536
434.299, 10.669
435.639, 46.420
436.978, 8.815
438.318, 48.962
439.657, 12.755
440.996, 24.542
442.334, 56.362
443.673, 3.197
445.011, 11.125
446.349, 51.987
447.687, 22.861
449.024, 51.748
450.361, 51.648
451.699, 37.713
453.036, 29.643
454.372, 75.472
455.709, 12.574
457.045, 14.389
458.381, 44.625
459.717, 81.387
461.053, 76.610
462.388, 15.592
463.724, 11.737
465.059, 42.743
466.394, 4.764
467.728, 55.795
469.063, 22.001
470.397, 37.056
471.731, 19.378
473.065, 30.542
474.398, 18.125
475.732, 41.216
477.065, 72.415
478.398, 18.754
479.731, 28.875
481.063, 11.996
482.396, 36.139
483.728, 30.337
485.060, 8.618
486.391, 69.781
487.723, 4.048
489.054, 16.870
490.385, 43.310
491.716, 0.499
493.047, 11.305
494.377, 24.895
495.708, 42.898
497.038, 49.300
498.368, 13.506
499.697, 72.719
501.027, 42.939
502.356, 15.833
503.685, 94.395
505.014, 38.135
506.342, 22.909
507.671, 13.688
508.999, 22.466
510.327, 62.491
511.655, 10.285
512.982, 17.948
514.310, 7.337
515.637, 68.902
516.964, 52.228
518.291, 9.522
519.617, 36.727
520.944, 45.982
522.270, 60.241
523.596, 40.505
524.921, 26.773
526.247, 94.047
527.572, 17.324
528.897, 20.607
530.222, 68.897
531.547, 23.809
532.871, 60.476
534.196, 40.236
535.520, 25.035
536.844, 19.310
538.167, 10.588
539.491, 46.869
540.814, 31.846
542.137, 6.577
543.460, 2.313
544.783, 78.949
546.105, 125.214
547.427, 13.482
548.749, 68.751
550.071, 16.024
551.393, 50.298
552.714, 51.574
554.035, 37.227
555.356, 71.507
556.677, 31.790
557.998, 0.107
559.318, 70.387
560.638, 5.422
561.958, 96.910
563.278, 15.189
564.597, 52.467
565.917, 43.746
567.236, 22.509
568.555, 35.790
569.874, 21.924
571.192, 55.510
572.511, 51.780
573.829, 18.572
575.147, 69.845
576.464, 18.117
577.782, 114.160
579.099, 49.430
580.416, 25.271
581.733, 104.765
583.050, 62.009
584.366, 42.217
585.683, 56.442
586.999, 68.049
588.315, 113.271
589.630, 7.021
590.946, 100.185
592.261, 17.389
593.576, 39.588
594.891, 107.785
596.206, 61.869
597.520, 62.067
598.834, 29.741
600.148, 67.449
601.462, 90.611
602.776, 32.771
604.089, 50.059
605.402, 43.213
606.715, 56.365
608.028, 71.514
609.341, 31.661
610.653, 122.765
611.965, 8.087
613.277, 71.042
614.589, 69.927
615.901, 29.049
617.212, 88.273
618.523, 6.255
619.834, 93.358
621.145, 32.834
622.456, 56.929
623.766, 126.719
625.076, 79.807
626.386, 33.891
627.696, 63.853
629.006, 30.929
630.315, 112.457
631.624, 19.543
632.933, 71.934
634.242, 39.986
635.551, 33.033
636.859, 74.073
638.167, 55.119
639.475, 111.814
640.783, 44.853
642.090, 39.885
643.398, 126.205
644.705, 63.228
646.012, 103.123
647.318, 76.549
648.625, 53.557
649.931, 89.532
651.237, 65.121
652.543, 95.115
653.849, 91.244
655.155, 79.229
656.460, 121.233
657.765, 61.208
659.070, 151.235
660.375, 61.517
661.679, 11.522
662.984, 100.607
664.288, 75.462
665.592, 84.721
666.895, 14.602
668.199, 52.512
669.502, 114.818
670.805, 17.281
672.108, 119.107
673.411, 42.022
674.713, 148.885
676.016, 119.109
677.318, 57.962
678.620, 127.809
679.921, 104.651
681.223, 89.488
682.524, 150.320
683.825, 62.146
685.126, 165.967
686.427, 111.582
687.727, 168.392
689.028, 354.667
690.328, 621.465
691.628, 1678.789
692.927, 3033.577
694.227, 3779.360
695.526, 3221.107
696.825, 1690.917
698.124, 1084.568
699.423, 543.538
700.721, 379.701
702.020, 351.463
703.318, 291.220
704.616, 248.930
705.913, 184.676
707.211, 163.401
708.508, 110.137
709.805, 23.867
711.102, 105.589
712.399, 71.308
713.695, 44.022
714.992, 110.069
716.288, 10.771
717.584, 31.012
718.879, 78.695
720.175, 81.237
721.470, 122.909
722.765, 18.820
724.060, 164.459
725.355, 87.086
726.649, 32.696
727.944, 138.336
729.238, 17.138
730.532, 120.614
731.825, 96.233
733.119, 24.336
734.412, 150.248
735.705, 14.827
736.998, 29.313
738.291, 119.874
739.584, 56.761
740.876, 113.312
742.168, 17.857
743.460, 85.394
744.752, 57.926
746.043, 50.929
747.334, 74.453
748.626, 63.575
749.916, 79.089
751.207, 81.598
752.498, 41.103
753.788, 128.603
755.078, 35.118
756.368, 109.607
757.658, 85.092
758.947, 25.491
760.237, 108.965
761.526, 54.435
762.815, 86.900
764.104, 44.360
765.392, 1.337
766.680, 79.071
767.969, 42.622
769.257, 88.055
770.544, 125.484
771.832, 25.915
773.119, 93.334
774.406, 78.737
775.693, 10.247
776.980, 91.514
778.267, 1.926
779.553, 88.326
780.839, 52.723
782.125, 27.048
783.411, 128.321
784.697, 6.430
785.982, 112.786
787.267, 9.556
788.552, 34.905
789.837, 85.152
791.122, 46.265
792.406, 88.014
793.690, 58.347
794.974, 75.677
796.258, 85.948
797.542, 11.142
798.825, 87.457
800.108, 30.768
801.391, 98.075
802.674, 94.381
803.957, 49.683
805.239, 92.981
806.522, 39.278
807.804, 49.571
809.085, 83.868
810.367, 27.162
811.649, 81.451
812.930, 22.737
814.211, 46.018
815.492, 86.299
816.772, 85.341
818.053, 122.624
819.333, 140.047
820.613, 20.331
821.893, 88.876
823.173, 22.842
824.452, 81.423
825.732, 57.207
827.011, 16.468
828.290, 123.642
829.568, 60.896
830.847, 37.149
832.125, 115.400
833.403, 84.648
834.681, 79.893
835.959, 86.135
837.236, 47.374
838.514, 126.612
839.791, 7.155
841.068, 98.073
842.345, 153.298
843.621, 99.527
844.898, 146.754
846.174, 104.990
847.450, 81.226
848.726, 130.082
850.001, 15.314
851.277, 117.552
852.552, 137.797
853.827, 104.043
855.102, 98.289
856.376, 61.533
857.651, 128.777
858.925, 21.020
860.199, 108.259
861.473, 164.497
862.746, 18.732
864.020, 133.592
865.293, 69.495
866.566, 97.725
867.839, 83.925
869.112, 56.160
870.384, 84.639
871.656, 22.669
872.928, 39.908
874.200, 143.146
875.472, 0.617
876.744, 134.134
878.015, 12.633
879.286, 15.588
880.557, 137.652
881.828, 16.119
883.098, 61.579
884.369, 36.795
885.639, 46.011
886.909, 118.454
888.178, 32.669
889.448, 8.311
890.717, 55.296
891.987, 85.509
893.256, 114.740
894.524, 34.971
895.793, 19.819
897.061, 108.048
898.330, 68.278
899.598, 98.513
900.865, 81.748
902.133, 27.983
903.401, 73.219
904.668, 71.454
905.935, 110.685
907.202, 69.918
908.468, 11.140
909.735, 96.386
911.001, 50.633
912.267, 80.748
913.533, 124.994
914.799, 68.240
916.064, 104.485
917.330, 23.730
918.595, 33.985
919.860, 116.244
921.124, 56.481
922.389, 145.719
923.653, 7.044
924.918, 51.086
926.182, 136.322
927.445, 2.438
928.709, 111.425
929.972, 121.667
931.236, 22.209
932.499, 128.451
933.761, 22.693
935.024, 187.446
936.286, 56.690
937.549, 37.477
938.811, 140.723
940.073, 21.638
941.334, 67.887
942.596, 148.139
943.857, 44.607
945.118, 164.626
946.379, 83.860
947.640, 74.095
948.900, 105.332
950.161, 31.278
951.421, 97.517
952.681, 148.747
953.940, 13.989
955.200, 112.230
956.459, 49.473
957.719, 60.717
958.978, 94.961
960.236, 6.206
961.495, 126.452
962.753, 116.675
964.012, 32.923
965.270, 139.117
966.527, 13.368
967.785, 92.888
969.043, 133.150
970.300, 5.586
971.557, 118.676
972.814, 16.895
974.071, 124.164
975.327, 129.492
976.583, 15.764
977.840, 171.046
979.095, 59.285
980.351, 84.571
981.607, 120.858
982.862, 8.147
984.117, 83.466
985.372, 110.757
986.627, 7.051
987.882, 63.346
989.136, 2.642
990.390, 7.938
991.644, 72.408
992.898, 45.707
994.152, 48.006
995.405, 26.479
996.659, 7.782
997.912, 58.008
999.165, 51.688
1000.417, 112.595
1001.670, 63.934
1002.922, 59.222
1004.174, 175.509
1005.426, 22.799
1006.678, 59.091
1007.930, 134.967
1009.181, 27.262
1010.432, 104.563
1011.683, 35.873
1012.934, 35.205
1014.185, 140.539
1015.435, 18.999
1016.685, 186.367
1017.935, 91.183
1019.185, 48.551
1020.435, 182.923
1021.684, 110.840
1022.934, 178.218
1024.183, 161.601
1025.432, 80.157
1026.680, 208.305
1027.929, 28.936
1029.177, 115.354
1030.425, 181.750
1031.673, 73.231
1032.921, 174.461
1034.169, 146.976
1035.416, 50.379
1036.663, 220.785
1037.911, 169.472
1039.157, 206.891
1040.404, 317.313
1041.650, 403.771
1042.897, 590.195
1044.143, 344.652
1045.389, 266.235
1046.634, 230.667
1047.880, 231.171
1049.125, 353.603
1050.371, 370.053
1051.615, 350.486
1052.860, 541.919
1054.105, 420.499
1055.349, 570.933
1056.593, 811.367
1057.837, 1101.114
1059.081, 1979.549
1060.325, 4559.983
1061.568, 17690.428
1062.812, 49875.863
1064.055, 53541.375
1065.298, 30586.846
1066.540, 11772.284
1067.783, 4582.005
1069.025, 2218.484
1070.267, 1115.930
1071.509, 644.374
1072.751, 581.819
1073.993, 322.148
1075.234, 427.618
1076.475, 333.085
1077.716, 219.623
1078.957, 391.093
1080.198, 254.562
1081.438, 236.291
1082.679, 262.764
1083.919, 144.383
1085.159, 242.911
1086.398, 256.394
1087.638, 141.900
1088.877, 313.405
1090.116, 144.912
1091.355, 201.720
1092.594, 244.227
1093.833, 79.324
1095.071, 236.829
1096.309, 120.333
1097.547, 147.317
1098.785, 213.819
1100.023, 87.321
1101.260, 188.997
1102.498, 226.502
1103.735, 69.007
1104.972, 281.511
1106.208, 71.014
1107.445, 180.516
1108.681, 208.017
1109.918, 64.517
1111.154, 179.133
1112.389, 161.633
1113.625, 82.290
1114.860, 145.912
1116.096, 5.590
1117.331, 100.050
1118.566, 189.542
1119.800, 94.895
1121.035, 187.888
1122.269, 48.374
1123.503, 30.858
1124.737, 170.352
1125.971, 49.842
1127.205, 102.544
1128.438, 161.037
1129.671, 41.527
1130.904, 181.176
1132.137, 32.661
1133.370, 49.173
1134.602, 221.134
1135.834, 62.612
1137.066, 134.086
1138.298, 201.576
1139.530, 20.956
1140.762, 134.505
1141.993, 75.962
1143.224, 3.417
1144.455, 275.166
1145.686, 19.387
1146.917, 187.049
1148.147, 144.983
1149.377, 39.587
1150.607, 166.529
1151.837, 88.935
1153.067, 72.338
1154.296, 129.197
1155.526, 12.407
1156.755, 154.449
1157.984, 109.026
1159.213, 48.405
1160.441, 187.856
1161.670, 73.343
1162.898, 27.709
1164.126, 234.769
1165.354, 21.715
1166.581, 127.624
1167.809, 80.965
1169.036, 22.705
1170.263, 227.022
1171.490, 120.879
1172.717, 28.179
1173.943, 207.522
1175.170, 15.882
1176.396, 166.163
1177.622, 154.840
1178.848, 54.115
1180.073, 254.385
1181.299, 48.176
1182.524, 143.437
1183.749, 179.270
1184.974, 12.641
1186.199, 260.880
1187.423, 119.537
1188.648, 70.763
1189.872, 233.085
1191.096, 72.875
1192.320, 43.082
1193.543, 226.865
1194.767, 64.056
1195.990, 116.240
1197.213, 78.998
1198.436, 112.202
1199.659, 182.364
1200.881, 49.752
1202.104, 101.898
1203.326, 221.037
1204.548, 11.331
1205.770, 103.454
1206.991, 179.992
1208.213, 86.099
1209.434, 271.215
1210.655, 70.481
1211.876, 84.564
1213.096, 171.936
1214.317, 24.432
1215.537, 216.490
1216.757, 169.810
1217.977, 95.887
1219.197, 303.926
1220.417, 69.014
1221.636, 140.025
1222.855, 220.034
1224.074, 64.341
1225.293, 188.339
1226.512, 118.480
1227.731, 41.791
1228.949, 262.774
1230.167, 69.063
1231.385, 94.512
1232.603, 202.481
1233.820, 148.379
1235.038, 180.336
1236.255, 233.548
1237.472, 40.143
1238.689, 288.084
1239.906, 112.019
1241.122, 147.959
1242.338, 315.894
1243.555, 14.822
1244.771, 192.742
1245.986, 207.655
1247.202, 76.855
1248.417, 299.757
1249.633, 193.652
1250.848, 153.807
1252.063, 244.688
1253.277, 121.735
1254.492, 224.605
1255.706, 138.470
1256.920, 95.129
1258.134, 228.979
1259.348, 85.820
1260.562, 95.086
1261.775, 292.911
1262.988, 90.451
1264.201, 128.283
1265.414, 222.036
1266.627, 21.731
1267.839, 241.410
1269.052, 150.079
1270.264, 132.346
1271.476, 320.983
1272.688, 78.610
1273.899, 163.883
1275.111, 298.491
1276.322, 94.179
1277.533, 304.828
1278.744, 126.375
1279.955, 29.938
1281.165, 338.488
1282.376, 138.025
1283.586, 130.555
1284.796, 235.074
1286.006, 144.613
1287.215, 206.367
1288.425, 139.857
1289.634, 66.157
1290.843, 193.615
1292.052, 170.139
1293.261, 108.640
1294.469, 241.029
1295.678, 10.326
1296.886, 170.312
1298.094, 144.664
1299.302, 35.999
1300.509, 209.476
1301.717, 35.155
1302.924, 0.528
1304.131, 215.755
1305.338, 93.038
1306.545, 113.415
1307.752, 224.561
1308.958, 113.436
1310.164, 103.983
1311.370, 143.601
1312.576, 3.646
1313.782, 151.213
1314.987, 42.678
1316.193, 26.668
1317.398, 300.642
1318.603, 13.580
1319.807, 125.352
1321.012, 199.009
1322.216, 47.886
1323.421, 239.059
1324.625, 142.822
1325.829, 31.652
1327.032, 216.841
1328.236, 25.633
1329.439, 115.407
1330.642, 183.989
1331.845, 44.717
1333.048, 242.586
1334.251, 121.246
1335.453, 26.919
1336.656, 285.855
1337.858, 26.334
1339.060, 174.944
1340.261, 185.922
1341.463, 27.488
1342.664, 139.019
1343.866, 175.707
1345.067, 92.213
1346.267, 270.559
1347.468, 152.272
1348.669, 109.710
1349.869, 252.404
1351.069, 47.803
1352.269, 166.168
1353.469, 146.089
1354.668, 1.396
1355.868, 234.588
1357.067, 80.927
1358.266, 49.091
1359.465, 299.939
1360.664, 89.112
1361.862, 144.916
1363.061, 268.417
1364.259, 75.691
1365.457, 199.169
1366.655, 152.675
1367.852, 81.011
1369.050, 411.229
1370.247, 119.544
1371.444, 78.949
1372.641, 302.344
1373.838, 82.406
1375.035, 48.765
1376.231, 227.118
1377.427, 56.064
1378.623, 213.068
1379.819, 97.368
1381.015, 30.653
1382.211, 251.925
1383.406, 216.051
1384.601, 176.106
1385.796, 275.185
1386.991, 180.222
1388.185, 291.818
1389.380, 333.998
1390.574, 4.160
1391.768, 394.042
1392.962, 173.965
1394.156, 103.035
1395.350, 335.523
1396.543, 126.576
1397.736, 240.651
1398.929, 432.718
1400.122, 24.385
1401.315, 285.276
1402.507, 279.376
1403.700, 67.420
1404.892, 319.820
1406.084, 210.521
1407.276, 145.506
1408.467, 457.204
1409.659, 161.704
1410.850, 158.938
1412.041, 409.011
1413.232, 25.866
1414.423, 254.303
1415.614, 370.309
1416.804, 9.095
1417.994, 291.667
1419.184, 131.113
1420.374, 137.977
1421.564, 427.342
1422.753, 233.903
1423.943, 399.418
1425.132, 682.903
1426.321, 429.305
1427.510, 451.351
1428.698, 484.506
1429.887, 95.170
1431.075, 330.563
1432.263, 214.772
1433.451, 159.761
1434.639, 443.606
1435.827, 141.899
1437.014, 180.105
1438.201, 346.639
1439.388, 20.438
1440.575, 256.813
1441.762, 314.118
1442.949, 91.212
1444.135, 364.301
1445.321, 107.423
1446.507, 173.928
1447.693, 380.367
1448.879, 70.746
1450.064, 244.869
1451.250, 268.368
1452.435, 55.007
1453.620, 240.986
1454.805, 285.724
1455.989, 17.301
1457.174, 264.972
1458.358, 229.592
1459.542, 173.646
1460.726, 324.757
1461.910, 157.735
1463.093, 164.369
1464.277, 381.569
1465.460, 53.192
1466.643, 171.757
1467.826, 269.227
1469.009, 17.657
1470.191, 287.910
1471.373, 242.109
1472.556, 102.120
1473.738, 379.863
1474.919, 86.056
1476.101, 179.674
1477.283, 329.526
1478.464, 48.503
1479.645, 287.856
1480.826, 289.385
1482.007, 18.653
1483.187, 295.782
1484.368, 259.865
1485.548, 86.038
1486.728, 305.186
1487.908, 133.287
1489.088, 63.592
1490.268, 385.625
1491.447, 8.098
1492.626, 198.839
1493.805, 383.321
1494.984, 10.570
1496.163, 175.601
1497.341, 301.217
1498.520, 5.355
1499.698, 359.625
1500.876, 181.114
1502.054, 102.229
1503.232, 322.004
1504.409, 0.119
1505.586, 23.581
1506.763, 0.000
##END=



