##NAMES=Witherite
##RRUFFID=R050148
##IDEAL CHEMISTRY=BaCO_3_
##LOCALITY=Settlingstones mine, Fourstones, Northumberland, England
##OWNER=RRUFF
##SOURCE=Jim McGlasson
##DESCRIPTION=Tan colored crystal fragment
##STATUS=The identification of this mineral has been confirmed by X-ray diffraction and chemical analysis
##URL=rruff.info/R050148
##MEASURED CHEMISTRY=(Ba_0.96_Sr_0.04_)CO_3_
##PIN_ID=L00254
##ORIENTATION=Laser parallel to c* (0 0 1). Fiducial mark perpendicular to laser is parallel to a [1 0 0]
91.527, 0.000
92.926, 114.575
94.324, 6.905
95.723, 3.451
97.121, 25.900
98.519, 164.821
99.917, 228.018
101.314, 252.867
102.712, 217.188
104.109, 238.094
105.505, 237.897
106.902, 289.052
108.298, 323.859
109.694, 421.754
111.090, 446.658
112.486, 504.594
113.881, 613.358
115.277, 674.771
116.672, 730.755
118.066, 763.927
119.461, 826.416
120.855, 858.038
122.249, 901.703
123.643, 975.334
125.036, 974.863
126.430, 1077.228
127.823, 1204.377
129.216, 1322.265
130.608, 1372.851
132.001, 1545.100
133.393, 1652.978
134.785, 1634.437
136.176, 1617.422
137.568, 1596.894
138.959, 1650.822
140.350, 1723.178
141.741, 1723.941
143.131, 1788.090
144.521, 1973.609
145.911, 2105.482
147.301, 2207.692
148.691, 2450.228
150.080, 2794.077
151.469, 3274.230
152.858, 4095.675
154.247, 5367.403
155.635, 6726.407
157.024, 8109.676
158.411, 8891.204
159.799, 8912.980
161.187, 7645.005
162.574, 5982.265
163.961, 4328.761
165.348, 3233.526
166.734, 2409.518
168.121, 1820.743
169.507, 1466.210
170.893, 1231.903
172.278, 1082.827
173.664, 1047.965
175.049, 904.288
176.434, 896.567
177.819, 852.816
179.203, 842.089
180.587, 802.407
181.971, 759.801
183.355, 774.283
184.739, 735.838
186.122, 733.487
187.505, 698.233
188.888, 649.069
190.271, 661.021
191.653, 651.087
193.035, 629.259
194.417, 599.550
195.799, 618.951
197.180, 626.451
198.562, 628.094
199.943, 640.754
201.324, 656.557
202.704, 673.465
204.084, 700.478
205.465, 678.602
206.844, 817.830
208.224, 892.173
209.603, 1021.624
210.983, 1240.176
212.362, 1503.825
213.740, 1869.593
215.119, 2360.454
216.497, 2557.407
217.875, 2841.452
219.253, 2824.587
220.631, 2814.812
222.008, 2672.132
223.385, 2657.539
224.762, 2528.040
226.139, 2286.638
227.515, 2145.435
228.891, 1813.208
230.267, 1573.082
231.643, 1378.041
233.018, 1164.085
234.394, 1012.214
235.769, 988.878
237.144, 829.726
238.518, 750.703
239.893, 706.305
241.267, 577.839
242.641, 677.562
244.014, 533.253
245.388, 471.794
246.761, 549.825
248.134, 485.626
249.507, 451.476
250.879, 420.635
252.252, 384.639
253.624, 374.427
254.996, 355.694
256.367, 366.884
257.739, 327.973
259.110, 327.064
260.481, 298.429
261.852, 294.342
263.222, 273.070
264.592, 294.939
265.962, 279.434
267.332, 282.936
268.702, 207.817
270.071, 235.928
271.440, 263.167
272.809, 200.743
274.178, 250.354
275.546, 202.266
276.915, 196.564
278.283, 176.698
279.650, 216.829
281.018, 143.268
282.385, 144.844
283.752, 188.692
285.119, 235.540
286.486, 225.058
287.852, 162.141
289.218, 207.739
290.584, 136.035
291.950, 133.445
293.316, 145.275
294.681, 96.880
296.046, 163.103
297.411, 161.889
298.775, 96.760
300.140, 158.714
301.504, 147.762
302.868, 95.887
304.231, 65.087
305.595, 102.363
306.958, 126.714
308.321, 85.140
309.684, 105.633
311.047, 93.196
312.409, 125.326
313.771, 98.018
315.133, 64.771
316.495, 66.417
317.856, 83.293
319.217, 122.425
320.578, 22.415
321.939, 106.752
323.299, 69.851
324.660, 86.615
326.020, 112.933
327.380, 98.188
328.739, 76.806
330.099, 48.157
331.458, 119.561
332.817, 80.903
334.176, 100.397
335.534, 122.934
336.892, 17.514
338.251, 29.135
339.608, 56.796
340.966, 49.499
342.323, 39.251
343.681, 55.045
345.037, 76.881
346.394, 73.757
347.751, 71.673
349.107, 19.163
350.463, 55.157
351.819, 115.191
353.174, 28.358
354.530, 79.506
355.885, 26.374
357.240, 67.215
358.594, 60.435
359.949, 11.309
361.303, 46.981
362.657, 57.262
364.011, 40.621
365.365, 67.671
366.718, 48.097
368.071, 83.948
369.424, 48.643
370.777, 35.383
372.129, 68.190
373.481, 34.167
374.833, 6.780
376.185, 14.072
377.537, 28.071
378.888, 21.792
380.239, 56.611
381.590, 34.173
382.941, 18.999
384.291, 12.180
385.642, 40.393
386.992, 17.243
388.341, 8.154
389.691, 49.795
391.040, 56.410
392.389, 13.361
393.738, 0.330
395.087, 68.671
396.435, 31.183
397.784, 37.217
399.132, 12.658
400.479, 16.409
401.827, 39.465
403.174, 85.660
404.521, 38.220
405.868, 14.007
407.215, 45.840
408.561, 9.318
409.908, 38.165
411.254, 7.968
412.599, 3.586
413.945, 59.495
415.290, 19.774
416.636, 10.528
417.980, 52.276
419.325, 43.140
420.670, 5.855
422.014, 19.926
423.358, 13.316
424.702, 2.422
426.045, 3.511
427.389, 42.998
428.732, 1.518
430.075, 3.934
431.417, 36.286
432.760, 32.505
434.102, 36.002
435.444, 65.753
436.786, 1.554
438.127, 8.969
439.469, 65.863
440.810, 51.396
442.151, 28.958
443.492, 17.013
444.832, 0.314
446.172, 7.130
447.512, 40.033
448.852, 34.156
450.192, 34.976
451.531, 13.900
452.870, 21.944
454.209, 30.663
455.548, 38.560
456.887, 34.505
458.225, 21.210
459.563, 46.524
460.901, 53.640
462.238, 47.051
463.576, 56.538
464.913, 51.687
466.250, 57.932
467.587, 55.758
468.923, 68.969
470.259, 89.224
471.596, 97.410
472.931, 1.510
474.267, 84.682
475.603, 88.802
476.938, 8.286
478.273, 37.988
479.608, 10.131
480.942, 52.281
482.276, 17.112
483.611, 101.044
484.944, 0.216
486.278, 16.713
487.612, 115.893
488.945, 10.082
490.278, 34.374
491.611, 130.629
492.943, 25.164
494.276, 71.035
495.608, 57.271
496.940, 70.481
498.271, 34.703
499.603, 83.926
500.934, 78.077
502.265, 75.514
503.596, 100.754
504.927, 89.343
506.257, 85.590
507.587, 45.850
508.917, 13.112
510.247, 52.373
511.577, 59.639
512.906, 31.906
514.235, 36.174
515.564, 11.446
516.892, 13.713
518.221, 53.976
519.549, 105.241
520.877, 47.413
522.205, 8.681
523.533, 92.942
524.860, 4.795
526.187, 50.452
527.514, 27.701
528.841, 35.946
530.167, 36.188
531.493, 35.430
532.820, 30.667
534.145, 81.901
535.471, 24.135
536.796, 140.360
538.122, 132.190
539.447, 41.133
540.771, 0.256
542.096, 33.916
543.420, 54.113
544.744, 17.823
546.068, 108.353
547.392, 55.524
548.715, 48.694
550.039, 11.904
551.362, 60.057
552.684, 132.666
554.007, 62.202
555.329, 16.763
556.652, 110.749
557.973, 19.866
559.295, 68.906
560.617, 61.005
561.938, 22.345
563.259, 100.438
564.580, 58.244
565.901, 86.326
567.221, 98.311
568.541, 16.743
569.861, 69.907
571.181, 18.729
572.501, 30.226
573.820, 65.584
575.139, 44.127
576.458, 123.905
577.777, 64.466
579.095, 84.257
580.414, 14.038
581.732, 71.112
583.049, 32.012
584.367, 45.812
585.685, 92.688
587.002, 110.390
588.319, 87.457
589.636, 69.171
590.952, 0.888
592.268, 127.689
593.585, 96.546
594.900, 73.872
596.216, 6.548
597.532, 24.988
598.847, 146.752
600.162, 6.352
601.477, 57.360
602.792, 20.939
604.106, 92.983
605.420, 121.688
606.734, 19.775
608.048, 86.520
609.361, 108.733
610.675, 14.656
611.988, 49.979
613.301, 58.218
614.614, 99.765
615.926, 36.774
617.238, 55.293
618.550, 69.492
619.862, 19.014
621.174, 112.520
622.485, 72.823
623.797, 43.365
625.108, 40.986
626.418, 29.235
627.729, 71.828
629.039, 38.236
630.349, 73.592
631.659, 80.420
632.969, 167.738
634.279, 44.043
635.588, 76.500
636.897, 187.774
638.206, 173.837
639.515, 59.088
640.823, 156.031
642.131, 109.867
643.439, 65.479
644.747, 132.564
646.055, 184.869
647.362, 82.770
648.669, 35.945
649.976, 141.085
651.283, 115.748
652.589, 90.863
653.896, 187.968
655.202, 97.484
656.508, 117.568
657.814, 112.639
659.119, 6.001
660.424, 183.028
661.729, 69.043
663.034, 142.042
664.339, 133.704
665.643, 108.677
666.947, 152.108
668.251, 103.060
669.555, 125.000
670.859, 157.830
672.162, 155.206
673.465, 140.394
674.768, 125.631
676.071, 135.513
677.373, 134.395
678.676, 175.516
679.978, 249.424
681.280, 200.294
682.581, 180.474
683.883, 394.299
685.184, 652.719
686.485, 1509.340
687.786, 3089.098
689.087, 5110.617
690.387, 6051.989
691.687, 5003.784
692.987, 3314.879
694.287, 1719.696
695.586, 1063.414
696.886, 649.899
698.185, 359.907
699.484, 302.195
700.783, 278.062
702.081, 235.007
703.379, 218.654
704.677, 192.208
705.975, 91.723
707.273, 161.510
708.570, 59.101
709.868, 62.683
711.165, 54.500
712.462, 61.210
713.758, 134.747
715.055, 81.199
716.351, 152.710
717.647, 87.751
718.943, 163.213
720.238, 50.687
721.533, 118.051
722.829, 101.496
724.124, 2.475
725.418, 145.596
726.713, 56.043
728.007, 95.249
729.301, 131.797
730.595, 47.114
731.889, 173.003
733.182, 80.331
734.476, 105.772
735.769, 108.085
737.061, 65.937
738.354, 143.213
739.647, 95.958
740.939, 132.780
742.231, 68.032
743.523, 59.275
744.814, 170.503
746.106, 118.652
747.397, 84.681
748.688, 58.883
749.978, 39.077
751.269, 134.240
752.559, 84.567
753.849, 80.606
755.139, 164.748
756.429, 117.282
757.719, 152.218
759.008, 37.827
760.297, 65.959
761.586, 142.048
762.875, 6.787
764.163, 170.770
765.451, 104.828
766.739, 61.724
768.027, 164.277
769.315, 99.002
770.602, 107.021
771.890, 168.256
773.177, 18.900
774.463, 159.741
775.750, 53.293
777.036, 9.302
778.323, 49.118
779.609, 40.357
780.894, 39.149
782.180, 7.259
783.465, 53.975
784.750, 60.948
786.035, 83.650
787.320, 154.429
788.605, 148.394
789.889, 109.339
791.173, 169.117
792.457, 85.006
793.741, 77.822
795.024, 164.180
796.307, 11.018
797.591, 58.744
798.873, 94.192
800.156, 42.955
801.439, 50.707
802.721, 56.352
804.003, 151.029
805.285, 19.754
806.566, 111.585
807.848, 152.523
809.129, 19.223
810.410, 97.031
811.691, 91.708
812.971, 26.377
814.252, 129.943
815.532, 77.593
816.812, 170.196
818.092, 15.173
819.371, 73.435
820.651, 67.072
821.930, 127.802
823.209, 87.459
824.488, 93.035
825.766, 10.604
827.045, 89.316
828.323, 73.868
829.601, 95.485
830.878, 101.319
832.156, 29.856
833.433, 163.360
834.710, 58.065
835.987, 125.578
837.264, 99.144
838.540, 181.649
839.817, 56.147
841.093, 34.638
842.369, 120.474
843.644, 87.636
844.920, 55.109
846.195, 96.243
847.470, 47.907
848.745, 97.359
850.020, 116.969
851.294, 86.405
852.568, 214.843
853.842, 8.725
855.116, 58.688
856.390, 72.105
857.663, 196.638
858.936, 167.056
860.209, 10.596
861.482, 113.993
862.755, 118.930
864.027, 11.081
865.299, 67.745
866.571, 153.731
867.843, 71.102
869.115, 174.347
870.386, 33.292
871.657, 164.955
872.928, 97.287
874.199, 135.051
875.470, 106.371
876.740, 1.316
878.010, 168.629
879.280, 49.932
880.550, 82.781
881.820, 50.083
883.089, 158.386
884.358, 65.142
885.627, 142.440
886.896, 72.630
888.164, 202.942
889.433, 101.249
890.701, 89.388
891.969, 9.689
893.236, 53.988
894.504, 92.282
895.771, 104.436
897.038, 73.492
898.305, 125.773
899.572, 93.049
900.838, 117.323
902.105, 177.396
903.371, 59.146
904.637, 49.411
905.902, 89.682
907.168, 78.940
908.433, 145.207
909.698, 40.479
910.963, 156.748
912.228, 54.638
913.492, 166.855
914.757, 140.123
916.021, 29.730
917.285, 185.518
918.548, 86.761
919.812, 105.952
921.075, 84.203
922.338, 145.449
923.601, 108.691
924.864, 62.932
926.126, 145.478
927.388, 167.711
928.650, 50.874
929.912, 113.253
931.174, 148.378
932.435, 123.402
933.697, 130.420
934.958, 109.798
936.218, 73.981
937.479, 105.197
938.739, 130.423
940.000, 193.647
941.260, 91.866
942.520, 41.084
943.779, 46.300
945.039, 140.511
946.298, 150.718
947.557, 130.922
948.816, 18.491
950.074, 184.689
951.333, 80.875
952.591, 195.040
953.849, 127.195
955.107, 95.356
956.365, 124.530
957.622, 34.271
958.879, 3.436
960.136, 186.594
961.393, 21.675
962.650, 111.465
963.906, 104.604
965.162, 53.436
966.418, 201.941
967.674, 0.921
968.930, 137.211
970.185, 128.662
971.441, 21.213
972.696, 28.159
973.950, 43.266
975.205, 118.367
976.459, 85.736
977.714, 39.670
978.968, 99.807
980.222, 44.874
981.475, 58.062
982.729, 269.741
983.982, 36.481
985.235, 19.525
986.488, 116.732
987.740, 50.734
988.993, 152.042
990.245, 87.058
991.497, 151.086
992.749, 3.170
994.000, 32.170
995.252, 194.096
996.503, 12.968
997.754, 16.001
999.005, 86.300
1000.256, 25.265
1001.506, 179.227
1002.756, 174.575
1004.006, 107.533
1005.256, 123.280
1006.506, 117.521
1007.755, 35.477
1009.005, 63.992
1010.254, 19.184
1011.502, 168.674
1012.751, 135.203
1014.000, 132.158
1015.248, 115.137
1016.496, 107.587
1017.744, 192.592
1018.991, 152.593
1020.239, 114.589
1021.486, 243.020
1022.733, 128.478
1023.980, 197.485
1025.227, 161.618
1026.473, 200.877
1027.719, 303.304
1028.965, 102.794
1030.211, 106.760
1031.457, 278.830
1032.702, 138.266
1033.948, 234.314
1035.193, 95.425
1036.438, 318.475
1037.682, 367.532
1038.927, 473.792
1040.171, 435.927
1041.415, 354.989
1042.659, 247.114
1043.903, 208.121
1045.146, 296.521
1046.390, 353.921
1047.633, 421.952
1048.876, 407.107
1050.118, 583.134
1051.361, 613.251
1052.603, 673.787
1053.845, 1133.788
1055.087, 1773.943
1056.329, 3954.402
1057.571, 13254.399
1058.812, 38694.605
1060.053, 52514.500
1061.294, 37194.484
1062.535, 15704.624
1063.775, 7214.592
1065.016, 3394.556
1066.256, 1862.941
1067.496, 1102.896
1068.736, 613.120
1069.975, 463.062
1071.214, 422.999
1072.454, 191.102
1073.693, 403.021
1074.931, 254.938
1076.170, 372.848
1077.408, 316.750
1078.647, 206.752
1079.885, 352.669
1081.122, 220.580
1082.360, 211.594
1083.597, 288.492
1084.835, 261.389
1086.072, 372.453
1087.308, 206.334
1088.545, 93.693
1089.781, 272.559
1091.018, 228.415
1092.254, 190.692
1093.490, 292.468
1094.725, 116.454
1095.961, 352.275
1097.196, 192.087
1098.431, 104.352
1099.666, 231.150
1100.900, 66.941
1102.135, 86.723
1103.369, 270.557
1104.603, 150.351
1105.837, 180.105
1107.071, 169.740
1108.304, 136.772
1109.538, 239.302
1110.771, 138.023
1112.004, 118.205
1113.236, 147.909
1114.469, 7.571
1115.701, 237.856
1116.933, 207.222
1118.165, 106.885
1119.397, 136.997
1120.629, 35.612
1121.860, 165.297
1123.091, 154.854
1124.322, 34.637
1125.553, 264.503
1126.783, 1.949
1128.014, 151.692
1129.244, 141.409
1130.474, 32.267
1131.704, 177.591
1132.933, 105.146
1134.163, 44.867
1135.392, 205.174
1136.621, 24.616
1137.850, 94.521
1139.079, 84.384
1140.307, 15.627
1141.535, 227.750
1142.763, 35.926
1143.991, 185.341
1145.219, 174.532
1146.446, 3.718
1147.674, 224.580
1148.901, 184.608
1150.128, 13.960
1151.354, 204.302
1152.581, 125.868
1153.807, 35.233
1155.033, 175.059
1156.259, 25.741
1157.485, 54.064
1158.710, 255.838
1159.936, 24.933
1161.161, 226.854
1162.386, 63.232
1163.611, 12.409
1164.835, 147.980
1166.060, 147.495
1167.284, 176.801
1168.508, 171.733
1169.732, 30.844
1170.955, 190.366
1172.179, 111.573
1173.402, 80.632
1174.625, 162.916
1175.848, 32.480
1177.070, 181.487
1178.293, 150.105
1179.515, 49.582
1180.737, 248.763
1181.959, 0.079
1183.181, 198.925
1184.402, 170.591
1185.624, 110.055
1186.845, 138.969
1188.066, 160.725
1189.286, 69.544
1190.507, 318.495
1191.727, 77.871
1192.947, 76.652
1194.167, 256.313
1195.387, 136.438
1196.607, 235.171
1197.826, 144.625
1199.045, 43.607
1200.264, 222.249
1201.483, 121.864
1202.702, 60.467
1203.920, 229.188
1205.138, 118.285
1206.356, 226.879
1207.574, 215.890
1208.792, 124.565
1210.009, 293.113
1211.227, 292.037
1212.444, 90.750
1213.661, 219.182
1214.877, 108.465
1216.094, 176.856
1217.310, 225.530
1218.526, 134.079
1219.742, 282.412
1220.958, 241.127
1222.173, 239.466
1223.389, 237.743
1224.604, 152.351
1225.819, 300.647
1227.034, 299.238
1228.248, 157.996
1229.463, 286.177
1230.677, 265.043
1231.891, 143.472
1233.105, 311.692
1234.318, 70.252
1235.532, 288.335
1236.745, 216.406
1237.958, 64.462
1239.171, 282.502
1240.384, 150.526
1241.596, 188.545
1242.809, 336.542
1244.021, 84.525
1245.233, 292.496
1246.444, 200.452
1247.656, 258.294
1248.867, 176.199
1250.079, 184.108
1251.290, 202.356
1252.500, 280.235
1253.711, 108.235
1254.921, 266.082
1256.132, 163.914
1257.342, 81.968
1258.552, 379.979
1259.761, 257.761
1260.971, 55.199
1262.180, 422.919
1263.389, 200.625
1264.598, 89.212
1265.807, 246.872
1267.015, 154.401
1268.223, 232.026
1269.432, 159.620
1270.640, 137.547
1271.847, 205.036
1273.055, 162.076
1274.262, 150.132
1275.470, 187.506
1276.677, 123.090
1277.883, 260.406
1279.090, 107.711
1280.296, 34.714
1281.503, 281.900
1282.709, 98.740
1283.915, 106.306
1285.120, 73.326
1286.326, 40.560
1287.531, 96.827
1288.736, 203.537
1289.941, 90.504
1291.146, 247.600
1292.350, 4.099
1293.555, 31.149
1294.759, 298.532
1295.963, 14.981
1297.167, 8.203
1298.370, 188.574
1299.574, 75.013
1300.777, 191.799
1301.980, 66.940
1303.183, 16.669
1304.386, 199.926
1305.588, 15.088
1306.790, 88.557
1307.993, 317.714
1309.195, 76.303
1310.396, 110.101
1311.598, 156.479
1312.799, 67.166
1314.000, 199.141
1315.201, 94.979
1316.402, 8.767
1317.603, 257.334
1318.803, 26.724
1320.003, 69.425
1321.203, 215.107
1322.403, 128.807
1323.603, 77.200
1324.802, 142.755
1326.002, 11.291
1327.201, 173.567
1328.400, 20.544
1329.599, 55.308
1330.797, 180.929
1331.995, 23.360
1333.194, 212.398
1334.392, 157.746
1335.589, 53.459
1336.787, 188.787
1337.985, 14.079
1339.182, 0.290
1340.379, 185.189
1341.576, 30.771
1342.772, 116.236
1343.969, 231.256
1345.165, 6.772
1346.361, 202.071
1347.557, 157.091
1348.753, 62.548
1349.949, 177.767
1351.144, 73.184
1352.339, 148.583
1353.534, 173.771
1354.729, 79.139
1355.924, 124.494
1357.118, 259.492
1358.312, 14.823
1359.506, 189.868
1360.700, 115.301
1361.894, 140.605
1363.088, 305.730
1364.281, 91.400
1365.474, 176.696
1366.667, 221.994
1367.860, 82.703
1369.052, 172.456
1370.245, 97.748
1371.437, 53.055
1372.629, 368.238
1373.821, 34.969
1375.013, 120.307
1376.204, 165.505
1377.395, 81.618
1378.586, 254.476
1379.777, 281.151
1380.968, 197.280
1382.159, 263.743
1383.349, 319.889
1384.539, 186.461
1385.729, 382.944
1386.919, 209.433
1388.109, 255.550
1389.298, 341.883
1390.487, 237.809
1391.676, 313.554
1392.865, 309.934
1394.054, 105.776
1395.242, 361.891
1396.431, 157.705
1397.619, 223.789
1398.807, 499.722
1399.995, 135.577
1401.182, 140.377
1402.370, 386.042
1403.557, 181.069
1404.744, 331.412
1405.931, 316.893
1407.118, 11.054
1408.304, 315.984
1409.490, 147.785
1410.676, 182.935
1411.862, 398.036
1413.048, 40.300
1414.234, 293.079
1415.419, 310.095
1416.604, 24.904
1417.789, 452.396
1418.974, 234.234
1420.159, 185.013
1421.343, 359.541
1422.528, 160.141
1423.712, 141.630
1424.896, 412.401
1426.079, 26.383
1427.263, 196.865
1428.446, 260.565
1429.629, 43.915
1430.812, 216.426
1431.995, 269.413
1433.178, 92.491
1434.360, 276.913
1435.543, 90.563
1436.725, 4.042
1437.907, 267.700
1439.088, 181.758
1440.270, 164.714
1441.451, 218.269
1442.632, 111.948
1443.813, 186.236
1444.994, 138.511
1446.175, 160.846
1447.355, 373.521
1448.535, 186.737
1449.715, 99.741
1450.895, 343.563
1452.075, 207.299
1453.255, 310.919
1454.434, 304.456
1455.613, 157.894
1456.792, 331.236
1457.971, 343.671
1459.149, 106.468
1460.328, 428.912
1461.506, 301.289
1462.684, 94.013
1463.862, 484.523
1465.040, 96.809
1466.217, 319.392
1467.395, 370.396
1468.572, 331.562
1469.749, 464.539
1470.925, 307.567
1472.102, 270.908
1473.278, 502.940
1474.455, 196.399
1475.631, 168.695
1476.807, 421.664
1477.982, 194.564
1479.158, 216.175
1480.333, 429.510
1481.508, 242.627
1482.683, 236.086
1483.858, 409.776
1485.033, 183.310
1486.207, 447.041
1487.381, 230.777
1488.555, 204.533
1489.729, 468.362
1490.903, 222.293
1492.076, 196.248
1493.250, 540.509
1494.423, 205.030
1495.596, 279.738
1496.769, 564.615
1497.941, 189.700
1499.114, 355.027
1500.286, 330.691
1501.458, 76.639
1502.630, 522.881
1503.802, 369.463
1504.973, 26.448
1506.145, 473.912
1507.316, 381.916
1508.487, 200.521
1509.657, 489.835
1510.828, 228.016
1511.999, 368.831
1513.169, 412.612
1514.339, 5.996
1515.509, 426.158
1516.678, 470.105
1517.848, 4.282
1519.017, 0.000
##END=



