##NAMES=Witherite
##RRUFFID=R050148
##IDEAL CHEMISTRY=BaCO_3_
##LOCALITY=Settlingstones mine, Fourstones, Northumberland, England
##OWNER=RRUFF
##SOURCE=Jim McGlasson
##DESCRIPTION=Tan colored crystal fragment
##STATUS=The identification of this mineral has been confirmed by X-ray diffraction and chemical analysis
##URL=rruff.info/R050148
##MEASURED CHEMISTRY=(Ba_0.96_Sr_0.04_)CO_3_
##PIN_ID=M00097
##ORIENTATION=Laser parallel to -b* (0 -1 0). Fiducial mark perpendicular to laser is parallel to c [0 0 1]
101.036, 0.000
102.428, 3.738
103.820, 5.744
105.212, 59.138
106.604, 6.335
107.995, 67.181
109.387, 4.400
110.777, 64.465
112.168, 141.783
113.559, 152.804
114.949, 270.445
116.339, 363.857
117.729, 434.207
119.119, 408.981
120.508, 507.400
121.897, 555.879
123.286, 555.984
124.675, 525.650
126.063, 622.811
127.452, 702.439
128.840, 844.609
130.228, 1146.099
131.615, 1383.883
133.003, 1909.927
134.390, 2477.197
135.777, 3218.663
137.164, 4057.302
138.550, 4794.174
139.937, 5309.250
141.323, 5364.592
142.709, 5161.154
144.094, 5278.826
145.480, 5541.612
146.865, 6293.632
148.250, 6695.636
149.635, 6847.873
151.019, 6440.177
152.403, 5762.911
153.788, 4991.395
155.171, 4609.818
156.555, 4436.292
157.939, 4060.817
159.322, 3499.392
160.705, 2946.091
162.088, 2281.823
163.470, 1873.558
164.853, 1523.268
166.235, 1073.957
167.617, 750.627
168.998, 645.283
170.380, 388.921
171.761, 339.544
173.142, 191.154
174.523, 121.418
175.904, 154.647
177.284, 131.163
178.664, 79.933
180.044, 132.440
181.424, 122.851
182.803, 245.213
184.183, 197.858
185.562, 280.480
186.940, 168.636
188.319, 180.001
189.698, 112.228
191.076, 130.137
192.454, 1.684
193.831, 39.354
195.209, 52.725
196.586, 27.732
197.963, 71.788
199.340, 44.871
200.717, 68.764
202.093, 83.867
203.470, 3.271
204.846, 82.967
206.221, 29.843
207.597, 24.079
208.972, 89.376
210.347, 50.475
211.722, 81.589
213.097, 16.114
214.472, 30.276
215.846, 48.376
217.220, 55.442
218.594, 52.467
219.967, 31.641
221.341, 134.318
222.714, 36.460
224.087, 133.560
225.460, 176.640
226.832, 268.726
228.204, 269.819
229.577, 319.916
230.948, 363.070
232.320, 303.177
233.692, 259.288
235.063, 191.552
236.434, 142.670
237.805, 70.802
239.175, 118.937
240.545, 154.075
241.916, 39.220
243.286, 73.378
244.655, 47.556
246.025, 4.267
247.394, 74.911
248.763, 22.915
250.132, 74.261
251.501, 21.440
252.869, 57.615
254.237, 10.212
255.605, 23.538
256.973, 106.686
258.340, 26.045
259.708, 32.347
261.075, 68.534
262.442, 6.612
263.808, 45.711
265.175, 77.792
266.541, 0.141
267.907, 6.188
269.273, 0.303
270.639, 40.361
272.004, 16.977
273.369, 6.933
274.734, 9.061
276.099, 38.604
277.463, 28.748
278.828, 34.949
280.192, 22.295
281.556, 8.582
282.919, 45.906
284.283, 3.264
285.646, 3.351
287.009, 32.060
288.372, 8.507
289.734, 43.942
291.097, 45.590
292.459, 34.941
293.821, 36.577
295.183, 65.907
296.544, 42.400
297.905, 56.905
299.266, 2.583
300.627, 61.933
301.988, 62.454
303.348, 44.020
304.709, 4.502
306.069, 16.951
307.428, 8.468
308.788, 97.983
310.147, 12.501
311.507, 2.994
312.865, 17.392
314.224, 3.084
315.583, 8.410
316.941, 28.902
318.299, 140.543
319.657, 76.013
321.015, 44.480
322.372, 8.941
323.729, 17.397
325.086, 76.857
326.443, 34.690
327.800, 123.746
329.156, 52.061
330.512, 15.484
331.868, 3.011
333.224, 44.580
334.579, 83.811
335.935, 31.195
337.290, 0.426
338.645, 51.252
339.999, 5.399
341.354, 46.117
342.708, 23.463
344.062, 42.785
345.416, 2.212
346.769, 82.492
348.123, 52.765
349.476, 97.031
350.829, 145.286
352.182, 88.531
353.534, 87.772
354.887, 101.003
356.239, 55.206
357.591, 145.425
358.942, 28.633
360.294, 64.938
361.645, 134.101
362.996, 87.260
364.347, 78.412
365.698, 24.957
367.048, 93.967
368.398, 63.239
369.748, 60.339
371.098, 136.655
372.448, 109.742
373.797, 137.826
375.146, 49.273
376.495, 94.347
377.844, 151.629
379.192, 67.137
380.540, 86.175
381.889, 76.354
383.236, 98.103
384.584, 88.721
385.932, 128.706
387.279, 97.680
388.626, 117.995
389.973, 93.960
391.319, 41.950
392.666, 156.905
394.012, 105.874
395.358, 79.252
396.704, 117.192
398.049, 90.623
399.394, 157.552
400.740, 104.493
402.084, 72.492
403.429, 86.406
404.774, 113.316
406.118, 150.221
407.462, 0.881
408.806, 132.708
410.150, 91.589
411.493, 32.254
412.836, 84.250
414.179, 35.194
415.522, 78.052
416.865, 70.315
418.207, 86.157
419.549, 102.993
420.891, 47.340
422.233, 139.164
423.575, 112.110
424.916, 128.049
426.257, 99.856
427.598, 75.686
428.939, 159.369
430.279, 51.170
431.619, 109.314
432.959, 69.109
434.299, 78.254
435.639, 130.441
436.978, 18.623
438.318, 122.393
439.657, 41.157
440.996, 125.525
442.334, 104.280
443.673, 103.027
445.011, 118.828
446.349, 83.476
447.687, 70.993
449.024, 151.716
450.361, 112.753
451.699, 175.460
453.036, 45.352
454.372, 184.042
455.709, 58.405
457.045, 75.231
458.381, 121.624
459.717, 92.280
461.053, 153.646
462.388, 123.285
463.724, 129.338
465.059, 88.025
466.394, 1.991
467.728, 246.585
469.063, 126.065
470.397, 80.681
471.731, 116.169
473.065, 13.914
474.398, 54.679
475.732, 67.512
477.065, 153.903
478.398, 31.418
479.731, 87.924
481.063, 107.609
482.396, 130.107
483.728, 80.431
485.060, 100.828
486.391, 213.298
487.723, 138.976
489.054, 1.435
490.385, 201.876
491.716, 38.187
493.047, 105.059
494.377, 101.049
495.708, 112.454
497.038, 110.865
498.368, 7.547
499.697, 76.824
501.027, 25.258
502.356, 56.605
503.685, 97.893
505.014, 29.435
506.342, 108.995
507.671, 69.382
508.999, 90.685
510.327, 173.133
511.655, 86.576
512.982, 87.864
514.310, 82.655
515.637, 100.926
516.964, 121.324
518.291, 70.579
519.617, 37.787
520.944, 128.257
522.270, 123.488
523.596, 70.716
524.921, 14.931
526.247, 139.046
527.572, 30.348
528.897, 101.530
530.222, 20.719
531.547, 200.436
532.871, 94.793
534.196, 17.057
535.520, 135.181
536.844, 25.297
538.167, 12.403
539.491, 120.496
540.814, 31.594
542.137, 30.317
543.460, 5.739
544.783, 91.782
546.105, 102.814
547.427, 17.840
548.749, 156.854
550.071, 65.859
551.393, 133.855
552.714, 68.844
554.035, 12.925
555.356, 205.893
556.677, 9.852
557.998, 92.945
559.318, 69.882
560.638, 55.029
561.958, 141.213
563.278, 92.338
564.597, 75.278
565.917, 105.171
567.236, 74.761
568.555, 174.659
569.874, 88.780
571.192, 43.716
572.511, 54.593
573.829, 98.309
575.147, 94.592
576.464, 97.459
577.782, 147.543
579.099, 6.392
580.416, 83.458
581.733, 124.285
583.050, 44.407
584.366, 158.307
585.683, 68.123
586.999, 67.417
588.315, 75.217
589.630, 6.104
590.946, 129.884
592.261, 26.346
593.576, 11.507
594.891, 83.217
596.206, 79.587
597.520, 144.296
598.834, 0.896
600.148, 79.813
601.462, 174.498
602.776, 62.174
604.089, 137.841
605.402, 31.499
606.715, 162.702
608.028, 99.342
609.341, 88.977
610.653, 133.621
611.965, 96.189
613.277, 139.809
614.589, 41.428
615.901, 0.961
617.212, 79.658
618.523, 30.245
619.834, 154.821
621.145, 8.391
622.456, 78.947
623.766, 83.526
625.076, 89.143
626.386, 147.869
627.696, 68.405
629.006, 61.932
630.315, 175.570
631.624, 62.205
632.933, 138.520
634.242, 6.978
635.551, 92.547
636.859, 123.005
638.167, 32.474
639.475, 154.495
640.783, 63.944
642.090, 20.617
643.398, 195.798
644.705, 108.204
646.012, 178.949
647.318, 85.465
648.625, 160.856
649.931, 179.232
651.237, 58.609
652.543, 228.138
653.849, 76.585
655.155, 157.164
656.460, 78.210
657.765, 20.561
659.070, 130.728
660.375, 102.046
661.679, 9.626
662.984, 160.048
664.288, 61.353
665.592, 111.647
666.895, 47.713
668.199, 46.997
669.502, 108.366
670.805, 29.369
672.108, 198.869
673.411, 49.336
674.713, 173.555
676.016, 160.661
677.318, 26.741
678.620, 182.933
679.921, 80.346
681.223, 163.521
682.524, 73.289
683.825, 55.447
685.126, 151.435
686.427, 14.661
687.727, 198.288
689.028, 29.397
690.328, 49.612
691.628, 182.345
692.927, 180.522
694.227, 232.479
695.526, 270.109
696.825, 397.563
698.124, 427.470
699.423, 218.790
700.721, 374.219
702.020, 359.273
703.318, 417.439
704.616, 500.133
705.913, 208.399
707.211, 144.392
708.508, 150.406
709.805, 54.619
711.102, 202.183
712.399, 156.174
713.695, 42.725
714.992, 152.699
716.288, 25.648
717.584, 14.526
718.879, 26.474
720.175, 68.535
721.470, 211.466
722.765, 40.203
724.060, 157.124
725.355, 26.162
726.649, 18.227
727.944, 189.998
729.238, 121.075
730.532, 5.956
731.825, 145.825
733.119, 29.687
734.412, 263.538
735.705, 21.864
736.998, 93.699
738.291, 14.539
739.584, 65.229
740.876, 119.038
742.168, 2.982
743.460, 225.769
744.752, 56.551
746.043, 159.169
747.334, 201.935
748.626, 58.357
749.916, 247.707
751.207, 22.449
752.498, 118.185
753.788, 173.914
755.078, 10.993
756.368, 137.711
757.658, 227.409
758.947, 93.136
760.237, 149.820
761.526, 16.692
762.815, 106.963
764.104, 85.612
765.392, 73.289
766.680, 217.051
767.969, 98.679
769.257, 202.300
770.544, 187.761
771.832, 70.747
773.119, 149.348
774.406, 140.740
775.693, 141.418
776.980, 165.575
778.267, 71.149
779.553, 234.739
780.839, 32.305
782.125, 106.861
783.411, 101.373
784.697, 47.852
785.982, 188.388
787.267, 23.134
788.552, 196.456
789.837, 64.912
791.122, 41.416
792.406, 198.121
793.690, 35.578
794.974, 86.887
796.258, 197.298
797.542, 181.791
798.825, 135.318
800.108, 17.244
801.391, 154.175
802.674, 156.593
803.957, 47.006
805.239, 168.413
806.522, 35.723
807.804, 53.117
809.085, 19.490
810.367, 77.870
811.649, 181.246
812.930, 91.374
814.211, 161.745
815.492, 113.187
816.772, 3.667
818.053, 212.684
819.333, 118.212
820.613, 42.449
821.893, 173.202
823.173, 46.361
824.452, 111.659
825.732, 80.170
827.011, 10.458
828.290, 209.608
829.568, 12.115
830.847, 193.155
832.125, 92.292
833.403, 11.553
834.681, 126.803
835.959, 94.127
837.236, 111.342
838.514, 110.645
839.791, 10.115
841.068, 210.547
842.345, 144.804
843.621, 36.828
844.898, 173.234
846.174, 45.462
847.450, 40.688
848.726, 164.578
850.001, 52.203
851.277, 100.006
852.552, 128.211
853.827, 74.424
855.102, 112.344
856.376, 39.550
857.651, 115.770
858.925, 12.028
860.199, 192.239
861.473, 203.447
862.746, 14.651
864.020, 252.749
865.293, 149.945
866.566, 52.136
867.839, 91.195
869.112, 99.398
870.384, 234.382
871.656, 150.536
872.928, 38.516
874.200, 195.665
875.472, 77.077
876.744, 146.892
878.015, 38.032
879.286, 28.938
880.557, 259.807
881.828, 53.063
883.098, 138.035
884.369, 169.721
885.639, 105.814
886.909, 186.677
888.178, 67.765
889.448, 128.594
890.717, 63.678
891.987, 77.470
893.256, 182.471
894.524, 25.545
895.793, 59.126
897.061, 113.190
898.330, 0.855
899.598, 237.203
900.865, 103.259
902.133, 147.230
903.401, 174.296
904.668, 93.126
905.935, 210.189
907.202, 108.250
908.468, 137.089
909.735, 222.148
911.001, 42.204
912.267, 107.257
913.533, 120.306
914.799, 94.802
916.064, 183.847
917.330, 55.889
918.595, 33.913
919.860, 75.952
921.124, 95.986
922.389, 258.020
923.653, 39.050
924.918, 77.058
926.182, 107.086
927.445, 43.114
928.709, 87.138
929.972, 231.161
931.236, 59.163
932.499, 191.183
933.761, 68.018
935.024, 232.083
936.286, 189.097
937.549, 67.993
938.811, 257.002
940.073, 46.178
941.334, 187.438
942.596, 178.406
943.857, 14.274
945.118, 276.276
946.379, 61.712
947.640, 56.708
948.900, 190.706
950.161, 42.710
951.421, 158.822
952.681, 186.484
953.940, 70.480
955.200, 234.696
956.459, 113.586
957.719, 192.814
958.978, 231.658
960.236, 110.572
961.495, 199.356
962.753, 98.340
964.012, 217.322
965.270, 156.466
966.527, 45.444
967.785, 254.853
969.043, 253.327
970.300, 2.305
971.557, 331.278
972.814, 32.528
974.071, 76.657
975.327, 165.517
976.583, 15.528
977.840, 193.643
979.095, 62.499
980.351, 191.452
981.607, 131.255
982.862, 40.209
984.117, 79.503
985.372, 168.575
986.627, 47.525
987.882, 206.926
989.136, 25.872
990.390, 74.815
991.644, 154.798
992.898, 63.768
994.152, 142.855
995.405, 48.121
996.659, 140.838
997.912, 150.634
999.165, 70.515
1000.417, 178.408
1001.670, 109.445
1002.922, 178.368
1004.174, 237.483
1005.426, 13.601
1006.678, 115.313
1007.930, 238.768
1009.181, 67.684
1010.432, 266.361
1011.683, 125.860
1012.934, 104.812
1014.185, 293.556
1015.435, 102.502
1016.685, 251.467
1017.935, 134.602
1019.185, 153.561
1020.435, 273.045
1021.684, 32.160
1022.934, 171.116
1024.183, 209.950
1025.432, 69.425
1026.680, 323.562
1027.929, 113.391
1029.177, 242.211
1030.425, 261.433
1031.673, 120.616
1032.921, 346.283
1034.169, 185.649
1035.416, 104.582
1036.663, 303.515
1037.911, 163.159
1039.157, 212.082
1040.404, 341.118
1041.650, 490.023
1042.897, 638.941
1044.143, 377.920
1045.389, 296.735
1046.634, 355.621
1047.880, 264.882
1049.125, 413.433
1050.371, 412.850
1051.615, 361.771
1052.860, 710.684
1054.105, 460.566
1055.349, 579.473
1056.593, 908.375
1057.837, 1107.969
1059.081, 2196.863
1060.325, 5345.758
1061.568, 20774.580
1062.812, 48293.461
1064.055, 46722.727
1065.298, 23001.602
1066.540, 8770.479
1067.783, 3490.077
1069.025, 1938.813
1070.267, 997.709
1071.509, 696.562
1072.751, 605.406
1073.993, 324.727
1075.234, 493.609
1076.475, 382.484
1077.716, 321.303
1078.957, 560.163
1080.198, 239.424
1081.438, 348.336
1082.679, 477.183
1083.919, 96.646
1085.159, 435.490
1086.398, 274.327
1087.638, 173.189
1088.877, 492.042
1090.116, 50.821
1091.355, 269.948
1092.594, 268.783
1093.833, 157.676
1095.071, 336.498
1096.309, 215.317
1097.547, 154.725
1098.785, 383.531
1100.023, 92.247
1101.260, 341.037
1102.498, 289.824
1103.735, 68.884
1104.972, 467.650
1106.208, 66.409
1107.445, 245.911
1108.681, 304.651
1109.918, 123.418
1111.154, 382.144
1112.389, 150.860
1113.625, 89.736
1114.860, 228.540
1116.096, 27.154
1117.331, 276.097
1118.566, 294.841
1119.800, 153.242
1121.035, 212.420
1122.269, 79.588
1123.503, 168.375
1124.737, 307.007
1125.971, 84.896
1127.205, 104.041
1128.438, 332.636
1129.671, 28.778
1130.904, 331.296
1132.137, 59.744
1133.370, 58.627
1134.602, 287.685
1135.834, 36.117
1137.066, 195.021
1138.298, 343.332
1139.530, 28.202
1140.762, 356.130
1141.993, 124.540
1143.224, 113.765
1144.455, 393.501
1145.686, 8.116
1146.917, 280.957
1148.147, 216.036
1149.377, 85.631
1150.607, 414.191
1151.837, 112.468
1153.067, 260.728
1154.296, 250.230
1155.526, 71.512
1156.755, 438.720
1157.984, 347.376
1159.213, 25.520
1160.441, 324.821
1161.670, 172.932
1162.898, 191.320
1164.126, 454.608
1165.354, 56.906
1166.581, 361.427
1167.809, 60.744
1169.036, 148.716
1170.263, 407.669
1171.490, 216.317
1172.717, 64.236
1173.943, 273.373
1175.170, 1.305
1176.396, 309.697
1177.622, 88.348
1178.848, 136.181
1180.073, 444.464
1181.299, 93.195
1182.524, 271.175
1183.749, 309.971
1184.974, 27.727
1186.199, 475.553
1187.423, 174.543
1188.648, 232.235
1189.872, 370.371
1191.096, 189.189
1192.320, 186.833
1193.543, 336.223
1194.767, 124.350
1195.990, 231.937
1197.213, 94.019
1198.436, 211.548
1199.659, 309.612
1200.881, 8.659
1202.104, 286.114
1203.326, 403.981
1204.548, 51.477
1205.770, 298.860
1206.991, 237.574
1208.213, 214.910
1209.434, 432.425
1210.655, 130.954
1211.876, 238.217
1213.096, 366.205
1214.317, 43.862
1215.537, 421.040
1216.757, 218.746
1217.977, 316.163
1219.197, 423.262
1220.417, 112.999
1221.636, 370.044
1222.855, 417.076
1224.074, 234.231
1225.293, 491.233
1226.512, 149.750
1227.731, 227.934
1228.949, 534.888
1230.167, 104.557
1231.385, 302.044
1232.603, 518.945
1233.820, 333.364
1235.038, 410.233
1236.255, 357.300
1237.472, 194.368
1238.689, 691.184
1239.906, 198.105
1241.122, 404.887
1242.338, 541.651
1243.555, 118.974
1244.771, 425.698
1245.986, 382.406
1247.202, 319.681
1248.417, 546.351
1249.633, 202.997
1250.848, 379.399
1252.063, 486.002
1253.277, 92.896
1254.492, 499.428
1255.706, 265.916
1256.920, 343.646
1258.134, 600.091
1259.348, 236.509
1260.562, 254.327
1261.775, 510.683
1262.988, 217.140
1264.201, 263.477
1265.414, 429.669
1266.627, 156.083
1267.839, 442.415
1269.052, 248.302
1270.264, 285.335
1271.476, 531.395
1272.688, 157.217
1273.899, 394.073
1275.111, 400.050
1276.322, 24.259
1277.533, 690.179
1278.744, 205.724
1279.955, 161.224
1281.165, 667.047
1282.376, 192.361
1283.586, 298.089
1284.796, 363.792
1286.006, 52.333
1287.215, 483.290
1288.425, 98.756
1289.634, 15.858
1290.843, 329.666
1292.052, 124.238
1293.261, 199.728
1294.469, 305.080
1295.678, 24.921
1296.886, 311.225
1298.094, 296.249
1299.302, 11.437
1300.509, 286.850
1301.717, 7.233
1302.924, 162.243
1304.131, 417.219
1305.338, 138.429
1306.545, 357.381
1307.752, 222.186
1308.958, 43.024
1310.164, 192.217
1311.370, 212.657
1312.576, 37.302
1313.782, 312.260
1314.987, 46.646
1316.193, 121.388
1317.398, 295.879
1318.603, 39.776
1319.807, 284.228
1321.012, 167.679
1322.216, 101.974
1323.421, 476.328
1324.625, 180.303
1325.829, 84.483
1327.032, 250.723
1328.236, 74.824
1329.439, 298.881
1330.642, 272.186
1331.845, 46.152
1333.048, 421.009
1334.251, 184.896
1335.453, 58.745
1336.656, 455.591
1337.858, 19.258
1339.060, 172.958
1340.261, 296.290
1341.463, 30.111
1342.664, 392.935
1343.866, 166.433
1345.067, 29.884
1346.267, 442.235
1347.468, 195.517
1348.669, 278.752
1349.869, 462.367
1351.069, 45.331
1352.269, 398.226
1353.469, 251.979
1354.668, 54.732
1355.868, 417.019
1357.067, 119.769
1358.266, 192.180
1359.465, 513.680
1360.664, 166.184
1361.862, 228.040
1363.061, 360.567
1364.259, 159.086
1365.457, 545.861
1366.655, 311.277
1367.852, 266.286
1369.050, 481.574
1370.247, 36.254
1371.444, 61.501
1372.641, 436.680
1373.838, 1.526
1375.035, 156.343
1376.231, 340.747
1377.427, 74.219
1378.623, 460.778
1379.819, 255.428
1381.015, 189.505
1382.211, 454.353
1383.406, 279.196
1384.601, 393.684
1385.796, 558.135
1386.991, 172.775
1388.185, 336.832
1389.380, 601.304
1390.574, 145.258
1391.768, 589.828
1392.962, 372.496
1394.156, 355.895
1395.350, 739.847
1396.543, 184.293
1397.736, 441.037
1398.929, 549.488
1400.122, 62.778
1401.315, 556.447
1402.507, 638.583
1403.700, 40.043
1404.892, 511.278
1406.084, 174.638
1407.276, 272.731
1408.467, 558.630
1409.659, 231.306
1410.850, 243.098
1412.041, 613.904
1413.232, 85.559
1414.423, 528.319
1415.614, 580.665
1416.804, 82.013
1417.994, 703.560
1419.184, 376.843
1420.374, 438.151
1421.564, 948.791
1422.753, 609.062
1423.943, 1251.354
1425.132, 1676.655
1426.321, 1365.977
1427.510, 1388.210
1428.698, 911.042
1429.887, 351.514
1431.075, 831.733
1432.263, 403.188
1433.451, 435.201
1434.639, 636.420
1435.827, 233.855
1437.014, 346.272
1438.201, 498.299
1439.388, 54.701
1440.575, 510.818
1441.762, 381.252
1442.949, 166.066
1444.135, 615.663
1445.321, 266.415
1446.507, 437.301
1447.693, 636.647
1448.879, 45.484
1450.064, 455.859
1451.250, 556.103
1452.435, 114.812
1453.620, 521.543
1454.805, 461.471
1455.989, 46.842
1457.174, 604.763
1458.358, 173.983
1459.542, 223.216
1460.726, 689.971
1461.910, 206.297
1463.093, 325.548
1464.277, 634.658
1465.460, 93.658
1466.643, 582.713
1467.826, 381.598
1469.009, 19.660
1470.191, 688.906
1471.373, 337.161
1472.556, 236.095
1473.738, 740.622
1474.919, 18.249
1476.101, 457.526
1477.283, 636.693
1478.464, 29.029
1479.645, 657.088
1480.826, 435.861
1482.007, 199.565
1483.187, 656.608
1484.368, 384.740
1485.548, 243.379
1486.728, 548.037
1487.908, 216.770
1489.088, 343.593
1490.268, 650.253
1491.447, 6.762
1492.626, 429.709
1493.805, 541.713
1494.984, 2.350
1496.163, 421.704
1497.341, 360.356
1498.520, 117.795
1499.698, 551.400
1500.876, 121.232
1502.054, 36.252
1503.232, 567.838
1504.409, 0.678
1505.586, 0.000
##END=



