##NAMES=Witherite
##RRUFFID=R040040
##IDEAL CHEMISTRY=BaCO_3_
##LOCALITY=Cave-in-Rock, Hardin County, Illinois, USA
##OWNER=RRUFF
##SOURCE=University of Arizona Mineral Museum
##DESCRIPTION=Tan colored prismatic group of columnar crystals
##STATUS=The identification of this mineral has been confirmed by X-ray diffraction and chemical analysis
##URL=rruff.info/R040040
##MEASURED CHEMISTRY=(Ba_0.98_Sr_0.02_)_Î£=1_CO_3_; CO_2_ estimated by difference
##PIN_ID=L00131
##ORIENTATION=Laser parallel to -b* (0 -1 0). Fiducial mark perpendicular to laser is parallel to c [0 0 1]
107.995, 0.000
109.387, 7.043
110.777, 136.811
112.168, 69.355
113.559, 210.810
114.949, 335.647
116.339, 310.460
117.729, 484.214
119.119, 721.958
120.508, 755.896
121.897, 474.010
123.286, 665.556
124.675, 740.621
126.063, 858.526
127.452, 1128.256
128.840, 1200.085
130.228, 1863.945
131.615, 2429.441
133.003, 3466.269
134.390, 4984.193
135.777, 6123.043
137.164, 7022.684
138.550, 5503.012
139.937, 4563.940
141.323, 3450.586
142.709, 3681.917
144.094, 4113.712
145.480, 4235.928
146.865, 4041.632
148.250, 3646.721
149.635, 3456.146
151.019, 3027.297
152.403, 2294.582
153.788, 2293.404
155.171, 1842.012
156.555, 1730.436
157.939, 1018.706
159.322, 1166.850
160.705, 884.887
162.088, 682.837
163.470, 680.720
164.853, 338.599
166.235, 556.478
167.617, 54.336
168.998, 252.182
170.380, 190.013
171.761, 137.836
173.142, 135.655
174.523, 136.521
175.904, 451.312
177.284, 99.157
178.664, 367.023
180.044, 404.910
181.424, 472.825
182.803, 470.773
184.183, 309.337
185.562, 472.564
186.940, 181.205
188.319, 434.642
189.698, 361.722
191.076, 317.006
192.454, 373.563
193.831, 338.572
195.209, 673.658
196.586, 308.837
197.963, 524.118
199.340, 519.508
200.717, 395.010
202.093, 580.627
203.470, 166.361
204.846, 502.211
206.221, 338.179
207.597, 444.259
208.972, 270.452
210.347, 346.756
211.722, 354.069
213.097, 219.688
214.472, 426.310
215.846, 483.033
217.220, 549.857
218.594, 526.776
219.967, 293.792
221.341, 574.267
222.714, 291.426
224.087, 508.664
225.460, 335.979
226.832, 454.136
228.204, 541.638
229.577, 299.223
230.948, 656.881
232.320, 314.602
233.692, 552.385
235.063, 420.230
236.434, 468.137
237.805, 576.104
239.175, 334.134
240.545, 652.228
241.916, 380.380
243.286, 468.594
244.655, 526.867
246.025, 345.201
247.394, 683.592
248.763, 242.044
250.132, 710.562
251.501, 409.140
252.869, 427.814
254.237, 386.595
255.605, 155.439
256.973, 514.342
258.340, 3.297
259.708, 222.306
261.075, 128.625
262.442, 229.495
263.808, 120.313
265.175, 381.039
266.541, 281.721
267.907, 542.454
269.273, 13.317
270.639, 114.456
272.004, 115.669
273.369, 130.717
274.734, 14.494
276.099, 322.095
277.463, 299.165
278.828, 286.624
280.192, 474.413
281.556, 322.480
282.919, 610.785
284.283, 219.301
285.646, 548.004
287.009, 276.877
288.372, 455.900
289.734, 685.057
291.097, 254.330
292.459, 563.717
293.821, 283.242
295.183, 482.857
296.544, 462.557
297.905, 392.334
299.266, 642.182
300.627, 172.121
301.988, 662.123
303.348, 342.186
304.709, 442.307
306.069, 512.412
307.428, 292.570
308.788, 672.785
310.147, 233.053
311.507, 483.365
312.865, 393.705
314.224, 384.080
315.583, 544.477
316.941, 304.895
318.299, 705.332
319.657, 365.791
321.015, 536.297
322.372, 626.824
323.729, 157.377
325.086, 537.988
326.443, 168.627
327.800, 399.289
329.156, 69.980
330.512, 170.695
331.868, 321.439
333.224, 37.795
334.579, 532.988
335.935, 253.799
337.290, 424.633
338.645, 353.463
339.999, 274.350
341.354, 525.268
342.708, 6.211
344.062, 637.178
345.416, 369.848
346.769, 430.867
348.123, 561.928
349.476, 292.857
350.829, 703.592
352.182, 313.984
353.534, 454.359
354.887, 504.746
356.239, 325.166
357.591, 755.623
358.942, 216.121
360.294, 656.658
361.645, 487.236
362.996, 347.855
364.347, 698.512
365.698, 259.205
367.048, 679.936
368.398, 310.709
369.748, 541.518
371.098, 682.361
372.448, 353.242
373.797, 724.158
375.146, 235.105
376.495, 726.090
377.844, 467.105
379.192, 418.154
380.540, 689.236
381.889, 340.350
383.236, 691.496
384.584, 322.656
385.932, 513.848
387.279, 495.072
388.626, 397.191
389.973, 491.590
391.319, 209.779
392.666, 491.117
394.012, 402.484
395.358, 362.131
396.704, 633.555
398.049, 166.971
399.394, 848.453
400.740, 269.963
402.084, 411.537
403.429, 623.098
404.774, 334.688
406.118, 756.305
407.462, 117.947
408.806, 809.656
410.150, 271.391
411.493, 214.779
412.836, 826.564
414.179, 258.377
415.522, 570.213
416.865, 222.072
418.207, 508.203
419.549, 480.111
420.891, 271.773
422.233, 703.729
423.575, 349.936
424.916, 601.059
426.257, 467.701
427.598, 360.494
428.939, 668.859
430.279, 202.189
431.619, 635.924
432.959, 242.990
434.299, 410.043
435.639, 492.264
436.978, 173.717
438.318, 726.021
439.657, 108.359
440.996, 472.043
442.334, 584.459
443.673, 226.902
445.011, 559.375
446.349, 101.875
447.687, 536.041
449.024, 438.596
450.361, 321.178
451.699, 523.785
453.036, 196.414
454.372, 818.469
455.709, 81.148
457.045, 383.852
458.381, 666.576
459.717, 179.336
461.053, 747.180
462.388, 239.984
463.724, 482.809
465.059, 495.652
466.394, 58.525
467.728, 551.422
469.063, 104.340
470.397, 697.273
471.731, 430.229
473.065, 113.201
474.398, 649.834
475.732, 142.848
477.065, 535.877
478.398, 348.924
479.731, 362.033
481.063, 659.477
482.396, 242.633
483.728, 565.809
485.060, 66.535
486.391, 429.754
487.723, 472.988
489.054, 156.238
490.385, 789.508
491.716, 272.789
493.047, 476.096
494.377, 447.096
495.708, 60.434
497.038, 823.787
498.368, 22.844
499.697, 510.570
501.027, 344.646
502.356, 208.090
503.685, 631.008
505.014, 35.520
506.342, 667.977
507.671, 206.031
508.999, 309.555
510.327, 503.096
511.655, 146.650
512.982, 620.223
514.310, 88.291
515.637, 451.896
516.964, 345.604
518.291, 109.328
519.617, 813.068
520.944, 207.941
522.270, 561.711
523.596, 495.520
524.921, 59.342
526.247, 603.180
527.572, 8.410
528.897, 562.277
530.222, 346.215
531.547, 220.164
532.871, 464.131
534.196, 28.109
535.520, 512.104
536.844, 356.109
538.167, 240.133
539.491, 724.168
540.814, 168.217
542.137, 682.279
543.460, 356.352
544.783, 300.439
546.105, 574.537
547.427, 11.350
548.749, 682.764
550.071, 136.889
551.393, 391.025
552.714, 295.174
554.035, 150.664
555.356, 653.436
556.677, 32.453
557.998, 531.648
559.318, 305.764
560.638, 9.889
561.958, 614.023
563.278, 208.168
564.597, 512.324
565.917, 256.486
567.236, 220.070
568.555, 734.299
569.874, 21.461
571.192, 562.770
572.511, 317.010
573.829, 241.258
575.147, 595.516
576.464, 70.223
577.782, 804.012
579.099, 248.252
580.416, 232.787
581.733, 807.047
583.050, 41.338
584.366, 595.703
585.683, 70.098
586.999, 327.279
588.315, 511.828
589.630, 33.490
590.946, 781.174
592.261, 95.871
593.576, 320.596
594.891, 625.326
596.206, 40.064
597.520, 624.809
598.834, 10.439
600.148, 246.254
601.462, 690.998
602.776, 115.748
604.089, 680.502
605.402, 14.744
606.715, 720.180
608.028, 404.924
609.341, 59.672
610.653, 544.422
611.965, 150.826
613.277, 434.461
614.589, 509.137
615.901, 53.816
617.212, 511.502
618.523, 73.816
619.834, 720.822
621.145, 225.461
622.456, 220.100
623.766, 767.477
625.076, 172.119
626.386, 586.764
627.696, 521.408
629.006, 196.055
630.315, 750.893
631.624, 44.459
632.933, 650.244
634.242, 194.859
635.551, 129.473
636.859, 583.566
638.167, 51.820
639.475, 665.693
640.783, 310.262
642.090, 105.172
643.398, 901.301
644.705, 105.795
646.012, 730.287
647.318, 274.777
648.625, 419.262
649.931, 864.967
651.237, 79.445
652.543, 763.934
653.849, 258.416
655.155, 342.900
656.460, 501.980
657.765, 26.457
659.070, 620.922
660.375, 375.984
661.679, 230.443
662.984, 658.004
664.288, 47.547
665.592, 736.859
666.895, 291.451
668.199, 265.846
669.502, 720.236
670.805, 45.379
672.108, 738.969
673.411, 393.182
674.713, 437.516
676.016, 981.844
677.318, 26.168
678.620, 890.471
679.921, 399.332
681.223, 373.623
682.524, 747.920
683.825, 22.209
685.126, 636.477
686.427, 383.828
687.727, 358.078
689.028, 832.354
690.328, 126.619
691.628, 830.875
692.927, 595.580
694.227, 669.816
695.526, 1044.049
696.825, 288.371
698.124, 802.582
699.423, 456.785
700.721, 460.982
702.020, 895.166
703.318, 109.662
704.616, 862.961
705.913, 217.119
707.211, 391.268
708.508, 825.406
709.805, 159.947
711.102, 645.814
712.399, 599.922
713.695, 342.059
714.992, 516.146
716.288, 150.688
717.584, 804.717
718.879, 168.773
720.175, 492.822
721.470, 866.859
722.765, 98.281
724.060, 895.656
725.355, 439.582
726.649, 362.164
727.944, 926.066
729.238, 149.957
730.532, 683.834
731.825, 497.703
733.119, 287.312
734.412, 941.160
735.705, 75.418
736.998, 759.240
738.291, 503.047
739.584, 400.555
740.876, 1004.340
742.168, 8.111
743.460, 921.844
744.752, 365.561
746.043, 366.865
747.334, 1050.553
748.626, 224.230
749.916, 817.893
751.207, 531.541
752.498, 225.543
753.788, 899.160
755.078, 21.453
756.368, 695.297
757.658, 548.854
758.947, 132.396
760.237, 845.924
761.526, 87.799
762.815, 661.297
764.104, 654.779
765.392, 188.244
766.680, 941.697
767.969, 55.736
769.257, 729.346
770.544, 762.746
771.832, 3.865
773.119, 819.480
774.406, 497.750
775.693, 531.066
776.980, 754.371
778.267, 2.338
779.553, 961.922
780.839, 275.160
782.125, 358.381
783.411, 701.588
784.697, 84.783
785.982, 809.031
787.267, 108.559
788.552, 411.707
789.837, 424.844
791.122, 112.035
792.406, 961.125
793.690, 10.176
794.974, 292.795
796.258, 895.754
797.542, 1.164
798.825, 774.080
800.108, 496.996
801.391, 169.902
802.674, 992.791
803.957, 15.730
805.239, 688.648
806.522, 391.545
807.804, 264.434
809.085, 767.688
810.367, 59.453
811.649, 573.348
812.930, 705.480
814.211, 38.266
815.492, 971.145
816.772, 46.105
818.053, 646.596
819.333, 495.271
820.613, 97.949
821.893, 910.607
823.173, 163.252
824.452, 355.889
825.732, 725.637
827.011, 291.754
828.290, 1130.672
829.568, 223.648
830.847, 306.051
832.125, 808.092
833.403, 49.537
834.681, 792.832
835.959, 337.998
837.236, 230.338
838.514, 721.504
839.791, 186.182
841.068, 786.012
842.345, 585.842
843.621, 358.006
844.898, 960.164
846.174, 52.395
847.450, 664.523
848.726, 737.141
850.001, 139.244
851.277, 941.416
852.552, 174.486
853.827, 616.631
855.102, 858.768
856.376, 90.887
857.651, 982.996
858.925, 525.920
860.199, 438.006
861.473, 1120.080
862.746, 72.143
864.020, 794.188
865.293, 226.748
866.566, 228.805
867.839, 820.883
869.112, 63.053
870.384, 705.100
871.656, 327.162
872.928, 379.211
874.200, 971.250
875.472, 155.902
876.744, 1026.656
878.015, 418.576
879.286, 100.486
880.557, 942.389
881.828, 174.285
883.098, 586.168
884.369, 738.039
885.639, 290.354
886.909, 982.221
888.178, 74.086
889.448, 605.656
890.717, 777.492
891.987, 50.676
893.256, 871.109
894.524, 302.881
895.793, 261.941
897.061, 943.689
898.330, 195.447
899.598, 557.203
900.865, 618.947
902.133, 280.689
903.401, 922.420
904.668, 94.137
905.935, 765.842
907.202, 467.537
908.468, 117.275
909.735, 968.953
911.001, 290.619
912.267, 392.287
913.533, 933.939
914.799, 235.408
916.064, 877.047
917.330, 458.674
918.595, 400.348
919.860, 1081.953
921.124, 142.975
922.389, 804.604
923.653, 766.219
924.918, 304.855
926.182, 1066.445
927.445, 288.047
928.709, 600.365
929.972, 1131.945
931.236, 9.225
932.499, 1152.320
933.761, 293.854
935.024, 506.016
936.286, 1057.523
937.549, 11.172
938.811, 1111.053
940.073, 392.443
941.334, 643.965
942.596, 1145.424
943.857, 157.389
945.118, 959.945
946.379, 758.441
947.640, 359.867
948.900, 1162.561
950.161, 272.025
951.421, 847.646
952.681, 1079.072
953.940, 250.484
955.200, 1256.746
956.459, 536.914
957.719, 498.293
958.978, 1070.496
960.236, 121.854
961.495, 1043.193
962.753, 578.838
964.012, 250.154
965.270, 1034.283
966.527, 184.979
967.785, 846.262
969.043, 952.752
970.300, 84.008
971.557, 1266.752
972.814, 437.811
974.071, 269.051
975.327, 1221.873
976.583, 26.914
977.840, 774.287
979.095, 705.604
980.351, 66.781
981.607, 1029.229
982.862, 20.387
984.117, 431.531
985.372, 969.885
986.627, 58.939
987.882, 1082.826
989.136, 163.965
990.390, 285.084
991.644, 1254.641
992.898, 144.262
994.152, 1146.754
995.405, 409.682
996.659, 190.793
997.912, 1083.033
999.165, 94.113
1000.417, 895.182
1001.670, 1025.982
1002.922, 17.033
1004.174, 1238.391
1005.426, 310.461
1006.678, 661.469
1007.930, 993.725
1009.181, 44.699
1010.432, 1025.715
1011.683, 617.793
1012.934, 328.783
1014.185, 1209.383
1015.435, 131.533
1016.685, 822.578
1017.935, 758.998
1019.185, 230.006
1020.435, 980.686
1021.684, 268.334
1022.934, 619.443
1024.183, 1180.957
1025.432, 73.223
1026.680, 1323.463
1027.929, 537.088
1029.177, 478.164
1030.425, 1118.965
1031.673, 301.902
1032.921, 932.957
1034.169, 1214.158
1035.416, 165.814
1036.663, 1276.859
1037.911, 670.150
1039.157, 850.754
1040.404, 1501.771
1041.650, 284.494
1042.897, 1371.750
1044.143, 842.750
1045.389, 503.727
1046.634, 1504.693
1047.880, 730.389
1049.125, 841.314
1050.371, 1392.229
1051.615, 685.678
1052.860, 1776.545
1054.105, 1197.496
1055.349, 1208.838
1056.593, 2599.654
1057.837, 3661.404
1059.081, 19971.918
1060.325, 33342.672
1061.568, 21466.141
1062.812, 7906.857
1064.055, 2127.863
1065.298, 1438.535
1066.540, 1599.178
1067.783, 310.898
1069.025, 1441.498
1070.267, 882.064
1071.509, 664.184
1072.751, 1644.703
1073.993, 325.193
1075.234, 1065.670
1076.475, 1366.115
1077.716, 167.520
1078.957, 1387.904
1080.198, 798.260
1081.438, 527.828
1082.679, 1428.150
1083.919, 198.445
1085.159, 1018.834
1086.398, 859.191
1087.638, 178.455
1088.877, 1248.750
1090.116, 349.014
1091.355, 490.031
1092.594, 1040.242
1093.833, 100.324
1095.071, 880.508
1096.309, 610.668
1097.547, 71.777
1098.785, 1491.867
1100.023, 58.068
1101.260, 833.727
1102.498, 1373.691
1103.735, 226.375
1104.972, 1344.715
1106.208, 564.469
1107.445, 195.396
1108.681, 1475.080
1109.918, 404.352
1111.154, 934.816
1112.389, 1034.418
1113.625, 26.014
1114.860, 1274.625
1116.096, 483.988
1117.331, 443.459
1118.566, 1513.156
1119.800, 62.016
1121.035, 1052.711
1122.269, 942.023
1123.503, 41.299
1124.737, 1401.355
1125.971, 468.938
1127.205, 538.078
1128.438, 1107.631
1129.671, 126.211
1130.904, 1088.207
1132.137, 766.492
1133.370, 164.494
1134.602, 1448.598
1135.834, 304.631
1137.066, 453.428
1138.298, 1274.031
1139.530, 92.738
1140.762, 953.021
1141.993, 724.396
1143.224, 33.021
1144.455, 1390.809
1145.686, 109.275
1146.917, 917.771
1148.147, 1177.584
1149.377, 274.008
1150.607, 1317.291
1151.837, 424.525
1153.067, 252.623
1154.296, 1523.791
1155.526, 131.781
1156.755, 869.713
1157.984, 1222.373
1159.213, 270.207
1160.441, 1280.133
1161.670, 656.766
1162.898, 264.439
1164.126, 1688.875
1165.354, 23.488
1166.581, 923.969
1167.809, 1147.340
1169.036, 25.314
1170.263, 1293.088
1171.490, 505.746
1172.717, 322.863
1173.943, 1450.709
1175.170, 88.908
1176.396, 855.869
1177.622, 1202.252
1178.848, 179.100
1180.073, 1355.871
1181.299, 603.934
1182.524, 490.584
1183.749, 1638.078
1184.974, 150.896
1186.199, 997.344
1187.423, 1385.996
1188.648, 232.324
1189.872, 1378.576
1191.096, 746.680
1192.320, 722.824
1193.543, 1268.904
1194.767, 26.717
1195.990, 972.627
1197.213, 871.303
1198.436, 137.084
1199.659, 1722.785
1200.881, 654.484
1202.104, 470.051
1203.326, 1875.547
1204.548, 453.498
1205.770, 1228.855
1206.991, 1445.262
1208.213, 131.072
1209.434, 1576.209
1210.655, 613.654
1211.876, 808.656
1213.096, 1613.594
1214.317, 430.857
1215.537, 1265.594
1216.757, 1220.324
1217.977, 276.254
1219.197, 1570.836
1220.417, 995.357
1221.636, 869.771
1222.855, 1774.158
1224.074, 470.133
1225.293, 1083.656
1226.512, 1297.842
1227.731, 655.381
1228.949, 1999.438
1230.167, 954.279
1231.385, 807.639
1232.603, 1611.516
1233.820, 847.525
1235.038, 1280.557
1236.255, 1624.291
1237.472, 559.980
1238.689, 1653.611
1239.906, 1167.184
1241.122, 890.721
1242.338, 1924.193
1243.555, 517.607
1244.771, 1100.326
1245.986, 1723.637
1247.202, 323.898
1248.417, 1537.096
1249.633, 1310.234
1250.848, 431.211
1252.063, 2104.242
1253.277, 457.221
1254.492, 960.912
1255.706, 1683.770
1256.920, 546.502
1258.134, 1459.172
1259.348, 1101.781
1260.562, 483.652
1261.775, 1915.998
1262.988, 748.279
1264.201, 691.740
1265.414, 1523.895
1266.627, 434.496
1267.839, 1457.176
1269.052, 1349.043
1270.264, 559.207
1271.476, 1820.805
1272.688, 822.143
1273.899, 674.527
1275.111, 1635.701
1276.322, 175.512
1277.533, 1586.480
1278.744, 1077.393
1279.955, 103.619
1281.165, 2046.984
1282.376, 906.893
1283.586, 267.350
1284.796, 1887.674
1286.006, 376.377
1287.215, 668.391
1288.425, 1668.518
1289.634, 343.389
1290.843, 1554.570
1292.052, 992.709
1293.261, 312.381
1294.469, 1613.385
1295.678, 133.037
1296.886, 803.311
1298.094, 1432.379
1299.302, 130.607
1300.509, 890.287
1301.717, 817.834
1302.924, 133.129
1304.131, 1456.549
1305.338, 244.023
1306.545, 27.504
1307.752, 1550.836
1308.958, 162.061
1310.164, 716.047
1311.370, 868.684
1312.576, 463.379
1313.782, 1454.299
1314.987, 445.369
1316.193, 22.863
1317.398, 1429.965
1318.603, 336.074
1319.807, 443.270
1321.012, 1267.840
1322.216, 45.154
1323.421, 1121.725
1324.625, 956.668
1325.829, 76.619
1327.032, 1369.852
1328.236, 385.766
1329.439, 2.199
1330.642, 1776.643
1331.845, 202.873
1333.048, 919.023
1334.251, 1063.898
1335.453, 90.250
1336.656, 1645.461
1337.858, 831.090
1339.060, 266.635
1340.261, 1627.332
1341.463, 122.699
1342.664, 827.984
1343.866, 1451.494
1345.067, 3.361
1346.267, 1241.602
1347.468, 1335.908
1348.669, 150.828
1349.869, 1474.719
1351.069, 409.500
1352.269, 534.213
1353.469, 1616.137
1354.668, 160.723
1355.868, 834.918
1357.067, 1429.918
1358.266, 154.344
1359.465, 1437.629
1360.664, 1082.582
1361.862, 356.867
1363.061, 2119.363
1364.259, 684.848
1365.457, 949.094
1366.655, 1583.312
1367.852, 258.332
1369.050, 1491.555
1370.247, 676.801
1371.444, 40.934
1372.641, 1544.711
1373.838, 453.082
1375.035, 398.348
1376.231, 980.590
1377.427, 169.426
1378.623, 1087.383
1379.819, 1736.027
1381.015, 184.586
1382.211, 1632.031
1383.406, 1408.523
1384.601, 376.832
1385.796, 2013.754
1386.991, 890.664
1388.185, 497.859
1389.380, 1965.895
1390.574, 362.590
1391.768, 1330.121
1392.962, 1636.355
1394.156, 104.031
1395.350, 1740.664
1396.543, 1507.762
1397.736, 261.758
1398.929, 2139.102
1400.122, 1029.266
1401.315, 933.895
1402.507, 2279.016
1403.700, 165.543
1404.892, 1155.473
1406.084, 1839.480
1407.276, 301.855
1408.467, 1538.242
1409.659, 1440.434
1410.850, 405.840
1412.041, 2138.867
1413.232, 1052.551
1414.423, 924.180
1415.614, 2279.156
1416.804, 242.281
1417.994, 1949.176
1419.184, 2049.758
1420.374, 1210.367
1421.564, 3714.664
1422.753, 2461.844
1423.943, 1344.172
1425.132, 2794.457
1426.321, 838.137
1427.510, 942.934
1428.698, 1913.371
1429.887, 32.055
1431.075, 1465.234
1432.263, 1428.227
1433.451, 133.102
1434.639, 1957.816
1435.827, 919.562
1437.014, 88.074
1438.201, 2146.363
1439.388, 218.836
1440.575, 408.910
1441.762, 2371.223
1442.949, 300.301
1444.135, 1032.414
1445.321, 1857.691
1446.507, 107.422
1447.693, 1963.543
1448.879, 1023.773
1450.064, 529.352
1451.250, 2106.492
1452.435, 745.746
1453.620, 393.281
1454.805, 2409.152
1455.989, 460.988
1457.174, 1448.719
1458.358, 1772.219
1459.542, 279.516
1460.726, 1881.086
1461.910, 1388.320
1463.093, 431.973
1464.277, 2436.754
1465.460, 913.500
1466.643, 971.148
1467.826, 2305.984
1469.009, 513.988
1470.191, 1382.074
1471.373, 2120.434
1472.556, 178.805
1473.738, 2181.242
1474.919, 1599.496
1476.101, 79.566
1477.283, 2331.781
1478.464, 765.633
1479.645, 782.047
1480.826, 1886.453
1482.007, 559.383
1483.187, 1337.348
1484.368, 1985.355
1485.548, 13.316
1486.728, 1861.469
1487.908, 1459.840
1489.088, 167.902
1490.268, 2016.820
1491.447, 876.070
1492.626, 225.535
1493.805, 2505.180
1494.984, 332.625
1496.163, 742.668
1497.341, 2200.109
1498.520, 102.930
1499.698, 1126.809
1500.876, 1651.637
1502.054, 99.309
1503.232, 1683.512
1504.409, 1000.777
1505.586, 0.559
1506.763, 2180.148
1507.940, 894.980
1509.117, 149.332
1510.294, 2533.957
1511.470, 120.320
1512.647, 864.480
1513.823, 1801.574
1514.999, 3.465
1516.174, 0.000
##END=



