##NAMES=Witherite
##RRUFFID=R040040
##IDEAL CHEMISTRY=BaCO_3_
##LOCALITY=Cave-in-Rock, Hardin County, Illinois, USA
##OWNER=RRUFF
##SOURCE=University of Arizona Mineral Museum
##DESCRIPTION=Tan colored prismatic group of columnar crystals
##STATUS=The identification of this mineral has been confirmed by X-ray diffraction and chemical analysis
##URL=rruff.info/R040040
##MEASURED CHEMISTRY=(Ba_0.98_Sr_0.02_)_Î£=1_CO_3_; CO_2_ estimated by difference
##PIN_ID=L00131
##ORIENTATION=Laser parallel to -b* (0 -1 0). Fiducial mark perpendicular to laser is parallel to c [0 0 1]
101.036, 0.000
102.428, 19.378
103.820, 81.051
105.212, 229.106
106.604, 25.946
107.995, 344.327
109.387, 77.004
110.777, 432.592
112.168, 327.006
113.559, 489.577
114.949, 753.686
116.339, 485.765
117.729, 1178.341
119.119, 805.025
120.508, 1147.501
121.897, 1239.631
123.286, 1443.687
124.675, 1899.472
126.063, 2186.650
127.452, 3354.955
128.840, 4044.182
130.228, 6784.178
131.615, 9004.839
133.003, 13796.066
134.390, 19837.779
135.777, 23439.910
137.164, 28422.402
138.550, 19995.211
139.937, 15108.301
141.323, 9112.113
142.709, 6098.261
144.094, 4697.406
145.480, 3227.422
146.865, 3407.034
148.250, 2326.437
149.635, 2675.512
151.019, 2304.297
152.403, 2352.826
153.788, 2681.129
155.171, 2339.232
156.555, 2957.158
157.939, 2774.948
159.322, 4022.664
160.705, 4420.436
162.088, 4108.082
163.470, 3405.621
164.853, 1653.064
166.235, 1420.419
167.617, 472.695
168.998, 654.899
170.380, 376.038
171.761, 300.117
173.142, 463.143
174.523, 197.121
175.904, 610.056
177.284, 536.955
178.664, 1443.824
180.044, 1666.268
181.424, 1696.848
182.803, 1712.581
184.183, 873.160
185.562, 834.854
186.940, 445.109
188.319, 699.104
189.698, 512.532
191.076, 460.041
192.454, 519.633
193.831, 313.607
195.209, 389.762
196.586, 300.104
197.963, 408.988
199.340, 432.962
200.717, 417.023
202.093, 561.171
203.470, 201.404
204.846, 629.720
206.221, 267.115
207.597, 338.587
208.972, 343.133
210.347, 357.749
211.722, 632.433
213.097, 131.213
214.472, 533.062
215.846, 379.425
217.220, 564.357
218.594, 596.540
219.967, 411.501
221.341, 896.582
222.714, 551.716
224.087, 1096.922
225.460, 952.194
226.832, 1107.497
228.204, 1132.826
229.577, 608.181
230.948, 1033.561
232.320, 328.966
233.692, 634.395
235.063, 489.849
236.434, 365.331
237.805, 570.838
239.175, 166.368
240.545, 571.920
241.916, 97.494
243.286, 393.090
244.655, 418.706
246.025, 304.362
247.394, 580.058
248.763, 135.771
250.132, 471.604
251.501, 217.453
252.869, 293.319
254.237, 369.202
255.605, 125.100
256.973, 371.013
258.340, 53.038
259.708, 112.926
261.075, 121.069
262.442, 245.038
263.808, 30.960
265.175, 359.146
266.541, 107.062
267.907, 379.522
269.273, 19.318
270.639, 174.454
272.004, 170.595
273.369, 84.743
274.734, 169.697
276.099, 286.011
277.463, 161.890
278.828, 257.998
280.192, 354.154
281.556, 110.424
282.919, 616.798
284.283, 46.714
285.646, 429.845
287.009, 136.481
288.372, 303.183
289.734, 509.940
291.097, 96.750
292.459, 573.604
293.821, 230.524
295.183, 447.481
296.544, 424.472
297.905, 161.492
299.266, 428.539
300.627, 195.628
301.988, 502.739
303.348, 299.873
304.709, 307.026
306.069, 434.197
307.428, 241.376
308.788, 578.547
310.147, 115.707
311.507, 442.859
312.865, 300.003
314.224, 297.143
315.583, 514.275
316.941, 91.404
318.299, 618.528
319.657, 205.649
321.015, 322.798
322.372, 361.942
323.729, 69.086
325.086, 466.233
326.443, 3.377
327.800, 180.517
329.156, 2.346
330.512, 54.784
331.868, 141.914
333.224, 70.958
334.579, 386.157
335.935, 93.271
337.290, 350.386
338.645, 412.834
339.999, 199.948
341.354, 597.060
342.708, 74.172
344.062, 621.256
345.416, 192.258
346.769, 209.153
348.123, 555.817
349.476, 72.284
350.829, 808.595
352.182, 164.894
353.534, 541.149
354.887, 397.442
356.239, 263.748
357.591, 640.048
358.942, 166.462
360.294, 612.786
361.645, 319.124
362.996, 235.475
364.347, 671.835
365.698, 178.207
367.048, 574.590
368.398, 241.288
369.748, 427.692
371.098, 474.105
372.448, 270.528
373.797, 686.959
375.146, 213.399
376.495, 629.846
377.844, 436.294
379.192, 382.740
380.540, 559.193
381.889, 175.621
383.236, 582.055
384.584, 338.494
385.932, 544.939
387.279, 401.392
388.626, 211.539
389.973, 698.002
391.319, 104.469
392.666, 510.940
394.012, 327.418
395.358, 324.429
396.704, 600.914
398.049, 107.504
399.394, 633.995
400.740, 180.490
402.084, 337.021
403.429, 503.527
404.774, 190.034
406.118, 776.545
407.462, 133.059
408.806, 599.707
410.150, 416.236
411.493, 204.798
412.836, 691.330
414.179, 177.862
415.522, 574.397
416.865, 210.934
418.207, 433.250
419.549, 509.787
420.891, 223.627
422.233, 720.180
423.575, 239.946
424.916, 556.317
426.257, 452.870
427.598, 199.446
428.939, 710.106
430.279, 23.700
431.619, 559.290
432.959, 195.805
434.299, 262.623
435.639, 529.247
436.978, 66.128
438.318, 693.345
439.657, 0.021
440.996, 396.820
442.334, 443.472
443.673, 120.124
445.011, 592.068
446.349, 96.292
447.687, 503.246
449.024, 389.895
450.361, 196.542
451.699, 543.383
453.036, 70.027
454.372, 672.447
455.709, 39.099
457.045, 245.748
458.381, 592.644
459.717, 39.289
461.053, 669.039
462.388, 235.676
463.724, 372.308
465.059, 488.933
466.394, 65.566
467.728, 702.541
469.063, 39.162
470.397, 575.776
471.731, 392.713
473.065, 99.318
474.398, 506.740
475.732, 73.336
477.065, 589.925
478.398, 226.601
479.731, 173.219
481.063, 567.087
482.396, 26.307
483.728, 710.273
485.060, 108.119
486.391, 394.689
487.723, 490.956
489.054, 27.513
490.385, 733.034
491.716, 39.574
493.047, 436.110
494.377, 440.005
495.708, 156.525
497.038, 793.041
498.368, 80.452
499.697, 436.002
501.027, 302.447
502.356, 208.884
503.685, 665.318
505.014, 58.257
506.342, 668.139
507.671, 254.827
508.999, 361.210
510.327, 557.597
511.655, 23.970
512.982, 490.338
514.310, 141.808
515.637, 348.166
516.964, 444.574
518.291, 20.979
519.617, 777.378
520.944, 104.120
522.270, 420.506
523.596, 456.900
524.921, 133.288
526.247, 559.671
527.572, 6.381
528.897, 422.746
530.222, 189.121
531.547, 85.490
532.871, 531.853
534.196, 68.211
535.520, 524.562
536.844, 300.908
538.167, 177.247
539.491, 623.581
540.814, 79.910
542.137, 676.230
543.460, 172.546
544.783, 298.854
546.105, 685.156
547.427, 48.170
548.749, 588.087
550.071, 94.338
551.393, 320.580
552.714, 406.816
554.035, 156.713
555.356, 649.418
556.677, 45.540
557.998, 411.654
559.318, 447.761
560.638, 64.765
561.958, 670.888
563.278, 107.004
564.597, 403.110
565.917, 409.210
567.236, 47.692
568.555, 633.805
569.874, 20.093
571.192, 595.983
572.511, 272.052
573.829, 138.330
575.147, 604.380
576.464, 79.579
577.782, 636.444
579.099, 202.418
580.416, 191.838
581.733, 687.805
583.050, 56.208
584.366, 579.804
585.683, 14.195
586.999, 305.307
588.315, 491.392
589.630, 87.563
590.946, 663.732
592.261, 99.934
593.576, 386.914
594.891, 603.140
596.206, 9.397
597.520, 635.641
598.834, 51.788
600.148, 241.797
601.462, 568.005
602.776, 65.798
604.089, 720.425
605.402, 36.563
606.715, 532.908
608.028, 519.022
609.341, 65.125
610.653, 621.637
611.965, 72.287
613.277, 477.141
614.589, 403.146
615.901, 59.140
617.212, 576.467
618.523, 27.568
619.834, 528.356
621.145, 274.269
622.456, 160.168
623.766, 738.765
625.076, 44.640
626.386, 570.498
627.696, 366.343
629.006, 52.175
630.315, 788.480
631.624, 14.287
632.933, 560.488
634.242, 286.259
635.551, 112.017
636.859, 627.466
638.167, 86.804
639.475, 619.238
640.783, 152.878
642.090, 8.501
643.398, 754.879
644.705, 50.462
646.012, 706.031
647.318, 251.586
648.625, 197.134
649.931, 833.072
651.237, 11.409
652.543, 694.097
653.849, 229.912
655.155, 325.391
656.460, 745.896
657.765, 691.347
659.070, 596.782
660.375, 242.876
661.679, 288.283
662.984, 672.736
664.288, 78.114
665.592, 803.479
666.895, 148.973
668.199, 174.308
669.502, 789.573
670.805, 55.119
672.108, 800.153
673.411, 248.619
674.713, 303.863
676.016, 848.990
677.318, 84.204
678.620, 729.420
679.921, 337.217
681.223, 322.403
682.524, 857.601
683.825, 92.781
685.126, 767.642
686.427, 516.056
687.727, 681.188
689.028, 1836.333
690.328, 1951.778
691.628, 3796.892
692.927, 2472.449
694.227, 1927.529
695.526, 2162.598
696.825, 508.028
698.124, 983.066
699.423, 538.316
700.721, 403.324
702.020, 838.315
703.318, 94.068
704.616, 845.336
705.913, 320.277
707.211, 375.204
708.508, 860.115
709.805, 125.271
711.102, 659.617
712.399, 394.482
713.695, 239.233
714.992, 624.066
716.288, 26.781
717.584, 751.548
718.879, 226.328
720.175, 331.093
721.470, 785.841
722.765, 2.423
724.060, 872.152
725.355, 486.833
726.649, 340.130
727.944, 774.779
729.238, 139.412
730.532, 634.027
731.825, 448.626
733.119, 177.748
734.412, 912.319
735.705, 23.127
736.998, 751.381
738.291, 535.872
739.584, 257.896
740.876, 902.355
742.168, 24.963
743.460, 829.435
744.752, 533.814
746.043, 428.458
747.334, 1042.805
748.626, 27.134
749.916, 731.848
751.207, 416.136
752.498, 200.380
753.788, 1034.633
755.078, 31.338
756.368, 653.173
757.658, 467.342
758.947, 166.257
760.237, 830.391
761.526, 134.202
762.815, 638.875
764.104, 542.954
765.392, 86.819
766.680, 1000.860
767.969, 30.896
769.257, 654.218
770.544, 738.179
771.832, 1.871
773.119, 935.784
774.406, 386.572
775.693, 570.745
776.980, 634.608
778.267, 21.544
779.553, 1022.616
780.839, 266.059
782.125, 409.832
783.411, 793.590
784.697, 67.006
785.982, 851.695
787.267, 84.580
788.552, 388.267
789.837, 681.938
791.122, 134.500
792.406, 909.299
793.690, 85.586
794.974, 369.109
796.258, 892.627
797.542, 4.860
798.825, 1068.342
800.108, 431.414
801.391, 274.869
802.674, 978.701
803.957, 82.186
805.239, 955.650
806.522, 416.588
807.804, 100.021
809.085, 873.874
810.367, 87.277
811.649, 630.686
812.930, 604.078
814.211, 17.460
815.492, 1000.821
816.772, 35.833
818.053, 627.488
819.333, 651.136
820.613, 144.432
821.893, 817.701
823.173, 200.965
824.452, 524.226
825.732, 878.102
827.011, 198.667
828.290, 1034.434
829.568, 348.074
830.847, 431.172
832.125, 838.053
833.403, 28.883
834.681, 914.150
835.959, 373.512
837.236, 266.516
838.514, 859.168
839.791, 37.855
841.068, 1015.076
842.345, 414.510
843.621, 117.412
844.898, 1000.297
846.174, 83.168
847.450, 656.033
848.726, 659.736
850.001, 102.570
851.277, 1145.443
852.552, 138.924
853.827, 521.764
855.102, 764.594
856.376, 7.412
857.651, 1219.838
858.925, 393.111
860.199, 605.896
861.473, 998.670
862.746, 131.430
864.020, 783.932
865.293, 307.498
866.566, 210.258
867.839, 643.008
869.112, 113.854
870.384, 877.930
871.656, 430.576
872.928, 263.211
874.200, 985.832
875.472, 100.795
876.744, 1029.377
878.015, 591.938
879.286, 34.484
880.557, 1067.021
881.828, 209.580
883.098, 511.902
884.369, 774.434
885.639, 117.648
886.909, 1010.133
888.178, 252.658
889.448, 561.723
890.717, 934.217
891.987, 23.287
893.256, 899.193
894.524, 521.664
895.793, 310.695
897.061, 1113.148
898.330, 115.594
899.598, 738.027
900.865, 630.447
902.133, 92.117
903.401, 904.514
904.668, 56.900
905.935, 629.271
907.202, 761.631
908.468, 110.195
909.735, 992.533
911.001, 174.859
912.267, 437.119
913.533, 999.449
914.799, 51.549
916.064, 1013.852
917.330, 516.146
918.595, 308.008
919.860, 1080.279
921.124, 10.852
922.389, 891.414
923.653, 673.668
924.918, 304.602
926.182, 1096.830
927.445, 119.062
928.709, 451.283
929.972, 1043.494
931.236, 102.982
932.499, 1035.170
933.761, 367.346
935.024, 520.105
936.286, 982.258
937.549, 6.090
938.811, 1166.559
940.073, 448.254
941.334, 550.359
942.596, 1122.453
943.857, 124.832
945.118, 968.027
946.379, 679.729
947.640, 341.809
948.900, 1194.844
950.161, 226.133
951.421, 679.496
952.681, 1091.555
953.940, 93.602
955.200, 1189.355
956.459, 420.979
957.719, 372.992
958.978, 1005.029
960.236, 96.711
961.495, 969.271
962.753, 550.875
964.012, 272.846
965.270, 1126.096
966.527, 257.373
967.785, 669.312
969.043, 928.205
970.300, 50.121
971.557, 1253.379
972.814, 325.121
974.071, 296.994
975.327, 1181.209
976.583, 96.943
977.840, 854.865
979.095, 513.453
980.351, 65.236
981.607, 1032.635
982.862, 75.592
984.117, 546.133
985.372, 816.680
986.627, 111.572
987.882, 1210.332
989.136, 261.996
990.390, 373.654
991.644, 1202.613
992.898, 115.750
994.152, 1165.814
995.405, 527.951
996.659, 259.590
997.912, 1163.283
999.165, 4.895
1000.417, 806.486
1001.670, 891.020
1002.922, 72.602
1004.174, 1443.939
1005.426, 296.861
1006.678, 748.404
1007.930, 960.373
1009.181, 111.885
1010.432, 1173.432
1011.683, 585.738
1012.934, 247.260
1014.185, 1298.516
1015.435, 40.016
1016.685, 811.543
1017.935, 684.449
1019.185, 135.943
1020.435, 1009.645
1021.684, 343.223
1022.934, 434.797
1024.183, 1066.361
1025.432, 48.764
1026.680, 1213.295
1027.929, 553.631
1029.177, 565.141
1030.425, 1255.986
1031.673, 245.189
1032.921, 956.664
1034.169, 1108.215
1035.416, 80.303
1036.663, 1311.498
1037.911, 734.619
1039.157, 786.102
1040.404, 1607.594
1041.650, 271.361
1042.897, 1260.879
1044.143, 952.324
1045.389, 443.750
1046.634, 1495.172
1047.880, 728.619
1049.125, 859.697
1050.371, 1271.074
1051.615, 534.125
1052.860, 1675.055
1054.105, 1096.438
1055.349, 1197.320
1056.593, 2698.662
1057.837, 4131.098
1059.081, 20462.098
1060.325, 35183.402
1061.568, 23206.203
1062.812, 8577.471
1064.055, 2358.775
1065.298, 1539.428
1066.540, 1800.633
1067.783, 372.930
1069.025, 1584.098
1070.267, 945.246
1071.509, 595.910
1072.751, 1737.031
1073.993, 278.129
1075.234, 1029.211
1076.475, 1440.268
1077.716, 311.594
1078.957, 1402.609
1080.198, 793.600
1081.438, 485.115
1082.679, 1466.074
1083.919, 157.014
1085.159, 1028.070
1086.398, 919.100
1087.638, 179.150
1088.877, 1190.141
1090.116, 391.105
1091.355, 442.824
1092.594, 1203.750
1093.833, 44.445
1095.071, 975.355
1096.309, 706.244
1097.547, 88.443
1098.785, 1499.273
1100.023, 10.082
1101.260, 752.611
1102.498, 1143.363
1103.735, 206.303
1104.972, 1356.014
1106.208, 656.572
1107.445, 327.963
1108.681, 1248.473
1109.918, 198.520
1111.154, 1079.520
1112.389, 999.945
1113.625, 30.342
1114.860, 1362.215
1116.096, 532.561
1117.331, 342.879
1118.566, 1403.189
1119.800, 22.828
1121.035, 1093.648
1122.269, 983.865
1123.503, 15.947
1124.737, 1364.424
1125.971, 568.787
1127.205, 648.859
1128.438, 1049.484
1129.671, 71.006
1130.904, 1173.299
1132.137, 899.100
1133.370, 19.016
1134.602, 1439.805
1135.834, 313.311
1137.066, 483.127
1138.298, 1064.512
1139.530, 234.260
1140.762, 1084.895
1141.993, 898.074
1143.224, 157.736
1144.455, 1270.367
1145.686, 10.023
1146.917, 789.525
1148.147, 1028.979
1149.377, 181.541
1150.607, 1332.248
1151.837, 580.922
1153.067, 80.184
1154.296, 1441.154
1155.526, 120.332
1156.755, 879.465
1157.984, 1319.621
1159.213, 238.691
1160.441, 1339.082
1161.670, 740.291
1162.898, 469.236
1164.126, 1528.766
1165.354, 107.629
1166.581, 896.439
1167.809, 1042.912
1169.036, 41.674
1170.263, 1381.480
1171.490, 502.516
1172.717, 271.131
1173.943, 1489.729
1175.170, 81.719
1176.396, 736.713
1177.622, 988.844
1178.848, 62.809
1180.073, 1415.422
1181.299, 535.402
1182.524, 373.543
1183.749, 1511.959
1184.974, 121.732
1186.199, 999.717
1187.423, 1290.607
1188.648, 48.500
1189.872, 1296.324
1191.096, 556.498
1192.320, 524.236
1193.543, 1261.926
1194.767, 81.354
1195.990, 988.928
1197.213, 728.170
1198.436, 125.646
1199.659, 1603.066
1200.881, 715.404
1202.104, 522.725
1203.326, 1750.004
1204.548, 278.889
1205.770, 1286.057
1206.991, 1143.875
1208.213, 171.686
1209.434, 1498.688
1210.655, 536.936
1211.876, 603.836
1213.096, 1600.689
1214.317, 289.080
1215.537, 1015.820
1216.757, 1162.514
1217.977, 400.666
1219.197, 1467.254
1220.417, 893.795
1221.636, 640.244
1222.855, 1696.682
1224.074, 424.219
1225.293, 940.551
1226.512, 1216.836
1227.731, 354.611
1228.949, 1680.789
1230.167, 788.195
1231.385, 707.887
1232.603, 1503.924
1233.820, 782.303
1235.038, 1187.746
1236.255, 1623.676
1237.472, 422.182
1238.689, 1758.031
1239.906, 1043.836
1241.122, 709.680
1242.338, 1785.404
1243.555, 291.088
1244.771, 1046.625
1245.986, 1362.229
1247.202, 198.297
1248.417, 1453.807
1249.633, 1129.277
1250.848, 192.295
1252.063, 2127.684
1253.277, 403.031
1254.492, 909.650
1255.706, 1644.898
1256.920, 479.480
1258.134, 1514.582
1259.348, 999.645
1260.562, 256.896
1261.775, 2001.748
1262.988, 746.555
1264.201, 723.381
1265.414, 1598.080
1266.627, 481.373
1267.839, 1597.125
1269.052, 1271.619
1270.264, 563.705
1271.476, 1738.035
1272.688, 622.180
1273.899, 496.275
1275.111, 1650.307
1276.322, 38.662
1277.533, 1572.561
1278.744, 1226.434
1279.955, 71.314
1281.165, 1802.262
1282.376, 855.572
1283.586, 239.064
1284.796, 1692.490
1286.006, 405.271
1287.215, 790.232
1288.425, 1583.520
1289.634, 264.252
1290.843, 1563.393
1292.052, 1003.785
1293.261, 436.652
1294.469, 1660.260
1295.678, 29.678
1296.886, 962.805
1298.094, 1445.434
1299.302, 196.637
1300.509, 1059.594
1301.717, 890.838
1302.924, 86.758
1304.131, 1658.082
1305.338, 289.232
1306.545, 141.102
1307.752, 1432.881
1308.958, 85.408
1310.164, 656.199
1311.370, 976.344
1312.576, 352.193
1313.782, 1569.264
1314.987, 348.477
1316.193, 119.605
1317.398, 1590.660
1318.603, 420.756
1319.807, 661.641
1321.012, 1223.838
1322.216, 34.557
1323.421, 1125.193
1324.625, 1028.055
1325.829, 261.430
1327.032, 1318.928
1328.236, 348.672
1329.439, 178.910
1330.642, 1777.832
1331.845, 47.920
1333.048, 807.939
1334.251, 1105.803
1335.453, 95.617
1336.656, 1485.355
1337.858, 705.029
1339.060, 164.631
1340.261, 1702.078
1341.463, 171.508
1342.664, 760.873
1343.866, 1490.355
1345.067, 160.393
1346.267, 1108.744
1347.468, 1068.648
1348.669, 177.682
1349.869, 1725.549
1351.069, 405.010
1352.269, 393.891
1353.469, 1671.145
1354.668, 259.932
1355.868, 708.615
1357.067, 1307.855
1358.266, 186.537
1359.465, 1514.084
1360.664, 1003.072
1361.862, 201.580
1363.061, 1999.412
1364.259, 588.773
1365.457, 817.225
1366.655, 1515.646
1367.852, 284.557
1369.050, 1652.391
1370.247, 862.143
1371.444, 190.537
1372.641, 1628.006
1373.838, 260.986
1375.035, 476.393
1376.231, 1056.027
1377.427, 78.367
1378.623, 949.846
1379.819, 1722.033
1381.015, 54.158
1382.211, 1714.809
1383.406, 1294.930
1384.601, 276.834
1385.796, 1916.912
1386.991, 777.842
1388.185, 359.027
1389.380, 1890.756
1390.574, 150.717
1391.768, 1142.270
1392.962, 1783.102
1394.156, 254.523
1395.350, 1855.631
1396.543, 1446.336
1397.736, 242.492
1398.929, 2023.717
1400.122, 841.676
1401.315, 870.717
1402.507, 2080.523
1403.700, 11.385
1404.892, 1193.082
1406.084, 1872.510
1407.276, 87.195
1408.467, 1627.598
1409.659, 1305.645
1410.850, 230.547
1412.041, 2178.760
1413.232, 865.723
1414.423, 929.875
1415.614, 2250.312
1416.804, 497.973
1417.994, 1943.742
1419.184, 2061.688
1420.374, 1375.346
1421.564, 4164.439
1422.753, 2760.785
1423.943, 1355.270
1425.132, 2749.309
1426.321, 747.812
1427.510, 1032.512
1428.698, 1838.039
1429.887, 53.604
1431.075, 1411.887
1432.263, 1485.127
1433.451, 69.832
1434.639, 1886.762
1435.827, 833.215
1437.014, 218.631
1438.201, 1893.410
1439.388, 300.979
1440.575, 405.709
1441.762, 2083.156
1442.949, 298.359
1444.135, 1205.678
1445.321, 1859.906
1446.507, 54.191
1447.693, 1806.779
1448.879, 1132.309
1450.064, 382.090
1451.250, 1864.512
1452.435, 639.258
1453.620, 391.830
1454.805, 2241.910
1455.989, 272.736
1457.174, 1376.236
1458.358, 1626.273
1459.542, 319.477
1460.726, 1783.518
1461.910, 1306.543
1463.093, 243.889
1464.277, 2413.252
1465.460, 695.688
1466.643, 738.654
1467.826, 2211.865
1469.009, 354.920
1470.191, 1288.152
1471.373, 2131.691
1472.556, 185.070
1473.738, 1942.906
1474.919, 1586.121
1476.101, 193.336
1477.283, 2253.221
1478.464, 844.031
1479.645, 676.168
1480.826, 1916.287
1482.007, 577.527
1483.187, 1211.043
1484.368, 1994.666
1485.548, 51.729
1486.728, 1561.189
1487.908, 1405.074
1489.088, 29.277
1490.268, 2012.787
1491.447, 1027.793
1492.626, 122.969
1493.805, 2308.312
1494.984, 391.424
1496.163, 657.293
1497.341, 2182.594
1498.520, 140.477
1499.698, 1029.609
1500.876, 1649.957
1502.054, 183.465
1503.232, 1565.088
1504.409, 926.309
1505.586, 101.938
1506.763, 2105.016
1507.940, 1011.074
1509.117, 255.500
1510.294, 2655.459
1511.470, 112.721
1512.647, 932.379
1513.823, 1982.748
1514.999, 4.092
1516.174, 0.000
##END=



