##NAMES=Witherite
##RRUFFID=R040040
##IDEAL CHEMISTRY=BaCO_3_
##LOCALITY=Cave-in-Rock, Hardin County, Illinois, USA
##OWNER=RRUFF
##SOURCE=University of Arizona Mineral Museum
##DESCRIPTION=Tan colored prismatic group of columnar crystals
##STATUS=The identification of this mineral has been confirmed by X-ray diffraction and chemical analysis
##URL=rruff.info/R040040
##MEASURED CHEMISTRY=(Ba_0.98_Sr_0.02_)_Î£=1_CO_3_; CO_2_ estimated by difference
##PIN_ID=L00241
##ORIENTATION=Laser parallel to -a* (-1 0 0). Fiducial mark perpendicular to laser is parallel to -c [0 0 -1]
106.604, 0.000
107.995, 40.989
109.387, 14.285
110.777, 20.836
112.168, 7.648
113.559, 28.145
114.949, 58.160
116.339, 41.665
117.729, 106.170
119.119, 55.358
120.508, 108.947
121.897, 108.700
123.286, 173.427
124.675, 203.973
126.063, 209.211
127.452, 394.139
128.840, 460.819
130.228, 695.107
131.615, 1025.886
133.003, 1467.070
134.390, 2110.593
135.777, 2601.411
137.164, 3000.479
138.550, 2609.761
139.937, 2043.226
141.323, 1409.848
142.709, 1048.607
144.094, 882.488
145.480, 746.477
146.865, 776.072
148.250, 786.168
149.635, 935.528
151.019, 1169.753
152.403, 1586.862
153.788, 2054.875
155.171, 2620.797
156.555, 3662.654
157.939, 4901.454
159.322, 6837.192
160.705, 7232.876
162.088, 6109.667
163.470, 4666.402
164.853, 2806.094
166.235, 1873.771
167.617, 1065.408
168.998, 741.008
170.380, 511.574
171.761, 428.111
173.142, 302.620
174.523, 183.104
175.904, 256.566
177.284, 205.011
178.664, 232.437
180.044, 258.846
181.424, 254.280
182.803, 301.698
184.183, 176.101
185.562, 163.392
186.940, 196.734
188.319, 146.369
189.698, 105.833
191.076, 143.620
192.454, 93.830
193.831, 119.055
195.209, 184.302
196.586, 139.584
197.963, 183.901
199.340, 193.416
200.717, 167.787
202.093, 213.189
203.470, 143.619
204.846, 201.079
206.221, 270.518
207.597, 280.021
208.972, 322.551
210.347, 371.112
211.722, 560.772
213.097, 607.385
214.472, 1050.037
215.846, 1369.807
217.220, 1822.413
218.594, 2137.042
219.967, 1995.691
221.341, 2015.516
222.714, 1648.205
224.087, 1553.049
225.460, 1387.762
226.832, 1284.500
228.204, 1163.262
229.577, 848.039
230.948, 843.828
232.320, 604.626
233.692, 547.434
235.063, 450.250
236.434, 331.075
237.805, 359.909
239.175, 316.751
240.545, 306.602
241.916, 201.460
243.286, 198.327
244.655, 286.200
246.025, 225.246
247.394, 201.132
248.763, 75.027
250.132, 177.933
251.501, 138.849
252.869, 129.783
254.237, 166.722
255.605, 91.653
256.973, 116.589
258.340, 70.531
259.708, 55.478
261.075, 20.430
262.442, 30.606
263.808, 11.368
265.175, 126.653
266.541, 42.670
267.907, 128.687
269.273, 97.779
270.639, 74.955
272.004, 15.819
273.369, 0.500
274.734, 43.071
276.099, 21.495
277.463, 118.973
278.828, 75.758
280.192, 74.628
281.556, 69.569
282.919, 42.573
284.283, 42.630
285.646, 85.830
287.009, 28.985
288.372, 111.178
289.734, 160.404
291.097, 5.659
292.459, 83.940
293.821, 52.254
295.183, 90.588
296.544, 47.940
297.905, 62.308
299.266, 111.690
300.627, 57.085
301.988, 101.492
303.348, 3.092
304.709, 70.331
306.069, 77.763
307.428, 35.203
308.788, 108.651
310.147, 57.106
311.507, 56.565
312.865, 73.343
314.224, 12.808
315.583, 51.270
316.941, 29.729
318.299, 152.184
319.657, 85.637
321.015, 17.088
322.372, 89.590
323.729, 58.964
325.086, 92.463
326.443, 46.888
327.800, 52.311
329.156, 20.733
330.512, 82.152
331.868, 37.570
333.224, 53.987
334.579, 14.402
335.935, 111.815
337.290, 56.227
338.645, 107.638
339.999, 1.951
341.354, 80.454
342.708, 77.859
344.062, 131.262
345.416, 72.693
346.769, 90.094
348.123, 122.503
349.476, 98.894
350.829, 139.192
352.182, 99.373
353.534, 105.507
354.887, 115.621
356.239, 76.739
357.591, 224.861
358.942, 31.036
360.294, 106.166
361.645, 70.299
362.996, 50.435
364.347, 127.575
365.698, 68.717
367.048, 97.864
368.398, 85.012
369.748, 141.159
371.098, 140.309
372.448, 50.462
373.797, 130.617
375.146, 152.774
376.495, 126.933
377.844, 107.094
379.192, 137.230
380.540, 181.369
381.889, 18.510
383.236, 193.652
384.584, 84.796
385.932, 147.941
387.279, 98.082
388.626, 132.490
389.973, 129.635
391.319, 76.411
392.666, 85.559
394.012, 103.708
395.358, 136.973
396.704, 157.125
398.049, 14.369
399.394, 194.777
400.740, 54.924
402.084, 74.073
403.429, 111.224
404.774, 119.375
406.118, 127.527
407.462, 48.680
408.806, 169.833
410.150, 55.988
411.493, 56.143
412.836, 141.299
414.179, 92.455
415.522, 102.823
416.865, 100.972
418.207, 100.122
419.549, 162.271
420.891, 83.422
422.233, 131.573
423.575, 74.724
424.916, 117.434
426.257, 124.585
427.598, 160.009
428.939, 141.595
430.279, 34.885
431.619, 148.224
432.959, 81.890
434.299, 93.881
435.639, 49.802
436.978, 34.385
438.318, 114.556
439.657, 60.729
440.996, 114.914
442.334, 119.095
443.673, 60.278
445.011, 101.462
446.349, 15.353
447.687, 117.975
449.024, 24.149
450.361, 47.323
451.699, 95.497
453.036, 26.574
454.372, 113.319
455.709, 23.493
457.045, 46.666
458.381, 141.961
459.717, 39.131
461.053, 70.533
462.388, 76.699
463.724, 96.864
465.059, 78.450
466.394, 64.612
467.728, 99.225
469.063, 71.382
470.397, 139.539
471.731, 87.762
473.065, 0.085
474.398, 102.342
475.732, 50.445
477.065, 117.591
478.398, 71.735
479.731, 147.877
481.063, 132.018
482.396, 11.146
483.728, 147.283
485.060, 22.354
486.391, 79.487
487.723, 161.679
489.054, 14.808
490.385, 140.936
491.716, 17.060
493.047, 97.198
494.377, 86.377
495.708, 17.404
497.038, 50.535
498.368, 44.744
499.697, 105.871
501.027, 62.183
502.356, 97.306
503.685, 140.427
505.014, 12.454
506.342, 133.662
507.671, 39.622
508.999, 113.733
510.327, 132.841
511.655, 33.948
512.982, 114.054
514.310, 44.213
515.637, 82.317
516.964, 72.433
518.291, 8.548
519.617, 93.661
520.944, 45.772
522.270, 88.883
523.596, 80.993
524.921, 54.101
526.247, 131.208
527.572, 23.313
528.897, 105.418
530.222, 80.524
531.547, 27.629
532.871, 73.733
534.196, 107.836
535.520, 142.937
536.844, 62.036
538.167, 31.133
539.491, 83.229
540.814, 52.324
542.137, 116.277
543.460, 92.369
544.783, 113.459
546.105, 113.548
547.427, 0.643
548.749, 86.732
550.071, 5.167
551.393, 110.914
552.714, 96.992
554.035, 12.892
555.356, 188.183
556.677, 0.745
557.998, 54.527
559.318, 113.592
560.638, 52.937
561.958, 131.015
563.278, 32.091
564.597, 95.176
565.917, 33.249
567.236, 78.416
568.555, 108.498
569.874, 25.578
571.192, 71.689
572.511, 52.766
573.829, 15.082
575.147, 104.980
576.464, 30.071
577.782, 50.128
579.099, 24.184
580.416, 83.238
581.733, 161.291
583.050, 18.660
584.366, 83.384
585.683, 28.426
586.999, 50.527
588.315, 53.612
589.630, 45.271
590.946, 81.842
592.261, 10.028
593.576, 79.097
594.891, 92.221
596.206, 61.452
597.520, 110.583
598.834, 13.711
600.148, 25.986
601.462, 100.109
602.776, 31.230
604.089, 68.348
605.402, 29.631
606.715, 107.500
608.028, 90.592
609.341, 76.680
610.653, 142.794
611.965, 36.123
613.277, 62.510
614.589, 94.574
615.901, 5.635
617.212, 46.722
618.523, 1.776
619.834, 133.825
621.145, 38.872
622.456, 22.917
623.766, 88.041
625.076, 1.908
626.386, 55.137
627.696, 67.273
629.006, 9.314
630.315, 75.365
631.624, 46.921
632.933, 99.791
634.242, 42.792
635.551, 45.791
636.859, 133.908
638.167, 55.901
639.475, 94.053
640.783, 43.239
642.090, 41.223
643.398, 133.354
644.705, 11.350
646.012, 128.341
647.318, 32.335
648.625, 27.322
649.931, 114.804
651.237, 19.784
652.543, 137.760
653.849, 79.751
655.155, 12.721
656.460, 97.709
657.765, 55.671
659.070, 79.634
660.375, 80.720
661.679, 84.677
662.984, 81.399
664.288, 21.651
665.592, 190.291
666.895, 55.251
668.199, 59.187
669.502, 153.261
670.805, 21.193
672.108, 190.123
673.411, 121.179
674.713, 87.101
676.016, 225.971
677.318, 57.886
678.620, 209.798
679.921, 146.707
681.223, 146.613
682.524, 186.568
683.825, 129.466
685.126, 266.361
686.427, 458.009
687.727, 1088.896
689.028, 2836.810
690.328, 4076.705
691.628, 4387.583
692.927, 2463.456
694.227, 1316.326
695.526, 904.191
696.825, 444.054
698.124, 361.912
699.423, 203.918
700.721, 255.771
702.020, 192.619
703.318, 152.935
704.616, 187.511
705.913, 40.348
707.211, 75.648
708.508, 181.478
709.805, 38.530
711.102, 104.236
712.399, 114.054
713.695, 61.539
714.992, 83.356
716.288, 10.918
717.584, 150.726
718.879, 74.529
720.175, 46.330
721.470, 116.125
722.765, 31.946
724.060, 155.732
725.355, 127.515
726.649, 44.396
727.944, 182.170
729.238, 34.002
730.532, 132.586
731.825, 44.347
733.119, 77.103
734.412, 232.855
735.705, 67.721
736.998, 147.465
738.291, 56.205
739.584, 55.625
740.876, 210.357
742.168, 45.581
743.460, 166.462
744.752, 65.181
746.043, 112.787
747.334, 188.497
748.626, 79.301
749.916, 156.003
751.207, 25.701
752.498, 105.524
753.788, 194.211
755.078, 8.114
756.368, 137.555
757.658, 115.219
758.947, 160.879
760.237, 137.534
761.526, 39.036
762.815, 136.687
764.104, 121.333
765.392, 41.976
766.680, 146.614
767.969, 1.325
769.257, 97.154
770.544, 172.774
771.832, 41.266
773.119, 102.877
774.406, 97.250
775.693, 116.875
776.980, 187.559
778.267, 29.153
779.553, 103.049
780.839, 61.182
782.125, 28.342
783.411, 104.919
784.697, 47.422
785.982, 161.168
787.267, 3.547
788.552, 85.007
789.837, 101.558
791.122, 19.104
792.406, 196.644
793.690, 9.182
794.974, 3.715
796.258, 185.240
797.542, 16.762
798.825, 189.298
800.108, 65.750
801.391, 47.258
802.674, 174.762
803.957, 48.737
805.239, 184.729
806.522, 120.147
807.804, 44.605
809.085, 146.060
810.367, 43.430
811.649, 59.876
812.930, 70.317
814.211, 18.756
815.492, 165.214
816.772, 22.357
818.053, 123.058
819.333, 71.442
820.613, 44.849
821.893, 136.252
823.173, 17.489
824.452, 105.884
825.732, 95.393
827.011, 43.220
828.290, 223.136
829.568, 131.558
830.847, 85.908
832.125, 148.499
833.403, 50.840
834.681, 148.193
835.959, 37.635
837.236, 99.979
838.514, 214.338
839.791, 6.325
841.068, 228.001
842.345, 43.486
843.621, 46.804
844.898, 162.124
846.174, 51.438
847.450, 140.751
848.726, 73.101
850.001, 97.407
851.277, 191.715
852.552, 14.113
853.827, 66.413
855.102, 155.712
856.376, 18.992
857.651, 194.289
858.925, 73.643
860.199, 26.904
861.473, 86.180
862.746, 31.548
864.020, 95.673
865.293, 98.927
866.566, 44.177
867.839, 163.443
869.112, 56.293
870.384, 101.670
871.656, 79.897
872.928, 67.121
874.200, 148.332
875.472, 45.449
876.744, 143.658
878.015, 72.847
879.286, 25.035
880.557, 238.185
881.828, 34.366
883.098, 42.466
884.369, 61.648
885.639, 88.796
886.909, 176.973
888.178, 21.148
889.448, 120.320
890.717, 131.489
891.987, 20.657
893.256, 146.829
894.524, 6.000
895.793, 11.138
897.061, 133.297
898.330, 55.458
899.598, 122.629
900.865, 108.797
902.133, 74.970
903.401, 142.141
904.668, 17.210
905.935, 69.375
907.202, 96.539
908.468, 73.552
909.735, 223.711
911.001, 136.868
912.267, 77.024
913.533, 160.179
914.799, 52.301
916.064, 134.460
917.330, 76.616
918.595, 118.746
919.860, 182.899
921.124, 31.512
922.389, 198.633
923.653, 140.774
924.918, 124.887
926.182, 127.025
927.445, 42.162
928.709, 27.297
929.972, 205.430
931.236, 39.519
932.499, 257.588
933.761, 10.303
935.024, 93.704
936.286, 169.803
937.549, 4.886
938.811, 197.979
940.073, 99.375
941.334, 165.479
942.596, 199.580
943.857, 63.558
945.118, 220.870
946.379, 118.804
947.640, 98.646
948.900, 175.740
950.161, 42.699
951.421, 199.807
952.681, 250.896
953.940, 47.977
955.200, 270.078
956.459, 132.662
957.719, 87.745
958.978, 94.827
960.236, 117.889
961.495, 161.967
962.753, 86.022
964.012, 77.098
965.270, 122.336
966.527, 39.283
967.785, 163.355
969.043, 162.778
970.300, 53.153
971.557, 276.084
972.814, 55.112
974.071, 19.841
975.327, 177.272
976.583, 3.308
977.840, 180.341
979.095, 100.242
980.351, 25.271
981.607, 234.465
982.862, 3.504
984.117, 66.522
985.372, 197.989
986.627, 23.019
987.882, 178.070
989.136, 41.096
990.390, 93.122
991.644, 138.434
992.898, 6.458
994.152, 209.453
995.405, 97.473
996.659, 90.520
997.912, 223.895
999.165, 36.938
1000.417, 125.102
1001.670, 193.269
1002.922, 25.311
1004.174, 317.228
1005.426, 130.129
1006.678, 176.167
1007.930, 255.066
1009.181, 30.103
1010.432, 226.161
1011.683, 125.488
1012.934, 139.543
1014.185, 155.603
1015.435, 140.930
1016.685, 168.006
1017.935, 218.231
1019.185, 68.306
1020.435, 237.705
1021.684, 148.185
1022.934, 150.294
1024.183, 213.695
1025.432, 169.939
1026.680, 293.025
1027.929, 176.630
1029.177, 264.847
1030.425, 291.859
1031.673, 171.322
1032.921, 285.369
1034.169, 313.462
1035.416, 180.934
1036.663, 331.050
1037.911, 340.474
1039.157, 629.478
1040.404, 662.597
1041.650, 290.314
1042.897, 456.311
1044.143, 395.040
1045.389, 330.654
1046.634, 364.605
1047.880, 518.331
1049.125, 477.433
1050.371, 621.596
1051.615, 563.326
1052.860, 924.423
1054.105, 985.567
1055.349, 1452.839
1056.593, 2718.938
1057.837, 6037.353
1059.081, 28601.447
1060.325, 58755.539
1061.568, 54839.969
1062.812, 23864.061
1064.055, 7708.218
1065.298, 2774.298
1066.540, 1436.375
1067.783, 665.929
1069.025, 732.000
1070.267, 513.067
1071.509, 290.463
1072.751, 505.524
1073.993, 227.580
1075.234, 306.671
1076.475, 355.717
1077.716, 230.979
1078.957, 311.933
1080.198, 236.966
1081.438, 238.704
1082.679, 315.742
1083.919, 209.197
1085.159, 331.265
1086.398, 200.329
1087.638, 84.220
1088.877, 313.284
1090.116, 187.346
1091.355, 156.564
1092.594, 183.617
1093.833, 16.724
1095.071, 183.940
1096.309, 177.975
1097.547, 75.097
1098.785, 336.122
1100.023, 66.122
1101.260, 263.343
1102.498, 292.351
1103.735, 68.354
1104.972, 362.848
1106.208, 198.854
1107.445, 102.896
1108.681, 302.892
1109.918, 142.881
1111.154, 213.160
1112.389, 210.136
1113.625, 38.107
1114.860, 307.437
1116.096, 126.371
1117.331, 43.333
1118.566, 367.326
1119.800, 33.451
1121.035, 221.518
1122.269, 133.449
1123.503, 28.535
1124.737, 229.474
1125.971, 101.211
1127.205, 154.124
1128.438, 187.031
1129.671, 42.861
1130.904, 129.967
1132.137, 202.604
1133.370, 62.521
1134.602, 284.843
1135.834, 68.578
1137.066, 137.690
1138.298, 140.075
1139.530, 78.877
1140.762, 298.375
1141.993, 174.519
1143.224, 20.700
1144.455, 264.424
1145.686, 19.178
1146.917, 223.919
1148.147, 69.929
1149.377, 20.349
1150.607, 236.704
1151.837, 95.323
1153.067, 13.992
1154.296, 231.552
1155.526, 24.276
1156.755, 147.509
1157.984, 233.647
1159.213, 22.279
1160.441, 150.373
1161.670, 58.958
1162.898, 49.561
1164.126, 357.805
1165.354, 62.910
1166.581, 139.022
1167.809, 119.770
1169.036, 40.301
1170.263, 285.366
1171.490, 64.640
1172.717, 102.129
1173.943, 305.891
1175.170, 23.786
1176.396, 109.249
1177.622, 233.044
1178.848, 52.481
1180.073, 326.038
1181.299, 139.487
1182.524, 55.883
1183.749, 412.652
1184.974, 71.499
1186.199, 192.861
1187.423, 237.906
1188.648, 21.499
1189.872, 252.877
1191.096, 20.793
1192.320, 183.077
1193.543, 247.526
1194.767, 22.058
1195.990, 185.296
1197.213, 136.970
1198.436, 23.256
1199.659, 298.445
1200.881, 145.374
1202.104, 83.651
1203.326, 431.792
1204.548, 80.349
1205.770, 198.456
1206.991, 293.065
1208.213, 79.141
1209.434, 354.198
1210.655, 141.713
1211.876, 190.736
1213.096, 275.745
1214.317, 50.684
1215.537, 302.655
1216.757, 256.609
1217.977, 118.673
1219.197, 252.600
1220.417, 182.510
1221.636, 155.470
1222.855, 326.346
1224.074, 108.522
1225.293, 211.361
1226.512, 226.255
1227.731, 230.700
1228.949, 459.496
1230.167, 187.421
1231.385, 345.395
1232.603, 253.140
1233.820, 283.521
1235.038, 305.238
1236.255, 241.945
1237.472, 145.952
1238.689, 370.635
1239.906, 171.307
1241.122, 143.752
1242.338, 385.400
1243.555, 165.034
1244.771, 277.657
1245.986, 364.267
1247.202, 139.050
1248.417, 239.634
1249.633, 325.207
1250.848, 76.035
1252.063, 408.581
1253.277, 181.115
1254.492, 278.806
1255.706, 338.310
1256.920, 121.801
1258.134, 328.271
1259.348, 209.725
1260.562, 106.388
1261.775, 388.809
1262.988, 192.184
1264.201, 185.394
1265.414, 388.733
1266.627, 164.885
1267.839, 361.433
1269.052, 229.705
1270.264, 191.751
1271.476, 325.986
1272.688, 195.176
1273.899, 202.296
1275.111, 377.397
1276.322, 25.300
1277.533, 304.345
1278.744, 214.368
1279.955, 12.932
1281.165, 409.897
1282.376, 127.750
1283.586, 73.660
1284.796, 300.548
1286.006, 61.373
1287.215, 83.571
1288.425, 296.389
1289.634, 65.822
1290.843, 265.946
1292.052, 229.333
1293.261, 123.030
1294.469, 227.770
1295.678, 21.300
1296.886, 194.089
1298.094, 318.783
1299.302, 47.512
1300.509, 183.083
1301.717, 77.301
1302.924, 52.167
1304.131, 245.635
1305.338, 90.630
1306.545, 5.950
1307.752, 207.018
1308.958, 36.981
1310.164, 63.246
1311.370, 103.227
1312.576, 110.591
1313.782, 313.572
1314.987, 80.296
1316.193, 7.632
1317.398, 314.148
1318.603, 128.031
1319.807, 96.013
1321.012, 233.579
1322.216, 23.406
1323.421, 247.308
1324.625, 163.833
1325.829, 11.313
1327.032, 232.502
1328.236, 101.943
1329.439, 2.285
1330.642, 349.612
1331.845, 65.329
1333.048, 136.016
1334.251, 182.081
1335.453, 74.723
1336.656, 322.722
1337.858, 153.312
1339.060, 129.874
1340.261, 327.795
1341.463, 22.305
1342.664, 175.730
1343.866, 364.586
1345.067, 5.007
1346.267, 164.327
1347.468, 219.505
1348.669, 93.834
1349.869, 342.798
1351.069, 83.059
1352.269, 227.295
1353.469, 411.180
1354.668, 87.284
1355.868, 216.286
1357.067, 220.551
1358.266, 43.574
1359.465, 340.087
1360.664, 203.051
1361.862, 155.984
1363.061, 418.699
1364.259, 196.725
1365.457, 168.568
1366.655, 250.345
1367.852, 107.126
1369.050, 228.644
1370.247, 164.382
1371.444, 19.914
1372.641, 331.759
1373.838, 144.420
1375.035, 108.918
1376.231, 254.725
1377.427, 4.567
1378.623, 234.879
1379.819, 313.139
1381.015, 103.477
1382.211, 424.670
1383.406, 234.927
1384.601, 224.036
1385.796, 415.339
1386.991, 247.081
1388.185, 265.283
1389.380, 545.182
1390.574, 130.377
1391.768, 315.138
1392.962, 467.220
1394.156, 111.189
1395.350, 377.282
1396.543, 351.325
1397.736, 139.357
1398.929, 468.949
1400.122, 205.940
1401.315, 328.109
1402.507, 472.003
1403.700, 93.081
1404.892, 279.345
1406.084, 337.274
1407.276, 189.661
1408.467, 347.709
1409.659, 335.420
1410.850, 115.914
1412.041, 565.483
1413.232, 245.435
1414.423, 278.328
1415.614, 503.530
1416.804, 168.697
1417.994, 506.204
1419.184, 458.538
1420.374, 409.715
1421.564, 1113.913
1422.753, 1013.820
1423.943, 784.390
1425.132, 865.085
1426.321, 323.924
1427.510, 402.298
1428.698, 514.188
1429.887, 59.285
1431.075, 349.751
1432.263, 311.369
1433.451, 118.357
1434.639, 399.280
1435.827, 259.022
1437.014, 79.610
1438.201, 428.358
1439.388, 83.222
1440.575, 94.729
1441.762, 486.992
1442.949, 127.345
1444.135, 192.207
1445.321, 442.512
1446.507, 45.864
1447.693, 364.682
1448.879, 203.328
1450.064, 89.140
1451.250, 396.214
1452.435, 113.835
1453.620, 14.637
1454.805, 388.796
1455.989, 64.675
1457.174, 278.246
1458.358, 318.341
1459.542, 71.933
1460.726, 398.822
1461.910, 126.673
1463.093, 3.565
1464.277, 386.179
1465.460, 229.221
1466.643, 210.914
1467.826, 443.630
1469.009, 145.627
1470.191, 260.630
1471.373, 362.587
1472.556, 43.391
1473.738, 320.621
1474.919, 307.451
1476.101, 76.342
1477.283, 539.172
1478.464, 124.396
1479.645, 142.607
1480.826, 430.889
1482.007, 133.458
1483.187, 257.689
1484.368, 372.948
1485.548, 40.256
1486.728, 351.088
1487.908, 348.709
1489.088, 9.678
1490.268, 384.511
1491.447, 112.929
1492.626, 33.725
1493.805, 552.534
1494.984, 90.320
1496.163, 146.872
1497.341, 393.469
1498.520, 6.067
1499.698, 186.270
1500.876, 382.455
1502.054, 78.497
1503.232, 354.320
1504.409, 159.137
1505.586, 6.063
1506.763, 440.588
1507.940, 256.879
1509.117, 41.228
1510.294, 518.407
1511.470, 5.857
1512.647, 200.651
1513.823, 388.860
1514.999, 38.460
1516.174, 220.002
1517.350, 315.902
1518.526, 0.000
##END=



