##NAMES=Wulfenite
##RRUFFID=R050024
##IDEAL CHEMISTRY=Pb^2+^Mo^6+^O_4_
##LOCALITY=Old Yuma mine, Tucson, Arizona, USA
##OWNER=RRUFF
##SOURCE=Eugene Schlepp
##DESCRIPTION=Orange flat tabular crystals
##STATUS=The identification of this mineral has been confirmed by X-ray diffraction.
##URL=rruff.info/R050024
##PIN_ID=L00507
##ORIENTATION=Laser parallel to c* (0 0 1). Fiducial mark perpendicular to laser is parallel to a [1 0 0]
49.365, 0.000
50.765, 22.791
52.166, 32.595
53.566, 37.709
54.966, 34.401
56.365, 50.785
57.765, 59.847
59.164, 56.233
60.563, 70.394
61.962, 48.290
63.360, 56.046
64.758, 47.862
66.157, 36.564
67.554, 44.776
68.952, 43.653
70.349, 30.642
71.747, 36.772
73.144, 48.032
74.540, 29.411
75.937, 30.899
77.333, 25.487
78.729, 16.168
80.125, 0.936
81.521, 4.215
82.916, 5.290
84.311, 8.293
85.706, 8.228
87.101, 9.099
88.496, 0.092
89.890, 6.342
91.284, 14.648
92.678, 28.006
94.071, 28.413
95.465, 47.866
96.858, 54.360
98.251, 68.895
99.644, 72.467
101.036, 88.075
102.428, 87.715
103.820, 87.389
105.212, 113.093
106.604, 108.827
107.995, 130.591
109.387, 124.384
110.777, 145.205
112.168, 133.055
113.559, 153.931
114.949, 172.835
116.339, 165.764
117.729, 171.719
119.119, 207.699
120.508, 182.704
121.897, 203.733
123.286, 198.786
124.675, 224.862
126.063, 225.962
127.452, 222.085
128.840, 232.230
130.228, 227.398
131.615, 267.587
133.003, 244.793
134.390, 262.002
135.777, 283.217
137.164, 293.440
138.550, 310.670
139.937, 327.909
141.323, 343.156
142.709, 394.411
144.094, 421.675
145.480, 473.947
146.865, 529.228
148.250, 581.518
149.635, 692.814
151.019, 760.111
152.403, 944.412
153.788, 1098.725
155.171, 1287.049
156.555, 1554.385
157.939, 1807.733
159.322, 2174.093
160.705, 2504.466
162.088, 2912.851
163.470, 3265.248
164.853, 3459.659
166.235, 3721.082
167.617, 3721.517
168.998, 3642.968
170.380, 3328.434
171.761, 2935.911
173.142, 2448.407
174.523, 2020.914
175.904, 1673.434
177.284, 1347.964
178.664, 1106.506
180.044, 899.059
181.424, 738.622
182.803, 610.199
184.183, 547.786
185.562, 464.383
186.940, 417.991
188.319, 378.612
189.698, 329.246
191.076, 293.890
192.454, 268.545
193.831, 248.212
195.209, 225.890
196.586, 205.581
197.963, 187.287
199.340, 169.002
200.717, 152.728
202.093, 170.464
203.470, 146.211
204.846, 127.970
206.221, 139.744
207.597, 117.528
208.972, 98.324
210.347, 106.127
211.722, 89.936
213.097, 107.752
214.472, 97.577
215.846, 93.892
217.220, 85.271
218.594, 85.690
219.967, 83.141
221.341, 90.613
222.714, 78.105
224.087, 67.611
225.460, 85.127
226.832, 79.655
228.204, 60.193
229.577, 72.743
230.948, 75.305
232.320, 51.861
233.692, 58.406
235.063, 64.953
236.434, 65.516
237.805, 81.092
239.175, 76.683
240.545, 84.289
241.916, 93.908
243.286, 79.540
244.655, 78.183
246.025, 78.826
247.394, 83.297
248.763, 93.749
250.132, 83.100
251.501, 100.483
252.869, 93.876
254.237, 96.603
255.605, 112.342
256.973, 107.091
258.340, 104.850
259.708, 87.617
261.075, 120.393
262.442, 107.179
263.808, 119.985
265.175, 128.809
266.541, 116.621
267.907, 122.444
269.273, 137.284
270.639, 112.124
272.004, 132.066
273.369, 151.927
274.734, 130.794
276.099, 148.752
277.463, 150.634
278.828, 156.523
280.192, 184.419
281.556, 192.326
282.919, 194.293
284.283, 213.240
285.646, 235.168
287.009, 232.620
288.372, 269.562
289.734, 282.510
291.097, 322.469
292.459, 358.434
293.821, 402.906
295.183, 456.947
296.544, 482.932
297.905, 555.954
299.266, 630.951
300.627, 703.954
301.988, 853.961
303.348, 1035.975
304.709, 1266.993
306.069, 1524.017
307.428, 1900.045
308.788, 2423.076
310.147, 3046.112
311.507, 3962.150
312.865, 4932.369
314.224, 6106.417
315.583, 6951.467
316.941, 7502.529
318.299, 7413.591
319.657, 6553.655
321.015, 5601.723
322.372, 4357.817
323.729, 3334.890
325.086, 2590.564
326.443, 1983.654
327.800, 1603.740
329.156, 1258.828
330.512, 1039.926
331.868, 888.021
333.224, 737.301
334.579, 678.449
335.935, 602.741
337.290, 561.960
338.645, 569.070
339.999, 549.519
341.354, 577.737
342.708, 681.342
344.062, 858.458
345.416, 1132.600
346.769, 1485.902
348.123, 1746.140
349.476, 1810.262
350.829, 1574.400
352.182, 1177.042
353.534, 866.170
354.887, 576.328
356.239, 426.457
357.591, 310.609
358.942, 221.799
360.294, 214.143
361.645, 146.602
362.996, 145.778
364.347, 116.272
365.698, 114.499
367.048, 98.630
368.398, 90.769
369.748, 94.901
371.098, 88.032
372.448, 77.232
373.797, 74.368
375.146, 82.547
376.495, 79.097
377.844, 77.250
379.192, 80.379
380.540, 59.509
381.889, 42.278
383.236, 58.411
384.584, 39.733
385.932, 42.919
387.279, 44.273
388.626, 38.688
389.973, 32.833
391.319, 29.995
392.666, 33.336
394.012, 35.594
395.358, 35.305
396.704, 29.473
398.049, 39.609
399.394, 17.777
400.740, 18.912
402.084, 9.635
403.429, 20.771
404.774, 11.946
406.118, 2.105
407.462, 4.436
408.806, 15.829
410.150, 1.961
411.493, 12.826
412.836, 22.153
414.179, 2.045
415.522, 1.355
416.865, 5.542
418.207, 11.126
419.549, 1.397
420.891, 9.605
422.233, 8.731
423.575, 10.568
424.916, 1.281
426.257, 2.114
427.598, 9.760
428.939, 25.792
430.279, 0.766
431.619, 7.770
432.959, 5.157
434.299, 1.638
435.639, 5.835
436.978, 4.612
438.318, 5.608
439.657, 4.984
440.996, 10.337
442.334, 0.215
443.673, 3.102
445.011, 1.970
446.349, 2.031
447.687, 12.118
449.024, 3.106
450.361, 0.272
451.699, 10.004
453.036, 22.457
454.372, 10.175
455.709, 2.192
457.045, 8.268
458.381, 0.979
459.717, 18.109
461.053, 17.569
462.388, 6.820
463.724, 11.427
465.059, 2.469
466.394, 20.036
467.728, 18.058
469.063, 9.071
470.397, 11.076
471.731, 19.379
473.065, 1.525
474.398, 18.455
475.732, 15.645
477.065, 4.193
478.398, 5.410
479.731, 16.370
481.063, 11.326
482.396, 3.276
483.728, 22.221
485.060, 6.839
486.391, 5.095
487.723, 9.028
489.054, 9.066
490.385, 8.339
491.716, 36.248
493.047, 1.151
494.377, 5.824
495.708, 1.807
497.038, 3.895
498.368, 16.771
499.697, 0.358
501.027, 4.525
502.356, 2.619
503.685, 14.226
505.014, 9.100
506.342, 2.934
507.671, 5.082
508.999, 15.902
510.327, 12.152
511.655, 2.040
512.982, 24.758
514.310, 10.551
515.637, 18.337
516.964, 9.883
518.291, 8.905
519.617, 3.664
520.944, 1.607
522.270, 10.350
523.596, 1.123
524.921, 7.850
526.247, 21.571
527.572, 15.285
528.897, 16.993
530.222, 17.695
531.547, 9.392
532.871, 16.081
534.196, 10.765
535.520, 0.443
536.844, 13.110
538.167, 23.771
539.491, 22.427
540.814, 2.924
542.137, 19.714
543.460, 5.346
544.783, 10.970
546.105, 4.588
547.427, 3.197
548.749, 15.798
550.071, 13.393
551.393, 4.981
552.714, 7.562
554.035, 1.865
555.356, 12.697
556.677, 18.253
557.998, 12.803
559.318, 22.346
560.638, 2.116
561.958, 18.410
563.278, 11.930
564.597, 13.444
565.917, 4.951
567.236, 3.451
568.555, 25.942
569.874, 4.573
571.192, 4.900
572.511, 3.635
573.829, 13.201
575.147, 10.235
576.464, 0.335
577.782, 6.084
579.099, 8.496
580.416, 20.901
581.733, 4.699
583.050, 11.688
584.366, 10.057
585.683, 5.591
586.999, 8.228
588.315, 1.120
589.630, 0.549
590.946, 9.219
592.261, 4.994
593.576, 6.310
594.891, 1.393
596.206, 4.811
597.520, 1.092
598.834, 1.364
600.148, 0.372
601.462, 11.121
602.776, 7.067
604.089, 9.727
605.402, 7.505
606.715, 2.188
608.028, 3.390
609.341, 22.415
610.653, 2.239
611.965, 1.071
613.277, 11.411
614.589, 3.327
615.901, 8.190
617.212, 2.906
618.523, 3.973
619.834, 0.861
621.145, 6.757
622.456, 3.338
623.766, 6.572
625.076, 3.508
626.386, 3.583
627.696, 3.653
629.006, 3.281
630.315, 0.223
631.624, 5.655
632.933, 2.297
634.242, 8.255
635.551, 3.227
636.859, 9.797
638.167, 2.818
639.475, 1.836
640.783, 8.825
642.090, 3.834
643.398, 0.241
644.705, 16.769
646.012, 2.781
647.318, 6.798
648.625, 6.172
649.931, 3.145
651.237, 14.069
652.543, 3.157
653.849, 5.390
655.155, 4.446
656.460, 6.391
657.765, 1.006
659.070, 7.827
660.375, 8.271
661.679, 1.797
662.984, 19.106
664.288, 9.152
665.592, 3.650
666.895, 11.434
668.199, 11.463
669.502, 0.853
670.805, 10.756
672.108, 6.627
673.411, 14.526
674.713, 1.602
676.016, 14.232
677.318, 8.091
678.620, 20.468
679.921, 2.692
681.223, 7.828
682.524, 2.613
683.825, 3.492
685.126, 22.361
686.427, 11.234
687.727, 8.107
689.028, 38.908
690.328, 13.772
691.628, 6.590
692.927, 12.035
694.227, 27.875
695.526, 18.740
696.825, 33.604
698.124, 28.828
699.423, 30.690
700.721, 34.361
702.020, 29.167
703.318, 49.807
704.616, 43.384
705.913, 18.232
707.211, 26.063
708.508, 42.716
709.805, 34.450
711.102, 32.731
712.399, 35.554
713.695, 34.410
714.992, 56.233
716.288, 25.088
717.584, 49.355
718.879, 42.210
720.175, 65.024
721.470, 57.854
722.765, 74.511
724.060, 47.106
725.355, 79.962
726.649, 73.087
727.944, 77.750
729.238, 85.940
730.532, 103.533
731.825, 97.337
733.119, 116.745
734.412, 126.466
735.705, 119.248
736.998, 149.116
738.291, 190.273
739.584, 216.115
740.876, 246.941
742.168, 267.060
743.460, 289.019
744.752, 294.568
746.043, 295.024
747.334, 318.945
748.626, 303.143
749.916, 354.944
751.207, 405.388
752.498, 440.166
753.788, 524.787
755.078, 588.434
756.368, 724.990
757.658, 866.880
758.947, 1133.755
760.237, 1388.766
761.526, 1798.928
762.815, 2371.717
764.104, 3047.568
765.392, 3501.856
766.680, 3827.419
767.969, 3509.069
769.257, 3159.102
770.544, 2523.664
771.832, 1922.936
773.119, 1567.880
774.406, 1211.451
775.693, 1015.231
776.980, 861.653
778.267, 751.641
779.553, 703.103
780.839, 632.109
782.125, 604.125
783.411, 579.148
784.697, 557.873
785.982, 576.808
787.267, 590.860
788.552, 582.702
789.837, 563.184
791.122, 540.997
792.406, 585.067
793.690, 575.142
794.974, 570.221
796.258, 590.305
797.542, 570.393
798.825, 613.484
800.108, 653.577
801.391, 628.565
802.674, 717.317
803.957, 719.433
805.239, 803.554
806.522, 884.904
807.804, 959.945
809.085, 1098.879
810.367, 1202.023
811.649, 1389.173
812.930, 1477.309
814.211, 1581.475
815.492, 1729.649
816.772, 1649.795
818.053, 1600.980
819.333, 1505.851
820.613, 1403.048
821.893, 1403.817
823.173, 1325.026
824.452, 1324.245
825.732, 1301.471
827.011, 1292.703
828.290, 1378.941
829.568, 1363.168
830.847, 1442.424
832.125, 1548.495
833.403, 1491.764
834.681, 1649.003
835.959, 1678.287
837.236, 1721.577
838.514, 1841.874
839.791, 1829.177
841.068, 1984.486
842.345, 2057.802
843.621, 2153.123
844.898, 2288.451
846.174, 2384.786
847.450, 2635.129
848.726, 2844.631
850.001, 3010.987
851.277, 3425.349
852.552, 3791.721
853.827, 4312.099
855.102, 4939.483
856.376, 5675.876
857.651, 6861.276
858.925, 8121.034
860.199, 10099.446
861.473, 12518.868
862.746, 16008.294
864.020, 22257.729
865.293, 28797.176
866.566, 38236.621
867.839, 48006.086
869.112, 50205.555
870.384, 49225.016
871.656, 39604.508
872.928, 30313.986
874.200, 22303.484
875.472, 15852.985
876.744, 11752.494
878.015, 8780.012
879.286, 6783.737
880.557, 5439.271
881.828, 4353.812
883.098, 3582.364
884.369, 3064.927
885.639, 2494.630
886.909, 2309.210
888.178, 1928.797
889.448, 1753.315
890.717, 1578.025
891.987, 1390.642
893.256, 1304.260
894.524, 1187.885
895.793, 1097.534
897.061, 1034.180
898.330, 954.138
899.598, 899.522
900.865, 875.196
902.133, 814.992
903.401, 840.682
904.668, 784.974
905.935, 770.681
907.202, 725.815
908.468, 644.746
909.735, 609.629
911.001, 564.992
912.267, 562.425
913.533, 516.272
914.799, 459.761
916.064, 495.839
917.330, 446.694
918.595, 434.557
919.860, 416.359
921.124, 390.432
922.389, 392.108
923.653, 391.462
924.918, 367.090
926.182, 362.933
927.445, 362.785
928.709, 333.643
929.972, 326.510
931.236, 293.382
932.499, 322.263
933.761, 340.150
935.024, 322.117
936.286, 330.179
937.549, 313.576
938.811, 325.093
940.073, 319.010
941.334, 321.933
942.596, 296.864
943.857, 303.802
945.118, 312.745
946.379, 284.694
947.640, 288.648
948.900, 292.607
950.161, 254.572
951.421, 298.678
952.681, 280.661
953.940, 262.650
955.200, 250.645
956.459, 227.646
957.719, 220.652
958.978, 190.667
960.236, 178.687
961.495, 164.713
962.753, 153.745
964.012, 117.781
965.270, 110.514
966.527, 88.657
967.785, 72.710
969.043, 51.768
970.300, 56.831
971.557, 50.901
972.814, 39.975
974.071, 41.056
975.327, 49.666
976.583, 34.756
977.840, 26.851
979.095, 38.231
980.351, 33.335
981.607, 45.465
982.862, 26.577
984.117, 35.696
985.372, 26.819
986.627, 19.947
987.882, 46.078
989.136, 2.252
990.390, 23.393
991.644, 39.539
992.898, 29.689
994.152, 39.844
995.405, 26.002
996.659, 16.164
997.912, 12.330
999.165, 7.500
1000.417, 22.675
1001.670, 4.858
1002.922, 14.041
1004.174, 19.228
1005.426, 9.419
1006.678, 7.613
1007.930, 12.811
1009.181, 11.987
1010.432, 10.220
1011.683, 25.430
1012.934, 12.643
1014.185, 26.862
1015.435, 14.084
1016.685, 11.310
1017.935, 8.540
1019.185, 19.772
1020.435, 11.009
1021.684, 19.249
1022.934, 8.492
1024.183, 4.738
1025.432, 28.987
1026.680, 5.238
1027.929, 7.492
1029.177, 6.251
1030.425, 10.007
1031.673, 12.267
1032.921, 17.530
1034.169, 24.797
1035.416, 3.934
1036.663, 18.336
1037.911, 3.609
1039.157, 19.117
1040.404, 2.848
1041.650, 0.422
1042.897, 8.694
1044.143, 24.971
1045.389, 0.250
1046.634, 13.530
1047.880, 6.188
1049.125, 13.907
1050.371, 12.369
1051.615, 20.353
1052.860, 13.917
1054.105, 10.812
1055.349, 3.454
1056.593, 7.278
1057.837, 21.012
1059.081, 1.756
1060.325, 10.500
1061.568, 28.249
1062.812, 0.011
1064.055, 11.773
1065.298, 21.541
1066.540, 0.680
1067.783, 0.902
1069.025, 17.123
1070.267, 2.655
1071.509, 29.435
1072.751, 7.230
1073.993, 28.030
1075.234, 12.158
1076.475, 12.346
1077.716, 15.536
1078.957, 7.726
1080.198, 21.917
1081.438, 7.108
1082.679, 15.299
1083.919, 2.491
1085.159, 0.681
1086.398, 5.130
1087.638, 6.945
1088.877, 29.234
1090.116, 9.414
1091.355, 13.593
1092.594, 33.772
1093.833, 24.951
1095.071, 25.129
1096.309, 18.308
1097.547, 24.486
1098.785, 26.665
1100.023, 2.844
1101.260, 19.792
1102.498, 35.969
1103.735, 18.146
1104.972, 33.345
1106.208, 22.520
1107.445, 27.694
1108.681, 22.868
1109.918, 32.042
1111.154, 21.310
1112.389, 35.482
1113.625, 5.348
1114.860, 6.272
1116.096, 13.434
1117.331, 32.640
1118.566, 35.807
1119.800, 20.965
1121.035, 23.150
1122.269, 27.335
1123.503, 1.511
1124.737, 26.638
1125.971, 17.784
1127.205, 3.086
1128.438, 37.250
1129.671, 11.433
1130.904, 36.572
1132.137, 23.887
1133.370, 17.022
1134.602, 59.208
1135.834, 35.339
1137.066, 11.469
1138.298, 21.072
1139.530, 15.198
1140.762, 37.493
1141.993, 36.649
1143.224, 31.768
1144.455, 42.907
1145.686, 18.044
1146.917, 32.173
1148.147, 53.927
1149.377, 16.036
1150.607, 31.272
1151.837, 47.510
1153.067, 25.631
1154.296, 41.878
1155.526, 45.009
1156.755, 62.163
1157.984, 58.090
1159.213, 45.279
1160.441, 61.374
1161.670, 57.944
1162.898, 38.027
1164.126, 79.386
1165.354, 51.517
1166.581, 71.623
1167.809, 69.034
1169.036, 47.102
1170.263, 72.362
1171.490, 61.425
1172.717, 69.484
1173.943, 53.545
1175.170, 51.613
1176.396, 72.696
1177.622, 60.658
1178.848, 38.767
1180.073, 61.829
1181.299, 70.213
1182.524, 59.251
1183.749, 67.264
1184.974, 49.299
1186.199, 61.359
1187.423, 56.655
1188.648, 29.621
1189.872, 70.743
1191.096, 65.432
1192.320, 47.479
1193.543, 64.467
1194.767, 49.511
1195.990, 37.203
1197.213, 68.583
1198.436, 48.652
1199.659, 61.524
1200.881, 47.505
1202.104, 70.889
1203.326, 57.863
1204.548, 45.520
1205.770, 65.278
1206.991, 62.222
1208.213, 64.605
1209.434, 73.876
1210.655, 48.838
1211.876, 42.102
1213.096, 61.774
1214.317, 48.717
1215.537, 64.609
1216.757, 62.543
1217.977, 29.231
1219.197, 55.302
1220.417, 54.881
1221.636, 35.571
1222.855, 62.524
1224.074, 39.681
1225.293, 41.640
1226.512, 32.666
1227.731, 28.585
1228.949, 44.503
1230.167, 46.420
1231.385, 19.273
1232.603, 35.000
1233.820, 23.596
1235.038, 29.902
1236.255, 26.802
1237.472, 18.746
1238.689, 40.643
1239.906, 38.515
1241.122, 34.383
1242.338, 60.258
1243.555, 21.289
1244.771, 22.434
1245.986, 30.290
1247.202, 5.788
1248.417, 37.077
1249.633, 29.922
1250.848, 14.761
1252.063, 33.601
1253.277, 25.474
1254.492, 22.494
1255.706, 59.323
1256.920, 9.149
1258.134, 28.971
1259.348, 23.790
1260.562, 0.988
1261.775, 31.788
1262.988, 12.593
1264.201, 19.441
1265.414, 30.240
1266.627, 15.049
1267.839, 14.930
1269.052, 22.715
1270.264, 29.032
1271.476, 37.804
1272.688, 5.594
1273.899, 16.075
1275.111, 12.915
1276.322, 23.757
1277.533, 4.505
1278.744, 30.249
1279.955, 12.023
1281.165, 24.765
1282.376, 23.528
1283.586, 1.749
1284.796, 43.974
1286.006, 4.692
1287.215, 14.500
1288.425, 36.205
1289.634, 17.907
1290.843, 17.605
1292.052, 19.299
1293.261, 7.002
1294.469, 26.769
1295.678, 6.445
1296.886, 6.194
1298.094, 18.866
1299.302, 5.533
1300.509, 15.244
1301.717, 11.904
1302.924, 13.445
1304.131, 8.432
1305.338, 22.069
1306.545, 2.297
1307.752, 39.393
1308.958, 1.016
1310.164, 12.634
1311.370, 16.247
1312.576, 0.143
1313.782, 34.478
1314.987, 3.075
1316.193, 26.666
1317.398, 42.253
1318.603, 22.836
1319.807, 20.413
1321.012, 15.987
1322.216, 6.555
1323.421, 11.120
1324.625, 18.728
1325.829, 0.712
1327.032, 22.868
1328.236, 6.412
1329.439, 21.953
1330.642, 15.517
1331.845, 2.047
1333.048, 11.577
1334.251, 6.113
1335.453, 6.366
1336.656, 14.148
1337.858, 31.657
1339.060, 13.162
1340.261, 27.662
1341.463, 6.159
1342.664, 8.654
1343.866, 28.142
1345.067, 24.630
1346.267, 31.113
1347.468, 29.595
1348.669, 6.073
1349.869, 23.548
1351.069, 4.024
1352.269, 12.497
1353.469, 27.969
1354.668, 6.443
1355.868, 14.913
1357.067, 16.381
1358.266, 8.851
1359.465, 18.318
1360.664, 32.780
1361.862, 19.239
1363.061, 33.696
1364.259, 1.157
1365.457, 5.383
1366.655, 15.079
1367.852, 0.358
1369.050, 12.097
1370.247, 4.596
1371.444, 20.045
1372.641, 19.491
1373.838, 18.936
1375.035, 15.379
1376.231, 23.812
1377.427, 0.250
1378.623, 16.673
1379.819, 19.121
1381.015, 9.671
1382.211, 17.913
1383.406, 36.608
1384.601, 28.299
1385.796, 21.984
1386.991, 0.865
1388.185, 1.467
1389.380, 38.172
1390.574, 0.170
1391.768, 19.381
1392.962, 27.029
1394.156, 24.181
1395.350, 22.765
1396.543, 14.372
1397.736, 0.028
1398.929, 23.606
1400.122, 30.033
1401.315, 39.610
1402.507, 31.024
1403.700, 5.579
1404.892, 9.627
1406.084, 40.025
1407.276, 12.582
1408.467, 25.125
1409.659, 18.712
1410.850, 5.128
1412.041, 42.506
1413.232, 8.841
1414.423, 32.794
1415.614, 16.195
1416.804, 26.088
1417.994, 4.167
1419.184, 1.181
1420.374, 37.422
1421.564, 43.924
1422.753, 12.395
1423.943, 18.677
1425.132, 13.043
1426.321, 12.021
1427.510, 32.318
1428.698, 41.442
1429.887, 1.647
1431.075, 47.013
1432.263, 30.389
1433.451, 21.659
1434.639, 27.970
1435.827, 16.404
1437.014, 1.663
1438.201, 46.869
1439.388, 3.214
1440.575, 35.404
1441.762, 27.639
1442.949, 7.010
1444.135, 38.384
1445.321, 21.460
1446.507, 3.669
1447.693, 42.393
1448.879, 19.691
1450.064, 2.943
1451.250, 31.904
1452.435, 27.148
1453.620, 23.298
1454.805, 59.617
1455.989, 11.560
1457.174, 21.252
1458.358, 26.047
1459.542, 46.305
1460.726, 30.461
1461.910, 26.265
1463.093, 14.476
1464.277, 34.446
1465.460, 24.492
1466.643, 2.556
1467.826, 12.461
1469.009, 6.470
1470.191, 29.596
1471.373, 46.557
1472.556, 6.438
1473.738, 63.511
1474.919, 57.562
1476.101, 10.617
1477.283, 38.472
1478.464, 27.625
1479.645, 21.768
1480.826, 35.587
1482.007, 23.455
1483.187, 49.553
1484.368, 43.469
1485.548, 34.714
1486.728, 50.795
1487.908, 25.623
1489.088, 12.682
1490.268, 20.655
1491.447, 33.721
1492.626, 36.782
1493.805, 66.849
1494.984, 28.915
1496.163, 36.710
1497.341, 40.609
1498.520, 11.507
1499.698, 42.561
1500.876, 46.556
1502.054, 12.606
1503.232, 40.669
1504.409, 14.739
1505.586, 13.867
1506.763, 41.017
1507.940, 27.183
1509.117, 1.638
1510.294, 39.568
1511.470, 1.831
1512.647, 13.143
1513.823, 37.511
1514.999, 18.944
1516.174, 55.449
1517.350, 24.779
1518.526, 10.741
1519.701, 38.462
1520.876, 7.933
1522.051, 0.068
1523.226, 0.000
##END=



