##NAMES=Wulfenite
##RRUFFID=R050024
##IDEAL CHEMISTRY=Pb^2+^Mo^6+^O_4_
##LOCALITY=Old Yuma mine, Tucson, Arizona, USA
##OWNER=RRUFF
##SOURCE=Eugene Schlepp
##DESCRIPTION=Orange flat tabular crystals
##STATUS=The identification of this mineral has been confirmed by X-ray diffraction.
##URL=rruff.info/R050024
##PIN_ID=L00507
##ORIENTATION=Laser parallel to c* (0 0 1). Fiducial mark perpendicular to laser is parallel to a [1 0 0]
49.365, 0.000
50.765, 17.911
52.166, 26.396
53.566, 25.611
54.966, 33.033
56.365, 38.920
57.765, 34.718
59.164, 32.269
60.563, 30.483
61.962, 32.517
63.360, 18.469
64.758, 18.621
66.157, 19.346
67.554, 15.297
68.952, 24.698
70.349, 14.158
71.747, 19.750
73.144, 17.461
74.540, 13.284
75.937, 19.209
77.333, 4.227
78.729, 5.667
80.125, 0.479
81.521, 5.214
82.916, 6.122
84.311, 8.473
85.706, 8.003
87.101, 0.472
88.496, 1.119
89.890, 7.765
91.284, 22.466
92.678, 25.217
94.071, 36.015
95.465, 54.856
96.858, 57.738
98.251, 74.658
99.644, 83.614
101.036, 77.604
102.428, 85.627
103.820, 109.681
105.212, 121.766
106.604, 122.880
107.995, 137.024
109.387, 136.196
110.777, 156.396
112.168, 163.623
113.559, 165.878
114.949, 179.159
116.339, 196.465
117.729, 196.797
119.119, 190.154
120.508, 195.534
121.897, 211.939
123.286, 198.368
124.675, 213.820
126.063, 225.295
127.452, 230.793
128.840, 245.312
130.228, 244.854
131.615, 241.417
133.003, 262.996
134.390, 255.579
135.777, 255.167
137.164, 306.762
138.550, 294.365
139.937, 338.975
141.323, 341.593
142.709, 383.219
144.094, 411.853
145.480, 444.497
146.865, 510.149
148.250, 548.808
149.635, 652.473
151.019, 734.142
152.403, 826.820
153.788, 969.509
155.171, 1171.210
156.555, 1394.923
157.939, 1648.648
159.322, 1919.387
160.705, 2204.138
162.088, 2552.906
163.470, 2828.688
164.853, 3006.481
166.235, 3155.287
167.617, 3119.105
168.998, 3084.935
170.380, 2745.780
171.761, 2433.639
173.142, 2026.510
174.523, 1721.394
175.904, 1418.294
177.284, 1138.205
178.664, 933.128
180.044, 770.061
181.424, 679.006
182.803, 543.963
184.183, 462.930
185.562, 415.908
186.940, 364.897
188.319, 338.896
189.698, 298.906
191.076, 297.926
192.454, 251.963
193.831, 236.014
195.209, 233.077
196.586, 202.154
197.963, 192.241
199.340, 184.337
200.717, 154.443
202.093, 156.560
203.470, 143.686
204.846, 142.821
206.221, 110.964
207.597, 126.116
208.972, 125.287
210.347, 110.466
211.722, 111.654
213.097, 109.852
214.472, 118.061
215.846, 131.767
217.220, 117.525
218.594, 92.316
219.967, 95.135
221.341, 123.975
222.714, 91.833
224.087, 92.704
225.460, 88.586
226.832, 90.479
228.204, 81.385
229.577, 93.308
230.948, 91.228
232.320, 88.156
233.692, 86.077
235.063, 97.014
236.434, 92.967
237.805, 109.936
239.175, 96.918
240.545, 88.916
241.916, 99.926
243.286, 82.949
244.655, 84.716
246.025, 91.724
247.394, 95.572
248.763, 115.644
250.132, 119.409
251.501, 123.218
252.869, 131.313
254.237, 123.427
255.605, 129.550
256.973, 136.683
258.340, 120.825
259.708, 138.980
261.075, 133.147
262.442, 167.325
263.808, 148.512
265.175, 143.794
266.541, 144.049
267.907, 146.262
269.273, 150.546
270.639, 151.774
272.004, 165.312
273.369, 159.562
274.734, 180.903
276.099, 163.214
277.463, 194.514
278.828, 212.793
280.192, 192.088
281.556, 216.388
282.919, 238.701
284.283, 252.054
285.646, 265.376
287.009, 286.706
288.372, 330.046
289.734, 344.723
291.097, 370.077
292.459, 437.562
293.821, 451.937
295.183, 522.318
296.544, 568.705
297.905, 638.096
299.266, 724.861
300.627, 814.264
301.988, 983.670
303.348, 1138.081
304.709, 1398.499
306.069, 1671.920
307.428, 2096.355
308.788, 2687.793
310.147, 3405.235
311.507, 4395.696
312.865, 5469.145
314.224, 6608.603
315.583, 7480.063
316.941, 7652.534
318.299, 7420.008
319.657, 6509.484
321.015, 5476.963
322.372, 4266.448
323.729, 3350.937
325.086, 2632.445
326.443, 2054.940
327.800, 1611.456
329.156, 1318.962
330.512, 1071.476
331.868, 877.438
333.224, 763.261
334.579, 692.912
335.935, 610.435
337.290, 548.961
338.645, 489.167
339.999, 443.704
341.354, 494.362
342.708, 483.906
344.062, 569.445
345.416, 652.986
346.769, 830.528
348.123, 1000.201
349.476, 1046.755
350.829, 971.302
352.182, 683.082
353.534, 506.631
354.887, 313.244
356.239, 255.794
357.591, 217.346
358.942, 157.899
360.294, 130.452
361.645, 132.127
362.996, 108.736
364.347, 102.476
365.698, 87.031
367.048, 81.697
368.398, 45.252
369.748, 88.973
371.098, 66.528
372.448, 71.087
373.797, 53.334
375.146, 50.923
376.495, 66.702
377.844, 57.332
379.192, 74.889
380.540, 53.522
381.889, 56.865
383.236, 64.425
384.584, 40.103
385.932, 58.665
387.279, 40.302
388.626, 39.957
389.973, 31.525
391.319, 32.102
392.666, 34.671
394.012, 36.681
395.358, 42.066
396.704, 38.914
398.049, 17.811
399.394, 20.616
400.740, 16.216
402.084, 9.226
403.429, 0.794
404.774, 12.562
406.118, 12.462
407.462, 9.197
408.806, 13.279
410.150, 13.851
411.493, 20.664
412.836, 1.325
414.179, 11.906
415.522, 26.533
416.865, 12.125
418.207, 9.906
419.549, 11.619
420.891, 3.987
422.233, 8.548
423.575, 14.800
424.916, 8.688
426.257, 5.559
427.598, 3.938
428.939, 4.025
430.279, 4.404
431.619, 2.453
432.959, 11.997
434.299, 12.190
435.639, 4.990
436.978, 3.299
438.318, 2.091
439.657, 3.440
440.996, 2.047
442.334, 3.608
443.673, 0.106
445.011, 2.257
446.349, 8.355
447.687, 15.383
449.024, 10.863
450.361, 9.633
451.699, 13.000
453.036, 4.291
454.372, 18.495
455.709, 13.542
457.045, 7.082
458.381, 4.645
459.717, 7.704
461.053, 17.219
462.388, 16.682
463.724, 7.140
465.059, 19.235
466.394, 7.685
467.728, 14.255
469.063, 9.697
470.397, 33.147
471.731, 0.580
473.065, 9.008
474.398, 15.471
475.732, 6.890
477.065, 20.514
478.398, 11.924
479.731, 25.329
481.063, 8.742
482.396, 11.144
483.728, 15.234
485.060, 4.657
486.391, 28.037
487.723, 6.564
489.054, 20.934
490.385, 26.251
491.716, 2.390
493.047, 0.040
494.377, 3.302
495.708, 17.637
497.038, 12.211
498.368, 5.465
499.697, 12.549
501.027, 4.856
502.356, 12.156
503.685, 14.451
505.014, 26.740
506.342, 16.023
507.671, 5.301
508.999, 12.572
510.327, 20.837
511.655, 3.144
512.982, 25.395
514.310, 8.678
515.637, 28.917
516.964, 17.150
518.291, 19.378
519.617, 16.600
520.944, 6.816
522.270, 10.025
523.596, 11.772
524.921, 32.414
526.247, 7.595
527.572, 17.769
528.897, 5.937
530.222, 23.097
531.547, 17.251
532.871, 3.600
534.196, 12.537
535.520, 4.667
536.844, 9.789
538.167, 20.905
539.491, 10.015
540.814, 4.882
542.137, 20.208
543.460, 8.293
544.783, 32.370
546.105, 10.441
547.427, 9.506
548.749, 18.564
550.071, 8.384
551.393, 18.653
552.714, 0.684
554.035, 5.295
555.356, 3.713
556.677, 2.712
557.998, 4.702
559.318, 13.684
560.638, 0.660
561.958, 25.625
563.278, 5.585
564.597, 2.537
565.917, 6.479
567.236, 0.586
568.555, 18.339
569.874, 4.257
571.192, 9.167
572.511, 16.071
573.829, 10.968
575.147, 13.858
576.464, 4.743
577.782, 6.619
579.099, 5.512
580.416, 8.656
581.733, 3.814
583.050, 2.015
584.366, 4.835
585.683, 9.563
586.999, 0.317
588.315, 13.113
589.630, 1.841
590.946, 15.622
592.261, 19.904
593.576, 1.852
594.891, 4.515
596.206, 4.791
597.520, 14.911
598.834, 27.365
600.148, 9.334
601.462, 9.972
602.776, 4.705
604.089, 5.342
605.402, 2.992
606.715, 10.335
608.028, 20.307
609.341, 13.388
610.653, 14.765
611.965, 16.280
613.277, 4.690
614.589, 4.889
615.901, 3.463
617.212, 1.032
618.523, 3.777
619.834, 18.775
621.145, 13.323
622.456, 7.135
623.766, 10.397
625.076, 31.075
626.386, 10.429
627.696, 4.929
629.006, 12.424
630.315, 7.901
631.624, 14.613
632.933, 7.860
634.242, 17.672
635.551, 15.781
636.859, 6.231
638.167, 1.676
639.475, 2.116
640.783, 10.447
642.090, 0.022
643.398, 11.385
644.705, 18.198
646.012, 13.193
647.318, 15.407
648.625, 1.979
649.931, 1.917
651.237, 0.991
652.543, 22.237
653.849, 5.391
655.155, 15.976
656.460, 13.339
657.765, 6.011
659.070, 5.239
660.375, 7.578
661.679, 35.922
662.984, 8.262
664.288, 12.599
665.592, 25.804
666.895, 29.126
668.199, 2.546
669.502, 14.547
670.805, 2.130
672.108, 20.127
673.411, 3.444
674.713, 14.758
676.016, 8.070
677.318, 24.380
678.620, 31.567
679.921, 11.819
681.223, 20.937
682.524, 35.239
683.825, 9.427
685.126, 21.727
686.427, 43.859
687.727, 37.155
689.028, 10.448
690.328, 7.050
691.628, 41.314
692.927, 23.387
694.227, 46.605
695.526, 43.899
696.825, 35.117
698.124, 46.624
699.423, 77.915
700.721, 65.089
702.020, 46.380
703.318, 50.597
704.616, 47.795
705.913, 53.081
707.211, 54.357
708.508, 58.641
709.805, 34.485
711.102, 54.953
712.399, 59.958
713.695, 65.915
714.992, 82.964
716.288, 60.217
717.584, 106.060
718.879, 93.345
720.175, 82.432
721.470, 93.385
722.765, 91.505
724.060, 107.278
725.355, 115.561
726.649, 123.604
727.944, 153.798
729.238, 138.076
730.532, 161.307
731.825, 152.573
733.119, 196.650
734.412, 174.794
735.705, 201.283
736.998, 221.580
738.291, 265.186
739.584, 270.156
740.876, 296.261
742.168, 348.496
743.460, 371.390
744.752, 392.676
746.043, 446.675
747.334, 476.981
748.626, 492.648
749.916, 603.682
751.207, 702.844
752.498, 788.493
753.788, 947.818
755.078, 1105.067
756.368, 1367.363
757.658, 1722.727
758.947, 2182.951
760.237, 2839.204
761.526, 3650.039
762.815, 4827.429
764.104, 5954.794
765.392, 6879.028
766.680, 7226.193
767.969, 6350.282
769.257, 5478.114
770.544, 4345.452
771.832, 3277.766
773.119, 2705.994
774.406, 2153.945
775.693, 1803.357
776.980, 1495.780
778.267, 1218.567
779.553, 1180.997
780.839, 1042.310
782.125, 1058.751
783.411, 1006.190
784.697, 954.646
785.982, 984.106
787.267, 922.531
788.552, 930.000
789.837, 947.266
791.122, 838.746
792.406, 884.231
793.690, 830.712
794.974, 797.204
796.258, 817.007
797.542, 785.478
798.825, 782.991
800.108, 823.357
801.391, 811.880
802.674, 848.455
803.957, 831.988
805.239, 926.529
806.522, 922.076
807.804, 972.629
809.085, 1101.943
810.367, 1186.507
811.649, 1329.379
812.930, 1465.957
814.211, 1512.541
815.492, 1603.131
816.772, 1494.729
818.053, 1486.334
819.333, 1363.944
820.613, 1321.564
821.893, 1279.190
823.173, 1186.774
824.452, 1227.413
825.732, 1240.021
827.011, 1182.672
828.290, 1232.329
829.568, 1247.102
830.847, 1270.774
832.125, 1340.462
833.403, 1299.147
834.681, 1485.838
835.959, 1468.540
837.236, 1541.252
838.514, 1575.363
839.791, 1619.088
841.068, 1700.883
842.345, 1770.916
843.621, 1828.661
844.898, 2025.617
846.174, 2102.377
847.450, 2247.146
848.726, 2479.027
850.001, 2645.809
851.277, 3011.598
852.552, 3176.396
853.827, 3716.200
855.102, 4246.526
856.376, 4864.347
857.651, 5909.172
858.925, 7012.002
860.199, 8681.840
861.473, 10742.691
862.746, 13921.597
864.020, 19280.459
865.293, 24909.346
866.566, 32918.234
867.839, 40637.121
869.112, 42206.008
870.384, 40494.918
871.656, 32613.830
872.928, 25222.996
874.200, 18551.924
875.472, 13270.859
876.744, 9789.805
878.015, 7305.755
879.286, 5819.715
880.557, 4549.681
881.828, 3645.955
883.098, 3026.936
884.369, 2543.924
885.639, 2153.918
886.909, 1910.920
888.178, 1582.930
889.448, 1501.236
890.717, 1350.267
891.987, 1104.541
893.256, 1066.591
894.524, 972.648
895.793, 906.913
897.061, 881.986
898.330, 762.065
899.598, 753.153
900.865, 715.247
902.133, 696.517
903.401, 686.633
904.668, 677.653
905.935, 618.786
907.202, 572.927
908.468, 524.349
909.735, 537.755
911.001, 474.928
912.267, 469.999
913.533, 448.187
914.799, 391.630
916.064, 404.837
917.330, 385.170
918.595, 358.115
919.860, 358.351
921.124, 310.632
922.389, 344.888
923.653, 296.173
924.918, 308.442
926.182, 316.719
927.445, 266.003
928.709, 309.837
929.972, 268.133
931.236, 299.439
932.499, 276.279
933.761, 242.605
935.024, 256.450
936.286, 277.788
937.549, 217.133
938.811, 257.483
940.073, 254.843
941.334, 269.757
942.596, 272.134
943.857, 266.516
945.118, 260.858
946.379, 262.251
947.640, 248.650
948.900, 254.057
950.161, 221.470
951.421, 252.888
952.681, 228.317
953.940, 178.750
955.200, 203.194
956.459, 178.642
957.719, 184.107
958.978, 150.566
960.236, 122.030
961.495, 136.500
962.753, 104.975
964.012, 62.459
965.270, 62.948
966.527, 71.442
967.785, 79.667
969.043, 48.171
970.300, 4.742
971.557, 12.953
972.814, 29.471
974.071, 8.999
975.327, 37.532
976.583, 3.070
977.840, 63.618
979.095, 13.165
980.351, 6.284
981.607, 44.871
982.862, 0.570
984.117, 37.992
985.372, 9.559
986.627, 9.130
987.882, 5.543
989.136, 13.877
990.390, 31.702
991.644, 3.632
992.898, 11.041
994.152, 24.550
995.405, 29.854
996.659, 6.734
997.912, 7.327
999.165, 4.980
1000.417, 17.619
1001.670, 25.222
1002.922, 31.829
1004.174, 15.440
1005.426, 14.946
1006.678, 0.667
1007.930, 6.284
1009.181, 5.904
1010.432, 3.527
1011.683, 8.153
1012.934, 2.218
1014.185, 18.414
1015.435, 0.048
1016.685, 18.691
1017.935, 17.337
1019.185, 13.986
1020.435, 30.642
1021.684, 22.302
1022.934, 7.036
1024.183, 18.628
1025.432, 30.294
1026.680, 18.967
1027.929, 6.646
1029.177, 1.323
1030.425, 13.004
1031.673, 7.314
1032.921, 26.371
1034.169, 7.064
1035.416, 3.759
1036.663, 24.458
1037.911, 7.160
1039.157, 6.136
1040.404, 41.569
1041.650, 4.723
1042.897, 2.984
1044.143, 9.692
1045.389, 3.597
1046.634, 14.113
1047.880, 11.825
1049.125, 19.539
1050.371, 19.254
1051.615, 2.029
1052.860, 12.688
1054.105, 15.594
1055.349, 11.118
1056.593, 13.830
1057.837, 3.454
1059.081, 20.740
1060.325, 27.965
1061.568, 14.328
1062.812, 31.371
1064.055, 19.929
1065.298, 12.761
1066.540, 0.451
1067.783, 26.858
1069.025, 24.819
1070.267, 15.504
1071.509, 10.164
1072.751, 3.832
1073.993, 13.500
1075.234, 20.169
1076.475, 21.837
1077.716, 22.490
1078.957, 23.169
1080.198, 10.828
1081.438, 5.444
1082.679, 33.213
1083.919, 21.091
1085.159, 15.680
1086.398, 10.323
1087.638, 12.966
1088.877, 18.609
1090.116, 4.750
1091.355, 13.887
1092.594, 32.523
1093.833, 10.842
1095.071, 31.785
1096.309, 13.410
1097.547, 21.038
1098.785, 32.665
1100.023, 15.291
1101.260, 31.917
1102.498, 50.542
1103.735, 52.165
1104.972, 40.788
1106.208, 9.410
1107.445, 19.073
1108.681, 44.693
1109.918, 19.311
1111.154, 25.929
1112.389, 29.545
1113.625, 16.238
1114.860, 44.986
1116.096, 4.402
1117.331, 25.288
1118.566, 8.891
1119.800, 3.510
1121.035, 41.103
1122.269, 37.895
1123.503, 15.552
1124.737, 29.159
1125.971, 13.744
1127.205, 36.364
1128.438, 31.945
1129.671, 0.586
1130.904, 48.994
1132.137, 32.553
1133.370, 29.124
1134.602, 21.689
1135.834, 3.748
1137.066, 27.822
1138.298, 19.131
1139.530, 11.717
1140.762, 68.039
1141.993, 27.288
1143.224, 47.871
1144.455, 43.265
1145.686, 37.800
1146.917, 11.424
1148.147, 48.006
1149.377, 39.641
1150.607, 42.299
1151.837, 32.835
1153.067, 54.355
1154.296, 71.600
1155.526, 25.112
1156.755, 60.625
1157.984, 95.133
1159.213, 46.638
1160.441, 92.160
1161.670, 23.633
1162.898, 60.141
1164.126, 72.921
1165.354, 33.419
1166.581, 87.919
1167.809, 59.642
1169.036, 65.131
1170.263, 88.786
1171.490, 59.119
1172.717, 82.705
1173.943, 79.154
1175.170, 25.631
1176.396, 67.092
1177.622, 69.550
1178.848, 51.004
1180.073, 102.912
1181.299, 70.814
1182.524, 75.256
1183.749, 79.918
1184.974, 69.718
1186.199, 110.207
1187.423, 76.902
1188.648, 75.368
1189.872, 97.571
1191.096, 40.000
1192.320, 52.411
1193.543, 84.730
1194.767, 55.205
1195.990, 76.603
1197.213, 67.193
1198.436, 37.582
1199.659, 74.807
1200.881, 64.323
1202.104, 70.803
1203.326, 48.176
1204.548, 74.058
1205.770, 100.182
1206.991, 111.553
1208.213, 82.056
1209.434, 92.516
1210.655, 64.905
1211.876, 89.999
1213.096, 88.336
1214.317, 35.994
1215.537, 56.614
1216.757, 48.938
1217.977, 65.248
1219.197, 72.563
1220.417, 89.885
1221.636, 34.196
1222.855, 83.498
1224.074, 58.692
1225.293, 47.442
1226.512, 97.732
1227.731, 21.708
1228.949, 96.539
1230.167, 24.941
1231.385, 15.700
1232.603, 59.965
1233.820, 54.227
1235.038, 60.483
1236.255, 63.735
1237.472, 53.498
1238.689, 54.841
1239.906, 59.084
1241.122, 40.381
1242.338, 63.619
1243.555, 37.520
1244.771, 44.752
1245.986, 61.980
1247.202, 35.385
1248.417, 42.607
1249.633, 46.825
1250.848, 50.040
1252.063, 74.252
1253.277, 25.504
1254.492, 59.873
1255.706, 46.068
1256.920, 50.261
1258.134, 40.451
1259.348, 21.659
1260.562, 16.868
1261.775, 69.042
1262.988, 20.486
1264.201, 36.737
1265.414, 61.836
1266.627, 31.322
1267.839, 9.524
1269.052, 22.620
1270.264, 31.761
1271.476, 45.932
1272.688, 28.061
1273.899, 49.241
1275.111, 73.353
1276.322, 34.861
1277.533, 44.985
1278.744, 36.081
1279.955, 41.183
1281.165, 52.287
1282.376, 32.519
1283.586, 14.599
1284.796, 27.695
1286.006, 4.335
1287.215, 36.801
1288.425, 26.871
1289.634, 23.906
1290.843, 55.943
1292.052, 19.975
1293.261, 14.090
1294.469, 18.109
1295.678, 16.122
1296.886, 34.293
1298.094, 41.294
1299.302, 9.291
1300.509, 58.285
1301.717, 37.275
1302.924, 47.253
1304.131, 49.233
1305.338, 33.198
1306.545, 32.156
1307.752, 35.111
1308.958, 11.938
1310.164, 36.009
1311.370, 34.944
1312.576, 11.131
1313.782, 35.783
1314.987, 12.692
1316.193, 18.595
1317.398, 18.243
1318.603, 6.865
1319.807, 36.017
1321.012, 60.891
1322.216, 38.763
1323.421, 40.634
1324.625, 3.505
1325.829, 14.651
1327.032, 53.191
1328.236, 10.027
1329.439, 3.857
1330.642, 24.681
1331.845, 0.501
1333.048, 28.310
1334.251, 34.116
1335.453, 34.917
1336.656, 39.790
1337.858, 17.579
1339.060, 22.362
1340.261, 52.212
1341.463, 10.985
1342.664, 45.752
1343.866, 53.514
1345.067, 15.273
1346.267, 62.026
1347.468, 38.779
1348.669, 0.472
1349.869, 31.255
1351.069, 6.978
1352.269, 13.701
1353.469, 49.419
1354.668, 27.135
1355.868, 39.847
1357.067, 73.560
1358.266, 0.268
1359.465, 33.968
1360.664, 47.669
1361.862, 31.366
1363.061, 55.062
1364.259, 28.753
1365.457, 35.441
1366.655, 48.124
1367.852, 7.195
1369.050, 46.479
1370.247, 38.432
1371.444, 3.892
1372.641, 19.713
1373.838, 14.387
1375.035, 60.022
1376.231, 39.537
1377.427, 36.167
1378.623, 50.781
1379.819, 56.386
1381.015, 21.394
1382.211, 17.398
1383.406, 53.405
1384.601, 33.402
1385.796, 73.394
1386.991, 3.621
1388.185, 43.360
1389.380, 59.289
1390.574, 10.258
1391.768, 54.135
1392.962, 43.945
1394.156, 58.808
1395.350, 51.742
1396.543, 21.260
1397.736, 10.173
1398.929, 53.063
1400.122, 36.984
1401.315, 43.909
1402.507, 30.834
1403.700, 29.564
1404.892, 60.425
1406.084, 43.283
1407.276, 18.118
1408.467, 57.709
1409.659, 29.299
1410.850, 61.168
1412.041, 59.737
1413.232, 41.611
1414.423, 27.458
1415.614, 54.280
1416.804, 20.386
1417.994, 75.520
1419.184, 48.082
1420.374, 27.588
1421.564, 30.987
1422.753, 28.771
1423.943, 25.453
1425.132, 68.084
1426.321, 23.946
1427.510, 17.747
1428.698, 44.361
1429.887, 10.041
1431.075, 20.447
1432.263, 45.829
1433.451, 45.513
1434.639, 71.976
1435.827, 1.804
1437.014, 36.992
1438.201, 76.393
1439.388, 2.965
1440.575, 31.830
1441.762, 87.435
1442.949, 33.018
1444.135, 27.569
1445.321, 61.525
1446.507, 22.110
1447.693, 49.219
1448.879, 35.527
1450.064, 47.074
1451.250, 64.618
1452.435, 19.825
1453.620, 75.307
1454.805, 67.385
1455.989, 35.830
1457.174, 57.863
1458.358, 75.265
1459.542, 10.479
1460.726, 62.512
1461.910, 47.866
1463.093, 47.081
1464.277, 69.410
1465.460, 16.509
1466.643, 82.732
1467.826, 61.000
1469.009, 23.151
1470.191, 58.264
1471.373, 89.476
1472.556, 34.720
1473.738, 97.965
1474.919, 49.133
1476.101, 28.185
1477.283, 103.413
1478.464, 1.716
1479.645, 42.400
1480.826, 76.126
1482.007, 1.405
1483.187, 65.664
1484.368, 54.934
1485.548, 33.256
1486.728, 64.566
1487.908, 33.841
1489.088, 65.184
1490.268, 91.534
1491.447, 49.378
1492.626, 80.602
1493.805, 27.797
1494.984, 26.015
1496.163, 60.235
1497.341, 57.456
1498.520, 40.674
1499.698, 61.899
1500.876, 47.608
1502.054, 12.323
1503.232, 47.526
1504.409, 36.708
1505.586, 30.867
1506.763, 84.133
1507.940, 32.550
1509.117, 63.996
1510.294, 48.477
1511.470, 2.965
1512.647, 55.769
1513.823, 37.648
1514.999, 25.711
1516.174, 59.993
1517.350, 7.160
1518.526, 9.394
1519.701, 54.439
1520.876, 0.000
##END=



