##NAMES=Wulfenite
##RRUFFID=R050024
##IDEAL CHEMISTRY=Pb^2+^Mo^6+^O_4_
##LOCALITY=Old Yuma mine, Tucson, Arizona, USA
##OWNER=RRUFF
##SOURCE=Eugene Schlepp
##DESCRIPTION=Orange flat tabular crystals
##STATUS=The identification of this mineral has been confirmed by X-ray diffraction.
##URL=rruff.info/R050024
##PIN_ID=L00507
##ORIENTATION=Laser parallel to c* (0 0 1). Fiducial mark perpendicular to laser is parallel to a [1 0 0]
49.365, 0.000
50.765, 4.986
52.166, 14.409
53.566, 17.056
54.966, 10.702
56.365, 20.559
57.765, 15.178
59.164, 24.800
60.563, 21.833
61.962, 24.369
63.360, 18.592
64.758, 16.621
66.157, 15.589
67.554, 17.830
68.952, 22.179
70.349, 11.006
71.747, 27.957
73.144, 27.022
74.540, 25.194
75.937, 19.465
77.333, 11.828
78.729, 4.276
80.125, 7.805
81.521, 14.589
82.916, 4.912
84.311, 1.833
85.706, 10.356
87.101, 7.483
88.496, 6.451
89.890, 17.442
91.284, 30.489
92.678, 40.588
94.071, 39.736
95.465, 65.929
96.858, 82.165
98.251, 88.442
99.644, 91.756
101.036, 105.106
102.428, 123.490
103.820, 145.906
105.212, 154.354
106.604, 138.834
107.995, 179.344
109.387, 164.885
110.777, 191.455
112.168, 202.053
113.559, 227.680
114.949, 221.336
116.339, 231.018
117.729, 259.728
119.119, 244.465
120.508, 263.228
121.897, 267.016
123.286, 273.831
124.675, 288.671
126.063, 278.537
127.452, 284.428
128.840, 292.343
130.228, 301.282
131.615, 322.245
133.003, 327.227
134.390, 336.217
135.777, 335.214
137.164, 370.221
138.550, 376.236
139.937, 411.261
141.323, 415.294
142.709, 442.336
144.094, 486.387
145.480, 540.447
146.865, 581.517
148.250, 641.597
149.635, 747.675
151.019, 841.760
152.403, 1006.849
153.788, 1179.950
155.171, 1373.065
156.555, 1599.193
157.939, 1903.333
159.322, 2252.488
160.705, 2598.658
162.088, 2920.847
163.470, 3270.050
164.853, 3530.265
166.235, 3685.496
167.617, 3679.740
168.998, 3587.998
170.380, 3150.269
171.761, 2800.553
173.142, 2323.853
174.523, 1927.165
175.904, 1596.491
177.284, 1286.830
178.664, 1096.185
180.044, 877.553
181.424, 736.937
182.803, 611.338
184.183, 557.750
185.562, 481.176
186.940, 425.614
188.319, 391.064
189.698, 336.527
191.076, 349.002
192.454, 310.488
193.831, 282.993
195.209, 287.517
196.586, 263.053
197.963, 224.601
199.340, 200.162
200.717, 202.741
202.093, 200.331
203.470, 203.930
204.846, 183.541
206.221, 170.163
207.597, 173.796
208.972, 172.440
210.347, 144.097
211.722, 170.763
213.097, 143.438
214.472, 153.122
215.846, 147.380
217.220, 137.672
218.594, 128.986
219.967, 121.318
221.341, 124.662
222.714, 116.020
224.087, 132.385
225.460, 127.755
226.832, 122.130
228.204, 128.515
229.577, 118.910
230.948, 100.316
232.320, 113.689
233.692, 127.062
235.063, 112.441
236.434, 117.839
237.805, 139.253
239.175, 111.682
240.545, 121.128
241.916, 125.590
243.286, 114.067
244.655, 133.557
246.025, 159.078
247.394, 135.796
248.763, 122.076
250.132, 145.624
251.501, 144.715
252.869, 137.990
254.237, 153.573
255.605, 152.166
256.973, 155.771
258.340, 144.385
259.708, 155.048
261.075, 171.685
262.442, 150.333
263.808, 153.989
265.175, 151.688
266.541, 151.368
267.907, 179.061
269.273, 180.770
270.639, 171.889
272.004, 161.729
273.369, 178.556
274.734, 169.303
276.099, 181.060
277.463, 199.830
278.828, 217.613
280.192, 211.473
281.556, 228.273
282.919, 236.082
284.283, 259.901
285.646, 284.730
287.009, 284.566
288.372, 345.410
289.734, 358.260
291.097, 384.123
292.459, 440.069
293.821, 494.945
295.183, 504.828
296.544, 574.717
297.905, 689.617
299.266, 756.550
300.627, 872.464
301.988, 988.384
303.348, 1177.309
304.709, 1403.508
306.069, 1750.455
307.428, 2147.415
308.788, 2791.379
310.147, 3533.350
311.507, 4595.826
312.865, 5637.812
314.224, 6946.803
315.583, 7807.799
316.941, 7997.801
318.299, 7796.814
319.657, 6863.832
321.015, 5640.860
322.372, 4427.893
323.729, 3475.929
325.086, 2668.971
326.443, 2078.020
327.800, 1663.075
329.156, 1367.135
330.512, 1111.199
331.868, 907.266
333.224, 827.337
334.579, 735.679
335.935, 650.278
337.290, 624.802
338.645, 598.894
339.999, 619.069
341.354, 687.188
342.708, 740.290
344.062, 967.394
345.416, 1298.501
346.769, 1645.094
348.123, 1942.636
349.476, 1913.751
350.829, 1642.869
352.182, 1189.988
353.534, 831.110
354.887, 574.300
356.239, 405.425
357.591, 311.594
358.942, 229.846
360.294, 222.977
361.645, 170.150
362.996, 170.285
364.347, 132.422
365.698, 135.146
367.048, 124.286
368.398, 99.462
369.748, 105.605
371.098, 108.748
372.448, 112.928
373.797, 87.072
375.146, 62.250
376.495, 89.507
377.844, 80.063
379.192, 78.290
380.540, 84.442
381.889, 59.595
383.236, 68.751
384.584, 67.174
385.932, 64.334
387.279, 59.496
388.626, 62.660
389.973, 56.945
391.319, 32.194
392.666, 38.475
394.012, 54.680
395.358, 54.628
396.704, 44.917
398.049, 15.973
399.394, 40.258
400.740, 9.582
402.084, 26.270
403.429, 16.658
404.774, 21.394
406.118, 30.576
407.462, 1.883
408.806, 17.428
410.150, 11.078
411.493, 23.257
412.836, 5.446
414.179, 0.362
415.522, 27.989
416.865, 3.392
418.207, 2.686
419.549, 11.878
420.891, 3.663
422.233, 44.107
423.575, 22.310
424.916, 15.500
426.257, 3.311
427.598, 4.200
428.939, 1.615
430.279, 5.249
431.619, 16.452
432.959, 7.272
434.299, 5.921
435.639, 6.380
436.978, 1.979
438.318, 17.613
439.657, 11.841
440.996, 4.463
442.334, 3.844
443.673, 11.357
445.011, 18.154
446.349, 6.048
447.687, 1.481
449.024, 8.697
450.361, 0.968
451.699, 30.568
453.036, 4.278
454.372, 5.202
455.709, 12.504
457.045, 27.689
458.381, 20.221
459.717, 1.613
461.053, 26.116
462.388, 4.276
463.724, 17.409
465.059, 8.432
466.394, 15.207
467.728, 13.011
469.063, 15.182
470.397, 22.624
471.731, 10.272
473.065, 18.889
474.398, 13.974
475.732, 7.064
477.065, 19.534
478.398, 17.176
479.731, 26.245
481.063, 22.471
482.396, 19.531
483.728, 26.596
485.060, 32.948
486.391, 26.532
487.723, 23.098
489.054, 10.206
490.385, 15.238
491.716, 7.265
493.047, 12.288
494.377, 1.695
495.708, 5.479
497.038, 3.701
498.368, 15.884
499.697, 2.870
501.027, 5.849
502.356, 35.823
503.685, 19.791
505.014, 12.754
506.342, 3.289
507.671, 2.304
508.999, 15.635
510.327, 20.568
511.655, 17.495
512.982, 20.417
514.310, 5.334
515.637, 39.244
516.964, 7.149
518.291, 4.047
519.617, 15.939
520.944, 7.855
522.270, 18.735
523.596, 36.802
524.921, 3.329
526.247, 32.528
527.572, 9.380
528.897, 15.225
530.222, 18.065
531.547, 9.899
532.871, 25.727
534.196, 10.548
535.520, 6.364
536.844, 0.173
538.167, 7.972
539.491, 31.764
540.814, 19.550
542.137, 38.331
543.460, 3.106
544.783, 22.872
546.105, 28.632
547.427, 35.386
548.749, 7.134
550.071, 8.875
551.393, 7.609
552.714, 12.336
554.035, 4.943
555.356, 7.764
556.677, 6.536
557.998, 8.151
559.318, 6.830
560.638, 0.499
561.958, 5.162
563.278, 1.186
564.597, 19.456
565.917, 2.091
567.236, 7.701
568.555, 0.319
569.874, 8.074
571.192, 38.519
572.511, 23.106
573.829, 6.681
575.147, 5.254
576.464, 8.818
577.782, 30.375
579.099, 3.926
580.416, 1.569
581.733, 15.962
583.050, 19.487
584.366, 20.005
585.683, 13.516
586.999, 12.022
588.315, 15.544
589.630, 7.915
590.946, 19.966
592.261, 11.703
593.576, 6.639
594.891, 0.061
596.206, 16.526
597.520, 10.133
598.834, 1.754
600.148, 5.546
601.462, 0.907
602.776, 3.742
604.089, 5.402
605.402, 1.925
606.715, 8.243
608.028, 5.555
609.341, 17.139
610.653, 13.148
611.965, 0.351
613.277, 3.623
614.589, 7.888
615.901, 16.853
617.212, 8.388
618.523, 4.404
619.834, 7.820
621.145, 10.039
622.456, 11.749
623.766, 19.815
625.076, 22.635
626.386, 4.524
627.696, 1.322
629.006, 8.824
630.315, 13.536
631.624, 12.590
632.933, 6.711
634.242, 3.174
635.551, 22.067
636.859, 13.021
638.167, 15.895
639.475, 20.174
640.783, 4.237
642.090, 2.704
643.398, 6.652
644.705, 6.611
646.012, 0.422
647.318, 8.448
648.625, 19.470
649.931, 5.487
651.237, 8.501
652.543, 2.758
653.849, 12.274
655.155, 9.721
656.460, 9.260
657.765, 2.157
659.070, 1.111
660.375, 4.080
661.679, 13.046
662.984, 8.008
664.288, 1.517
665.592, 8.007
666.895, 26.957
668.199, 20.904
669.502, 14.848
670.805, 13.789
672.108, 27.660
673.411, 29.594
674.713, 2.484
676.016, 25.289
677.318, 1.787
678.620, 21.094
679.921, 6.987
681.223, 32.927
682.524, 25.252
683.825, 16.160
685.126, 54.029
686.427, 18.931
687.727, 10.831
689.028, 39.695
690.328, 15.594
691.628, 78.460
692.927, 37.246
694.227, 24.730
695.526, 44.544
696.825, 3.435
698.124, 33.323
699.423, 23.209
700.721, 47.829
702.020, 26.712
703.318, 32.592
704.616, 37.471
705.913, 49.229
707.211, 22.024
708.508, 19.786
709.805, 43.625
711.102, 73.721
712.399, 51.477
713.695, 29.464
714.992, 38.224
716.288, 41.947
717.584, 54.306
718.879, 23.965
720.175, 69.276
721.470, 72.141
722.765, 71.647
724.060, 90.385
725.355, 53.785
726.649, 91.657
727.944, 80.520
729.238, 73.383
730.532, 119.086
731.825, 100.740
733.119, 123.504
734.412, 103.368
735.705, 118.967
736.998, 157.254
738.291, 158.108
739.584, 162.979
740.876, 189.850
742.168, 191.400
743.460, 254.054
744.752, 253.490
746.043, 288.260
747.334, 322.150
748.626, 294.867
749.916, 370.634
751.207, 404.104
752.498, 484.536
753.788, 547.380
755.078, 643.756
756.368, 764.520
757.658, 911.078
758.947, 1169.351
760.237, 1528.530
761.526, 2042.169
762.815, 2627.024
764.104, 3272.826
765.392, 3924.299
766.680, 4182.214
767.969, 3830.806
769.257, 3429.575
770.544, 2680.465
771.832, 2073.008
773.119, 1727.926
774.406, 1319.279
775.693, 1116.204
776.980, 962.160
778.267, 791.090
779.553, 766.546
780.839, 651.836
782.125, 651.760
783.411, 648.412
784.697, 608.406
785.982, 615.340
787.267, 647.350
788.552, 623.355
789.837, 600.983
791.122, 572.440
792.406, 601.470
793.690, 601.342
794.974, 595.380
796.258, 630.413
797.542, 616.159
798.825, 599.673
800.108, 665.205
801.391, 665.194
802.674, 714.260
803.957, 746.331
805.239, 820.406
806.522, 895.486
807.804, 932.366
809.085, 1135.681
810.367, 1205.187
811.649, 1322.293
812.930, 1564.405
814.211, 1560.531
815.492, 1726.662
816.772, 1658.801
818.053, 1662.952
819.333, 1469.073
820.613, 1401.239
821.893, 1334.410
823.173, 1313.587
824.452, 1339.769
825.732, 1315.957
827.011, 1306.151
828.290, 1352.351
829.568, 1299.557
830.847, 1378.769
832.125, 1495.047
833.403, 1499.271
834.681, 1620.308
835.959, 1610.544
837.236, 1657.792
838.514, 1760.045
839.791, 1787.304
841.068, 1944.572
842.345, 2036.488
843.621, 2110.768
844.898, 2263.693
846.174, 2370.986
847.450, 2562.300
848.726, 2729.606
850.001, 2947.920
851.277, 3452.242
852.552, 3739.568
853.827, 4273.901
855.102, 5006.243
856.376, 5529.590
857.651, 6762.943
858.925, 8082.337
860.199, 9956.704
861.473, 12385.077
862.746, 15873.460
864.020, 22131.848
865.293, 28860.246
866.566, 38008.645
867.839, 47347.066
869.112, 49185.797
870.384, 46504.223
871.656, 37252.664
872.928, 28171.111
874.200, 20729.570
875.472, 14808.028
876.744, 10866.501
878.015, 8192.980
879.286, 6403.469
880.557, 5009.968
881.828, 4106.476
883.098, 3349.988
884.369, 2877.865
885.639, 2418.393
886.909, 2138.929
888.178, 1789.674
889.448, 1648.225
890.717, 1524.786
891.987, 1332.330
893.256, 1232.905
894.524, 1107.486
895.793, 1024.151
897.061, 957.757
898.330, 882.403
899.598, 895.535
900.865, 786.169
902.133, 780.814
903.401, 800.467
904.668, 780.129
905.935, 720.809
907.202, 695.495
908.468, 597.190
909.735, 601.893
911.001, 524.604
912.267, 553.854
913.533, 515.585
914.799, 436.324
916.064, 440.129
917.330, 425.882
918.595, 425.648
919.860, 429.421
921.124, 364.202
922.389, 345.014
923.653, 333.809
924.918, 338.672
926.182, 349.487
927.445, 267.736
928.709, 332.492
929.972, 302.329
931.236, 290.948
932.499, 322.809
933.761, 308.683
935.024, 331.564
936.286, 312.273
937.549, 289.168
938.811, 300.074
940.073, 333.987
941.334, 301.808
942.596, 287.735
943.857, 260.674
945.118, 302.619
946.379, 292.575
947.640, 275.538
948.900, 286.560
950.161, 238.536
951.421, 279.520
952.681, 264.513
953.940, 239.512
955.200, 240.517
956.459, 156.527
957.719, 196.543
958.978, 167.579
960.236, 157.608
961.495, 115.646
962.753, 75.692
964.012, 111.744
965.270, 80.756
966.527, 85.819
967.785, 102.510
969.043, 81.014
970.300, 80.093
971.557, 52.178
972.814, 27.268
974.071, 10.363
975.327, 39.464
976.583, 8.570
977.840, 38.682
979.095, 34.798
980.351, 4.920
981.607, 31.046
982.862, 5.823
984.117, 19.313
985.372, 34.454
986.627, 20.601
987.882, 26.365
989.136, 12.521
990.390, 14.682
991.644, 4.257
992.898, 20.572
994.152, 2.602
995.405, 20.218
996.659, 22.966
997.912, 0.846
999.165, 2.346
1000.417, 27.543
1001.670, 34.807
1002.922, 21.012
1004.174, 21.222
1005.426, 17.435
1006.678, 6.653
1007.930, 38.875
1009.181, 1.899
1010.432, 15.331
1011.683, 7.565
1012.934, 18.803
1014.185, 20.045
1015.435, 7.292
1016.685, 29.543
1017.935, 12.798
1019.185, 9.943
1020.435, 15.323
1021.684, 1.591
1022.934, 29.868
1024.183, 37.149
1025.432, 1.434
1026.680, 40.730
1027.929, 38.030
1029.177, 26.333
1030.425, 29.638
1031.673, 4.948
1032.921, 36.259
1034.169, 9.424
1035.416, 23.892
1036.663, 35.211
1037.911, 5.468
1039.157, 31.854
1040.404, 10.180
1041.650, 20.493
1042.897, 9.829
1044.143, 10.154
1045.389, 38.518
1046.634, 38.793
1047.880, 0.108
1049.125, 10.576
1050.371, 25.738
1051.615, 7.054
1052.860, 4.373
1054.105, 6.693
1055.349, 18.986
1056.593, 4.329
1057.837, 2.646
1059.081, 15.964
1060.325, 11.287
1061.568, 9.386
1062.812, 45.938
1064.055, 15.263
1065.298, 0.590
1066.540, 23.917
1067.783, 5.246
1069.025, 19.577
1070.267, 29.909
1071.509, 16.756
1072.751, 20.570
1073.993, 33.103
1075.234, 7.207
1076.475, 5.483
1077.716, 14.175
1078.957, 18.126
1080.198, 27.572
1081.438, 14.724
1082.679, 27.021
1083.919, 5.325
1085.159, 11.370
1086.398, 37.927
1087.638, 30.265
1088.877, 44.569
1090.116, 12.126
1091.355, 39.171
1092.594, 34.468
1093.833, 23.771
1095.071, 14.070
1096.309, 54.369
1097.547, 4.668
1098.785, 15.966
1100.023, 17.268
1101.260, 44.566
1102.498, 46.864
1103.735, 34.161
1104.972, 46.459
1106.208, 40.757
1107.445, 8.053
1108.681, 35.349
1109.918, 15.645
1111.154, 37.939
1112.389, 28.233
1113.625, 25.474
1114.860, 13.801
1116.096, 3.925
1117.331, 16.638
1118.566, 30.638
1119.800, 15.891
1121.035, 23.205
1122.269, 65.457
1123.503, 26.864
1124.737, 57.232
1125.971, 32.481
1127.205, 30.729
1128.438, 36.974
1129.671, 26.232
1130.904, 33.498
1132.137, 30.790
1133.370, 16.126
1134.602, 49.364
1135.834, 1.396
1137.066, 40.884
1138.298, 59.159
1139.530, 2.388
1140.762, 62.659
1141.993, 23.601
1143.224, 30.859
1144.455, 21.898
1145.686, 37.113
1146.917, 67.312
1148.147, 31.547
1149.377, 12.756
1150.607, 79.961
1151.837, 42.272
1153.067, 26.472
1154.296, 44.742
1155.526, 39.952
1156.755, 46.145
1157.984, 54.421
1159.213, 27.615
1160.441, 91.047
1161.670, 83.260
1162.898, 36.527
1164.126, 78.954
1165.354, 52.127
1166.581, 64.543
1167.809, 90.707
1169.036, 50.871
1170.263, 61.010
1171.490, 48.573
1172.717, 71.727
1173.943, 56.818
1175.170, 40.081
1176.396, 90.224
1177.622, 93.364
1178.848, 44.500
1180.073, 90.655
1181.299, 66.206
1182.524, 82.974
1183.749, 86.141
1184.974, 58.293
1186.199, 87.205
1187.423, 80.387
1188.648, 77.491
1189.872, 73.672
1191.096, 53.082
1192.320, 75.175
1193.543, 82.239
1194.767, 41.431
1195.990, 60.507
1197.213, 86.176
1198.436, 76.262
1199.659, 80.329
1200.881, 43.392
1202.104, 90.451
1203.326, 100.500
1204.548, 52.694
1205.770, 92.740
1206.991, 57.503
1208.213, 66.176
1209.434, 106.679
1210.655, 76.732
1211.876, 72.755
1213.096, 98.715
1214.317, 62.014
1215.537, 82.024
1216.757, 86.318
1217.977, 71.425
1219.197, 41.399
1220.417, 62.435
1221.636, 39.368
1222.855, 79.351
1224.074, 35.927
1225.293, 66.323
1226.512, 83.350
1227.731, 56.655
1228.949, 65.759
1230.167, 57.224
1231.385, 58.335
1232.603, 146.461
1233.820, 28.920
1235.038, 89.858
1236.255, 65.822
1237.472, 45.952
1238.689, 97.879
1239.906, 35.852
1241.122, 69.170
1242.338, 80.088
1243.555, 52.226
1244.771, 81.083
1245.986, 37.992
1247.202, 49.038
1248.417, 80.940
1249.633, 67.840
1250.848, 67.010
1252.063, 87.902
1253.277, 51.792
1254.492, 67.664
1255.706, 84.547
1256.920, 52.426
1258.134, 74.300
1259.348, 53.172
1260.562, 48.135
1261.775, 53.999
1262.988, 35.231
1264.201, 33.860
1265.414, 68.699
1266.627, 26.536
1267.839, 47.367
1269.052, 18.196
1270.264, 21.318
1271.476, 57.136
1272.688, 43.951
1273.899, 47.760
1275.111, 37.557
1276.322, 35.355
1277.533, 20.137
1278.744, 23.902
1279.955, 56.663
1281.165, 70.360
1282.376, 30.499
1283.586, 31.280
1284.796, 63.021
1286.006, 30.349
1287.215, 9.919
1288.425, 32.804
1289.634, 11.477
1290.843, 43.357
1292.052, 50.065
1293.261, 36.768
1294.469, 48.462
1295.678, 55.083
1296.886, 23.796
1298.094, 71.470
1299.302, 28.139
1300.509, 39.802
1301.717, 55.461
1302.924, 23.116
1304.131, 41.782
1305.338, 14.407
1306.545, 36.013
1307.752, 26.601
1308.958, 14.183
1310.164, 83.759
1311.370, 14.326
1312.576, 9.115
1313.782, 74.434
1314.987, 4.023
1316.193, 7.508
1317.398, 55.031
1318.603, 19.452
1319.807, 23.052
1321.012, 50.549
1322.216, 45.039
1323.421, 77.522
1324.625, 37.999
1325.829, 6.466
1327.032, 108.925
1328.236, 32.380
1329.439, 34.828
1330.642, 99.270
1331.845, 27.696
1333.048, 47.114
1334.251, 29.526
1335.453, 9.935
1336.656, 65.335
1337.858, 31.728
1339.060, 23.123
1340.261, 37.510
1341.463, 23.890
1342.664, 39.265
1343.866, 78.634
1345.067, 42.996
1346.267, 84.352
1347.468, 51.703
1348.669, 19.052
1349.869, 48.395
1351.069, 1.268
1352.269, 0.059
1353.469, 66.378
1354.668, 35.694
1355.868, 57.005
1357.067, 49.310
1358.266, 9.611
1359.465, 57.906
1360.664, 9.450
1361.862, 21.735
1363.061, 92.016
1364.259, 30.299
1365.457, 62.578
1366.655, 45.863
1367.852, 35.146
1369.050, 6.429
1370.247, 26.714
1371.444, 24.020
1372.641, 17.243
1373.838, 14.477
1375.035, 15.774
1376.231, 80.024
1377.427, 14.725
1378.623, 68.489
1379.819, 31.750
1381.015, 20.410
1382.211, 72.061
1383.406, 27.710
1384.601, 4.351
1385.796, 90.983
1386.991, 11.612
1388.185, 57.233
1389.380, 70.848
1390.574, 17.457
1391.768, 57.061
1392.962, 53.678
1394.156, 9.257
1395.350, 98.812
1396.543, 65.252
1397.736, 42.726
1398.929, 89.329
1400.122, 46.885
1401.315, 54.198
1402.507, 66.780
1403.700, 29.248
1404.892, 106.766
1406.084, 53.621
1407.276, 10.362
1408.467, 59.859
1409.659, 39.382
1410.850, 38.765
1412.041, 73.167
1413.232, 6.521
1414.423, 90.690
1415.614, 108.027
1416.804, 41.180
1417.994, 99.551
1419.184, 32.656
1420.374, 36.529
1421.564, 87.049
1422.753, 53.441
1423.943, 8.203
1425.132, 93.563
1426.321, 23.818
1427.510, 55.079
1428.698, 91.362
1429.887, 52.244
1431.075, 45.360
1432.263, 39.521
1433.451, 11.848
1434.639, 78.195
1435.827, 33.304
1437.014, 50.439
1438.201, 73.686
1439.388, 21.952
1440.575, 52.763
1441.762, 103.550
1442.949, 42.647
1444.135, 66.850
1445.321, 80.089
1446.507, 23.606
1447.693, 98.559
1448.879, 80.511
1450.064, 33.652
1451.250, 80.670
1452.435, 18.522
1453.620, 66.632
1454.805, 83.159
1455.989, 37.125
1457.174, 90.758
1458.358, 53.057
1459.542, 19.928
1460.726, 58.775
1461.910, 45.593
1463.093, 58.266
1464.277, 109.041
1465.460, 58.294
1466.643, 44.050
1467.826, 60.991
1469.009, 63.675
1470.191, 69.355
1471.373, 45.030
1472.556, 31.778
1473.738, 82.727
1474.919, 74.254
1476.101, 68.853
1477.283, 82.425
1478.464, 45.557
1479.645, 78.054
1480.826, 69.443
1482.007, 37.911
1483.187, 73.342
1484.368, 66.661
1485.548, 49.200
1486.728, 63.857
1487.908, 62.510
1489.088, 40.170
1490.268, 72.830
1491.447, 30.483
1492.626, 52.123
1493.805, 76.762
1494.984, 57.418
1496.163, 76.086
1497.341, 87.749
1498.520, 0.553
1499.698, 59.378
1500.876, 57.256
1502.054, 5.817
1503.232, 48.171
1504.409, 48.219
1505.586, 50.318
1506.763, 89.478
1507.940, 27.718
1509.117, 33.057
1510.294, 71.514
1511.470, 22.097
1512.647, 37.789
1513.823, 83.073
1514.999, 0.652
1516.174, 64.519
1517.350, 10.949
1518.526, 30.154
1519.701, 75.497
1520.876, 0.000
##END=



