##NAMES=Wulfenite
##RRUFFID=R050024
##IDEAL CHEMISTRY=Pb^2+^Mo^6+^O_4_
##LOCALITY=Old Yuma mine, Tucson, Arizona, USA
##OWNER=RRUFF
##SOURCE=Eugene Schlepp
##DESCRIPTION=Orange flat tabular crystals
##STATUS=The identification of this mineral has been confirmed by X-ray diffraction.
##URL=rruff.info/R050024
##PIN_ID=L00102
##ORIENTATION=Laser parallel to a* (1 0 0). Fiducial mark perpendicular to laser is parallel to -c [0 0 -1]
55.677, 0.000
57.079, 6.134
58.480, 4.679
59.882, 0.094
61.283, 1.711
62.683, 5.011
64.084, 10.802
65.484, 9.961
66.884, 2.810
68.284, 13.000
69.684, 7.120
71.083, 11.183
72.482, 24.354
73.881, 31.221
75.280, 26.227
76.678, 30.363
78.076, 14.620
79.474, 12.991
80.872, 6.534
82.270, 4.039
83.667, 0.704
85.064, 8.546
86.461, 5.716
87.858, 1.809
89.254, 4.170
90.650, 16.217
92.046, 16.330
93.442, 27.505
94.838, 30.741
96.233, 53.036
97.628, 70.386
99.023, 81.788
100.418, 116.240
101.812, 130.736
103.206, 128.275
104.600, 157.854
105.994, 157.471
107.387, 155.123
108.781, 164.810
110.174, 164.022
111.566, 174.283
112.959, 175.067
114.351, 194.883
115.744, 211.729
117.136, 211.605
118.527, 220.510
119.919, 245.444
121.310, 260.406
122.701, 256.396
124.092, 272.414
125.482, 268.458
126.873, 277.428
128.263, 305.626
129.653, 289.748
131.042, 310.896
132.432, 313.070
133.821, 320.268
135.210, 367.490
136.599, 366.737
137.987, 378.008
139.376, 440.299
140.764, 469.595
142.152, 499.897
143.539, 541.206
144.927, 567.522
146.314, 629.845
147.701, 738.176
149.088, 805.516
150.474, 945.865
151.861, 1062.221
153.247, 1238.584
154.633, 1471.952
156.018, 1752.330
157.404, 2129.720
158.789, 2573.124
160.174, 3031.539
161.559, 3460.968
162.943, 3960.410
164.327, 4364.866
165.711, 4864.336
167.095, 4891.821
168.479, 4912.318
169.862, 4615.830
171.246, 4311.356
172.628, 3694.896
174.011, 3120.449
175.394, 2643.017
176.776, 2100.599
178.158, 1704.195
179.540, 1393.806
180.922, 1145.429
182.303, 935.068
183.684, 794.719
185.065, 713.384
186.446, 612.062
187.826, 523.754
189.207, 499.458
190.587, 455.176
191.967, 418.907
193.346, 398.651
194.726, 366.407
196.105, 338.468
197.484, 296.960
198.862, 280.756
200.241, 244.565
201.619, 211.386
202.997, 199.221
204.375, 208.067
205.753, 162.924
207.130, 174.796
208.507, 166.683
209.884, 166.580
211.261, 162.946
212.638, 146.414
214.014, 151.352
215.390, 128.303
216.766, 125.265
218.141, 116.242
219.517, 107.230
220.892, 128.228
222.267, 117.788
223.642, 113.347
225.016, 118.903
226.391, 105.418
227.765, 100.003
229.139, 103.601
230.512, 91.209
231.886, 101.830
233.259, 99.465
234.632, 97.095
236.005, 94.742
237.377, 110.379
238.749, 91.034
240.122, 99.706
241.493, 118.396
242.865, 102.103
244.237, 118.828
245.608, 130.570
246.979, 122.963
248.350, 124.734
249.720, 144.520
251.090, 138.958
252.461, 129.569
253.830, 147.408
255.200, 158.265
256.570, 157.122
257.939, 154.990
259.308, 148.870
260.677, 153.145
262.045, 158.673
263.414, 160.594
264.782, 167.528
266.150, 173.485
267.517, 176.445
268.885, 170.416
270.252, 176.399
271.619, 196.463
272.986, 195.471
274.353, 211.488
275.719, 205.518
277.085, 221.555
278.451, 224.606
279.817, 248.665
281.182, 247.734
282.548, 266.815
283.913, 290.904
285.278, 313.002
286.642, 337.109
288.007, 358.226
289.371, 389.351
290.735, 434.490
292.099, 456.652
293.462, 513.806
294.826, 589.974
296.189, 651.211
297.552, 705.394
298.914, 802.583
300.277, 920.780
301.639, 1070.985
303.001, 1166.198
304.363, 1446.420
305.724, 1769.651
307.086, 2177.888
308.447, 2789.133
309.808, 3455.383
311.168, 4493.639
312.529, 5732.903
313.889, 7237.173
315.249, 8687.446
316.609, 9781.730
317.969, 10182.016
319.328, 9832.310
320.687, 8774.611
322.046, 7173.920
323.405, 5706.236
324.764, 4365.560
326.122, 3415.886
327.480, 2717.219
328.838, 2110.554
330.196, 1699.898
331.553, 1364.246
332.910, 1169.599
334.267, 1023.955
335.624, 895.521
336.981, 812.885
338.337, 748.252
339.693, 785.684
341.049, 772.075
342.405, 838.480
343.760, 973.860
345.116, 1315.262
346.471, 1697.796
347.826, 2199.184
349.180, 2535.575
350.535, 2524.969
351.889, 2187.365
353.243, 1669.762
354.597, 1169.594
355.950, 768.074
357.304, 576.776
358.657, 430.182
360.010, 313.599
361.362, 254.060
362.715, 219.508
364.067, 192.205
365.419, 171.918
366.771, 148.492
368.123, 134.008
369.474, 117.892
370.825, 110.353
372.176, 105.893
373.527, 111.335
374.877, 98.097
376.228, 103.923
377.578, 86.360
378.928, 89.127
380.277, 85.587
381.627, 83.063
382.976, 73.513
384.325, 75.118
385.674, 50.621
387.023, 77.472
388.371, 52.012
389.719, 48.640
391.067, 54.190
392.415, 49.941
393.762, 44.627
395.110, 31.332
396.457, 40.991
397.804, 25.657
399.150, 32.281
400.497, 27.140
401.843, 21.672
403.189, 5.116
404.535, 14.128
405.881, 20.024
407.226, 0.574
408.571, 11.083
409.916, 12.720
411.261, 4.846
412.605, 12.550
413.950, 8.512
415.294, 5.326
416.638, 1.766
417.981, 8.833
419.325, 2.404
420.668, 6.980
422.011, 0.141
423.354, 1.002
424.697, 3.315
426.039, 0.705
427.381, 1.393
428.723, 2.089
430.065, 3.896
431.406, 2.095
432.748, 5.753
434.089, 5.478
435.430, 9.060
436.770, 0.011
438.111, 0.791
439.451, 7.530
440.791, 3.037
442.131, 8.997
443.471, 8.226
444.810, 1.972
446.149, 0.676
447.488, 9.524
448.827, 7.769
450.166, 3.296
451.504, 0.167
452.842, 1.692
454.180, 1.716
455.518, 0.372
456.855, 4.188
458.193, 5.207
459.530, 1.873
460.867, 4.624
462.203, 10.587
463.540, 1.574
464.876, 7.711
466.212, 10.872
467.548, 11.494
468.883, 16.455
470.219, 9.815
471.554, 13.513
472.889, 13.425
474.224, 15.987
475.558, 3.324
476.892, 2.655
478.227, 0.423
479.561, 10.406
480.894, 9.605
482.228, 13.393
483.561, 15.146
484.894, 20.178
486.227, 9.475
487.559, 4.824
488.892, 8.154
490.224, 21.988
491.556, 18.608
492.888, 9.960
494.220, 10.240
495.551, 1.443
496.882, 11.810
498.213, 8.057
499.544, 1.441
500.874, 3.676
502.205, 2.905
503.535, 10.153
504.865, 4.370
506.194, 0.581
507.524, 9.785
508.853, 12.983
510.182, 13.175
511.511, 9.361
512.840, 11.541
514.168, 3.284
515.496, 2.880
516.824, 0.962
518.152, 12.186
519.480, 8.329
520.807, 4.465
522.134, 5.595
523.461, 0.282
524.788, 0.446
526.114, 5.938
527.441, 1.037
528.767, 2.873
530.093, 6.207
531.418, 3.281
532.744, 8.347
534.069, 0.594
535.394, 1.544
536.719, 9.496
538.044, 0.470
539.368, 7.554
540.693, 6.571
542.017, 8.582
543.340, 2.586
544.664, 5.582
545.987, 1.429
547.311, 4.549
548.634, 2.520
549.956, 4.483
551.279, 0.438
552.601, 1.609
553.923, 1.321
555.245, 2.249
556.567, 2.169
557.889, 3.080
559.210, 1.017
560.531, 5.875
561.852, 14.760
563.173, 3.361
564.493, 1.494
565.813, 5.363
567.133, 7.211
568.453, 3.054
569.773, 5.113
571.092, 1.709
572.412, 2.479
573.731, 5.677
575.049, 5.060
576.368, 3.828
577.686, 4.601
579.005, 4.367
580.323, 5.875
581.640, 1.132
582.958, 8.397
584.275, 9.677
585.593, 1.970
586.909, 11.285
588.226, 0.605
589.543, 6.934
590.859, 6.277
592.175, 7.700
593.491, 2.931
594.807, 3.445
596.122, 0.834
597.438, 16.230
598.753, 4.356
600.068, 4.065
601.382, 8.497
602.697, 0.942
604.011, 0.396
605.325, 2.858
606.639, 9.331
607.952, 2.183
609.266, 14.310
610.579, 0.178
611.892, 10.356
613.205, 4.886
614.518, 9.432
615.830, 13.050
617.142, 1.617
618.454, 3.192
619.766, 6.776
621.078, 7.371
622.389, 9.976
623.700, 10.594
625.011, 2.224
626.322, 7.862
627.632, 2.490
628.943, 4.163
630.253, 7.825
631.563, 2.496
632.872, 1.825
634.182, 4.141
635.491, 6.547
636.800, 10.245
638.109, 13.953
639.418, 7.673
640.726, 7.402
642.035, 12.140
643.343, 1.111
644.651, 1.642
645.958, 1.401
647.266, 10.164
648.573, 7.056
649.880, 2.717
651.187, 0.503
652.494, 2.292
653.800, 9.707
655.106, 6.909
656.412, 4.893
657.718, 8.239
659.024, 11.411
660.329, 1.431
661.634, 12.750
662.939, 3.910
664.244, 4.936
665.549, 21.107
666.853, 15.276
668.157, 19.441
669.461, 8.602
670.765, 19.761
672.069, 7.486
673.372, 6.561
674.675, 11.413
675.978, 18.560
677.281, 19.696
678.583, 23.786
679.886, 11.888
681.188, 16.741
682.490, 19.576
683.792, 14.669
685.093, 18.580
686.394, 23.241
687.696, 31.325
688.997, 27.328
690.297, 26.428
691.598, 32.207
692.898, 30.920
694.198, 25.020
695.498, 38.791
696.798, 20.867
698.097, 30.925
699.397, 48.008
700.696, 36.935
701.995, 23.965
703.293, 50.648
704.592, 46.642
705.890, 39.551
707.188, 39.537
708.486, 41.324
709.784, 47.177
711.081, 47.012
712.378, 45.895
713.675, 64.773
714.972, 49.693
716.269, 34.378
717.565, 56.393
718.862, 63.495
720.158, 80.031
721.453, 81.684
722.749, 82.683
724.045, 80.725
725.340, 93.640
726.635, 96.066
727.930, 107.337
729.224, 120.841
730.519, 137.906
731.813, 152.904
733.107, 182.863
734.401, 205.852
735.694, 237.835
736.988, 297.234
738.281, 382.935
739.574, 476.182
740.867, 591.354
742.160, 762.014
743.452, 833.097
744.744, 926.857
746.036, 913.227
747.328, 814.648
748.620, 702.990
749.911, 577.982
751.202, 551.607
752.493, 503.403
753.784, 454.241
755.075, 456.310
756.365, 492.931
757.655, 530.286
758.945, 635.127
760.235, 757.016
761.525, 936.763
762.814, 1222.117
764.103, 1564.196
765.392, 1885.270
766.681, 2143.268
767.969, 2142.623
769.258, 1948.338
770.546, 1686.784
771.834, 1396.027
773.122, 1109.004
774.409, 905.897
775.697, 728.579
776.984, 612.245
778.271, 567.764
779.558, 505.262
780.844, 482.301
782.131, 466.005
783.417, 454.312
784.703, 446.284
785.989, 443.042
787.274, 463.151
788.560, 471.487
789.845, 480.829
791.130, 474.736
792.415, 519.429
793.699, 529.906
794.983, 533.795
796.268, 576.719
797.552, 605.365
798.835, 628.746
800.119, 708.077
801.402, 748.426
802.686, 838.273
803.969, 918.334
805.251, 1027.664
806.534, 1126.067
807.816, 1241.433
809.098, 1457.864
810.380, 1722.300
811.662, 2025.601
812.944, 2352.051
814.225, 2624.508
815.506, 2874.946
816.787, 2925.416
818.068, 2915.892
819.349, 2652.377
820.629, 2461.867
821.909, 2253.365
823.189, 2077.869
824.469, 1916.380
825.749, 1876.898
827.028, 1824.425
828.307, 1826.959
829.586, 1854.502
830.865, 1849.051
832.144, 1907.608
833.422, 1949.172
834.700, 2073.743
835.978, 2084.323
837.256, 2184.912
838.534, 2273.509
839.811, 2359.114
841.088, 2440.729
842.365, 2537.352
843.642, 2609.982
844.919, 2773.619
846.195, 2935.267
847.472, 3073.923
848.748, 3380.586
850.023, 3607.260
851.299, 3926.940
852.575, 4460.628
853.850, 5039.327
855.125, 5640.031
856.400, 6478.743
857.674, 7490.467
858.949, 8985.196
860.223, 10769.938
861.497, 13069.687
862.771, 16639.471
864.045, 21859.404
865.318, 29179.178
866.591, 39429.113
867.864, 51528.910
869.137, 61818.707
870.410, 65058.523
871.682, 58778.344
872.955, 48888.168
874.227, 36197.996
875.499, 26787.855
876.770, 19237.713
878.042, 14197.579
879.313, 10897.455
880.584, 8219.339
881.855, 6714.235
883.126, 5342.141
884.396, 4511.062
885.667, 3782.988
886.937, 3184.921
888.207, 2753.864
889.476, 2423.815
890.746, 2206.778
892.015, 1943.750
893.284, 1722.756
894.553, 1558.753
895.822, 1431.098
897.090, 1276.528
898.359, 1219.912
899.627, 1109.568
900.895, 1064.798
902.163, 1006.013
903.430, 931.092
904.698, 883.174
905.965, 810.266
907.232, 789.372
908.499, 712.216
909.765, 688.930
911.032, 653.961
912.298, 612.636
913.564, 594.657
914.830, 544.667
916.095, 554.082
917.361, 493.298
918.626, 479.380
919.891, 463.674
921.156, 458.008
922.420, 418.185
923.685, 395.203
924.949, 389.069
926.213, 371.641
927.477, 358.033
928.740, 348.719
930.004, 341.906
931.267, 343.624
932.530, 333.213
933.793, 336.059
935.056, 329.885
936.318, 325.579
937.581, 324.119
938.843, 309.285
940.104, 319.815
941.366, 318.246
942.628, 319.817
943.889, 308.077
945.150, 323.460
946.411, 303.853
947.672, 309.254
948.932, 310.664
950.193, 299.083
951.453, 284.508
952.713, 272.939
953.973, 246.377
955.232, 227.824
956.491, 240.278
957.751, 216.739
959.010, 218.225
960.268, 196.699
961.527, 181.178
962.785, 158.664
964.044, 159.155
965.302, 125.653
966.559, 107.157
967.817, 110.666
969.075, 81.181
970.332, 94.701
971.589, 88.227
972.846, 49.759
974.102, 48.296
975.359, 62.838
976.615, 46.385
977.871, 57.941
979.127, 52.500
980.383, 52.064
981.638, 56.634
982.893, 48.209
984.149, 40.792
985.404, 46.379
986.658, 36.971
987.913, 48.572
989.167, 43.385
990.421, 34.996
991.675, 22.611
992.929, 49.231
994.183, 31.856
995.436, 36.487
996.689, 30.122
997.942, 24.763
999.195, 32.408
1000.448, 26.059
1001.700, 21.714
1002.952, 9.374
1004.204, 20.039
1005.456, 24.708
1006.708, 11.381
1007.959, 12.058
1009.210, 8.412
1010.461, 13.427
1011.712, 1.118
1012.963, 2.186
1014.213, 7.591
1015.464, 7.215
1016.714, 7.079
1017.964, 11.629
1019.214, 18.341
1020.463, 4.058
1021.712, 7.779
1022.962, 3.505
1024.210, 14.235
1025.459, 16.968
1026.708, 17.704
1027.956, 10.443
1029.204, 16.290
1030.452, 13.932
1031.700, 15.682
1032.948, 14.435
1034.195, 0.192
1035.442, 8.952
1036.689, 6.715
1037.936, 15.480
1039.183, 11.248
1040.429, 10.019
1041.676, 12.792
1042.922, 0.432
1044.168, 3.346
1045.413, 7.873
1046.659, 9.093
1047.904, 7.789
1049.149, 12.535
1050.394, 3.760
1051.639, 2.986
1052.884, 0.789
1054.128, 8.566
1055.372, 6.344
1056.616, 4.124
1057.860, 13.094
1059.104, 10.318
1060.347, 15.545
1061.590, 8.780
1062.833, 14.603
1064.076, 14.020
1065.319, 20.514
1066.561, 16.775
1067.803, 14.044
1069.046, 17.320
1070.287, 17.604
1071.529, 14.570
1072.771, 28.193
1074.012, 8.504
1075.253, 2.820
1076.494, 0.861
1077.735, 21.460
1078.975, 8.792
1080.216, 8.130
1081.456, 1.474
1082.696, 5.820
1083.936, 5.172
1085.175, 2.528
1086.415, 5.113
1087.654, 9.753
1088.893, 1.392
1090.132, 4.030
1091.371, 3.667
1092.609, 8.302
1093.847, 21.937
1095.085, 8.578
1096.323, 19.212
1097.561, 23.846
1098.799, 13.479
1100.036, 13.111
1101.273, 16.743
1102.510, 14.374
1103.747, 18.011
1104.983, 10.641
1106.220, 23.333
1107.456, 8.966
1108.692, 15.648
1109.928, 30.274
1111.163, 27.899
1112.399, 25.526
1113.634, 31.206
1114.869, 27.854
1116.104, 19.480
1117.339, 18.104
1118.573, 19.723
1119.808, 24.343
1121.042, 25.957
1122.276, 17.570
1123.509, 29.204
1124.743, 23.825
1125.976, 13.464
1127.210, 18.225
1128.443, 26.885
1129.675, 24.569
1130.908, 16.285
1132.141, 33.281
1133.373, 15.895
1134.605, 25.639
1135.837, 26.846
1137.068, 7.453
1138.300, 27.137
1139.531, 26.732
1140.762, 25.325
1141.993, 19.089
1143.224, 25.926
1144.455, 23.559
1145.685, 30.251
1146.915, 41.889
1148.145, 29.617
1149.375, 37.339
1150.605, 31.899
1151.834, 52.722
1153.063, 39.278
1154.292, 48.852
1155.521, 68.452
1156.750, 59.199
1157.978, 59.813
1159.207, 56.643
1160.435, 55.192
1161.663, 57.593
1162.891, 72.348
1164.118, 65.029
1165.345, 70.510
1166.573, 80.123
1167.800, 75.031
1169.026, 68.670
1170.253, 65.502
1171.480, 93.132
1172.706, 77.690
1173.932, 84.215
1175.158, 74.747
1176.383, 71.342
1177.609, 77.905
1178.834, 68.632
1180.059, 79.274
1181.284, 78.814
1182.509, 82.525
1183.734, 76.049
1184.958, 77.578
1186.182, 71.085
1187.406, 69.558
1188.630, 68.086
1189.854, 77.696
1191.077, 70.158
1192.301, 74.717
1193.524, 73.880
1194.747, 74.423
1195.969, 65.573
1197.192, 73.448
1198.414, 76.779
1199.636, 60.102
1200.858, 58.541
1202.080, 75.092
1203.302, 78.521
1204.523, 64.947
1205.744, 76.706
1206.966, 61.524
1208.186, 84.026
1209.407, 69.990
1210.628, 76.555
1211.848, 61.129
1213.068, 71.349
1214.288, 57.713
1215.508, 46.373
1216.727, 60.745
1217.947, 57.368
1219.166, 42.601
1220.385, 52.246
1221.604, 52.021
1222.822, 48.052
1224.041, 44.290
1225.259, 46.295
1226.477, 39.950
1227.695, 31.700
1228.913, 38.734
1230.130, 33.595
1231.348, 34.470
1232.565, 35.435
1233.782, 25.745
1234.999, 30.094
1236.215, 37.210
1237.432, 29.563
1238.648, 22.775
1239.864, 35.061
1241.080, 12.360
1242.296, 20.677
1243.511, 27.005
1244.726, 24.313
1245.942, 20.651
1247.156, 20.936
1248.371, 31.227
1249.586, 13.576
1250.800, 19.853
1252.014, 8.135
1253.228, 14.389
1254.442, 8.659
1255.656, 25.020
1256.869, 22.260
1258.083, 15.513
1259.296, 8.764
1260.509, 11.505
1261.722, 15.238
1262.934, 15.461
1264.147, 16.729
1265.359, 16.011
1266.571, 20.214
1267.783, 17.333
1268.994, 12.726
1270.206, 14.915
1271.417, 11.766
1272.628, 4.303
1273.839, 9.495
1275.050, 7.694
1276.260, 5.888
1277.471, 0.928
1278.681, 14.250
1279.891, 4.399
1281.101, 4.461
1282.310, 14.671
1283.520, 6.591
1284.729, 15.714
1285.938, 15.833
1287.147, 2.952
1288.356, 1.074
1289.564, 9.192
1290.773, 5.319
1291.981, 8.438
1293.189, 3.524
1294.397, 3.605
1295.604, 22.680
1296.812, 0.752
1298.019, 18.831
1299.226, 13.882
1300.433, 9.928
1301.640, 1.994
1302.846, 8.039
1304.053, 0.093
1305.259, 16.118
1306.465, 2.139
1307.671, 6.165
1308.876, 3.176
1310.082, 5.182
1311.287, 6.187
1312.492, 1.817
1313.697, 4.173
1314.902, 0.822
1316.106, 4.156
1317.310, 9.128
1318.515, 13.096
1319.719, 11.199
1320.922, 5.040
1322.126, 7.235
1323.329, 0.272
1324.533, 2.212
1325.736, 8.146
1326.939, 0.089
1328.141, 9.012
1329.344, 7.944
1330.546, 9.858
1331.748, 15.767
1332.950, 6.671
1334.152, 1.570
1335.354, 10.463
1336.555, 3.352
1337.757, 7.236
1338.958, 4.883
1340.159, 5.993
1341.359, 6.865
1342.560, 4.737
1343.760, 7.604
1344.960, 10.468
1346.160, 1.328
1347.360, 12.183
1348.560, 12.034
1349.759, 3.880
1350.959, 13.717
1352.158, 15.553
1353.357, 2.388
1354.555, 7.221
1355.754, 8.054
1356.952, 3.673
1358.151, 9.719
1359.349, 0.447
1360.546, 2.386
1361.744, 3.781
1362.941, 10.948
1364.139, 3.881
1365.336, 6.715
1366.533, 14.549
1367.730, 9.387
1368.926, 3.217
1370.123, 15.052
1371.319, 3.900
1372.515, 16.738
1373.711, 3.577
1374.906, 4.424
1376.102, 11.365
1377.297, 9.109
1378.492, 7.215
1379.687, 18.317
1380.882, 0.417
1382.077, 14.504
1383.271, 18.594
1384.465, 14.679
1385.659, 9.751
1386.853, 7.758
1388.047, 10.761
1389.240, 5.824
1390.434, 14.816
1391.627, 12.832
1392.820, 3.873
1394.013, 14.912
1395.205, 12.925
1396.398, 20.910
1397.590, 9.695
1398.782, 1.486
1399.974, 22.010
1401.166, 13.099
1402.357, 12.956
1403.549, 13.920
1404.740, 15.356
1405.931, 16.109
1407.122, 5.790
1408.313, 3.554
1409.503, 18.171
1410.693, 8.030
1411.883, 2.619
1413.073, 25.158
1414.263, 14.711
1415.453, 12.279
1416.642, 11.534
1417.831, 7.819
1419.020, 7.829
1420.209, 9.275
1421.398, 8.909
1422.587, 14.203
1423.775, 18.625
1424.963, 18.316
1426.151, 17.087
1427.339, 15.584
1428.526, 14.312
1429.714, 11.881
1430.901, 9.722
1432.088, 9.311
1433.275, 5.841
1434.462, 6.570
1435.648, 18.193
1436.835, 21.791
1438.021, 14.417
1439.207, 23.998
1440.393, 9.270
1441.579, 10.815
1442.764, 15.309
1443.949, 4.962
1445.135, 8.508
1446.320, 5.075
1447.504, 10.489
1448.689, 17.076
1449.873, 7.675
1451.058, 11.594
1452.242, 24.682
1453.426, 9.145
1454.609, 10.558
1455.793, 12.077
1456.976, 4.437
1458.159, 16.950
1459.342, 17.144
1460.525, 17.650
1461.708, 9.104
1462.890, 2.605
1464.073, 5.196
1465.255, 2.241
1466.437, 19.519
1467.619, 7.951
1468.800, 4.315
1469.982, 11.648
1471.163, 4.049
1472.344, 16.541
1473.525, 17.023
1474.706, 22.481
1475.886, 9.855
1477.066, 13.128
1478.247, 10.962
1479.427, 17.040
1480.607, 18.127
1481.786, 23.888
1482.966, 25.268
1484.145, 26.766
1485.324, 34.217
1486.503, 16.696
1487.682, 25.188
1488.860, 16.589
1490.039, 29.091
1491.217, 10.471
1492.395, 21.211
1493.573, 24.655
1494.751, 38.025
1495.928, 29.389
1497.106, 28.829
1498.283, 29.276
1499.460, 26.725
1500.637, 22.174
1501.814, 29.626
1502.990, 19.072
1504.166, 21.511
1505.342, 27.946
1506.518, 16.548
1507.694, 19.189
1508.870, 3.875
1510.045, 19.617
1511.221, 12.438
1512.396, 3.383
1513.571, 15.469
1514.745, 11.554
1515.920, 7.421
1517.094, 0.127
1518.269, 0.000
##END=



