##NAMES=Wulfenite
##RRUFFID=R050024
##IDEAL CHEMISTRY=Pb^2+^Mo^6+^O_4_
##LOCALITY=Old Yuma mine, Tucson, Arizona, USA
##OWNER=RRUFF
##SOURCE=Eugene Schlepp
##DESCRIPTION=Orange flat tabular crystals
##STATUS=The identification of this mineral has been confirmed by X-ray diffraction.
##URL=rruff.info/R050024
##PIN_ID=L00102
##ORIENTATION=Laser parallel to a* (1 0 0). Fiducial mark perpendicular to laser is parallel to -c [0 0 -1]
54.275, 0.000
55.677, 6.443
57.079, 11.897
58.480, 9.828
59.882, 20.177
61.283, 13.425
62.683, 20.401
64.084, 22.434
65.484, 6.376
66.884, 17.444
68.284, 7.390
69.684, 12.489
71.083, 15.896
72.482, 13.821
73.881, 13.837
75.280, 6.791
76.678, 3.820
78.076, 5.920
79.474, 7.087
80.872, 2.317
82.270, 1.606
83.667, 1.049
85.064, 7.652
86.461, 2.204
87.858, 0.708
89.254, 9.165
90.650, 0.579
92.046, 0.949
93.442, 5.721
94.838, 24.432
96.233, 23.182
97.628, 36.969
99.023, 53.791
100.418, 67.644
101.812, 76.529
103.206, 99.441
104.600, 97.381
105.994, 101.347
107.387, 95.336
108.781, 97.349
110.174, 79.386
111.566, 78.444
112.959, 93.525
114.351, 80.627
115.744, 88.750
117.136, 80.894
118.527, 86.059
119.919, 101.244
121.310, 101.449
122.701, 111.673
124.092, 123.917
125.482, 128.181
126.873, 118.464
128.263, 129.765
129.653, 123.086
131.042, 146.425
132.432, 146.784
133.821, 158.161
135.210, 158.557
136.599, 161.971
137.987, 148.400
139.376, 164.835
140.764, 171.277
142.152, 169.726
143.539, 167.181
144.927, 176.644
146.314, 171.113
147.701, 161.588
149.088, 148.069
150.474, 158.558
151.861, 155.054
153.247, 161.553
154.633, 150.055
156.018, 156.560
157.404, 149.073
158.789, 143.595
160.174, 144.127
161.559, 136.669
162.943, 125.220
164.327, 115.781
165.711, 107.352
167.095, 91.933
168.479, 86.524
169.862, 85.124
171.246, 70.734
172.628, 66.355
174.011, 77.985
175.394, 78.625
176.776, 67.275
178.158, 62.935
179.540, 63.606
180.922, 82.290
182.303, 53.983
183.684, 77.685
185.065, 85.398
186.446, 105.120
187.826, 112.853
189.207, 112.596
190.587, 122.350
191.967, 131.118
193.346, 130.895
194.726, 128.681
196.105, 110.476
197.484, 115.280
198.862, 86.095
200.241, 81.921
201.619, 77.755
202.997, 79.602
204.375, 78.462
205.753, 63.334
207.130, 73.219
208.507, 67.118
209.884, 69.027
211.261, 63.946
212.638, 82.876
214.014, 59.812
215.390, 69.756
216.766, 65.707
218.141, 67.668
219.517, 76.638
220.892, 88.310
222.267, 69.999
223.642, 84.699
225.016, 85.407
226.391, 90.122
227.765, 95.844
229.139, 109.567
230.512, 95.293
231.886, 115.021
233.259, 106.758
234.632, 118.503
236.005, 141.232
237.377, 130.967
238.749, 160.696
240.122, 151.438
241.493, 164.191
242.865, 171.923
244.237, 191.699
245.608, 173.486
246.979, 208.278
248.350, 224.081
249.720, 241.805
251.090, 238.204
252.461, 250.937
253.830, 263.758
255.200, 291.194
256.570, 267.049
257.939, 336.907
259.308, 302.789
260.677, 326.679
262.045, 323.578
263.414, 344.484
264.782, 364.401
266.150, 369.325
267.517, 396.257
268.885, 405.196
270.252, 413.143
271.619, 448.098
272.986, 457.059
274.353, 473.028
275.719, 476.003
277.085, 537.987
278.451, 551.976
279.817, 573.972
281.182, 614.975
282.548, 670.984
283.913, 700.002
285.278, 755.022
286.642, 823.050
288.007, 878.084
289.371, 971.124
290.735, 1040.169
292.099, 1125.221
293.462, 1238.280
294.826, 1383.346
296.189, 1505.420
297.552, 1683.501
298.914, 1905.588
300.277, 2138.677
301.639, 2523.772
303.001, 2855.201
304.363, 3458.306
305.724, 4195.417
307.086, 5111.536
308.447, 6575.661
309.808, 8346.787
311.168, 10848.922
312.529, 14099.060
313.889, 18309.201
315.249, 22889.383
316.609, 26949.537
317.969, 29029.795
319.328, 28590.006
320.687, 25850.170
322.046, 21230.346
323.405, 16710.527
324.764, 12861.060
326.122, 9607.459
327.480, 7274.649
328.838, 5571.842
330.196, 4318.048
331.553, 3482.248
332.910, 2801.451
334.267, 2323.657
335.624, 1904.867
336.981, 1655.087
338.337, 1426.443
339.693, 1219.662
341.049, 1123.071
342.405, 998.413
343.760, 904.641
345.116, 804.877
346.471, 733.200
347.826, 684.630
349.180, 616.995
350.535, 603.734
351.889, 545.982
353.243, 537.521
354.597, 514.243
355.950, 502.505
357.304, 446.972
358.657, 447.939
360.010, 425.234
361.362, 392.569
362.715, 372.027
364.067, 327.483
365.419, 330.939
366.771, 301.393
368.123, 283.684
369.474, 265.976
370.825, 253.270
372.176, 239.566
373.527, 246.839
374.877, 223.155
376.228, 211.606
377.578, 208.057
378.928, 197.633
380.277, 186.955
381.627, 179.306
382.976, 174.759
384.325, 179.527
385.674, 149.424
387.023, 161.072
388.371, 166.723
389.719, 155.314
391.067, 148.612
392.415, 134.903
393.762, 120.379
395.110, 114.047
396.457, 120.782
397.804, 111.078
399.150, 131.759
400.497, 99.201
401.843, 96.892
403.189, 93.193
404.535, 75.602
405.881, 84.906
407.226, 87.210
408.571, 66.547
409.916, 65.853
411.261, 65.245
412.605, 82.611
413.950, 61.960
415.294, 56.334
416.638, 58.341
417.981, 59.724
419.325, 68.037
420.668, 43.351
422.011, 40.717
423.354, 47.320
424.697, 31.635
426.039, 34.567
427.381, 28.975
428.723, 22.388
430.065, 13.850
431.406, 14.373
432.748, 16.847
434.089, 19.212
435.430, 17.700
436.770, 17.144
438.111, 20.773
439.451, 26.150
440.791, 10.530
442.131, 21.060
443.471, 13.448
444.810, 0.191
446.149, 11.115
447.488, 16.809
448.827, 13.451
450.166, 15.753
451.504, 6.229
452.842, 7.839
454.180, 5.649
455.518, 9.282
456.855, 10.553
458.193, 1.333
459.530, 15.627
460.867, 5.917
462.203, 11.265
463.540, 10.969
464.876, 2.313
466.212, 17.982
467.548, 1.978
468.883, 7.610
470.219, 17.884
471.554, 6.417
472.889, 5.687
474.224, 2.372
475.558, 2.179
476.892, 0.220
478.227, 4.478
479.561, 2.360
480.894, 3.271
482.228, 6.729
483.561, 0.018
484.894, 7.722
486.227, 5.338
487.559, 4.127
488.892, 7.360
490.224, 0.409
491.556, 9.818
492.888, 1.047
494.220, 6.268
495.551, 12.487
496.882, 0.296
498.213, 3.014
499.544, 3.345
500.874, 3.449
502.205, 2.248
503.535, 0.948
504.865, 0.441
506.194, 1.231
507.524, 2.513
508.853, 1.333
510.182, 7.156
511.511, 5.319
512.840, 3.516
514.168, 6.231
515.496, 2.951
516.824, 1.857
518.152, 9.715
519.480, 1.616
520.807, 0.745
522.134, 1.130
523.461, 1.010
524.788, 0.879
526.114, 0.771
527.441, 3.333
528.767, 3.432
530.093, 3.528
531.418, 3.620
532.744, 10.709
534.069, 2.793
535.394, 0.089
536.719, 0.014
538.044, 1.944
539.368, 3.119
540.693, 2.179
542.017, 0.233
543.340, 4.702
544.664, 6.661
545.987, 2.628
547.311, 2.603
548.634, 1.585
549.956, 6.427
551.279, 9.435
552.601, 0.494
553.923, 2.507
555.245, 3.516
556.567, 11.468
557.889, 2.552
559.210, 1.421
560.531, 2.612
561.852, 11.349
563.173, 2.305
564.493, 8.257
565.813, 9.204
567.133, 5.148
568.453, 12.088
569.773, 3.024
571.092, 3.955
572.412, 4.882
573.731, 3.804
575.049, 7.278
576.368, 3.630
577.686, 15.534
579.005, 8.434
580.323, 4.330
581.640, 0.779
582.958, 8.106
584.275, 6.013
585.593, 2.859
586.909, 2.726
588.226, 1.588
589.543, 0.445
590.859, 1.297
592.175, 4.142
593.491, 0.984
594.807, 1.820
596.122, 1.349
597.438, 3.475
598.753, 3.295
600.068, 0.111
601.382, 2.920
602.697, 3.725
604.011, 13.523
605.325, 2.680
606.639, 1.890
607.952, 13.893
609.266, 0.673
610.579, 1.553
611.892, 4.785
613.205, 2.026
614.518, 12.273
615.830, 4.531
617.142, 6.202
618.454, 7.932
619.766, 2.658
621.078, 4.619
622.389, 8.768
623.700, 3.520
625.011, 8.816
626.322, 3.121
627.632, 5.568
628.943, 1.747
630.253, 9.933
631.563, 4.391
632.872, 0.722
634.182, 0.090
635.491, 1.568
636.800, 11.878
638.109, 4.276
639.418, 1.636
640.726, 0.998
642.035, 1.626
643.343, 1.098
644.651, 2.689
645.958, 1.929
647.266, 2.544
648.573, 6.149
649.880, 0.758
651.187, 1.365
652.494, 5.968
653.800, 0.570
655.106, 0.840
656.412, 2.385
657.718, 2.205
659.024, 1.607
660.329, 4.075
661.634, 5.342
662.939, 2.769
664.244, 9.283
665.549, 4.093
666.853, 8.534
668.157, 6.399
669.461, 7.158
670.765, 3.575
672.069, 1.494
673.372, 1.952
674.675, 8.384
675.978, 5.780
677.281, 7.727
678.583, 7.194
679.886, 0.537
681.188, 1.118
682.490, 9.228
683.792, 10.574
685.093, 7.083
686.394, 2.591
687.696, 19.096
688.997, 6.600
690.297, 15.124
691.598, 2.393
692.898, 5.953
694.198, 10.298
695.498, 16.518
696.798, 14.991
698.097, 10.435
699.397, 1.223
700.696, 7.803
701.995, 13.702
703.293, 10.851
704.592, 7.997
705.890, 7.204
707.188, 14.705
708.486, 3.785
709.784, 15.540
711.081, 10.673
712.378, 8.741
713.675, 19.249
714.972, 13.374
716.269, 18.737
717.565, 15.854
718.862, 26.361
720.158, 27.760
721.453, 32.266
722.749, 40.774
724.045, 40.250
725.340, 52.759
726.635, 54.183
727.930, 79.634
729.224, 94.105
730.519, 123.553
731.813, 144.369
733.107, 168.813
734.401, 237.327
735.694, 288.842
736.988, 387.306
738.281, 526.534
739.574, 698.051
740.867, 960.953
742.160, 1220.380
743.452, 1427.803
744.744, 1464.179
746.036, 1347.493
747.328, 1170.857
748.620, 971.331
749.911, 731.683
751.202, 567.081
752.493, 435.296
753.784, 335.763
755.075, 279.227
756.365, 240.543
757.655, 204.001
758.945, 181.487
760.235, 188.029
761.525, 184.182
762.814, 156.389
764.103, 177.938
765.392, 182.315
766.681, 188.561
767.969, 181.611
769.258, 184.840
770.546, 166.433
771.834, 150.519
773.122, 150.095
774.409, 128.677
775.697, 133.201
776.984, 123.309
778.271, 130.900
779.558, 123.105
780.844, 120.984
782.131, 133.228
783.417, 134.829
784.703, 125.173
785.989, 150.781
787.274, 152.974
788.560, 161.405
789.845, 148.885
791.130, 172.463
792.415, 190.224
793.699, 208.473
794.983, 209.896
796.268, 246.488
797.552, 265.109
798.835, 294.605
800.119, 333.019
801.402, 337.665
802.686, 427.314
803.969, 446.967
805.251, 484.619
806.534, 547.279
807.816, 605.941
809.098, 648.606
810.380, 760.206
811.662, 866.729
812.944, 988.405
814.225, 1108.086
815.506, 1194.771
816.787, 1276.160
818.068, 1304.714
819.349, 1237.879
820.629, 1205.580
821.909, 1144.286
823.189, 1197.691
824.469, 1147.406
825.749, 1167.001
827.028, 1200.696
828.307, 1237.384
829.586, 1306.119
830.865, 1326.664
832.144, 1416.410
833.422, 1490.161
834.700, 1560.918
835.978, 1633.662
837.256, 1741.428
838.534, 1744.200
839.811, 1887.975
841.088, 1943.755
842.365, 2059.541
843.642, 2198.330
844.919, 2281.123
846.195, 2366.885
847.472, 2556.687
848.748, 2805.497
850.023, 2969.312
851.299, 3254.133
852.575, 3678.958
853.850, 4170.772
855.125, 4698.610
856.400, 5501.453
857.674, 6298.303
858.949, 7690.159
860.223, 9093.162
861.497, 11261.028
862.771, 14370.847
864.045, 19230.725
865.318, 25760.607
866.591, 35000.648
867.864, 46620.531
869.137, 56430.430
870.410, 59210.340
871.682, 53560.246
872.955, 44410.164
874.227, 32650.090
875.499, 24250.137
876.770, 17230.441
878.042, 12750.378
879.313, 9850.434
880.584, 7349.377
881.855, 5944.411
883.126, 4758.377
884.396, 3982.603
885.667, 3387.685
886.937, 2932.658
888.207, 2537.802
889.476, 2183.851
890.746, 1974.857
892.015, 1814.152
893.284, 1617.336
894.553, 1458.340
895.822, 1347.695
897.090, 1211.709
898.359, 1149.729
899.627, 990.755
900.895, 977.052
902.163, 916.088
903.430, 854.307
904.698, 802.712
905.965, 750.764
907.232, 694.822
908.499, 701.132
909.765, 639.200
911.032, 606.273
912.298, 589.398
913.564, 563.553
914.830, 555.654
916.095, 533.190
917.361, 529.547
918.626, 472.383
919.891, 493.258
921.156, 461.468
922.420, 441.252
923.685, 428.856
924.949, 377.554
926.213, 378.236
927.477, 365.383
928.740, 371.709
930.004, 329.921
931.267, 319.167
932.530, 315.500
933.793, 315.676
935.056, 280.857
936.318, 291.098
937.581, 252.693
938.843, 271.889
940.104, 265.090
941.366, 277.297
942.628, 249.508
943.889, 237.801
945.150, 257.028
946.411, 267.258
947.672, 229.493
948.932, 220.733
950.193, 212.977
951.453, 208.226
952.713, 206.482
953.973, 171.742
955.232, 179.006
956.491, 188.275
957.751, 149.548
959.010, 152.826
960.268, 145.107
961.527, 135.392
962.785, 112.681
964.044, 105.975
965.302, 91.273
966.559, 77.575
967.817, 73.942
969.075, 76.253
970.332, 71.568
971.589, 61.890
972.846, 52.216
974.102, 54.545
975.359, 48.880
976.615, 38.251
977.871, 62.596
979.127, 50.945
980.383, 51.298
981.638, 46.657
982.893, 57.018
984.149, 34.426
985.404, 55.808
986.658, 45.180
987.913, 43.555
989.167, 56.934
990.421, 25.315
991.675, 40.793
992.929, 25.260
994.183, 30.652
995.436, 34.047
996.689, 24.446
997.942, 22.848
999.195, 23.626
1000.448, 18.034
1001.700, 17.447
1002.952, 24.863
1004.204, 9.283
1005.456, 7.707
1006.708, 14.134
1007.959, 5.563
1009.210, 12.995
1010.461, 5.570
1011.712, 7.866
1012.963, 6.305
1014.213, 4.748
1015.464, 6.193
1016.714, 5.359
1017.964, 11.091
1019.214, 5.543
1020.463, 0.999
1021.712, 1.457
1022.962, 4.917
1024.210, 0.380
1025.459, 4.156
1026.708, 9.690
1027.956, 1.775
1029.204, 3.758
1030.452, 8.710
1031.700, 2.820
1032.948, 0.349
1034.195, 6.876
1035.442, 3.403
1036.689, 9.073
1037.936, 4.450
1039.183, 1.972
1040.429, 0.493
1041.676, 7.013
1042.922, 4.532
1044.168, 7.948
1045.413, 7.570
1046.659, 2.911
1047.904, 4.393
1049.149, 10.877
1050.394, 5.637
1051.639, 15.848
1052.884, 3.665
1054.128, 7.179
1055.372, 8.310
1056.616, 9.796
1057.860, 4.716
1059.104, 9.770
1060.347, 13.258
1061.590, 0.253
1062.833, 0.763
1064.076, 0.727
1065.319, 7.782
1066.561, 4.294
1067.803, 12.806
1069.046, 13.241
1070.287, 0.746
1071.529, 11.270
1072.771, 7.799
1074.012, 9.331
1075.253, 8.868
1076.494, 5.592
1077.735, 1.947
1078.975, 0.512
1080.216, 0.027
1081.456, 1.568
1082.696, 7.891
1083.936, 11.364
1085.175, 0.826
1086.415, 5.714
1087.654, 3.813
1088.893, 10.387
1090.132, 8.849
1091.371, 4.307
1092.609, 0.765
1093.847, 3.226
1095.085, 3.934
1096.323, 10.393
1097.561, 12.875
1098.799, 9.487
1100.036, 15.010
1101.273, 17.828
1102.510, 22.290
1103.747, 18.821
1104.983, 30.528
1106.220, 22.986
1107.456, 27.547
1108.692, 7.005
1109.928, 28.462
1111.163, 24.934
1112.399, 21.426
1113.634, 21.045
1114.869, 22.501
1116.104, 2.957
1117.339, 21.451
1118.573, 12.973
1119.808, 21.492
1121.042, 7.953
1122.276, 17.405
1123.509, 24.931
1124.743, 4.608
1125.976, 16.399
1127.210, 15.886
1128.443, 8.588
1129.675, 7.060
1130.908, 15.506
1132.141, 4.951
1133.373, 6.395
1134.605, 11.968
1135.837, 9.475
1137.068, 9.915
1138.300, 8.390
1139.531, 3.874
1140.762, 4.401
1141.993, 23.879
1143.224, 12.442
1144.455, 14.874
1145.685, 12.344
1146.915, 1.217
1148.145, 29.235
1149.375, 12.083
1150.605, 23.732
1151.834, 18.263
1153.063, 10.894
1154.292, 22.398
1155.521, 29.818
1156.750, 11.273
1157.978, 31.693
1159.207, 24.025
1160.435, 18.456
1161.663, 29.940
1162.891, 29.512
1164.118, 23.078
1165.345, 32.359
1166.573, 29.888
1167.800, 43.439
1169.026, 35.838
1170.253, 37.258
1171.480, 39.693
1172.706, 39.124
1173.932, 35.433
1175.158, 32.445
1176.383, 40.862
1177.609, 38.170
1178.834, 28.590
1180.059, 42.907
1181.284, 30.286
1182.509, 24.550
1183.734, 31.188
1184.958, 27.605
1186.182, 23.809
1187.406, 26.154
1188.630, 21.645
1189.854, 18.850
1191.077, 29.060
1192.301, 23.463
1193.524, 19.476
1194.747, 21.848
1195.969, 26.266
1197.192, 14.629
1198.414, 24.789
1199.636, 24.230
1200.858, 26.449
1202.080, 10.452
1203.302, 16.792
1204.523, 15.145
1205.744, 21.266
1206.966, 20.614
1208.186, 25.021
1209.407, 13.302
1210.628, 20.555
1211.848, 16.877
1213.068, 14.985
1214.288, 18.053
1215.508, 5.637
1216.727, 8.229
1217.947, 13.473
1219.166, 11.121
1220.385, 13.967
1221.604, 8.746
1222.822, 10.604
1224.041, 16.916
1225.259, 12.066
1226.477, 8.351
1227.695, 9.580
1228.913, 11.709
1230.130, 7.079
1231.348, 8.378
1232.565, 13.674
1233.782, 3.572
1234.999, 1.879
1236.215, 8.192
1237.432, 13.522
1238.648, 12.798
1239.864, 9.035
1241.080, 0.695
1242.296, 9.565
1243.511, 6.833
1244.726, 1.090
1245.942, 4.362
1247.156, 2.365
1248.371, 9.911
1249.586, 4.157
1250.800, 0.563
1252.014, 26.694
1253.228, 2.968
1254.442, 15.213
1255.656, 13.443
1256.869, 8.680
1258.083, 6.902
1259.296, 1.121
1260.509, 16.337
1261.722, 17.550
1262.934, 6.701
1264.147, 4.909
1265.359, 5.111
1266.571, 10.310
1267.783, 15.505
1268.994, 4.699
1270.206, 0.111
1271.417, 1.950
1272.628, 7.266
1273.839, 0.552
1275.050, 8.621
1276.260, 161.790
1277.471, 239.958
1278.681, 53.099
1279.891, 2.267
1281.101, 5.460
1282.310, 18.613
1283.520, 7.777
1284.729, 6.924
1285.938, 3.984
1287.147, 7.047
1288.356, 2.188
1289.564, 19.321
1290.773, 7.452
1291.981, 11.580
1293.189, 8.336
1294.397, 3.542
1295.604, 0.425
1296.812, 2.687
1298.019, 0.200
1299.226, 3.905
1300.433, 13.007
1301.640, 7.106
1302.846, 12.201
1304.053, 5.294
1305.259, 9.383
1306.465, 4.482
1307.671, 0.589
1308.876, 0.703
1310.082, 8.777
1311.287, 1.853
1312.492, 0.922
1313.697, 13.988
1314.902, 9.069
1316.106, 7.127
1317.310, 7.183
1318.515, 7.236
1319.719, 16.286
1320.922, 8.336
1322.126, 7.410
1323.329, 7.454
1324.533, 9.495
1325.736, 11.534
1326.939, 0.570
1328.141, 3.103
1329.344, 6.926
1330.546, 14.955
1331.748, 6.979
1332.950, 1.000
1334.152, 1.024
1335.354, 8.087
1336.555, 7.101
1337.757, 21.113
1338.958, 11.123
1340.159, 5.130
1341.359, 12.135
1342.560, 4.137
1343.760, 3.136
1344.960, 6.132
1346.160, 10.126
1347.360, 15.114
1348.560, 11.104
1349.759, 8.091
1350.959, 11.077
1352.158, 4.060
1353.357, 17.032
1354.555, 15.002
1355.754, 11.970
1356.952, 1.067
1358.151, 12.895
1359.349, 14.857
1360.546, 6.766
1361.744, 8.709
1362.941, 17.679
1364.139, 11.635
1365.336, 7.590
1366.533, 2.550
1367.730, 11.503
1368.926, 8.453
1370.123, 6.434
1371.319, 9.374
1372.515, 13.311
1373.711, 3.244
1374.906, 11.152
1376.102, 4.063
1377.297, 8.969
1378.492, 7.910
1379.687, 7.031
1380.882, 5.150
1382.077, 13.009
1383.271, 5.937
1384.465, 11.598
1385.659, 17.618
1386.853, 11.448
1388.047, 13.428
1389.240, 9.497
1390.434, 8.363
1391.627, 7.441
1392.820, 13.395
1394.013, 6.383
1395.205, 9.365
1396.398, 5.773
1397.590, 9.487
1398.782, 12.507
1399.974, 10.552
1401.166, 21.360
1402.357, 17.354
1403.549, 13.221
1404.740, 15.038
1405.931, 20.015
1407.122, 13.992
1408.313, 13.183
1409.503, 14.778
1410.693, 14.666
1411.883, 21.603
1413.073, 15.488
1414.263, 10.155
1415.453, 4.885
1416.642, 10.480
1417.831, 13.418
1419.020, 12.273
1420.209, 12.184
1421.398, 7.047
1422.587, 6.919
1423.775, 4.627
1424.963, 11.939
1426.151, 7.809
1427.339, 13.299
1428.526, 8.101
1429.714, 10.996
1430.901, 9.790
1432.088, 14.422
1433.275, 16.209
1434.462, 17.084
1435.648, 8.897
1436.835, 11.659
1438.021, 12.527
1439.207, 14.996
1440.393, 8.795
1441.579, 9.621
1442.764, 9.401
1443.949, 10.059
1445.135, 9.777
1446.320, 11.575
1447.504, 9.230
1448.689, 5.882
1449.873, 3.572
1451.058, 2.262
1452.242, 9.959
1453.426, 7.752
1454.609, 17.514
1455.793, 8.195
1456.976, 3.891
1458.159, 11.539
1459.342, 11.281
1460.525, 15.031
1461.708, 14.804
1462.890, 12.572
1464.073, 2.340
1465.255, 8.116
1466.437, 17.886
1467.619, 14.539
1468.800, 7.296
1469.982, 3.940
1471.163, 12.706
1472.344, 6.363
1473.525, 18.088
1474.706, 18.819
1475.886, 5.572
1477.066, 0.332
1478.247, 8.071
1479.427, 12.827
1480.607, 17.573
1481.786, 8.329
1482.966, 20.087
1484.145, 18.799
1485.324, 12.316
1486.503, 33.062
1487.682, 20.819
1488.860, 11.498
1490.039, 17.261
1491.217, 7.023
1492.395, 15.637
1493.573, 19.392
1494.751, 12.438
1495.928, 13.094
1497.106, 11.762
1498.283, 13.064
1499.460, 10.689
1500.637, 3.295
1501.814, 0.120
1502.990, 3.458
1504.166, 1.008
1505.342, 12.523
1506.518, 18.002
1507.694, 1.606
1508.870, 4.214
1510.045, 6.782
1511.221, 0.222
1512.396, 10.006
1513.571, 5.273
1514.745, 9.564
1515.920, 3.233
1517.094, 4.525
1518.269, 0.000
##END=



