##NAMES=Xenotime-(Y)
##RRUFFID=R050178
##IDEAL CHEMISTRY=Y^3+^PO_4_
##LOCALITY=Novo Horizonte, Bahia, Brazil
##OWNER=RRUFF
##SOURCE=Marcus Origlieri
##DESCRIPTION=Brown crystal fragments
##STATUS=The identification of this mineral has been confirmed by X-ray diffraction and chemical analysis
##URL=rruff.info/R050178
##MEASURED CHEMISTRY=(Y_0.74_Dy_0.09_Gd_0.06_Er_0.04_Yb_0.02_Ho_0.01_Tb_0.01_Sm_0.01_Eu_0.01_)_Σ=1.00_(P_0.97_As_0.02_Si_0.01_)_Σ=1.00_O_4_
##PIN_ID=L00394
##ORIENTATION=Laser parallel to -c* (0 0 -1). Fiducial mark perpendicular to laser is parallel to a [1 0 0]
48.666, 0.000
50.068, 54.567
51.471, 72.011
52.873, 188.196
54.275, 234.103
55.677, 249.220
57.079, 251.270
58.480, 331.011
59.882, 377.951
61.283, 444.505
62.683, 445.783
64.084, 367.213
65.484, 285.396
66.884, 239.892
68.284, 190.428
69.684, 164.410
71.083, 132.892
72.482, 99.332
73.881, 78.446
75.280, 100.093
76.678, 39.842
78.076, 71.191
79.474, 42.862
80.872, 13.060
82.270, 14.734
83.667, 9.470
85.064, 34.748
86.461, 11.197
87.858, 26.671
89.254, 57.389
90.650, 66.319
92.046, 82.385
93.442, 128.212
94.838, 118.480
96.233, 122.137
97.628, 184.556
99.023, 190.458
100.418, 191.946
101.812, 158.286
103.206, 173.831
104.600, 182.974
105.994, 200.582
107.387, 176.245
108.781, 132.963
110.174, 132.732
111.566, 131.549
112.959, 162.411
114.351, 131.314
115.744, 119.287
117.136, 79.423
118.527, 112.566
119.919, 94.437
121.310, 65.314
122.701, 58.244
124.092, 46.229
125.482, 39.270
126.873, 18.369
128.263, 0.529
129.653, 32.751
131.042, 3.038
132.432, 3.422
133.821, 27.009
135.210, 3.268
136.599, 1.628
137.987, 33.337
139.376, 0.180
140.764, 33.915
142.152, 28.559
143.539, 38.124
144.927, 47.622
146.314, 21.068
147.701, 53.471
149.088, 53.854
150.474, 33.223
151.861, 53.584
153.247, 52.928
154.633, 23.255
156.018, 51.563
157.404, 51.852
158.789, 6.124
160.174, 4.617
161.559, 33.377
162.943, 70.152
164.327, 138.947
165.711, 186.767
167.095, 255.604
168.479, 390.461
169.862, 406.328
171.246, 539.197
172.628, 577.055
174.011, 628.911
175.394, 580.745
176.776, 421.577
178.158, 345.405
179.540, 172.220
180.922, 96.024
182.303, 0.182
183.684, 60.385
185.065, 37.580
186.446, 81.757
187.826, 3.884
189.207, 29.944
190.587, 13.062
191.967, 18.134
193.346, 15.273
194.726, 46.480
196.105, 37.754
197.484, 79.096
198.862, 73.505
200.241, 132.965
201.619, 146.468
202.997, 111.036
204.375, 249.675
205.753, 221.384
207.130, 311.163
208.507, 328.014
209.884, 428.936
211.261, 472.930
212.638, 595.995
214.014, 759.133
215.390, 872.008
216.766, 1078.885
218.141, 1159.683
219.517, 1514.370
220.892, 1776.926
222.267, 2043.342
223.642, 2474.609
225.016, 2718.718
226.391, 2977.675
227.765, 3048.473
229.139, 3039.106
230.512, 2927.583
231.886, 2557.861
233.259, 2505.969
234.632, 2204.908
236.005, 2319.731
237.377, 2258.456
238.749, 2466.921
240.122, 2823.201
241.493, 3068.465
242.865, 3698.244
244.237, 3782.209
245.608, 4006.819
246.979, 3841.803
248.350, 3519.756
249.720, 3535.446
251.090, 3099.676
252.461, 3201.186
253.830, 2946.928
255.200, 3111.066
256.570, 3315.149
257.939, 3403.195
259.308, 3620.543
260.677, 3335.702
262.045, 3231.720
263.414, 2810.090
264.782, 2417.370
266.150, 2089.602
267.517, 1674.512
268.885, 1546.509
270.252, 1216.695
271.619, 1196.067
272.986, 1046.422
274.353, 1142.503
275.719, 1230.727
277.085, 1268.079
278.451, 1570.719
279.817, 1683.310
281.182, 2078.917
282.548, 2105.939
283.913, 1908.598
285.278, 1687.167
286.642, 1300.267
288.007, 1216.383
289.371, 961.341
290.735, 919.280
292.099, 847.559
293.462, 827.118
294.826, 954.535
296.189, 826.768
297.552, 966.286
298.914, 863.155
300.277, 785.771
301.639, 795.941
303.001, 717.171
304.363, 794.724
305.724, 662.403
307.086, 683.671
308.447, 731.575
309.808, 654.128
311.168, 849.564
312.529, 700.227
313.889, 860.107
315.249, 899.453
316.609, 940.826
317.969, 1031.448
319.328, 1071.846
320.687, 1423.933
322.046, 1373.177
323.405, 1722.663
324.764, 1954.395
326.122, 2328.178
327.480, 2979.010
328.838, 3395.893
330.196, 4494.829
331.553, 4830.813
332.910, 5089.850
334.267, 5563.937
335.624, 5604.076
336.981, 6186.269
338.337, 5808.512
339.693, 5886.809
341.049, 5449.157
342.405, 5030.561
343.760, 4866.017
345.116, 4254.527
346.471, 4239.079
347.826, 3889.243
349.180, 3894.233
350.535, 3970.789
351.889, 3923.536
353.243, 4397.937
354.597, 4218.833
355.950, 4573.786
357.304, 4563.797
358.657, 4400.861
360.010, 4613.983
361.362, 4071.163
362.715, 4132.398
364.067, 3794.690
365.419, 3782.039
366.771, 3845.444
368.123, 3623.904
369.474, 3837.420
370.825, 3323.994
372.176, 3306.624
373.527, 2885.310
374.877, 2469.052
376.228, 2349.849
377.578, 1887.703
378.928, 1949.598
380.277, 1696.533
381.627, 1694.510
382.976, 1861.529
384.325, 1710.592
385.674, 1945.697
387.023, 1800.847
388.371, 1980.042
389.719, 1921.284
391.067, 1764.572
392.415, 1810.908
393.762, 1377.292
395.110, 1472.726
396.457, 1173.208
397.804, 986.742
399.150, 905.327
400.497, 595.964
401.843, 599.654
403.189, 378.397
404.535, 416.196
405.881, 345.050
407.226, 200.960
408.571, 232.928
409.916, 101.956
411.261, 173.044
412.605, 129.193
413.950, 140.401
415.294, 187.673
416.638, 125.006
417.981, 264.400
419.325, 178.854
420.668, 264.370
422.011, 294.945
423.354, 212.580
424.697, 377.276
426.039, 257.031
427.381, 357.846
428.723, 320.722
430.065, 310.658
431.406, 387.657
432.748, 225.716
434.089, 366.834
435.430, 258.013
436.770, 304.253
438.111, 321.554
439.451, 202.915
440.791, 370.303
442.131, 221.781
443.471, 311.281
444.810, 385.884
446.149, 312.542
447.488, 514.748
448.827, 401.526
450.166, 561.935
451.504, 487.840
452.842, 484.856
454.180, 591.017
455.518, 488.117
456.855, 711.801
458.193, 627.499
459.530, 724.047
460.867, 862.321
462.203, 742.906
463.540, 1043.073
464.876, 943.888
466.212, 1146.806
467.548, 1225.350
468.883, 1238.606
470.219, 1634.556
471.554, 1536.379
472.889, 1870.214
474.224, 2033.348
475.558, 2219.908
476.892, 2739.657
478.227, 2780.237
479.561, 3387.626
480.894, 3483.279
482.228, 3705.817
483.561, 4063.682
484.894, 3748.359
486.227, 3936.103
487.559, 3358.911
488.892, 3118.786
490.224, 2670.726
491.556, 2118.730
492.888, 2007.802
494.220, 1486.937
495.551, 1311.141
496.882, 1097.408
498.213, 895.739
499.544, 866.139
500.874, 498.601
502.205, 549.128
503.535, 442.723
504.865, 328.381
506.194, 380.106
507.524, 187.894
508.853, 277.758
510.182, 152.880
511.511, 138.883
512.840, 182.272
514.168, 11.651
515.496, 158.915
516.824, 70.622
518.152, 103.036
519.480, 160.877
520.807, 74.834
522.134, 221.683
523.461, 123.812
524.788, 306.593
526.114, 269.632
527.441, 221.753
528.767, 424.807
530.093, 274.208
531.418, 411.354
532.744, 406.728
534.069, 364.304
535.394, 486.526
536.719, 301.279
538.044, 442.812
539.368, 349.698
540.693, 329.570
542.017, 432.229
543.340, 255.287
544.664, 392.136
545.987, 241.207
547.311, 283.260
548.634, 310.246
549.956, 171.506
551.279, 285.619
552.601, 144.629
553.923, 193.852
555.245, 252.718
556.567, 81.200
557.889, 243.299
559.210, 113.357
560.531, 186.675
561.852, 191.734
563.173, 168.387
564.493, 250.529
565.813, 158.904
567.133, 263.379
568.453, 237.662
569.773, 205.200
571.092, 316.450
572.412, 196.938
573.731, 303.726
575.049, 297.087
576.368, 247.962
577.686, 372.356
579.005, 238.089
580.323, 356.840
581.640, 249.298
582.958, 242.145
584.275, 249.650
585.593, 122.231
586.909, 234.970
588.226, 176.528
589.543, 160.402
590.859, 157.998
592.175, 105.609
593.491, 181.651
594.807, 63.278
596.122, 81.165
597.438, 97.858
598.753, 48.492
600.068, 102.405
601.382, 47.098
602.697, 7.973
604.011, 36.741
605.325, 63.471
606.639, 54.599
607.952, 64.786
609.266, 8.388
610.579, 1.310
611.892, 47.674
613.205, 85.679
614.518, 59.210
615.830, 56.746
617.142, 10.505
618.454, 68.069
619.766, 3.810
621.078, 87.089
622.389, 7.955
623.700, 45.660
625.011, 113.293
626.322, 16.190
627.632, 92.800
628.943, 29.653
630.253, 83.535
631.563, 87.519
632.872, 42.459
634.182, 93.361
635.491, 36.672
636.800, 27.573
638.109, 79.823
639.418, 29.724
640.726, 98.095
642.035, 44.176
643.343, 39.909
644.651, 52.345
645.958, 158.515
647.266, 126.087
648.573, 257.886
649.880, 288.174
651.187, 369.597
652.494, 658.453
653.800, 844.178
655.106, 1265.855
656.412, 1512.800
657.718, 1342.236
659.024, 1050.685
660.329, 575.398
661.634, 467.229
662.939, 301.209
664.244, 224.049
665.549, 259.606
666.853, 156.042
668.157, 223.761
669.461, 149.360
670.765, 178.042
672.069, 232.694
673.372, 154.510
674.675, 250.625
675.978, 177.059
677.281, 174.432
678.583, 226.900
679.886, 187.988
681.188, 294.907
682.490, 261.115
683.792, 266.670
685.093, 309.000
686.394, 254.369
687.696, 339.652
688.997, 312.887
690.297, 289.229
691.598, 399.040
692.898, 300.740
694.198, 376.063
695.498, 319.070
696.798, 346.243
698.097, 419.556
699.397, 351.009
700.696, 421.553
701.995, 392.530
703.293, 418.662
704.592, 454.549
705.890, 412.293
707.188, 464.964
708.486, 512.451
709.784, 483.617
711.081, 585.935
712.378, 461.530
713.675, 569.787
714.972, 597.812
716.269, 555.880
717.565, 631.665
718.862, 509.633
720.158, 646.827
721.453, 606.819
722.749, 602.271
724.045, 662.421
725.340, 621.096
726.635, 717.341
727.930, 662.687
729.224, 614.448
730.519, 727.915
731.813, 620.688
733.107, 751.490
734.401, 681.857
735.694, 695.963
736.988, 827.067
738.281, 698.179
739.574, 834.533
740.867, 787.473
742.160, 767.353
743.452, 844.240
744.744, 754.226
746.036, 859.312
747.328, 835.835
748.620, 744.215
749.911, 844.153
751.202, 781.459
752.493, 828.250
753.784, 835.706
755.075, 769.969
756.365, 861.975
757.655, 716.793
758.945, 787.471
760.235, 777.792
761.525, 708.377
762.814, 824.319
764.103, 689.111
765.392, 773.713
766.681, 763.086
767.969, 691.869
769.258, 786.726
770.546, 715.663
771.834, 805.386
773.122, 785.223
774.409, 688.549
775.697, 789.802
776.984, 752.525
778.271, 765.119
779.558, 786.779
780.844, 711.086
782.131, 835.866
783.417, 764.119
784.703, 802.869
785.989, 847.320
787.274, 763.308
788.560, 899.944
789.845, 852.696
791.130, 856.210
792.415, 929.253
793.699, 881.133
794.983, 952.395
796.268, 971.202
797.552, 955.672
798.835, 1017.546
800.119, 977.942
801.402, 1058.146
802.686, 1065.267
803.969, 1046.458
805.251, 1149.233
806.534, 1051.158
807.816, 1164.092
809.098, 1195.911
810.380, 1100.748
811.662, 1251.135
812.944, 1182.341
814.225, 1170.662
815.506, 1265.199
816.787, 1168.995
818.068, 1272.647
819.349, 1152.714
820.629, 1219.604
821.909, 1279.652
823.189, 1135.768
824.469, 1255.243
825.749, 1171.856
827.028, 1148.702
828.307, 1176.816
829.586, 1083.936
830.865, 1197.334
832.144, 1112.331
833.422, 1060.144
834.700, 1177.382
835.978, 1024.679
837.256, 1104.420
838.534, 1041.788
839.811, 974.925
841.088, 1070.415
842.365, 951.865
843.642, 1031.782
844.919, 989.202
846.195, 883.677
847.472, 1037.311
848.748, 883.872
850.023, 954.772
851.299, 979.386
852.575, 859.914
853.850, 984.738
855.125, 894.473
856.400, 916.685
857.674, 960.613
858.949, 850.314
860.223, 989.436
861.497, 824.414
862.771, 820.189
864.045, 942.448
865.318, 767.770
866.591, 899.169
867.864, 841.656
869.137, 773.887
870.410, 914.554
871.682, 740.190
872.955, 843.928
874.227, 783.885
875.499, 702.310
876.770, 779.332
878.042, 653.249
879.313, 729.606
880.584, 704.953
881.855, 527.765
883.126, 742.958
884.396, 624.288
885.667, 602.800
886.937, 676.491
888.207, 518.551
889.476, 642.282
890.746, 546.014
892.015, 517.055
893.284, 580.133
894.553, 430.842
895.822, 575.080
897.090, 513.211
898.359, 395.728
899.627, 654.213
900.895, 436.408
902.163, 632.872
903.430, 646.476
904.698, 584.548
905.965, 791.539
907.232, 675.305
908.499, 683.553
909.765, 785.936
911.032, 506.472
912.298, 588.040
913.564, 361.323
914.830, 282.033
916.095, 309.904
917.361, 62.921
918.626, 165.857
919.891, 138.390
921.156, 79.728
922.420, 58.035
923.685, 144.884
924.949, 45.959
926.213, 78.574
927.477, 239.369
928.740, 28.012
930.004, 212.407
931.267, 229.338
932.530, 99.718
933.793, 345.187
935.056, 183.340
936.318, 335.613
937.581, 362.246
938.843, 240.178
940.104, 471.520
941.366, 309.312
942.628, 470.075
943.889, 539.651
945.150, 320.296
946.411, 562.104
947.672, 455.955
948.932, 309.292
950.193, 555.426
951.453, 308.655
952.713, 510.946
953.973, 425.011
955.232, 373.648
956.491, 575.105
957.751, 348.070
959.010, 457.782
960.268, 546.700
961.527, 246.921
962.785, 611.688
964.044, 368.306
965.302, 348.233
966.559, 577.712
967.817, 160.646
969.075, 447.970
970.332, 333.451
971.589, 110.918
972.846, 350.486
974.102, 13.397
975.359, 94.800
976.615, 76.295
977.871, 419.034
979.127, 166.005
980.383, 635.486
981.638, 901.458
982.893, 726.305
984.149, 1536.869
985.404, 1376.629
986.658, 2030.377
987.913, 2774.658
989.167, 2785.412
990.421, 4393.220
991.675, 5584.814
992.929, 7858.322
994.183, 12819.715
995.436, 17732.834
996.689, 26785.318
997.942, 28025.748
999.195, 21149.398
1000.448, 17550.207
1001.700, 12992.697
1002.952, 12765.893
1004.204, 14436.801
1005.456, 15350.469
1006.708, 19982.562
1007.959, 22615.352
1009.210, 25859.248
1010.461, 30901.154
1011.712, 29345.988
1012.963, 31577.879
1014.213, 29409.963
1015.464, 24704.758
1016.714, 23286.164
1017.964, 18040.779
1019.214, 15194.507
1020.463, 13077.074
1021.712, 9512.812
1022.962, 9085.254
1024.210, 7250.355
1025.459, 5764.558
1026.708, 5707.193
1027.956, 4102.031
1029.204, 3894.242
1030.452, 3478.787
1031.700, 2603.139
1032.948, 3192.982
1034.195, 2639.031
1035.442, 2852.688
1036.689, 3376.231
1037.936, 3042.131
1039.183, 4264.211
1040.429, 4650.217
1041.676, 4764.143
1042.922, 6227.754
1044.168, 5373.714
1045.413, 6245.668
1046.659, 6872.555
1047.904, 6558.279
1049.149, 8580.849
1050.394, 9800.929
1051.639, 13416.097
1052.884, 20246.660
1054.128, 23437.807
1055.372, 27748.422
1056.616, 25480.336
1057.860, 19462.434
1059.104, 19244.715
1060.347, 16127.198
1061.590, 16698.742
1062.833, 17421.619
1064.076, 15530.716
1065.319, 16697.924
1066.561, 14356.692
1067.803, 12305.196
1069.046, 12249.865
1070.287, 9174.032
1071.529, 8476.245
1072.771, 7387.843
1074.012, 5157.706
1075.253, 5744.666
1076.494, 4110.485
1077.735, 3397.137
1078.975, 3727.802
1080.216, 2348.029
1081.456, 2898.162
1082.696, 2857.104
1083.936, 2471.971
1085.175, 3587.758
1086.415, 3385.269
1087.654, 4602.178
1088.893, 5947.349
1090.132, 6449.553
1091.371, 9972.589
1092.609, 11957.142
1093.847, 14258.501
1095.085, 18213.898
1096.323, 16766.139
1097.561, 17595.705
1098.799, 16174.914
1100.036, 12950.773
1101.273, 13922.241
1102.510, 12302.961
1103.747, 12959.859
1104.983, 15920.811
1106.220, 16291.229
1107.456, 20595.623
1108.692, 24945.096
1109.928, 27530.773
1111.163, 36093.570
1112.399, 39517.895
1113.634, 44536.496
1114.869, 51027.156
1116.104, 47446.656
1117.339, 50718.020
1118.573, 46936.656
1119.808, 39871.969
1121.042, 38897.598
1122.276, 31293.984
1123.509, 28083.596
1124.743, 25821.684
1125.976, 19700.816
1127.210, 19872.004
1128.443, 16353.704
1129.675, 13925.865
1130.908, 14018.523
1132.141, 11151.656
1133.373, 11495.264
1134.605, 11579.408
1135.837, 9634.048
1137.068, 11789.178
1138.300, 10974.887
1139.531, 11611.093
1140.762, 13767.818
1141.993, 12825.092
1143.224, 16022.874
1144.455, 17561.189
1145.685, 18080.072
1146.915, 22959.463
1148.145, 23129.445
1149.375, 25859.980
1150.605, 30841.039
1151.834, 30142.693
1153.063, 34464.887
1154.292, 35777.609
1155.521, 34440.926
1156.750, 38064.762
1157.978, 34529.152
1159.207, 32834.113
1160.435, 33499.602
1161.663, 27085.670
1162.891, 26582.291
1164.118, 23369.451
1165.345, 18807.227
1166.573, 18485.547
1167.800, 14384.414
1169.026, 12853.882
1170.253, 12563.888
1171.480, 9234.476
1172.706, 9665.637
1173.932, 8177.340
1175.158, 6199.637
1176.383, 7152.495
1177.609, 5065.917
1178.834, 4629.924
1180.059, 4924.489
1181.284, 3239.641
1182.509, 3675.371
1183.734, 3211.667
1184.958, 2288.529
1186.182, 3215.960
1187.406, 2583.965
1188.630, 2612.539
1189.854, 3611.688
1191.077, 2351.407
1192.301, 4071.701
1193.524, 4202.576
1194.747, 4224.009
1195.969, 6386.020
1197.192, 6268.610
1198.414, 7611.749
1199.636, 9865.463
1200.858, 9649.724
1202.080, 13634.530
1203.302, 14799.893
1204.523, 14985.782
1205.744, 19472.236
1206.966, 18419.219
1208.186, 19176.740
1209.407, 21074.803
1210.628, 17473.410
1211.848, 18612.570
1213.068, 17332.305
1214.288, 14492.588
1215.508, 15443.480
1216.727, 13044.950
1217.947, 12517.000
1219.166, 13279.683
1220.385, 11152.960
1221.604, 12696.877
1222.822, 13071.401
1224.041, 12576.547
1225.259, 15302.344
1226.477, 15208.739
1227.695, 16705.770
1228.913, 20133.443
1230.130, 19566.453
1231.348, 24045.385
1232.565, 26004.924
1233.782, 25679.338
1234.999, 31320.174
1236.215, 31142.613
1237.432, 32842.840
1238.648, 36585.574
1239.864, 34718.773
1241.080, 38279.277
1242.296, 38844.062
1243.511, 36958.113
1244.726, 41685.664
1245.942, 38944.871
1247.156, 38790.605
1248.371, 42141.523
1249.586, 37758.527
1250.800, 39072.016
1252.014, 39952.250
1253.228, 34905.215
1254.442, 37113.848
1255.656, 33648.750
1256.869, 30826.197
1258.083, 31551.430
1259.296, 27089.426
1260.509, 26391.498
1261.722, 25826.812
1262.934, 20538.355
1264.147, 22423.564
1265.359, 20010.754
1266.571, 17680.811
1267.783, 19020.584
1268.994, 16329.545
1270.206, 16392.391
1271.417, 17112.457
1272.628, 14683.975
1273.839, 16366.184
1275.050, 16087.870
1276.260, 15334.858
1277.471, 17520.688
1278.681, 16063.987
1279.891, 17350.820
1281.101, 19739.908
1282.310, 18014.803
1283.520, 20063.203
1284.729, 21290.033
1285.938, 20261.752
1287.147, 23481.979
1288.356, 22559.529
1289.564, 22716.807
1290.773, 25798.396
1291.981, 23887.545
1293.189, 25547.230
1294.397, 26634.027
1295.604, 24536.684
1296.812, 27908.434
1298.019, 26790.816
1299.226, 25638.314
1300.433, 28845.828
1301.640, 26859.482
1302.846, 27699.979
1304.053, 28471.191
1305.259, 25176.707
1306.465, 26433.785
1307.671, 25033.514
1308.876, 21420.141
1310.082, 23412.676
1311.287, 19611.928
1312.492, 18023.178
1313.697, 18851.258
1314.902, 15310.557
1316.106, 15776.760
1317.310, 15012.360
1318.515, 12241.935
1319.719, 13400.021
1320.922, 11713.169
1322.126, 10304.663
1323.329, 11592.616
1324.533, 9255.001
1325.736, 9169.299
1326.939, 9807.521
1328.141, 7810.316
1329.344, 9004.160
1330.546, 8359.521
1331.748, 7073.020
1332.950, 8339.017
1334.152, 6844.234
1335.354, 6468.436
1336.555, 7025.606
1337.757, 5240.336
1338.958, 5535.077
1340.159, 5252.555
1341.359, 4027.622
1342.560, 4783.071
1343.760, 3869.821
1344.960, 3225.231
1346.160, 4052.336
1347.360, 2928.563
1348.560, 2934.184
1349.759, 3212.809
1350.959, 2088.626
1352.158, 2594.436
1353.357, 2371.215
1354.555, 1667.152
1355.754, 2263.100
1356.952, 1670.484
1358.151, 1396.537
1359.349, 2102.654
1360.546, 898.989
1361.744, 1415.104
1362.941, 1351.995
1364.139, 708.158
1365.336, 1284.281
1366.533, 920.674
1367.730, 486.731
1368.926, 1082.758
1370.123, 248.891
1371.319, 244.841
1372.515, 540.759
1373.711, 326.170
1374.906, 282.582
1376.102, 138.389
1377.297, 292.962
1378.492, 209.587
1379.687, 97.041
1380.882, 443.612
1382.077, 116.878
1383.271, 488.470
1384.465, 360.170
1385.659, 50.696
1386.853, 723.821
1388.047, 112.767
1389.240, 167.172
1390.434, 683.028
1391.627, 176.326
1392.820, 374.053
1394.013, 539.295
1395.205, 4.024
1396.398, 468.106
1397.590, 310.672
1398.782, 144.734
1399.974, 503.237
1401.166, 94.199
1402.357, 168.607
1403.549, 535.570
1404.740, 104.921
1405.931, 198.158
1407.122, 277.831
1408.313, 199.895
1409.503, 350.001
1410.693, 28.544
1411.883, 65.208
1413.073, 337.662
1414.263, 257.854
1415.453, 18.747
1416.642, 245.030
1417.831, 236.554
1419.020, 65.529
1420.209, 9.298
1421.398, 235.254
1422.587, 219.832
1423.775, 16.564
1424.963, 222.045
1426.151, 377.992
1427.339, 144.351
1428.526, 25.082
1429.714, 131.801
1430.901, 268.716
1432.088, 16.354
1433.275, 75.022
1434.462, 320.744
1435.648, 176.054
1436.835, 117.598
1438.021, 281.692
1439.207, 123.720
1440.393, 392.380
1441.579, 246.998
1442.764, 49.171
1443.949, 495.919
1445.135, 283.268
1446.320, 306.250
1447.504, 570.897
1448.689, 243.247
1449.873, 482.270
1451.058, 689.794
1452.242, 222.271
