##NAMES=Xenotime-(Y)
##RRUFFID=R050178
##IDEAL CHEMISTRY=Y^3+^PO_4_
##LOCALITY=Novo Horizonte, Bahia, Brazil
##OWNER=RRUFF
##SOURCE=Marcus Origlieri
##DESCRIPTION=Brown crystal fragments
##STATUS=The identification of this mineral has been confirmed by X-ray diffraction and chemical analysis
##URL=rruff.info/R050178
##MEASURED CHEMISTRY=(Y_0.74_Dy_0.09_Gd_0.06_Er_0.04_Yb_0.02_Ho_0.01_Tb_0.01_Sm_0.01_Eu_0.01_)_Σ=1.00_(P_0.97_As_0.02_Si_0.01_)_Σ=1.00_O_4_
##PIN_ID=M00421
##ORIENTATION=Laser parallel to a* (1 0 0). Fiducial mark perpendicular to laser is parallel to c [0 0 1]
101.036, 0.000
102.428, 28.256
103.820, 59.471
105.212, 0.230
106.604, 4.900
107.995, 89.405
109.387, 121.378
110.777, 158.306
112.168, 209.730
113.559, 192.053
114.949, 227.019
116.339, 223.157
117.729, 179.223
119.119, 180.509
120.508, 139.786
121.897, 87.257
123.286, 91.136
124.675, 111.111
126.063, 59.466
127.452, 79.925
128.840, 28.346
130.228, 72.309
131.615, 25.613
133.003, 35.228
134.390, 71.634
135.777, 69.532
137.164, 90.616
138.550, 106.570
139.937, 81.826
141.323, 93.032
142.709, 93.458
144.094, 152.660
145.480, 159.682
146.865, 168.399
148.250, 203.246
149.635, 235.915
151.019, 239.492
152.403, 242.137
153.788, 276.902
155.171, 242.781
156.555, 270.771
157.939, 253.869
159.322, 256.074
160.705, 212.380
162.088, 168.784
163.470, 169.287
164.853, 63.884
166.235, 29.565
167.617, 35.329
168.998, 14.176
170.380, 35.109
171.761, 33.130
173.142, 43.243
174.523, 12.449
175.904, 30.751
177.284, 64.151
178.664, 97.651
180.044, 56.253
181.424, 44.958
182.803, 70.769
184.183, 37.282
185.562, 43.116
186.940, 94.775
188.319, 69.275
189.698, 105.634
191.076, 100.870
192.454, 71.003
193.831, 70.051
195.209, 74.032
196.586, 51.957
197.963, 49.844
199.340, 1.702
200.717, 22.542
202.093, 7.649
203.470, 4.877
204.846, 56.141
206.221, 43.446
207.597, 77.782
208.972, 132.154
210.347, 113.570
211.722, 183.037
213.097, 173.557
214.472, 194.133
215.846, 251.757
217.220, 320.394
218.594, 448.044
219.967, 509.733
221.341, 659.461
222.714, 767.254
224.087, 998.115
225.460, 1194.030
226.832, 1500.928
228.204, 1817.783
229.577, 2063.594
230.948, 2467.407
232.320, 2426.248
233.692, 2499.158
235.063, 2362.151
236.434, 2117.231
237.805, 1879.399
239.175, 1677.654
240.545, 1580.996
241.916, 1445.427
243.286, 1490.946
244.655, 1559.553
246.025, 1687.250
247.394, 1978.035
248.763, 2046.909
250.132, 2228.873
251.501, 2172.927
252.869, 2094.070
254.237, 1978.304
255.605, 1868.628
256.973, 1852.043
258.340, 1806.547
259.708, 1933.143
261.075, 1941.828
262.442, 1990.605
263.808, 2170.472
265.175, 2122.430
266.541, 2214.448
267.907, 1964.015
269.273, 1832.121
270.639, 1803.643
272.004, 1619.932
273.369, 1687.399
274.734, 1663.649
276.099, 1896.682
277.463, 2107.488
278.828, 2384.085
280.192, 2780.453
281.556, 2896.617
282.919, 3322.531
284.283, 3378.281
285.646, 3662.744
287.009, 3506.858
288.372, 3432.915
289.734, 3401.995
291.097, 3007.507
292.459, 3147.208
293.821, 3039.859
295.183, 3260.415
296.544, 3401.889
297.905, 3445.614
299.266, 3500.903
300.627, 3083.979
301.988, 2897.394
303.348, 2476.977
304.709, 2113.366
306.069, 1805.012
307.428, 1474.623
308.788, 1463.441
310.147, 1216.993
311.507, 1219.348
312.865, 1163.866
314.224, 1059.573
315.583, 1166.399
316.941, 1121.370
318.299, 1234.627
319.657, 1256.868
321.015, 1267.358
322.372, 1442.907
323.729, 1433.562
325.086, 1674.196
326.443, 1809.765
327.800, 2217.462
329.156, 2405.167
330.512, 2799.849
331.868, 3448.125
333.224, 3740.697
334.579, 4797.597
335.935, 5413.724
337.290, 6408.498
338.645, 7265.278
339.999, 7962.199
341.354, 8826.577
342.708, 8841.203
344.062, 9095.757
345.416, 8530.370
346.769, 8095.193
348.123, 7549.086
349.476, 6765.910
350.829, 6468.787
352.182, 5622.557
353.534, 5249.333
354.887, 4908.694
356.239, 4581.213
357.591, 4591.056
358.942, 4204.910
360.294, 4286.200
361.645, 4014.792
362.996, 3895.329
364.347, 3859.423
365.698, 3432.139
367.048, 3466.919
368.398, 3185.762
369.748, 3204.669
371.098, 3199.640
372.448, 3016.676
373.797, 3127.775
375.146, 2920.940
376.495, 2874.167
377.844, 2814.460
379.192, 2597.817
380.540, 2698.238
381.889, 2456.726
383.236, 2668.279
384.584, 2683.897
385.932, 3012.583
387.279, 3254.333
388.626, 3490.149
389.973, 4015.029
391.319, 4131.979
392.666, 4611.992
394.012, 4657.073
395.358, 4679.221
396.704, 4837.436
398.049, 4377.717
399.394, 4292.063
400.740, 3788.476
402.084, 3404.955
403.429, 3121.498
404.774, 2661.108
406.118, 2448.782
407.462, 2059.521
408.806, 1952.324
410.150, 1615.190
411.493, 1464.120
412.836, 1422.112
414.179, 1172.167
415.522, 1111.284
416.865, 959.463
418.207, 942.703
419.549, 955.005
420.891, 853.367
422.233, 860.792
423.575, 755.276
424.916, 832.822
426.257, 790.427
427.598, 750.090
428.939, 798.797
430.279, 751.547
431.619, 831.343
432.959, 787.188
434.299, 882.082
435.639, 926.027
436.978, 875.021
438.318, 1129.066
439.657, 1102.165
440.996, 1300.316
442.334, 1416.523
443.673, 1456.785
445.011, 1836.102
446.349, 1803.479
447.687, 2242.914
449.024, 2385.411
450.361, 2601.967
451.699, 3035.583
453.036, 2981.263
454.372, 3298.004
455.709, 3096.815
457.045, 3161.690
458.381, 3154.638
459.717, 2807.651
461.053, 2802.996
462.388, 2511.523
463.724, 2424.282
465.059, 2259.615
466.394, 1943.174
467.728, 2013.672
469.063, 1698.304
470.397, 1735.825
471.731, 1635.578
473.065, 1442.066
474.398, 1580.525
475.732, 1416.083
477.065, 1595.949
478.398, 1533.607
479.731, 1643.139
481.063, 1803.084
482.396, 1860.852
483.728, 2055.299
485.060, 2115.896
486.391, 2368.500
487.723, 2433.083
489.054, 2341.760
490.385, 2433.227
491.716, 2113.796
493.047, 1999.719
494.377, 1813.178
495.708, 1471.081
497.038, 1401.058
498.368, 984.103
499.697, 992.225
501.027, 786.414
502.356, 622.672
503.685, 565.999
505.014, 392.390
506.342, 429.850
507.671, 270.377
508.999, 246.988
510.327, 264.683
511.655, 103.472
512.982, 168.351
514.310, 61.565
515.637, 116.635
516.964, 89.851
518.291, 42.185
519.617, 116.553
520.944, 31.576
522.270, 112.049
523.596, 59.970
524.921, 64.779
526.247, 181.541
527.572, 120.588
528.897, 165.657
530.222, 211.741
531.547, 233.900
532.871, 336.058
534.196, 238.446
535.520, 375.623
536.844, 307.079
538.167, 365.706
539.491, 414.302
540.814, 318.224
542.137, 451.980
543.460, 352.067
544.783, 427.086
546.105, 434.102
547.427, 331.172
548.749, 537.205
550.071, 382.482
551.393, 419.798
552.714, 445.072
554.035, 402.508
555.356, 432.700
556.677, 390.101
557.998, 450.461
559.318, 534.931
560.638, 409.580
561.958, 537.133
563.278, 470.837
564.597, 555.502
565.917, 527.995
567.236, 558.743
568.555, 602.264
569.874, 526.887
571.192, 638.567
572.511, 622.192
573.829, 631.928
575.147, 681.658
576.464, 679.294
577.782, 873.166
579.099, 939.780
580.416, 1135.011
581.733, 1554.762
583.050, 1453.831
584.366, 1287.748
585.683, 926.348
586.999, 777.392
588.315, 684.149
589.630, 419.946
590.946, 555.948
592.261, 343.589
593.576, 313.953
594.891, 372.687
596.206, 277.769
597.520, 305.910
598.834, 189.871
600.148, 197.334
601.462, 256.349
602.776, 157.129
604.089, 178.891
605.402, 107.836
606.715, 170.492
608.028, 116.606
609.341, 35.535
610.653, 114.155
611.965, 20.263
613.277, 87.156
614.589, 51.569
615.901, 8.079
617.212, 43.266
618.523, 52.972
619.834, 18.631
621.145, 25.371
622.456, 43.229
623.766, 8.583
625.076, 123.389
626.386, 43.972
627.696, 67.007
629.006, 96.610
630.315, 60.047
631.624, 131.203
632.933, 55.761
634.242, 110.907
635.551, 149.154
636.859, 72.444
638.167, 127.368
639.475, 72.292
640.783, 109.298
642.090, 85.961
643.398, 32.525
644.705, 79.442
646.012, 28.355
647.318, 46.118
648.625, 69.285
649.931, 4.456
651.237, 35.804
652.543, 31.904
653.849, 32.315
655.155, 47.352
656.460, 129.118
657.765, 144.994
659.070, 287.666
660.375, 338.465
661.679, 340.528
662.984, 341.484
664.288, 168.155
665.592, 198.807
666.895, 123.518
668.199, 78.334
669.502, 127.521
670.805, 39.024
672.108, 131.552
673.411, 100.823
674.713, 102.396
676.016, 126.226
677.318, 43.368
678.620, 179.548
679.921, 81.983
681.223, 135.520
682.524, 174.088
683.825, 133.932
685.126, 154.299
686.427, 179.836
687.727, 187.305
689.028, 214.412
690.328, 187.440
691.628, 262.672
692.927, 224.981
694.227, 209.816
695.526, 241.988
696.825, 189.767
698.124, 253.790
699.423, 200.576
700.721, 238.013
702.020, 260.578
703.318, 269.167
704.616, 295.699
705.913, 257.314
707.211, 263.969
708.508, 288.580
709.805, 266.848
711.102, 337.241
712.399, 299.662
713.695, 320.859
714.992, 305.728
716.288, 273.556
717.584, 307.121
718.879, 280.533
720.175, 299.789
721.470, 349.888
722.765, 297.832
724.060, 360.616
725.355, 344.241
726.649, 338.742
727.944, 359.046
729.238, 340.281
730.532, 348.258
731.825, 377.069
733.119, 327.807
734.412, 394.283
735.705, 295.593
736.998, 371.728
738.291, 324.693
739.584, 347.483
740.876, 420.098
742.168, 340.542
743.460, 388.807
744.752, 381.897
746.043, 357.589
747.334, 425.322
748.626, 321.892
749.916, 410.301
751.207, 363.013
752.498, 360.875
753.788, 385.488
755.078, 329.839
756.368, 386.263
757.658, 415.515
758.947, 308.100
760.237, 400.266
761.526, 319.943
762.815, 383.013
764.104, 405.602
765.392, 331.653
766.680, 396.460
767.969, 324.320
769.257, 381.405
770.544, 378.356
771.832, 341.047
773.119, 392.688
774.406, 361.745
775.693, 394.635
776.980, 424.443
778.267, 401.906
779.553, 464.945
780.839, 457.691
782.125, 444.644
783.411, 512.133
784.697, 444.367
785.982, 520.640
787.267, 488.864
788.552, 560.481
789.837, 515.060
791.122, 526.039
792.406, 596.564
793.690, 540.237
794.974, 564.691
796.258, 624.627
797.542, 564.821
798.825, 679.462
800.108, 622.472
801.391, 630.118
802.674, 672.245
803.957, 624.076
805.239, 705.518
806.522, 722.903
807.804, 697.194
809.085, 740.077
810.367, 708.317
811.649, 781.028
812.930, 750.784
814.211, 753.828
815.492, 823.604
816.772, 784.093
818.053, 818.498
819.333, 792.603
820.613, 796.469
821.893, 863.984
823.173, 802.765
824.452, 843.184
825.732, 855.774
827.011, 820.887
828.290, 911.519
829.568, 846.843
830.847, 871.398
832.125, 868.442
833.403, 799.109
834.681, 880.090
835.959, 820.957
837.236, 797.633
838.514, 857.786
839.791, 749.685
841.068, 831.324
842.345, 789.654
843.621, 740.747
844.898, 808.365
846.174, 708.957
847.450, 757.024
848.726, 774.677
850.001, 737.124
851.277, 756.000
852.552, 713.802
853.827, 805.029
855.102, 785.087
856.376, 769.913
857.651, 861.447
858.925, 787.788
860.199, 879.650
861.473, 936.244
862.746, 807.658
864.020, 1006.677
865.293, 973.720
866.566, 970.333
867.839, 1053.767
869.112, 955.871
870.384, 1088.576
871.656, 1026.159
872.928, 1032.369
874.200, 1099.401
875.472, 971.385
876.744, 1073.895
878.015, 975.413
879.286, 882.609
880.557, 999.529
881.828, 844.284
883.098, 893.709
884.369, 957.922
885.639, 807.010
886.909, 929.642
888.178, 882.313
889.448, 870.150
890.717, 852.250
891.987, 816.813
893.256, 922.312
894.524, 755.910
895.793, 766.847
897.061, 768.854
898.330, 625.605
899.598, 755.931
900.865, 589.404
902.133, 576.932
903.401, 597.869
904.668, 510.240
905.935, 557.330
907.202, 495.380
908.468, 522.707
909.735, 631.263
911.001, 471.842
912.267, 529.219
913.533, 635.200
914.799, 434.259
916.064, 495.641
917.330, 353.996
918.595, 244.436
919.860, 257.150
921.124, 112.846
922.389, 194.764
923.653, 6.347
924.918, 11.973
926.182, 5.748
927.445, 132.337
928.709, 65.651
929.972, 48.138
931.236, 167.415
932.499, 43.550
933.761, 237.201
935.024, 191.727
936.286, 104.001
937.549, 290.736
938.811, 103.087
940.073, 321.332
941.334, 206.324
942.596, 135.528
943.857, 340.988
945.118, 158.149
946.379, 265.605
947.640, 280.288
948.900, 145.630
950.161, 336.347
951.421, 218.021
952.681, 242.987
953.940, 294.382
955.200, 147.667
956.459, 333.117
957.719, 285.854
958.978, 270.838
960.236, 346.790
961.495, 224.645
962.753, 356.474
964.012, 335.685
965.270, 244.957
966.527, 488.596
967.785, 318.792
969.043, 387.130
970.300, 575.444
971.557, 238.042
972.814, 452.921
974.071, 325.169
975.327, 293.022
976.583, 413.413
977.840, 192.077
979.095, 262.678
980.351, 227.788
981.607, 10.351
982.862, 217.386
984.117, 64.352
985.372, 176.683
986.627, 146.762
987.882, 650.663
989.136, 509.142
990.390, 867.952
991.644, 1225.448
992.898, 1291.873
994.152, 2230.520
995.405, 2675.106
996.659, 3913.354
997.912, 6316.392
999.165, 8890.768
1000.417, 13775.680
1001.670, 15149.849
1002.922, 12654.652
1004.174, 10378.565
1005.426, 7434.701
1006.678, 6890.587
1007.930, 6966.328
1009.181, 7344.008
1010.432, 9170.488
1011.683, 10048.812
1012.934, 11758.068
1014.185, 13785.557
1015.435, 13645.812
1016.685, 15055.930
1017.935, 14046.168
1019.185, 12746.630
1020.435, 12427.033
1021.684, 10117.599
1022.934, 9438.223
1024.183, 8658.900
1025.432, 7489.646
1026.680, 7490.455
1027.929, 6331.333
1029.177, 5622.283
1030.425, 5373.272
1031.673, 4404.376
1032.921, 4765.467
1034.169, 4376.737
1035.416, 4208.095
1036.663, 5189.452
1037.911, 4910.995
1039.157, 5972.637
1040.404, 6954.381
1041.650, 7556.228
1042.897, 9528.184
1044.143, 10170.251
1045.389, 11622.432
1046.634, 13114.727
1047.880, 12877.146
1049.125, 13918.908
1050.371, 13391.575
1051.615, 12193.352
1052.860, 12795.245
1054.105, 11327.785
1055.349, 11959.131
1056.593, 13671.685
1057.837, 14823.456
1059.081, 17736.119
1060.325, 18329.914
1061.568, 19872.344
1062.812, 23746.158
1064.055, 26600.436
1065.298, 33813.285
1066.540, 39107.586
1067.783, 39649.406
1069.025, 41808.445
1070.267, 36048.410
1071.509, 30803.129
1072.751, 26191.963
1073.993, 19322.043
1075.234, 16543.158
1076.475, 12774.580
1077.716, 9778.046
1078.957, 8686.422
1080.198, 6126.627
1081.438, 5190.098
1082.679, 4561.984
1083.919, 3332.610
1085.159, 3536.881
1086.398, 2747.247
1087.638, 2456.944
1088.877, 2818.799
1090.116, 2108.247
1091.355, 2805.533
1092.594, 2997.711
1093.833, 3208.565
1095.071, 4540.969
1096.309, 4957.857
1097.547, 6264.719
1098.785, 8200.279
1100.023, 7755.500
1101.260, 8598.542
1102.498, 8210.968
1103.735, 6931.264
1104.972, 7700.924
1106.208, 6690.739
1107.445, 7624.262
1108.681, 8519.594
1109.918, 8691.380
1111.154, 11850.938
1112.389, 13034.097
1113.625, 15489.275
1114.860, 19740.295
1116.096, 21118.645
1117.331, 25327.385
1118.566, 28463.309
1119.800, 27969.590
1121.035, 29735.221
1122.269, 27210.275
1123.503, 24833.145
1124.737, 24198.479
1125.971, 19928.484
1127.205, 18470.277
1128.438, 17069.598
1129.671, 13901.274
1130.904, 14240.859
1132.137, 12014.491
1133.370, 11185.213
1134.602, 11576.370
1135.834, 9957.916
1137.066, 10719.854
1138.298, 11102.239
1139.530, 10405.015
1140.762, 12198.198
1141.993, 11931.836
1143.224, 12935.873
1144.455, 15360.360
1145.686, 15115.274
1146.917, 18740.609
1148.147, 20176.410
1149.377, 20882.637
1150.607, 26199.291
1151.837, 26786.422
1153.067, 30713.996
1154.296, 34661.996
1155.526, 34560.477
1156.755, 40539.371
1157.984, 41348.734
1159.213, 41858.559
1160.441, 44948.785
1161.670, 42439.480
1162.898, 41760.637
1164.126, 41222.207
1165.354, 35794.230
1166.581, 35606.684
1167.809, 31049.582
1169.036, 27232.955
1170.263, 26796.738
1171.490, 22180.963
1172.717, 20545.635
1173.943, 19460.740
1175.170, 16356.286
1176.396, 16262.289
1177.622, 14158.714
1178.848, 12885.599
1180.073, 12762.917
1181.299, 10530.676
1182.524, 9968.886
1183.749, 9217.530
1184.974, 7456.615
1186.199, 7466.151
1187.423, 6176.121
1188.648, 5186.543
1189.872, 5357.406
1191.096, 3988.708
1192.320, 3710.460
1193.543, 3792.649
1194.767, 2815.277
1195.990, 3438.354
1197.213, 2851.871
1198.436, 3035.832
1199.659, 3690.240
1200.881, 2995.096
1202.104, 3680.398
1203.326, 4576.151
1204.548, 4112.343
1205.770, 5638.988
1206.991, 5936.078
1208.213, 6443.600
1209.434, 8061.570
1210.655, 7429.979
1211.876, 8528.822
1213.096, 9218.113
1214.317, 8007.844
1215.537, 8848.019
1216.757, 7968.650
1217.977, 7559.744
1219.197, 7861.316
1220.417, 6403.352
1221.636, 6815.891
1222.855, 7018.920
1224.074, 6172.451
1225.293, 7286.508
1226.512, 7031.070
1227.731, 7406.137
1228.949, 9391.729
1230.167, 8769.852
1231.385, 10426.479
1232.603, 12273.624
1233.820, 12467.752
1235.038, 15575.941
1236.255, 16335.476
1237.472, 17320.396
1238.689, 21240.164
1239.906, 20332.684
1241.122, 22807.859
1242.338, 25169.271
1243.555, 23670.457
1244.771, 26415.943
1245.986, 26161.895
1247.202, 25541.758
1248.417, 27657.516
1249.633, 25380.133
1250.848, 25587.252
1252.063, 26343.412
1253.277, 23815.102
1254.492, 24770.322
1255.706, 23338.109
1256.920, 21363.332
1258.134, 22396.641
1259.348, 19577.348
1260.562, 18463.357
1261.775, 18913.889
1262.988, 15924.480
1264.201, 15473.113
1265.414, 14884.596
1266.627, 12733.774
1267.839, 13321.808
1269.052, 11424.920
1270.264, 10746.068
1271.476, 11271.467
1272.688, 9586.123
1273.899, 9818.202
1275.111, 9703.829
1276.322, 8460.837
1277.533, 9784.078
1278.744, 8901.109
1279.955, 8767.623
1281.165, 10655.533
1282.376, 9423.881
1283.586, 10502.136
1284.796, 11451.356
1286.006, 10801.016
1287.215, 13102.233
1288.425, 13042.768
1289.634, 13109.463
1290.843, 15325.774
1292.052, 15017.611
1293.261, 15801.144
1294.469, 17637.039
1295.678, 16020.437
1296.886, 18376.525
1298.094, 18313.184
1299.302, 17440.477
1300.509, 19577.334
1301.717, 18642.816
1302.924, 19107.037
1304.131, 21229.605
1305.338, 19096.324
1306.545, 21003.033
1307.752, 21115.094
1308.958, 19174.898
1310.164, 20410.219
1311.370, 19372.559
1312.576, 17846.291
1313.782, 18334.191
1314.987, 16104.136
1316.193, 15686.837
1317.398, 15572.501
1318.603, 13042.913
1319.807, 13467.951
1321.012, 12284.515
1322.216, 10975.566
1323.421, 11502.538
1324.625, 10176.094
1325.829, 9609.197
1327.032, 9826.124
1328.236, 8308.716
1329.439, 8762.912
1330.642, 8329.614
1331.845, 7293.128
1333.048, 8030.641
1334.251, 7435.000
1335.453, 6609.240
1336.656, 7546.598
1337.858, 6191.297
1339.060, 6286.225
1340.261, 6222.694
1341.463, 4777.797
1342.664, 5263.401
1343.866, 4500.274
1345.067, 3665.659
1346.267, 4272.182
1347.468, 3368.019
1348.669, 3063.564
1349.869, 3130.670
1351.069, 2416.287
1352.269, 2641.968
1353.469, 2388.814
1354.668, 1694.637
1355.868, 2290.471
1357.067, 1427.427
1358.266, 1353.356
1359.465, 1889.275
1360.664, 1215.289
1361.862, 1131.253
1363.061, 1507.647
1364.259, 554.577
1365.457, 1179.471
1366.655, 761.432
1367.852, 567.309
1369.050, 969.128
1370.247, 283.938
1371.444, 293.728
1372.641, 615.462
1373.838, 172.729
1375.035, 53.942
1376.231, 109.592
1377.427, 371.581
1378.623, 182.005
1379.819, 84.580
1381.015, 329.006
1382.211, 58.168
1383.406, 168.081
1384.601, 259.809
1385.796, 13.961
1386.991, 426.792
1388.185, 191.099
1389.380, 185.002
1390.574, 603.452
1391.768, 116.468
1392.962, 353.093
1394.156, 462.302
1395.350, 39.036
1396.543, 538.322
1397.736, 338.161
1398.929, 33.519
1400.122, 556.400
1401.315, 208.850
1402.507, 88.893
1403.700, 506.488
1404.892, 24.642
1406.084, 325.431
1407.276, 250.835
1408.467, 80.142
1409.659, 217.523
1410.850, 163.893
1412.041, 185.063
1413.232, 201.667
1414.423, 11.099
1415.614, 77.742
1416.804, 159.105
1417.994, 264.328
1419.184, 29.017
1420.374, 121.979
1421.564, 278.346
1422.753, 157.043
1423.943, 119.867
1425.132, 192.099
1426.321, 129.333
1427.510, 165.551
1428.698, 206.752
1429.887, 127.701
1431.075, 249.195
1432.263, 15.444
1433.451, 49.059
1434.639, 281.045
1435.827, 57.577
1437.014, 143.196
1438.201, 276.392
1439.388, 36.976
1440.575, 215.104
1441.762, 227.662
1442.949, 26.720
1444.135, 392.299
1445.321, 140.428
1446.507, 212.137
1447.693, 475.453
1448.879, 176.437
1450.064, 317.197
1451.250, 436.535
1452.435, 289.571
1453.620, 401.959
1454.805, 377.547
1455.989, 284.084
1457.174, 575.264
1458.358, 436.003
1459.542, 334.551
1460.726, 603.277
1461.910, 356.842
1463.093, 304.111
1464.277, 584.857
1465.460, 320.607
1466.643, 453.144
1467.826, 507.666
1469.009, 382.185
1470.191, 657.004
1471.373, 547.123
1472.556, 444.965
1473.738, 800.089
1474.919, 465.391
1476.101, 651.833
1477.283, 759.300
1478.464, 521.978
1479.645, 707.069
1480.826, 673.469
1482.007, 568.258
1483.187, 813.252
1484.368, 598.781
1485.548, 484.947
1486.728, 678.910
1487.908, 485.634
1489.088, 503.696
1490.268, 660.645
1491.447, 402.049
