##NAMES=Xenotime-(Y)
##RRUFFID=R050178
##IDEAL CHEMISTRY=Y^3+^PO_4_
##LOCALITY=Novo Horizonte, Bahia, Brazil
##OWNER=RRUFF
##SOURCE=Marcus Origlieri
##DESCRIPTION=Brown crystal fragments
##STATUS=The identification of this mineral has been confirmed by X-ray diffraction and chemical analysis
##URL=rruff.info/R050178
##MEASURED CHEMISTRY=(Y_0.74_Dy_0.09_Gd_0.06_Er_0.04_Yb_0.02_Ho_0.01_Tb_0.01_Sm_0.01_Eu_0.01_)_Σ=1.00_(P_0.97_As_0.02_Si_0.01_)_Σ=1.00_O_4_
##PIN_ID=M00421
##ORIENTATION=Laser parallel to a* (1 0 0). Fiducial mark perpendicular to laser is parallel to c [0 0 1]
101.036, 0.000
102.428, 3.887
103.820, 68.544
105.212, 83.348
106.604, 23.067
107.995, 26.737
109.387, 2.996
110.777, 38.895
112.168, 14.363
113.559, 66.375
114.949, 80.981
116.339, 80.621
117.729, 126.339
119.119, 133.821
120.508, 114.534
121.897, 124.392
123.286, 123.854
124.675, 141.323
126.063, 135.400
127.452, 116.323
128.840, 124.173
130.228, 124.019
131.615, 141.551
133.003, 121.173
134.390, 133.463
135.777, 117.402
137.164, 152.786
138.550, 199.582
139.937, 204.151
141.323, 240.376
142.709, 230.938
144.094, 278.564
145.480, 286.499
146.865, 307.314
148.250, 282.305
149.635, 302.319
151.019, 282.506
152.403, 255.020
153.788, 286.046
155.171, 237.188
156.555, 202.442
157.939, 216.804
159.322, 216.271
160.705, 158.839
162.088, 161.503
163.470, 115.255
164.853, 95.090
166.235, 114.000
167.617, 74.985
168.998, 77.044
170.380, 70.181
171.761, 25.401
173.142, 53.706
174.523, 1.099
175.904, 7.582
177.284, 3.841
178.664, 1.832
180.044, 31.396
181.424, 29.525
182.803, 20.550
184.183, 64.441
185.562, 27.127
186.940, 92.638
188.319, 45.002
189.698, 63.235
191.076, 68.345
192.454, 49.339
193.831, 49.226
195.209, 50.017
196.586, 50.722
197.963, 63.352
199.340, 14.913
200.717, 30.412
202.093, 5.144
203.470, 12.245
204.846, 11.414
206.221, 32.114
207.597, 25.850
208.972, 64.618
210.347, 36.421
211.722, 92.259
213.097, 79.137
214.472, 107.053
215.846, 156.999
217.220, 214.976
218.594, 278.982
219.967, 327.006
221.341, 420.033
222.714, 524.062
224.087, 677.074
225.460, 847.070
226.832, 1053.038
228.204, 1320.981
229.577, 1528.911
230.948, 1755.859
232.320, 1761.831
233.692, 1841.862
235.063, 1638.973
236.434, 1417.173
237.805, 1259.462
239.175, 1015.841
240.545, 850.309
241.916, 670.868
243.286, 610.518
244.655, 621.258
246.025, 560.089
247.394, 629.011
248.763, 572.025
250.132, 634.131
251.501, 596.329
252.869, 568.619
254.237, 605.002
255.605, 571.479
256.973, 644.048
258.340, 577.710
259.708, 739.466
261.075, 724.315
262.442, 777.257
263.808, 846.293
265.175, 872.423
266.541, 968.282
267.907, 939.694
269.273, 1111.819
270.639, 1211.629
272.004, 1305.020
273.369, 1491.269
274.734, 1688.038
276.099, 2109.086
277.463, 2481.699
278.828, 2886.599
280.192, 3378.421
281.556, 3583.116
282.919, 3949.861
284.283, 3787.515
285.646, 3789.002
287.009, 3477.414
288.372, 3156.699
289.734, 2916.929
291.097, 2391.019
292.459, 2258.929
293.821, 1853.797
295.183, 1753.604
296.544, 1552.435
297.905, 1382.049
299.266, 1352.691
300.627, 1095.134
301.988, 1105.713
303.348, 908.336
304.709, 876.853
306.069, 818.325
307.428, 751.573
308.788, 778.809
310.147, 696.938
311.507, 724.046
312.865, 759.003
314.224, 789.020
315.583, 887.035
316.941, 906.065
318.299, 1050.360
319.657, 1031.582
321.015, 1274.712
322.372, 1395.115
323.729, 1430.652
325.086, 1774.912
326.443, 1938.386
327.800, 2365.395
329.156, 2630.211
330.512, 3052.695
331.868, 3713.564
333.224, 4202.774
334.579, 5234.094
335.935, 5941.126
337.290, 7034.552
338.645, 8000.975
339.999, 8653.127
341.354, 9724.922
342.708, 9777.401
344.062, 9918.127
345.416, 9309.299
346.769, 9011.356
348.123, 8200.985
349.476, 7399.274
350.829, 6950.761
352.182, 6015.548
353.534, 5481.496
354.887, 4971.426
356.239, 4458.851
357.591, 4238.579
358.942, 3720.554
360.294, 3597.777
361.645, 3289.499
362.996, 3009.973
364.347, 2892.943
365.698, 2593.913
367.048, 2681.761
368.398, 2414.859
369.748, 2504.022
371.098, 2411.250
372.448, 2284.542
373.797, 2351.899
375.146, 2287.322
376.495, 2425.810
377.844, 2362.363
379.192, 2392.983
380.540, 2565.667
381.889, 2589.418
383.236, 3019.235
384.584, 3147.119
385.932, 3722.070
387.279, 4049.088
388.626, 4564.172
389.973, 5262.326
391.319, 5448.549
392.666, 6181.838
394.012, 6278.199
395.358, 6319.626
396.704, 6418.122
398.049, 5934.688
399.394, 5870.321
400.740, 5082.023
402.084, 4686.792
403.429, 4317.631
404.774, 3755.534
406.118, 3506.504
407.462, 2940.542
408.806, 2721.647
410.150, 2431.818
411.493, 2146.054
412.836, 2048.357
414.179, 1741.723
415.522, 1683.156
416.865, 1477.653
418.207, 1430.213
419.549, 1366.838
420.891, 1280.527
422.233, 1254.280
423.575, 1131.097
424.916, 1185.976
426.257, 1150.917
427.598, 1121.922
428.939, 1200.975
430.279, 1086.076
431.619, 1273.228
432.959, 1212.433
434.299, 1353.691
435.639, 1462.010
436.978, 1432.387
438.318, 1756.819
439.657, 1688.310
440.996, 1974.857
442.334, 2225.464
443.673, 2320.129
445.011, 2838.853
446.349, 2922.639
447.687, 3513.487
449.024, 3776.395
450.361, 4222.365
451.699, 4711.396
453.036, 4768.496
454.372, 5174.652
455.709, 4898.875
457.045, 4922.160
458.381, 4998.509
459.717, 4448.924
461.053, 4449.406
462.388, 4034.955
463.724, 3684.494
465.059, 3475.173
466.394, 3036.201
467.728, 3037.768
469.063, 2613.016
470.397, 2486.644
471.731, 2323.120
473.065, 2233.099
474.398, 2228.298
475.732, 2046.995
477.065, 2214.374
478.398, 2106.641
479.731, 2281.029
481.063, 2465.103
482.396, 2557.820
483.728, 2896.096
485.060, 2955.305
486.391, 3353.964
487.723, 3478.864
489.054, 3357.498
490.385, 3542.726
491.716, 2990.007
493.047, 2865.568
494.377, 2552.726
495.708, 2117.637
497.038, 1929.166
498.368, 1435.759
499.697, 1416.581
501.027, 1130.968
502.356, 952.656
503.685, 881.417
505.014, 651.341
506.342, 676.270
507.671, 486.121
508.999, 413.218
510.327, 457.397
511.655, 279.672
512.982, 306.032
514.310, 228.521
515.637, 268.049
516.964, 233.772
518.291, 169.490
519.617, 274.254
520.944, 172.192
522.270, 237.110
523.596, 250.203
524.921, 167.304
526.247, 304.444
527.572, 191.781
528.897, 248.015
530.222, 281.595
531.547, 293.092
532.871, 360.716
534.196, 311.461
535.520, 368.144
536.844, 372.056
538.167, 416.082
539.491, 497.857
540.814, 412.082
542.137, 506.187
543.460, 456.461
544.783, 461.740
546.105, 478.097
547.427, 437.630
548.749, 547.132
550.071, 434.864
551.393, 546.448
552.714, 570.036
554.035, 501.811
555.356, 602.473
556.677, 536.370
557.998, 608.291
559.318, 644.243
560.638, 614.234
561.958, 723.089
563.278, 618.119
564.597, 744.060
565.917, 721.092
567.236, 710.652
568.555, 834.495
569.874, 759.752
571.192, 871.934
572.511, 839.026
573.829, 817.481
575.147, 967.724
576.464, 837.914
577.782, 913.427
579.099, 945.726
580.416, 988.574
581.733, 1084.731
583.050, 1010.209
584.366, 1062.916
585.683, 866.691
586.999, 801.527
588.315, 755.080
589.630, 563.733
590.946, 610.772
592.261, 464.610
593.576, 502.547
594.891, 440.486
596.206, 338.568
597.520, 399.515
598.834, 282.303
600.148, 331.766
601.462, 331.918
602.776, 224.213
604.089, 285.130
605.402, 225.262
606.715, 272.079
608.028, 257.231
609.341, 169.658
610.653, 213.101
611.965, 133.640
613.277, 152.453
614.589, 146.528
615.901, 53.191
617.212, 128.128
618.523, 27.619
619.834, 87.048
621.145, 45.683
622.456, 10.002
623.766, 16.049
625.076, 71.003
626.386, 19.359
627.696, 32.308
629.006, 88.704
630.315, 38.982
631.624, 127.865
632.933, 21.099
634.242, 125.832
635.551, 119.985
636.859, 94.155
638.167, 132.975
639.475, 96.552
640.783, 131.379
642.090, 102.715
643.398, 29.032
644.705, 88.823
646.012, 21.605
647.318, 114.149
648.625, 62.782
649.931, 40.258
651.237, 78.975
652.543, 43.272
653.849, 29.474
655.155, 28.317
656.460, 0.758
657.765, 15.215
659.070, 24.189
660.375, 17.998
661.679, 10.352
662.984, 43.854
664.288, 9.771
665.592, 57.808
666.895, 40.506
668.199, 55.313
669.502, 64.809
670.805, 42.863
672.108, 104.232
673.411, 47.857
674.713, 76.994
676.016, 108.530
677.318, 83.270
678.620, 144.269
679.921, 102.150
681.223, 126.748
682.524, 143.982
683.825, 122.390
685.126, 175.391
686.427, 114.593
687.727, 158.412
689.028, 153.088
690.328, 149.943
691.628, 189.001
692.927, 160.169
694.227, 155.136
695.526, 237.460
696.825, 154.957
698.124, 204.154
699.423, 184.585
700.721, 201.688
702.020, 202.084
703.318, 177.990
704.616, 199.629
705.913, 160.502
707.211, 208.496
708.508, 220.265
709.805, 188.677
711.102, 227.177
712.399, 182.541
713.695, 187.767
714.992, 190.853
716.288, 191.798
717.584, 234.602
718.879, 202.263
720.175, 232.781
721.470, 220.154
722.765, 159.380
724.060, 282.456
725.355, 209.385
726.649, 225.163
727.944, 245.790
729.238, 205.266
730.532, 236.587
731.825, 248.753
733.119, 215.765
734.412, 246.618
735.705, 186.314
736.998, 273.846
738.291, 240.220
739.584, 217.433
740.876, 213.481
742.168, 210.363
743.460, 248.078
744.752, 239.626
746.043, 204.007
747.334, 224.216
748.626, 173.253
749.916, 222.108
751.207, 213.789
752.498, 227.293
753.788, 242.622
755.078, 203.776
756.368, 218.746
757.658, 215.536
758.947, 195.142
760.237, 226.560
761.526, 202.793
762.815, 229.837
764.104, 220.695
765.392, 187.365
766.680, 281.338
767.969, 213.218
769.257, 250.092
770.544, 230.465
771.832, 228.271
773.119, 259.256
774.406, 233.299
775.693, 305.294
776.980, 292.692
778.267, 297.408
779.553, 315.830
780.839, 303.729
782.125, 355.431
783.411, 403.695
784.697, 356.700
785.982, 416.653
787.267, 393.412
788.552, 445.080
789.837, 424.668
791.122, 435.298
792.406, 499.307
793.690, 437.842
794.974, 463.630
796.258, 505.235
797.542, 458.005
798.825, 561.062
800.108, 508.031
801.391, 507.448
802.674, 580.865
803.957, 522.207
805.239, 606.843
806.522, 533.811
807.804, 594.624
809.085, 648.257
810.367, 576.571
811.649, 648.966
812.930, 613.078
814.211, 658.695
815.492, 647.705
816.772, 651.979
818.053, 675.836
819.333, 685.908
820.613, 644.152
821.893, 706.507
823.173, 687.702
824.452, 720.546
825.732, 769.550
827.011, 711.192
828.290, 791.926
829.568, 724.631
830.847, 757.634
832.125, 742.129
833.403, 739.577
834.681, 744.647
835.959, 705.508
837.236, 736.123
838.514, 746.337
839.791, 681.448
841.068, 736.003
842.345, 685.435
843.621, 669.529
844.898, 694.291
846.174, 638.906
847.450, 725.077
848.726, 696.927
850.001, 636.819
851.277, 728.048
852.552, 705.190
853.827, 759.957
855.102, 730.515
856.376, 742.791
857.651, 883.688
858.925, 774.423
860.199, 909.727
861.473, 921.985
862.746, 824.048
864.020, 1047.727
865.293, 1017.327
866.566, 1056.500
867.839, 1102.458
869.112, 1076.191
870.384, 1270.692
871.656, 1168.138
872.928, 1157.216
874.200, 1232.189
875.472, 1104.880
876.744, 1169.850
878.015, 1129.345
879.286, 1059.231
880.557, 1197.001
881.828, 1057.668
883.098, 1093.781
884.369, 1128.912
885.639, 1082.904
886.909, 1134.381
888.178, 1042.880
889.448, 1054.638
890.717, 1104.895
891.987, 997.640
893.256, 1059.965
894.524, 900.030
895.793, 929.843
897.061, 944.749
898.330, 806.364
899.598, 897.402
900.865, 726.453
902.133, 703.216
903.401, 687.787
904.668, 625.027
905.935, 662.212
907.202, 623.369
908.468, 626.664
909.735, 718.082
911.001, 633.170
912.267, 721.450
913.533, 838.329
914.799, 650.338
916.064, 739.826
917.330, 486.854
918.595, 365.682
919.860, 351.222
921.124, 170.294
922.389, 197.890
923.653, 99.688
924.918, 10.987
926.182, 33.486
927.445, 89.190
928.709, 9.029
929.972, 73.413
931.236, 179.377
932.499, 93.722
933.761, 206.934
935.024, 118.839
936.286, 171.562
937.549, 284.686
938.811, 147.506
940.073, 232.254
941.334, 166.784
942.596, 124.172
943.857, 329.806
945.118, 122.100
946.379, 198.899
947.640, 215.718
948.900, 108.307
950.161, 268.160
951.421, 144.810
952.681, 141.716
953.940, 231.092
955.200, 138.645
956.459, 228.588
957.719, 168.538
958.978, 226.146
960.236, 262.091
961.495, 214.641
962.753, 267.824
964.012, 302.227
965.270, 217.737
966.527, 399.869
967.785, 274.803
969.043, 352.111
970.300, 456.530
971.557, 293.420
972.814, 437.648
974.071, 356.235
975.327, 326.738
976.583, 381.017
977.840, 212.837
979.095, 270.100
980.351, 221.071
981.607, 77.624
982.862, 131.533
984.117, 97.139
985.372, 246.793
986.627, 242.598
987.882, 555.633
989.136, 510.364
990.390, 936.371
991.644, 1279.049
992.898, 1493.982
994.152, 2463.934
995.405, 3067.581
996.659, 4686.902
997.912, 7336.993
999.165, 11009.165
1000.417, 17130.859
1001.670, 18041.264
1002.922, 14143.858
1004.174, 10376.099
1005.426, 6559.558
1006.678, 5222.612
1007.930, 4696.047
1009.181, 4431.641
1010.432, 5155.896
1011.683, 5331.923
1012.934, 6098.075
1014.185, 7003.480
1015.435, 6989.699
1016.685, 7655.956
1017.935, 7202.254
1019.185, 6768.597
1020.435, 6464.988
1021.684, 5641.430
1022.934, 5447.922
1024.183, 5024.471
1025.432, 4431.080
1026.680, 4637.750
1027.929, 4054.485
1029.177, 3951.289
1030.425, 4078.162
1031.673, 3705.108
1032.921, 4372.130
1034.169, 4359.233
1035.416, 4566.417
1036.663, 5693.687
1037.911, 5721.043
1039.157, 7218.491
1040.404, 8406.033
1041.650, 9353.673
1042.897, 12011.410
1044.143, 12739.250
1045.389, 14657.197
1046.634, 16395.256
1047.880, 16033.423
1049.125, 17191.703
1050.371, 16180.104
1051.615, 14338.624
1052.860, 14417.271
1054.105, 12066.046
1055.349, 11794.950
1056.593, 11953.986
1057.837, 11663.156
1059.081, 13852.466
1060.325, 15351.917
1061.568, 19041.512
1062.812, 25651.254
1064.055, 30851.146
1065.298, 41301.199
1066.540, 48491.406
1067.783, 49391.773
1069.025, 52070.789
1070.267, 43839.887
1071.509, 36823.969
1072.751, 31009.529
1073.993, 22371.625
1075.234, 18589.525
1076.475, 14179.357
1077.716, 10612.214
1078.957, 9231.729
1080.198, 6556.844
1081.438, 5555.959
1082.679, 4841.115
1083.919, 3519.855
1085.159, 3474.718
1086.398, 2607.058
1087.638, 2323.032
1088.877, 2468.053
1090.116, 1818.746
1091.355, 2193.930
1092.594, 1972.262
1093.833, 1959.186
1095.071, 2668.991
1096.309, 2724.988
1097.547, 3440.714
1098.785, 4513.448
1100.023, 4167.549
1101.260, 4739.634
1102.498, 4652.636
1103.735, 4011.176
1104.972, 4705.871
1106.208, 4106.096
1107.445, 5010.545
1108.681, 5542.520
1109.918, 6013.176
1111.154, 8077.250
1112.389, 9169.160
1113.625, 10789.919
1114.860, 13846.056
1116.096, 15082.848
1117.331, 17997.377
1118.566, 20048.494
1119.800, 19904.602
1121.035, 21150.469
1122.269, 19739.303
1123.503, 18243.355
1124.737, 17619.850
1125.971, 14764.197
1127.205, 13878.023
1128.438, 13299.729
1129.671, 11094.622
1130.904, 11406.336
1132.137, 9966.547
1133.370, 9820.982
1134.602, 10455.788
1135.834, 9240.952
1137.066, 10496.467
1138.298, 10872.354
1139.530, 10578.588
1140.762, 12675.185
1141.993, 12642.181
1143.224, 13989.539
1144.455, 16567.281
1145.686, 16485.420
1146.917, 20373.934
1148.147, 22062.855
1149.377, 22942.152
1150.607, 28921.826
1151.837, 29441.914
1153.067, 33522.398
1154.296, 37643.258
1155.526, 37954.531
1156.755, 44136.172
1157.984, 44568.203
1159.213, 45320.648
1160.441, 48293.461
1161.670, 45666.684
1162.898, 44880.289
1164.126, 44364.285
1165.354, 38148.680
1166.581, 38523.457
1167.809, 33418.594
1169.036, 29544.143
1170.263, 29040.068
1171.490, 24176.383
1172.717, 22753.100
1173.943, 21600.197
1175.170, 18457.689
1176.396, 18455.572
1177.622, 16283.831
1178.848, 14952.495
1180.073, 14731.543
1181.299, 12180.980
1182.524, 11750.820
1183.749, 10781.052
1184.974, 8681.684
1186.199, 8732.709
1187.423, 7084.117
1188.648, 6125.930
1189.872, 5998.133
1191.096, 4540.723
1192.320, 4223.712
1193.543, 4067.094
1194.767, 3000.861
1195.990, 3235.026
1197.213, 2589.580
1198.436, 2544.524
1199.659, 2949.863
1200.881, 2145.588
1202.104, 2671.708
1203.326, 2978.215
1204.548, 2705.108
1205.770, 3452.392
1206.991, 3500.062
1208.213, 3818.115
1209.434, 4716.561
1210.655, 4345.391
1211.876, 4914.604
1213.096, 5374.203
1214.317, 4834.183
1215.537, 5244.547
1216.757, 4795.299
1217.977, 4686.443
1219.197, 4937.997
1220.417, 4109.956
1221.636, 4522.336
1222.855, 4605.160
1224.074, 4348.415
1225.293, 5202.129
1226.512, 5166.275
1227.731, 5570.875
1228.949, 7115.950
1230.167, 6981.998
1231.385, 8497.998
1232.603, 10154.451
1233.820, 10414.749
1235.038, 13072.146
1236.255, 13850.618
1237.472, 14892.290
1238.689, 18141.051
1239.906, 17593.137
1241.122, 19784.883
1242.338, 21655.146
1243.555, 20730.732
1244.771, 22955.051
1245.986, 22389.117
1247.202, 21991.176
1248.417, 23534.736
1249.633, 21524.338
1250.848, 21565.277
1252.063, 21379.293
1253.277, 19293.994
1254.492, 19963.059
1255.706, 18209.361
1256.920, 16887.680
1258.134, 17478.172
1259.348, 15037.318
1260.562, 14287.722
1261.775, 14165.271
1262.988, 12201.622
1264.201, 11587.727
1265.414, 11056.710
1266.627, 9582.499
1267.839, 9849.209
1269.052, 8629.649
1270.264, 8157.921
1271.476, 8349.527
1272.688, 7241.369
1273.899, 7289.578
1275.111, 7332.290
1276.322, 6379.848
1277.533, 7427.931
1278.744, 6791.884
1279.955, 6672.617
1281.165, 8309.424
1282.376, 7374.529
1283.586, 8255.256
1284.796, 9031.125
1286.006, 8917.460
1287.215, 10814.771
1288.425, 10691.785
1289.634, 11034.056
1290.843, 12919.958
1292.052, 12738.983
1293.261, 13876.935
1294.469, 14988.844
1295.678, 13908.730
1296.886, 16150.268
1298.094, 16043.615
1299.302, 15598.360
1300.509, 17497.666
1301.717, 16908.965
1302.924, 17728.605
1304.131, 19138.750
1305.338, 17532.484
1306.545, 19536.564
1307.752, 19552.881
1308.958, 17800.479
1310.164, 18930.977
1311.370, 18007.010
1312.576, 16762.619
1313.782, 16973.631
1314.987, 15189.756
1316.193, 14679.200
1317.398, 14380.253
1318.603, 12296.841
1319.807, 12757.627
1321.012, 11646.589
1322.216, 10453.471
1323.421, 10795.563
1324.625, 9533.552
1325.829, 9162.541
1327.032, 9195.505
1328.236, 8074.887
1329.439, 8257.232
1330.642, 7947.502
1331.845, 6976.193
1333.048, 7629.114
1334.251, 7099.363
1335.453, 6639.037
1336.656, 7251.593
1337.858, 6112.012
1339.060, 6072.340
1340.261, 5904.031
1341.463, 4724.445
1342.664, 5105.371
1343.866, 4417.420
1345.067, 3657.858
1346.267, 4089.994
1347.468, 3160.893
1348.669, 3001.569
1349.869, 3063.195
1351.069, 2274.124
1352.269, 2524.986
1353.469, 2257.326
1354.668, 1741.330
1355.868, 2189.316
1357.067, 1417.957
1358.266, 1381.922
1359.465, 1714.945
1360.664, 1124.098
1361.862, 1117.064
1363.061, 1338.104
1364.259, 614.224
1365.457, 986.135
1366.655, 719.603
1367.852, 502.486
1369.050, 943.297
1370.247, 292.225
1371.444, 392.958
1372.641, 556.652
1373.838, 59.531
1375.035, 111.024
1376.231, 141.537
1377.427, 234.901
1378.623, 154.445
1379.819, 67.128
1381.015, 227.922
1382.211, 142.090
1383.406, 199.573
1384.601, 155.721
1385.796, 0.614
1386.991, 275.597
1388.185, 202.364
1389.380, 165.706
1390.574, 425.646
1391.768, 84.164
1392.962, 310.289
1394.156, 332.054
1395.350, 8.444
1396.543, 403.418
1397.736, 208.015
1398.929, 70.220
1400.122, 439.994
1401.315, 193.366
1402.507, 123.361
1403.700, 432.994
1404.892, 17.771
1406.084, 287.059
1407.276, 260.577
1408.467, 60.226
1409.659, 210.665
1410.850, 215.241
1412.041, 42.428
1413.232, 215.629
1414.423, 12.599
1415.614, 52.052
1416.804, 154.289
1417.994, 184.619
1419.184, 98.197
1420.374, 93.758
1421.564, 224.927
1422.753, 123.125
1423.943, 4.912
1425.132, 138.557
1426.321, 67.711
1427.510, 133.262
1428.698, 110.500
1429.887, 158.007
1431.075, 155.766
1432.263, 10.181
1433.451, 69.840
1434.639, 127.798
1435.827, 71.259
1437.014, 85.003
1438.201, 183.597
1439.388, 81.466
1440.575, 119.827
1441.762, 107.492
1442.949, 26.553
1444.135, 300.028
1445.321, 67.935
1446.507, 83.290
1447.693, 289.124
1448.879, 52.463
1450.064, 267.331
1451.250, 254.175
1452.435, 207.846
1453.620, 369.616
1454.805, 418.537
1455.989, 261.314
1457.174, 453.733
1458.358, 339.620
1459.542, 291.258
1460.726, 473.295
1461.910, 333.629
1463.093, 391.944
1464.277, 498.688
1465.460, 299.371
1466.643, 483.205
1467.826, 430.700
1469.009, 301.613
1470.191, 481.547
1471.373, 379.246
1472.556, 481.005
1473.738, 648.825
1474.919, 417.176
1476.101, 576.862
1477.283, 631.954
1478.464, 480.451
1479.645, 622.753
1480.826, 627.950
1482.007, 519.245
1483.187, 638.282
1484.368, 590.388
1485.548, 470.447
1486.728, 627.758
1487.908, 439.629
1489.088, 526.265
1490.268, 588.353
1491.447, 443.951
1492.626, 512.633
