##NAMES=Xenotime-(Y)
##RRUFFID=R050178
##IDEAL CHEMISTRY=Y^3+^PO_4_
##LOCALITY=Novo Horizonte, Bahia, Brazil
##OWNER=RRUFF
##SOURCE=Marcus Origlieri
##DESCRIPTION=Brown crystal fragments
##STATUS=The identification of this mineral has been confirmed by X-ray diffraction and chemical analysis
##URL=rruff.info/R050178
##MEASURED CHEMISTRY=(Y_0.74_Dy_0.09_Gd_0.06_Er_0.04_Yb_0.02_Ho_0.01_Tb_0.01_Sm_0.01_Eu_0.01_)_Σ=1.00_(P_0.97_As_0.02_Si_0.01_)_Σ=1.00_O_4_
##PIN_ID=L00394
##ORIENTATION=Laser parallel to -c* (0 0 -1). Fiducial mark perpendicular to laser is parallel to a [1 0 0]
48.666, 0.000
50.068, 3.742
51.471, 30.685
52.873, 14.853
54.275, 36.958
55.677, 22.287
57.079, 7.870
58.480, 34.967
59.882, 24.955
61.283, 45.419
62.683, 47.242
64.084, 73.206
65.484, 45.504
66.884, 80.087
68.284, 63.834
69.684, 74.801
71.083, 72.967
72.482, 82.929
73.881, 97.885
75.280, 70.195
76.678, 53.793
78.076, 60.943
79.474, 29.053
80.872, 58.027
82.270, 58.850
83.667, 46.648
85.064, 48.425
86.461, 32.310
87.858, 70.605
89.254, 67.654
90.650, 71.009
92.046, 98.646
93.442, 108.182
94.838, 144.735
96.233, 129.888
97.628, 154.016
99.023, 146.265
100.418, 181.497
101.812, 153.329
103.206, 166.858
104.600, 165.089
105.994, 184.367
107.387, 176.691
108.781, 123.061
110.174, 131.476
111.566, 118.933
112.959, 159.429
114.351, 139.964
115.744, 146.535
117.136, 110.429
118.527, 74.778
119.919, 79.921
121.310, 65.874
122.701, 56.534
124.092, 66.168
125.482, 29.857
126.873, 13.602
128.263, 8.405
129.653, 13.268
131.042, 2.808
132.432, 8.213
133.821, 16.590
135.210, 12.759
136.599, 10.233
137.987, 26.186
139.376, 11.513
140.764, 25.764
142.152, 27.051
143.539, 17.081
144.927, 23.164
146.314, 37.209
147.701, 29.229
149.088, 41.226
150.474, 45.204
151.861, 33.169
153.247, 53.118
154.633, 36.049
156.018, 22.959
157.404, 31.847
158.789, 27.284
160.174, 17.434
161.559, 78.608
162.943, 107.803
164.327, 158.024
165.711, 238.275
167.095, 308.554
168.479, 509.854
169.862, 513.174
171.246, 743.500
172.628, 762.821
174.011, 843.138
175.394, 854.452
176.776, 612.779
178.158, 535.103
179.540, 321.453
180.922, 185.810
182.303, 74.170
183.684, 10.534
185.065, 11.093
186.446, 49.689
187.826, 30.231
189.207, 69.712
190.587, 38.130
191.967, 16.486
193.346, 13.220
194.726, 44.989
196.105, 4.179
197.484, 76.716
198.862, 18.675
200.241, 58.697
201.619, 51.769
202.997, 90.883
204.375, 197.057
205.753, 163.297
207.130, 265.603
208.507, 229.975
209.884, 366.414
211.261, 412.920
212.638, 450.494
214.014, 694.134
215.390, 715.632
216.766, 988.844
218.141, 1081.788
219.517, 1371.402
220.892, 1665.820
222.267, 1897.935
223.642, 2419.695
225.016, 2555.387
226.391, 2978.808
227.765, 2988.154
229.139, 2964.309
230.512, 2764.343
231.886, 2420.068
233.259, 2325.803
234.632, 2071.299
236.005, 2173.719
237.377, 2207.021
238.749, 2383.306
240.122, 2777.586
241.493, 2984.612
242.865, 3514.379
244.237, 3681.177
245.608, 3837.266
246.979, 3702.939
248.350, 3440.614
249.720, 3292.038
251.090, 2927.459
252.461, 3017.439
253.830, 2842.050
255.200, 3059.433
256.570, 3209.689
257.939, 3307.221
259.308, 3508.751
260.677, 3205.505
262.045, 3166.151
263.414, 2717.898
264.782, 2277.500
266.150, 2018.262
267.517, 1557.768
268.885, 1456.413
270.252, 1089.155
271.619, 1065.063
272.986, 1025.020
274.353, 959.714
275.719, 1124.621
277.085, 1078.534
278.451, 1429.741
279.817, 1596.949
281.182, 1952.265
282.548, 2043.513
283.913, 1847.374
285.278, 1735.388
286.642, 1237.239
288.007, 1197.020
289.371, 910.276
290.735, 848.544
292.099, 826.288
293.462, 810.997
294.826, 904.204
296.189, 734.732
297.552, 887.152
298.914, 798.291
300.277, 684.422
301.639, 760.650
303.001, 590.887
304.363, 678.274
305.724, 573.993
307.086, 633.317
308.447, 664.024
309.808, 578.583
311.168, 749.492
312.529, 633.085
313.889, 852.183
315.249, 804.237
316.609, 789.164
317.969, 989.146
319.328, 887.256
320.687, 1213.147
322.046, 1212.746
323.405, 1460.760
324.764, 1738.823
326.122, 1989.932
327.480, 2585.092
328.838, 2868.300
330.196, 3687.556
331.553, 4068.860
332.910, 4655.214
334.267, 5338.616
335.624, 5271.068
336.981, 5949.569
338.337, 5535.120
339.693, 5558.719
341.049, 5228.369
342.405, 4790.071
343.760, 4705.822
345.116, 4104.624
346.471, 4064.479
347.826, 3690.383
349.180, 3741.220
350.535, 3859.146
351.889, 3646.719
353.243, 4228.098
354.597, 3987.609
355.950, 4412.645
357.304, 4331.917
358.657, 4190.239
360.010, 4383.582
361.362, 3799.011
362.715, 3907.492
364.067, 3668.027
365.419, 3569.613
366.771, 3732.251
368.123, 3312.945
369.474, 3688.691
370.825, 3164.491
372.176, 3164.343
373.527, 2728.247
374.877, 2301.205
376.228, 2337.214
377.578, 1826.277
378.928, 1847.376
380.277, 1548.514
381.627, 1592.691
382.976, 1647.909
384.325, 1520.169
385.674, 1830.473
387.023, 1645.821
388.371, 1873.216
389.719, 1894.657
391.067, 1669.146
392.415, 1839.684
393.762, 1392.271
395.110, 1344.908
396.457, 1091.596
397.804, 931.336
399.150, 922.128
400.497, 557.973
401.843, 657.871
403.189, 416.820
404.535, 357.824
405.881, 321.882
407.226, 198.995
408.571, 221.167
409.916, 145.393
411.261, 148.676
412.605, 138.015
413.950, 76.412
415.294, 201.869
416.638, 126.382
417.981, 202.953
419.325, 169.582
420.668, 223.267
422.011, 250.009
423.354, 142.807
424.697, 311.664
426.039, 222.575
427.381, 270.543
428.723, 266.569
430.065, 201.651
431.406, 363.791
432.748, 202.988
434.089, 330.305
435.430, 259.614
436.770, 242.979
438.111, 296.401
439.451, 203.880
440.791, 316.051
442.131, 267.640
443.471, 286.311
444.810, 355.008
446.149, 302.761
447.488, 505.516
448.827, 334.383
450.166, 532.861
451.504, 501.518
452.842, 467.562
454.180, 666.993
455.518, 490.157
456.855, 759.448
458.193, 724.052
459.530, 787.228
460.867, 907.413
462.203, 840.889
463.540, 1061.211
464.876, 1013.834
466.212, 1168.577
467.548, 1336.297
468.883, 1278.657
470.219, 1673.234
471.554, 1620.687
472.889, 1977.680
474.224, 2194.712
475.558, 2417.267
476.892, 3076.913
478.227, 3043.782
479.561, 3836.688
480.894, 4056.709
482.228, 4390.192
483.561, 4794.812
484.894, 4580.420
486.227, 4781.090
487.559, 4061.867
488.892, 3711.662
490.224, 3361.520
491.556, 2546.438
492.888, 2482.418
494.220, 1739.459
495.551, 1694.566
496.882, 1389.732
498.213, 1070.960
499.544, 1082.252
500.874, 685.603
502.205, 734.019
503.535, 540.498
504.865, 406.037
506.194, 472.641
507.524, 243.302
508.853, 362.027
510.182, 166.948
511.511, 111.798
512.840, 274.891
514.168, 111.122
515.496, 216.259
516.824, 72.823
518.152, 101.050
519.480, 195.600
520.807, 97.276
522.134, 264.644
523.461, 172.443
524.788, 260.902
526.114, 273.836
527.441, 223.956
528.767, 398.800
530.093, 269.127
531.418, 413.995
532.744, 388.100
534.069, 302.430
535.394, 453.425
536.719, 273.072
538.044, 432.177
539.368, 333.846
540.693, 333.366
542.017, 406.878
543.340, 267.691
544.664, 366.145
545.987, 214.832
547.311, 301.663
548.634, 286.318
549.956, 193.385
551.279, 268.221
552.601, 182.111
553.923, 173.144
555.245, 227.903
556.567, 83.253
557.889, 238.101
559.210, 94.053
560.531, 171.167
561.852, 182.930
563.173, 124.150
564.493, 269.977
565.813, 148.137
567.133, 259.208
568.453, 206.121
569.773, 183.502
571.092, 318.561
572.412, 158.826
573.731, 294.331
575.049, 251.392
576.368, 240.767
577.686, 389.878
579.005, 218.088
580.323, 313.441
581.640, 228.612
582.958, 219.238
584.275, 289.449
585.593, 124.670
586.909, 228.157
588.226, 153.417
589.543, 96.928
590.859, 165.326
592.175, 2.329
593.491, 162.266
594.807, 29.599
596.122, 48.275
597.438, 97.835
598.753, 33.863
600.068, 65.927
601.382, 47.900
602.697, 22.793
604.011, 45.238
605.325, 75.238
606.639, 21.546
607.952, 61.984
609.266, 31.178
610.579, 7.465
611.892, 52.969
613.205, 31.959
614.518, 73.459
615.830, 13.553
617.142, 33.208
618.454, 62.152
619.766, 15.720
621.078, 61.067
622.389, 37.084
623.700, 38.017
625.011, 90.185
626.322, 19.410
627.632, 105.353
628.943, 16.694
630.253, 59.683
631.563, 105.364
632.872, 10.729
634.182, 89.837
635.491, 15.116
636.800, 42.299
638.109, 41.999
639.418, 29.465
640.726, 70.974
642.035, 53.469
643.343, 45.680
644.651, 10.394
645.958, 208.651
647.266, 92.897
648.573, 314.080
649.880, 330.552
651.187, 437.815
652.494, 748.219
653.800, 912.233
655.106, 1576.802
656.412, 1863.278
657.718, 1693.249
659.024, 1443.747
660.329, 782.761
661.634, 609.405
662.939, 373.063
664.244, 233.155
665.549, 251.524
666.853, 155.603
668.157, 250.027
669.461, 167.836
670.765, 161.198
672.069, 210.638
673.372, 134.801
674.675, 238.702
675.978, 188.632
677.281, 182.898
678.583, 282.312
679.886, 205.850
681.188, 329.339
682.490, 223.512
683.792, 202.624
685.093, 293.334
686.394, 203.460
687.696, 336.526
688.997, 306.224
690.297, 276.608
691.598, 379.410
692.898, 250.228
694.198, 401.255
695.498, 293.227
696.798, 352.258
698.097, 374.995
699.397, 327.704
700.696, 432.304
701.995, 401.025
703.293, 388.127
704.592, 448.208
705.890, 371.473
707.188, 442.336
708.486, 449.685
709.784, 436.638
711.081, 517.440
712.378, 397.360
713.675, 531.249
714.972, 522.257
716.269, 503.620
717.565, 624.048
718.862, 509.541
720.158, 622.913
721.453, 553.731
722.749, 592.790
724.045, 662.420
725.340, 551.743
726.635, 642.826
727.930, 608.718
729.224, 572.395
730.519, 722.997
731.813, 631.643
733.107, 713.103
734.401, 694.219
735.694, 677.130
736.988, 758.157
738.281, 634.127
739.574, 775.130
740.867, 765.648
742.160, 709.329
743.452, 785.644
744.744, 720.709
746.036, 761.828
747.328, 776.713
748.620, 724.327
749.911, 787.600
751.202, 703.698
752.493, 729.783
753.784, 788.459
755.075, 666.286
756.365, 826.535
757.655, 677.543
758.945, 732.364
760.235, 707.968
761.525, 636.094
762.814, 712.806
764.103, 626.535
765.392, 690.205
766.681, 721.033
767.969, 646.334
769.258, 763.084
770.546, 694.256
771.834, 656.146
773.122, 730.784
774.409, 638.540
775.697, 767.122
776.984, 676.257
778.271, 696.124
779.558, 757.057
780.844, 661.900
782.131, 786.886
783.417, 733.844
784.703, 721.062
785.989, 839.535
787.274, 721.269
788.560, 831.782
789.845, 778.834
791.130, 803.487
792.415, 886.696
793.699, 810.574
794.983, 918.318
796.268, 961.090
797.552, 916.020
798.835, 1001.186
800.119, 893.621
801.402, 1004.240
802.686, 1036.744
803.969, 1027.588
805.251, 1077.392
806.534, 994.941
807.816, 1123.539
809.098, 1105.805
810.380, 1034.341
811.662, 1179.154
812.944, 1066.909
814.225, 1115.333
815.506, 1165.962
816.787, 1089.957
818.068, 1219.671
819.349, 1123.979
820.629, 1132.733
821.909, 1189.789
823.189, 1082.816
824.469, 1165.371
825.749, 1080.602
827.028, 1084.545
828.307, 1154.790
829.586, 1012.103
830.865, 1097.817
832.144, 1015.133
833.422, 993.479
834.700, 1101.117
835.978, 936.823
837.256, 1033.771
838.534, 982.256
839.811, 946.738
841.088, 988.457
842.365, 891.355
843.642, 939.730
844.919, 953.599
846.195, 841.522
847.472, 964.504
848.748, 807.750
850.023, 880.140
851.299, 926.395
852.575, 815.378
853.850, 955.771
855.125, 785.247
856.400, 841.198
857.674, 926.722
858.949, 798.146
860.223, 957.870
861.497, 805.553
862.771, 760.898
864.045, 896.813
865.318, 728.726
866.591, 906.759
867.864, 822.023
869.137, 698.905
870.410, 865.336
871.682, 697.845
872.955, 771.612
874.227, 729.493
875.499, 659.761
876.770, 743.832
878.042, 577.785
879.313, 680.975
880.584, 629.208
881.855, 512.950
883.126, 682.156
884.396, 545.531
885.667, 605.302
886.937, 638.056
888.207, 481.438
889.476, 599.383
890.746, 542.234
892.015, 487.350
893.284, 554.596
894.553, 371.555
895.822, 557.950
897.090, 473.302
898.359, 390.123
899.627, 598.768
900.895, 458.206
902.163, 582.118
903.430, 716.033
904.698, 604.353
905.965, 880.534
907.232, 724.722
908.499, 802.169
909.765, 909.982
911.032, 604.020
912.298, 765.059
913.564, 464.769
914.830, 333.958
916.095, 364.195
917.361, 19.830
918.626, 142.300
919.891, 91.555
921.156, 72.857
922.420, 68.737
923.685, 154.302
924.949, 124.135
926.213, 75.026
927.477, 281.068
928.740, 8.828
930.004, 218.670
931.267, 266.955
932.530, 149.373
933.793, 353.076
935.056, 208.443
936.318, 240.765
937.581, 413.782
938.843, 217.500
940.104, 484.879
941.366, 345.911
942.628, 408.140
943.889, 531.833
945.150, 289.408
946.411, 480.482
947.672, 481.023
948.932, 293.826
950.193, 655.711
951.453, 265.501
952.713, 475.136
953.973, 456.106
955.232, 283.351
956.491, 564.177
957.751, 237.149
959.010, 383.537
960.268, 522.835
961.527, 166.022
962.785, 530.361
964.044, 322.519
965.302, 352.477
966.559, 524.226
967.817, 211.913
969.075, 408.852
970.332, 316.500
971.589, 39.676
972.846, 368.760
974.102, 72.555
975.359, 28.301
976.615, 15.309
977.871, 497.052
979.127, 254.895
980.383, 674.819
981.638, 1042.539
982.893, 774.748
984.149, 1766.637
985.404, 1551.230
986.658, 2150.704
987.913, 3134.329
989.167, 2967.849
990.421, 4822.607
991.675, 6028.791
992.929, 8195.872
994.183, 13691.166
995.436, 19207.625
996.689, 30824.502
997.942, 33259.219
999.195, 24236.584
1000.448, 19570.857
1001.700, 13656.924
1002.952, 12664.144
1004.204, 13909.253
1005.456, 14297.334
1006.708, 18562.160
1007.959, 21208.477
1009.210, 23956.682
1010.461, 28902.570
1011.712, 27621.744
1012.963, 29898.297
1014.213, 28184.141
1015.464, 23643.010
1016.714, 22478.646
1017.964, 17618.193
1019.214, 14576.516
1020.463, 12742.377
1021.712, 9222.064
1022.962, 8818.585
1024.210, 7147.125
1025.459, 5595.121
1026.708, 5571.780
1027.956, 3910.775
1029.204, 3745.987
1030.452, 3474.348
1031.700, 2491.814
1032.948, 3216.413
1034.195, 2416.003
1035.442, 2602.473
1036.689, 3351.049
1037.936, 2970.896
1039.183, 4026.878
1040.429, 4506.677
1041.676, 4535.464
1042.922, 5953.153
1044.168, 5413.270
1045.413, 6018.161
1046.659, 6879.363
1047.904, 6528.761
1049.149, 8766.056
1050.394, 10119.532
1051.639, 13980.168
1052.884, 21754.170
1054.128, 25479.301
1055.372, 30884.404
1056.616, 28629.885
1057.860, 20935.541
1059.104, 20401.377
1060.347, 16467.400
1061.590, 16423.607
1062.833, 16980.012
1064.076, 14855.921
1065.319, 16209.172
1066.561, 13893.831
1067.803, 11764.412
1069.046, 11992.497
1070.287, 8848.770
1071.529, 8145.916
1072.771, 7332.568
1074.012, 5036.250
1075.253, 5552.672
1076.494, 4023.033
1077.735, 3251.339
1078.975, 3727.312
1080.216, 2211.327
1081.456, 2803.231
1082.696, 2803.326
1083.936, 2151.731
1085.175, 3450.029
1086.415, 3217.272
1087.654, 4174.844
1088.893, 5665.201
1090.132, 5850.365
1091.371, 9065.035
1092.609, 11296.979
1093.847, 13142.481
1095.085, 17283.332
1096.323, 15833.959
1097.561, 16535.607
1098.799, 15519.222
1100.036, 12032.659
1101.273, 13309.922
1102.510, 11586.100
1103.747, 11924.485
1104.983, 14873.654
1106.220, 15047.927
1107.456, 18851.564
1108.692, 23058.248
1109.928, 24858.328
1111.163, 33488.289
1112.399, 36390.039
1113.634, 40763.941
1114.869, 47797.289
1116.104, 44452.520
1117.339, 47334.484
1118.573, 44527.867
1119.808, 37186.746
1121.042, 36957.352
1122.276, 29865.604
1123.509, 26418.117
1124.743, 24861.082
1125.976, 18484.391
1127.210, 18688.252
1128.443, 15422.604
1129.675, 12877.384
1130.908, 13392.626
1132.141, 10708.354
1133.373, 10754.521
1134.605, 11051.188
1135.837, 8968.328
1137.068, 10885.928
1138.300, 10174.058
1139.531, 10562.648
1140.762, 12801.723
1141.993, 11791.345
1143.224, 14711.441
1144.455, 16202.057
1145.685, 16533.219
1146.915, 20894.863
1148.145, 20997.072
1149.375, 23619.801
1150.605, 28753.018
1151.834, 27446.803
1153.063, 31861.088
1154.292, 33595.883
1155.521, 31771.230
1156.750, 35887.082
1157.978, 32633.461
1159.207, 30240.381
1160.435, 31977.791
1161.663, 25445.760
1162.891, 25044.256
1164.118, 22293.252
1165.345, 17592.826
1166.573, 17742.904
1167.800, 13843.500
1169.026, 11984.668
1170.253, 11886.344
1171.480, 8548.569
1172.706, 8921.333
1173.932, 7714.613
1175.158, 5848.443
1176.383, 6642.804
1177.609, 4797.692
1178.834, 4113.142
1180.059, 4749.117
1181.284, 2795.640
1182.509, 3362.706
1183.734, 3040.309
1184.958, 2068.448
1186.182, 3017.121
1187.406, 2326.340
1188.630, 2276.092
1189.854, 3286.385
1191.077, 2027.217
1192.301, 3648.583
1193.524, 3880.500
1194.747, 3482.942
1195.969, 5825.927
1197.192, 5639.455
1198.414, 6963.502
1199.636, 9278.085
1200.858, 8553.181
1202.080, 12328.786
1203.302, 13754.903
1204.523, 13611.525
1205.744, 17988.658
1206.966, 17026.295
1208.186, 17454.445
1209.407, 19603.105
1210.628, 16142.265
1211.848, 17401.934
1213.068, 16502.133
1214.288, 13352.844
1215.508, 14474.136
1216.727, 12215.976
1217.947, 11278.367
1219.166, 12221.353
1220.385, 10354.891
1221.604, 11789.037
1222.822, 12153.782
1224.041, 11459.105
1225.259, 14235.058
1226.477, 14241.570
1227.695, 15208.687
1228.913, 19036.420
1230.130, 17889.068
1231.348, 22158.004
1232.565, 24597.531
1233.782, 23523.607
1234.999, 29174.355
1236.215, 29107.877
1237.432, 30318.035
1238.648, 34450.598
1239.864, 31954.115
1241.080, 35584.461
1242.296, 36528.926
1243.511, 34112.383
1244.726, 39009.348
1245.942, 36439.188
1247.156, 35776.750
1248.371, 39685.328
1249.586, 35292.539
1250.800, 36576.559
1252.014, 37396.781
1253.228, 32457.699
1254.442, 34735.496
1255.656, 31667.225
1256.869, 28515.498
1258.083, 29568.281
1259.296, 25414.055
1260.509, 24539.797
1261.722, 24514.148
1262.934, 19294.596
1264.147, 20971.303
1265.359, 19027.426
1266.571, 16350.575
1267.783, 17969.107
1268.994, 15216.893
1270.206, 15306.903
1271.417, 15975.705
1272.628, 13615.015
1273.839, 15206.676
1275.050, 15276.994
1276.260, 14122.076
1277.471, 16489.568
1278.681, 15161.398
1279.891, 16033.130
1281.101, 18390.871
1282.310, 16564.203
1283.520, 18564.377
1284.729, 20018.719
1285.938, 18526.705
1287.147, 22010.781
1288.356, 20986.730
1289.564, 20982.885
1290.773, 24255.197
1291.981, 22322.514
1293.189, 23931.002
1294.397, 24854.354
1295.604, 22594.473
1296.812, 26041.789
1298.019, 25213.244
1299.226, 23757.266
1300.433, 27161.902
1301.640, 24883.916
1302.846, 25503.008
1304.053, 26844.023
1305.259, 23267.107
1306.465, 24672.055
1307.671, 23499.941
1308.876, 19774.088
1310.082, 21961.146
1311.287, 18648.350
1312.492, 16705.324
1313.697, 17782.795
1314.902, 14249.744
1316.106, 14392.986
1317.310, 14294.890
1318.515, 11301.887
1319.719, 12545.383
1320.922, 11045.535
1322.126, 9583.562
1323.329, 10920.150
1324.533, 8619.066
1325.736, 8629.149
1326.939, 9374.071
1328.141, 7153.809
1329.344, 8295.876
1330.546, 7888.324
1331.748, 6568.963
1332.950, 7821.925
1334.152, 6495.068
1335.354, 5836.376
1336.555, 6559.017
1337.757, 4810.771
1338.958, 5292.498
1340.159, 4956.447
1341.359, 3688.489
1342.560, 4400.795
1343.760, 3575.062
1344.960, 2937.332
1346.160, 3999.797
1347.360, 2662.256
1348.560, 2644.703
1349.759, 2988.763
1350.959, 1891.390
1352.158, 2234.035
1353.357, 2239.190
1354.555, 1491.971
1355.754, 2074.766
1356.952, 1589.314
1358.151, 1312.170
1359.349, 2025.106
1360.546, 868.177
1361.744, 1341.094
1362.941, 1394.281
1364.139, 647.213
1365.336, 1120.178
1366.533, 873.502
1367.730, 356.467
1368.926, 989.340
1370.123, 271.934
1371.319, 188.721
1372.515, 638.484
1373.711, 297.611
1374.906, 208.033
1376.102, 261.849
1377.297, 358.661
1378.492, 107.721
1379.687, 176.210
1380.882, 433.029
1382.077, 204.267
1383.271, 494.218
1384.465, 354.105
1385.659, 93.530
1386.853, 698.283
1388.047, 95.567
1389.240, 211.372
1390.434, 724.662
1391.627, 70.421
1392.820, 385.637
1394.013, 551.354
1395.205, 48.560
1396.398, 414.290
1397.590, 295.516
1398.782, 17.263
1399.974, 529.479
1401.166, 2.196
1402.357, 113.429
1403.549, 387.221
1404.740, 186.437
1405.931, 187.457
1407.122, 335.024
1408.313, 236.749
1409.503, 438.149
1410.693, 21.715
1411.883, 245.002
1413.073, 288.923
1414.263, 205.499
1415.453, 90.243
1416.642, 255.719
1417.831, 436.666
1419.020, 47.625
1420.209, 83.642
1421.398, 314.644
1422.587, 133.719
1423.775, 16.734
1424.963, 304.560
1426.151, 236.790
1427.339, 289.214
1428.526, 83.576
1429.714, 235.705
1430.901, 241.395
1432.088, 25.109
1433.275, 121.227
1434.462, 430.061
1435.648, 182.233
1436.835, 157.920
1438.021, 304.513
1439.207, 75.435
1440.393, 338.093
1441.579, 288.106
1442.764, 64.651
1443.949, 464.745
1445.135, 260.416
1446.320, 251.685
1447.504, 583.583
1448.689, 234.142
1449.873, 461.102
1451.058, 704.382
1452.242, 278.477
1453.426, 607.191
