##NAMES=Xenotime-(Y)
##RRUFFID=R050178
##IDEAL CHEMISTRY=Y^3+^PO_4_
##LOCALITY=Novo Horizonte, Bahia, Brazil
##OWNER=RRUFF
##SOURCE=Marcus Origlieri
##DESCRIPTION=Brown crystal fragments
##STATUS=The identification of this mineral has been confirmed by X-ray diffraction and chemical analysis
##URL=rruff.info/R050178
##MEASURED CHEMISTRY=(Y_0.74_Dy_0.09_Gd_0.06_Er_0.04_Yb_0.02_Ho_0.01_Tb_0.01_Sm_0.01_Eu_0.01_)_Σ=1.00_(P_0.97_As_0.02_Si_0.01_)_Σ=1.00_O_4_
##PIN_ID=M00421
##ORIENTATION=Laser parallel to a* (1 0 0). Fiducial mark perpendicular to laser is parallel to c [0 0 1]
101.036, 0.000
102.428, 33.368
103.820, 145.126
105.212, 12.939
106.604, 43.406
107.995, 118.764
109.387, 140.738
110.777, 118.632
112.168, 67.627
113.559, 13.882
114.949, 33.797
116.339, 30.558
117.729, 65.878
119.119, 91.404
120.508, 71.623
121.897, 74.014
123.286, 107.950
124.675, 117.607
126.063, 107.433
127.452, 105.001
128.840, 104.747
130.228, 107.199
131.615, 105.320
133.003, 115.860
134.390, 106.152
135.777, 61.843
137.164, 105.536
138.550, 71.247
139.937, 54.993
141.323, 19.786
142.709, 31.639
144.094, 6.140
145.480, 11.859
146.865, 18.712
148.250, 18.700
149.635, 24.116
151.019, 42.484
152.403, 15.439
153.788, 0.223
155.171, 27.878
156.555, 3.130
157.939, 5.240
159.322, 8.448
160.705, 40.244
162.088, 23.836
163.470, 16.674
164.853, 1.714
166.235, 29.000
167.617, 41.816
168.998, 92.733
170.380, 139.752
171.761, 202.877
173.142, 365.107
174.523, 410.444
175.904, 629.890
177.284, 698.445
178.664, 802.110
180.044, 837.887
181.424, 659.776
182.803, 627.779
184.183, 377.931
185.562, 249.315
186.940, 58.884
188.319, 31.606
189.698, 42.551
191.076, 64.627
192.454, 89.643
193.831, 73.602
195.209, 44.518
196.586, 43.397
197.963, 21.252
199.340, 7.090
200.717, 23.913
202.093, 33.277
203.470, 30.512
204.846, 58.705
206.221, 64.925
207.597, 75.150
208.972, 115.392
210.347, 146.651
211.722, 191.140
213.097, 224.185
214.472, 324.475
215.846, 407.816
217.220, 541.225
218.594, 654.711
219.967, 777.275
221.341, 1012.918
222.714, 1109.641
224.087, 1506.442
225.460, 1764.325
226.832, 2091.287
228.204, 2649.325
229.577, 2978.406
230.948, 3423.530
232.320, 3542.721
233.692, 3632.992
235.063, 3396.343
236.434, 3145.775
237.805, 2907.294
239.175, 2578.896
240.545, 2554.586
241.916, 2535.360
243.286, 2755.221
244.655, 2997.169
246.025, 3456.203
247.394, 4066.324
248.763, 4271.531
250.132, 4634.827
251.501, 4549.208
252.869, 4355.677
254.237, 4072.235
255.605, 3674.882
256.973, 3696.615
258.340, 3458.436
259.708, 3653.343
261.075, 3721.341
262.442, 3851.424
263.808, 4170.597
265.175, 3935.858
266.541, 3909.560
267.907, 3327.746
269.273, 2971.398
270.639, 2525.426
272.004, 1935.079
273.369, 1730.392
274.734, 1364.320
276.099, 1364.866
277.463, 1293.871
278.828, 1237.041
280.192, 1372.161
281.556, 1368.887
282.919, 1747.756
284.283, 1872.610
285.646, 2341.145
287.009, 2414.477
288.372, 2277.858
289.734, 2187.112
291.097, 1723.213
292.459, 1525.129
293.821, 1210.787
295.183, 1167.492
296.544, 1105.882
297.905, 1009.548
299.266, 1113.264
300.627, 991.413
301.988, 1092.468
303.348, 944.286
304.709, 905.015
306.069, 897.961
307.428, 771.596
308.788, 795.540
310.147, 672.895
311.507, 701.193
312.865, 732.372
314.224, 691.976
315.583, 837.543
316.941, 723.289
318.299, 890.532
319.657, 903.344
321.015, 917.447
322.372, 1019.000
323.729, 1019.033
325.086, 1325.417
326.443, 1323.149
327.800, 1625.944
329.156, 1842.408
330.512, 2206.475
331.868, 2672.703
333.224, 3110.104
334.579, 4006.569
335.935, 4458.100
337.290, 5321.694
338.645, 6127.353
339.999, 6494.076
341.354, 7237.863
342.708, 7071.714
344.062, 7355.628
345.416, 6880.604
346.769, 6421.646
348.123, 6105.748
349.476, 5398.913
350.829, 5350.140
352.182, 4728.428
353.534, 4653.888
354.887, 4650.687
356.239, 4523.612
357.591, 4941.297
358.942, 4897.056
360.294, 5137.938
361.645, 5163.395
362.996, 5069.113
364.347, 5168.665
365.698, 4656.568
367.048, 4704.140
368.398, 4176.171
369.748, 4240.264
371.098, 4157.423
372.448, 4096.645
373.797, 4247.930
375.146, 3807.284
376.495, 3710.699
377.844, 3202.180
379.192, 2897.727
380.540, 2730.338
381.889, 2264.015
383.236, 2256.756
384.584, 1958.562
385.932, 1979.434
387.279, 1928.370
388.626, 2026.372
389.973, 2194.438
391.319, 2094.569
392.666, 2383.765
394.012, 2291.025
395.358, 2188.352
396.704, 2298.742
398.049, 1954.198
399.394, 1928.719
400.740, 1533.302
402.084, 1373.949
403.429, 1235.658
404.774, 976.429
406.118, 928.263
407.462, 653.158
408.806, 588.116
410.150, 493.134
411.493, 356.214
412.836, 383.355
414.179, 258.557
415.522, 276.819
416.865, 210.142
418.207, 214.524
419.549, 188.966
420.891, 186.466
422.233, 253.026
423.575, 193.644
424.916, 274.321
426.257, 252.056
427.598, 267.847
428.939, 402.680
430.279, 195.552
431.619, 380.468
432.959, 269.430
434.299, 312.439
435.639, 335.499
436.978, 248.608
438.318, 373.771
439.657, 247.989
440.996, 356.265
442.334, 404.602
443.673, 359.999
445.011, 516.800
446.349, 428.317
447.687, 539.192
449.024, 590.834
450.361, 554.789
451.699, 789.833
453.036, 655.664
454.372, 876.931
455.709, 759.910
457.045, 873.194
458.381, 978.220
459.717, 868.381
461.053, 1071.972
462.388, 911.271
463.724, 1021.876
465.059, 1098.044
466.394, 1029.708
467.728, 1243.539
469.063, 1170.554
470.397, 1374.851
471.731, 1407.275
473.065, 1380.333
474.398, 1759.956
475.732, 1721.167
477.065, 1999.018
478.398, 2197.231
479.731, 2513.614
481.063, 2927.229
482.396, 3114.645
483.728, 3819.637
485.060, 3903.069
486.391, 4452.724
487.723, 4601.126
489.054, 4447.931
490.385, 4781.532
491.716, 4183.481
493.047, 3866.506
494.377, 3439.598
495.708, 2698.759
497.038, 2644.995
498.368, 2008.299
499.697, 1841.678
501.027, 1482.125
502.356, 1190.642
503.685, 1114.234
505.014, 784.894
506.342, 825.629
507.671, 553.432
508.999, 477.306
510.327, 467.256
511.655, 338.273
512.982, 305.367
514.310, 209.626
515.637, 202.868
516.964, 234.281
518.291, 94.679
519.617, 208.155
520.944, 134.879
522.270, 169.495
523.596, 177.395
524.921, 121.182
526.247, 298.999
527.572, 175.253
528.897, 301.250
530.222, 258.679
531.547, 269.991
532.871, 425.133
534.196, 264.730
535.520, 416.051
536.844, 378.722
538.167, 381.429
539.491, 480.961
540.814, 272.875
542.137, 466.530
543.460, 375.529
544.783, 358.490
546.105, 423.534
547.427, 260.963
548.749, 423.900
550.071, 349.323
551.393, 353.748
552.714, 284.006
554.035, 231.809
555.356, 374.201
556.677, 139.960
557.998, 212.618
559.318, 262.967
560.638, 187.736
561.958, 275.993
563.278, 174.578
564.597, 287.198
565.917, 259.717
567.236, 216.628
568.555, 355.011
569.874, 197.773
571.192, 358.852
572.511, 310.389
573.829, 297.521
575.147, 390.205
576.464, 286.111
577.782, 387.163
579.099, 400.732
580.416, 364.981
581.733, 521.821
583.050, 385.878
584.366, 471.060
585.683, 358.802
586.999, 341.119
588.315, 338.817
589.630, 174.762
590.946, 342.794
592.261, 152.595
593.576, 180.928
594.891, 237.690
596.206, 135.829
597.520, 203.067
598.834, 100.981
600.148, 94.585
601.462, 100.545
602.776, 20.406
604.089, 119.924
605.402, 58.060
606.715, 81.405
608.028, 13.441
609.341, 55.220
610.653, 66.222
611.965, 57.056
613.277, 5.645
614.589, 12.178
615.901, 39.907
617.212, 22.009
618.523, 109.741
619.834, 9.620
621.145, 77.660
622.456, 61.688
623.766, 3.917
625.076, 74.973
626.386, 47.937
627.696, 53.129
629.006, 81.527
630.315, 39.602
631.624, 153.951
632.933, 37.652
634.242, 129.125
635.551, 110.662
636.859, 2.122
638.167, 135.454
639.475, 10.750
640.783, 40.531
642.090, 97.930
643.398, 32.738
644.705, 67.047
646.012, 55.743
647.318, 11.702
648.625, 40.744
649.931, 190.501
651.237, 73.971
652.543, 256.133
653.849, 232.525
655.155, 376.734
656.460, 673.227
657.765, 774.258
659.070, 1413.029
660.375, 1601.918
661.679, 1708.079
662.984, 1420.343
664.288, 905.800
665.592, 733.844
666.895, 402.282
668.199, 339.876
669.502, 345.432
670.805, 134.216
672.108, 267.316
673.411, 160.711
674.713, 207.222
676.016, 266.587
677.318, 174.854
678.620, 255.938
679.921, 190.622
681.223, 243.356
682.524, 297.656
683.825, 188.941
685.126, 275.501
686.427, 202.984
687.727, 255.320
689.028, 322.779
690.328, 244.263
691.628, 334.113
692.927, 280.701
694.227, 297.662
695.526, 365.980
696.825, 306.356
698.124, 392.420
699.423, 337.612
700.721, 370.661
702.020, 375.030
703.318, 311.517
704.616, 448.354
705.913, 356.858
707.211, 375.179
708.508, 435.780
709.805, 328.133
711.102, 442.152
712.399, 375.877
713.695, 418.100
714.992, 505.917
716.288, 424.496
717.584, 569.454
718.879, 496.253
720.175, 502.621
721.470, 538.025
722.765, 461.684
724.060, 626.709
725.355, 519.845
726.649, 461.822
727.944, 599.710
729.238, 476.505
730.532, 595.079
731.825, 554.028
733.119, 535.381
734.412, 672.390
735.705, 512.043
736.998, 620.072
738.291, 577.728
739.584, 563.812
740.876, 674.224
742.168, 549.708
743.460, 709.427
744.752, 656.292
746.043, 650.699
747.334, 711.271
748.626, 600.518
749.916, 748.625
751.207, 659.395
752.498, 642.551
753.788, 719.141
755.078, 552.410
756.368, 704.552
757.658, 680.395
758.947, 608.680
760.237, 680.094
761.526, 563.996
762.815, 633.974
764.104, 611.484
765.392, 557.528
766.680, 725.719
767.969, 527.651
769.257, 627.705
770.544, 614.232
771.832, 549.190
773.119, 680.971
774.406, 533.340
775.693, 643.294
776.980, 635.328
778.267, 559.581
779.553, 697.449
780.839, 587.957
782.125, 653.268
783.411, 699.628
784.697, 594.945
785.982, 760.115
787.267, 619.657
788.552, 721.931
789.837, 750.104
791.122, 662.779
792.406, 821.810
793.690, 696.628
794.974, 771.693
796.258, 814.434
797.542, 754.543
798.825, 900.940
800.108, 880.330
801.391, 847.543
802.674, 971.780
803.957, 824.410
805.239, 1017.969
806.522, 982.435
807.804, 910.603
809.085, 1014.483
810.367, 936.231
811.649, 1050.825
812.930, 1006.822
814.211, 944.182
815.492, 1076.545
816.772, 949.475
818.053, 1067.829
819.333, 1051.321
820.613, 964.926
821.893, 1090.025
823.173, 976.849
824.452, 1069.606
825.732, 1056.050
827.011, 974.031
828.290, 1134.320
829.568, 956.638
830.847, 998.612
832.125, 996.073
833.403, 955.376
834.681, 1049.125
835.959, 949.724
837.236, 938.022
838.514, 1015.612
839.791, 857.193
841.068, 998.063
842.345, 924.782
843.621, 821.399
844.898, 978.278
846.174, 792.166
847.450, 891.418
848.726, 859.360
850.001, 723.202
851.277, 888.369
852.552, 780.523
853.827, 857.049
855.102, 825.339
856.376, 725.267
857.651, 914.525
858.925, 774.005
860.199, 904.719
861.473, 823.165
862.746, 772.502
864.020, 919.019
865.293, 764.680
866.566, 814.699
867.839, 924.547
869.112, 759.442
870.384, 870.644
871.656, 857.094
872.928, 804.953
874.200, 893.510
875.472, 706.909
876.744, 867.643
878.015, 780.646
879.286, 638.005
880.557, 865.771
881.828, 573.823
883.098, 719.998
884.369, 680.358
885.639, 569.229
886.909, 726.676
888.178, 556.347
889.448, 635.063
890.717, 628.923
891.987, 485.302
893.256, 694.276
894.524, 500.437
895.793, 506.749
897.061, 595.410
898.330, 415.566
899.598, 565.357
900.865, 356.122
902.133, 428.070
903.401, 588.319
904.668, 454.943
905.935, 616.205
907.202, 642.547
908.468, 590.956
909.735, 894.766
911.001, 667.245
912.267, 817.201
913.533, 922.231
914.799, 607.566
916.064, 837.975
917.330, 443.076
918.595, 305.706
919.860, 393.800
921.124, 79.663
922.389, 156.756
923.653, 43.522
924.918, 86.770
926.182, 16.319
927.445, 180.017
928.709, 119.057
929.972, 93.687
931.236, 286.443
932.499, 132.737
933.761, 341.455
935.024, 162.321
936.286, 227.312
937.549, 412.973
938.811, 242.743
940.073, 477.520
941.334, 334.917
942.596, 260.620
943.857, 536.987
945.118, 348.385
946.379, 499.927
947.640, 467.357
948.900, 325.039
950.161, 519.126
951.421, 427.126
952.681, 412.052
953.940, 561.072
955.200, 257.352
956.459, 537.226
957.719, 360.162
958.978, 279.089
960.236, 437.523
961.495, 248.085
962.753, 337.192
964.012, 343.117
965.270, 209.057
966.527, 476.356
967.785, 293.226
969.043, 338.451
970.300, 513.127
971.557, 114.682
972.814, 503.838
974.071, 224.431
975.327, 81.207
976.583, 361.401
977.840, 134.849
979.095, 81.369
980.351, 90.114
981.607, 423.572
982.862, 272.964
984.117, 718.371
985.372, 922.016
986.627, 844.448
987.882, 1605.155
989.136, 1476.720
990.390, 2166.853
991.644, 2778.910
992.898, 3076.961
994.152, 4743.738
995.405, 5768.345
996.659, 8416.440
997.912, 12870.650
999.165, 18157.346
1000.417, 28353.549
1001.670, 30796.553
1002.922, 24993.736
1004.174, 20158.662
1005.426, 13825.593
1006.678, 12482.079
1007.930, 12636.319
1009.181, 12825.084
1010.432, 16381.062
1011.683, 17520.102
1012.934, 20497.746
1014.185, 24254.520
1015.435, 23614.516
1016.685, 26301.691
1017.935, 23970.266
1019.185, 21351.137
1020.435, 20369.143
1021.684, 15909.665
1022.934, 14180.253
1024.183, 12210.177
1025.432, 9681.968
1026.680, 9280.414
1027.929, 7282.405
1029.177, 6523.197
1030.425, 6121.065
1031.673, 4833.939
1032.921, 4950.830
1034.169, 4171.859
1035.416, 3742.444
1036.663, 4350.549
1037.911, 3712.930
1039.157, 4421.601
1040.404, 5002.827
1041.650, 4974.367
1042.897, 6612.418
1044.143, 6836.082
1045.389, 7885.619
1046.634, 9065.869
1047.880, 8968.926
1049.125, 10057.392
1050.371, 10260.647
1051.615, 10098.187
1052.860, 11928.825
1054.105, 14271.436
1055.349, 15786.286
1056.593, 21652.334
1057.837, 26378.684
1059.081, 31975.117
1060.325, 30541.830
1061.568, 26818.740
1062.812, 25895.840
1064.055, 23503.133
1065.298, 25570.637
1066.540, 27308.342
1067.783, 26705.475
1069.025, 27739.732
1070.267, 24306.869
1071.509, 21293.230
1072.751, 18863.879
1073.993, 14174.421
1075.234, 12653.076
1076.475, 10218.786
1077.716, 8003.278
1078.957, 7512.461
1080.198, 5363.942
1081.438, 4694.396
1082.679, 4315.131
1083.919, 3083.982
1085.159, 3504.598
1086.398, 2792.227
1087.638, 2619.510
1088.877, 3467.960
1090.116, 2723.198
1091.355, 3908.045
1092.594, 4508.139
1093.833, 5002.848
1095.071, 7269.684
1096.309, 8258.593
1097.547, 10630.441
1098.785, 13761.620
1100.023, 12992.438
1101.260, 14279.754
1102.498, 13328.975
1103.735, 10860.548
1104.972, 11870.582
1106.208, 10175.739
1107.445, 11282.138
1108.681, 12953.943
1109.918, 12688.106
1111.154, 17103.574
1112.389, 19185.281
1113.625, 22317.682
1114.860, 28627.891
1116.096, 30205.180
1117.331, 36243.012
1118.566, 40459.574
1119.800, 39108.094
1121.035, 41846.625
1122.269, 37817.781
1123.503, 34173.305
1124.737, 33155.062
1125.971, 26596.127
1127.205, 24260.861
1128.438, 22314.344
1129.671, 17599.996
1130.904, 17766.123
1132.137, 14392.734
1133.370, 13139.802
1134.602, 13357.374
1135.834, 10855.402
1137.066, 11293.893
1138.298, 11192.904
1139.530, 10092.378
1140.762, 11612.324
1141.993, 11062.811
1143.224, 11883.767
1144.455, 13925.243
1145.686, 13257.235
1146.917, 16489.717
1148.147, 17922.729
1149.377, 18096.256
1150.607, 23150.285
1151.837, 23484.865
1153.067, 26939.957
1154.296, 30605.551
1155.526, 30381.697
1156.755, 35668.359
1157.984, 36545.559
1159.213, 36733.309
1160.441, 39331.574
1161.670, 37400.383
1162.898, 36519.719
1164.126, 36489.559
1165.354, 31029.955
1166.581, 30910.857
1167.809, 26822.287
1169.036, 23074.268
1170.263, 22596.748
1171.490, 18499.766
1172.717, 16883.316
1173.943, 15897.371
1175.170, 12781.974
1176.396, 12907.101
1177.622, 10962.740
1178.848, 9848.940
1180.073, 9815.646
1181.299, 7672.893
1182.524, 7430.697
1183.749, 6929.019
1184.974, 5237.881
1186.199, 5617.280
1187.423, 4397.210
1188.648, 3697.682
1189.872, 4258.679
1191.096, 3050.217
1192.320, 2982.289
1193.543, 3474.896
1194.767, 2308.037
1195.990, 3471.711
1197.213, 3065.928
1198.436, 3400.668
1199.659, 4755.969
1200.881, 3911.803
1202.104, 5378.156
1203.326, 6825.036
1204.548, 6182.429
1205.770, 8870.334
1206.991, 9388.750
1208.213, 9927.671
1209.434, 13107.104
1210.655, 11957.045
1211.876, 13517.492
1213.096, 14538.449
1214.317, 12639.913
1215.537, 13981.879
1216.757, 12414.370
1217.977, 11297.367
1219.197, 11860.933
1220.417, 9325.029
1221.636, 9879.715
1222.855, 9954.994
1224.074, 8690.839
1225.293, 10207.290
1226.512, 9544.334
1227.731, 9711.954
1228.949, 12350.200
1230.167, 11271.696
1231.385, 13541.167
1232.603, 15671.201
1233.820, 15400.884
1235.038, 19322.145
1236.255, 19965.053
1237.472, 20677.273
1238.689, 25700.369
1239.906, 24040.092
1241.122, 26949.479
1242.338, 29804.990
1243.555, 27905.799
1244.771, 31636.729
1245.986, 31247.359
1247.202, 30508.809
1248.417, 33777.895
1249.633, 31126.393
1250.848, 31641.418
1252.063, 33141.742
1253.277, 29790.309
1254.492, 31751.266
1255.706, 30103.348
1256.920, 27537.838
1258.134, 29785.699
1259.348, 25802.229
1260.562, 24588.562
1261.775, 25423.502
1262.988, 21127.986
1264.201, 20946.131
1265.414, 20162.850
1266.627, 16869.896
1267.839, 18023.896
1269.052, 15342.375
1270.264, 14415.254
1271.476, 15464.809
1272.688, 12924.938
1273.899, 13275.087
1275.111, 13206.244
1276.322, 11471.315
1277.533, 13402.872
1278.744, 12105.538
1279.955, 11669.719
1281.165, 14403.935
1282.376, 12378.115
1283.586, 13865.728
1284.796, 15060.913
1286.006, 13626.599
1287.215, 16778.904
1288.425, 16295.589
1289.634, 15890.159
1290.843, 18926.963
1292.052, 17965.145
1293.261, 18975.062
1294.469, 20979.330
1295.678, 18688.998
1296.886, 21593.887
1298.094, 21335.145
1299.302, 19918.822
1300.509, 22692.887
1301.717, 21185.195
1302.924, 21370.168
1304.131, 23882.631
1305.338, 21086.268
1306.545, 23314.105
1307.752, 23341.914
1308.958, 20947.383
1310.164, 22501.408
1311.370, 21309.727
1312.576, 19437.877
1313.782, 20183.797
1314.987, 17271.020
1316.193, 17043.562
1317.398, 16856.330
1318.603, 13954.154
1319.807, 14618.786
1321.012, 13441.368
1322.216, 11579.957
1323.421, 12406.425
1324.625, 10765.975
1325.829, 10116.874
1327.032, 10285.585
1328.236, 8665.850
1329.439, 9098.752
1330.642, 8703.112
1331.845, 7384.240
1333.048, 8459.681
1334.251, 7681.930
1335.453, 6703.891
1336.656, 7790.315
1337.858, 6372.812
1339.060, 6475.438
1340.261, 6470.977
1341.463, 4884.030
1342.664, 5457.495
1343.866, 4833.169
1345.067, 3836.385
1346.267, 4640.485
1347.468, 3364.170
1348.669, 3197.685
1349.869, 3472.570
1351.069, 2546.326
1352.269, 2930.070
1353.469, 2605.717
1354.668, 1759.650
1355.868, 2793.555
1357.067, 1579.215
1358.266, 1513.149
1359.465, 2077.174
1360.664, 1241.250
1361.862, 1265.234
1363.061, 1750.111
1364.259, 574.105
1365.457, 1358.103
1366.655, 933.634
1367.852, 497.633
1369.050, 1291.561
1370.247, 335.666
1371.444, 289.499
1372.641, 883.309
1373.838, 212.684
1375.035, 30.876
1376.231, 124.426
1377.427, 472.646
1378.623, 251.588
1379.819, 99.088
1381.015, 483.199
1382.211, 103.265
1383.406, 340.230
1384.601, 294.091
1385.796, 47.411
1386.991, 610.205
1388.185, 260.478
1389.380, 218.268
1390.574, 801.608
1391.768, 64.445
1392.962, 403.806
1394.156, 558.756
1395.350, 5.230
1396.543, 598.199
1397.736, 367.675
1398.929, 9.307
1400.122, 661.171
1401.315, 192.134
1402.507, 117.644
1403.700, 626.707
1404.892, 111.717
1406.084, 283.376
1407.276, 354.098
1408.467, 166.582
1409.659, 273.326
1410.850, 167.841
1412.041, 208.982
1413.232, 337.807
1414.423, 129.745
1415.614, 125.591
1416.804, 198.278
1417.994, 289.224
1419.184, 22.926
1420.374, 158.767
1421.564, 455.726
1422.753, 167.425
1423.943, 118.759
1425.132, 207.274
1426.321, 166.863
1427.510, 212.348
1428.698, 239.913
1429.887, 183.165
1431.075, 314.140
1432.263, 26.830
1433.451, 5.903
1434.639, 437.378
1435.827, 2.730
1437.014, 156.602
1438.201, 414.377
1439.388, 16.382
1440.575, 388.337
1441.762, 328.544
1442.949, 92.282
1444.135, 503.568
1445.321, 141.428
1446.507, 235.872
1447.693, 742.949
1448.879, 184.695
1450.064, 496.015
1451.250, 644.541
1452.435, 374.069
1453.620, 586.934
1454.805, 624.175
1455.989, 375.636
1457.174, 758.077
1458.358, 498.119
1459.542, 477.843
1460.726, 796.888
1461.910, 447.790
1463.093, 497.970
1464.277, 812.452
1465.460, 379.939
1466.643, 709.138
1467.826, 624.621
1469.009, 329.645
1470.191, 832.504
1471.373, 617.784
1472.556, 560.819
1473.738, 987.122
1474.919, 575.871
1476.101, 772.668
1477.283, 969.521
1478.464, 548.461
1479.645, 849.018
1480.826, 833.589
1482.007, 577.645
1483.187, 1029.849
1484.368, 763.293
1485.548, 537.913
1486.728, 891.656
1487.908, 636.446
1489.088, 664.782
1490.268, 831.872
