##NAMES=Zircon
##RRUFFID=R050034
##IDEAL CHEMISTRY=Zr^4+^SiO_4_
##LOCALITY=Oaxaca, Mexico
##OWNER=RRUFF
##SOURCE=University of Arizona Mineral Museum
##DESCRIPTION=Reddish brown single crystal fragments
##STATUS=The identification of this mineral has been confirmed by X-ray diffraction and chemical analysis
##URL=rruff.info/R050034
##MEASURED CHEMISTRY=Zr_1.00_Si_1.00_O_4_
##PIN_ID=M00272
##ORIENTATION=Laser parallel to -c* (0 0 -1). Fiducial mark perpendicular to laser is parallel to b [0 1 0]
82.863, 0.000
84.264, 34.331
85.664, 57.382
87.064, 4.829
88.463, 7.723
89.863, 32.367
91.262, 27.364
92.661, 53.656
94.059, 72.899
95.458, 89.448
96.856, 117.751
98.254, 131.714
99.652, 152.250
101.049, 169.283
102.446, 145.747
103.843, 217.588
105.240, 234.760
106.637, 268.229
108.033, 247.975
109.429, 309.991
110.825, 291.276
112.220, 364.806
113.616, 368.548
115.011, 341.474
116.406, 332.558
117.800, 322.537
119.195, 281.130
120.589, 296.588
121.983, 275.144
123.377, 254.789
124.770, 264.515
126.163, 295.314
127.556, 268.229
128.949, 273.206
130.342, 267.263
131.734, 256.467
133.126, 282.776
134.518, 287.290
135.909, 267.062
137.301, 266.926
138.692, 285.902
140.083, 254.926
141.473, 256.944
142.864, 263.945
144.254, 243.931
145.644, 279.905
147.034, 290.869
148.423, 282.825
149.812, 220.775
151.201, 286.721
152.590, 228.663
153.979, 241.604
155.367, 206.544
156.755, 244.484
158.143, 279.425
159.530, 249.369
160.918, 296.314
162.305, 264.263
163.692, 273.216
165.078, 270.174
166.465, 269.133
167.851, 290.077
169.237, 336.999
170.623, 308.136
172.008, 277.456
173.393, 222.344
174.778, 278.236
176.163, 310.668
177.548, 262.285
178.932, 277.310
180.316, 308.841
181.700, 290.055
183.083, 328.220
184.467, 321.268
185.850, 322.201
187.233, 361.670
188.616, 403.962
189.998, 443.389
191.380, 524.672
192.762, 569.390
194.144, 707.052
195.525, 791.716
196.907, 884.513
198.288, 1087.615
199.669, 1314.324
201.049, 1524.051
202.429, 1729.795
203.810, 2025.557
205.189, 2386.335
206.569, 2855.129
207.949, 3395.940
209.328, 3969.767
210.707, 4150.609
212.085, 4025.466
213.464, 3532.338
214.842, 2888.226
216.220, 2350.127
217.598, 1912.042
218.976, 1586.969
220.353, 1404.908
221.730, 1262.859
223.107, 1170.820
224.483, 1003.793
225.860, 837.777
227.236, 671.772
228.612, 556.779
229.988, 454.796
231.363, 392.825
232.738, 382.865
234.113, 257.915
235.488, 262.977
236.863, 213.051
238.237, 185.135
239.611, 162.231
240.985, 138.338
242.359, 143.456
243.732, 112.585
245.105, 125.725
246.478, 102.876
247.851, 91.732
249.223, 81.769
250.595, 64.438
251.967, 47.023
253.339, 31.156
254.711, 19.903
256.082, 4.288
257.453, 13.423
258.824, 19.491
260.195, 6.547
261.565, 16.455
262.935, 3.493
264.305, 14.565
265.675, 31.668
267.044, 8.201
268.414, 27.955
269.783, 2.143
271.151, 10.647
272.520, 12.410
273.888, 18.155
275.256, 23.031
276.624, 23.398
277.992, 16.301
279.359, 2.987
280.726, 29.344
282.093, 4.310
283.460, 64.953
284.827, 2.404
286.193, 27.227
287.559, 1.852
288.925, 72.466
290.290, 27.085
291.656, 2.302
293.021, 8.302
294.386, 9.897
295.750, 28.484
297.115, 2.069
298.479, 10.646
299.843, 2.217
301.207, 20.783
302.570, 36.347
303.933, 33.914
305.296, 2.518
306.659, 16.955
308.022, 13.398
309.384, 0.154
310.746, 32.300
312.108, 5.241
313.470, 38.222
314.831, 71.691
316.193, 29.166
317.554, 72.646
318.914, 65.133
320.275, 103.625
321.635, 119.124
322.995, 108.628
324.355, 108.138
325.715, 126.654
327.074, 137.176
328.434, 122.703
329.792, 189.237
331.151, 172.776
332.510, 148.322
333.868, 201.873
335.226, 197.424
336.584, 200.979
337.941, 205.541
339.299, 257.109
340.656, 352.681
342.013, 341.255
343.370, 462.826
344.726, 513.396
346.082, 630.965
347.438, 791.540
348.794, 1006.099
350.150, 1195.655
351.505, 1513.185
352.860, 1627.719
354.215, 1761.248
355.570, 1669.779
356.924, 1450.311
358.278, 1148.828
359.632, 1026.352
360.986, 760.884
362.339, 663.420
363.693, 525.971
365.046, 468.529
366.399, 474.094
367.751, 381.667
369.104, 369.247
370.456, 382.834
371.808, 392.429
373.159, 395.883
374.511, 357.643
375.862, 423.262
377.213, 413.889
378.564, 444.522
379.914, 491.164
381.265, 545.814
382.615, 618.470
383.965, 705.696
385.315, 793.815
386.664, 926.498
388.013, 1023.188
389.362, 1174.883
390.711, 1090.587
392.060, 1078.297
393.408, 958.014
394.756, 916.737
396.104, 823.467
397.451, 757.206
398.799, 737.952
400.146, 630.711
401.493, 640.478
402.840, 633.252
404.186, 702.035
405.533, 704.823
406.879, 688.617
408.225, 772.423
409.570, 813.234
410.916, 906.052
412.261, 1026.877
413.606, 1074.712
414.951, 1294.559
416.295, 1361.417
417.639, 1612.290
418.983, 1748.026
420.327, 2035.719
421.671, 2425.649
423.014, 2703.321
424.357, 3260.310
425.700, 3802.230
427.043, 4663.157
428.386, 5569.090
429.728, 6678.998
431.070, 8309.297
432.412, 9658.252
433.753, 11478.503
435.095, 12886.982
436.436, 13695.212
437.777, 13933.229
439.118, 12822.498
440.458, 11720.837
441.798, 9800.568
443.138, 8229.606
444.478, 6836.467
445.818, 5588.330
447.157, 4743.391
448.496, 3946.253
449.835, 3386.226
451.174, 2948.687
452.513, 2538.563
453.851, 2362.667
455.189, 1994.421
456.527, 1838.111
457.864, 1720.940
459.202, 1522.958
460.539, 1456.630
461.876, 1324.647
463.212, 1238.863
464.549, 1143.306
465.885, 1004.871
467.221, 999.050
468.557, 888.235
469.893, 921.425
471.228, 842.538
472.563, 769.735
473.898, 678.652
475.233, 651.856
476.567, 601.062
477.902, 498.272
479.236, 523.485
480.570, 474.700
481.903, 393.919
483.237, 413.140
484.570, 349.363
485.903, 376.589
487.235, 323.817
488.568, 330.048
489.900, 301.282
491.232, 287.517
492.564, 243.755
493.896, 249.996
495.227, 226.243
496.558, 272.499
497.889, 210.759
499.220, 241.029
500.551, 199.305
501.881, 245.597
503.211, 221.899
504.541, 210.204
505.870, 206.518
507.200, 189.833
508.529, 209.165
509.858, 154.508
511.187, 154.854
512.515, 170.202
513.844, 146.552
515.172, 142.904
516.500, 196.258
517.827, 153.613
519.155, 202.969
520.482, 181.352
521.809, 160.712
523.136, 158.413
524.462, 149.775
525.789, 158.162
527.115, 112.565
528.441, 172.930
529.766, 114.326
531.092, 161.692
532.417, 144.059
533.742, 147.235
535.067, 134.637
536.391, 114.081
537.716, 141.449
539.040, 135.375
540.364, 136.894
541.688, 118.262
543.011, 109.822
544.334, 119.533
545.657, 127.943
546.980, 80.364
548.303, 148.763
549.625, 106.363
550.947, 141.772
552.269, 112.430
553.591, 96.854
554.913, 134.218
556.234, 95.407
557.555, 66.839
558.876, 79.042
560.197, 48.614
561.517, 85.523
562.837, 94.282
564.157, 48.755
565.477, 11.125
566.797, 58.926
568.116, 44.274
569.435, 50.799
570.754, 14.347
572.073, 26.731
573.391, 22.244
574.709, 11.581
576.027, 15.724
577.345, 36.354
578.663, 8.312
579.980, 21.987
581.297, 26.378
582.614, 3.282
583.931, 16.592
585.248, 13.967
586.564, 14.735
587.880, 6.872
589.196, 25.844
590.511, 21.472
591.827, 31.257
593.142, 46.262
594.457, 14.759
595.772, 5.494
597.086, 4.540
598.401, 12.097
599.715, 13.718
601.029, 12.590
602.343, 25.068
603.656, 15.502
604.969, 25.460
606.282, 41.748
607.595, 54.483
608.908, 58.760
610.220, 81.063
611.532, 58.301
612.844, 98.410
614.156, 89.904
615.468, 120.293
616.779, 131.993
618.090, 92.251
619.401, 123.996
620.712, 58.859
622.022, 119.110
623.332, 114.422
624.642, 76.766
625.952, 109.983
627.262, 114.772
628.571, 130.038
629.880, 121.222
631.189, 108.387
632.498, 168.612
633.807, 148.764
635.115, 168.947
636.423, 200.084
637.731, 187.213
639.039, 260.335
640.346, 256.450
641.653, 228.557
642.960, 217.656
644.267, 196.748
645.574, 174.687
646.880, 162.909
648.186, 128.978
649.492, 127.088
650.798, 100.165
652.103, 125.179
653.409, 128.572
654.714, 115.152
656.019, 121.865
657.323, 78.765
658.628, 140.742
659.932, 72.971
661.236, 86.956
662.540, 110.508
663.843, 100.481
665.147, 98.868
666.450, 73.071
667.753, 87.023
669.056, 69.147
670.358, 55.146
671.660, 127.057
672.963, 48.963
674.264, 83.854
675.566, 97.736
676.868, 39.607
678.169, 63.050
679.470, 1.678
680.771, 47.151
682.071, 40.971
683.372, 37.781
684.672, 75.581
685.972, 40.371
687.271, 62.150
688.571, 64.920
689.870, 7.679
691.169, 40.421
692.468, 34.153
693.767, 51.873
695.065, 13.584
696.364, 29.279
697.662, 49.963
698.960, 0.636
700.257, 20.289
701.555, 39.928
702.852, 37.565
704.149, 42.560
705.446, 24.791
706.742, 40.385
708.038, 21.969
709.335, 36.541
710.631, 82.101
711.926, 6.651
713.222, 35.183
714.517, 10.296
715.812, 25.199
717.107, 12.681
718.402, 17.148
719.696, 30.602
720.990, 47.043
722.284, 4.525
723.578, 58.883
724.872, 26.281
726.165, 24.668
727.458, 41.042
728.751, 0.594
730.044, 52.749
731.336, 10.918
732.629, 19.389
733.921, 49.683
735.213, 53.659
736.504, 36.897
737.796, 42.155
739.087, 8.668
740.378, 31.563
741.669, 10.783
742.960, 27.989
744.250, 12.087
745.540, 36.737
746.830, 62.899
748.120, 6.649
749.410, 14.482
750.699, 26.398
751.988, 14.310
753.277, 9.509
754.566, 18.466
755.854, 5.288
757.143, 8.290
758.431, 12.688
759.719, 0.345
761.006, 43.394
762.294, 14.518
763.581, 26.421
764.868, 22.686
766.155, 37.180
767.442, 67.963
768.728, 6.844
770.014, 9.361
771.300, 14.584
772.586, 25.169
773.872, 0.085
775.157, 2.354
776.442, 22.362
777.727, 11.502
779.012, 8.658
780.297, 27.455
781.581, 2.866
782.865, 11.799
784.149, 28.455
785.433, 85.103
786.716, 14.743
787.999, 115.374
789.282, 19.998
790.565, 50.613
791.848, 119.220
793.130, 101.820
794.413, 82.412
795.695, 129.997
796.977, 41.573
798.258, 105.143
799.540, 59.706
800.821, 23.260
802.102, 61.808
803.382, 10.348
804.663, 15.881
805.943, 14.593
807.224, 21.083
808.504, 8.594
809.783, 27.116
811.063, 14.661
812.342, 48.221
813.621, 36.814
814.900, 20.567
816.179, 27.059
817.457, 13.295
818.736, 57.358
820.014, 39.047
821.292, 9.237
822.569, 5.484
823.847, 1.214
825.124, 19.049
826.401, 7.502
827.678, 41.559
828.954, 11.804
830.231, 14.045
831.507, 31.254
832.783, 71.484
834.059, 111.368
835.334, 80.587
836.610, 150.777
837.885, 110.947
839.160, 148.152
840.435, 167.321
841.709, 57.517
842.983, 93.707
844.258, 85.084
845.532, 63.232
846.805, 36.334
848.079, 18.508
849.352, 19.120
850.625, 41.136
851.898, 7.298
853.171, 24.265
854.443, 68.077
855.715, 0.186
856.988, 49.281
858.259, 49.393
859.531, 51.301
860.803, 52.396
862.074, 9.238
863.345, 121.311
864.616, 48.441
865.886, 105.742
867.157, 110.799
868.427, 77.083
869.697, 151.001
870.967, 111.580
872.236, 125.308
873.506, 137.319
874.775, 78.433
876.044, 132.112
877.313, 85.251
878.581, 107.210
879.849, 125.145
881.118, 74.240
882.386, 120.202
883.653, 95.350
884.921, 73.690
886.188, 108.539
887.455, 85.686
888.722, 108.840
889.989, 149.958
891.255, 119.109
892.522, 127.723
893.788, 112.842
895.054, 192.574
896.319, 158.678
897.585, 140.168
898.850, 182.361
900.115, 161.596
901.380, 189.582
902.645, 230.589
903.909, 194.361
905.174, 209.920
906.438, 208.804
907.701, 178.140
908.965, 199.348
910.229, 218.383
911.492, 273.460
912.755, 299.024
914.018, 232.908
915.280, 289.055
916.543, 288.305
917.805, 272.541
919.067, 324.845
920.329, 322.276
921.590, 352.322
922.852, 287.471
924.113, 334.313
925.374, 344.596
926.635, 319.391
927.895, 387.066
929.156, 395.356
930.416, 372.590
931.676, 408.796
932.936, 395.127
934.195, 457.886
935.454, 458.167
936.714, 404.528
937.973, 543.906
939.231, 488.225
940.490, 594.613
941.748, 571.969
943.006, 534.369
944.264, 675.776
945.522, 655.189
946.780, 679.608
948.037, 747.032
949.294, 771.463
950.551, 821.899
951.808, 920.344
953.064, 889.793
954.320, 1032.250
955.577, 1027.663
956.832, 1159.107
958.088, 1230.614
959.344, 1354.740
960.599, 1560.678
961.854, 1740.482
963.109, 2119.097
964.364, 2559.633
965.618, 3315.027
966.872, 4091.440
968.127, 5224.397
969.380, 6567.932
970.634, 7816.050
971.888, 7621.350
973.141, 7004.900
974.394, 6071.277
975.647, 5039.778
976.900, 4381.366
978.152, 3798.955
979.404, 3461.559
980.656, 3301.171
981.908, 3027.791
983.160, 3101.420
984.411, 3289.058
985.663, 3234.709
986.914, 3662.369
988.165, 3879.039
989.415, 4376.716
990.666, 4975.403
991.916, 5715.098
993.166, 6832.802
994.416, 8118.516
995.665, 10266.242
996.915, 13373.979
998.164, 17191.723
999.413, 24119.479
1000.662, 33347.254
1001.911, 44045.027
1003.159, 53922.812
1004.407, 53610.609
1005.655, 47828.422
1006.903, 38046.238
1008.151, 28204.072
1009.398, 21951.918
1010.646, 16409.775
1011.893, 12857.649
1013.139, 10435.535
1014.386, 8183.435
1015.633, 7013.348
1016.879, 5865.852
1018.125, 5011.792
1019.371, 4349.498
1020.616, 3609.731
1021.862, 3275.726
1023.107, 2806.177
1024.352, 2485.570
1025.597, 2234.600
1026.842, 1927.075
1028.086, 1803.173
1029.330, 1640.254
1030.574, 1403.345
1031.818, 1416.445
1033.062, 1227.375
1034.305, 1159.503
1035.548, 1051.648
1036.791, 961.866
1038.034, 975.030
1039.277, 880.568
1040.519, 853.148
1041.762, 849.340
1043.004, 763.560
1044.246, 767.893
1045.487, 734.156
1046.729, 631.654
1047.970, 751.906
1049.211, 636.359
1050.452, 577.742
1051.692, 717.021
1052.933, 520.009
1054.173, 614.013
1055.413, 565.331
1056.653, 499.686
1057.893, 543.032
1059.132, 492.390
1060.371, 449.784
1061.610, 470.161
1062.849, 437.773
1064.088, 445.181
1065.326, 452.595
1066.565, 372.130
1067.803, 471.566
1069.041, 355.010
1070.278, 431.481
1071.516, 444.959
1072.753, 391.492
1073.990, 451.010
1075.227, 466.533
1076.464, 385.066
1077.700, 477.608
1078.936, 421.158
1080.173, 498.732
1081.408, 493.313
1082.644, 452.468
1083.880, 550.076
1085.115, 536.790
1086.350, 537.433
1087.585, 645.082
1088.820, 595.750
1090.054, 574.527
1091.288, 542.209
1092.522, 481.276
1093.756, 461.978
1094.990, 434.682
1096.224, 370.524
1097.457, 453.283
1098.690, 339.010
1099.923, 423.206
1101.156, 395.949
1102.388, 388.746
1103.621, 440.508
1104.853, 403.266
1106.085, 442.222
1107.316, 441.995
1108.548, 438.880
1109.779, 452.808
1111.010, 412.614
1112.241, 353.428
1113.472, 360.268
1114.703, 315.486
1115.933, 265.978
1117.163, 267.846
1118.393, 221.719
1119.623, 200.613
1120.853, 230.525
1122.082, 166.439
1123.311, 198.361
1124.540, 151.286
1125.769, 192.214
1126.997, 226.146
1128.226, 145.079
1129.454, 209.016
1130.682, 107.956
1131.910, 109.897
1133.138, 121.842
1134.365, 127.789
1135.592, 176.737
1136.819, 179.687
1138.046, 141.638
1139.273, 199.753
1140.499, 209.708
1141.725, 198.666
1142.951, 289.949
1144.177, 175.912
1145.403, 251.068
1146.628, 284.120
1147.854, 189.098
1149.079, 211.335
1150.304, 138.502
1151.528, 151.624
1152.753, 201.917
1153.977, 73.886
1155.201, 125.946
1156.425, 66.712
1157.649, 41.681
1158.872, 83.285
1160.096, 9.485
1161.319, 58.663
1162.542, 45.391
1163.764, 19.112
1164.987, 142.935
1166.209, 40.396
1167.431, 9.254
1168.653, 30.912
1169.875, 13.430
1171.097, 11.490
1172.318, 14.800
1173.539, 49.055
1174.760, 0.898
1175.981, 41.628
1177.202, 28.551
1178.422, 50.647
1179.642, 51.544
1180.862, 53.522
1182.082, 31.522
1183.302, 21.543
1184.521, 62.344
1185.740, 42.253
1186.959, 42.363
1188.178, 21.398
1189.397, 35.427
1190.615, 36.695
1191.834, 9.237
1193.052, 86.062
1194.269, 19.588
1195.487, 0.566
1196.705, 18.890
1197.922, 66.728
1199.139, 10.611
1200.356, 59.013
1201.573, 29.547
1202.789, 21.099
1204.006, 37.644
1205.222, 61.182
1206.438, 23.712
1207.653, 60.235
1208.869, 17.249
1210.084, 62.247
1211.299, 131.736
1212.514, 7.216
1213.729, 35.688
1214.944, 39.451
1216.158, 76.080
1217.372, 40.526
1218.586, 35.560
1219.800, 82.989
1221.014, 83.410
1222.227, 92.172
1223.440, 78.574
1224.654, 61.457
1225.866, 117.108
1227.079, 135.566
1228.292, 1.298
1229.504, 111.617
1230.716, 34.204
1231.928, 102.748
1233.139, 84.185
1234.351, 61.939
1235.562, 45.000
1236.773, 145.494
1237.984, 13.895
1239.195, 71.564
1240.406, 118.857
1241.616, 42.483
1242.826, 67.526
1244.036, 82.815
1245.246, 15.647
1246.456, 153.095
1247.665, 69.546
1248.874, 80.184
1250.083, 119.416
1251.292, 37.837
1252.501, 168.223
1253.709, 61.632
1254.917, 54.392
1256.125, 149.809
1257.333, 128.997
1258.541, 161.077
1259.748, 214.248
1260.956, 177.464
1262.163, 181.896
1263.370, 202.040
1264.576, 133.037
1265.783, 204.956
1266.989, 196.068
1268.195, 208.736
1269.401, 253.925
1270.607, 200.977
1271.813, 216.109
1273.018, 223.114
1274.223, 120.126
1275.428, 222.306
1276.633, 145.269
1277.838, 120.339
1279.042, 232.251
1280.246, 120.150
1281.450, 147.037
1282.654, 131.908
1283.858, 69.767
1285.061, 116.862
1286.265, 114.698
1287.468, 42.521
1288.671, 110.585
1289.873, 65.386
1291.076, 91.259
1292.278, 110.681
1293.480, 52.451
1294.682, 67.389
1295.884, 79.138
1297.086, 47.872
1298.287, 120.591
1299.488, 96.275
1300.689, 24.946
1301.890, 165.583
1303.091, 9.813
1304.291, 64.740
1305.491, 70.235
1306.691, 4.681
1307.891, 36.093
1309.091, 99.912
1310.290, 26.730
1311.490, 71.849
1312.689, 64.893
1313.888, 27.165
1315.086, 116.974
1316.285, 45.827
1317.483, 66.032
1318.681, 56.770
1319.879, 28.128
1321.077, 109.973
1322.275, 68.046
1323.472, 19.091
1324.669, 65.301
1325.866, 80.302
1327.063, 95.280
1328.260, 102.175
1329.456, 28.113
1330.653, 92.665
1331.849, 134.161
1333.045, 35.030
1334.240, 134.862
1335.436, 58.559
1336.631, 122.310
1337.826, 179.811
1339.021, 59.550
1340.216, 98.072
1341.411, 205.649
1342.605, 95.323
1343.799, 222.276
1344.993, 136.242
1346.187, 184.858
1347.381, 203.435
1348.574, 118.012
1349.767, 214.573
1350.961, 185.098
1352.153, 145.624
1353.346, 233.907
1354.539, 164.399
1355.731, 120.874
1356.923, 164.219
1358.115, 36.665
1359.307, 62.097
1360.498, 148.515
1361.690, 40.078
1362.881, 122.275
1364.072, 124.647
1365.263, 31.013
1366.453, 135.372
1367.644, 17.729
1368.834, 50.916
1370.024, 84.425
1371.214, 29.828
1372.404, 30.374
1373.593, 46.054
1374.783, 65.917
1375.972, 77.704
1377.161, 23.245
1378.349, 42.355
1379.538, 61.730
1380.726, 0.042
1381.915, 31.416
1383.103, 106.313
1384.290, 35.606
1385.478, 10.268
1386.665, 103.931
1387.853, 6.936
1389.040, 63.314
1390.227, 61.534
1391.413, 31.731
1392.600, 118.895
1393.786, 65.031
1394.972, 72.142
1396.158, 65.231
1397.344, 19.300
1398.530, 60.345
1399.715, 143.370
1400.900, 11.626
1402.085, 115.158
1403.270, 101.715
1404.455, 49.398
1405.639, 127.173
1406.824, 6.449
1408.008, 8.681
1409.192, 139.382
1410.375, 20.125
1411.559, 85.061
1412.742, 149.097
1413.925, 88.900
1415.108, 171.127
1416.291, 101.355
1417.474, 58.347
1418.656, 155.168
1419.839, 69.361
1421.021, 141.113
1422.202, 178.990
1423.384, 145.169
1424.566, 155.556
1425.747, 140.371
1426.928, 42.505
1428.109, 223.025
1429.290, 132.185
1430.470, 42.661
1431.651, 154.250
1432.831, 83.861
1434.011, 5.471
1435.191, 157.080
1436.370, 61.709
1437.550, 132.340
1438.729, 221.124
1439.908, 94.190
1441.087, 179.718
1442.266, 126.587
1443.444, 89.017
1444.623, 242.521
1445.801, 119.544
1446.979, 174.105
1448.157, 261.597
1449.334, 174.766
1450.512, 238.699
1451.689, 225.816
1452.866, 201.851
1454.043, 301.350
1455.220, 286.749
1456.396, 247.118
1457.573, 376.449
1458.749, 275.913
1459.925, 295.135
1461.100, 380.023
1462.276, 196.424
1463.451, 302.823
1464.627, 310.392
1465.802, 196.512
1466.977, 283.867
1468.151, 254.632
1469.326, 189.610
1470.500, 270.923
1471.674, 136.162
1472.848, 184.496
1474.022, 279.653
1475.195, 96.183
1476.369, 166.590
1477.542, 123.330
1478.715, 71.521
1479.888, 166.700
1481.061, 143.911
1482.233, 71.399
1483.405, 130.250
1484.577, 86.122
1485.749, 24.108
1486.921, 139.053
1488.093, 28.999
1489.264, 93.095
1490.435, 181.309
1491.606, 26.640
1492.777, 49.981
1493.948, 115.347
1495.118, 32.740
1496.288, 108.248
1497.459, 40.020
1498.628, 45.001
1499.798, 110.206
1500.968, 53.609
1502.137, 60.934
1503.306, 122.740
1504.475, 65.765
1505.644, 69.214
1506.813, 151.091
1507.981, 50.467
1509.149, 101.421
1510.318, 103.152
1511.485, 40.869
1512.653, 129.884
1513.821, 55.731
1514.988, 0.914
1516.155, 0.000
##END=



