##NAMES=Zircon
##RRUFFID=R050034
##IDEAL CHEMISTRY=Zr^4+^SiO_4_
##LOCALITY=Oaxaca, Mexico
##OWNER=RRUFF
##SOURCE=University of Arizona Mineral Museum
##DESCRIPTION=Reddish brown single crystal fragments
##STATUS=The identification of this mineral has been confirmed by X-ray diffraction and chemical analysis
##URL=rruff.info/R050034
##MEASURED CHEMISTRY=Zr_1.00_Si_1.00_O_4_
##PIN_ID=M00280
##ORIENTATION=Laser parallel to -a* (-1 0 0). Fiducial mark perpendicular to laser is parallel to c [0 0 1]
121.983, 0.000
123.377, 38.206
124.770, 57.792
126.163, 4.814
127.556, 50.486
128.949, 35.750
130.342, 34.477
131.734, 113.439
133.126, 175.504
134.518, 161.229
135.909, 177.462
137.301, 154.954
138.692, 131.411
140.083, 139.585
141.473, 123.468
142.864, 89.833
144.254, 139.465
145.644, 216.216
147.034, 236.990
148.423, 48.725
149.812, 286.381
151.201, 334.936
152.590, 316.359
153.979, 679.886
155.367, 304.133
156.755, 343.890
158.143, 221.440
159.530, 314.986
160.918, 244.300
162.305, 373.161
163.692, 270.466
165.078, 371.275
166.465, 528.641
167.851, 317.611
169.237, 427.229
170.623, 274.528
172.008, 301.542
173.393, 286.297
174.778, 264.821
176.163, 329.132
177.548, 211.251
178.932, 337.195
180.316, 220.127
181.700, 274.825
183.083, 199.181
184.467, 185.496
185.850, 334.380
187.233, 229.101
188.616, 386.269
189.998, 449.839
191.380, 548.652
192.762, 801.208
194.144, 818.807
195.525, 1162.129
196.907, 1329.413
198.288, 1492.091
199.669, 1284.648
201.049, 920.570
202.429, 665.532
203.810, 528.506
205.189, 579.521
206.569, 430.607
207.949, 577.736
209.328, 618.926
210.707, 747.176
212.085, 803.485
213.464, 976.851
214.842, 1382.272
216.220, 1466.747
217.598, 1764.271
218.976, 1928.844
220.353, 1928.462
221.730, 1720.125
223.107, 1261.830
224.483, 1000.573
225.860, 656.353
227.236, 479.167
228.612, 347.014
229.988, 274.891
231.363, 229.797
232.738, 143.733
234.113, 117.697
235.488, 102.686
236.863, 83.700
238.237, 114.734
239.611, 2.786
240.985, 128.848
242.359, 4.922
243.732, 37.005
245.105, 13.098
246.478, 63.201
247.851, 5.684
249.223, 70.558
250.595, 52.581
251.967, 51.267
253.339, 31.102
254.711, 57.922
256.082, 138.728
257.453, 1.520
258.824, 111.296
260.195, 11.058
261.565, 89.804
262.935, 5.533
264.305, 35.263
265.675, 22.982
267.044, 22.307
268.414, 33.424
269.783, 95.824
271.151, 59.981
272.520, 6.874
273.888, 41.193
275.256, 60.777
276.624, 72.253
277.992, 38.292
279.359, 87.333
280.726, 28.401
282.093, 135.465
283.460, 179.560
284.827, 71.692
286.193, 199.901
287.559, 89.738
288.925, 219.285
290.290, 170.519
291.656, 172.919
293.021, 347.308
294.386, 236.709
295.750, 300.161
297.115, 262.643
298.479, 407.143
299.843, 383.656
301.207, 297.181
302.570, 450.713
303.933, 484.253
305.296, 638.795
306.659, 671.338
308.022, 789.878
309.384, 886.415
310.746, 791.947
312.108, 933.476
313.470, 959.000
314.831, 1093.521
316.193, 1173.038
317.554, 1189.551
318.914, 1263.057
320.275, 1052.553
321.635, 1249.030
322.995, 1154.487
324.355, 1168.922
325.715, 1194.337
327.074, 1187.734
328.434, 1404.117
329.792, 1259.487
331.151, 1453.845
332.510, 1422.193
333.868, 1511.533
335.226, 1718.867
336.584, 1708.197
337.941, 2077.521
339.299, 2188.845
340.656, 2443.166
342.013, 2747.487
343.370, 3151.809
344.726, 3773.131
346.082, 4498.436
347.438, 5373.725
348.794, 6229.008
350.150, 7064.212
351.505, 7359.375
352.860, 6844.462
354.215, 6329.447
355.570, 5234.348
356.924, 4569.188
358.278, 3943.993
359.632, 3468.788
360.986, 3343.562
362.339, 2917.346
363.693, 2827.110
365.046, 2802.902
366.399, 2684.713
367.751, 2758.543
369.104, 2552.394
370.456, 2608.263
371.808, 2532.151
373.159, 2533.058
374.511, 2584.982
375.862, 2470.930
377.213, 2708.895
378.564, 2496.877
379.914, 2653.879
381.265, 2705.897
382.615, 2697.939
383.965, 2876.998
385.315, 2859.761
386.664, 2875.165
388.013, 2948.273
389.362, 3017.400
390.711, 3122.542
392.060, 3047.700
393.408, 3332.877
394.756, 3168.070
396.104, 3423.280
397.451, 3558.506
398.799, 3663.749
400.146, 3848.956
401.493, 4020.691
402.840, 4217.582
404.186, 4473.366
405.533, 4688.195
406.879, 5033.309
408.225, 5337.942
409.570, 5783.249
410.916, 6086.986
412.261, 6698.401
413.606, 7153.741
414.951, 7724.844
416.295, 8837.285
417.639, 9268.114
418.983, 10644.852
420.327, 12009.383
421.671, 13689.232
423.014, 16003.325
424.357, 18740.455
425.700, 21739.365
427.043, 25662.170
428.386, 30146.803
429.728, 34762.398
431.070, 38675.543
432.412, 42671.598
433.753, 42733.219
435.095, 41701.188
436.436, 37687.008
437.777, 31838.820
439.118, 26625.105
440.458, 21330.975
441.798, 17756.887
443.138, 14292.791
444.478, 11650.159
445.818, 10150.693
447.157, 8246.655
448.496, 7503.100
449.835, 6349.100
451.174, 5605.111
452.513, 5061.134
453.851, 4377.170
455.189, 4094.220
456.527, 3550.301
457.864, 3566.391
459.202, 3122.489
460.539, 2838.611
461.876, 2814.743
463.212, 2277.886
464.549, 2370.038
465.885, 2031.199
467.221, 1952.374
468.557, 1905.558
469.893, 1655.755
471.228, 1701.961
472.563, 1344.175
473.898, 1340.398
475.233, 1344.630
476.567, 1145.871
477.902, 1190.121
479.236, 972.379
480.570, 911.646
481.903, 983.922
483.237, 730.207
484.570, 778.502
485.903, 727.806
487.235, 800.129
488.568, 782.655
489.900, 656.997
491.232, 739.351
492.564, 454.713
493.896, 709.102
495.227, 469.502
496.558, 648.929
497.889, 641.407
499.220, 512.895
500.551, 691.431
501.881, 590.033
503.211, 604.613
504.541, 671.439
505.870, 603.060
507.200, 666.704
508.529, 571.468
509.858, 642.144
511.187, 470.859
512.515, 499.582
513.844, 598.350
515.172, 528.150
516.500, 560.938
517.827, 596.759
519.155, 532.520
520.482, 537.451
521.809, 456.531
523.136, 419.413
524.462, 395.851
525.789, 503.751
527.115, 413.662
528.441, 286.754
529.766, 464.681
531.092, 420.759
532.417, 398.716
533.742, 389.683
535.067, 249.223
536.391, 442.205
537.716, 279.597
539.040, 469.617
540.364, 365.726
541.688, 300.839
543.011, 419.884
544.334, 381.947
545.657, 408.017
546.980, 234.092
548.303, 398.435
549.625, 402.523
550.947, 193.825
552.269, 312.208
553.591, 252.311
554.913, 167.828
556.234, 288.943
557.555, 82.489
558.876, 308.784
560.197, 110.914
561.517, 64.909
562.837, 202.054
564.157, 35.117
565.477, 166.244
566.797, 47.513
568.116, 84.859
569.435, 182.024
570.754, 60.663
572.073, 110.684
573.391, 3.871
574.709, 125.064
576.027, 96.287
577.345, 38.005
578.663, 81.308
579.980, 69.163
581.297, 26.709
582.614, 66.015
583.931, 68.103
585.248, 127.458
586.564, 37.799
587.880, 54.205
589.196, 39.542
590.511, 14.487
591.827, 59.175
593.142, 76.106
594.457, 169.863
595.772, 65.244
597.086, 18.221
598.401, 64.416
599.715, 0.821
601.029, 123.844
602.343, 42.792
603.656, 99.244
604.969, 108.406
606.282, 18.349
607.595, 146.065
608.908, 99.296
610.220, 29.557
611.532, 226.083
612.844, 29.566
614.156, 206.980
615.468, 93.172
616.779, 113.358
618.090, 295.885
619.401, 60.057
620.712, 228.751
622.022, 142.909
623.332, 108.219
624.642, 255.510
625.952, 133.645
627.262, 253.808
628.571, 124.926
629.880, 107.037
631.189, 292.373
632.498, 82.467
633.807, 133.551
635.115, 201.901
636.423, 144.967
637.731, 219.272
639.039, 70.320
640.346, 276.459
641.653, 50.936
642.960, 200.958
644.267, 210.422
645.574, 0.466
646.880, 246.706
648.186, 146.489
649.492, 171.453
650.798, 115.664
652.103, 96.953
653.409, 155.206
654.714, 105.975
656.019, 136.296
657.323, 185.683
658.628, 62.053
659.932, 327.415
661.236, 25.796
662.540, 226.762
663.843, 204.163
665.147, 57.340
666.450, 266.079
667.753, 188.100
669.056, 240.854
670.358, 209.726
671.660, 99.946
672.963, 263.007
674.264, 152.811
675.566, 143.594
676.868, 197.012
678.169, 69.926
679.470, 227.538
680.771, 7.459
682.071, 236.019
683.372, 168.781
684.672, 84.360
685.972, 289.860
687.271, 98.988
688.571, 191.606
689.870, 252.370
691.169, 33.857
692.468, 202.251
693.767, 44.118
695.065, 135.525
696.364, 119.062
697.662, 25.341
698.960, 153.616
700.257, 176.670
701.555, 179.902
702.852, 211.113
704.149, 87.554
705.446, 257.719
706.742, 101.861
708.038, 84.980
709.335, 195.074
710.631, 57.603
711.926, 273.648
713.222, 54.723
714.517, 116.814
715.812, 249.786
717.107, 15.160
718.402, 261.069
719.696, 45.025
720.990, 111.149
722.284, 134.979
723.578, 118.785
724.872, 254.566
726.165, 32.323
727.458, 125.374
728.751, 202.071
730.044, 35.740
731.336, 257.380
732.629, 27.004
733.921, 158.656
735.213, 109.183
736.504, 46.456
737.796, 228.972
739.087, 20.375
740.378, 26.489
741.669, 67.813
742.960, 49.901
744.250, 164.299
745.540, 44.474
746.830, 88.323
748.120, 79.441
749.410, 35.411
750.699, 151.613
751.988, 118.612
753.277, 92.207
754.566, 147.098
755.854, 11.995
757.143, 155.874
758.431, 106.286
759.719, 67.523
761.006, 181.324
762.294, 32.371
763.581, 182.344
764.868, 155.034
766.155, 90.699
767.442, 131.338
768.728, 52.053
770.014, 244.489
771.300, 178.007
772.586, 20.500
773.872, 218.938
775.157, 42.354
776.442, 177.739
777.727, 126.100
779.012, 16.436
780.297, 219.736
781.581, 19.012
782.865, 221.254
784.149, 220.472
785.433, 108.665
786.716, 280.832
787.999, 180.976
789.282, 99.095
790.565, 229.186
791.848, 105.255
793.130, 276.297
794.413, 140.314
795.695, 57.308
796.977, 163.273
798.258, 9.785
799.540, 153.110
800.821, 102.785
802.102, 21.629
803.382, 173.441
804.663, 39.770
805.943, 79.958
807.224, 41.342
808.504, 129.704
809.783, 62.826
811.063, 124.671
812.342, 61.274
813.621, 42.020
814.900, 62.683
816.179, 128.330
817.457, 32.469
818.736, 69.678
820.014, 23.312
821.292, 92.242
822.569, 173.741
823.847, 107.297
825.124, 36.572
826.401, 69.390
827.678, 60.794
828.954, 125.953
830.231, 56.321
831.507, 84.338
832.783, 186.766
834.059, 71.378
835.334, 261.420
836.610, 93.986
837.885, 132.529
839.160, 168.877
840.435, 27.625
841.709, 105.700
842.983, 65.131
844.258, 125.536
845.532, 238.355
846.805, 28.281
848.079, 124.648
849.352, 9.064
850.625, 21.888
851.898, 240.263
853.171, 36.531
854.443, 201.629
855.715, 487.770
856.988, 69.890
858.259, 161.729
859.531, 138.808
860.803, 214.658
862.074, 150.416
863.345, 15.438
864.616, 301.031
865.886, 110.012
867.157, 98.547
868.427, 291.320
869.697, 17.246
870.967, 235.289
872.236, 98.176
873.506, 172.365
874.775, 265.012
876.044, 234.738
877.313, 224.375
878.581, 174.183
879.849, 233.835
881.118, 307.456
882.386, 161.247
883.653, 319.039
884.921, 334.812
886.188, 213.125
887.455, 472.854
888.722, 287.377
889.989, 435.567
891.255, 472.319
892.522, 281.522
893.788, 490.029
895.054, 359.370
896.319, 405.458
897.585, 532.198
898.850, 345.335
900.115, 538.764
901.380, 467.143
902.645, 365.279
903.909, 667.991
905.174, 368.555
906.438, 437.000
907.701, 525.662
908.965, 321.695
910.229, 627.374
911.492, 380.846
912.755, 491.184
914.018, 571.910
915.280, 391.452
916.543, 608.161
917.805, 423.826
919.067, 480.214
920.329, 631.761
921.590, 461.093
922.852, 509.767
924.113, 507.432
925.374, 421.741
926.635, 673.392
927.895, 374.506
929.156, 621.145
930.416, 534.618
931.676, 419.096
932.936, 715.715
934.195, 440.292
935.454, 517.899
936.714, 505.500
937.973, 344.860
939.231, 692.451
940.490, 431.036
941.748, 399.342
943.006, 546.918
944.264, 380.242
945.522, 509.809
946.780, 542.271
948.037, 340.384
949.294, 603.937
950.551, 433.035
951.808, 452.539
953.064, 507.834
954.320, 384.570
955.577, 616.111
956.832, 487.392
958.088, 387.580
959.344, 680.789
960.599, 390.468
961.854, 716.577
963.109, 558.609
964.364, 517.642
965.618, 927.666
966.872, 993.656
968.127, 1445.047
969.380, 1342.985
970.634, 1354.134
971.888, 1352.702
973.141, 1056.976
974.394, 868.499
975.647, 851.890
976.900, 519.916
978.152, 784.084
979.404, 491.496
980.656, 430.912
981.908, 574.678
983.160, 156.931
984.411, 541.470
985.663, 372.682
986.914, 283.235
988.165, 564.568
989.415, 193.070
990.666, 315.634
991.916, 362.553
993.166, 206.970
994.416, 473.227
995.665, 371.742
996.915, 507.341
998.164, 592.448
999.413, 373.998
1000.662, 744.406
1001.911, 664.056
1003.159, 495.688
1004.407, 594.526
1005.655, 486.170
1006.903, 443.851
1008.151, 699.285
1009.398, 310.979
1010.646, 572.682
1011.893, 524.391
1013.139, 586.109
1014.386, 737.385
1015.633, 459.121
1016.879, 640.891
1018.125, 702.771
1019.371, 474.662
1020.616, 876.088
1021.862, 637.951
1023.107, 789.768
1024.352, 1011.766
1025.597, 743.689
1026.842, 1005.677
1028.086, 897.626
1029.330, 759.581
1030.574, 1131.673
1031.818, 749.141
1033.062, 1011.157
1034.305, 1046.170
1035.548, 871.697
1036.791, 681.342
1038.034, 903.012
1039.277, 1022.465
1040.519, 1047.694
1041.762, 701.595
1043.004, 836.023
1044.246, 780.253
1045.487, 716.435
1046.729, 919.027
1047.970, 631.175
1049.211, 829.787
1050.452, 831.188
1051.692, 930.199
1052.933, 826.598
1054.173, 783.897
1055.413, 936.167
1056.653, 979.979
1057.893, 854.464
1059.132, 951.801
1060.371, 650.080
1061.610, 731.441
1062.849, 642.580
1064.088, 776.221
1065.326, 595.464
1066.565, 821.957
1067.803, 950.085
1069.041, 984.230
1070.278, 644.647
1071.516, 788.126
1072.753, 737.758
1073.990, 679.472
1075.227, 890.668
1076.464, 605.503
1077.700, 813.107
1078.936, 823.562
1080.173, 923.799
1081.408, 829.815
1082.644, 795.620
1083.880, 956.249
1085.115, 1008.977
1086.350, 892.324
1087.585, 998.911
1088.820, 707.069
1090.054, 764.398
1091.288, 973.108
1092.522, 866.258
1093.756, 975.942
1094.990, 1003.859
1096.224, 656.379
1097.457, 960.967
1098.690, 983.754
1099.923, 806.814
1101.156, 1030.244
1102.388, 992.957
1103.621, 825.673
1104.853, 655.140
1106.085, 837.772
1107.316, 934.608
1108.548, 950.173
1109.779, 641.188
1111.010, 751.554
1112.241, 693.781
1113.472, 629.141
1114.703, 798.341
1115.933, 536.664
1117.163, 702.188
1118.393, 697.197
1119.623, 770.257
1120.853, 674.317
1122.082, 630.618
1123.311, 755.978
1124.540, 787.748
1125.769, 672.421
1126.997, 750.520
1128.226, 483.049
1129.454, 518.835
1130.682, 685.480
1131.910, 578.691
1133.138, 659.908
1134.365, 669.895
1135.592, 354.073
1136.819, 604.240
1138.046, 609.780
1139.273, 363.836
1140.499, 595.760
1141.725, 384.604
1142.951, 331.074
1144.177, 398.174
1145.403, 339.603
1146.628, 476.176
1147.854, 426.004
1149.079, 357.779
1150.304, 363.228
1151.528, 301.207
1152.753, 344.013
1153.977, 270.975
1155.201, 321.890
1156.425, 401.957
1157.649, 255.678
1158.872, 348.960
1160.096, 70.541
1161.319, 104.409
1162.542, 103.191
1163.764, 319.430
1164.987, 41.854
1166.209, 65.928
1167.431, 220.262
1168.653, 192.672
1169.875, 244.246
1171.097, 74.211
1172.318, 108.210
1173.539, 87.279
1174.760, 263.133
1175.981, 281.408
1177.202, 90.110
1178.422, 107.029
1179.642, 156.069
1180.862, 62.298
1182.082, 69.719
1183.302, 137.266
1184.521, 68.991
1185.740, 13.472
1186.959, 134.678
1188.178, 62.506
1189.397, 139.866
1190.615, 64.746
1191.834, 62.445
1193.052, 199.818
1194.269, 116.703
1195.487, 85.441
1196.705, 177.861
1197.922, 120.037
1199.139, 201.978
1200.356, 15.029
1201.573, 76.998
1202.789, 328.943
1204.006, 45.837
1205.222, 297.735
1206.438, 259.820
1207.653, 62.333
1208.869, 464.162
1210.084, 246.207
1211.299, 208.320
1212.514, 420.084
1213.729, 82.630
1214.944, 304.346
1216.158, 436.238
1217.372, 89.884
1218.586, 351.525
1219.800, 203.460
1221.014, 145.956
1222.227, 547.529
1223.440, 10.822
1224.654, 182.491
1225.866, 353.986
1227.079, 137.161
1228.292, 358.609
1229.504, 182.649
1230.716, 314.386
1231.928, 545.773
1233.139, 108.441
1234.351, 300.607
1235.562, 261.936
1236.773, 65.489
1237.984, 296.781
1239.195, 228.055
1240.406, 73.194
1241.616, 404.432
1242.826, 135.649
1244.036, 136.851
1245.246, 348.031
1246.456, 79.421
1247.665, 420.567
1248.874, 301.697
1250.083, 122.929
1251.292, 594.021
1252.501, 245.098
1253.709, 266.462
1254.917, 537.503
1256.125, 208.525
1257.333, 509.527
1258.541, 500.510
1259.748, 321.466
1260.956, 762.401
1262.163, 393.309
1263.370, 564.701
1264.576, 755.558
1265.783, 376.392
1266.989, 687.159
1268.195, 637.900
1269.401, 418.613
1270.607, 619.296
1271.813, 509.851
1273.018, 320.366
1274.223, 500.833
1275.428, 371.244
1276.633, 311.612
1277.838, 461.897
1279.042, 192.155
1280.246, 502.326
1281.450, 272.435
1282.654, 242.459
1283.858, 472.452
1285.061, 62.397
1286.265, 252.301
1287.468, 322.176
1288.671, 32.023
1289.873, 351.829
1291.076, 361.571
1292.278, 61.283
1293.480, 460.959
1294.682, 200.603
1295.884, 170.137
1297.086, 239.637
1298.287, 60.910
1299.488, 148.471
1300.689, 267.806
1301.890, 107.109
1303.091, 356.280
1304.291, 75.310
1305.491, 54.287
1306.691, 433.216
1307.891, 227.911
1309.091, 240.812
1310.290, 199.347
1311.490, 27.936
1312.689, 306.526
1313.888, 4.922
1315.086, 16.431
1316.285, 411.914
1317.483, 20.297
1318.681, 168.575
1319.879, 336.855
1321.077, 84.916
1322.275, 253.140
1323.472, 175.780
1324.669, 86.171
1325.866, 428.849
1327.063, 16.688
1328.260, 61.172
1329.456, 435.407
1330.653, 87.327
1331.849, 180.330
1333.045, 294.478
1334.240, 2.060
1335.436, 385.850
1336.631, 259.700
1337.826, 47.170
1339.021, 417.446
1340.216, 184.537
1341.411, 281.887
1342.605, 301.729
1343.799, 49.016
1344.993, 465.653
1346.187, 352.516
1347.381, 40.293
1348.574, 456.333
1349.767, 193.451
1350.961, 90.542
1352.153, 337.143
1353.346, 184.188
1354.539, 161.214
1355.731, 368.221
1356.923, 134.785
1358.115, 341.705
1359.307, 188.635
1360.498, 5.561
1361.690, 532.040
1362.881, 158.960
1364.072, 55.889
1365.263, 602.610
1366.453, 9.573
1367.644, 195.661
1368.834, 272.602
1370.024, 150.317
1371.214, 316.453
1372.404, 4.925
1373.593, 127.788
1374.783, 319.115
1375.972, 25.731
1377.161, 64.472
1378.349, 422.937
1379.538, 2.037
1380.726, 380.371
1381.915, 428.428
1383.103, 23.348
1384.290, 645.586
1385.478, 293.884
1386.665, 252.670
1387.853, 471.228
1389.040, 179.978
1390.227, 268.683
1391.413, 487.341
1392.600, 205.951
1393.786, 554.518
1394.972, 493.039
1396.158, 161.518
1397.344, 569.954
1398.530, 308.348
1399.715, 266.257
1400.900, 594.312
1402.085, 251.123
1403.270, 599.173
1404.455, 784.982
1405.639, 111.510
1406.824, 699.104
1408.008, 410.663
1409.192, 760.805
1410.375, 962.716
1411.559, 1015.405
1412.742, 472.712
1413.925, 675.177
1415.108, 590.719
1416.291, 491.565
1417.474, 819.811
1418.656, 360.459
1419.839, 675.313
1421.021, 689.744
1422.202, 834.747
1423.384, 674.715
1424.566, 605.475
1425.747, 858.626
1426.928, 936.099
1428.109, 746.679
1429.290, 913.328
1430.470, 447.099
1431.651, 534.975
1432.831, 856.029
1434.011, 683.765
1435.191, 855.277
1436.370, 895.658
1437.550, 321.459
1438.729, 802.926
1439.908, 832.557
1441.087, 402.885
1442.266, 845.700
1443.444, 481.321
1444.623, 383.611
1445.801, 500.239
1446.979, 412.437
1448.157, 683.083
1449.334, 605.990
1450.512, 494.342
1451.689, 524.938
1452.866, 431.456
1454.043, 529.951
1455.220, 402.823
1456.396, 515.540
1457.573, 681.688
1458.749, 432.104
1459.925, 622.921
1461.100, 130.223
1462.276, 207.772
1463.451, 224.904
1464.627, 607.380
1465.802, 117.626
1466.977, 180.594
1468.151, 478.854
1469.326, 448.101
1470.500, 555.186
1471.674, 255.087
1472.848, 337.718
1474.022, 314.662
1475.195, 656.105
1476.369, 709.649
1477.542, 416.160
1478.715, 124.278
1479.888, 492.064
1481.061, 234.806
1482.233, 316.025
1483.405, 48.987
1484.577, 83.163
1485.749, 112.614
1486.921, 296.383
1488.093, 262.906
1489.264, 335.783
1490.435, 308.594
1491.606, 384.989
1492.777, 450.235
1493.948, 491.327
1495.118, 420.508
1496.288, 560.053
1497.459, 252.550
1498.628, 115.505
1499.798, 99.907
1500.968, 654.793
1502.137, 680.785
1503.306, 74.606
1504.475, 607.074
1505.644, 355.784
1506.813, 420.791
1507.981, 867.497
1509.149, 236.224
1510.318, 367.452
1511.485, 711.839
1512.653, 9.689
1513.821, 514.245
1514.988, 421.321
1516.155, 0.000
##END=



