##NAMES=Zircon
##RRUFFID=R050034
##IDEAL CHEMISTRY=Zr^4+^SiO_4_
##LOCALITY=Oaxaca, Mexico
##OWNER=RRUFF
##SOURCE=University of Arizona Mineral Museum
##DESCRIPTION=Reddish brown single crystal fragments
##STATUS=The identification of this mineral has been confirmed by X-ray diffraction and chemical analysis
##URL=rruff.info/R050034
##MEASURED CHEMISTRY=Zr_1.00_Si_1.00_O_4_
##PIN_ID=M00280
##ORIENTATION=Laser parallel to -a* (-1 0 0). Fiducial mark perpendicular to laser is parallel to c [0 0 1]
120.589, 0.000
121.983, 0.067
123.377, 42.902
124.770, 50.287
126.163, 59.135
127.556, 33.571
128.949, 61.261
130.342, 10.019
131.734, 27.592
133.126, 55.959
134.518, 27.961
135.909, 52.494
137.301, 50.475
138.692, 72.884
140.083, 56.739
141.473, 23.998
142.864, 107.593
144.254, 94.460
145.644, 90.554
147.034, 138.838
148.423, 61.287
149.812, 97.878
151.201, 142.596
152.590, 132.160
153.979, 153.182
155.367, 167.637
156.755, 177.349
158.143, 164.368
159.530, 224.538
160.918, 221.864
162.305, 267.208
163.692, 218.523
165.078, 245.815
166.465, 319.088
167.851, 239.348
169.237, 273.598
170.623, 303.842
172.008, 300.085
173.393, 268.330
174.778, 391.578
176.163, 329.834
177.548, 378.099
178.932, 394.374
180.316, 399.662
181.700, 519.964
183.083, 518.280
184.467, 627.612
185.850, 683.961
187.233, 808.216
188.616, 933.067
189.998, 1153.071
191.380, 1399.735
192.762, 1912.994
194.144, 2534.812
195.525, 3391.081
196.907, 4327.407
198.288, 5058.497
199.669, 4680.953
201.049, 3871.714
202.429, 3508.830
203.810, 3604.984
205.189, 3959.149
206.569, 4310.333
207.949, 4582.533
209.328, 4473.747
210.707, 4349.984
212.085, 4159.245
213.464, 4270.532
214.842, 4887.844
216.220, 5582.183
217.598, 6512.549
218.976, 7028.941
220.353, 6991.358
221.730, 6042.805
223.107, 4653.277
224.483, 3176.774
225.860, 2378.298
227.236, 1669.846
228.612, 1253.419
229.988, 994.018
231.363, 770.640
232.738, 645.286
234.113, 481.956
235.488, 422.650
236.863, 318.366
238.237, 286.106
239.611, 209.867
240.985, 235.647
242.359, 197.448
243.732, 127.268
245.105, 59.105
246.478, 54.962
247.851, 77.838
249.223, 23.732
250.595, 49.644
251.967, 24.575
253.339, 10.475
254.711, 3.493
256.082, 17.521
257.453, 41.516
258.824, 20.493
260.195, 49.452
261.565, 9.393
262.935, 28.316
264.305, 10.212
265.675, 28.077
267.044, 18.915
268.414, 43.736
269.783, 6.512
271.151, 29.250
272.520, 17.038
273.888, 27.337
275.256, 9.690
276.624, 37.911
277.992, 7.479
279.359, 15.018
280.726, 25.536
282.093, 21.946
283.460, 63.450
284.827, 18.964
286.193, 51.081
287.559, 59.518
288.925, 49.365
290.290, 44.258
291.656, 50.142
293.021, 56.083
294.386, 75.075
295.750, 77.647
297.115, 104.729
298.479, 130.848
299.843, 136.004
301.207, 122.192
302.570, 179.412
303.933, 150.660
305.296, 226.936
306.659, 255.236
308.022, 281.559
309.384, 317.904
310.746, 374.270
312.108, 434.656
313.470, 493.370
314.831, 493.485
316.193, 629.926
317.554, 631.385
318.914, 698.861
320.275, 675.353
321.635, 843.857
322.995, 857.374
324.355, 915.901
325.715, 1024.438
327.074, 1066.986
328.434, 1208.544
329.792, 1287.114
331.151, 1464.693
332.510, 1614.283
333.868, 1978.884
335.226, 2524.495
336.584, 2457.118
337.941, 2912.752
339.299, 3451.396
340.656, 4188.052
342.013, 4961.719
343.370, 6274.396
344.726, 7978.084
346.082, 10156.783
347.438, 12635.497
348.794, 15534.216
350.150, 17802.949
351.505, 18691.686
352.860, 17250.428
354.215, 14999.154
355.570, 11937.868
356.924, 9356.578
358.278, 7435.283
359.632, 5850.980
360.986, 4938.681
362.339, 3992.392
363.693, 3491.100
365.046, 3046.807
366.399, 2637.527
367.751, 2422.257
369.104, 2128.999
370.456, 2005.753
371.808, 1788.519
373.159, 1683.296
374.511, 1596.084
375.862, 1568.884
377.213, 1466.695
378.564, 1431.517
379.914, 1480.350
381.265, 1476.193
382.615, 1535.048
383.965, 1598.914
385.315, 1692.790
386.664, 1643.676
388.013, 1607.572
389.362, 1586.481
390.711, 1511.400
392.060, 1349.330
393.408, 1322.270
394.756, 1161.220
396.104, 1247.185
397.451, 1195.158
398.799, 1247.147
400.146, 1203.146
401.493, 1236.152
402.840, 1358.184
404.186, 1366.219
405.533, 1431.753
406.879, 1528.823
408.225, 1605.835
409.570, 1727.098
410.916, 1870.072
412.261, 2052.342
413.606, 2226.469
414.951, 2469.185
416.295, 2729.457
417.639, 3022.635
418.983, 3430.109
420.327, 3875.959
421.671, 4454.383
423.014, 5170.538
424.357, 6050.107
425.700, 7283.883
427.043, 8774.007
428.386, 10275.316
429.728, 12105.868
431.070, 13936.095
432.412, 15346.130
433.753, 15765.742
435.095, 15516.273
436.436, 14355.593
437.777, 12264.861
439.118, 10312.727
440.458, 8461.840
441.798, 7002.610
443.138, 5823.045
444.478, 4798.333
445.818, 4097.709
447.157, 3437.008
448.496, 3164.310
449.835, 2650.620
451.174, 2412.936
452.513, 2173.259
453.851, 1956.587
455.189, 1781.921
456.527, 1577.269
457.864, 1497.623
459.202, 1385.981
460.539, 1292.356
461.876, 1200.735
463.212, 1119.711
464.549, 1104.534
465.885, 966.942
467.221, 949.354
468.557, 861.768
469.893, 790.187
471.228, 828.608
472.563, 661.032
473.898, 638.459
475.233, 635.888
476.567, 488.320
477.902, 556.753
479.236, 467.188
480.570, 383.625
481.903, 407.064
483.237, 350.505
484.570, 389.947
485.903, 340.390
487.235, 309.835
488.568, 227.281
489.900, 240.729
491.232, 259.177
492.564, 205.628
493.896, 209.084
495.227, 190.544
496.558, 245.101
497.889, 226.597
499.220, 219.110
500.551, 224.643
501.881, 212.175
503.211, 194.712
504.541, 191.257
505.870, 179.624
507.200, 175.457
508.529, 169.017
509.858, 171.576
511.187, 176.137
512.515, 143.698
513.844, 217.267
515.172, 117.826
516.500, 195.426
517.827, 159.080
519.155, 161.744
520.482, 142.360
521.809, 133.996
523.136, 133.549
524.462, 124.102
525.789, 138.652
527.115, 122.270
528.441, 125.878
529.766, 106.424
531.092, 152.138
532.417, 163.733
533.742, 178.273
535.067, 149.955
536.391, 205.513
537.716, 163.175
539.040, 217.721
540.364, 155.272
541.688, 206.177
543.011, 221.736
544.334, 149.376
545.657, 185.975
546.980, 89.531
548.303, 144.686
549.625, 156.312
550.947, 47.103
552.269, 91.989
553.591, 89.603
554.913, 79.317
556.234, 127.996
557.555, 42.784
558.876, 117.492
560.197, 26.010
561.517, 4.055
562.837, 24.720
564.157, 21.163
565.477, 61.617
566.797, 10.784
568.116, 2.015
569.435, 30.562
570.754, 13.425
572.073, 22.582
573.391, 19.829
574.709, 34.025
576.027, 15.535
577.345, 40.457
578.663, 0.940
579.980, 40.719
581.297, 32.987
582.614, 3.669
583.931, 65.448
585.248, 11.246
586.564, 40.944
587.880, 21.667
589.196, 33.351
590.511, 5.728
591.827, 12.423
593.142, 10.212
594.457, 23.129
595.772, 43.348
597.086, 71.518
598.401, 30.740
599.715, 19.893
601.029, 39.336
602.343, 52.414
603.656, 20.927
604.969, 94.627
606.282, 71.645
607.595, 80.676
608.908, 44.711
610.220, 91.802
611.532, 194.922
612.844, 109.031
614.156, 148.742
615.468, 141.691
616.779, 121.758
618.090, 152.201
619.401, 141.119
620.712, 134.075
622.022, 148.874
623.332, 150.857
624.642, 172.827
625.952, 122.742
627.262, 159.781
628.571, 140.728
629.880, 144.637
631.189, 204.478
632.498, 170.283
633.807, 164.076
635.115, 207.858
636.423, 255.627
637.731, 240.385
639.039, 256.131
640.346, 277.971
641.653, 173.693
642.960, 190.403
644.267, 147.169
645.574, 107.938
646.880, 139.714
648.186, 132.510
649.492, 138.318
650.798, 98.981
652.103, 94.262
653.409, 53.294
654.714, 85.640
656.019, 98.621
657.323, 103.234
658.628, 112.490
659.932, 166.114
661.236, 68.491
662.540, 162.005
663.843, 99.256
665.147, 123.439
666.450, 103.994
667.753, 134.847
669.056, 132.333
670.358, 91.863
671.660, 101.332
672.963, 84.771
674.264, 72.165
675.566, 69.774
676.868, 81.200
678.169, 76.537
679.470, 136.857
680.771, 123.163
682.071, 109.454
683.372, 90.729
684.672, 71.990
685.972, 124.234
687.271, 56.464
688.571, 84.687
689.870, 128.949
691.169, 65.050
692.468, 94.367
693.767, 73.982
695.065, 113.194
696.364, 123.023
697.662, 49.246
698.960, 111.330
700.257, 88.967
701.555, 98.018
702.852, 114.126
704.149, 38.989
705.446, 90.986
706.742, 57.968
708.038, 50.930
709.335, 90.874
710.631, 20.801
711.926, 73.701
713.222, 18.584
714.517, 64.439
715.812, 110.277
717.107, 4.901
718.402, 70.877
719.696, 22.357
720.990, 50.886
722.284, 15.414
723.578, 47.321
724.872, 82.796
726.165, 42.417
727.458, 30.002
728.751, 67.582
730.044, 41.565
731.336, 58.621
732.629, 29.123
733.921, 85.702
735.213, 112.850
736.504, 33.353
737.796, 86.810
739.087, 3.426
740.378, 11.382
741.669, 72.545
742.960, 10.183
744.250, 51.213
745.540, 17.848
746.830, 40.186
748.120, 57.077
749.410, 25.082
750.699, 46.288
751.988, 55.537
753.277, 41.772
754.566, 19.960
755.854, 30.230
757.143, 64.418
758.431, 10.596
759.719, 5.671
761.006, 77.813
762.294, 64.942
763.581, 61.059
764.868, 45.163
766.155, 35.254
767.442, 35.331
768.728, 13.605
770.014, 102.430
771.300, 36.454
772.586, 26.536
773.872, 72.440
775.157, 35.595
776.442, 1.670
777.727, 41.235
779.012, 41.126
780.297, 51.006
781.581, 17.873
782.865, 36.873
784.149, 42.583
785.433, 55.398
786.716, 66.216
787.999, 83.023
789.282, 78.819
790.565, 147.603
791.848, 95.376
793.130, 147.138
794.413, 31.890
795.695, 86.629
796.977, 120.357
798.258, 39.075
799.540, 34.782
800.821, 29.477
802.102, 21.161
803.382, 14.855
804.663, 10.422
805.943, 4.866
807.224, 49.243
808.504, 70.741
809.783, 54.210
811.063, 65.721
812.342, 32.720
813.621, 13.849
814.900, 42.438
816.179, 54.849
817.457, 25.785
818.736, 9.445
820.014, 22.879
821.292, 4.807
822.569, 30.493
823.847, 15.784
825.124, 26.055
826.401, 2.327
827.678, 14.546
828.954, 25.993
830.231, 17.838
831.507, 38.012
832.783, 92.157
834.059, 50.374
835.334, 154.583
836.610, 158.783
837.885, 110.951
839.160, 122.031
840.435, 54.208
841.709, 25.207
842.983, 11.315
844.258, 21.531
845.532, 1.534
846.805, 47.424
848.079, 4.561
849.352, 36.348
850.625, 59.279
851.898, 32.412
853.171, 35.561
854.443, 20.369
855.715, 1.329
856.988, 23.679
858.259, 89.701
859.531, 65.601
860.803, 83.326
862.074, 36.946
863.345, 74.827
864.616, 86.600
865.886, 84.398
867.157, 83.076
868.427, 111.827
869.697, 67.758
870.967, 150.152
872.236, 95.918
873.506, 106.222
874.775, 112.870
876.044, 97.690
877.313, 141.296
878.581, 110.146
879.849, 124.672
881.118, 154.895
882.386, 121.677
883.653, 160.230
884.921, 133.015
886.188, 154.346
887.455, 173.268
888.722, 189.254
889.989, 201.859
891.255, 199.825
892.522, 192.913
893.788, 218.996
895.054, 176.992
896.319, 193.012
897.585, 216.978
898.850, 190.662
900.115, 294.660
901.380, 231.743
902.645, 191.683
903.909, 251.737
905.174, 206.838
906.438, 217.885
907.701, 340.780
908.965, 284.806
910.229, 315.977
911.492, 265.704
912.755, 286.952
914.018, 354.449
915.280, 322.638
916.543, 372.813
917.805, 384.924
919.067, 409.997
920.329, 418.154
921.590, 363.537
922.852, 386.755
924.113, 401.845
925.374, 322.550
926.635, 456.773
927.895, 400.947
929.156, 499.270
930.416, 472.401
931.676, 426.536
932.936, 472.718
934.195, 401.766
935.454, 453.897
936.714, 550.059
937.973, 533.278
939.231, 597.525
940.490, 624.775
941.748, 655.027
943.006, 713.247
944.264, 660.541
945.522, 800.802
946.780, 804.961
948.037, 814.228
949.294, 934.500
950.551, 888.706
951.808, 957.900
953.064, 1073.078
954.320, 1023.228
955.577, 1251.357
956.832, 1251.624
958.088, 1397.263
959.344, 1668.144
960.599, 1823.701
961.854, 2334.323
963.109, 2733.251
964.364, 3418.508
965.618, 4487.752
966.872, 5568.232
968.127, 6695.568
969.380, 6410.157
970.634, 5636.804
971.888, 4968.071
973.141, 4241.033
974.394, 3652.351
975.647, 3279.615
976.900, 2854.933
978.152, 2968.159
979.404, 2703.448
980.656, 2756.794
981.908, 2869.117
983.160, 2866.520
984.411, 3300.930
985.663, 3508.346
986.914, 3905.767
988.165, 4482.195
989.415, 5048.629
990.666, 6012.071
991.916, 7533.520
993.166, 9049.967
994.416, 11836.363
995.665, 15401.912
996.915, 21108.240
998.164, 29512.260
999.413, 38878.680
1000.662, 48093.469
1001.911, 48486.863
1003.159, 40093.391
1004.407, 30708.352
1005.655, 22484.887
1006.903, 17091.363
1008.151, 13637.082
1009.398, 10553.651
1010.646, 8800.231
1011.893, 7156.890
1013.139, 6021.492
1014.386, 5144.109
1015.633, 4386.738
1016.879, 3860.396
1018.125, 3324.284
1019.371, 2925.967
1020.616, 2689.785
1021.862, 2357.638
1023.107, 2094.377
1024.352, 1964.631
1025.597, 1684.404
1026.842, 1602.304
1028.086, 1484.733
1029.330, 1329.802
1030.574, 1398.778
1031.818, 1160.859
1033.062, 1152.114
1034.305, 1106.782
1035.548, 944.911
1036.791, 1000.009
1038.034, 1010.783
1039.277, 975.016
1040.519, 1046.190
1041.762, 945.181
1043.004, 1024.288
1044.246, 945.077
1045.487, 970.109
1046.729, 965.782
1047.970, 945.508
1049.211, 820.557
1050.452, 820.419
1051.692, 769.787
1052.933, 716.556
1054.173, 735.527
1055.413, 622.999
1056.653, 639.505
1057.893, 596.618
1059.132, 630.676
1060.371, 600.868
1061.610, 517.007
1062.849, 604.087
1064.088, 576.604
1065.326, 562.681
1066.565, 632.794
1067.803, 558.179
1069.041, 605.264
1070.278, 600.352
1071.516, 619.695
1072.753, 719.797
1073.990, 678.019
1075.227, 592.104
1076.464, 679.541
1077.700, 725.034
1078.936, 730.747
1080.173, 576.939
1081.408, 629.171
1082.644, 598.623
1083.880, 564.701
1085.115, 645.800
1086.350, 515.204
1087.585, 594.333
1088.820, 589.711
1090.054, 623.392
1091.288, 574.345
1092.522, 550.722
1093.756, 610.082
1094.990, 623.548
1096.224, 564.777
1097.457, 601.120
1098.690, 467.707
1099.923, 483.084
1101.156, 562.820
1102.388, 508.232
1103.621, 545.898
1104.853, 548.928
1106.085, 391.792
1107.316, 512.532
1108.548, 513.170
1109.779, 390.366
1111.010, 501.497
1112.241, 395.729
1113.472, 367.379
1114.703, 397.304
1115.933, 366.507
1117.163, 431.469
1118.393, 404.188
1119.623, 368.666
1120.853, 369.114
1122.082, 267.639
1123.311, 355.258
1124.540, 313.707
1125.769, 336.361
1126.997, 373.571
1128.226, 299.340
1129.454, 343.084
1130.682, 203.876
1131.910, 217.746
1133.138, 215.138
1134.365, 310.386
1135.592, 172.061
1136.819, 181.817
1138.046, 254.721
1139.273, 239.171
1140.499, 260.700
1141.725, 172.996
1142.951, 187.863
1144.177, 174.807
1145.403, 258.917
1146.628, 266.031
1147.854, 181.966
1149.079, 96.421
1150.304, 187.947
1151.528, 111.719
1152.753, 125.879
1153.977, 47.722
1155.201, 49.269
1156.425, 49.488
1157.649, 91.415
1158.872, 7.763
1160.096, 87.541
1161.319, 73.592
1162.542, 85.949
1163.764, 67.432
1164.987, 3.147
1166.209, 59.036
1167.431, 14.490
1168.653, 11.947
1169.875, 91.219
1171.097, 96.987
1172.318, 56.409
1173.539, 31.756
1174.760, 12.761
1175.981, 1.369
1177.202, 28.418
1178.422, 6.781
1179.642, 4.874
1180.862, 29.174
1182.082, 17.049
1183.302, 39.099
1184.521, 42.220
1185.740, 12.730
1186.959, 29.937
1188.178, 27.940
1189.397, 52.941
1190.615, 94.896
1191.834, 52.095
1193.052, 33.812
1194.269, 133.449
1195.487, 27.780
1196.705, 9.091
1197.922, 1.133
1199.139, 72.490
1200.356, 16.780
1201.573, 23.755
1202.789, 36.273
1204.006, 19.014
1205.222, 117.457
1206.438, 64.017
1207.653, 6.290
1208.869, 95.125
1210.084, 6.771
1211.299, 105.151
1212.514, 91.515
1213.729, 28.164
1214.944, 119.494
1216.158, 163.999
1217.372, 44.781
1218.586, 138.288
1219.800, 76.855
1221.014, 54.792
1222.227, 200.021
1223.440, 69.266
1224.654, 50.477
1225.866, 173.681
1227.079, 30.326
1228.292, 128.665
1229.504, 135.571
1230.716, 59.273
1231.928, 242.458
1233.139, 100.402
1234.351, 177.068
1235.562, 149.121
1236.773, 82.719
1237.984, 202.863
1239.195, 123.880
1240.406, 121.033
1241.616, 152.108
1242.826, 88.309
1244.036, 131.381
1245.246, 198.333
1246.456, 100.601
1247.665, 193.646
1248.874, 160.559
1250.083, 42.320
1251.292, 169.206
1252.501, 103.077
1253.709, 107.150
1254.917, 235.994
1256.125, 139.850
1257.333, 284.843
1258.541, 215.642
1259.748, 184.928
1260.956, 287.695
1262.163, 206.485
1263.370, 236.987
1264.576, 340.692
1265.783, 241.380
1266.989, 236.045
1268.195, 301.688
1269.401, 269.305
1270.607, 292.897
1271.813, 228.442
1273.018, 172.946
1274.223, 257.418
1275.428, 181.867
1276.633, 170.265
1277.838, 154.631
1279.042, 152.975
1280.246, 214.258
1281.450, 122.479
1282.654, 83.677
1283.858, 225.854
1285.061, 105.009
1286.265, 138.144
1287.468, 116.257
1288.671, 60.351
1289.873, 145.422
1291.076, 132.473
1292.278, 10.504
1293.480, 160.506
1294.682, 70.489
1295.884, 139.447
1297.086, 121.386
1298.287, 30.300
1299.488, 90.181
1300.689, 102.033
1301.890, 50.865
1303.091, 92.659
1304.291, 25.316
1305.491, 22.000
1306.691, 128.625
1307.891, 34.796
1309.091, 120.710
1310.290, 38.972
1311.490, 9.577
1312.689, 104.715
1313.888, 9.947
1315.086, 58.275
1316.285, 96.083
1317.483, 27.650
1318.681, 22.467
1319.879, 150.035
1321.077, 8.932
1322.275, 87.902
1323.472, 88.747
1324.669, 66.603
1325.866, 105.613
1327.063, 57.653
1328.260, 46.093
1329.456, 152.143
1330.653, 86.712
1331.849, 103.321
1333.045, 180.093
1334.240, 80.735
1335.436, 170.189
1336.631, 105.272
1337.826, 142.735
1339.021, 128.599
1340.216, 70.042
1341.411, 88.292
1342.605, 119.290
1343.799, 89.760
1344.993, 247.690
1346.187, 158.899
1347.381, 76.134
1348.574, 265.781
1349.767, 99.207
1350.961, 63.770
1352.153, 206.081
1353.346, 63.437
1354.539, 132.337
1355.731, 151.662
1356.923, 52.934
1358.115, 136.919
1359.307, 74.192
1360.498, 32.450
1361.690, 64.448
1362.881, 50.679
1364.072, 19.767
1365.263, 192.746
1366.453, 8.932
1367.644, 111.946
1368.834, 108.878
1370.024, 0.055
1371.214, 66.880
1372.404, 15.077
1373.593, 49.701
1374.783, 90.306
1375.972, 6.351
1377.161, 33.792
1378.349, 114.605
1379.538, 16.871
1380.726, 85.569
1381.915, 158.809
1383.103, 25.924
1384.290, 93.470
1385.478, 60.293
1386.665, 87.265
1387.853, 234.520
1389.040, 45.762
1390.227, 84.957
1391.413, 156.115
1392.600, 4.763
1393.786, 122.326
1394.972, 142.382
1396.158, 61.407
1397.344, 138.399
1398.530, 106.348
1399.715, 70.255
1400.900, 171.592
1402.085, 1.177
1403.270, 156.669
1404.455, 101.748
1405.639, 16.970
1406.824, 226.103
1408.008, 151.421
1409.192, 129.172
1410.375, 256.508
1411.559, 109.844
1412.742, 152.121
1413.925, 321.739
1415.108, 119.273
1416.291, 223.256
1417.474, 241.220
1418.656, 204.394
1419.839, 285.564
1421.021, 196.361
1422.202, 293.809
1423.384, 343.600
1424.566, 357.964
1425.747, 192.539
1426.928, 259.281
1428.109, 233.214
1429.290, 203.244
1430.470, 302.941
1431.651, 163.916
1432.831, 261.550
1434.011, 264.858
1435.191, 311.153
1436.370, 263.772
1437.550, 245.207
1438.729, 320.498
1439.908, 342.939
1441.087, 283.283
1442.266, 330.673
1443.444, 188.354
1444.623, 210.898
1445.801, 298.529
1446.979, 241.095
1448.157, 284.310
1449.334, 289.430
1450.512, 112.922
1451.689, 255.843
1452.866, 263.441
1454.043, 130.897
1455.220, 259.157
1456.396, 146.489
1457.573, 120.635
1458.749, 160.462
1459.925, 128.357
1461.100, 207.804
1462.276, 181.100
1463.451, 146.931
1464.627, 153.317
1465.802, 44.592
1466.977, 149.547
1468.151, 108.646
1469.326, 140.319
1470.500, 188.699
1471.674, 111.265
1472.848, 166.982
1474.022, 15.974
1475.195, 37.731
1476.369, 40.748
1477.542, 154.137
1478.715, 3.626
1479.888, 20.132
1481.061, 107.688
1482.233, 96.013
1483.405, 126.250
1484.577, 33.545
1485.749, 56.561
1486.921, 47.823
1488.093, 149.348
1489.264, 164.029
1490.435, 73.903
1491.606, 15.689
1492.777, 94.296
1493.948, 15.301
1495.118, 38.383
1496.288, 45.429
1497.459, 220.409
1498.628, 243.616
1499.798, 108.104
1500.968, 240.857
1502.137, 236.891
1503.306, 39.244
1504.475, 246.657
1505.644, 76.429
1506.813, 110.630
1507.981, 232.348
1509.149, 2.655
1510.318, 153.644
1511.485, 267.265
1512.653, 2.514
1513.821, 121.336
1514.988, 47.446
1516.155, 0.000
##END=



