##NAMES=Zircon
##RRUFFID=R050034
##IDEAL CHEMISTRY=Zr^4+^SiO_4_
##LOCALITY=Oaxaca, Mexico
##OWNER=RRUFF
##SOURCE=University of Arizona Mineral Museum
##DESCRIPTION=Reddish brown single crystal fragments
##STATUS=The identification of this mineral has been confirmed by X-ray diffraction and chemical analysis
##URL=rruff.info/R050034
##MEASURED CHEMISTRY=Zr_1.00_Si_1.00_O_4_
##PIN_ID=M00272
##ORIENTATION=Laser parallel to -c* (0 0 -1). Fiducial mark perpendicular to laser is parallel to b [0 1 0]
81.463, 0.000
82.863, 19.985
84.264, 31.556
85.664, 4.764
87.064, 2.738
88.463, 56.389
89.863, 83.727
91.262, 105.423
92.661, 112.229
94.059, 114.955
95.458, 186.470
96.856, 103.674
98.254, 183.479
99.652, 147.803
101.049, 222.577
102.446, 213.740
103.843, 247.248
105.240, 243.068
106.637, 296.199
108.033, 386.624
109.429, 473.326
110.825, 473.289
112.220, 422.477
113.616, 431.856
115.011, 398.400
116.406, 349.085
117.800, 334.893
119.195, 300.811
120.589, 365.825
121.983, 321.925
123.377, 343.102
124.770, 310.347
126.163, 293.772
127.556, 317.248
128.949, 286.829
130.342, 334.793
131.734, 318.878
133.126, 292.053
134.518, 265.298
135.909, 297.675
137.301, 311.274
138.692, 246.906
140.083, 269.544
141.473, 251.146
142.864, 260.715
144.254, 236.256
145.644, 261.772
147.034, 267.267
148.423, 237.743
149.812, 239.202
151.201, 240.646
152.590, 234.078
153.979, 247.499
155.367, 214.909
156.755, 284.312
158.143, 250.708
159.530, 322.098
160.918, 247.484
162.305, 295.866
163.692, 309.246
165.078, 284.620
166.465, 338.975
167.851, 285.308
169.237, 319.311
170.623, 229.572
172.008, 263.966
173.393, 254.228
174.778, 275.494
176.163, 231.093
177.548, 249.781
178.932, 316.343
180.316, 264.656
181.700, 348.861
183.083, 330.306
184.467, 355.996
185.850, 350.520
187.233, 392.489
188.616, 424.866
189.998, 498.111
191.380, 580.083
192.762, 691.493
194.144, 794.699
195.525, 920.970
196.907, 1043.339
198.288, 1228.292
199.669, 1474.264
201.049, 1654.253
202.429, 2023.261
203.810, 2544.285
205.189, 3203.326
206.569, 3725.385
207.949, 4380.460
209.328, 4542.550
210.707, 4342.658
212.085, 3609.778
213.464, 2747.913
214.842, 2251.062
216.220, 1745.223
217.598, 1424.397
218.976, 1223.583
220.353, 1003.780
221.730, 856.987
223.107, 737.206
224.483, 642.434
225.860, 499.673
227.236, 428.923
228.612, 368.183
229.988, 270.454
231.363, 288.736
232.738, 209.029
234.113, 250.333
235.488, 162.647
236.863, 163.972
238.237, 166.308
239.611, 97.654
240.985, 160.012
242.359, 75.380
243.732, 86.760
245.105, 94.157
246.478, 62.572
247.851, 40.560
249.223, 45.531
250.595, 61.473
251.967, 26.094
253.339, 34.199
254.711, 27.370
256.082, 41.402
257.453, 43.868
258.824, 11.183
260.195, 43.539
261.565, 1.068
262.935, 34.358
264.305, 53.816
265.675, 23.302
267.044, 22.815
268.414, 50.644
269.783, 31.910
271.151, 55.503
272.520, 33.908
273.888, 1.699
275.256, 52.678
276.624, 53.950
277.992, 16.407
279.359, 46.246
280.726, 15.087
282.093, 18.412
283.460, 11.272
284.827, 34.032
286.193, 19.667
287.559, 11.378
288.925, 5.902
290.290, 22.172
291.656, 2.438
293.021, 13.303
294.386, 30.947
295.750, 23.196
297.115, 32.445
298.479, 38.694
299.843, 28.947
301.207, 58.201
302.570, 18.536
303.933, 2.723
305.296, 24.020
306.659, 12.768
308.022, 3.480
309.384, 39.275
310.746, 19.965
312.108, 103.794
313.470, 36.559
314.831, 81.328
316.193, 53.103
317.554, 98.882
318.914, 110.666
320.275, 71.455
321.635, 136.250
322.995, 32.050
324.355, 75.854
325.715, 89.664
327.074, 87.479
328.434, 106.300
329.792, 87.126
331.151, 164.957
332.510, 82.794
333.868, 88.620
335.226, 191.452
336.584, 116.288
337.941, 218.131
339.299, 200.980
340.656, 265.816
342.013, 309.626
343.370, 356.422
344.726, 416.219
346.082, 527.018
347.438, 646.817
348.794, 715.612
350.150, 793.666
351.505, 992.208
352.860, 900.002
354.215, 963.785
355.570, 1001.552
356.924, 588.308
358.278, 567.070
359.632, 400.837
360.986, 434.606
362.339, 292.385
363.693, 315.171
365.046, 325.965
366.399, 256.767
367.751, 328.576
369.104, 301.819
370.456, 303.760
371.808, 321.056
373.159, 321.898
374.511, 354.747
375.862, 389.612
377.213, 485.484
378.564, 448.363
379.914, 542.250
381.265, 670.145
382.615, 718.046
383.965, 910.955
385.315, 964.871
386.664, 1143.795
388.013, 1176.726
389.362, 1222.663
390.711, 1222.608
392.060, 967.560
393.408, 987.523
394.756, 821.494
396.104, 764.479
397.451, 743.470
398.799, 651.475
400.146, 690.486
401.493, 638.503
402.840, 697.541
404.186, 770.583
405.533, 724.987
406.879, 826.045
408.225, 882.109
409.570, 1008.184
410.916, 1037.270
412.261, 1241.313
413.606, 1437.425
414.951, 1448.546
416.295, 1732.696
417.639, 1921.853
418.983, 2172.064
420.327, 2564.236
421.671, 2948.414
423.014, 3528.653
424.357, 4110.789
425.700, 5052.092
427.043, 6182.313
428.386, 7483.592
429.728, 9322.484
431.070, 10808.440
432.412, 12839.408
433.753, 14144.920
435.095, 14781.600
436.436, 14779.874
437.777, 13185.544
439.118, 11933.833
440.458, 10011.394
441.798, 8349.704
443.138, 6905.337
444.478, 5701.422
445.818, 4894.151
447.157, 3928.857
448.496, 3459.206
449.835, 3011.559
451.174, 2590.614
452.513, 2362.918
453.851, 2031.132
455.189, 1900.515
456.527, 1662.394
457.864, 1646.661
459.202, 1469.464
460.539, 1292.942
461.876, 1311.932
463.212, 1126.362
464.549, 1177.795
465.885, 1043.038
467.221, 903.490
468.557, 944.945
469.893, 800.174
471.228, 780.636
472.563, 726.111
473.898, 670.579
475.233, 644.051
476.567, 514.525
477.902, 613.003
479.236, 472.483
480.570, 452.966
481.903, 477.452
483.237, 313.941
484.570, 405.432
485.903, 325.925
487.235, 315.422
488.568, 271.920
489.900, 289.421
491.232, 303.935
492.564, 231.450
493.896, 250.979
495.227, 228.511
496.558, 238.045
497.889, 236.701
499.220, 239.062
500.551, 233.738
501.881, 243.318
503.211, 239.899
504.541, 215.492
505.870, 195.087
507.200, 224.686
508.529, 198.285
509.858, 219.891
511.187, 242.515
512.515, 176.140
513.844, 260.776
515.172, 139.414
516.500, 198.053
517.827, 216.694
519.155, 147.336
520.482, 221.980
521.809, 227.023
523.136, 197.670
524.462, 176.361
525.789, 173.024
527.115, 192.674
528.441, 163.510
529.766, 172.518
531.092, 141.283
532.417, 149.989
533.742, 172.641
535.067, 103.383
536.391, 188.046
537.716, 193.724
539.040, 197.631
540.364, 131.315
541.688, 108.110
543.011, 158.839
544.334, 83.710
545.657, 126.583
546.980, 128.266
548.303, 131.046
549.625, 126.821
550.947, 75.611
552.269, 59.439
553.591, 85.328
554.913, 65.758
556.234, 133.436
557.555, 46.706
558.876, 129.454
560.197, 60.127
561.517, 53.889
562.837, 99.558
564.157, 32.972
565.477, 93.679
566.797, 27.328
568.116, 37.162
569.435, 84.553
570.754, 41.522
572.073, 61.935
573.391, 49.552
574.709, 61.343
576.027, 144.953
577.345, 5.953
578.663, 47.623
579.980, 38.295
581.297, 1.709
582.614, 23.889
583.931, 4.043
585.248, 47.003
586.564, 2.414
587.880, 14.708
589.196, 6.092
590.511, 47.384
591.827, 48.260
593.142, 0.807
594.457, 19.290
595.772, 348.869
597.086, 168.252
598.401, 413.733
599.715, 50.388
601.029, 59.267
602.343, 39.800
603.656, 26.330
604.969, 105.525
606.282, 55.458
607.595, 122.067
608.908, 69.578
610.220, 60.406
611.532, 168.531
612.844, 55.029
614.156, 136.639
615.468, 102.252
616.779, 119.741
618.090, 155.743
619.401, 122.232
620.712, 113.788
622.022, 156.421
623.332, 145.906
624.642, 228.005
625.952, 55.476
627.262, 196.105
628.571, 175.563
629.880, 138.010
631.189, 214.527
632.498, 149.962
633.807, 196.388
635.115, 246.806
636.423, 235.215
637.731, 326.695
639.039, 231.086
640.346, 337.469
641.653, 252.842
642.960, 188.207
644.267, 206.692
645.574, 136.038
646.880, 163.375
648.186, 161.879
649.492, 152.198
650.798, 158.337
652.103, 146.109
653.409, 131.991
654.714, 137.070
656.019, 103.366
657.323, 110.446
658.628, 65.803
659.932, 179.098
661.236, 94.437
662.540, 111.655
663.843, 160.024
665.147, 93.220
666.450, 118.270
667.753, 85.213
669.056, 87.377
670.358, 93.489
671.660, 60.681
672.963, 101.811
674.264, 71.984
675.566, 76.091
676.868, 125.186
678.169, 23.270
679.470, 133.338
680.771, 51.395
682.071, 58.439
683.372, 97.472
684.672, 18.493
685.972, 86.497
687.271, 39.489
688.571, 50.468
689.870, 124.435
691.169, 9.534
692.468, 114.391
693.767, 68.153
695.065, 36.053
696.364, 66.938
697.662, 46.950
698.960, 60.809
700.257, 40.656
701.555, 40.488
702.852, 78.306
704.149, 49.585
705.446, 50.955
706.742, 48.156
708.038, 8.920
709.335, 39.662
710.631, 1.611
711.926, 115.088
713.222, 0.774
714.517, 55.433
715.812, 134.079
717.107, 23.288
718.402, 75.305
719.696, 15.885
720.990, 82.095
722.284, 74.643
723.578, 6.179
724.872, 15.691
726.165, 4.184
727.458, 11.710
728.751, 79.159
730.044, 59.405
731.336, 96.975
732.629, 24.343
733.921, 54.695
735.213, 53.034
736.504, 47.640
737.796, 82.601
739.087, 19.865
740.378, 20.027
741.669, 85.258
742.960, 3.429
744.250, 53.972
745.540, 34.965
746.830, 14.581
748.120, 79.562
749.410, 12.315
750.699, 52.787
751.988, 56.878
753.277, 26.043
754.566, 33.001
755.854, 19.968
757.143, 86.032
758.431, 59.021
759.719, 10.001
761.006, 12.950
762.294, 35.886
763.581, 80.811
764.868, 14.725
766.155, 42.375
767.442, 72.483
768.728, 26.330
770.014, 25.166
771.300, 75.989
772.586, 26.197
773.872, 109.583
775.157, 35.647
776.442, 20.085
777.727, 52.806
779.012, 29.483
780.297, 94.194
781.581, 14.861
782.865, 47.516
784.149, 106.160
785.433, 28.795
786.716, 101.419
787.999, 90.033
789.282, 85.638
790.565, 140.233
791.848, 23.818
793.130, 176.393
794.413, 93.958
795.695, 125.514
796.977, 172.061
798.258, 8.599
799.540, 89.125
800.821, 74.643
802.102, 28.848
803.382, 96.632
804.663, 38.897
805.943, 16.541
807.224, 18.970
808.504, 72.611
809.783, 25.759
811.063, 57.881
812.342, 4.437
813.621, 15.746
814.900, 31.953
816.179, 82.320
817.457, 0.415
818.736, 43.840
820.014, 13.913
821.292, 60.683
822.569, 73.507
823.847, 32.310
825.124, 1.847
826.401, 40.996
827.678, 5.137
828.954, 124.271
830.231, 21.398
831.507, 33.518
832.783, 132.233
834.059, 66.340
835.334, 147.396
836.610, 165.475
837.885, 111.562
839.160, 182.100
840.435, 82.175
841.709, 128.130
842.983, 87.139
844.258, 42.804
845.532, 111.148
846.805, 56.824
848.079, 80.169
849.352, 30.929
850.625, 47.095
851.898, 123.756
853.171, 14.668
854.443, 72.433
855.715, 70.190
856.988, 18.867
858.259, 67.970
859.531, 35.809
860.803, 52.627
862.074, 128.401
863.345, 45.111
864.616, 153.275
865.886, 119.185
867.157, 100.499
868.427, 177.330
869.697, 53.231
870.967, 157.039
872.236, 114.945
873.506, 68.046
874.775, 143.954
876.044, 121.868
877.313, 133.592
878.581, 99.774
879.849, 86.417
881.118, 204.517
882.386, 64.457
883.653, 145.219
884.921, 176.159
886.188, 47.708
887.455, 160.591
888.722, 113.474
889.989, 99.030
891.255, 217.979
892.522, 93.467
893.788, 166.973
895.054, 153.937
896.319, 98.797
897.585, 212.739
898.850, 125.613
900.115, 210.544
901.380, 217.579
902.645, 155.704
903.909, 271.730
905.174, 172.787
906.438, 267.122
907.701, 323.101
908.965, 225.856
910.229, 271.959
911.492, 209.064
912.755, 331.501
914.018, 399.204
915.280, 265.229
916.543, 392.348
917.805, 365.148
919.067, 291.655
920.329, 447.785
921.590, 367.799
922.852, 409.838
924.113, 411.003
925.374, 271.659
926.635, 439.833
927.895, 326.944
929.156, 485.990
930.416, 476.178
931.676, 395.753
932.936, 497.953
934.195, 465.992
935.454, 413.201
936.714, 611.423
937.973, 505.576
939.231, 594.809
940.490, 672.048
941.748, 605.294
943.006, 702.547
944.264, 734.727
945.522, 773.993
946.780, 855.267
948.037, 806.547
949.294, 1000.834
950.551, 933.000
951.808, 994.302
953.064, 1213.612
954.320, 1050.753
955.577, 1259.077
956.832, 1338.651
958.088, 1442.916
959.344, 1849.202
960.599, 1861.760
961.854, 2344.099
963.109, 2853.651
964.364, 3279.926
965.618, 4633.260
966.872, 5948.548
968.127, 7570.957
969.380, 8337.214
970.634, 7933.640
971.888, 7299.212
973.141, 6016.889
974.394, 5037.344
975.647, 4564.880
976.900, 3750.272
978.152, 3771.756
979.404, 3443.195
980.656, 3278.699
981.908, 3485.214
983.160, 3246.738
984.411, 3706.274
985.663, 4009.821
986.914, 4180.379
988.165, 4980.946
989.415, 5510.524
990.666, 6421.116
991.916, 7787.717
993.166, 9284.332
994.416, 11980.957
995.665, 15375.519
996.915, 20372.174
998.164, 28965.992
999.413, 38982.672
1000.662, 52769.371
1001.911, 61633.945
1003.159, 58750.656
1004.407, 51547.391
1005.655, 38644.141
1006.903, 28800.904
1008.151, 22607.205
1009.398, 16593.994
1010.646, 13480.798
1011.893, 10597.615
1013.139, 8524.451
1014.386, 7421.305
1015.633, 5982.175
1016.879, 5161.082
1018.125, 4556.006
1019.371, 3713.944
1020.616, 3482.918
1021.862, 2995.884
1023.107, 2570.898
1024.352, 2476.939
1025.597, 1975.433
1026.842, 1906.505
1028.086, 1831.854
1029.330, 1513.968
1030.574, 1553.121
1031.818, 1250.476
1033.062, 1276.656
1034.305, 1246.888
1035.548, 1043.518
1036.791, 1031.774
1038.034, 914.308
1039.277, 859.588
1040.519, 920.900
1041.762, 765.780
1043.004, 812.115
1044.246, 817.465
1045.487, 613.709
1046.729, 865.084
1047.970, 655.525
1049.211, 660.376
1050.452, 737.793
1051.692, 570.257
1052.933, 645.701
1054.173, 601.563
1055.413, 480.850
1056.653, 686.333
1057.893, 419.700
1059.132, 562.213
1060.371, 580.734
1061.610, 372.339
1062.849, 557.886
1064.088, 441.443
1065.326, 543.010
1066.565, 503.584
1067.803, 354.200
1069.041, 472.810
1070.278, 461.429
1071.516, 454.198
1072.753, 540.833
1073.990, 457.478
1075.227, 521.188
1076.464, 540.860
1077.700, 397.618
1078.936, 569.325
1080.173, 578.039
1081.408, 482.878
1082.644, 670.627
1083.880, 524.390
1085.115, 643.000
1086.350, 680.820
1087.585, 508.656
1088.820, 667.501
1090.054, 562.352
1091.288, 455.417
1092.522, 620.291
1093.756, 376.172
1094.990, 396.300
1096.224, 477.206
1097.457, 406.235
1098.690, 478.170
1099.923, 420.105
1101.156, 433.277
1102.388, 499.229
1103.621, 405.197
1104.853, 532.185
1106.085, 557.192
1107.316, 450.204
1108.548, 576.431
1109.779, 413.480
1111.010, 390.537
1112.241, 351.618
1113.472, 247.705
1114.703, 368.798
1115.933, 251.907
1117.163, 159.021
1118.393, 324.145
1119.623, 168.273
1120.853, 212.410
1122.082, 283.571
1123.311, 99.735
1124.540, 217.913
1125.769, 164.097
1126.997, 174.285
1128.226, 211.477
1129.454, 104.672
1130.682, 179.872
1131.910, 153.076
1133.138, 149.283
1134.365, 268.492
1135.592, 106.706
1136.819, 223.921
1138.046, 248.252
1139.273, 180.473
1140.499, 332.960
1141.725, 334.185
1142.951, 194.413
1144.177, 293.958
1145.403, 200.201
1146.628, 213.458
1147.854, 273.927
1149.079, 112.187
1150.304, 229.573
1151.528, 165.960
1152.753, 47.233
1153.977, 169.477
1155.201, 25.901
1156.425, 77.268
1157.649, 146.310
1158.872, 18.588
1160.096, 96.167
1161.319, 30.486
1162.542, 14.762
1163.764, 120.156
1164.987, 37.684
1166.209, 28.955
1167.431, 32.076
1168.653, 49.544
1169.875, 117.337
1171.097, 21.407
1172.318, 37.354
1173.539, 113.593
1174.760, 82.685
1175.981, 57.492
1177.202, 50.577
1178.422, 28.073
1179.642, 89.260
1180.862, 23.768
1182.082, 8.091
1183.302, 113.141
1184.521, 26.232
1185.740, 72.876
1186.959, 95.499
1188.178, 46.264
1189.397, 104.801
1190.615, 40.275
1191.834, 81.673
1193.052, 130.329
1194.269, 67.386
1195.487, 25.435
1196.705, 60.522
1197.922, 81.556
1199.139, 71.314
1200.356, 38.684
1201.573, 44.852
1202.789, 192.949
1204.006, 11.962
1205.222, 146.812
1206.438, 154.579
1207.653, 34.586
1208.869, 153.333
1210.084, 89.213
1211.299, 66.007
1212.514, 190.727
1213.729, 51.965
1214.944, 90.666
1216.158, 238.357
1217.372, 75.854
1218.586, 157.773
1219.800, 201.642
1221.014, 55.791
1222.227, 232.387
1223.440, 54.901
1224.654, 86.717
1225.866, 263.281
1227.079, 50.646
1228.292, 135.348
1229.504, 161.340
1230.716, 2.914
1231.928, 281.747
1233.139, 135.019
1234.351, 114.133
1235.562, 177.623
1236.773, 49.049
1237.984, 155.772
1239.195, 234.243
1240.406, 47.396
1241.616, 276.853
1242.826, 76.739
1244.036, 105.057
1245.246, 252.491
1246.456, 54.247
1247.665, 183.321
1248.874, 220.733
1250.083, 118.656
1251.292, 197.053
1252.501, 174.440
1253.709, 70.767
1254.917, 323.137
1256.125, 156.830
1257.333, 236.711
1258.541, 254.054
1259.748, 179.922
1260.956, 472.141
1262.163, 181.446
1263.370, 236.531
1264.576, 397.816
1265.783, 158.078
1266.989, 336.683
1268.195, 373.917
1269.401, 166.135
1270.607, 302.518
1271.813, 239.646
1273.018, 195.756
1274.223, 299.961
1275.428, 192.002
1276.633, 171.338
1277.838, 245.321
1279.042, 159.262
1280.246, 285.329
1281.450, 181.235
1282.654, 119.162
1283.858, 288.037
1285.061, 84.896
1286.265, 173.957
1287.468, 156.789
1288.671, 77.606
1289.873, 196.763
1291.076, 228.552
1292.278, 22.459
1293.480, 234.213
1294.682, 127.949
1295.884, 128.672
1297.086, 205.492
1298.287, 8.181
1299.488, 122.888
1300.689, 138.530
1301.890, 40.141
1303.091, 168.639
1304.291, 90.100
1305.491, 31.538
1306.691, 192.934
1307.891, 40.712
1309.091, 103.597
1310.290, 182.868
1311.490, 51.890
1312.689, 139.272
1313.888, 49.445
1315.086, 4.448
1316.285, 225.614
1317.483, 14.209
1318.681, 0.214
1319.879, 178.925
1321.077, 40.143
1322.275, 119.744
1323.472, 119.416
1324.669, 31.751
1325.866, 258.037
1327.063, 139.413
1328.260, 60.152
1329.456, 284.600
1330.653, 57.287
1331.849, 129.947
1333.045, 283.019
1334.240, 68.621
1335.436, 290.194
1336.631, 235.854
1337.826, 89.369
1339.021, 268.803
1340.216, 147.812
1341.411, 208.251
1342.605, 369.714
1343.799, 117.107
1344.993, 251.069
1346.187, 263.015
1347.381, 75.345
1348.574, 337.780
1349.767, 225.171
1350.961, 86.441
1352.153, 370.616
1353.346, 112.849
1354.539, 131.063
1355.731, 267.261
1356.923, 40.445
1358.115, 179.584
1359.307, 167.147
1360.498, 122.270
1361.690, 262.240
1362.881, 83.337
1364.072, 35.425
1365.263, 200.460
1366.453, 12.535
1367.644, 86.505
1368.834, 173.589
1370.024, 4.385
1371.214, 106.540
1372.404, 1.555
1373.593, 135.396
1374.783, 68.384
1375.972, 3.078
1377.161, 32.228
1378.349, 185.702
1379.538, 5.107
1380.726, 91.158
1381.915, 219.273
1383.103, 16.399
1384.290, 244.872
1385.478, 56.892
1386.665, 2.898
1387.853, 257.280
1389.040, 76.429
1390.227, 35.549
1391.413, 230.638
1392.600, 28.302
1393.786, 163.730
1394.972, 175.736
1396.158, 19.716
1397.344, 279.667
1398.530, 80.594
1399.715, 52.357
1400.900, 191.907
1402.085, 67.753
1403.270, 156.186
1404.455, 280.427
1405.639, 30.025
1406.824, 241.593
1408.008, 195.485
1409.192, 74.982
1410.375, 242.172
1411.559, 162.315
1412.742, 105.422
1413.925, 303.664
1415.108, 153.921
1416.291, 116.166
1417.474, 237.283
1418.656, 55.280
1419.839, 170.839
1421.021, 221.361
1422.202, 96.423
1423.384, 278.582
1424.566, 122.308
1425.747, 132.593
1426.928, 266.110
1428.109, 79.093
1429.290, 190.151
1430.470, 274.018
1431.651, 46.652
1432.831, 239.790
1434.011, 99.480
1435.191, 142.228
1436.370, 306.379
1437.550, 132.456
1438.729, 105.366
1439.908, 357.013
1441.087, 120.353
1442.266, 241.966
1443.444, 424.141
1444.623, 110.013
1445.801, 268.305
1446.979, 293.451
1448.157, 106.157
1449.334, 476.543
1450.512, 282.572
1451.689, 278.265
1452.866, 507.736
1454.043, 348.137
1455.220, 258.437
1456.396, 519.337
1457.573, 231.236
1458.749, 414.063
1459.925, 434.729
1461.100, 275.260
1462.276, 455.791
1463.451, 347.155
1464.627, 234.072
1465.802, 511.241
1466.977, 214.925
1468.151, 305.641
1469.326, 378.909
1470.500, 162.400
1471.674, 196.174
1472.848, 386.481
1474.022, 109.403
1475.195, 247.870
1476.369, 261.630
1477.542, 107.771
1478.715, 318.984
1479.888, 142.658
1481.061, 105.720
1482.233, 249.917
1483.405, 37.203
1484.577, 125.705
1485.749, 266.349
1486.921, 9.886
1488.093, 221.944
1489.264, 166.890
1490.435, 31.906
1491.606, 271.005
1492.777, 74.159
1493.948, 101.417
1495.118, 281.883
1496.288, 58.579
1497.459, 142.584
1498.628, 283.859
1499.798, 6.408
1500.968, 215.996
1502.137, 240.669
1503.306, 95.347
1504.475, 367.497
1505.644, 131.994
1506.813, 146.815
1507.981, 398.601
1509.149, 70.537
1510.318, 166.677
1511.485, 330.116
1512.653, 0.682
1513.821, 0.000
##END=



