##NAMES=Zircon
##RRUFFID=R050034
##IDEAL CHEMISTRY=Zr^4+^SiO_4_
##LOCALITY=Oaxaca, Mexico
##OWNER=RRUFF
##SOURCE=University of Arizona Mineral Museum
##DESCRIPTION=Reddish brown single crystal fragments
##STATUS=The identification of this mineral has been confirmed by X-ray diffraction and chemical analysis
##URL=rruff.info/R050034
##MEASURED CHEMISTRY=Zr_1.00_Si_1.00_O_4_
##PIN_ID=M00272
##ORIENTATION=Laser parallel to -c* (0 0 -1). Fiducial mark perpendicular to laser is parallel to b [0 1 0]
84.264, 0.000
85.664, 52.177
87.064, 3.283
88.463, 38.424
89.863, 71.670
91.262, 69.317
92.661, 70.598
94.059, 101.987
95.458, 108.093
96.856, 129.616
98.254, 155.359
99.652, 171.139
101.049, 196.831
102.446, 219.319
103.843, 244.880
105.240, 293.302
106.637, 304.640
108.033, 322.458
109.429, 361.716
110.825, 454.385
112.220, 459.456
113.616, 458.915
115.011, 421.719
116.406, 367.825
117.800, 378.202
119.195, 374.818
120.589, 389.651
121.983, 386.680
123.377, 348.889
124.770, 348.262
126.163, 354.786
127.556, 375.446
128.949, 308.228
130.342, 299.122
131.734, 338.151
133.126, 257.342
134.518, 323.732
135.909, 320.285
137.301, 348.992
138.692, 300.005
140.083, 333.302
141.473, 310.760
142.864, 309.267
144.254, 280.780
145.644, 275.300
147.034, 326.831
148.423, 259.374
149.812, 288.931
151.201, 237.504
152.590, 214.094
153.979, 324.701
155.367, 287.328
156.755, 263.973
158.143, 290.639
159.530, 264.326
160.918, 291.033
162.305, 268.762
163.692, 298.512
165.078, 263.286
166.465, 321.081
167.851, 282.887
169.237, 300.665
170.623, 260.425
172.008, 232.178
173.393, 291.932
174.778, 271.691
176.163, 308.460
177.548, 239.934
178.932, 237.217
180.316, 256.919
181.700, 236.708
183.083, 288.743
184.467, 265.133
185.850, 309.850
187.233, 348.156
188.616, 352.985
189.998, 438.817
191.380, 451.693
192.762, 531.245
194.144, 609.233
195.525, 682.268
196.907, 779.629
198.288, 914.780
199.669, 1034.676
201.049, 1233.006
202.429, 1387.730
203.810, 1545.484
205.189, 1859.268
206.569, 2240.080
207.949, 2630.919
209.328, 3085.787
210.707, 3089.683
212.085, 2869.606
213.464, 2338.555
214.842, 1884.531
216.220, 1495.533
217.598, 1262.560
218.976, 1214.612
220.353, 1149.687
221.730, 1085.786
223.107, 960.906
224.483, 787.047
225.860, 734.209
227.236, 509.392
228.612, 410.594
229.988, 374.818
231.363, 277.062
232.738, 275.326
234.113, 195.610
235.488, 182.057
236.863, 143.238
238.237, 153.582
239.611, 172.946
240.985, 151.329
242.359, 142.732
243.732, 115.154
245.105, 148.596
246.478, 69.057
247.851, 67.538
249.223, 44.037
250.595, 70.291
251.967, 81.437
253.339, 54.471
254.711, 53.942
256.082, 30.534
257.453, 15.231
258.824, 81.025
260.195, 44.901
261.565, 129.854
262.935, 79.875
264.305, 180.958
265.675, 91.108
267.044, 72.312
268.414, 70.563
269.783, 14.136
271.151, 10.791
272.520, 10.598
273.888, 39.026
275.256, 32.505
276.624, 30.993
277.992, 33.525
279.359, 50.911
280.726, 54.672
282.093, 19.283
283.460, 28.080
284.827, 5.419
286.193, 12.734
287.559, 13.029
288.925, 31.303
290.290, 13.438
291.656, 18.799
293.021, 18.980
294.386, 34.221
295.750, 54.409
297.115, 43.589
298.479, 67.759
299.843, 7.924
301.207, 3.924
302.570, 93.211
303.933, 36.649
305.296, 39.477
306.659, 13.599
308.022, 47.712
309.384, 24.822
310.746, 1.075
312.108, 15.017
313.470, 38.900
314.831, 23.828
316.193, 45.768
317.554, 24.719
318.914, 38.681
320.275, 52.655
321.635, 42.551
322.995, 55.885
324.355, 40.644
325.715, 71.662
327.074, 75.690
328.434, 98.730
329.792, 133.780
331.151, 111.842
332.510, 148.913
333.868, 158.995
335.226, 199.088
336.584, 215.192
337.941, 226.307
339.299, 296.434
340.656, 265.571
342.013, 369.715
343.370, 468.869
344.726, 480.024
346.082, 701.191
347.438, 797.354
348.794, 1066.521
350.150, 1325.695
351.505, 1550.868
352.860, 1749.047
354.215, 1745.229
355.570, 1559.394
356.924, 1325.550
358.278, 1054.690
359.632, 843.832
360.986, 677.968
362.339, 597.109
363.693, 472.259
365.046, 490.421
366.399, 392.594
367.751, 365.779
369.104, 272.980
370.456, 323.195
371.808, 385.420
373.159, 317.657
374.511, 335.906
375.862, 372.165
377.213, 392.436
378.564, 359.718
379.914, 412.015
381.265, 470.322
382.615, 465.638
383.965, 572.966
385.315, 685.303
386.664, 769.654
388.013, 877.014
389.362, 894.385
390.711, 883.770
392.060, 791.165
393.408, 729.584
394.756, 679.013
396.104, 633.304
397.451, 609.899
398.799, 592.358
400.146, 600.826
401.493, 621.304
402.840, 631.811
404.186, 724.288
405.533, 711.800
406.879, 706.325
408.225, 812.858
409.570, 848.401
410.916, 1010.955
412.261, 1059.516
413.606, 1190.634
414.951, 1310.228
416.295, 1489.477
417.639, 1720.111
418.983, 1868.757
420.327, 2281.199
421.671, 2580.875
423.014, 3027.045
424.357, 3610.748
425.700, 4251.628
427.043, 5241.632
428.386, 6227.373
429.728, 7732.169
431.070, 9250.709
432.412, 10938.746
433.753, 12737.706
435.095, 13735.510
436.436, 14494.757
437.777, 13851.476
439.118, 12719.645
440.458, 11137.676
441.798, 9343.621
443.138, 7831.585
444.478, 6321.470
445.818, 5401.242
447.157, 4484.088
448.496, 3802.591
449.835, 3238.105
451.174, 2835.887
452.513, 2472.829
453.851, 2229.110
455.189, 1983.051
456.527, 1785.696
457.864, 1647.442
459.202, 1513.676
460.539, 1388.787
461.876, 1330.470
463.212, 1225.608
464.549, 1087.439
465.885, 1020.443
467.221, 999.860
468.557, 945.348
469.893, 913.380
471.228, 801.419
472.563, 772.406
473.898, 661.840
475.233, 655.880
476.567, 586.924
477.902, 570.984
479.236, 506.049
480.570, 444.117
481.903, 409.189
483.237, 357.265
484.570, 286.346
485.903, 434.431
487.235, 276.520
488.568, 340.612
489.900, 230.707
491.232, 244.813
492.564, 193.922
493.896, 249.040
495.227, 192.170
496.558, 223.310
497.889, 217.471
499.220, 190.649
500.551, 126.830
501.881, 232.037
503.211, 182.247
504.541, 181.469
505.870, 215.694
507.200, 174.921
508.529, 228.165
509.858, 145.410
511.187, 178.665
512.515, 138.938
513.844, 164.212
515.172, 161.488
516.500, 129.784
517.827, 160.072
519.155, 164.363
520.482, 153.655
521.809, 180.965
523.136, 177.270
524.462, 195.672
525.789, 172.986
527.115, 179.306
528.441, 142.684
529.766, 113.465
531.092, 179.783
532.417, 73.153
533.742, 180.471
535.067, 120.952
536.391, 125.396
537.716, 136.778
539.040, 131.948
540.364, 112.274
541.688, 120.650
543.011, 103.975
544.334, 104.299
545.657, 105.410
546.980, 134.733
548.303, 140.200
549.625, 62.539
550.947, 89.859
552.269, 36.807
553.591, 149.186
554.913, 34.500
556.234, 77.881
557.555, 89.530
558.876, 37.003
560.197, 16.674
561.517, 27.978
562.837, 17.552
564.157, 32.296
565.477, 38.170
566.797, 9.061
568.116, 44.541
569.435, 51.402
570.754, 30.696
572.073, 8.240
573.391, 50.174
574.709, 27.877
576.027, 78.446
577.345, 7.740
578.663, 11.800
579.980, 94.776
581.297, 5.951
582.614, 29.321
583.931, 0.532
585.248, 37.691
586.564, 14.505
587.880, 4.779
589.196, 9.051
590.511, 6.823
591.827, 21.489
593.142, 53.676
594.457, 21.096
595.772, 92.152
597.086, 0.754
598.401, 3.669
599.715, 14.109
601.029, 8.290
602.343, 39.655
603.656, 8.265
604.969, 7.559
606.282, 31.154
607.595, 13.299
608.908, 40.870
610.220, 13.914
611.532, 61.063
612.844, 98.302
614.156, 88.308
615.468, 168.665
616.779, 70.738
618.090, 73.436
619.401, 128.534
620.712, 7.581
622.022, 161.123
623.332, 116.193
624.642, 93.183
625.952, 143.340
627.262, 116.412
628.571, 163.553
629.880, 106.529
631.189, 132.786
632.498, 117.867
633.807, 132.817
635.115, 165.412
636.423, 184.343
637.731, 194.430
639.039, 208.173
640.346, 200.073
641.653, 201.250
642.960, 179.129
644.267, 153.998
645.574, 130.965
646.880, 98.812
648.186, 179.163
649.492, 69.989
650.798, 119.111
652.103, 150.092
653.409, 52.114
654.714, 121.383
656.019, 65.318
657.323, 172.138
658.628, 116.368
659.932, 83.102
661.236, 117.297
662.540, 133.063
663.843, 112.760
665.147, 84.617
666.450, 122.429
667.753, 110.967
669.056, 113.075
670.358, 123.609
671.660, 128.244
672.963, 103.848
674.264, 146.438
675.566, 74.100
676.868, 151.662
678.169, 158.044
679.470, 49.579
680.771, 139.098
682.071, 85.604
683.372, 64.095
684.672, 14.573
685.972, 32.026
687.271, 93.460
688.571, 54.880
689.870, 108.285
691.169, 46.676
692.468, 49.051
693.767, 54.409
695.065, 21.221
696.364, 81.648
697.662, 59.955
698.960, 75.246
700.257, 113.522
701.555, 22.913
702.852, 130.152
704.149, 50.377
705.446, 16.585
706.742, 159.770
708.038, 28.061
709.335, 61.063
710.631, 76.170
711.926, 60.263
713.222, 39.340
714.517, 49.399
715.812, 37.942
717.107, 78.465
718.402, 42.474
719.696, 6.466
720.990, 17.429
722.284, 44.369
723.578, 47.292
724.872, 28.198
726.165, 76.083
727.458, 20.953
728.751, 50.263
730.044, 14.904
731.336, 59.261
732.629, 65.040
733.921, 7.803
735.213, 33.763
736.504, 64.483
737.796, 9.704
739.087, 75.385
740.378, 0.116
741.669, 8.247
742.960, 48.862
744.250, 40.583
745.540, 54.207
746.830, 37.099
748.120, 60.170
749.410, 43.677
750.699, 1.731
751.988, 90.198
753.277, 33.686
754.566, 18.455
755.854, 42.920
757.143, 24.194
758.431, 62.542
759.719, 6.022
761.006, 11.225
762.294, 39.520
763.581, 12.783
764.868, 47.047
766.155, 34.283
767.442, 24.520
768.728, 69.741
770.014, 15.949
771.300, 47.141
772.586, 4.320
773.872, 2.520
775.157, 51.616
776.442, 26.417
777.727, 44.671
779.012, 62.746
780.297, 24.808
781.581, 38.856
782.865, 24.891
784.149, 61.912
785.433, 12.921
786.716, 29.915
787.999, 107.895
789.282, 31.137
790.565, 98.795
791.848, 58.715
793.130, 63.623
794.413, 101.519
795.695, 8.404
796.977, 115.273
798.258, 90.131
799.540, 27.978
800.821, 57.812
802.102, 16.365
803.382, 58.431
804.663, 13.783
805.943, 28.021
807.224, 13.290
808.504, 65.581
809.783, 44.922
811.063, 33.697
812.342, 82.694
813.621, 99.856
814.900, 35.604
816.179, 31.903
817.457, 52.399
818.736, 48.116
820.014, 9.332
821.292, 24.233
822.569, 56.822
823.847, 51.547
825.124, 32.094
826.401, 58.237
827.678, 44.558
828.954, 16.869
830.231, 75.170
831.507, 63.538
832.783, 85.712
834.059, 127.868
835.334, 62.099
836.610, 163.321
837.885, 97.530
839.160, 113.672
840.435, 178.403
841.709, 101.591
842.983, 123.717
844.258, 56.888
845.532, 59.889
846.805, 46.919
848.079, 32.997
849.352, 0.715
850.625, 23.402
851.898, 47.461
853.171, 23.563
854.443, 3.341
855.715, 29.959
856.988, 34.040
858.259, 47.969
859.531, 91.019
860.803, 24.080
862.074, 137.505
863.345, 103.493
864.616, 103.537
865.886, 172.507
867.157, 102.202
868.427, 195.065
869.697, 150.724
870.967, 132.742
872.236, 162.483
873.506, 106.047
874.775, 105.113
876.044, 159.880
877.313, 70.689
878.581, 177.112
879.849, 133.106
881.118, 92.325
882.386, 157.184
883.653, 94.514
884.921, 170.456
886.188, 126.445
887.455, 113.266
888.722, 195.959
889.989, 153.949
891.255, 181.932
892.522, 110.969
893.788, 79.454
895.054, 198.501
896.319, 147.471
897.585, 188.537
898.850, 193.535
900.115, 92.446
901.380, 234.514
902.645, 127.513
903.909, 201.488
905.174, 294.615
906.438, 123.406
907.701, 298.170
908.965, 262.197
910.229, 267.036
911.492, 273.153
912.755, 213.520
914.018, 323.110
915.280, 287.145
916.543, 235.808
917.805, 323.879
919.067, 223.896
920.329, 334.820
921.590, 345.971
922.852, 282.769
924.113, 426.868
925.374, 272.343
926.635, 346.422
927.895, 368.549
929.156, 419.172
930.416, 437.283
931.676, 381.468
932.936, 343.486
934.195, 468.585
935.454, 395.618
936.714, 436.814
937.973, 516.723
939.231, 438.804
940.490, 644.011
941.748, 562.566
943.006, 626.779
944.264, 715.999
945.522, 656.223
946.780, 777.450
948.037, 718.395
949.294, 762.631
950.551, 879.875
951.808, 822.016
953.064, 1035.269
954.320, 967.014
955.577, 1017.277
956.832, 1241.239
958.088, 1224.335
959.344, 1483.385
960.599, 1544.184
961.854, 1872.309
963.109, 2342.544
964.364, 2722.363
965.618, 3554.672
966.872, 4836.515
968.127, 6142.780
969.380, 7748.110
970.634, 8280.272
971.888, 7595.475
973.141, 6799.210
974.394, 5533.935
975.647, 4653.300
976.900, 4018.656
978.152, 3486.038
979.404, 3252.426
980.656, 2911.739
981.908, 2883.144
983.160, 2909.725
984.411, 2882.146
985.663, 3135.577
986.914, 3321.016
988.165, 3478.465
989.415, 4119.921
990.666, 4487.393
991.916, 5424.875
993.166, 6386.366
994.416, 7671.879
995.665, 10147.401
996.915, 12722.935
998.164, 17148.473
999.413, 24232.562
1000.662, 32478.021
1001.911, 42883.605
1003.159, 46679.195
1004.407, 43474.797
1005.655, 36730.301
1006.903, 27145.926
1008.151, 21111.596
1009.398, 15997.269
1010.646, 12102.962
1011.893, 9948.672
1013.139, 7834.406
1014.386, 6580.158
1015.633, 5595.921
1016.879, 4444.696
1018.125, 4146.501
1019.371, 3364.370
1020.616, 2952.203
1021.862, 2748.055
1023.107, 2288.919
1024.352, 2098.799
1025.597, 1881.547
1026.842, 1600.454
1028.086, 1641.388
1029.330, 1276.219
1030.574, 1317.176
1031.818, 1221.342
1033.062, 1007.168
1034.305, 1004.174
1035.548, 940.244
1036.791, 880.972
1038.034, 860.011
1039.277, 717.296
1040.519, 818.353
1041.762, 762.747
1043.004, 657.497
1044.246, 721.597
1045.487, 578.157
1046.729, 582.386
1047.970, 713.672
1049.211, 511.041
1050.452, 640.203
1051.692, 693.567
1052.933, 474.008
1054.173, 653.197
1055.413, 444.569
1056.653, 522.787
1057.893, 492.021
1059.132, 422.427
1060.371, 489.676
1061.610, 395.066
1062.849, 439.474
1064.088, 445.749
1065.326, 418.083
1066.565, 436.374
1067.803, 493.670
1069.041, 328.209
1070.278, 508.521
1071.516, 432.841
1072.753, 413.307
1073.990, 551.639
1075.227, 422.092
1076.464, 525.449
1077.700, 491.811
1078.936, 423.177
1080.173, 664.574
1081.408, 519.981
1082.644, 529.525
1083.880, 611.975
1085.115, 544.642
1086.350, 725.145
1087.585, 608.654
1088.820, 646.323
1090.054, 679.863
1091.288, 504.421
1092.522, 573.485
1093.756, 495.087
1094.990, 348.747
1096.224, 552.365
1097.457, 428.989
1098.690, 335.450
1099.923, 473.084
1101.156, 383.723
1102.388, 503.539
1103.621, 489.204
1104.853, 415.902
1106.085, 672.629
1107.316, 433.325
1108.548, 529.307
1109.779, 635.039
1111.010, 382.788
1112.241, 543.577
1113.472, 385.360
1114.703, 195.146
1115.933, 336.949
1117.163, 293.755
1118.393, 286.566
1119.623, 251.393
1120.853, 173.224
1122.082, 254.064
1123.311, 175.933
1124.540, 237.803
1125.769, 244.685
1126.997, 147.569
1128.226, 194.455
1129.454, 203.345
1130.682, 62.235
1131.910, 217.293
1133.138, 154.203
1134.365, 154.114
1135.592, 263.163
1136.819, 191.076
1138.046, 188.209
1139.273, 262.124
1140.499, 235.040
1141.725, 374.005
1142.951, 288.996
1144.177, 212.983
1145.403, 378.077
1146.628, 208.992
1147.854, 251.493
1149.079, 255.855
1150.304, 117.776
1151.528, 253.497
1152.753, 136.638
1153.977, 127.708
1155.201, 215.516
1156.425, 37.515
1157.649, 161.678
1158.872, 55.442
1160.096, 30.513
1161.319, 100.892
1162.542, 15.295
1163.764, 49.516
1164.987, 108.864
1166.209, 0.040
1167.431, 86.251
1168.653, 78.349
1169.875, 55.346
1171.097, 101.676
1172.318, 25.199
1173.539, 25.650
1174.760, 58.570
1175.981, 59.399
1177.202, 113.624
1178.422, 2.792
1179.642, 56.927
1180.862, 50.191
1182.082, 106.929
1183.302, 17.242
1184.521, 125.644
1185.740, 2.691
1186.959, 52.042
1188.178, 4.940
1189.397, 81.307
1190.615, 79.277
1191.834, 28.957
1193.052, 19.595
1194.269, 13.136
1195.487, 103.334
1196.705, 152.132
1197.922, 3.678
1199.139, 38.877
1200.356, 53.542
1201.573, 11.950
1202.789, 68.345
1204.006, 74.730
1205.222, 18.896
1206.438, 75.456
1207.653, 27.821
1208.869, 27.149
1210.084, 171.463
1211.299, 50.780
1212.514, 78.071
1213.729, 158.491
1214.944, 10.913
1216.158, 187.166
1217.372, 68.581
1218.586, 45.091
1219.800, 176.097
1221.014, 47.270
1222.227, 129.431
1223.440, 148.579
1224.654, 7.339
1225.866, 162.773
1227.079, 120.970
1228.292, 64.012
1229.504, 160.479
1230.716, 45.579
1231.928, 134.550
1233.139, 219.580
1234.351, 74.541
1235.562, 126.582
1236.773, 167.681
1237.984, 27.194
1239.195, 266.176
1240.406, 108.280
1241.616, 123.759
1242.826, 223.712
1244.036, 16.732
1245.246, 177.968
1246.456, 148.890
1247.665, 89.507
1248.874, 202.410
1250.083, 123.304
1251.292, 120.994
1252.501, 240.868
1253.709, 67.880
1254.917, 201.183
1256.125, 194.025
1257.333, 127.857
1258.541, 363.322
1259.748, 211.130
1260.956, 255.616
1262.163, 289.383
1263.370, 199.311
1264.576, 261.102
1265.783, 378.817
1266.989, 182.513
1268.195, 393.242
1269.401, 299.866
1270.607, 254.646
1271.813, 395.228
1273.018, 252.768
1274.223, 180.535
1275.428, 352.020
1276.633, 117.489
1277.838, 269.992
1279.042, 258.397
1280.246, 122.944
1281.450, 284.314
1282.654, 104.667
1283.858, 163.141
1285.061, 254.453
1286.265, 6.251
1287.468, 142.126
1288.671, 143.377
1289.873, 118.613
1291.076, 205.954
1292.278, 60.158
1293.480, 26.345
1294.682, 198.510
1295.884, 48.660
1297.086, 33.790
1298.287, 129.896
1299.488, 48.013
1300.689, 147.029
1301.890, 108.032
1303.091, 20.009
1304.291, 129.958
1305.491, 29.750
1306.691, 73.473
1307.891, 95.175
1309.091, 23.219
1310.290, 121.331
1311.490, 32.804
1312.689, 14.299
1313.888, 141.736
1315.086, 80.142
1316.285, 108.520
1317.483, 188.015
1318.681, 16.670
1319.879, 124.595
1321.077, 115.946
1322.275, 54.153
1323.472, 150.113
1324.669, 87.393
1325.866, 134.489
1327.063, 170.499
1328.260, 108.832
1329.456, 188.840
1330.653, 140.585
1331.849, 26.537
1333.045, 291.134
1334.240, 189.355
1335.436, 109.210
1336.631, 262.587
1337.826, 157.271
1339.021, 179.891
1340.216, 255.402
1341.411, 126.096
1342.605, 224.566
1343.799, 284.869
1344.993, 253.481
1346.187, 324.891
1347.381, 220.451
1348.574, 145.987
1349.767, 305.333
1350.961, 136.820
1352.153, 190.150
1353.346, 263.450
1354.539, 138.869
1355.731, 256.213
1356.923, 107.589
1358.115, 103.945
1359.307, 293.048
1360.498, 98.369
1361.690, 115.634
1362.881, 282.745
1364.072, 23.981
1365.263, 169.091
1366.453, 185.297
1367.644, 13.508
1368.834, 185.693
1370.024, 19.864
1371.214, 77.965
1372.404, 55.085
1373.593, 15.743
1374.783, 77.744
1375.972, 141.488
1377.161, 46.159
1378.349, 123.576
1379.538, 107.909
1380.726, 102.402
1381.915, 209.301
1383.103, 20.109
1384.290, 46.569
1385.478, 151.130
1386.665, 115.639
1387.853, 68.867
1389.040, 218.320
1390.227, 8.222
1391.413, 186.202
1392.600, 152.597
1393.786, 33.962
1394.972, 163.278
1396.158, 100.564
1397.344, 55.821
1398.530, 220.874
1399.715, 141.072
1400.900, 43.078
1402.085, 199.953
1403.270, 38.322
1404.455, 197.183
1405.639, 92.970
1406.824, 118.396
1408.008, 145.294
1409.192, 147.403
1410.375, 0.567
1411.559, 243.374
1412.742, 78.846
1413.925, 134.337
1415.108, 219.539
1416.291, 56.997
1417.474, 200.562
1418.656, 203.542
1419.839, 88.756
1421.021, 329.562
1422.202, 67.161
1423.384, 144.234
1424.566, 266.207
1425.747, 68.270
1426.928, 171.532
1428.109, 199.519
1429.290, 75.798
1430.470, 199.007
1431.651, 223.357
1432.831, 72.709
1434.011, 287.053
1435.191, 135.363
1436.370, 138.714
1437.550, 296.038
1438.729, 149.857
1439.908, 346.878
1441.087, 325.048
1442.266, 152.575
1443.444, 294.380
1444.623, 349.562
1445.801, 67.523
1446.979, 419.840
1448.157, 201.577
1449.334, 291.746
1450.512, 414.390
1451.689, 293.871
1452.866, 372.518
1454.043, 517.556
1455.220, 274.103
1456.396, 468.628
1457.573, 391.489
1458.749, 293.495
1459.925, 558.857
1461.100, 431.916
1462.276, 329.150
1463.451, 515.579
1464.627, 283.684
1465.802, 319.680
1466.977, 421.127
1468.151, 192.899
1469.326, 347.127
1470.500, 311.072
1471.674, 120.345
1472.848, 402.066
1474.022, 309.713
1475.195, 52.517
1476.369, 397.707
1477.542, 52.068
1478.715, 140.193
1479.888, 242.070
1481.061, 2.812
1482.233, 91.428
1483.405, 163.075
1484.577, 32.982
1485.749, 200.266
1486.921, 137.543
1488.093, 58.934
1489.264, 186.348
1490.435, 125.845
1491.606, 69.471
1492.777, 195.259
1493.948, 18.110
1495.118, 170.031
1496.288, 233.060
1497.459, 47.242
1498.628, 208.648
1499.798, 229.367
1500.968, 24.462
1502.137, 184.622
1503.306, 145.671
1504.475, 166.974
1505.644, 267.557
1506.813, 61.455
1507.981, 206.729
1509.149, 224.413
1510.318, 23.150
1511.485, 151.455
1512.653, 151.188
1513.821, 5.115
1514.988, 203.428
1516.155, 62.280
1517.322, 0.000
##END=



