##NAMES=Zoisite
##RRUFFID=R050038
##IDEAL CHEMISTRY=Ca_2_Al_3_(Si_2_O_7_)(SiO_4_)O(OH)
##LOCALITY=Elf Shooting Creek, Clay County, North Carolina, USA
##OWNER=RRUFF
##SOURCE=University of Arizona Mineral Museum
##DESCRIPTION=Tan colored fragments of single crystals
##STATUS=The identification of this mineral has been confirmed by X-ray diffraction and chemical analysis
##URL=rruff.info/R050038
##MEASURED CHEMISTRY=(Ca_.998_Na_.002_)_2_(Al_.982_Fe^3+^_.018_)_3_(Si_.982_Fe^3+^_.018_)_3_O_12_(OH)
##PIN_ID=L00064
##ORIENTATION=Laser parallel to a* (1 0 0). Fiducial mark perpendicular to laser is parallel to b [0 1 0]
108.781, 0.000
110.174, 153.687
111.566, 746.520
112.959, 1010.173
114.351, 1530.664
115.744, 1949.576
117.136, 2323.179
118.527, 2414.164
119.919, 2136.271
121.310, 1513.499
122.701, 1074.084
124.092, 644.868
125.482, 339.063
126.873, 362.206
128.263, 15.729
129.653, 34.607
131.042, 21.427
132.432, 58.132
133.821, 53.763
135.210, 31.459
136.599, 29.881
137.987, 65.201
139.376, 142.753
140.764, 248.736
142.152, 389.251
143.539, 436.495
144.927, 715.855
146.314, 924.772
147.701, 1014.704
149.088, 976.764
150.474, 858.494
151.861, 715.398
153.247, 541.008
154.633, 403.450
156.018, 190.220
157.404, 48.027
158.789, 15.068
160.174, 8.862
161.559, 118.884
162.943, 17.267
164.327, 60.314
165.711, 222.385
167.095, 234.797
168.479, 275.438
169.862, 184.409
171.246, 194.098
172.628, 401.553
174.011, 315.061
175.394, 450.511
176.776, 397.860
178.158, 396.166
179.540, 469.465
180.922, 548.396
182.303, 625.769
183.684, 764.049
185.065, 844.323
186.446, 1050.799
187.826, 1167.505
189.207, 1283.357
190.587, 1393.767
191.967, 1534.260
193.346, 1496.987
194.726, 1397.209
196.105, 1241.992
197.484, 977.343
198.862, 784.829
200.241, 575.162
201.619, 514.626
202.997, 440.179
204.375, 263.652
205.753, 113.789
207.130, 158.144
208.507, 135.301
209.884, 37.407
211.261, 41.457
212.638, 75.443
214.014, 60.354
215.390, 133.157
216.766, 109.463
218.141, 140.054
219.517, 75.245
220.892, 86.259
222.267, 109.091
223.642, 39.720
225.016, 15.156
226.391, 12.397
227.765, 12.449
229.139, 98.671
230.512, 22.943
231.886, 84.364
233.259, 8.067
234.632, 12.656
236.005, 67.305
237.377, 63.105
238.749, 56.580
240.122, 24.636
241.493, 82.359
242.865, 40.282
244.237, 43.384
245.608, 243.391
246.979, 275.079
248.350, 273.450
249.720, 547.794
251.090, 548.529
252.461, 844.974
253.830, 1089.384
255.200, 1507.376
256.570, 1921.359
257.939, 2170.096
259.308, 2437.046
260.677, 2412.375
262.045, 2105.573
263.414, 1667.394
264.782, 1176.121
266.150, 835.759
267.517, 416.308
268.885, 237.769
270.252, 5.142
271.619, 23.397
272.986, 99.524
274.353, 52.127
275.719, 74.051
277.085, 23.556
278.451, 58.264
279.817, 111.391
281.182, 182.740
282.548, 274.380
283.913, 142.280
285.278, 265.859
286.642, 187.339
288.007, 196.938
289.371, 175.010
290.735, 134.331
292.099, 194.484
293.462, 93.359
294.826, 208.978
296.189, 170.067
297.552, 192.852
298.914, 217.995
300.277, 296.287
301.639, 432.907
303.001, 448.419
304.363, 779.045
305.724, 959.670
307.086, 1436.470
308.447, 1778.067
309.808, 2138.739
311.168, 2353.145
312.529, 2241.321
313.889, 2089.278
315.249, 1861.018
316.609, 1568.541
317.969, 1199.590
319.328, 1005.784
320.687, 953.790
322.046, 794.153
323.405, 878.128
324.764, 883.965
326.122, 850.781
327.480, 1039.010
328.838, 1177.575
330.196, 1376.248
331.553, 1568.614
332.910, 1874.675
334.267, 2335.708
335.624, 2618.164
336.981, 3031.548
338.337, 3564.094
339.693, 4446.973
341.049, 5539.396
342.405, 6481.650
343.760, 7884.065
345.116, 8086.688
346.471, 8119.538
347.826, 7252.871
349.180, 5926.446
350.535, 4650.114
351.889, 3613.688
353.243, 2787.131
354.597, 2224.379
355.950, 1590.346
357.304, 1268.065
358.657, 1077.634
360.010, 805.074
361.362, 667.385
362.715, 566.874
364.067, 365.347
365.419, 305.421
366.771, 197.050
368.123, 300.519
369.474, 180.382
370.825, 196.720
372.176, 23.710
373.527, 9.271
374.877, 45.167
376.228, 71.292
377.578, 37.809
378.928, 75.234
380.277, 124.047
381.627, 176.574
382.976, 72.124
384.325, 142.566
385.674, 75.773
387.023, 79.343
388.371, 43.876
389.719, 39.582
391.067, 40.681
392.415, 95.015
393.762, 111.082
395.110, 137.275
396.457, 163.230
397.804, 132.894
399.150, 4.511
400.497, 110.966
401.843, 76.206
403.189, 41.305
404.535, 92.891
405.881, 225.623
407.226, 219.194
408.571, 366.763
409.916, 370.328
411.261, 578.634
412.605, 578.132
413.950, 709.570
415.294, 894.196
416.638, 1006.244
417.981, 1259.226
419.325, 1429.156
420.668, 1388.056
422.011, 1356.909
423.354, 1216.725
424.697, 1189.514
426.039, 1017.287
427.381, 999.044
428.723, 1060.423
430.065, 932.031
431.406, 993.712
432.748, 986.492
434.089, 967.269
435.430, 963.599
436.770, 923.795
438.111, 837.499
439.451, 790.707
440.791, 685.564
442.131, 654.495
443.471, 580.952
444.810, 538.024
446.149, 376.918
447.488, 368.732
448.827, 417.791
450.166, 401.835
451.504, 481.601
452.842, 401.937
454.180, 515.688
455.518, 658.425
456.855, 617.145
458.193, 596.466
459.530, 552.953
460.867, 425.627
462.203, 609.692
463.540, 597.266
464.876, 818.840
466.212, 1073.733
467.548, 1377.088
468.883, 1870.377
470.219, 2283.597
471.554, 3328.750
472.889, 3933.836
474.224, 3708.857
475.558, 3873.814
476.892, 3968.707
478.227, 4073.537
479.561, 4338.307
480.894, 4473.020
482.228, 5097.679
483.561, 6121.886
484.894, 7386.426
486.227, 9160.975
487.559, 11075.358
488.892, 12659.838
490.224, 13674.286
491.556, 13828.701
492.888, 12603.111
494.220, 11037.512
495.551, 9021.919
496.882, 7316.325
498.213, 5640.723
499.544, 4545.135
500.874, 3679.540
502.205, 2843.946
503.535, 2428.365
504.865, 2012.768
506.194, 1707.157
507.524, 1403.524
508.853, 1350.867
510.182, 1199.185
511.511, 1046.466
512.840, 1141.729
514.168, 1053.954
515.496, 1107.143
516.824, 1062.297
518.152, 1213.417
519.480, 1384.504
520.807, 1476.512
522.134, 1704.925
523.461, 1899.900
524.788, 2212.022
526.114, 2163.881
527.441, 2155.280
528.767, 2127.109
530.093, 1858.443
531.418, 1719.851
532.744, 1352.051
534.069, 1145.598
535.394, 971.056
536.719, 943.938
538.044, 779.991
539.368, 800.754
540.693, 716.513
542.017, 897.034
543.340, 688.180
544.664, 662.972
545.987, 790.021
547.311, 705.931
548.634, 854.166
549.956, 839.775
551.279, 919.586
552.601, 1013.942
553.923, 1190.419
555.245, 1352.359
556.567, 1503.172
557.889, 1694.980
559.210, 1967.529
560.531, 2489.261
561.852, 2959.060
563.173, 3590.839
564.493, 4485.289
565.813, 5737.858
567.133, 7480.525
568.453, 7516.304
569.773, 7629.604
571.092, 7905.977
572.412, 7244.686
573.731, 6428.848
575.049, 5369.701
576.368, 4353.690
577.686, 3454.104
579.005, 2804.331
580.323, 2109.428
581.640, 1704.925
582.958, 1500.693
584.275, 1318.703
585.593, 1038.068
586.909, 1061.657
588.226, 1115.932
589.543, 1130.222
590.859, 1364.497
592.175, 1668.543
593.491, 2012.850
594.807, 2196.778
596.122, 2220.739
597.438, 1994.734
598.753, 1648.756
600.068, 1332.785
601.382, 846.819
602.697, 721.857
604.011, 633.896
605.325, 508.510
606.639, 468.105
607.952, 360.929
609.266, 377.343
610.579, 374.768
611.892, 425.593
613.205, 504.668
614.518, 519.754
615.830, 696.847
617.142, 1121.946
618.454, 1129.054
619.766, 1742.123
621.078, 1996.240
622.389, 2340.361
623.700, 2584.482
625.011, 2518.603
626.322, 2472.717
627.632, 2096.826
628.943, 1730.932
630.253, 1395.031
631.563, 969.127
632.872, 807.219
634.182, 534.307
635.491, 531.392
636.800, 430.473
638.109, 328.550
639.418, 249.626
640.726, 205.698
642.035, 278.771
643.343, 244.002
644.651, 237.069
645.958, 416.352
647.266, 350.444
648.573, 477.597
649.880, 670.290
651.187, 603.070
652.494, 830.032
653.800, 713.462
655.106, 867.932
656.412, 759.090
657.718, 807.149
659.024, 805.890
660.329, 906.258
661.634, 857.807
662.939, 991.168
664.244, 1080.238
665.549, 1246.600
666.853, 1543.252
668.157, 1797.617
669.461, 2285.554
670.765, 2909.713
672.069, 3653.854
673.372, 4287.826
674.675, 5051.793
675.978, 5525.752
677.281, 5609.708
678.583, 5313.657
679.886, 4737.605
681.188, 4131.552
682.490, 3495.499
683.792, 2849.453
685.093, 2353.412
686.394, 1917.375
687.696, 1641.344
688.997, 1335.317
690.297, 1299.304
691.598, 1163.303
692.898, 977.327
694.198, 849.381
695.498, 799.457
696.798, 633.564
698.097, 600.713
699.397, 393.920
700.696, 325.157
701.995, 398.441
703.293, 238.756
704.592, 219.100
705.890, 179.466
707.188, 183.849
708.486, 125.241
709.784, 161.640
711.081, 59.043
712.378, 144.448
713.675, 104.857
714.972, 22.730
716.269, 186.675
717.565, 25.917
718.862, 64.496
720.158, 42.088
721.453, 70.307
722.749, 46.700
724.045, 42.905
725.340, 52.459
726.635, 36.179
727.930, 76.845
729.224, 84.439
730.519, 110.283
731.813, 156.928
733.107, 102.866
734.401, 99.723
735.694, 8.642
736.988, 16.578
738.281, 21.535
739.574, 61.517
740.867, 67.543
742.160, 1.388
743.452, 16.303
744.744, 10.210
746.036, 13.107
747.328, 70.996
748.620, 10.877
749.911, 150.749
751.202, 148.616
752.493, 116.478
753.784, 162.334
755.075, 207.185
756.365, 254.031
757.655, 297.871
758.945, 304.705
760.235, 400.519
761.525, 533.360
762.814, 567.181
764.103, 644.999
765.392, 708.812
766.681, 787.439
767.969, 936.422
769.258, 970.220
770.546, 1044.011
771.834, 1147.797
773.122, 1061.577
774.409, 1235.352
775.697, 1309.121
776.984, 1212.885
778.271, 1166.643
779.558, 1110.395
780.844, 1144.141
782.131, 1047.881
783.417, 931.615
784.703, 805.345
785.989, 679.068
787.274, 512.785
788.560, 473.499
789.845, 448.206
791.130, 244.907
792.415, 221.604
793.699, 97.295
794.983, 241.980
796.268, 139.661
797.552, 1.337
798.835, 95.994
800.119, 0.646
801.402, 4.278
802.686, 15.104
803.969, 123.513
805.251, 77.004
806.534, 143.552
807.816, 103.191
809.098, 87.900
810.380, 162.674
811.662, 81.549
812.944, 108.482
814.225, 150.489
815.506, 39.591
816.787, 53.729
818.068, 31.913
819.349, 20.131
820.629, 25.375
821.909, 19.350
823.189, 47.936
824.469, 30.740
825.749, 32.408
827.028, 126.071
828.307, 104.729
829.586, 172.384
830.865, 152.033
832.144, 222.688
833.422, 317.337
834.700, 279.984
835.978, 262.627
837.256, 235.267
838.534, 273.223
839.811, 350.534
841.088, 403.162
842.365, 505.788
843.642, 549.959
844.919, 581.045
846.195, 623.678
847.472, 636.308
848.748, 706.202
850.023, 831.595
851.299, 824.243
852.575, 936.888
853.850, 969.554
855.125, 1232.216
856.400, 1334.873
857.674, 1667.542
858.949, 1830.205
860.223, 2032.865
861.497, 2425.521
862.771, 2758.180
864.045, 3410.835
865.318, 3953.240
866.591, 5025.912
867.864, 5798.523
869.137, 6879.670
870.410, 7422.379
871.682, 8033.318
872.955, 7735.783
874.227, 7265.811
875.499, 6248.297
876.770, 5300.686
878.042, 4650.588
879.313, 3992.998
880.584, 3523.217
881.855, 3141.104
883.126, 3133.646
884.396, 3039.482
885.667, 2942.170
886.937, 3078.418
888.207, 2984.838
889.476, 3126.375
890.746, 3127.497
892.015, 3048.332
893.284, 3206.914
894.553, 3275.126
895.822, 3227.102
897.090, 3449.383
898.359, 3541.657
899.627, 3583.947
900.895, 3616.483
902.163, 3818.773
903.430, 4011.483
904.698, 3994.196
905.965, 4396.910
907.232, 4549.628
908.499, 4822.346
909.765, 5385.062
911.032, 6027.785
912.298, 6620.508
913.564, 7553.234
914.830, 8405.964
916.095, 9738.692
917.361, 11501.428
918.626, 13194.165
919.891, 15386.905
921.156, 17029.650
922.420, 19612.400
923.685, 21155.160
924.949, 22837.920
926.213, 23880.684
927.477, 23133.449
928.740, 21236.217
930.004, 19018.988
931.267, 15831.759
932.530, 13674.540
933.793, 10897.319
935.056, 9010.101
936.318, 7892.885
937.581, 6225.673
938.843, 5458.465
940.104, 4651.260
941.366, 3894.057
942.628, 3706.875
943.889, 2999.693
945.150, 3132.517
946.411, 2535.342
947.672, 2448.172
948.932, 2191.007
950.193, 2072.684
951.453, 1965.523
952.713, 1867.149
953.973, 1718.969
955.232, 1789.729
956.491, 1623.950
957.751, 1711.085
959.010, 1614.042
960.268, 1599.535
961.527, 1535.990
962.785, 1387.757
964.044, 1334.626
965.302, 1499.814
966.559, 1552.379
967.817, 1451.768
969.075, 1750.346
970.332, 1650.221
971.589, 1870.805
972.846, 1971.106
974.102, 2193.697
975.359, 2432.721
976.615, 2885.527
977.871, 3228.355
979.127, 3641.358
980.383, 3964.373
981.638, 4337.396
982.893, 4562.025
984.149, 4365.078
985.404, 4218.140
986.658, 3731.227
987.913, 3224.323
989.167, 2727.431
990.421, 2400.551
991.675, 2033.683
992.929, 1726.852
994.183, 1510.034
995.436, 1276.977
996.689, 1060.184
997.942, 883.504
999.195, 810.880
1000.448, 754.126
1001.700, 729.795
1002.952, 503.061
1004.204, 591.850
1005.456, 425.191
1006.708, 408.537
1007.959, 415.006
1009.210, 348.368
1010.461, 211.860
1011.712, 255.392
1012.963, 230.055
1014.213, 323.514
1015.464, 22.987
1016.714, 166.474
1017.964, 154.134
1019.214, 74.067
1020.463, 167.599
1021.712, 41.401
1022.962, 325.514
1024.210, 209.110
1025.459, 73.045
1026.708, 296.770
1027.956, 110.576
1029.204, 234.253
1030.452, 307.937
1031.700, 171.886
1032.948, 285.688
1034.195, 289.999
1035.442, 213.782
1036.689, 267.573
1037.936, 301.714
1039.183, 455.576
1040.429, 489.453
1041.676, 573.007
1042.922, 757.515
1044.168, 701.462
1045.413, 725.435
1046.659, 759.786
1047.904, 567.327
1049.149, 771.326
1050.394, 765.506
1051.639, 549.599
1052.884, 633.689
1054.128, 388.152
1055.372, 502.185
1056.616, 396.223
1057.860, 360.267
1059.104, 564.314
1060.347, 468.389
1061.590, 512.711
1062.833, 657.070
1064.076, 711.425
1065.319, 865.776
1066.561, 1009.914
1067.803, 1044.425
1069.046, 1218.514
1070.287, 1162.975
1071.529, 1159.408
1072.771, 1213.508
1074.012, 987.955
1075.253, 972.230
1076.494, 1046.339
1077.735, 950.777
1078.975, 934.900
1080.216, 969.026
1081.456, 1003.693
1082.696, 1137.825
1083.936, 1182.035
1085.175, 1546.182
1086.415, 1860.329
1087.654, 2035.005
1088.893, 2369.240
1090.132, 2493.396
1091.371, 2610.826
1092.609, 2905.486
1093.847, 2609.646
1095.085, 2554.147
1096.323, 2278.393
1097.561, 1693.059
1098.799, 1717.223
1100.036, 1391.460
1101.273, 1265.815
1102.510, 1169.994
1103.747, 834.352
1104.983, 908.674
1106.220, 692.907
1107.456, 597.740
1108.692, 572.195
1109.928, 436.533
1111.163, 450.899
1112.399, 355.363
1113.634, 289.804
1114.869, 354.279
1116.104, 389.250
1117.339, 284.063
1118.573, 228.723
1119.808, 63.288
1121.042, 178.777
1122.276, 193.365
1123.509, 98.040
1124.743, 33.147
1125.976, 147.748
1127.210, 82.547
1128.443, 157.702
1129.675, 131.136
1130.908, 51.001
1132.141, 53.670
1133.373, 108.237
1134.605, 36.352
1135.837, 110.957
1137.068, 15.804
1138.300, 21.142
1139.531, 26.054
1140.762, 77.447
1141.993, 92.735
1143.224, 82.106
1144.455, 123.256
1145.685, 2.264
1146.915, 87.071
1148.145, 29.195
1149.375, 56.164
1150.605, 128.751
1151.834, 106.044
1153.063, 8.582
1154.292, 184.489
1155.521, 61.033
1156.750, 83.239
1157.978, 26.521
1159.207, 21.063
1160.435, 22.621
1161.663, 54.869
1162.891, 98.890
1164.118, 156.196
1165.345, 68.326
1166.573, 103.828
1167.800, 101.978
1169.026, 7.370
1170.253, 2.534
1171.480, 81.896
1172.706, 10.058
1173.932, 65.387
1175.158, 49.354
1176.383, 153.685
1177.609, 117.999
1178.834, 32.050
1180.059, 76.886
1181.284, 1.114
1182.509, 115.323
1183.734, 249.670
1184.958, 24.178
1186.182, 237.950
1187.406, 142.256
1188.630, 96.345
1189.854, 50.170
1191.077, 157.496
1192.301, 191.186
1193.524, 25.129
1194.747, 40.862
1195.969, 212.737
1197.192, 76.517
1198.414, 100.320
1199.636, 103.864
1200.858, 17.676
1202.080, 131.177
1203.302, 215.119
1204.523, 138.795
1205.744, 142.238
1206.966, 127.943
1208.186, 71.441
1209.407, 64.824
1210.628, 68.368
1211.848, 71.706
1213.068, 125.088
1214.288, 38.383
1215.508, 361.653
1216.727, 55.036
1217.947, 11.601
1219.166, 241.598
1220.385, 65.158
1221.604, 108.312
1222.822, 221.442
1224.041, 76.443
1225.259, 419.723
1226.477, 473.109
1227.695, 36.478
1228.913, 179.574
1230.130, 143.581
1231.348, 208.005
1232.565, 200.950
1233.782, 44.547
1234.999, 147.669
1236.215, 210.532
1237.432, 26.435
1238.648, 236.367
1239.864, 229.151
1241.080, 91.919
1242.296, 154.669
1243.511, 57.481
1244.726, 250.360
1245.942, 163.058
1247.156, 135.988
1248.371, 408.650
1249.586, 141.294
1250.800, 154.176
1252.014, 326.779
1253.228, 59.374
1254.442, 152.860
1255.656, 305.400
1256.869, 217.910
1258.083, 180.401
1259.296, 222.854
1260.509, 255.769
1261.722, 88.139
1262.934, 130.659
1264.147, 173.033
1265.359, 255.311
1266.571, 47.562
1267.783, 210.375
1268.994, 182.509
1270.206, 84.570
1271.417, 326.592
1272.628, 158.560
1273.839, 81.262
1275.050, 443.151
1276.260, 14.974
1277.471, 186.100
1278.681, 277.825
1279.891, 9.609
1281.101, 202.038
1282.310, 143.655
1283.520, 65.738
1284.729, 127.604
1285.938, 60.878
1287.147, 70.562
1288.356, 81.967
1289.564, 59.592
1290.773, 221.125
1291.981, 72.334
1293.189, 19.466
1294.397, 160.996
1295.604, 89.780
1296.812, 60.947
1298.019, 136.571
1299.226, 142.377
1300.433, 168.650
1301.640, 206.532
1302.846, 102.515
1304.053, 138.613
1305.259, 9.350
1306.465, 11.064
1307.671, 9.794
1308.876, 44.496
1310.082, 25.164
1311.287, 101.635
1312.492, 5.811
1313.697, 16.617
1314.902, 63.118
1316.106, 86.815
1317.310, 32.756
1318.515, 17.313
1319.719, 187.565
1320.922, 97.707
1322.126, 97.965
1323.329, 158.188
1324.533, 38.127
1325.736, 108.211
1326.939, 107.796
1328.141, 77.872
1329.344, 57.904
1330.546, 217.582
1331.748, 77.542
1332.950, 117.460
1334.152, 178.046
1335.354, 22.327
1336.555, 227.483
1337.757, 137.260
1338.958, 116.639
1340.159, 202.807
1341.359, 152.491
1342.560, 141.969
1343.760, 221.510
1344.960, 131.028
1346.160, 380.149
1347.360, 89.674
1348.560, 149.167
1349.759, 368.631
1350.959, 1.934
1352.158, 177.451
1353.357, 426.567
1354.555, 155.619
1355.754, 294.655
1356.952, 183.672
1358.151, 222.862
1359.349, 261.657
1360.546, 174.420
1361.744, 173.224
1362.941, 390.036
1364.139, 109.162
1365.336, 277.922
1366.533, 376.938
1367.730, 6.002
1368.926, 154.721
1370.123, 124.473
1371.319, 123.240
1372.515, 181.423
1373.711, 40.077
1374.906, 18.579
1376.102, 216.961
1377.297, 65.239
1378.492, 142.878
1379.687, 210.879
1380.882, 147.896
1382.077, 318.644
1383.271, 448.915
1384.465, 419.059
1385.659, 269.413
1386.853, 179.802
1388.047, 160.194
1389.240, 279.900
1390.434, 140.325
1391.627, 320.653
1392.820, 370.491
1394.013, 140.349
1395.205, 289.562
1396.398, 199.644
1397.590, 49.207
1398.782, 318.420
1399.974, 275.994
1401.166, 215.860
1402.357, 261.523
1403.549, 90.079
1404.740, 371.114
1405.931, 149.077
1407.122, 177.639
1408.313, 274.049
1409.503, 192.683
1410.693, 70.815
1411.883, 295.168
1413.073, 222.762
1414.263, 178.846
1415.453, 280.906
1416.642, 26.911
1417.831, 183.008
1419.020, 221.725
1420.209, 4.131
1421.398, 260.922
1422.587, 8.475
1423.775, 185.525
1424.963, 303.056
1426.151, 39.803
1427.339, 67.531
1428.526, 285.347
1429.714, 138.213
1430.901, 235.569
1432.088, 153.596
1433.275, 91.506
1434.462, 189.294
1435.648, 136.398
1436.835, 60.742
1438.021, 288.646
1439.207, 256.355
1440.393, 314.225
1441.579, 261.938
1442.764, 139.590
1443.949, 236.738
1445.135, 211.028
1446.320, 47.759
1447.504, 324.621
1448.689, 117.416
1449.873, 93.559
1451.058, 330.524
1452.242, 147.515
1453.426, 194.796
1454.609, 321.797
1455.793, 58.491
1456.976, 334.859
1458.159, 251.074
1459.342, 187.714
1460.525, 312.112
1461.708, 438.528
1462.890, 133.726
1464.073, 229.697
1465.255, 185.887
1466.437, 210.629
1467.619, 447.196
1468.800, 93.928
1469.982, 388.616
1471.163, 332.953
1472.344, 127.447
1473.525, 404.367
1474.706, 248.795
1475.886, 4.356
1477.066, 392.510
1478.247, 118.688
1479.427, 214.455
1480.607, 401.198
1481.786, 187.869
1482.966, 294.479
1484.145, 259.902
1485.324, 126.492
1486.503, 302.764
1487.682, 219.461
1488.860, 95.065
1490.039, 421.703
1491.217, 208.384
1492.395, 105.144
1493.573, 311.971
1494.751, 148.901
1495.928, 195.681
1497.106, 202.894
1498.283, 120.247
1499.460, 382.996
1500.637, 150.300
1501.814, 42.318
1502.990, 415.175
1504.166, 232.817
1505.342, 180.623
1506.518, 308.621
1507.694, 76.791
1508.870, 305.159
1510.045, 193.725
1511.221, 23.071
1512.396, 266.025
1513.571, 207.595
1514.745, 74.461
1515.920, 98.691
1517.094, 67.316
1518.269, 14.790
1519.443, 100.057
1520.616, 0.000
##END=



