##NAMES=Zoisite
##RRUFFID=R050038
##IDEAL CHEMISTRY=Ca_2_Al_3_(Si_2_O_7_)(SiO_4_)O(OH)
##LOCALITY=Elf Shooting Creek, Clay County, North Carolina, USA
##OWNER=RRUFF
##SOURCE=University of Arizona Mineral Museum
##DESCRIPTION=Tan colored fragments of single crystals
##STATUS=The identification of this mineral has been confirmed by X-ray diffraction and chemical analysis
##URL=rruff.info/R050038
##MEASURED CHEMISTRY=(Ca_.998_Na_.002_)_2_(Al_.982_Fe^3+^_.018_)_3_(Si_.982_Fe^3+^_.018_)_3_O_12_(OH)
##PIN_ID=L00064
##ORIENTATION=Laser parallel to a* (1 0 0). Fiducial mark perpendicular to laser is parallel to b [0 1 0]
108.781, 0.000
110.174, 61.242
111.566, 576.094
112.959, 1365.965
114.351, 2463.850
115.744, 3964.717
117.136, 6059.594
118.527, 8340.969
119.919, 9875.676
121.310, 9820.746
122.701, 9239.341
124.092, 7191.227
125.482, 5542.282
126.873, 3601.856
128.263, 2278.227
129.653, 1380.535
131.042, 678.681
132.432, 202.381
133.821, 152.661
135.210, 86.991
136.599, 111.064
137.987, 237.548
139.376, 849.781
140.764, 1269.574
142.152, 2103.179
143.539, 3331.479
144.927, 4743.844
146.314, 6410.086
147.701, 7769.501
149.088, 8313.540
150.474, 7325.133
151.861, 6273.259
153.247, 4446.834
154.633, 3326.013
156.018, 2231.274
157.404, 1453.621
158.789, 816.281
160.174, 571.347
161.559, 396.435
162.943, 337.859
164.327, 257.941
165.711, 370.148
167.095, 375.057
168.479, 534.175
169.862, 627.689
171.246, 941.828
172.628, 1043.606
174.011, 1460.925
175.394, 1772.350
176.776, 2006.629
178.158, 2376.008
179.540, 2866.628
180.922, 3140.951
182.303, 3669.247
183.684, 4305.522
185.065, 4942.619
186.446, 5683.142
187.826, 6613.176
189.207, 6867.595
190.587, 7763.024
191.967, 7730.488
193.346, 7485.571
194.726, 6737.037
196.105, 5941.357
197.484, 5032.951
198.862, 4163.071
200.241, 3545.668
201.619, 3028.843
202.997, 2551.149
204.375, 1957.312
205.753, 1470.530
207.130, 1163.850
208.507, 667.338
209.884, 510.954
211.261, 264.668
212.638, 152.452
214.014, 32.283
215.390, 39.139
216.766, 45.014
218.141, 37.734
219.517, 87.288
220.892, 95.610
222.267, 115.703
223.642, 111.111
225.016, 98.225
226.391, 61.679
227.765, 30.938
229.139, 34.080
230.512, 77.145
231.886, 152.424
233.259, 195.228
234.632, 242.804
236.005, 209.654
237.377, 145.262
238.749, 274.591
240.122, 139.470
241.493, 168.100
242.865, 93.282
244.237, 83.826
245.608, 94.393
246.979, 24.373
248.350, 20.891
249.720, 136.749
251.090, 216.682
252.461, 463.327
253.830, 642.450
255.200, 761.172
256.570, 1114.710
257.939, 1387.650
259.308, 1660.100
260.677, 1722.111
262.045, 1623.789
263.414, 1265.247
264.782, 986.556
266.150, 687.757
267.517, 355.895
268.885, 175.965
270.252, 45.070
271.619, 106.265
272.986, 80.737
274.353, 35.439
275.719, 33.283
277.085, 247.692
278.451, 467.460
279.817, 542.493
281.182, 804.546
282.548, 1029.643
283.913, 1021.885
285.278, 1203.340
286.642, 1273.263
288.007, 1181.530
289.371, 1079.111
290.735, 1076.090
292.099, 1082.469
293.462, 1008.264
294.826, 1057.487
296.189, 1158.161
297.552, 1330.676
298.914, 1721.342
300.277, 2135.231
301.639, 2886.464
303.001, 3835.564
304.363, 5096.066
305.724, 6955.891
307.086, 8885.103
308.447, 11283.765
309.808, 13341.907
311.168, 14749.549
312.529, 14856.740
313.889, 13823.521
315.249, 12149.885
316.609, 10315.848
317.969, 8431.423
319.328, 6896.611
320.687, 5591.463
322.046, 4675.932
323.405, 4018.078
324.764, 3428.496
326.122, 3116.725
327.480, 2923.124
328.838, 2717.694
330.196, 2612.525
331.553, 2576.619
332.910, 2492.865
334.267, 2507.685
335.624, 2499.939
336.981, 2613.622
338.337, 2737.859
339.693, 2912.412
341.049, 3407.169
342.405, 3671.974
343.760, 4056.413
345.116, 4010.608
346.471, 3874.623
347.826, 3418.512
349.180, 2792.309
350.535, 2336.002
351.889, 1769.551
353.243, 1506.894
354.597, 1318.888
355.950, 1015.566
357.304, 1014.027
358.657, 828.328
360.010, 731.496
361.362, 697.542
362.715, 762.470
364.067, 706.271
365.419, 673.941
366.771, 642.486
368.123, 676.297
369.474, 640.016
370.825, 685.395
372.176, 657.640
373.527, 710.551
374.877, 795.196
376.228, 844.605
377.578, 756.677
378.928, 672.227
380.277, 730.854
381.627, 688.582
382.976, 601.478
384.325, 516.738
385.674, 512.630
387.023, 479.007
388.371, 558.069
389.719, 532.507
391.067, 686.721
392.415, 826.148
393.762, 879.001
395.110, 1039.258
396.457, 1051.946
397.804, 1151.756
399.150, 1336.750
400.497, 1420.888
401.843, 1787.012
403.189, 2091.721
404.535, 2524.738
405.881, 3012.564
407.226, 3521.103
408.571, 4319.100
409.916, 4721.613
411.261, 5184.473
412.605, 5272.623
413.950, 5481.945
415.294, 5583.771
416.638, 5947.128
417.981, 6361.119
419.325, 6476.604
420.668, 6373.246
422.011, 6341.047
423.354, 6079.131
424.697, 5806.827
426.039, 5633.049
427.381, 5578.131
428.723, 5741.990
430.065, 5763.503
431.406, 6183.336
432.748, 6137.707
434.089, 6248.448
435.430, 6181.012
436.770, 6046.327
438.111, 5704.180
439.451, 5334.584
440.791, 4906.666
442.131, 4479.224
443.471, 4182.778
444.810, 3757.120
446.149, 3341.283
447.488, 3186.055
448.827, 2950.996
450.166, 2975.428
451.504, 3009.320
452.842, 3043.430
454.180, 3427.945
455.518, 3492.049
456.855, 3237.162
458.193, 2841.994
459.530, 2326.889
460.867, 1845.077
462.203, 1521.426
463.540, 1449.121
464.876, 1556.953
466.212, 1744.017
467.548, 1967.801
468.883, 2419.098
470.219, 2756.709
471.554, 3283.746
472.889, 3984.189
474.224, 4500.207
475.558, 5111.202
476.892, 5613.229
478.227, 6053.658
479.561, 7000.175
480.894, 7953.674
482.228, 9423.823
483.561, 11755.030
484.894, 14106.905
486.227, 17902.432
487.559, 21988.521
488.892, 25303.664
490.224, 27708.502
491.556, 27893.156
492.888, 25767.566
494.220, 22641.955
495.551, 18496.301
496.882, 14830.733
498.213, 11595.028
499.544, 9219.305
500.874, 7283.545
502.205, 5887.752
503.535, 4881.955
504.865, 4086.123
506.194, 3590.256
507.524, 3104.356
508.853, 2738.423
510.182, 2532.457
511.511, 2326.456
512.840, 2310.422
514.168, 2274.314
515.496, 2377.424
516.824, 2439.266
518.152, 2731.107
519.480, 3022.176
520.807, 3382.844
522.134, 3913.379
523.461, 4504.188
524.788, 4904.768
526.114, 5345.223
527.441, 5465.551
528.767, 5526.033
530.093, 5096.380
531.418, 4646.942
532.744, 4187.432
534.069, 3628.189
535.394, 3119.377
536.719, 2660.858
538.044, 2245.349
539.368, 1863.105
540.693, 1594.517
542.017, 1365.869
543.340, 1236.959
544.664, 937.790
545.987, 938.694
547.311, 769.549
548.634, 710.827
549.956, 572.101
551.279, 524.131
552.601, 506.887
553.923, 530.027
555.245, 554.037
556.567, 608.320
557.889, 582.993
559.210, 627.775
560.531, 842.650
561.852, 847.647
563.173, 972.734
564.493, 1077.916
565.813, 1103.174
567.133, 1388.505
568.453, 1323.909
569.773, 1389.370
571.092, 1394.885
572.412, 1280.430
573.731, 1155.998
575.049, 1071.580
576.368, 847.169
577.686, 832.761
579.005, 788.352
580.323, 793.934
581.640, 629.760
582.958, 685.593
584.275, 921.478
585.593, 887.337
586.909, 1213.469
588.226, 1389.291
589.543, 1815.999
590.859, 2491.901
592.175, 3299.654
593.491, 4390.035
594.807, 5026.811
596.122, 5194.704
597.438, 4715.789
598.753, 3844.961
600.068, 2804.960
601.382, 1932.775
602.697, 1370.446
604.011, 998.431
605.325, 584.764
606.639, 385.743
607.952, 262.561
609.266, 222.590
610.579, 139.200
611.892, 18.472
613.205, 16.432
614.518, 41.505
615.830, 13.008
617.142, 75.584
618.454, 58.099
619.766, 93.010
621.078, 45.036
622.389, 51.880
623.700, 27.381
625.011, 56.954
626.322, 40.604
627.632, 55.028
628.943, 39.003
630.253, 127.809
631.563, 237.040
632.872, 139.497
634.182, 159.335
635.491, 128.044
636.800, 31.625
638.109, 187.203
639.418, 120.996
640.726, 142.849
642.035, 156.599
643.343, 2.819
644.651, 20.959
645.958, 70.848
647.266, 135.794
648.573, 172.716
649.880, 273.512
651.187, 228.562
652.494, 302.956
653.800, 215.416
655.106, 370.243
656.412, 367.509
657.718, 372.209
659.024, 338.140
660.329, 340.812
661.634, 365.515
662.939, 350.174
664.244, 385.267
665.549, 369.981
666.853, 364.608
668.157, 489.225
669.461, 623.830
670.765, 758.652
672.069, 1023.237
673.372, 1127.815
674.675, 1432.392
675.978, 1506.966
677.281, 1461.542
678.583, 1456.120
679.886, 1380.702
681.188, 1125.285
682.490, 1009.872
683.792, 824.463
685.093, 869.057
686.394, 673.654
687.696, 778.254
688.997, 692.857
690.297, 917.464
691.598, 1032.070
692.898, 986.677
694.198, 1161.283
695.498, 1095.889
696.798, 820.492
698.097, 965.097
699.397, 699.698
700.696, 674.300
701.995, 568.902
703.293, 393.506
704.592, 428.108
705.890, 282.710
707.188, 387.311
708.486, 331.905
709.784, 416.493
711.081, 291.071
712.378, 385.636
713.675, 430.188
714.972, 404.723
716.269, 589.240
717.565, 563.740
718.862, 678.224
720.158, 682.688
721.453, 857.134
722.749, 751.561
724.045, 835.970
725.340, 740.357
726.635, 804.725
727.930, 669.072
729.224, 563.398
730.519, 457.705
731.813, 389.649
733.107, 336.254
734.401, 270.498
735.694, 224.720
736.988, 138.921
738.281, 133.099
739.574, 117.253
740.867, 121.384
742.160, 55.490
743.452, 129.569
744.744, 33.626
746.036, 117.648
747.328, 11.647
748.620, 34.396
749.911, 39.495
751.202, 13.354
752.493, 42.828
753.784, 9.082
755.075, 22.970
756.365, 18.242
757.655, 21.833
758.945, 15.382
760.235, 68.889
761.525, 37.634
762.814, 45.775
764.103, 20.849
765.392, 47.533
766.681, 75.375
767.969, 17.756
769.258, 120.084
770.546, 28.534
771.834, 53.391
773.122, 65.844
774.409, 86.579
775.697, 119.060
776.984, 10.112
778.271, 50.903
779.558, 52.333
780.844, 52.873
782.131, 173.878
783.417, 64.405
784.703, 14.605
785.989, 82.851
787.274, 65.375
788.560, 28.714
789.845, 116.796
791.130, 6.199
792.415, 25.393
793.699, 61.684
794.983, 75.255
796.268, 31.043
797.552, 193.925
798.835, 22.675
800.119, 52.066
801.402, 0.594
802.686, 18.877
803.969, 87.042
805.251, 24.970
806.534, 33.064
807.816, 61.116
809.098, 60.680
810.380, 27.444
811.662, 114.391
812.944, 3.789
814.225, 121.998
815.506, 69.708
816.787, 111.398
818.068, 13.073
819.349, 54.727
820.629, 116.365
821.909, 87.988
823.189, 129.596
824.469, 21.188
825.749, 202.765
827.028, 214.325
828.307, 85.872
829.586, 157.403
830.865, 248.921
832.144, 270.425
833.422, 231.914
834.700, 363.389
835.978, 334.850
837.256, 216.296
838.534, 437.728
839.811, 459.146
841.088, 380.550
842.365, 501.940
843.642, 513.315
844.919, 494.681
846.195, 596.031
847.472, 507.369
848.748, 598.706
850.023, 750.032
851.299, 741.343
852.575, 742.641
853.850, 853.927
855.125, 1025.225
856.400, 1146.512
857.674, 1417.789
858.949, 1559.055
860.223, 1720.307
861.497, 1991.546
862.771, 2292.773
864.045, 2743.988
865.318, 3275.198
866.591, 4046.396
867.864, 4647.602
869.137, 5328.797
870.410, 5899.979
871.682, 6461.152
872.955, 6182.312
874.227, 6003.463
875.499, 4924.602
876.770, 4515.731
878.042, 4126.856
879.313, 3387.972
880.584, 3289.078
881.855, 3110.175
883.126, 3291.261
884.396, 3232.338
885.667, 3193.408
886.937, 3424.469
888.207, 3325.521
889.476, 3376.563
890.746, 3067.344
892.015, 2828.093
893.284, 2798.771
894.553, 2599.459
895.822, 2299.864
897.090, 2320.577
898.359, 2070.409
899.627, 2081.063
900.895, 1849.902
902.163, 1886.177
903.430, 1876.104
904.698, 1514.945
905.965, 1680.619
907.232, 1608.218
908.499, 1584.991
909.765, 1303.953
911.032, 1483.055
912.298, 1371.839
913.564, 1452.271
914.830, 1398.047
916.095, 1447.979
917.361, 1584.693
918.626, 1589.822
919.891, 1850.288
921.156, 1849.060
922.420, 2149.725
923.685, 2195.945
924.949, 2226.066
926.213, 2326.453
927.477, 2167.028
928.740, 2017.760
930.004, 1896.268
931.267, 1556.412
932.530, 1576.614
933.793, 1136.871
935.056, 1017.885
936.318, 988.430
937.581, 775.791
938.843, 816.546
940.104, 721.473
941.366, 528.745
942.628, 739.853
943.889, 578.800
945.150, 606.731
946.411, 552.834
947.672, 593.966
948.932, 554.962
950.193, 453.752
951.453, 562.729
952.713, 540.114
953.973, 440.351
955.232, 679.606
956.491, 514.984
957.751, 536.107
959.010, 504.642
960.268, 691.589
961.527, 682.925
962.785, 681.822
964.044, 703.282
965.302, 943.510
966.559, 916.995
967.817, 998.445
969.075, 1219.941
970.332, 1211.001
971.589, 1612.437
972.846, 1633.971
974.102, 2025.513
975.359, 2327.064
976.615, 2728.401
977.871, 3149.975
979.127, 3621.560
980.383, 4043.158
981.638, 4364.908
982.893, 4556.531
984.149, 4528.166
985.404, 4319.916
986.658, 3921.574
987.913, 3463.241
989.167, 3004.922
990.421, 2576.615
991.675, 2138.318
992.929, 1800.871
994.183, 1501.820
995.436, 1234.157
996.689, 1045.924
997.942, 927.702
999.195, 788.060
1000.448, 794.663
1001.700, 666.528
1002.952, 588.407
1004.204, 630.474
1005.456, 348.408
1006.708, 410.343
1007.959, 413.403
1009.210, 295.363
1010.461, 387.382
1011.712, 299.413
1012.963, 241.460
1014.213, 383.534
1015.464, 117.290
1016.714, 309.454
1017.964, 265.938
1019.214, 218.173
1020.463, 270.429
1021.712, 112.703
1022.962, 255.005
1024.210, 187.319
1025.459, 69.645
1026.708, 372.001
1027.956, 135.744
1029.204, 218.127
1030.452, 280.527
1031.700, 332.939
1032.948, 225.367
1034.195, 187.807
1035.442, 90.615
1036.689, 343.081
1037.936, 145.649
1039.183, 378.141
1040.429, 440.650
1041.676, 213.176
1042.922, 435.712
1044.168, 358.279
1045.413, 530.859
1046.659, 553.453
1047.904, 386.169
1049.149, 458.920
1050.394, 561.694
1051.639, 415.883
1052.884, 578.578
1054.128, 531.446
1055.372, 694.181
1056.616, 716.949
1057.860, 639.753
1059.104, 942.587
1060.347, 1025.442
1061.590, 1188.320
1062.833, 1401.220
1064.076, 1664.139
1065.319, 1977.092
1066.561, 2300.061
1067.803, 2653.098
1069.046, 2956.136
1070.287, 3079.187
1071.529, 2952.402
1072.771, 3245.487
1074.012, 2828.607
1075.253, 2531.740
1076.494, 2224.888
1077.735, 1941.236
1078.975, 1894.414
1080.216, 1737.614
1081.456, 1640.838
1082.696, 1624.074
1083.936, 1660.548
1085.175, 1800.601
1086.415, 1913.884
1087.654, 2077.300
1088.893, 2310.631
1090.132, 2344.000
1091.371, 2667.600
1092.609, 2531.004
1093.847, 2384.537
1095.085, 2497.984
1096.323, 2121.472
1097.561, 2184.961
1098.799, 1618.457
1100.036, 1102.016
1101.273, 1095.883
1102.510, 1169.486
1103.747, 743.104
1104.983, 836.888
1106.220, 640.555
1107.456, 414.331
1108.692, 508.031
1109.928, 291.757
1111.163, 305.742
1112.399, 449.492
1113.634, 293.250
1114.869, 267.022
1116.104, 170.860
1117.339, 194.700
1118.573, 148.526
1119.808, 112.359
1121.042, 188.298
1122.276, 212.143
1123.509, 365.994
1124.743, 100.180
1125.976, 94.039
1127.210, 48.312
1128.443, 192.686
1129.675, 13.442
1130.908, 41.594
1132.141, 175.654
1133.373, 10.466
1134.605, 163.885
1135.837, 37.774
1137.068, 91.871
1138.300, 116.177
1139.531, 20.074
1140.762, 2.616
1141.993, 81.356
1143.224, 34.548
1144.455, 210.086
1145.685, 44.046
1146.915, 98.426
1148.145, 94.092
1149.375, 7.957
1150.605, 52.518
1151.834, 13.479
1153.063, 139.565
1154.292, 188.919
1155.521, 46.974
1156.750, 67.203
1157.978, 42.387
1159.207, 46.179
1160.435, 91.079
1161.663, 48.490
1162.891, 48.505
1164.118, 121.963
1165.345, 91.384
1166.573, 70.328
1167.800, 136.378
1169.026, 121.608
1170.253, 78.803
1171.480, 123.022
1172.706, 96.954
1173.932, 24.666
1175.158, 31.416
1176.383, 82.649
1177.609, 188.080
1178.834, 51.720
1180.059, 286.397
1181.284, 90.098
1182.509, 5.834
1183.734, 218.182
1184.958, 22.230
1186.182, 165.815
1187.406, 151.154
1188.630, 125.094
1189.854, 108.654
1191.077, 103.269
1192.301, 75.420
1193.524, 93.143
1194.747, 37.079
1195.969, 34.879
1197.192, 34.463
1198.414, 21.839
1199.636, 121.625
1200.858, 35.331
1202.080, 168.766
1203.302, 152.188
1204.523, 127.179
1205.744, 100.574
1206.966, 107.192
1208.186, 91.302
1209.407, 131.509
1210.628, 126.509
1211.848, 159.837
1213.068, 263.152
1214.288, 86.774
1215.508, 290.059
1216.727, 193.405
1217.947, 67.074
1219.166, 310.312
1220.385, 123.835
1221.604, 167.049
1222.822, 190.246
1224.041, 34.688
1225.259, 328.448
1226.477, 281.712
1227.695, 126.854
1228.913, 209.939
1230.130, 233.663
1231.348, 178.895
1232.565, 331.924
1233.782, 107.237
1234.999, 210.529
1236.215, 303.521
1237.432, 86.585
1238.648, 369.558
1239.864, 112.522
1241.080, 175.476
1242.296, 178.421
1243.511, 141.392
1244.726, 274.562
1245.942, 227.476
1247.156, 80.457
1248.371, 213.348
1249.586, 236.226
1250.800, 119.083
1252.014, 321.928
1253.228, 134.759
1254.442, 218.286
1255.656, 361.081
1256.869, 103.862
1258.083, 286.628
1259.296, 289.376
1260.509, 242.490
1261.722, 165.191
1262.934, 167.875
1264.147, 300.642
1265.359, 313.224
1266.571, 5.790
1267.783, 288.695
1268.994, 241.128
1270.206, 103.537
1271.417, 235.854
1272.628, 88.096
1273.839, 70.629
1275.050, 352.737
1276.260, 34.681
1277.471, 147.238
1278.681, 459.236
1279.891, 81.102
1281.101, 193.045
1282.310, 144.962
1283.520, 96.846
1284.729, 320.546
1285.938, 7.645
1287.147, 184.092
1288.356, 155.835
1289.564, 66.970
1290.773, 188.713
1291.981, 9.633
1293.189, 91.321
1294.397, 220.573
1295.604, 72.086
1296.812, 173.568
1298.019, 194.850
1299.226, 29.752
1300.433, 131.912
1301.640, 112.138
1302.846, 136.551
1304.053, 225.485
1305.259, 46.657
1306.465, 11.817
1307.671, 100.742
1308.876, 61.367
1310.082, 0.418
1311.287, 83.806
1312.492, 7.034
1313.697, 27.835
1314.902, 11.403
1316.106, 89.312
1317.310, 149.984
1318.515, 19.377
1319.719, 151.207
1320.922, 110.379
1322.126, 20.892
1323.329, 221.447
1324.533, 51.881
1325.736, 192.277
1326.939, 102.719
1328.141, 112.688
1329.344, 102.981
1330.546, 213.184
1331.748, 23.392
1332.950, 123.562
1334.152, 214.644
1335.354, 15.248
1336.555, 244.807
1337.757, 214.832
1338.958, 114.825
1340.159, 274.675
1341.359, 124.462
1342.560, 164.199
1343.760, 212.514
1344.960, 152.324
1346.160, 261.947
1347.360, 261.693
1348.560, 31.410
1349.759, 271.089
1350.959, 90.735
1352.158, 160.351
1353.357, 429.933
1354.555, 29.485
1355.754, 309.002
1356.952, 288.462
1358.151, 137.891
1359.349, 317.255
1360.546, 196.897
1361.744, 116.241
1362.941, 245.414
1364.139, 146.181
1365.336, 225.440
1366.533, 394.951
1367.730, 24.163
1368.926, 250.163
1370.123, 179.307
1371.319, 18.290
1372.515, 257.188
1373.711, 86.010
1374.906, 14.746
1376.102, 283.408
1377.297, 12.027
1378.492, 143.320
1379.687, 374.467
1380.882, 195.673
1382.077, 356.959
1383.271, 238.196
1384.465, 219.105
1385.659, 300.282
1386.853, 211.262
1388.047, 162.254
1389.240, 373.040
1390.434, 204.061
1391.627, 365.015
1392.820, 405.935
1394.013, 224.463
1395.205, 505.307
1396.398, 275.733
1397.590, 95.438
1398.782, 454.793
1399.974, 365.254
1401.166, 235.328
1402.357, 405.172
1403.549, 131.539
1404.740, 451.680
1405.931, 401.120
1407.122, 176.011
1408.313, 315.367
1409.503, 265.324
1410.693, 119.061
1411.883, 393.662
1413.073, 202.117
1414.263, 334.658
1415.453, 451.229
1416.642, 76.497
1417.831, 308.828
1419.020, 376.963
1420.209, 50.017
1421.398, 425.913
1422.587, 173.376
1423.775, 191.528
1424.963, 409.119
1426.151, 175.271
1427.339, 6.547
1428.526, 296.120
1429.714, 234.041
1430.901, 341.965
1432.088, 270.104
1433.275, 128.139
1434.462, 363.908
1435.648, 291.232
1436.835, 59.118
1438.021, 224.455
1439.207, 142.027
1440.393, 279.979
1441.579, 317.266
1442.764, 64.685
1443.949, 439.040
1445.135, 236.618
1446.320, 10.460
1447.504, 422.543
1448.689, 35.476
1449.873, 192.251
1451.058, 489.301
1452.242, 116.368
1453.426, 203.201
1454.609, 369.417
1455.793, 115.819
1456.976, 272.246
1458.159, 238.521
1459.342, 172.959
1460.525, 358.884
1461.708, 283.695
1462.890, 199.321
1464.073, 404.675
1465.255, 69.299
1466.437, 195.165
1467.619, 441.421
1468.800, 67.057
1469.982, 292.260
1471.163, 308.993
1472.344, 75.659
1473.525, 426.581
1474.706, 213.134
1475.886, 10.403
1477.066, 485.812
1478.247, 220.955
1479.427, 207.241
1480.607, 253.432
1481.786, 88.513
1482.966, 261.446
1484.145, 306.051
1485.324, 202.264
1486.503, 308.404
1487.682, 184.514
1488.860, 110.591
1490.039, 326.725
1491.217, 142.917
1492.395, 108.699
1493.573, 264.985
1494.751, 110.851
1495.928, 256.969
1497.106, 163.513
1498.283, 93.612
1499.460, 199.839
1500.637, 136.080
1501.814, 2.623
1502.990, 209.245
1504.166, 345.915
1505.342, 17.363
1506.518, 199.444
1507.694, 6.360
1508.870, 213.721
1510.045, 331.740
1511.221, 135.146
1512.396, 181.002
1513.571, 144.850
1514.745, 20.056
1515.920, 72.988
1517.094, 109.811
1518.269, 0.000
##END=



