##NAMES=Zoisite
##RRUFFID=R050041
##IDEAL CHEMISTRY=Ca_2_Al_3_(Si_2_O_7_)(SiO_4_)O(OH)
##LOCALITY=Franklin County, Conway, Massachussetts, USA
##OWNER=RRUFF
##SOURCE=University of Arizona Mineral Museum
##DESCRIPTION=Tan colored fragment
##STATUS=The identification of this mineral has been confirmed by X-ray diffraction and chemical analysis
##URL=rruff.info/R050041
##MEASURED CHEMISTRY=(Ca_.993_Mg_.004_Na_.002_Mn_.001_)_2_(Al_.980_Fe^3+^_.020_)_3_(Si_.986_Fe^3+^_.014_)_3_O_12_(OH)
##PIN_ID=M00473
##ORIENTATION=Laser parallel to a* (1 0 0). Fiducial mark perpendicular to laser is parallel to b [0 1 0]
116.406, 0.000
117.800, 157.319
119.195, 325.191
120.589, 537.752
121.983, 556.963
123.377, 285.140
124.770, 131.314
126.163, 13.684
127.556, 8.984
128.949, 72.421
130.342, 47.230
131.734, 164.924
133.126, 135.095
134.518, 57.433
135.909, 271.687
137.301, 227.648
138.692, 325.132
140.083, 423.973
141.473, 424.034
142.864, 575.191
144.254, 667.345
145.644, 860.402
147.034, 954.289
148.423, 948.937
149.812, 794.308
151.201, 830.414
152.590, 647.206
153.979, 594.625
155.367, 342.621
156.755, 471.148
158.143, 330.167
159.530, 269.628
160.918, 239.488
162.305, 359.719
163.692, 210.293
165.078, 71.193
166.465, 322.396
167.851, 253.884
169.237, 375.642
170.623, 297.653
172.008, 389.911
173.393, 262.399
174.778, 265.112
176.163, 298.037
177.548, 271.166
178.932, 314.502
180.316, 478.072
181.700, 451.934
183.083, 496.428
184.467, 551.707
185.850, 777.135
187.233, 692.652
188.616, 798.262
189.998, 863.961
191.380, 769.785
192.762, 915.695
194.144, 621.691
195.525, 757.775
196.907, 693.943
198.288, 430.197
199.669, 596.484
201.049, 412.697
202.429, 398.873
203.810, 505.070
205.189, 491.297
206.569, 377.564
207.949, 383.861
209.328, 560.240
210.707, 876.684
212.085, 803.205
213.464, 729.773
214.842, 976.391
216.220, 853.059
217.598, 689.781
218.976, 446.559
220.353, 523.396
221.730, 380.291
223.107, 257.248
224.483, 194.262
225.860, 241.338
227.236, 368.475
228.612, 445.672
229.988, 332.932
231.363, 300.254
232.738, 297.635
234.113, 255.076
235.488, 172.582
236.863, 190.146
238.237, 307.770
239.611, 115.453
240.985, 213.695
242.359, 371.996
243.732, 271.717
245.105, 359.594
246.478, 355.525
247.851, 283.408
249.223, 426.365
250.595, 547.264
251.967, 436.010
253.339, 605.352
254.711, 663.092
256.082, 720.898
257.453, 968.773
258.824, 926.705
260.195, 1024.693
261.565, 882.740
262.935, 970.844
264.305, 760.613
265.675, 608.812
267.044, 687.061
268.414, 555.361
269.783, 713.709
271.151, 582.109
272.520, 540.557
273.888, 729.055
275.256, 557.602
276.624, 616.195
277.992, 634.838
279.359, 723.531
280.726, 792.270
282.093, 745.930
283.460, 670.357
284.827, 645.357
286.193, 600.729
287.559, 536.438
288.925, 514.502
290.290, 470.766
291.656, 498.750
293.021, 265.393
294.386, 303.656
295.750, 241.229
297.115, 368.439
298.479, 435.795
299.843, 396.240
301.207, 283.973
302.570, 412.725
303.933, 461.143
305.296, 611.322
306.659, 719.377
308.022, 817.523
309.384, 935.764
310.746, 884.090
312.108, 1022.500
313.470, 800.986
314.831, 779.547
316.193, 678.195
317.554, 526.914
318.914, 555.697
320.275, 424.547
321.635, 463.457
322.995, 172.426
324.355, 391.457
325.715, 330.545
327.074, 529.689
328.434, 568.889
329.792, 528.139
331.151, 667.441
332.510, 856.791
333.868, 986.188
335.226, 1305.631
336.584, 1175.119
337.941, 1484.650
339.299, 1524.227
340.656, 1943.848
342.013, 1943.506
343.370, 2513.207
344.726, 2462.947
346.082, 2482.725
347.438, 2342.539
348.794, 2022.387
350.150, 1692.268
351.505, 1282.176
352.860, 912.209
354.215, 882.182
355.570, 532.186
356.924, 322.219
358.278, 132.283
359.632, 272.375
360.986, 322.496
362.339, 7.355
363.693, 182.820
365.046, 153.025
366.399, 6.742
367.751, 13.520
369.104, 36.193
370.456, 114.119
371.808, 74.457
373.159, 35.176
374.511, 114.787
375.862, 114.393
377.213, 73.994
378.564, 193.580
379.914, 83.178
381.265, 202.547
382.615, 212.146
383.965, 1.260
385.315, 8.324
386.664, 27.863
388.013, 225.617
389.362, 156.121
390.711, 466.664
392.060, 417.230
393.408, 688.984
394.756, 679.633
396.104, 590.303
397.451, 540.998
398.799, 461.719
400.146, 262.471
401.493, 73.248
402.840, 74.062
404.186, 134.896
405.533, 45.775
406.879, 226.666
408.225, 77.586
409.570, 21.512
410.916, 99.385
412.261, 330.242
413.606, 271.025
414.951, 361.822
416.295, 372.641
417.639, 493.477
418.983, 354.357
420.327, 635.258
421.671, 396.186
423.014, 437.174
424.357, 318.186
425.700, 299.217
427.043, 390.307
428.386, 211.416
429.728, 332.549
431.070, 463.709
432.412, 394.885
433.753, 336.088
435.095, 347.307
436.436, 548.545
437.777, 339.814
439.118, 261.100
440.458, 572.404
441.798, 343.746
443.138, 395.107
444.478, 246.506
445.818, 27.943
447.157, 129.527
448.496, 231.029
449.835, 27.436
451.174, 164.107
452.513, 14.316
453.851, 147.271
455.189, 11.111
456.527, 10.518
457.864, 92.160
459.202, 83.830
460.539, 44.480
461.876, 27.203
463.212, 1.092
464.549, 10.623
465.885, 27.646
467.221, 114.080
468.557, 345.826
469.893, 217.592
471.228, 639.375
472.563, 621.174
473.898, 662.990
475.233, 984.824
476.567, 1039.676
477.902, 1271.549
479.236, 1143.441
480.570, 1325.346
481.903, 1557.266
483.237, 1819.199
484.570, 2071.592
485.903, 3084.436
487.235, 3336.594
488.568, 3739.299
489.900, 4431.377
491.232, 4653.471
492.564, 4545.574
493.896, 4457.721
495.227, 3449.912
496.558, 3062.119
497.889, 2234.357
499.220, 1856.607
500.551, 1118.869
501.881, 961.150
503.211, 763.438
504.541, 625.830
505.870, 558.230
507.200, 510.641
508.529, 353.059
509.858, 535.539
511.187, 368.033
512.515, 40.547
513.844, 223.066
515.172, 295.604
516.500, 398.146
517.827, 80.709
519.155, 203.277
520.482, 305.852
521.809, 618.434
523.136, 540.641
524.462, 513.232
525.789, 915.832
527.115, 748.047
528.441, 650.660
529.766, 681.824
531.092, 794.443
532.417, 507.068
533.742, 488.229
535.067, 326.006
536.391, 303.775
537.716, 103.309
539.040, 387.291
540.364, 16.406
541.688, 189.875
543.011, 54.789
544.334, 307.541
545.657, 274.193
546.980, 54.551
548.303, 488.059
549.625, 303.389
550.947, 396.289
552.269, 13.488
553.591, 219.121
554.913, 271.877
556.234, 394.490
557.555, 137.766
558.876, 632.588
560.197, 425.203
561.517, 512.021
562.837, 644.639
564.157, 772.641
565.477, 1005.256
566.797, 1509.773
568.116, 1602.387
569.435, 2148.824
570.754, 1882.508
572.073, 2335.756
573.391, 1978.363
574.709, 2002.072
576.027, 1754.674
577.345, 1351.820
578.663, 1094.422
579.980, 678.746
581.297, 580.879
582.614, 593.596
583.931, 326.439
585.248, 389.820
586.564, 452.789
587.880, 205.518
589.196, 200.133
590.511, 332.695
591.827, 536.699
593.142, 599.312
594.457, 661.785
595.772, 697.920
597.086, 709.912
598.401, 642.943
599.715, 690.164
601.029, 622.674
602.343, 425.174
603.656, 137.666
604.969, 30.109
606.282, 143.176
607.595, 125.641
608.908, 96.033
610.220, 109.689
611.532, 190.631
612.844, 63.057
614.156, 134.090
615.468, 175.975
616.779, 308.371
618.090, 450.756
619.401, 470.023
620.712, 612.424
622.022, 603.760
623.332, 595.531
624.642, 765.633
625.952, 827.949
627.262, 540.254
628.571, 602.547
629.880, 374.828
631.189, 237.098
632.498, 249.354
633.807, 38.402
635.115, 245.838
636.423, 48.184
637.731, 130.359
639.039, 72.742
640.346, 64.992
641.653, 14.992
642.960, 2.646
644.267, 27.971
645.574, 11.381
646.880, 143.434
648.186, 216.094
649.492, 348.111
650.798, 106.859
652.103, 246.955
653.409, 129.297
654.714, 446.441
656.019, 208.373
657.323, 421.332
658.628, 294.820
659.932, 366.695
661.236, 300.674
662.540, 442.508
663.843, 274.324
665.147, 556.303
666.450, 720.703
667.753, 673.492
669.056, 907.916
670.358, 799.535
671.660, 1013.797
672.963, 1145.461
674.264, 1819.363
675.566, 1760.980
676.868, 1982.574
678.169, 2094.684
679.470, 1876.232
680.771, 1787.797
682.071, 1419.299
683.372, 1201.135
684.672, 1092.793
685.972, 904.273
687.271, 695.688
688.571, 537.078
689.870, 456.715
691.169, 409.793
692.468, 391.141
693.767, 462.480
695.065, 523.809
696.364, 415.152
697.662, 386.266
698.960, 17.613
700.257, 365.945
701.555, 22.736
702.852, 338.518
704.149, 446.789
705.446, 8.039
706.742, 119.236
708.038, 69.592
709.335, 350.357
710.631, 151.408
711.926, 302.434
713.222, 93.432
714.517, 24.453
715.812, 405.430
717.107, 13.623
718.402, 367.295
719.696, 31.814
720.990, 249.002
722.284, 39.789
723.578, 340.535
724.872, 28.732
726.165, 81.932
727.458, 112.561
728.751, 263.168
730.044, 83.744
731.336, 404.289
732.629, 15.197
733.921, 505.250
735.213, 55.670
736.504, 93.953
737.796, 206.316
739.087, 176.555
740.378, 113.234
741.669, 156.852
742.960, 206.906
744.250, 46.930
745.540, 276.910
746.830, 76.859
748.120, 236.770
749.410, 306.648
750.699, 16.496
751.988, 506.293
753.277, 156.059
754.566, 14.207
755.854, 315.457
757.143, 375.090
758.431, 374.691
759.719, 514.941
761.006, 153.707
762.294, 483.219
763.581, 362.703
764.868, 102.168
766.155, 481.594
767.442, 341.000
768.728, 410.375
770.014, 709.727
771.300, 539.051
772.586, 338.348
773.872, 637.617
775.157, 476.867
776.442, 636.094
777.727, 605.293
779.012, 714.469
780.297, 513.625
781.581, 402.754
782.865, 429.973
784.149, 890.922
785.433, 529.957
786.716, 338.969
787.999, 647.953
789.282, 63.895
790.565, 262.797
791.848, 351.672
793.130, 250.508
794.413, 279.320
795.695, 61.902
796.977, 336.367
798.258, 174.172
799.540, 87.363
800.821, 370.500
802.102, 178.973
803.382, 417.406
804.663, 44.188
805.943, 65.871
807.224, 222.344
808.504, 19.469
809.783, 368.637
811.063, 136.715
812.342, 94.758
813.621, 422.754
814.900, 289.270
816.179, 378.484
817.457, 476.215
818.736, 273.914
820.014, 138.418
821.292, 139.117
822.569, 36.613
823.847, 354.059
825.124, 41.473
826.401, 358.844
827.678, 56.184
828.954, 373.469
830.231, 340.727
831.507, 197.961
832.783, 435.191
834.059, 312.402
835.334, 549.578
836.610, 236.730
837.885, 273.848
839.160, 310.941
840.435, 708.000
841.709, 395.035
842.983, 632.043
844.258, 559.027
845.532, 695.980
846.805, 532.906
848.079, 549.805
849.352, 696.672
850.625, 433.504
851.898, 830.312
853.171, 804.719
854.443, 991.688
855.715, 893.773
856.988, 1029.234
858.259, 1295.930
859.531, 1729.891
860.803, 1516.668
862.074, 1375.684
863.345, 1482.281
864.616, 1928.711
865.886, 1725.262
867.157, 2154.266
868.427, 2768.547
869.697, 2825.016
870.967, 3045.082
872.236, 3101.500
873.506, 3032.508
874.775, 2668.879
876.044, 2673.316
877.313, 1902.793
878.581, 1773.809
879.849, 1879.402
881.118, 1277.234
882.386, 1553.465
883.653, 1158.602
884.921, 1544.781
886.188, 1346.395
887.455, 1333.391
888.722, 1447.773
889.989, 1304.543
891.255, 1328.176
892.522, 1636.273
893.788, 1251.500
895.054, 1217.113
896.319, 1202.934
897.585, 1526.848
898.850, 1532.785
900.115, 1587.262
901.380, 1803.094
902.645, 1578.973
903.909, 2111.844
905.174, 1937.684
906.438, 1802.996
907.701, 2204.086
908.965, 2129.871
910.229, 2305.637
911.492, 2491.383
912.755, 2517.113
914.018, 2642.242
915.280, 3127.945
916.543, 2903.633
917.805, 3228.102
919.067, 3923.766
920.329, 4309.414
921.590, 5265.051
922.852, 5180.676
924.113, 6676.289
925.374, 6861.887
926.635, 7327.477
927.895, 7103.051
929.156, 6698.613
930.416, 6064.168
931.676, 4989.707
932.936, 4095.164
934.195, 3780.602
935.454, 2656.027
936.714, 2711.445
937.973, 2016.727
939.231, 2071.922
940.490, 2057.102
941.748, 1570.242
943.006, 1305.219
944.264, 1550.309
945.522, 1205.164
946.780, 1610.129
948.037, 1217.297
949.294, 1272.320
950.551, 906.684
951.808, 952.230
953.064, 1037.227
954.320, 871.586
955.577, 816.551
956.832, 1084.758
958.088, 621.598
959.344, 1116.152
960.599, 635.879
961.854, 860.793
963.109, 724.652
964.364, 747.949
965.618, 314.480
966.872, 637.219
968.127, 692.070
969.380, 476.914
970.634, 761.559
971.888, 773.754
973.141, 1038.234
974.394, 840.355
975.647, 1005.172
976.900, 1517.410
978.152, 1442.230
979.404, 1884.793
980.656, 1689.621
981.908, 2184.461
983.160, 1716.680
984.411, 2301.539
985.663, 1816.371
986.914, 1651.195
988.165, 1645.676
989.415, 1160.324
990.666, 935.113
991.916, 1319.969
993.166, 714.844
994.416, 699.742
995.665, 534.184
996.915, 588.637
998.164, 333.004
999.413, 227.309
1000.662, 431.508
1001.911, 505.668
1003.159, 449.801
1004.407, 113.969
1005.655, 188.234
1006.903, 126.715
1008.151, 188.281
1009.398, 353.293
1010.646, 68.312
1011.893, 183.250
1013.139, 178.129
1014.386, 272.945
1015.633, 277.781
1016.879, 197.406
1018.125, 517.418
1019.371, 262.203
1020.616, 113.031
1021.862, 251.754
1023.107, 266.570
1024.352, 481.414
1025.597, 266.344
1026.842, 38.730
1028.086, 386.191
1029.330, 61.098
1030.574, 23.980
1031.818, 420.949
1033.062, 135.887
1034.305, 300.812
1035.548, 195.723
1036.791, 10.621
1038.034, 635.512
1039.277, 90.379
1040.519, 1005.234
1041.762, 460.074
1043.004, 274.887
1044.246, 709.688
1045.487, 474.473
1046.729, 639.242
1047.970, 943.996
1049.211, 248.766
1050.452, 1083.531
1051.692, 848.340
1052.933, 353.191
1054.173, 918.168
1055.413, 623.145
1056.653, 1188.266
1057.893, 433.488
1059.132, 758.750
1060.371, 1124.039
1061.610, 919.629
1062.849, 1125.234
1064.088, 1401.039
1065.326, 1326.906
1066.565, 1522.836
1067.803, 1818.828
1069.041, 1984.801
1070.278, 2038.156
1071.516, 2041.766
1072.753, 1982.711
1073.990, 1828.754
1075.227, 1634.816
1076.464, 1500.926
1077.700, 1227.090
1078.936, 1243.312
1080.173, 1299.176
1081.408, 1067.613
1082.644, 1072.801
1083.880, 1398.867
1085.115, 1104.973
1086.350, 1802.309
1087.585, 1750.480
1088.820, 1585.832
1090.054, 2191.191
1091.288, 1729.113
1092.522, 2618.023
1093.756, 2093.039
1094.990, 1608.141
1096.224, 1721.027
1097.457, 1385.520
1098.690, 1120.562
1099.923, 995.605
1101.156, 880.652
1102.388, 745.703
1103.621, 650.754
1104.853, 675.789
1106.085, 696.691
1107.316, 275.801
1108.548, 750.746
1109.779, 505.629
1111.010, 220.434
1112.241, 1145.141
1113.472, 20.250
1114.703, 174.246
1115.933, 508.613
1117.163, 152.836
1118.393, 677.559
1119.623, 232.176
1120.853, 1.891
1122.082, 774.406
1123.311, 211.223
1124.540, 608.301
1125.769, 195.637
1126.997, 253.152
1128.226, 440.871
1129.454, 498.809
1130.682, 102.996
1131.910, 315.516
1133.138, 184.406
1134.365, 301.023
1135.592, 520.125
1136.819, 209.805
1138.046, 283.312
1139.273, 573.395
1140.499, 163.828
1141.725, 494.629
1142.951, 524.531
1144.177, 12.078
1145.403, 736.715
1146.628, 106.809
1147.854, 47.246
1149.079, 222.309
1150.304, 238.801
1151.528, 835.980
1152.753, 0.000
##END=



