##NAMES=Zoisite
##RRUFFID=R050041
##IDEAL CHEMISTRY=Ca_2_Al_3_(Si_2_O_7_)(SiO_4_)O(OH)
##LOCALITY=Franklin County, Conway, Massachussetts, USA
##OWNER=RRUFF
##SOURCE=University of Arizona Mineral Museum
##DESCRIPTION=Tan colored fragment
##STATUS=The identification of this mineral has been confirmed by X-ray diffraction and chemical analysis
##URL=rruff.info/R050041
##MEASURED CHEMISTRY=(Ca_.993_Mg_.004_Na_.002_Mn_.001_)_2_(Al_.980_Fe^3+^_.020_)_3_(Si_.986_Fe^3+^_.014_)_3_O_12_(OH)
##PIN_ID=L00503
##ORIENTATION=Laser parallel to -c* (0 0 -1). Fiducial mark perpendicular to laser is parallel to a [1 0 0]
107.054, 0.000
108.444, 0.473
109.834, 369.768
111.223, 169.859
112.613, 429.504
114.002, 729.377
115.391, 1280.244
116.780, 865.516
118.168, 1113.596
119.556, 815.180
120.944, 606.096
122.332, 548.730
123.720, 379.297
125.107, 160.967
126.495, 262.934
127.882, 45.203
129.268, 7.773
130.655, 160.637
132.041, 76.215
133.427, 17.211
134.813, 151.488
136.199, 5.395
137.584, 269.549
138.970, 133.934
140.355, 258.547
141.740, 381.689
143.124, 456.416
144.509, 711.373
145.893, 626.553
147.277, 641.945
148.660, 547.545
150.044, 313.340
151.427, 429.320
152.810, 335.477
154.193, 61.793
155.576, 168.262
156.958, 24.871
158.341, 151.621
159.723, 38.504
161.105, 195.516
162.486, 7.348
163.867, 189.910
165.249, 137.291
166.630, 104.787
168.010, 112.400
169.391, 60.127
170.771, 357.965
172.151, 35.912
173.531, 133.971
174.911, 67.859
176.290, 80.422
177.669, 298.812
179.049, 47.307
180.427, 95.904
181.806, 214.617
183.184, 223.439
184.562, 152.363
185.940, 291.387
187.318, 270.508
188.696, 299.730
190.073, 559.037
191.450, 398.391
192.827, 137.793
194.204, 467.238
195.580, 246.725
196.956, 336.246
198.332, 145.807
199.708, 315.404
201.084, 205.031
202.459, 344.664
203.834, 114.314
205.209, 324.012
206.584, 403.760
207.958, 363.561
209.333, 583.416
210.707, 443.324
212.081, 823.287
213.454, 303.307
214.828, 333.385
216.201, 623.518
217.574, 393.711
218.947, 403.961
220.320, 204.270
221.692, 304.639
223.064, 205.068
224.436, 205.535
225.808, 196.062
227.179, 186.654
228.551, 197.305
229.922, 128.020
231.293, 328.793
232.663, 99.629
234.034, 240.529
235.404, 81.490
236.774, 212.510
238.144, 143.590
239.514, 254.881
240.883, 216.084
242.252, 137.348
243.621, 308.672
244.990, 250.451
246.359, 231.908
247.727, 473.430
249.095, 335.006
250.463, 516.648
251.831, 468.346
253.198, 460.117
254.566, 601.947
255.933, 514.656
257.299, 726.598
258.666, 718.602
260.033, 830.662
261.399, 532.785
262.765, 434.965
264.131, 487.205
265.496, 329.504
266.862, 371.867
268.227, 274.287
269.592, 366.771
270.957, 379.314
272.321, 140.650
273.685, 411.977
275.050, 423.344
276.413, 324.707
277.777, 566.061
279.141, 217.363
280.504, 368.650
281.867, 329.957
283.230, 461.236
284.592, 332.248
285.955, 363.344
287.317, 224.629
288.679, 85.861
290.041, 327.162
291.403, 208.533
292.764, 199.914
294.125, 170.322
295.486, 271.918
296.847, 319.451
298.207, 259.836
299.568, 323.029
300.928, 184.641
302.288, 66.535
303.647, 98.490
305.007, 420.502
306.366, 282.646
307.725, 414.732
309.084, 506.877
310.443, 409.076
311.801, 301.328
313.159, 473.635
314.517, 205.994
315.875, 168.406
317.233, 100.920
318.590, 283.482
319.947, 416.104
321.304, 198.773
322.661, 411.492
324.018, 134.260
325.374, 347.074
326.730, 439.836
328.086, 522.752
329.442, 705.711
330.797, 588.719
332.153, 671.773
333.508, 774.879
334.863, 858.039
336.217, 991.244
337.572, 1006.918
338.926, 826.021
340.280, 1009.363
341.634, 786.730
342.988, 696.180
344.341, 689.654
345.694, 393.191
347.047, 536.771
348.400, 270.393
349.753, 314.061
351.105, 297.768
352.457, 161.518
353.809, 25.309
355.161, 409.143
356.512, 93.018
357.864, 226.932
359.215, 160.891
360.566, 114.891
361.916, 228.930
363.267, 53.010
364.617, 227.131
365.967, 41.293
367.317, 145.498
368.667, 149.742
370.016, 15.969
371.366, 328.355
372.715, 22.725
374.064, 297.133
375.412, 31.580
376.761, 126.068
378.109, 230.596
379.457, 33.639
380.805, 170.967
382.152, 65.613
383.500, 100.297
384.847, 195.021
386.194, 49.783
387.541, 144.584
388.887, 349.426
390.233, 644.305
391.580, 469.246
392.926, 234.227
394.271, 599.242
395.617, 165.215
396.962, 350.309
398.307, 335.441
399.652, 230.613
400.997, 115.828
402.341, 58.926
403.686, 216.355
405.030, 231.672
406.374, 327.023
407.717, 122.412
409.061, 257.834
410.404, 383.289
411.747, 338.781
413.090, 624.312
414.433, 719.877
415.775, 595.477
417.117, 731.166
418.459, 596.887
419.801, 462.697
421.143, 618.541
422.484, 574.438
423.825, 330.408
425.166, 416.410
426.507, 292.447
427.848, 348.514
429.188, 494.613
430.528, 390.746
431.868, 456.908
433.208, 563.104
434.547, 479.334
435.887, 491.730
437.226, 411.908
438.565, 378.250
439.904, 374.631
441.242, 321.049
442.580, 399.576
443.918, 260.994
445.256, 258.428
446.594, 308.082
447.932, 15.305
449.269, 351.344
450.606, 188.031
451.943, 325.113
453.280, 91.871
454.616, 388.664
455.952, 91.043
457.288, 92.082
458.624, 614.832
459.960, 18.219
461.295, 48.766
462.631, 325.785
463.966, 102.836
465.300, 379.922
466.635, 12.961
467.969, 334.191
469.304, 501.371
470.638, 618.590
471.972, 845.840
473.305, 804.891
474.639, 570.434
475.972, 817.781
477.305, 736.930
478.638, 924.375
479.970, 1012.789
481.303, 1360.289
482.635, 1837.840
483.967, 1875.434
485.298, 2213.062
486.630, 2710.719
487.961, 2808.492
489.293, 2796.301
490.624, 3054.523
491.954, 2452.445
493.285, 1800.402
494.615, 1780.699
495.945, 1148.742
497.275, 1156.809
498.605, 784.953
499.935, 743.125
501.264, 391.348
502.593, 489.598
503.922, 467.871
505.251, 350.223
506.579, 338.555
507.908, 396.914
509.236, 115.297
510.564, 213.699
511.891, 322.129
513.219, 40.582
514.546, 249.086
515.873, 267.609
517.200, 396.164
518.527, 479.750
519.853, 203.336
521.180, 581.957
522.506, 710.613
523.832, 689.289
525.157, 307.996
526.483, 776.723
527.808, 425.473
529.133, 84.246
530.458, 542.930
531.783, 391.750
533.107, 300.594
534.431, 539.457
535.756, 228.336
537.079, 317.238
538.403, 53.840
539.727, 524.773
541.050, 203.719
542.373, 222.684
543.696, 471.664
545.018, 320.668
546.341, 359.684
547.663, 362.328
548.985, 260.609
550.307, 262.516
551.629, 131.598
552.950, 20.699
554.271, 40.184
555.592, 439.473
556.913, 368.613
558.234, 338.180
559.554, 748.141
560.875, 107.324
562.195, 625.773
563.514, 1054.984
564.834, 934.211
566.154, 1273.445
567.473, 1222.699
568.792, 1581.969
570.111, 1751.242
571.429, 1141.508
572.748, 1280.805
574.066, 830.121
575.384, 842.898
576.702, 712.234
578.019, 404.723
579.337, 454.078
580.654, 237.496
581.971, 436.738
583.288, 166.121
584.605, 75.512
585.921, 114.910
587.237, 214.336
588.553, 253.746
589.869, 203.168
591.185, 342.598
592.500, 422.031
593.815, 91.473
595.130, 580.922
596.445, 560.512
597.760, 60.105
599.074, 159.566
600.389, 50.219
601.703, 109.730
603.016, 20.184
604.330, 70.777
605.644, 78.605
606.957, 167.867
608.270, 217.258
609.583, 3.352
610.895, 106.039
612.208, 355.434
613.520, 115.164
614.832, 464.184
616.144, 301.801
617.455, 161.152
618.767, 240.324
620.078, 609.684
621.389, 169.039
622.700, 688.395
624.011, 377.750
625.321, 406.992
626.631, 146.344
627.941, 315.781
629.251, 125.133
630.561, 104.488
631.870, 193.836
633.180, 43.184
634.489, 207.473
635.798, 230.758
637.106, 10.000
638.415, 129.227
639.723, 121.883
641.031, 244.723
642.339, 235.457
643.647, 353.148
644.954, 173.570
646.261, 184.238
647.568, 13.438
648.875, 256.387
650.182, 255.559
651.488, 18.555
652.795, 251.594
654.101, 351.000
655.407, 320.785
656.712, 299.895
658.018, 403.258
659.323, 202.695
660.628, 332.883
661.933, 37.445
663.238, 401.574
664.542, 490.586
665.847, 399.582
667.151, 688.570
668.455, 697.547
669.758, 1006.504
671.062, 881.215
672.365, 1300.148
673.668, 1230.488
674.971, 1169.398
676.274, 1208.301
677.577, 1027.180
678.879, 1008.277
680.181, 1017.129
681.483, 618.535
682.785, 847.363
684.086, 496.176
685.388, 176.375
686.689, 705.242
687.990, 375.250
689.290, 474.000
690.591, 642.738
691.891, 111.457
693.192, 670.168
694.491, 159.102
695.791, 446.578
697.091, 295.352
698.390, 373.992
699.689, 242.613
700.988, 491.223
702.287, 149.812
703.586, 268.387
704.884, 366.984
706.182, 34.430
707.480, 324.090
708.778, 242.582
710.076, 301.062
711.373, 68.613
712.670, 727.051
713.968, 75.469
715.264, 63.863
716.561, 542.227
717.857, 150.633
719.154, 509.016
720.450, 227.383
721.746, 365.723
723.041, 264.051
724.337, 402.355
725.632, 250.645
726.927, 68.910
728.222, 567.148
729.517, 555.363
730.811, 146.438
732.105, 341.621
733.400, 140.340
734.693, 537.586
735.987, 5.488
737.281, 86.668
738.574, 361.074
739.867, 278.793
741.160, 266.488
742.453, 154.168
743.745, 221.820
745.038, 369.453
746.330, 417.066
747.622, 234.656
748.913, 252.227
750.205, 199.773
751.496, 137.297
752.788, 142.316
754.079, 192.270
755.369, 99.730
756.660, 135.086
757.950, 85.391
759.241, 184.043
760.531, 218.316
761.820, 405.645
763.110, 552.949
764.399, 440.234
765.689, 317.141
766.978, 384.383
768.267, 331.598
769.555, 263.258
770.844, 670.430
772.132, 257.594
773.420, 324.734
774.708, 691.859
775.996, 208.953
777.283, 426.031
778.570, 503.082
779.857, 240.109
781.144, 497.121
782.431, 174.105
783.718, 371.066
785.004, 388.008
786.290, 464.926
787.576, 231.816
788.862, 398.691
790.147, 76.234
791.433, 200.508
792.718, 306.297
794.003, 13.000
795.288, 9.648
796.572, 226.242
797.857, 402.812
799.141, 270.637
800.425, 65.711
801.709, 232.020
802.992, 152.070
804.276, 404.078
805.559, 39.797
806.842, 83.957
808.125, 139.973
809.407, 104.039
810.690, 311.836
811.972, 2.309
813.254, 133.488
814.536, 289.262
815.818, 55.008
817.099, 536.680
818.381, 372.371
819.662, 508.043
820.943, 213.691
822.223, 209.324
823.504, 494.934
824.784, 29.473
826.065, 636.055
827.345, 61.566
828.624, 277.043
829.904, 712.504
831.183, 297.945
832.462, 33.367
833.741, 448.754
835.020, 24.129
836.299, 479.465
837.577, 304.781
838.856, 60.062
840.134, 185.320
841.412, 66.602
842.689, 705.762
843.967, 230.949
845.244, 446.113
846.521, 851.258
847.798, 146.383
849.075, 841.488
850.351, 176.578
851.628, 321.648
852.904, 1156.699
854.180, 601.727
855.455, 966.738
856.731, 841.723
858.006, 747.496
859.281, 1532.445
860.556, 801.777
861.831, 1216.684
863.106, 1211.570
864.380, 966.434
865.655, 1720.754
866.929, 1275.590
868.202, 1490.039
869.476, 2064.047
870.750, 1510.797
872.023, 2015.559
873.296, 1250.301
874.569, 1305.023
875.842, 959.730
877.114, 1244.414
878.386, 1019.082
879.658, 693.727
880.930, 1367.457
882.202, 912.074
883.474, 856.668
884.745, 907.789
886.016, 1212.355
887.287, 788.008
888.558, 802.531
889.829, 1012.984
891.099, 727.617
892.369, 932.094
893.639, 426.555
894.909, 801.000
896.179, 865.422
897.448, 599.844
898.718, 994.250
899.987, 788.648
901.256, 1013.035
902.524, 1287.414
903.793, 601.781
905.061, 1565.996
906.329, 1140.215
907.597, 944.555
908.865, 1558.129
910.133, 1182.266
911.400, 1435.641
912.667, 769.980
913.934, 1594.328
915.201, 1478.668
916.468, 1493.000
917.734, 1697.328
919.001, 1281.652
920.267, 1935.973
921.532, 2200.285
922.798, 2714.617
924.064, 2578.836
925.329, 2983.047
926.594, 2447.250
927.859, 2991.453
929.124, 2015.648
930.388, 2539.699
931.653, 1703.754
932.917, 1737.797
934.181, 1721.832
935.445, 1755.777
936.708, 909.805
937.972, 873.820
939.235, 1147.777
940.498, 1131.727
941.761, 1555.672
943.024, 980.672
944.286, 784.660
945.548, 1278.645
946.811, 869.195
948.072, 1259.551
949.334, 583.516
950.596, 1167.484
951.857, 600.234
953.118, 882.723
954.379, 1146.680
955.640, 706.867
956.901, 920.820
958.161, 738.059
959.421, 361.016
960.681, 1024.719
961.941, 558.039
963.201, 792.035
964.460, 881.773
965.720, 295.449
966.979, 669.484
968.238, 681.828
969.496, 695.926
970.755, 330.047
972.013, 914.195
973.272, 938.379
974.529, 552.590
975.787, 1136.848
977.045, 1346.883
978.302, 1251.234
979.560, 1784.230
980.817, 1228.707
982.073, 1433.258
983.330, 1877.719
984.587, 860.000
985.843, 1685.812
987.099, 1118.055
988.355, 801.227
989.611, 833.965
990.866, 396.742
992.122, 320.824
993.377, 634.891
994.632, 348.680
995.887, 492.578
997.141, 266.582
998.396, 390.570
999.650, 594.438
1000.904, 68.336
1002.158, 502.219
1003.412, 326.090
1004.665, 309.945
1005.918, 343.676
1007.172, 197.387
1008.425, 188.930
1009.677, 584.742
1010.930, 28.395
1012.182, 282.105
1013.434, 315.910
1014.687, 179.766
1015.938, 173.734
1017.190, 697.688
1018.441, 31.645
1019.693, 685.582
1020.944, 210.488
1022.195, 513.426
1023.445, 337.336
1024.696, 301.246
1025.946, 635.156
1027.197, 299.059
1028.446, 62.949
1029.696, 496.824
1030.946, 20.695
1032.195, 854.551
1033.445, 448.395
1034.694, 472.227
1035.942, 166.051
1037.191, 90.129
1038.440, 433.691
1039.688, 487.496
1040.936, 121.355
1042.184, 1185.273
1043.432, 489.258
1044.679, 533.270
1045.927, 987.582
1047.174, 62.008
1048.421, 1366.594
1049.668, 631.258
1050.914, 316.105
1052.161, 1371.031
1053.407, 1096.004
1054.653, 831.008
1055.899, 1066.031
1057.145, 631.078
1058.391, 1406.199
1059.636, 891.367
1060.881, 1326.551
1062.126, 1631.770
1063.371, 997.047
1064.615, 1732.398
1065.860, 1937.812
1067.104, 2053.273
1068.348, 1998.781
1069.592, 2014.344
1070.836, 2209.965
1072.079, 2365.656
1073.323, 1646.336
1074.566, 1471.480
1075.809, 1746.875
1077.052, 1222.320
1078.294, 1677.695
1079.537, 872.484
1080.779, 1147.438
1082.021, 1272.430
1083.263, 1257.469
1084.504, 1322.344
1085.746, 1377.473
1086.987, 1262.645
1088.228, 1815.027
1089.469, 1379.984
1090.710, 2104.980
1091.951, 1830.020
1093.191, 1215.074
1094.431, 1890.137
1095.671, 615.188
1096.911, 1140.219
1098.151, 755.230
1099.390, 1000.203
1100.630, 545.145
1101.869, 300.027
1103.108, 774.840
1104.346, 379.566
1105.585, 414.695
1106.823, 280.293
1108.062, 585.867
1109.300, 2.824
1110.537, 779.930
1111.775, 467.195
1113.013, 154.969
1114.250, 493.352
1115.487, 262.051
1116.724, 391.117
1117.961, 260.621
1119.197, 300.660
1120.434, 711.352
1121.670, 152.863
1122.906, 445.270
1124.142, 548.508
1125.377, 27.137
1126.613, 618.359
1127.848, 275.203
1129.083, 203.672
1130.318, 284.035
1131.553, 417.035
1132.787, 271.078
1134.022, 0.719
1135.256, 101.555
1136.490, 0.000
##END=



