##NAMES=Zoisite
##RRUFFID=R050041
##IDEAL CHEMISTRY=Ca_2_Al_3_(Si_2_O_7_)(SiO_4_)O(OH)
##LOCALITY=Franklin County, Conway, Massachussetts, USA
##OWNER=RRUFF
##SOURCE=University of Arizona Mineral Museum
##DESCRIPTION=Tan colored fragment
##STATUS=The identification of this mineral has been confirmed by X-ray diffraction and chemical analysis
##URL=rruff.info/R050041
##MEASURED CHEMISTRY=(Ca_.993_Mg_.004_Na_.002_Mn_.001_)_2_(Al_.980_Fe^3+^_.020_)_3_(Si_.986_Fe^3+^_.014_)_3_O_12_(OH)
##PIN_ID=L00320
##ORIENTATION=Laser parallel to b* (0 1 0). Fiducial mark perpendicular to laser is parallel to c [0 0 1]
107.054, 0.000
108.444, 488.792
109.834, 301.633
111.223, 398.169
112.613, 618.578
114.002, 776.872
115.391, 1161.459
116.780, 1001.932
118.168, 1014.488
119.556, 677.361
120.944, 581.141
122.332, 498.447
123.720, 365.871
125.107, 153.463
126.495, 266.319
127.882, 125.316
129.268, 51.154
130.655, 214.381
132.041, 118.076
133.427, 202.623
134.813, 337.891
136.199, 310.488
137.584, 651.264
138.970, 942.148
140.355, 1103.257
141.740, 1455.535
143.124, 1499.905
144.509, 1823.371
145.893, 1576.811
147.277, 1520.234
148.660, 1203.654
150.044, 907.085
151.427, 770.539
152.810, 554.030
154.193, 317.568
155.576, 191.158
156.958, 94.805
158.341, 118.506
159.723, 62.264
161.105, 36.777
162.486, 10.621
163.867, 35.910
165.249, 109.004
166.630, 81.725
168.010, 38.555
169.391, 108.881
170.771, 93.326
172.151, 5.221
173.531, 2.064
174.911, 42.539
176.290, 94.391
177.669, 118.510
179.049, 111.936
180.427, 165.424
181.806, 348.980
183.184, 462.594
184.562, 536.273
185.940, 920.014
187.318, 893.816
188.696, 947.684
190.073, 941.627
191.450, 825.688
192.827, 778.666
194.204, 574.197
195.580, 508.635
196.956, 333.189
198.332, 97.850
199.708, 302.605
201.084, 137.443
202.459, 232.361
203.834, 117.350
205.209, 172.398
206.584, 167.484
207.958, 142.602
209.333, 107.744
210.707, 122.912
212.081, 358.109
213.454, 173.338
214.828, 1.406
216.201, 253.869
217.574, 139.143
218.947, 4.420
220.320, 10.414
221.692, 67.164
223.064, 60.541
224.436, 45.695
225.808, 70.857
227.179, 24.018
228.551, 28.939
229.922, 56.096
231.293, 1.086
232.663, 66.031
234.034, 0.932
235.404, 24.209
236.774, 130.137
238.144, 5.359
239.514, 150.623
240.883, 14.068
242.252, 171.285
243.621, 256.680
244.990, 152.146
246.359, 297.621
247.727, 313.078
249.095, 278.520
250.463, 483.990
251.831, 559.479
253.198, 494.979
254.566, 870.529
255.933, 896.123
257.299, 981.760
258.666, 1087.441
260.033, 986.205
261.399, 868.936
262.765, 704.752
264.131, 630.615
265.496, 508.814
266.862, 451.459
268.227, 410.084
269.592, 394.520
270.957, 380.611
272.321, 417.656
273.685, 446.229
275.050, 514.529
276.413, 672.955
277.777, 771.438
279.141, 749.939
280.504, 968.428
281.867, 1016.881
283.230, 1095.283
284.592, 833.670
285.955, 802.033
287.317, 550.330
288.679, 508.508
290.041, 586.566
291.403, 294.523
292.764, 412.396
294.125, 210.199
295.486, 107.943
296.847, 165.625
298.207, 83.240
299.568, 134.781
300.928, 238.186
302.288, 225.275
303.647, 291.936
305.007, 308.453
306.366, 404.783
307.725, 421.137
309.084, 337.516
310.443, 453.922
311.801, 310.357
313.159, 256.818
314.517, 123.305
315.875, 329.850
317.233, 56.432
318.590, 363.041
319.947, 309.709
321.304, 255.994
322.661, 552.518
324.018, 448.574
325.374, 844.227
326.730, 1069.100
328.086, 1454.920
329.442, 1711.480
330.797, 2009.705
332.153, 2440.811
333.508, 2247.402
334.863, 2224.840
336.217, 2017.979
337.572, 1491.488
338.926, 1367.229
340.280, 1005.246
341.634, 952.072
342.988, 648.926
344.341, 655.904
345.694, 372.918
347.047, 369.963
348.400, 267.039
349.753, 234.146
351.105, 241.285
352.457, 88.451
353.809, 5.654
355.161, 192.885
356.512, 120.145
357.864, 87.436
359.215, 34.754
360.566, 62.104
361.916, 269.479
363.267, 43.119
364.617, 154.311
365.967, 11.762
367.317, 139.244
368.667, 156.750
370.016, 34.285
371.366, 191.846
372.715, 149.432
374.064, 7.047
375.412, 104.686
376.761, 112.350
378.109, 269.809
379.457, 2.475
380.805, 135.271
382.152, 13.004
383.500, 10.350
384.847, 124.506
386.194, 29.199
387.541, 134.949
388.887, 159.240
390.233, 297.178
391.580, 215.143
392.926, 110.725
394.271, 228.705
395.617, 163.900
396.962, 371.941
398.307, 270.047
399.652, 368.178
400.997, 146.334
402.341, 224.520
403.686, 552.443
405.030, 400.682
406.374, 658.947
407.717, 667.238
409.061, 815.559
410.404, 1003.902
411.747, 1222.273
413.090, 1730.672
414.433, 2149.098
415.775, 2187.551
417.117, 2496.068
418.459, 2284.607
419.801, 2053.209
421.143, 1751.836
422.484, 1480.488
423.825, 1259.176
425.166, 1137.889
426.507, 1076.629
427.848, 1035.395
429.188, 1044.195
430.528, 943.020
431.868, 1051.869
433.208, 890.740
434.547, 909.635
435.887, 928.543
437.226, 747.490
438.565, 866.453
439.904, 605.689
441.242, 614.680
442.580, 595.188
443.918, 474.213
445.256, 392.031
446.594, 449.203
447.932, 390.367
449.269, 569.486
450.606, 468.586
451.943, 567.701
453.280, 486.836
454.616, 485.988
455.952, 453.992
457.288, 174.342
458.624, 373.551
459.960, 92.777
461.295, 102.023
462.631, 271.287
463.966, 20.572
465.300, 329.879
466.635, 89.205
467.969, 338.557
469.304, 447.930
470.638, 647.326
471.972, 816.748
473.305, 536.191
474.639, 885.656
475.972, 861.248
477.305, 1113.316
478.638, 1142.889
479.970, 1459.592
481.303, 1839.209
482.635, 2488.873
483.967, 2868.570
485.298, 3611.625
486.630, 4371.420
487.961, 4691.275
489.293, 4671.184
490.624, 4951.145
491.954, 4041.219
493.285, 3141.342
494.615, 2801.588
495.945, 1991.895
497.275, 1822.242
498.605, 1302.652
499.935, 1013.092
501.264, 933.596
502.593, 564.123
503.922, 774.670
505.251, 575.275
506.579, 595.896
507.908, 506.537
509.236, 467.195
510.564, 637.873
511.891, 278.568
513.219, 289.281
514.546, 500.012
515.873, 380.760
517.200, 561.521
518.527, 532.299
519.853, 843.094
521.180, 983.902
522.506, 994.727
523.832, 1124.980
525.157, 995.836
526.483, 1025.785
527.808, 1117.590
529.133, 938.488
530.458, 1069.402
531.783, 1020.330
533.107, 991.271
534.431, 842.229
535.756, 633.197
537.079, 714.180
538.403, 455.180
539.727, 465.844
541.050, 497.188
542.373, 428.225
543.696, 439.277
545.018, 460.361
546.341, 561.467
547.663, 292.596
548.985, 573.754
550.307, 374.994
551.629, 406.174
552.950, 397.377
554.271, 188.590
555.592, 509.877
556.913, 501.125
558.234, 452.570
559.554, 973.902
560.875, 675.182
562.195, 1076.471
563.514, 1597.770
564.834, 1469.080
566.154, 1990.398
567.473, 2091.727
568.792, 2433.061
570.111, 2404.404
571.429, 2005.826
572.748, 1747.188
574.066, 1418.557
575.384, 1188.404
576.702, 869.789
578.019, 658.436
579.337, 679.834
580.654, 331.566
581.971, 594.848
583.288, 216.260
584.605, 248.039
585.921, 239.461
587.237, 352.867
588.553, 354.398
589.869, 335.834
591.185, 427.273
592.500, 468.719
593.815, 400.332
595.130, 636.934
596.445, 368.387
597.760, 10.156
599.074, 281.299
600.389, 47.090
601.703, 165.809
603.016, 182.744
604.330, 171.369
605.644, 59.688
606.957, 1.598
608.270, 12.455
609.583, 124.707
610.895, 36.553
612.208, 107.840
613.520, 118.285
614.832, 139.145
616.144, 253.553
617.455, 225.248
618.767, 277.240
620.078, 318.344
621.389, 90.127
622.700, 451.418
624.011, 372.705
625.321, 384.275
626.631, 165.561
627.941, 307.145
629.251, 58.969
630.561, 30.252
631.870, 181.811
633.180, 119.006
634.489, 57.785
635.798, 24.580
637.106, 133.314
638.415, 218.129
639.723, 254.834
641.031, 129.104
642.339, 64.533
643.647, 272.266
644.954, 140.605
646.261, 128.400
647.568, 196.287
648.875, 451.795
650.182, 503.016
651.488, 238.090
652.795, 499.805
654.101, 241.547
655.407, 339.391
656.712, 300.686
658.018, 464.352
659.323, 336.002
660.628, 626.959
661.933, 337.227
663.238, 688.158
664.542, 659.076
665.847, 699.984
667.151, 931.580
668.455, 822.672
669.758, 1403.537
671.062, 1274.451
672.365, 1665.287
673.668, 1826.113
674.971, 1786.922
676.274, 1987.717
677.577, 1648.498
678.879, 1419.266
680.181, 1240.016
681.483, 870.758
682.785, 971.482
684.086, 702.191
685.388, 442.883
686.689, 793.564
687.990, 404.227
689.290, 374.875
690.591, 535.510
691.891, 186.127
693.192, 576.727
694.491, 287.311
695.791, 137.879
697.091, 288.432
698.390, 228.969
699.689, 139.488
700.988, 209.992
702.287, 250.479
703.586, 170.949
704.884, 261.402
706.182, 101.838
707.480, 152.254
708.778, 182.652
710.076, 263.033
711.373, 113.400
712.670, 175.574
713.968, 84.072
715.264, 114.379
716.561, 284.670
717.857, 174.943
719.154, 545.199
720.450, 205.434
721.746, 305.652
723.041, 295.854
724.337, 496.033
725.632, 416.195
726.927, 126.340
728.222, 346.465
729.517, 496.570
730.811, 83.342
732.105, 476.652
733.400, 63.373
734.693, 266.518
735.987, 76.395
737.281, 26.246
738.574, 256.057
739.867, 75.854
741.160, 305.625
742.453, 25.377
743.745, 135.092
745.038, 234.785
746.330, 264.461
747.622, 224.113
748.913, 123.750
750.205, 26.637
751.496, 372.910
752.788, 252.439
754.079, 371.686
755.369, 131.172
756.660, 39.135
757.950, 368.568
759.241, 189.201
760.531, 70.479
761.820, 167.754
763.110, 197.070
764.399, 56.402
765.689, 55.711
766.978, 304.994
768.267, 94.260
769.555, 23.502
770.844, 342.711
772.132, 71.900
773.420, 51.066
774.708, 400.207
775.996, 89.328
777.283, 308.426
778.570, 167.506
779.857, 96.566
781.144, 295.604
782.431, 94.625
783.718, 63.621
785.004, 202.594
786.290, 101.547
787.576, 79.521
788.862, 323.250
790.147, 29.549
791.433, 38.342
792.718, 79.998
794.003, 51.256
795.288, 12.578
796.572, 45.980
797.857, 55.533
799.141, 80.195
800.425, 71.783
801.709, 73.445
802.992, 195.188
804.276, 112.930
805.559, 188.973
806.842, 38.984
808.125, 36.922
809.407, 75.170
810.690, 82.664
811.972, 9.521
813.254, 38.248
814.536, 255.992
815.818, 116.277
817.099, 381.354
818.381, 178.969
819.662, 246.564
820.943, 34.145
822.223, 101.701
823.504, 289.242
824.784, 136.764
826.065, 524.268
827.345, 201.758
828.624, 359.230
829.904, 656.688
831.183, 294.129
832.462, 251.553
833.741, 438.961
835.020, 246.371
836.299, 603.764
837.577, 431.139
838.856, 348.533
840.134, 315.910
841.412, 252.404
842.689, 800.621
843.967, 347.953
845.244, 465.270
846.521, 782.574
847.798, 309.861
849.075, 647.139
850.351, 204.400
851.628, 261.648
852.904, 658.879
854.180, 306.102
855.455, 803.312
856.731, 380.504
858.006, 527.684
859.281, 844.855
860.556, 601.941
861.831, 1079.082
863.106, 866.250
864.380, 1113.406
865.655, 1550.500
866.929, 1557.637
868.202, 1474.570
869.476, 2081.617
870.750, 1539.117
872.023, 2076.199
873.296, 1403.277
874.569, 1660.348
875.842, 1247.406
877.114, 1634.445
878.386, 1441.484
879.658, 1398.539
880.930, 2215.516
882.202, 1872.555
883.474, 1799.578
884.745, 1628.121
886.016, 1588.285
887.287, 1514.863
888.558, 1601.852
889.829, 1528.496
891.099, 1483.594
892.369, 1370.551
893.639, 947.141
894.909, 1044.082
896.179, 799.039
897.448, 905.863
898.718, 1082.777
899.987, 629.684
901.256, 1126.574
902.524, 1123.293
903.793, 755.023
905.061, 1291.887
906.329, 978.750
907.597, 725.602
908.865, 1132.285
910.133, 767.672
911.400, 1204.500
912.667, 741.352
913.934, 1387.855
915.201, 1374.734
916.468, 1101.605
917.734, 1437.930
919.001, 1074.227
920.267, 1411.070
921.532, 1447.645
922.798, 1352.895
924.064, 1359.715
925.329, 1656.125
926.594, 1362.227
927.859, 1809.027
929.124, 1405.512
930.388, 1972.293
931.653, 1339.070
932.917, 1535.559
934.181, 1462.328
935.445, 1448.797
936.708, 1095.012
937.972, 991.766
939.235, 1198.246
940.498, 1037.094
941.761, 1283.875
943.024, 1079.492
944.286, 1025.367
945.548, 841.871
946.811, 963.113
948.072, 1076.785
949.334, 618.359
950.596, 1099.477
951.857, 779.051
953.118, 739.164
954.379, 999.184
955.640, 821.574
956.901, 1008.246
958.161, 741.070
959.421, 887.242
960.681, 1133.383
961.941, 783.418
963.201, 939.992
964.460, 884.191
965.720, 530.406
966.979, 927.301
968.238, 904.879
969.496, 1221.785
970.755, 878.695
972.013, 1575.617
973.272, 1561.840
974.529, 1418.559
975.787, 1975.500
977.045, 2412.637
978.302, 2329.594
979.560, 3016.559
980.817, 2423.531
982.073, 2660.516
983.330, 2687.512
984.587, 2104.512
985.843, 2624.719
987.099, 1521.738
988.355, 1368.770
989.611, 1383.121
990.866, 860.176
992.122, 907.238
993.377, 874.316
994.632, 471.406
995.887, 708.504
997.141, 585.641
998.396, 622.770
999.650, 449.910
1000.904, 207.254
1002.158, 554.719
1003.412, 341.902
1004.665, 199.109
1005.918, 476.324
1007.172, 143.566
1008.425, 10.820
1009.677, 528.094
1010.930, 5.387
1012.182, 322.691
1013.434, 208.969
1014.687, 216.312
1015.938, 253.840
1017.190, 451.227
1018.441, 108.695
1019.693, 386.129
1020.944, 26.422
1022.195, 471.055
1023.445, 189.316
1024.696, 226.836
1025.946, 524.344
1027.197, 191.727
1028.446, 89.133
1029.696, 414.547
1030.946, 81.996
1032.195, 599.461
1033.445, 217.066
1034.694, 574.562
1035.942, 302.121
1037.191, 329.703
1038.440, 657.332
1039.688, 554.750
1040.936, 462.176
1042.184, 1149.613
1043.432, 727.367
1044.679, 814.789
1045.927, 1162.211
1047.174, 569.352
1048.421, 1506.473
1049.668, 1023.551
1050.914, 820.594
1052.161, 1417.602
1053.407, 1434.984
1054.653, 1341.898
1055.899, 1709.496
1057.145, 1646.332
1058.391, 2353.145
1059.636, 2279.871
1060.881, 2846.422
1062.126, 3582.832
1063.371, 3699.145
1064.615, 5046.215
1065.860, 5533.285
1067.104, 6480.371
1068.348, 6997.477
1069.592, 7004.594
1070.836, 7311.719
1072.079, 6778.859
1073.323, 5716.008
1074.566, 4943.160
1075.809, 4370.324
1077.052, 3777.539
1078.294, 3664.809
1079.537, 2832.102
1080.779, 3029.477
1082.021, 2906.961
1083.263, 2874.594
1084.504, 3282.414
1085.746, 3330.406
1086.987, 3678.496
1088.228, 4396.691
1089.469, 4364.945
1090.710, 4973.281
1091.951, 4081.695
1093.191, 3400.145
1094.431, 3638.629
1095.671, 2127.141
1096.911, 2035.684
1098.151, 1684.262
1099.390, 1442.855
1100.630, 1031.461
1101.869, 880.012
1103.108, 778.914
1104.346, 647.207
1105.585, 755.855
1106.823, 784.535
1108.062, 823.246
1109.300, 331.984
1110.537, 750.758
1111.775, 439.562
1113.013, 328.344
1114.250, 537.098
1115.487, 195.887
1116.724, 524.078
1117.961, 162.914
1119.197, 301.766
1120.434, 640.656
1121.670, 79.469
1122.906, 318.312
1124.142, 347.184
1125.377, 16.086
1126.613, 515.023
1127.848, 164.000
1129.083, 233.008
1130.318, 282.062
1131.553, 201.176
1132.787, 230.336
1134.022, 50.445
1135.256, 218.828
1136.490, 468.176
1137.724, 112.387
1138.957, 267.133
1140.191, 316.727
1141.424, 186.398
1142.657, 256.160
1143.890, 216.004
1145.123, 105.945
1146.355, 245.977
1147.588, 396.098
1148.820, 76.301
1150.052, 56.582
1151.284, 446.930
1152.516, 207.348
1153.747, 197.840
1154.978, 198.398
1156.209, 329.031
1157.440, 169.742
1158.671, 420.539
1159.902, 671.418
1161.132, 107.613
1162.362, 503.449
1163.592, 124.609
1164.822, 275.891
1166.052, 157.285
1167.281, 318.797
1168.511, 239.590
1169.740, 211.348
1170.969, 73.242
1172.197, 475.285
1173.426, 184.957
1174.654, 257.277
1175.883, 328.312
1177.111, 80.590
1178.338, 240.453
1179.566, 421.645
1180.794, 160.555
1182.021, 451.707
1183.248, 482.863
1184.475, 374.008
1185.702, 475.129
1186.928, 401.379
1188.155, 578.352
1189.381, 395.430
1190.607, 102.340
1191.833, 402.559
1193.059, 259.203
1194.284, 255.609
1195.509, 556.312
1196.735, 143.996
1197.960, 170.305
1199.184, 536.227
1200.409, 12.367
1201.633, 440.918
1202.858, 4.770
1204.082, 453.043
1205.306, 490.895
1206.529, 255.781
1207.753, 287.805
1208.976, 201.438
1210.199, 0.000
##END=



