##NAMES=Zoisite
##RRUFFID=R050038
##IDEAL CHEMISTRY=Ca_2_Al_3_(Si_2_O_7_)(SiO_4_)O(OH)
##LOCALITY=Elf Shooting Creek, Clay County, North Carolina, USA
##OWNER=RRUFF
##SOURCE=University of Arizona Mineral Museum
##DESCRIPTION=Tan colored fragments of single crystals
##STATUS=The identification of this mineral has been confirmed by X-ray diffraction and chemical analysis
##URL=rruff.info/R050038
##MEASURED CHEMISTRY=(Ca_.998_Na_.002_)_2_(Al_.982_Fe^3+^_.018_)_3_(Si_.982_Fe^3+^_.018_)_3_O_12_(OH)
##PIN_ID=M00498
##ORIENTATION=Laser parallel to c* (0 0 1). Fiducial mark perpendicular to laser is parallel to a [1 0 0]
103.843, 0.000
105.240, 7.559
106.637, 62.857
108.033, 546.472
109.429, 2380.322
110.825, 3616.468
112.220, 2952.717
113.616, 2696.852
115.011, 2914.910
116.406, 2814.203
117.800, 2317.863
119.195, 2008.305
120.589, 1724.147
121.983, 1551.040
123.377, 1226.486
124.770, 997.841
126.163, 983.989
127.556, 926.163
128.949, 971.991
130.342, 1012.725
131.734, 901.827
133.126, 923.534
134.518, 1042.852
135.909, 1043.832
137.301, 1194.481
138.692, 1169.119
140.083, 1249.322
141.473, 1458.060
142.864, 1554.844
144.254, 1537.089
145.644, 1550.279
147.034, 1546.723
148.423, 1314.380
149.812, 985.310
151.201, 928.191
152.590, 651.800
153.979, 435.435
155.367, 238.628
156.755, 148.674
158.143, 51.828
159.530, 29.739
160.918, 20.428
162.305, 29.212
163.692, 40.420
165.078, 52.883
166.465, 55.960
167.851, 190.627
169.237, 204.268
170.623, 399.476
172.008, 323.691
173.393, 405.896
174.778, 463.692
176.163, 481.009
177.548, 406.409
178.932, 379.312
180.316, 383.972
181.700, 518.460
183.083, 534.611
184.467, 630.172
185.850, 622.695
187.233, 754.356
188.616, 725.415
189.998, 794.813
191.380, 576.417
192.762, 603.534
194.144, 490.313
195.525, 373.613
196.907, 358.714
198.288, 239.565
199.669, 215.312
201.049, 123.247
202.429, 180.944
203.810, 247.771
205.189, 314.910
206.569, 414.793
207.949, 553.367
209.328, 741.811
210.707, 839.394
212.085, 763.614
213.464, 716.040
214.842, 571.633
216.220, 465.019
217.598, 209.031
218.976, 148.750
220.353, 73.209
221.730, 15.590
223.107, 50.633
224.483, 207.923
225.860, 124.456
227.236, 187.198
228.612, 121.816
229.988, 168.216
231.363, 209.677
232.738, 186.315
234.113, 154.951
235.488, 134.601
236.863, 149.706
238.237, 62.324
239.611, 23.357
240.985, 21.067
242.359, 19.362
243.732, 3.700
245.105, 111.158
246.478, 111.244
247.851, 226.921
249.223, 272.464
250.595, 385.531
251.967, 462.871
253.339, 600.908
254.711, 837.496
256.082, 947.129
257.453, 1137.004
258.824, 1203.401
260.195, 1062.410
261.565, 1018.330
262.935, 907.186
264.305, 808.992
265.675, 678.751
267.044, 617.458
268.414, 612.103
269.783, 618.004
271.151, 609.717
272.520, 734.670
273.888, 859.462
275.256, 737.992
276.624, 921.198
277.992, 828.033
279.359, 950.454
280.726, 912.446
282.093, 773.122
283.460, 659.583
284.827, 612.496
286.193, 383.227
287.559, 357.965
288.925, 278.199
290.290, 236.891
291.656, 205.900
293.021, 146.432
294.386, 171.552
295.750, 220.322
297.115, 278.966
298.479, 397.818
299.843, 365.975
301.207, 365.422
302.570, 501.753
303.933, 728.437
305.296, 800.614
306.659, 883.292
308.022, 1028.522
309.384, 1022.367
310.746, 921.865
312.108, 799.042
313.470, 638.893
314.831, 583.399
316.193, 496.541
317.554, 377.276
318.914, 405.715
320.275, 414.972
321.635, 438.485
322.995, 505.905
324.355, 576.890
325.715, 693.055
327.074, 842.107
328.434, 1033.360
329.792, 1280.744
331.151, 1500.493
332.510, 1590.147
333.868, 1751.492
335.226, 1792.139
336.584, 1795.358
337.941, 1844.054
339.299, 1970.977
340.656, 2119.912
342.013, 2144.142
343.370, 2172.092
344.726, 2100.056
346.082, 1840.130
347.438, 1511.326
348.794, 1242.966
350.150, 1040.519
351.505, 787.565
352.860, 604.433
354.215, 574.538
355.570, 426.676
356.924, 330.874
358.278, 239.436
359.632, 288.952
360.986, 239.262
362.339, 202.199
363.693, 248.720
365.046, 179.368
366.399, 262.204
367.751, 181.952
369.104, 127.384
370.456, 78.602
371.808, 57.574
373.159, 44.253
374.511, 6.251
375.862, 17.832
377.213, 8.881
378.564, 18.287
379.914, 2.784
381.265, 48.541
382.615, 125.397
383.965, 199.175
385.315, 275.381
386.664, 407.085
388.013, 542.969
389.362, 692.146
390.711, 776.445
392.060, 843.907
393.408, 856.525
394.756, 717.584
396.104, 554.159
397.451, 389.743
398.799, 310.647
400.146, 100.667
401.493, 45.200
402.840, 109.215
404.186, 77.396
405.533, 176.691
406.879, 222.462
408.225, 332.530
409.570, 385.606
410.916, 484.006
412.261, 768.793
413.606, 1010.398
414.951, 1119.319
416.295, 1371.803
417.639, 1497.262
418.983, 1513.168
420.327, 1416.234
421.671, 1352.290
423.014, 1109.342
424.357, 1035.382
425.700, 946.179
427.043, 1001.591
428.386, 926.483
429.728, 923.151
431.070, 1001.826
432.412, 832.426
433.753, 819.887
435.095, 756.753
436.436, 784.022
437.777, 590.659
439.118, 541.945
440.458, 495.719
441.798, 450.886
443.138, 326.774
444.478, 264.168
445.818, 273.194
447.157, 188.550
448.496, 295.205
449.835, 286.380
451.174, 289.971
452.513, 341.043
453.851, 343.757
455.189, 302.875
456.527, 249.111
457.864, 121.661
459.202, 161.608
460.539, 150.980
461.876, 163.132
463.212, 283.198
464.549, 393.760
465.885, 456.200
467.221, 636.874
468.557, 770.827
469.893, 1063.071
471.228, 1357.250
472.563, 1434.182
473.898, 1700.542
475.233, 1688.177
476.567, 2033.783
477.902, 2235.869
479.236, 2551.781
480.570, 3073.671
481.903, 3655.749
483.237, 4394.726
484.570, 4898.830
485.903, 5977.043
487.235, 6436.054
488.568, 6765.276
489.900, 6674.881
491.232, 5984.517
492.564, 5174.140
493.896, 4306.775
495.227, 3366.413
496.558, 2679.053
497.889, 2101.695
499.220, 1743.348
500.551, 1329.994
501.881, 1108.642
503.211, 981.278
504.541, 838.911
505.870, 778.536
507.200, 647.145
508.529, 571.735
509.858, 529.307
511.187, 508.860
512.515, 496.152
513.844, 534.674
515.172, 592.067
516.500, 611.841
517.827, 695.213
519.155, 876.206
520.482, 1013.413
521.809, 1101.422
523.136, 1162.295
524.462, 1273.383
525.789, 1344.216
527.115, 1221.421
528.441, 1440.308
529.766, 1747.967
531.092, 1555.239
532.417, 1313.353
533.742, 1292.765
535.067, 1033.848
536.391, 1058.904
537.716, 664.420
539.040, 815.758
540.364, 706.496
541.688, 605.849
543.011, 883.946
544.334, 731.630
545.657, 777.597
546.980, 707.728
548.303, 737.190
549.625, 744.530
550.947, 710.839
552.269, 773.497
553.591, 708.151
554.913, 923.037
556.234, 931.996
557.555, 1048.427
558.876, 1237.484
560.197, 1362.282
561.517, 1681.828
562.837, 1989.777
564.157, 2259.544
565.477, 2671.900
566.797, 3070.629
568.116, 3332.637
569.435, 3328.115
570.754, 3058.702
572.073, 2712.329
573.391, 2324.008
574.709, 1855.613
576.027, 1563.979
577.345, 1273.729
578.663, 938.225
579.980, 774.380
581.297, 616.815
582.614, 544.583
583.931, 442.430
585.248, 482.705
586.564, 412.985
587.880, 456.844
589.196, 471.919
590.511, 668.921
591.827, 749.040
593.142, 841.888
594.457, 864.368
595.772, 775.893
597.086, 586.348
598.401, 438.759
599.715, 236.231
601.029, 191.163
602.343, 80.247
603.656, 26.047
604.969, 110.493
606.282, 20.851
607.595, 83.415
608.908, 110.147
610.220, 127.684
611.532, 156.412
612.844, 244.134
614.156, 391.771
615.468, 657.201
616.779, 739.114
618.090, 839.207
619.401, 953.266
620.712, 936.387
622.022, 1032.023
623.332, 951.730
624.642, 831.430
625.952, 760.119
627.262, 662.796
628.571, 451.522
629.880, 380.174
631.189, 257.816
632.498, 135.647
633.807, 58.387
635.115, 85.313
636.423, 0.858
637.731, 23.537
639.039, 6.521
640.346, 18.867
641.653, 42.241
642.960, 99.520
644.267, 30.608
645.574, 136.827
646.880, 213.592
648.186, 277.251
649.492, 357.670
650.798, 384.859
652.103, 421.681
653.409, 394.462
654.714, 391.962
656.019, 479.920
657.323, 408.769
658.628, 515.342
659.932, 449.271
661.236, 452.559
662.540, 501.082
663.843, 502.688
665.147, 607.073
666.450, 779.895
667.753, 844.467
669.056, 1015.002
670.358, 1167.292
671.660, 1495.572
672.963, 1666.841
674.264, 2011.102
675.566, 1989.356
676.868, 2006.605
678.169, 1877.849
679.470, 1547.086
680.771, 1365.319
682.071, 1156.546
683.372, 947.769
684.672, 811.984
685.972, 711.194
687.271, 507.401
688.571, 489.604
689.870, 493.806
691.169, 275.006
692.468, 254.205
693.767, 168.403
695.065, 201.602
696.364, 210.801
697.662, 124.001
698.960, 82.196
700.257, 86.382
701.555, 9.441
702.852, 1.716
704.149, 26.856
705.446, 3.024
706.742, 1.071
708.038, 84.859
709.335, 5.852
710.631, 49.873
711.926, 9.940
713.222, 31.038
714.517, 97.172
715.812, 53.623
717.107, 51.597
718.402, 64.139
719.696, 31.143
720.990, 66.541
722.284, 36.205
723.578, 85.847
724.872, 32.468
726.165, 68.063
727.458, 57.634
728.751, 43.180
730.044, 58.700
731.336, 113.195
732.629, 17.667
733.921, 74.113
735.213, 38.466
736.504, 60.094
737.796, 12.783
739.087, 32.509
740.378, 73.282
741.669, 73.123
742.960, 98.031
744.250, 85.329
745.540, 68.034
746.830, 53.214
748.120, 13.401
749.410, 6.628
750.699, 15.109
751.988, 6.180
753.277, 30.495
754.566, 16.145
755.854, 135.767
757.143, 65.369
758.431, 69.740
759.719, 162.866
761.006, 99.328
762.294, 157.397
763.581, 109.711
764.868, 185.118
766.155, 160.575
767.442, 186.012
768.728, 225.430
770.014, 260.827
771.300, 259.206
772.586, 273.567
773.872, 276.527
775.157, 246.238
776.442, 262.546
777.727, 245.835
779.012, 220.104
780.297, 259.352
781.581, 230.508
782.865, 141.788
784.149, 187.976
785.433, 184.143
786.716, 107.290
787.999, 127.416
789.282, 6.262
790.565, 15.187
791.848, 7.288
793.130, 71.304
794.413, 19.688
795.695, 7.210
796.977, 26.168
798.258, 48.400
799.540, 33.997
800.821, 9.238
802.102, 89.519
803.382, 17.118
804.663, 82.274
805.943, 44.743
807.224, 44.271
808.504, 39.855
809.783, 63.496
811.063, 12.203
812.342, 41.953
813.621, 30.241
814.900, 3.588
816.179, 10.545
817.457, 79.649
818.736, 127.731
820.014, 30.796
821.292, 73.836
822.569, 77.856
823.847, 132.856
825.124, 186.851
826.401, 229.801
827.678, 306.747
828.954, 368.674
830.231, 401.583
831.507, 422.475
832.783, 470.350
834.059, 416.208
835.334, 461.049
836.610, 459.873
837.885, 564.683
839.160, 509.476
840.435, 634.250
841.709, 577.007
842.983, 733.747
844.258, 738.476
845.532, 766.188
846.805, 697.891
848.079, 786.578
849.352, 803.247
850.625, 901.898
851.898, 1068.353
853.171, 1123.622
854.443, 1331.892
855.715, 1525.466
856.988, 1727.326
858.259, 1876.297
859.531, 1954.000
860.803, 1980.792
862.074, 2047.276
863.345, 2087.815
864.616, 2262.187
865.886, 2458.509
867.157, 2675.804
868.427, 2909.256
869.697, 3143.210
870.967, 3255.259
872.236, 2978.229
873.506, 2773.303
874.775, 2457.269
876.044, 2273.095
877.313, 2055.118
878.581, 1889.906
879.849, 1876.831
881.118, 1825.704
882.386, 1874.504
883.653, 2010.359
884.921, 2067.432
886.188, 2106.094
887.455, 2092.979
888.722, 2111.905
889.989, 2093.235
891.255, 2072.614
892.522, 2036.041
893.788, 2043.723
895.054, 2030.513
896.319, 2053.291
897.585, 2085.405
898.850, 2152.933
900.115, 2240.616
901.380, 2346.906
902.645, 2494.549
903.909, 2625.779
905.174, 2755.750
906.438, 2873.396
907.701, 3013.960
908.965, 3087.038
910.229, 3165.818
911.492, 3285.881
912.755, 3450.855
914.018, 3563.708
915.280, 3841.861
916.543, 4136.813
917.805, 4351.980
919.067, 5017.135
920.329, 5342.292
921.590, 5877.444
922.852, 6152.592
924.113, 6647.736
925.374, 6582.875
926.635, 6218.008
927.895, 5773.138
929.156, 5338.263
930.416, 4473.383
931.676, 3958.499
932.936, 3508.611
934.195, 3016.719
935.454, 2729.763
936.714, 2512.863
937.973, 2292.959
939.231, 2134.854
940.490, 2079.832
941.748, 1993.611
943.006, 1812.766
944.264, 1799.780
945.522, 1623.526
946.780, 1645.819
948.037, 1569.602
949.294, 1435.507
950.551, 1279.078
951.808, 1288.513
953.064, 1198.390
954.320, 1260.361
955.577, 1194.560
956.832, 1097.976
958.088, 1089.745
959.344, 1125.543
960.599, 1089.609
961.854, 1170.204
963.109, 1040.896
964.364, 1044.852
965.618, 1043.450
966.872, 1090.675
968.127, 1152.538
969.380, 1155.538
970.634, 1339.631
971.888, 1496.274
973.141, 1626.021
974.394, 1991.078
975.647, 2052.227
976.900, 2356.378
978.152, 2676.534
979.404, 2890.694
980.656, 3017.886
981.908, 3079.055
983.160, 2909.227
984.411, 2886.963
985.663, 2400.144
986.914, 2185.354
988.165, 1907.275
989.415, 1551.470
990.666, 1328.672
991.916, 1125.013
993.166, 1007.093
994.416, 844.833
995.665, 760.094
996.915, 713.154
998.164, 606.440
999.413, 512.730
1000.662, 524.025
1001.911, 439.325
1003.159, 432.334
1004.407, 258.653
1005.655, 355.979
1006.903, 277.406
1008.151, 312.067
1009.398, 323.423
1010.646, 226.343
1011.893, 221.725
1013.139, 139.154
1014.386, 193.786
1015.633, 170.244
1016.879, 110.691
1018.125, 214.188
1019.371, 190.731
1020.616, 115.299
1021.862, 175.872
1023.107, 177.454
1024.352, 148.004
1025.597, 147.609
1026.842, 88.824
1028.086, 96.517
1029.330, 135.156
1030.574, 207.749
1031.818, 634.567
1033.062, 842.681
1034.305, 1018.508
1035.548, 763.190
1036.791, 291.955
1038.034, 416.335
1039.277, 405.067
1040.519, 581.756
1041.762, 514.573
1043.004, 720.436
1044.246, 685.414
1045.487, 678.407
1046.729, 780.329
1047.970, 744.673
1049.211, 732.247
1050.452, 797.378
1051.692, 804.875
1052.933, 801.915
1054.173, 925.465
1055.413, 1020.506
1056.653, 1149.808
1057.893, 1259.909
1059.132, 1504.967
1060.371, 1754.107
1061.610, 2252.383
1062.849, 2631.458
1064.088, 3050.542
1065.326, 3462.625
1066.565, 3778.756
1067.803, 4164.848
1069.041, 4390.943
1070.278, 4277.270
1071.516, 4099.452
1072.753, 3999.702
1073.990, 3305.979
1075.227, 3072.106
1076.464, 2738.237
1077.700, 2431.375
1078.936, 2289.529
1080.173, 2205.675
1081.408, 2240.824
1082.644, 2310.137
1083.880, 2475.318
1085.115, 2650.621
1086.350, 2931.788
1087.585, 3293.987
1088.820, 3460.161
1090.054, 3456.486
1091.288, 3352.696
1092.522, 3119.095
1093.756, 2643.555
1094.990, 2226.797
1096.224, 1830.061
1097.457, 1699.130
1098.690, 1348.610
1099.923, 1251.012
1101.156, 1003.416
1102.388, 790.833
1103.621, 743.419
1104.853, 625.931
1106.085, 613.332
1107.316, 519.721
1108.548, 418.219
1109.779, 426.789
1111.010, 368.244
1112.241, 326.849
1113.472, 267.869
1114.703, 247.363
1115.933, 257.991
1117.163, 269.803
1118.393, 219.316
1119.623, 193.835
1120.853, 194.021
1122.082, 119.731
1123.311, 165.556
1124.540, 180.130
1125.769, 81.877
1126.997, 193.624
1128.226, 1.699
1129.454, 114.093
1130.682, 65.616
1131.910, 25.800
1133.138, 118.833
1134.365, 1.631
1135.592, 29.797
1136.819, 116.036
1138.046, 9.413
1139.273, 122.286
1140.499, 75.044
1141.725, 44.032
1142.951, 85.274
1144.177, 46.141
1145.403, 128.936
1146.628, 59.519
1147.854, 27.094
1149.079, 90.720
1150.304, 41.188
1151.528, 16.238
1152.753, 33.897
1153.977, 3.859
1155.201, 11.311
1156.425, 28.516
1157.649, 16.768
1158.872, 31.729
1160.096, 50.534
1161.319, 5.020
1162.542, 45.503
1163.764, 38.791
1164.987, 21.688
1166.209, 52.354
1167.431, 20.146
1168.653, 53.679
1169.875, 52.562
1171.097, 52.129
1172.318, 48.182
1173.539, 10.464
1174.760, 12.975
1175.981, 28.449
1177.202, 16.091
1178.422, 0.412
1179.642, 4.887
1180.862, 3.699
1182.082, 52.996
1183.302, 30.802
1184.521, 23.805
1185.740, 75.729
1186.959, 8.634
1188.178, 46.738
1189.397, 41.183
1190.615, 21.281
1191.834, 25.477
1193.052, 57.391
1194.269, 15.078
1195.487, 17.021
1196.705, 30.252
1197.922, 30.705
1199.139, 132.509
1200.356, 14.303
1201.573, 124.604
1202.789, 10.602
1204.006, 57.777
1205.222, 114.635
1206.438, 52.750
1207.653, 22.583
1208.869, 72.632
1210.084, 72.440
1211.299, 108.235
1212.514, 65.018
1213.729, 88.092
1214.944, 124.850
1216.158, 30.181
1217.372, 68.912
1218.586, 49.717
1219.800, 47.421
1221.014, 107.310
1222.227, 120.177
1223.440, 137.271
1224.654, 84.141
1225.866, 97.293
1227.079, 132.027
1228.292, 51.861
1229.504, 86.826
1230.716, 59.016
1231.928, 94.784
1233.139, 87.489
1234.351, 113.015
1235.562, 60.794
1236.773, 91.326
1237.984, 48.849
1239.195, 38.622
1240.406, 92.114
1241.616, 89.595
1242.826, 10.455
1244.036, 45.911
1245.246, 5.356
1246.456, 75.868
1247.665, 76.274
1248.874, 44.716
1250.083, 65.124
1251.292, 99.484
1252.501, 117.897
1253.709, 88.231
1254.917, 76.667
1256.125, 114.974
1257.333, 79.268
1258.541, 14.105
1259.748, 151.221
1260.956, 84.441
1262.163, 42.675
1263.370, 151.813
1264.576, 114.933
1265.783, 1.638
1266.989, 74.708
1268.195, 47.783
1269.401, 108.917
1270.607, 67.897
1271.813, 68.961
1273.018, 85.870
1274.223, 58.731
1275.428, 125.810
1276.633, 109.663
1277.838, 95.945
1279.042, 119.915
1280.246, 48.656
1281.450, 46.651
1282.654, 20.355
1283.858, 43.008
1285.061, 64.640
1286.265, 8.672
1287.468, 79.621
1288.671, 100.894
1289.873, 29.409
1291.076, 95.051
1292.278, 96.511
1293.480, 83.931
1294.682, 2.330
1295.884, 165.014
1297.086, 69.370
1298.287, 19.680
1299.488, 93.876
1300.689, 38.827
1301.890, 51.067
1303.091, 6.272
1304.291, 43.096
1305.491, 111.041
1306.691, 90.964
1307.891, 25.942
1309.091, 93.150
1310.290, 26.813
1311.490, 35.186
1312.689, 76.145
1313.888, 29.098
1315.086, 128.026
1316.285, 115.981
1317.483, 104.232
1318.681, 80.120
1319.879, 69.880
1321.077, 71.679
1322.275, 56.491
1323.472, 31.937
1324.669, 1.324
1325.866, 97.855
1327.063, 34.486
1328.260, 70.078
1329.456, 37.008
1330.653, 49.415
1331.849, 61.211
1333.045, 42.419
1334.240, 242.147
1335.436, 95.484
1336.631, 107.816
1337.826, 50.234
1339.021, 29.756
1340.216, 45.032
1341.411, 97.270
1342.605, 46.119
1343.799, 49.457
1344.993, 109.256
1346.187, 84.562
1347.381, 38.596
1348.574, 128.824
1349.767, 47.082
1350.961, 123.252
1352.153, 56.279
1353.346, 127.499
1354.539, 138.704
1355.731, 151.903
1356.923, 38.052
1358.115, 194.233
1359.307, 42.591
1360.498, 145.351
1361.690, 89.447
1362.881, 118.456
1364.072, 62.452
1365.263, 64.736
1366.453, 21.889
1367.644, 58.047
1368.834, 15.201
1370.024, 84.382
1371.214, 57.582
1372.404, 1.368
1373.593, 106.847
1374.783, 66.016
1375.972, 78.342
1377.161, 121.657
1378.349, 60.777
1379.538, 137.789
1380.726, 182.712
1381.915, 48.979
1383.103, 149.699
1384.290, 157.559
1385.478, 29.186
1386.665, 208.202
1387.853, 126.981
1389.040, 93.829
1390.227, 114.005
1391.413, 100.442
1392.600, 105.989
1393.786, 167.061
1394.972, 95.453
1396.158, 139.703
1397.344, 83.943
1398.530, 131.570
1399.715, 143.084
1400.900, 33.962
1402.085, 93.080
1403.270, 147.378
1404.455, 87.343
1405.639, 98.113
1406.824, 193.117
1408.008, 19.622
1409.192, 177.336
1410.375, 90.903
1411.559, 67.973
1412.742, 186.197
1413.925, 57.611
1415.108, 103.950
1416.291, 125.020
1417.474, 31.189
1418.656, 235.984
1419.839, 135.343
1421.021, 41.542
1422.202, 104.299
1423.384, 176.560
1424.566, 124.364
1425.747, 131.835
1426.928, 145.667
1428.109, 45.225
1429.290, 167.557
1430.470, 107.513
1431.651, 156.179
1432.831, 145.518
1434.011, 52.527
1435.191, 161.563
1436.370, 62.632
1437.550, 55.064
1438.729, 144.935
1439.908, 77.867
1441.087, 150.963
1442.266, 274.466
1443.444, 79.429
1444.623, 185.367
1445.801, 122.159
1446.979, 63.738
1448.157, 115.385
1449.334, 225.807
1450.512, 116.036
1451.689, 167.757
1452.866, 105.562
1454.043, 104.923
1455.220, 124.322
1456.396, 110.699
1457.573, 144.921
1458.749, 160.937
1459.925, 112.292
1461.100, 259.253
1462.276, 110.406
1463.451, 133.580
1464.627, 299.703
1465.802, 130.646
1466.977, 199.707
1468.151, 189.506
1469.326, 111.821
1470.500, 137.688
1471.674, 113.976
1472.848, 67.860
1474.022, 127.314
1475.195, 89.054
1476.369, 125.698
1477.542, 90.388
1478.715, 86.023
1479.888, 155.844
1481.061, 264.679
1482.233, 75.593
1483.405, 130.557
1484.577, 165.555
1485.749, 100.596
1486.921, 165.692
1488.093, 154.844
1489.264, 70.094
1490.435, 281.456
1491.606, 182.110
1492.777, 181.909
1493.948, 285.876
1495.118, 100.021
1496.288, 139.322
1497.459, 202.799
1498.628, 185.479
1499.798, 166.386
1500.968, 210.545
1502.137, 84.996
1503.306, 298.791
1504.475, 188.986
1505.644, 15.621
1506.813, 204.748
1507.981, 116.452
1509.149, 146.850
1510.318, 243.085
1511.485, 178.348
1512.653, 159.301
1513.821, 256.489
1514.988, 1.915
1516.155, 315.004
1517.322, 0.000
##END=



