##NAMES=Zoisite
##RRUFFID=R050041
##IDEAL CHEMISTRY=Ca_2_Al_3_(Si_2_O_7_)(SiO_4_)O(OH)
##LOCALITY=Franklin County, Conway, Massachussetts, USA
##OWNER=RRUFF
##SOURCE=University of Arizona Mineral Museum
##DESCRIPTION=Tan colored fragment
##STATUS=The identification of this mineral has been confirmed by X-ray diffraction and chemical analysis
##URL=rruff.info/R050041
##MEASURED CHEMISTRY=(Ca_.993_Mg_.004_Na_.002_Mn_.001_)_2_(Al_.980_Fe^3+^_.020_)_3_(Si_.986_Fe^3+^_.014_)_3_O_12_(OH)
##PIN_ID=L00503
##ORIENTATION=Laser parallel to -c* (0 0 -1). Fiducial mark perpendicular to laser is parallel to a [1 0 0]
108.444, 0.000
109.834, 230.777
111.223, 0.205
112.613, 314.635
114.002, 201.816
115.391, 474.055
116.780, 426.785
118.168, 578.359
119.556, 279.459
120.944, 200.783
122.332, 325.064
123.720, 203.559
125.107, 172.721
126.495, 202.492
127.882, 92.814
129.268, 43.645
130.655, 174.945
132.041, 13.328
133.427, 78.797
134.813, 201.285
136.199, 45.885
137.584, 148.844
138.970, 202.207
140.355, 115.852
141.740, 219.756
143.124, 173.916
144.509, 408.311
145.893, 82.936
147.277, 337.777
148.660, 302.842
150.044, 218.111
151.427, 393.568
152.810, 319.195
154.193, 44.980
155.576, 240.912
156.958, 87.006
158.341, 143.236
159.723, 49.590
161.105, 176.066
162.486, 42.660
163.867, 219.367
165.249, 66.188
166.630, 16.885
168.010, 120.146
169.391, 127.283
170.771, 234.520
172.151, 61.854
173.531, 269.285
174.911, 96.816
176.290, 254.467
177.669, 122.213
179.049, 310.047
180.427, 217.977
181.806, 236.000
183.184, 314.123
184.562, 302.344
185.940, 470.650
187.318, 359.037
188.696, 328.102
190.073, 476.646
191.450, 375.252
192.827, 293.871
194.204, 452.510
195.580, 261.170
196.956, 449.857
198.332, 238.574
199.708, 307.318
201.084, 166.094
202.459, 194.916
203.834, 114.482
205.209, 293.355
206.584, 222.256
207.958, 111.215
209.333, 270.232
210.707, 199.295
212.081, 388.398
213.454, 227.549
214.828, 156.744
216.201, 255.986
217.574, 145.277
218.947, 264.617
220.320, 164.002
221.692, 163.434
223.064, 152.912
224.436, 192.443
225.808, 162.023
227.179, 131.650
228.551, 221.328
229.922, 211.057
231.293, 200.832
232.663, 223.666
234.034, 199.129
235.404, 210.453
236.774, 180.424
238.144, 170.441
239.514, 181.721
240.883, 160.623
242.252, 262.166
243.621, 322.365
244.990, 402.611
246.359, 292.904
247.727, 343.248
249.095, 263.637
250.463, 374.129
251.831, 315.238
253.198, 315.838
254.566, 296.479
255.933, 337.170
257.299, 428.906
258.666, 469.678
260.033, 410.494
261.399, 361.357
262.765, 364.074
264.131, 353.217
265.496, 264.217
266.862, 165.260
268.227, 23.646
269.592, 127.494
270.957, 278.680
272.321, 79.910
273.685, 159.168
275.050, 288.572
276.413, 8.086
277.777, 437.703
279.141, 157.398
280.504, 257.148
281.867, 346.961
283.230, 356.832
284.592, 246.766
285.955, 336.715
287.317, 186.625
288.679, 266.607
290.041, 446.660
291.403, 336.779
292.764, 236.963
294.125, 147.209
295.486, 9.324
296.847, 278.979
298.207, 30.602
299.568, 229.873
300.928, 138.273
302.288, 188.846
303.647, 279.469
305.007, 300.141
306.366, 343.230
307.725, 274.000
309.084, 644.816
310.443, 545.680
311.801, 416.590
313.159, 547.545
314.517, 288.545
315.875, 419.619
317.233, 450.730
318.590, 451.887
319.947, 373.090
321.304, 124.330
322.661, 465.611
324.018, 186.932
325.374, 288.326
326.730, 249.760
328.086, 411.229
329.442, 422.736
330.797, 474.010
332.153, 555.609
333.508, 558.092
334.863, 558.910
336.217, 650.615
337.572, 652.352
338.926, 806.373
340.280, 1115.932
341.634, 1007.775
342.988, 1079.648
344.341, 1201.559
345.694, 923.502
347.047, 815.475
348.400, 687.482
349.753, 489.520
351.105, 481.590
352.457, 253.688
353.809, 245.814
355.161, 437.975
356.512, 210.164
357.864, 302.387
359.215, 154.637
360.566, 136.920
361.916, 449.236
363.267, 181.582
364.617, 223.955
365.967, 96.359
367.317, 278.791
368.667, 191.254
370.016, 23.748
371.366, 466.270
372.715, 61.176
374.064, 181.402
375.412, 94.008
376.761, 16.822
378.109, 329.490
379.457, 12.188
380.805, 184.914
382.152, 137.666
383.500, 30.449
384.847, 153.262
386.194, 66.104
387.541, 158.975
388.887, 67.623
390.233, 420.549
391.580, 113.504
392.926, 33.520
394.271, 511.355
395.617, 184.389
396.962, 267.469
398.307, 170.574
399.652, 303.725
400.997, 26.900
402.341, 49.896
403.686, 253.363
405.030, 186.641
406.374, 319.959
407.717, 423.305
409.061, 116.674
410.404, 200.072
411.747, 303.492
413.090, 376.951
414.433, 390.430
415.775, 123.934
417.117, 477.533
418.459, 201.152
419.801, 374.816
421.143, 408.504
422.484, 292.223
423.825, 156.047
425.166, 119.895
426.507, 143.766
427.848, 207.658
429.188, 251.572
430.528, 245.221
431.868, 309.186
433.208, 433.174
434.547, 370.150
435.887, 381.219
437.226, 295.289
438.565, 359.389
439.904, 313.516
441.242, 297.670
442.580, 262.727
443.918, 316.939
445.256, 261.180
446.594, 415.449
447.932, 19.744
449.269, 494.068
450.606, 8.420
451.943, 252.797
453.280, 217.203
454.616, 451.633
455.952, 73.910
457.288, 9.445
458.624, 325.051
459.960, 39.160
461.295, 163.707
462.631, 338.285
463.966, 162.895
465.300, 397.529
466.635, 87.811
467.969, 146.850
469.304, 261.535
470.638, 436.242
471.972, 511.660
473.305, 539.627
474.639, 521.195
475.972, 543.045
477.305, 557.867
478.638, 582.713
479.970, 714.734
481.303, 623.414
482.635, 998.340
483.967, 983.275
485.298, 1086.666
486.630, 1701.641
487.961, 1616.635
489.293, 1621.652
490.624, 1870.102
491.954, 1615.162
493.285, 1160.242
494.615, 1225.361
495.945, 770.480
497.275, 785.617
498.605, 500.799
499.935, 406.000
501.264, 451.221
502.593, 316.459
503.922, 371.717
505.251, 297.023
506.579, 282.350
507.908, 327.693
509.236, 183.055
510.564, 328.430
511.891, 203.828
513.219, 49.238
514.546, 484.668
515.873, 180.113
517.200, 255.574
518.527, 71.055
519.853, 376.547
521.180, 452.057
522.506, 387.584
523.832, 413.125
525.157, 419.166
526.483, 494.262
527.808, 429.854
529.133, 245.479
530.458, 251.119
531.783, 276.799
533.107, 111.365
534.431, 187.080
535.756, 7.191
537.079, 328.545
538.403, 4.297
539.727, 250.062
541.050, 115.840
542.373, 151.631
543.696, 177.432
545.018, 43.248
546.341, 199.076
547.663, 135.086
548.985, 400.711
550.307, 276.523
551.629, 112.346
552.950, 52.318
554.271, 123.510
555.592, 233.828
556.913, 319.678
558.234, 259.391
559.554, 495.260
560.875, 201.139
562.195, 494.055
563.514, 849.951
564.834, 409.418
566.154, 775.332
567.473, 761.256
568.792, 1067.188
570.111, 1233.127
571.429, 871.742
572.748, 1087.697
574.066, 623.656
575.384, 605.820
576.702, 651.793
578.019, 323.336
579.337, 409.320
580.654, 67.301
581.971, 412.416
583.288, 278.416
584.605, 124.475
585.921, 280.482
587.237, 166.492
588.553, 242.508
589.869, 369.660
591.185, 265.684
592.500, 381.707
593.815, 207.734
595.130, 593.764
596.445, 459.799
597.760, 245.834
599.074, 361.871
600.389, 2.090
601.703, 433.939
603.016, 139.973
604.330, 116.004
605.644, 122.039
606.957, 328.072
608.270, 284.109
609.583, 290.145
610.895, 126.182
612.208, 282.219
613.520, 128.256
614.832, 282.482
616.144, 138.404
617.455, 124.438
618.767, 360.475
620.078, 506.512
621.389, 183.912
622.700, 559.943
624.011, 195.975
625.321, 289.639
626.631, 105.666
627.941, 551.691
629.251, 7.717
630.561, 203.729
631.870, 79.742
633.180, 104.248
634.489, 81.697
635.798, 177.637
637.106, 4.398
638.415, 40.324
639.723, 36.248
641.031, 62.316
642.339, 121.770
643.647, 304.066
644.954, 199.898
646.261, 156.947
647.568, 37.227
648.875, 158.791
650.182, 414.574
651.488, 40.730
652.795, 216.730
654.101, 222.518
655.407, 284.277
656.712, 190.035
658.018, 196.350
659.323, 62.096
660.628, 167.799
661.933, 62.086
663.238, 347.812
664.542, 333.533
665.847, 349.246
667.151, 655.191
668.455, 421.451
669.758, 807.141
671.062, 682.963
672.365, 688.639
673.668, 1114.459
674.971, 1090.119
676.274, 935.771
677.577, 892.045
678.879, 707.680
680.181, 893.309
681.483, 350.320
682.785, 595.930
684.086, 431.531
685.388, 162.008
686.689, 557.613
687.990, 519.117
689.290, 314.676
690.591, 611.793
691.891, 377.434
693.192, 652.793
694.491, 118.316
695.791, 423.828
697.091, 429.387
698.390, 255.133
699.689, 130.625
700.988, 386.238
702.287, 201.711
703.586, 347.168
704.884, 286.898
706.182, 122.371
707.480, 257.844
708.778, 183.309
710.076, 156.895
711.373, 27.664
712.670, 627.727
713.968, 16.895
715.264, 138.438
716.561, 463.762
717.857, 80.930
719.154, 344.309
720.450, 10.469
721.746, 134.711
723.041, 149.875
724.337, 215.027
725.632, 340.172
726.927, 5.301
728.222, 350.410
729.517, 405.496
730.811, 209.418
732.105, 395.508
733.400, 39.574
734.693, 565.312
735.987, 20.180
737.281, 254.984
738.574, 259.680
739.867, 84.332
741.160, 358.969
742.453, 143.590
743.745, 308.203
745.038, 42.805
746.330, 177.383
747.622, 281.953
748.913, 426.504
750.205, 181.047
751.496, 305.570
752.788, 380.086
754.079, 234.586
755.369, 419.074
756.660, 372.680
757.950, 187.141
759.241, 391.586
760.531, 196.023
761.820, 270.449
763.110, 334.863
764.399, 419.258
765.689, 133.641
766.978, 288.008
768.267, 362.363
769.555, 296.707
770.844, 581.043
772.132, 375.363
773.420, 159.672
774.708, 613.969
775.996, 38.254
777.283, 392.512
778.570, 406.750
779.857, 410.977
781.144, 305.199
782.431, 359.406
783.718, 253.605
785.004, 265.750
786.290, 331.270
787.576, 265.418
788.862, 212.508
790.147, 200.344
791.433, 50.742
792.718, 213.891
794.003, 127.969
795.288, 92.012
796.572, 266.062
797.857, 241.656
799.141, 209.676
800.425, 29.688
801.709, 143.668
802.992, 74.227
804.276, 149.312
805.559, 62.125
806.842, 76.035
808.125, 119.949
809.407, 56.145
810.690, 297.695
811.972, 51.527
813.254, 285.336
814.536, 559.379
815.818, 96.832
817.099, 326.871
818.381, 240.578
819.662, 264.277
820.943, 77.961
822.223, 51.621
823.504, 395.266
824.784, 98.906
826.065, 302.535
827.345, 96.145
828.624, 229.734
829.904, 463.320
831.183, 46.863
832.462, 240.367
833.741, 443.852
835.020, 17.324
836.299, 470.777
837.577, 224.219
838.856, 42.359
840.134, 131.039
841.412, 59.473
842.689, 347.762
843.967, 11.090
845.244, 114.402
846.521, 417.699
847.798, 140.984
849.075, 444.262
850.351, 129.988
851.628, 83.457
852.904, 776.699
854.180, 109.926
855.455, 633.172
856.731, 216.387
858.006, 327.797
859.281, 751.012
860.556, 427.008
861.831, 900.207
863.106, 533.391
864.380, 616.613
865.655, 1105.309
866.929, 1008.473
868.202, 927.988
869.476, 1671.137
870.750, 1134.512
872.023, 1309.699
873.296, 902.824
874.569, 972.383
875.842, 605.488
877.114, 918.590
878.386, 341.723
879.658, 464.805
880.930, 707.984
882.202, 611.055
883.474, 364.121
884.745, 380.980
886.016, 634.031
887.287, 277.676
888.558, 560.715
889.829, 551.758
891.099, 535.672
892.369, 718.695
893.639, 361.664
894.909, 424.676
896.179, 477.684
897.448, 451.984
898.718, 743.859
899.987, 476.863
901.256, 679.859
902.524, 732.859
903.793, 595.859
905.061, 708.855
906.329, 721.859
907.597, 444.855
908.865, 1167.855
910.133, 660.859
911.400, 1063.863
912.667, 826.840
913.934, 1379.820
915.201, 1342.797
916.468, 1355.688
917.734, 1798.539
919.001, 1581.391
920.267, 2094.242
921.532, 2337.094
922.798, 2459.941
924.064, 2672.789
925.329, 3055.641
926.594, 2648.488
927.859, 2921.297
929.124, 2022.742
930.388, 2635.457
931.653, 1538.172
932.917, 1350.887
934.181, 1373.598
935.445, 1206.285
936.708, 818.965
937.972, 671.652
939.235, 754.336
940.498, 597.012
941.761, 1049.719
943.024, 632.418
944.286, 614.301
945.548, 837.008
946.811, 519.879
948.072, 812.438
949.334, 335.148
950.596, 907.902
951.857, 400.664
953.118, 622.219
954.379, 745.008
955.640, 368.094
956.901, 550.934
958.161, 483.418
959.421, 176.094
960.681, 909.180
961.941, 286.141
963.201, 739.148
964.460, 611.602
965.720, 44.680
966.979, 197.805
968.238, 332.613
969.496, 428.645
970.755, 212.223
972.013, 492.758
973.272, 455.035
974.529, 267.961
975.787, 740.859
977.045, 633.895
978.302, 506.270
979.560, 1277.812
980.817, 680.812
982.073, 638.531
983.330, 1115.047
984.587, 426.102
985.843, 1198.938
987.099, 411.703
988.355, 404.227
989.611, 516.859
990.866, 299.582
992.122, 342.250
993.377, 684.891
994.632, 287.543
995.887, 510.223
997.141, 382.910
998.396, 275.672
999.650, 138.465
1000.904, 58.750
1002.158, 36.637
1003.412, 136.797
1004.665, 229.738
1005.918, 82.668
1007.172, 175.727
1008.425, 151.109
1009.677, 552.059
1010.930, 64.781
1012.182, 308.391
1013.434, 381.566
1014.687, 84.738
1015.938, 97.918
1017.190, 361.102
1018.441, 44.285
1019.693, 697.477
1020.944, 40.672
1022.195, 243.875
1023.445, 447.086
1024.696, 240.305
1025.946, 563.543
1027.197, 146.797
1028.446, 90.070
1029.696, 653.355
1030.946, 63.348
1032.195, 559.965
1033.445, 273.305
1034.694, 426.656
1035.942, 450.031
1037.191, 116.578
1038.440, 406.848
1039.688, 460.281
1040.936, 173.742
1042.184, 837.262
1043.432, 350.848
1044.679, 373.984
1045.927, 857.703
1047.174, 28.574
1048.421, 925.199
1049.668, 559.004
1050.914, 312.859
1052.161, 1256.801
1053.407, 720.977
1054.653, 375.219
1055.899, 739.520
1057.145, 363.883
1058.391, 828.305
1059.636, 442.793
1060.881, 577.348
1062.126, 815.234
1063.371, 269.789
1064.615, 894.336
1065.860, 586.961
1067.104, 633.520
1068.348, 557.520
1069.592, 491.652
1070.836, 665.199
1072.079, 918.699
1073.323, 512.918
1074.566, 567.184
1075.809, 721.363
1077.052, 516.391
1078.294, 890.523
1079.537, 302.703
1080.779, 516.227
1082.021, 579.734
1083.263, 563.230
1084.504, 791.469
1085.746, 704.727
1086.987, 477.922
1088.228, 1041.027
1089.469, 584.020
1090.710, 1236.859
1091.951, 879.680
1093.191, 272.484
1094.431, 1076.352
1095.671, 80.363
1096.911, 574.379
1098.151, 538.344
1099.390, 512.527
1100.630, 377.652
1101.869, 343.652
1103.108, 323.059
1104.346, 27.227
1105.585, 334.887
1106.823, 383.297
1108.062, 442.617
1109.300, 130.859
1110.537, 542.234
1111.775, 465.039
1113.013, 260.371
1114.250, 455.109
1115.487, 246.945
1116.724, 234.418
1117.961, 3.758
1119.197, 274.418
1120.434, 0.000
##END=



