##NAMES=Zoisite
##RRUFFID=R050041
##IDEAL CHEMISTRY=Ca_2_Al_3_(Si_2_O_7_)(SiO_4_)O(OH)
##LOCALITY=Franklin County, Conway, Massachussetts, USA
##OWNER=RRUFF
##SOURCE=University of Arizona Mineral Museum
##DESCRIPTION=Tan colored fragment
##STATUS=The identification of this mineral has been confirmed by X-ray diffraction and chemical analysis
##URL=rruff.info/R050041
##MEASURED CHEMISTRY=(Ca_.993_Mg_.004_Na_.002_Mn_.001_)_2_(Al_.980_Fe^3+^_.020_)_3_(Si_.986_Fe^3+^_.014_)_3_O_12_(OH)
##PIN_ID=M00473
##ORIENTATION=Laser parallel to a* (1 0 0). Fiducial mark perpendicular to laser is parallel to b [0 1 0]
116.406, 0.000
117.800, 402.916
119.195, 828.034
120.589, 1192.088
121.983, 1269.017
123.377, 852.467
124.770, 556.421
126.163, 378.896
127.556, 247.918
128.949, 262.753
130.342, 6.957
131.734, 197.328
133.126, 74.190
134.518, 153.357
135.909, 194.596
137.301, 277.700
138.692, 392.481
140.083, 638.773
141.473, 746.775
142.864, 1277.844
144.254, 1557.599
145.644, 2001.691
147.034, 2292.805
148.423, 2514.959
149.812, 2278.035
151.201, 1862.019
152.590, 1356.842
153.979, 1012.433
155.367, 720.618
156.755, 605.677
158.143, 323.229
159.530, 221.326
160.918, 189.918
162.305, 128.960
163.692, 78.425
165.078, 81.707
166.465, 128.540
167.851, 30.854
169.237, 30.088
170.623, 88.646
172.008, 12.927
173.393, 45.210
174.778, 76.935
176.163, 184.314
177.548, 236.875
178.932, 141.521
180.316, 284.932
181.700, 268.965
183.083, 323.615
184.467, 428.791
185.850, 724.203
187.233, 989.738
188.616, 965.396
189.998, 1031.178
191.380, 1007.078
192.762, 977.322
194.144, 959.244
195.525, 875.508
196.907, 621.889
198.288, 528.387
199.669, 644.941
201.049, 331.410
202.429, 197.850
203.810, 304.287
205.189, 370.746
206.569, 397.242
207.949, 383.783
209.328, 650.385
210.707, 797.191
212.085, 774.113
213.464, 941.104
214.842, 928.160
216.220, 875.293
217.598, 702.500
218.976, 409.787
220.353, 487.158
221.730, 284.611
223.107, 282.152
224.483, 199.756
225.860, 207.441
227.236, 145.189
228.612, 133.018
229.988, 60.936
231.363, 68.939
232.738, 67.033
234.113, 74.791
235.488, 13.471
236.863, 81.818
238.237, 260.252
239.611, 31.232
240.985, 19.754
242.359, 198.371
243.732, 86.047
245.105, 332.121
246.478, 462.963
247.851, 323.982
249.223, 395.016
250.595, 474.250
251.967, 312.855
253.339, 681.396
254.711, 650.023
256.082, 888.732
257.453, 1197.529
258.824, 1426.389
260.195, 1415.330
261.565, 1324.348
262.935, 1373.447
264.305, 1332.625
265.675, 1217.580
267.044, 1001.207
268.414, 910.607
269.783, 860.078
271.151, 789.217
272.520, 689.230
273.888, 858.910
275.256, 918.660
276.624, 1158.480
277.992, 938.371
279.359, 1358.328
280.726, 1188.355
282.093, 1361.859
283.460, 1256.504
284.827, 1291.896
286.193, 1267.846
287.559, 1074.250
288.925, 901.027
290.290, 778.131
291.656, 715.521
293.021, 552.377
294.386, 461.064
295.750, 339.123
297.115, 427.408
298.479, 435.869
299.843, 324.488
301.207, 273.262
302.570, 481.426
303.933, 530.477
305.296, 672.648
306.659, 1021.988
308.022, 1341.350
309.384, 1610.783
310.746, 1870.305
312.108, 1879.938
313.470, 1769.672
314.831, 1679.504
316.193, 1299.484
317.554, 1059.555
318.914, 849.740
320.275, 580.021
321.635, 630.383
322.995, 380.850
324.355, 481.408
325.715, 592.059
327.074, 792.783
328.434, 933.588
329.792, 1172.861
331.151, 1523.805
332.510, 1554.371
333.868, 1975.445
335.226, 2104.807
336.584, 1936.002
337.941, 2006.527
339.299, 1897.846
340.656, 1759.199
342.013, 1550.611
343.370, 1692.070
344.726, 1583.586
346.082, 1775.150
347.438, 1416.764
348.794, 1278.426
350.150, 1110.133
351.505, 671.885
352.860, 453.680
354.215, 565.520
355.570, 257.402
356.924, 149.330
358.278, 61.301
359.632, 103.312
360.986, 175.365
362.339, 142.539
363.693, 40.434
365.046, 31.701
366.399, 293.877
367.751, 186.092
369.104, 141.650
370.456, 9.379
371.808, 87.074
373.159, 174.748
374.511, 2.420
375.862, 60.057
377.213, 127.670
378.564, 14.725
379.914, 12.844
381.265, 80.379
382.615, 77.896
383.965, 42.400
385.315, 102.822
386.664, 119.758
388.013, 252.375
389.362, 425.025
390.711, 467.729
392.060, 720.471
393.408, 853.258
394.756, 906.078
396.104, 778.934
397.451, 810.020
398.799, 602.984
400.146, 395.986
401.493, 309.021
402.840, 331.477
404.186, 264.553
405.533, 337.662
406.879, 520.764
408.225, 513.863
409.570, 476.941
410.916, 779.998
412.261, 1023.076
413.606, 1206.139
414.951, 1579.188
416.295, 1612.271
417.639, 2055.387
418.983, 2188.539
420.327, 2231.723
421.671, 2124.941
423.014, 2018.201
424.357, 1521.494
425.700, 1324.816
427.043, 1458.236
428.386, 1081.689
429.728, 1365.174
431.070, 1568.693
432.412, 1702.240
433.753, 1781.568
435.095, 1679.445
436.436, 1703.090
437.777, 1456.779
439.118, 1180.492
440.458, 1404.238
441.798, 968.012
443.138, 891.814
444.478, 915.674
445.818, 539.586
447.157, 463.547
448.496, 707.557
449.835, 351.607
451.174, 695.701
452.513, 449.838
453.851, 594.301
455.189, 613.842
456.527, 548.098
457.864, 552.387
459.202, 456.713
460.539, 61.076
461.876, 95.475
463.212, 160.100
464.549, 94.279
465.885, 31.311
467.221, 53.100
468.557, 327.539
469.893, 402.006
471.228, 676.502
472.563, 671.025
473.898, 755.574
475.233, 1190.182
476.567, 1397.596
477.902, 1552.236
479.236, 1602.879
480.570, 1899.748
481.903, 2474.473
483.237, 2875.344
484.570, 3453.688
485.903, 4801.742
487.235, 5507.863
488.568, 6704.395
489.900, 7679.711
491.232, 8094.789
492.564, 7829.891
493.896, 7625.021
495.227, 6170.188
496.558, 4995.383
497.889, 3990.660
499.220, 3045.965
500.551, 2321.312
501.881, 1836.699
503.211, 1462.104
504.541, 1177.555
505.870, 933.021
507.200, 668.502
508.529, 784.000
509.858, 509.512
511.187, 495.037
512.515, 450.584
513.844, 426.141
515.172, 491.713
516.500, 627.297
517.827, 492.895
519.155, 478.506
520.482, 784.127
521.809, 1019.764
523.136, 948.492
524.462, 1091.686
525.789, 1477.297
527.115, 1542.979
528.441, 1571.682
529.766, 1546.818
531.092, 1431.785
532.417, 1232.967
533.742, 1100.098
535.067, 924.775
536.391, 957.082
537.716, 676.346
539.040, 831.609
540.364, 505.879
541.688, 497.281
543.011, 454.018
544.334, 557.031
545.657, 421.418
546.980, 327.248
548.303, 623.088
549.625, 541.016
550.947, 468.814
552.269, 205.945
553.591, 351.814
554.913, 407.693
556.234, 413.635
557.555, 238.713
558.876, 664.922
560.197, 560.828
561.517, 643.896
562.837, 879.814
564.157, 835.740
565.477, 1171.668
566.797, 1347.598
568.116, 1933.533
569.435, 2239.473
570.754, 1995.416
572.073, 2561.363
573.391, 2187.312
574.709, 2063.369
576.027, 1829.326
577.345, 1276.039
578.663, 1042.004
579.980, 618.051
581.297, 438.854
582.614, 363.104
583.931, 269.074
585.248, 351.045
586.564, 517.314
587.880, 123.289
589.196, 550.875
590.511, 396.846
591.827, 455.326
593.142, 961.297
594.457, 1167.625
595.772, 1456.787
597.086, 1272.754
598.401, 1159.545
599.715, 905.504
601.029, 721.920
602.343, 258.303
603.656, 84.439
604.969, 80.756
606.282, 177.037
607.595, 112.973
608.908, 128.904
610.220, 136.311
611.532, 52.230
612.844, 61.285
614.156, 175.242
615.468, 281.092
616.779, 86.936
618.090, 344.551
619.401, 600.381
620.712, 566.199
622.022, 612.887
623.332, 408.693
624.642, 641.498
625.952, 517.207
627.262, 432.988
628.571, 398.760
629.880, 344.523
631.189, 250.281
632.498, 66.025
633.807, 188.238
635.115, 220.453
636.423, 72.781
637.731, 6.963
639.039, 119.811
640.346, 74.691
641.653, 24.637
642.960, 19.250
644.267, 19.369
645.574, 12.895
646.880, 58.215
648.186, 394.051
649.492, 209.633
650.798, 226.771
652.103, 555.850
653.409, 241.430
654.714, 492.777
656.019, 177.957
657.323, 430.250
658.628, 320.527
659.932, 425.656
661.236, 367.561
662.540, 532.650
663.843, 517.719
665.147, 472.768
666.450, 477.840
667.753, 566.348
669.056, 899.061
670.358, 854.029
671.660, 1038.980
672.963, 1313.910
674.264, 1958.818
675.566, 1853.711
676.868, 2218.578
678.169, 2363.424
679.470, 2048.250
680.771, 1793.084
682.071, 1477.908
683.372, 1332.713
684.672, 1107.496
685.972, 842.258
687.271, 697.027
688.571, 546.070
689.870, 706.535
691.169, 381.303
692.468, 376.053
693.767, 400.797
695.065, 235.547
696.364, 230.277
697.662, 434.992
698.960, 20.297
700.257, 284.365
701.555, 0.984
702.852, 283.631
704.149, 358.221
705.446, 42.789
706.742, 47.314
708.038, 71.797
709.335, 416.244
710.631, 160.666
711.926, 145.068
713.222, 80.559
714.517, 123.715
715.812, 187.959
717.107, 47.822
718.402, 376.309
719.696, 280.418
720.990, 304.502
722.284, 178.562
723.578, 472.596
724.872, 386.645
726.165, 330.668
727.458, 444.682
728.751, 318.674
730.044, 152.639
731.336, 396.576
732.629, 110.490
733.921, 524.371
735.213, 158.229
736.504, 22.059
737.796, 385.836
739.087, 219.586
740.378, 186.688
741.669, 146.875
742.960, 190.408
744.250, 73.918
745.540, 277.387
746.830, 40.828
748.120, 244.225
749.410, 147.592
750.699, 20.930
751.988, 284.213
753.277, 117.473
754.566, 210.697
755.854, 143.895
757.143, 147.062
758.431, 168.771
759.719, 153.311
761.006, 156.391
762.294, 269.439
763.581, 222.463
764.868, 85.461
766.155, 228.418
767.442, 141.068
768.728, 128.643
770.014, 351.512
771.300, 234.352
772.586, 67.168
773.872, 559.945
775.157, 272.691
776.442, 185.414
777.727, 348.148
779.012, 370.855
780.297, 323.559
781.581, 216.227
782.865, 348.875
784.149, 421.496
785.433, 394.090
786.716, 236.660
787.999, 399.172
789.282, 8.883
790.565, 91.344
791.848, 157.805
793.130, 78.031
794.413, 210.398
795.695, 183.383
796.977, 375.301
798.258, 5.734
799.540, 84.848
800.821, 185.586
802.102, 282.766
803.382, 139.035
804.663, 30.809
805.943, 17.457
807.224, 134.219
808.504, 214.133
809.783, 217.355
811.063, 71.180
812.342, 39.797
813.621, 391.516
814.900, 67.191
816.179, 234.016
817.457, 375.199
818.736, 306.367
820.014, 187.512
821.292, 198.629
822.569, 59.730
823.847, 230.797
825.124, 251.844
826.401, 262.867
827.678, 313.867
828.954, 404.852
830.231, 485.809
831.507, 296.750
832.783, 477.676
834.059, 308.578
835.334, 439.461
836.610, 670.324
837.885, 461.164
839.160, 611.988
840.435, 922.793
841.709, 643.574
842.983, 894.340
844.258, 885.078
845.532, 895.801
846.805, 566.551
848.079, 1047.270
849.352, 787.977
850.625, 518.664
851.898, 1059.332
853.171, 904.750
854.443, 1135.379
855.715, 1391.957
856.988, 1322.570
858.259, 1733.160
859.531, 2091.660
860.803, 1860.270
862.074, 2019.539
863.345, 1920.062
864.616, 2270.566
865.886, 2221.000
867.157, 2412.301
868.427, 2932.461
869.697, 2982.922
870.967, 3516.211
872.236, 3296.637
873.506, 3267.055
874.775, 2727.457
876.044, 2987.844
877.313, 2246.895
878.581, 2087.250
879.849, 2371.215
881.118, 1851.543
882.386, 2151.855
883.653, 1952.051
884.921, 2452.336
886.188, 2191.855
887.455, 2362.168
888.722, 2272.324
889.989, 2149.434
891.255, 2289.645
892.522, 2069.836
893.788, 2034.016
895.054, 1873.883
896.319, 1814.031
897.585, 1932.555
898.850, 1722.676
900.115, 1760.273
901.380, 2020.363
902.645, 1710.086
903.909, 2366.961
905.174, 2097.012
906.438, 2116.223
907.701, 2256.250
908.965, 2495.805
910.229, 2705.379
911.492, 2455.180
912.755, 2414.789
914.018, 2334.414
915.280, 2454.367
916.543, 2234.316
917.805, 2232.770
919.067, 2672.691
920.329, 2812.031
921.590, 3321.285
922.852, 3561.223
924.113, 4031.109
925.374, 4069.219
926.635, 4159.105
927.895, 4248.984
929.156, 4198.734
930.416, 3888.594
931.676, 3378.445
932.936, 3078.289
934.195, 2928.129
935.454, 2247.965
936.714, 2257.797
937.973, 1847.629
939.231, 1687.453
940.490, 1977.273
941.748, 1644.070
943.006, 1472.785
944.264, 1572.398
945.522, 1521.039
946.780, 1890.941
948.037, 1216.246
949.294, 1466.191
950.551, 1102.871
951.808, 1224.625
953.064, 1234.566
954.320, 1083.977
955.577, 833.621
956.832, 1161.699
958.088, 607.824
959.344, 1127.430
960.599, 1061.258
961.854, 1011.242
963.109, 714.090
964.364, 1058.945
965.618, 788.934
966.872, 1152.066
968.127, 971.969
969.380, 811.875
970.634, 1471.781
971.888, 1221.660
973.141, 1461.574
974.394, 1340.277
975.647, 1990.199
976.900, 2220.129
978.152, 2220.066
979.404, 2880.008
980.656, 2919.953
981.908, 3549.906
983.160, 3331.070
984.411, 3741.035
985.663, 3471.008
986.914, 2790.988
988.165, 2790.980
989.415, 2100.977
990.666, 1700.984
991.916, 1474.504
993.166, 1451.102
994.416, 991.203
995.665, 971.254
996.915, 970.871
998.164, 690.938
999.413, 671.020
1000.662, 671.113
1001.911, 871.215
1003.159, 571.328
1004.407, 401.477
1005.655, 206.172
1006.903, 46.590
1008.151, 33.223
1009.398, 197.016
1010.646, 67.258
1011.893, 258.012
1013.139, 298.301
1014.386, 358.617
1015.633, 410.051
1016.879, 267.812
1018.125, 510.816
1019.371, 23.320
1020.616, 43.754
1021.862, 114.906
1023.107, 25.414
1024.352, 436.207
1025.597, 126.543
1026.842, 183.109
1028.086, 497.219
1029.330, 102.285
1030.574, 147.922
1031.818, 388.129
1033.062, 108.445
1034.305, 318.645
1035.548, 79.031
1036.791, 9.105
1038.034, 609.133
1039.277, 199.309
1040.519, 589.293
1041.762, 489.238
1043.004, 569.172
1044.246, 859.137
1045.487, 469.059
1046.729, 888.941
1047.970, 998.820
1049.211, 818.730
1050.452, 1118.605
1051.692, 1319.309
1052.933, 838.414
1054.173, 1058.484
1055.413, 968.559
1056.653, 1468.641
1057.893, 1038.730
1059.132, 1528.824
1060.371, 1918.930
1061.610, 2209.047
1062.849, 2849.172
1064.088, 3129.316
1065.326, 3799.465
1066.565, 4399.621
1067.803, 5299.781
1069.041, 5609.945
1070.278, 6850.113
1071.516, 6250.293
1072.753, 6500.508
1073.990, 5550.742
1075.227, 4741.070
1076.464, 4371.488
1077.700, 3802.020
1078.936, 3322.773
1080.173, 3093.586
1081.408, 2714.523
1082.644, 2765.609
1083.880, 2656.809
1085.115, 2638.109
1086.350, 3369.438
1087.585, 3590.793
1088.820, 3592.195
1090.054, 4353.621
1091.288, 4235.082
1092.522, 4806.566
1093.756, 4288.066
1094.990, 3569.605
1096.224, 3361.172
1097.457, 2622.773
1098.690, 2154.406
1099.923, 1965.953
1101.156, 1317.527
1102.388, 1319.133
1103.621, 1260.746
1104.853, 1032.352
1106.085, 1243.988
1107.316, 655.648
1108.548, 887.332
1109.779, 529.035
1111.010, 360.734
1112.241, 782.445
1113.472, 254.188
1114.703, 381.031
1115.933, 556.289
1117.163, 257.812
1118.393, 639.363
1119.623, 140.832
1120.853, 222.453
1122.082, 724.109
1123.311, 265.816
1124.540, 347.566
1125.769, 239.367
1126.997, 341.211
1128.226, 223.109
1129.454, 385.070
1130.682, 32.910
1131.910, 259.160
1133.138, 61.293
1134.365, 283.496
1135.592, 65.762
1136.819, 498.098
1138.046, 340.508
1139.273, 432.984
1140.499, 55.516
1141.725, 58.102
1142.951, 620.734
1144.177, 156.598
1145.403, 786.117
1146.628, 208.859
1147.854, 141.652
1149.079, 324.477
1150.304, 97.340
1151.528, 460.250
1152.753, 66.801
1153.977, 46.199
1155.201, 419.242
1156.425, 142.336
1157.649, 435.707
1158.872, 19.590
1160.096, 463.590
1161.319, 417.715
1162.542, 1.961
1163.764, 146.348
1164.987, 550.863
1166.209, 9.684
1167.431, 654.934
1168.653, 29.688
1169.875, 254.586
1171.097, 88.934
1172.318, 283.344
1173.539, 306.328
1174.760, 339.273
1175.981, 82.156
1177.202, 514.223
1178.422, 165.156
1179.642, 72.219
1180.862, 521.984
1182.082, 41.930
1183.302, 371.020
1184.521, 389.707
1185.740, 29.738
1186.959, 614.723
1188.178, 185.871
1189.397, 270.082
1190.615, 171.016
1191.834, 80.266
1193.052, 381.238
1194.269, 135.832
1195.487, 61.055
1196.705, 152.586
1197.922, 1.137
1199.139, 0.000
##END=



