##NAMES=Zoisite
##RRUFFID=R050041
##IDEAL CHEMISTRY=Ca_2_Al_3_(Si_2_O_7_)(SiO_4_)O(OH)
##LOCALITY=Franklin County, Conway, Massachussetts, USA
##OWNER=RRUFF
##SOURCE=University of Arizona Mineral Museum
##DESCRIPTION=Tan colored fragment
##STATUS=The identification of this mineral has been confirmed by X-ray diffraction and chemical analysis
##URL=rruff.info/R050041
##MEASURED CHEMISTRY=(Ca_.993_Mg_.004_Na_.002_Mn_.001_)_2_(Al_.980_Fe^3+^_.020_)_3_(Si_.986_Fe^3+^_.014_)_3_O_12_(OH)
##PIN_ID=M00473
##ORIENTATION=Laser parallel to a* (1 0 0). Fiducial mark perpendicular to laser is parallel to b [0 1 0]
116.406, 0.000
117.800, 617.695
119.195, 1036.574
120.589, 1142.026
121.983, 1206.129
123.377, 832.142
124.770, 518.582
126.163, 265.506
127.556, 100.832
128.949, 133.055
130.342, 78.968
131.734, 183.879
133.126, 80.897
134.518, 91.571
135.909, 165.494
137.301, 240.176
138.692, 311.691
140.083, 573.365
141.473, 717.086
142.864, 982.639
144.254, 1339.844
145.644, 1558.549
147.034, 2078.621
148.423, 2229.947
149.812, 2202.502
151.201, 2006.328
152.590, 1491.363
153.979, 1197.486
155.367, 784.592
156.755, 832.590
158.143, 681.404
159.530, 720.945
160.918, 521.137
162.305, 551.920
163.692, 613.246
165.078, 455.074
166.465, 557.373
167.851, 550.113
169.237, 813.270
170.623, 696.818
172.008, 780.742
173.393, 675.020
174.778, 779.639
176.163, 794.582
177.548, 859.838
178.932, 925.422
180.316, 981.436
181.700, 1108.428
183.083, 1286.604
184.467, 1385.992
185.850, 1776.154
187.233, 1836.416
188.616, 2196.725
189.998, 2217.092
191.380, 2017.514
192.762, 2457.996
194.144, 2078.537
195.525, 1979.143
196.907, 1509.814
198.288, 1240.553
199.669, 1261.293
201.049, 1011.879
202.429, 832.377
203.810, 642.816
205.189, 623.234
206.569, 493.639
207.949, 474.049
209.328, 364.492
210.707, 615.008
212.085, 515.574
213.464, 516.199
214.842, 696.887
216.220, 557.641
217.598, 608.473
218.976, 489.379
220.353, 580.361
221.730, 471.426
223.107, 442.574
224.483, 373.809
225.860, 345.127
227.236, 346.531
228.612, 378.020
229.988, 299.596
231.363, 261.258
232.738, 353.006
234.113, 204.838
235.488, 246.758
236.863, 238.758
238.237, 300.842
239.611, 153.008
240.985, 257.279
242.359, 439.580
243.732, 151.408
245.105, 441.410
246.478, 322.605
247.851, 422.953
249.223, 519.123
250.595, 603.816
251.967, 706.182
253.339, 967.922
254.711, 983.934
256.082, 1325.354
257.453, 1446.867
258.824, 1628.473
260.195, 1690.320
261.565, 1452.105
262.935, 1323.979
264.305, 1255.938
265.675, 797.973
267.044, 740.084
268.414, 662.268
269.783, 664.521
271.151, 592.617
272.520, 409.244
273.888, 541.711
275.256, 384.250
276.624, 446.863
277.992, 519.541
279.359, 612.291
280.726, 655.109
282.093, 710.713
283.460, 747.588
284.827, 745.301
286.193, 573.631
287.559, 522.492
288.925, 551.686
290.290, 501.303
291.656, 561.295
293.021, 301.619
294.386, 442.264
295.750, 221.936
297.115, 263.109
298.479, 354.516
299.843, 496.137
301.207, 477.959
302.570, 711.836
303.933, 984.023
305.296, 1206.377
306.659, 1798.885
308.022, 2331.543
309.384, 3054.338
310.746, 3487.266
312.108, 3760.322
313.470, 3443.500
314.831, 3236.791
316.193, 2640.193
317.554, 2053.699
318.914, 1737.322
320.275, 1301.045
321.635, 1214.855
322.995, 1028.754
324.355, 892.750
325.715, 896.854
327.074, 881.035
328.434, 1025.301
329.792, 1169.641
331.151, 1194.053
332.510, 1432.697
333.868, 1623.092
335.226, 1907.711
336.584, 2152.400
337.941, 2527.150
339.299, 2991.963
340.656, 3736.836
342.013, 4201.771
343.370, 4956.760
344.726, 5321.809
346.082, 5536.908
347.438, 4902.057
348.794, 4327.246
350.150, 3282.473
351.505, 2517.738
352.860, 1933.043
354.215, 1508.385
355.570, 1083.764
356.924, 839.180
358.278, 484.633
359.632, 360.123
360.986, 194.471
362.339, 1.213
363.693, 6.809
365.046, 172.434
366.399, 98.098
367.751, 103.799
369.104, 140.459
370.456, 44.715
371.808, 208.941
373.159, 153.184
374.511, 127.424
375.862, 261.654
377.213, 165.908
378.564, 20.162
379.914, 174.393
381.265, 318.627
382.615, 182.898
383.965, 147.180
385.315, 161.457
386.664, 185.719
388.013, 114.855
389.362, 54.238
390.711, 51.516
392.060, 97.320
393.408, 273.205
394.756, 269.125
396.104, 365.080
397.451, 321.070
398.799, 327.104
400.146, 123.170
401.493, 49.266
402.840, 205.412
404.186, 311.580
405.533, 407.775
406.879, 473.961
408.225, 650.115
409.570, 606.215
410.916, 822.223
412.261, 788.203
413.606, 884.074
414.951, 979.885
416.295, 1055.641
417.639, 1211.408
418.983, 1097.293
420.327, 1033.207
421.671, 1249.166
423.014, 1155.201
424.357, 851.270
425.700, 677.375
427.043, 973.584
428.386, 429.826
429.728, 836.105
431.070, 912.434
432.412, 998.793
433.753, 945.184
435.095, 1121.607
436.436, 1188.061
437.777, 1124.545
439.118, 1121.061
440.458, 1042.295
441.798, 954.182
443.138, 850.785
444.478, 707.451
445.818, 634.176
447.157, 380.951
448.496, 687.777
449.835, 404.744
451.174, 471.666
452.513, 548.631
453.851, 575.639
455.189, 456.219
456.527, 603.309
457.864, 610.441
459.202, 367.611
460.539, 134.816
461.876, 262.059
463.212, 9.334
464.549, 286.623
465.885, 183.945
467.221, 391.299
468.557, 798.682
469.893, 996.098
471.228, 1373.541
472.563, 1591.014
473.898, 1788.518
475.233, 2256.049
476.567, 2243.604
477.902, 2631.189
479.236, 2663.018
480.570, 2730.654
481.903, 3188.314
483.237, 3606.096
484.570, 4316.312
485.903, 6190.008
487.235, 6997.789
488.568, 8517.262
489.900, 10245.297
491.232, 10673.283
492.564, 11001.287
493.896, 10349.723
495.227, 8497.775
496.558, 7055.969
497.889, 5684.148
499.220, 4412.346
500.551, 3481.188
501.881, 2648.844
503.211, 2107.125
504.541, 1495.512
505.870, 1373.912
507.200, 1042.336
508.529, 1000.773
509.858, 909.293
511.187, 607.838
512.515, 676.400
513.844, 754.984
515.172, 723.580
516.500, 812.195
517.827, 850.834
519.155, 859.492
520.482, 1018.164
521.809, 1536.852
523.136, 1214.699
524.462, 1552.744
525.789, 2051.480
527.115, 2010.232
528.441, 1748.998
529.766, 1820.465
531.092, 1736.309
532.417, 1274.260
533.742, 1494.971
535.067, 816.930
536.391, 902.123
537.716, 552.094
539.040, 718.875
540.364, 348.354
541.688, 300.400
543.011, 169.393
544.334, 350.152
545.657, 335.867
546.980, 14.643
548.303, 466.953
549.625, 392.256
550.947, 404.738
552.269, 184.842
553.591, 343.885
554.913, 483.496
556.234, 652.564
557.555, 394.316
558.876, 1093.451
560.197, 862.561
561.517, 1235.654
562.837, 1704.789
564.157, 1763.961
565.477, 2173.117
566.797, 2946.111
568.116, 3505.289
569.435, 4174.480
570.754, 4064.248
572.073, 4573.467
573.391, 4412.695
574.709, 3691.938
576.027, 3321.193
577.345, 2458.820
578.663, 2128.100
579.980, 1528.502
581.297, 1288.307
582.614, 1067.727
583.931, 807.178
585.248, 893.607
586.564, 852.951
587.880, 623.266
589.196, 865.699
590.511, 1015.066
591.827, 1245.172
593.142, 1744.553
594.457, 2123.941
595.772, 2453.336
597.086, 2292.740
598.401, 2022.150
599.715, 1651.566
601.029, 1280.988
602.343, 800.418
603.656, 479.850
604.969, 229.289
606.282, 368.732
607.595, 38.180
608.908, 177.629
610.220, 117.084
611.532, 276.543
612.844, 43.996
614.156, 95.436
615.468, 144.869
616.779, 344.307
618.090, 483.744
619.401, 753.188
620.712, 912.629
622.022, 1230.209
623.332, 1099.656
624.642, 1459.102
625.952, 1488.551
627.262, 1038.000
628.571, 1207.453
629.880, 916.902
631.189, 686.352
632.498, 465.809
633.807, 95.258
635.115, 484.742
636.423, 55.805
637.731, 213.605
639.039, 213.016
640.346, 42.426
641.653, 22.633
642.960, 83.250
644.267, 96.105
645.574, 3.266
646.880, 46.035
648.186, 395.828
649.492, 185.121
650.798, 45.207
652.103, 414.797
653.409, 64.547
654.714, 503.316
656.019, 172.574
657.323, 454.797
658.628, 227.152
659.932, 656.391
661.236, 234.801
662.540, 634.023
663.843, 693.238
665.147, 682.441
666.450, 816.586
667.753, 1267.488
669.056, 1237.145
670.358, 1516.586
671.660, 2265.762
672.963, 2314.906
674.264, 3496.105
675.566, 3345.230
676.868, 4004.340
678.169, 3834.105
679.470, 3603.777
680.771, 3352.859
682.071, 2681.934
683.372, 2350.996
684.672, 1930.043
685.972, 1499.082
687.271, 1458.137
688.571, 1257.199
689.870, 1396.297
691.169, 815.414
692.468, 1044.551
693.767, 893.734
695.065, 572.945
696.364, 512.156
697.662, 761.391
698.960, 320.684
700.257, 580.012
701.555, 40.637
702.852, 518.684
704.149, 268.027
705.446, 117.395
706.742, 3.230
708.038, 123.906
709.335, 455.309
710.631, 94.508
711.926, 563.695
713.222, 12.855
714.517, 141.980
715.812, 341.090
717.107, 9.812
718.402, 469.234
719.696, 148.266
720.990, 257.285
722.284, 3.711
723.578, 325.234
724.872, 184.203
726.165, 103.156
727.458, 282.102
728.751, 411.035
730.044, 189.949
731.336, 508.844
732.629, 232.277
733.921, 486.430
735.213, 75.148
736.504, 106.168
737.796, 152.410
739.087, 150.969
740.378, 210.484
741.669, 227.898
742.960, 86.258
744.250, 14.594
745.540, 202.879
746.830, 101.152
748.120, 259.398
749.410, 267.629
750.699, 264.535
751.988, 424.035
753.277, 282.211
754.566, 220.375
755.854, 228.516
757.143, 306.641
758.431, 544.746
759.719, 222.836
761.006, 210.910
762.294, 508.965
763.581, 456.906
764.868, 474.930
766.155, 932.930
767.442, 680.910
768.728, 675.344
770.014, 1083.293
771.300, 761.219
772.586, 769.129
773.872, 1157.023
775.157, 754.898
776.442, 1032.754
777.727, 840.605
779.012, 958.434
780.297, 756.246
781.581, 754.047
782.865, 961.824
784.149, 1069.586
785.433, 807.324
786.716, 475.051
787.999, 842.754
789.282, 190.441
790.565, 618.113
791.848, 461.551
793.130, 269.188
794.413, 426.805
795.695, 25.688
796.977, 399.359
798.258, 180.941
799.540, 121.562
800.821, 324.203
802.102, 268.594
803.382, 548.578
804.663, 105.730
805.943, 142.461
807.224, 129.570
808.504, 253.465
809.783, 193.438
811.063, 10.324
812.342, 7.168
813.621, 463.961
814.900, 249.262
816.179, 227.332
817.457, 293.914
818.736, 380.473
820.014, 182.977
821.292, 53.426
822.569, 129.797
823.847, 146.148
825.124, 182.480
826.401, 328.801
827.678, 35.098
828.954, 461.363
830.231, 397.617
831.507, 113.852
832.783, 120.082
834.059, 206.285
835.334, 432.508
836.610, 438.711
837.885, 204.902
839.160, 241.082
840.435, 617.246
841.709, 223.395
842.983, 689.531
844.258, 475.652
845.532, 701.758
846.805, 467.855
848.079, 603.941
849.352, 690.008
850.625, 516.066
851.898, 962.109
853.171, 938.133
854.443, 974.145
855.715, 1124.457
856.988, 1210.441
858.259, 1516.418
859.531, 2022.203
860.803, 1964.652
862.074, 1969.508
863.345, 2365.422
864.616, 2980.773
865.886, 3336.656
867.157, 3869.926
868.427, 4905.742
869.697, 5481.578
870.967, 6304.742
872.236, 6220.551
873.506, 6316.387
874.775, 5442.164
876.044, 4994.105
877.313, 3987.129
878.581, 3512.867
879.849, 3110.887
881.118, 2496.586
882.386, 2522.273
883.653, 2097.945
884.921, 2543.605
886.188, 2280.895
887.455, 2402.281
888.722, 2186.793
889.989, 2281.898
891.255, 2260.645
892.522, 2352.844
893.788, 2231.316
895.054, 2096.875
896.319, 2001.465
897.585, 2163.930
898.850, 1979.457
900.115, 2294.238
901.380, 2409.746
902.645, 1875.246
903.909, 2980.727
905.174, 2516.207
906.438, 2621.668
907.701, 2977.125
908.965, 3112.566
910.229, 3438.004
911.492, 3603.430
912.755, 4098.852
914.018, 4504.266
915.280, 5199.668
916.543, 5565.070
917.805, 6130.465
919.067, 7475.852
920.329, 8581.238
921.590, 10116.641
922.852, 11102.039
924.113, 13187.438
925.374, 14182.828
926.635, 14848.219
927.895, 14553.609
929.156, 13559.004
930.416, 11964.391
931.676, 9869.777
932.936, 8065.164
934.195, 7150.547
935.454, 5565.934
936.714, 4731.320
937.973, 3846.703
939.231, 3442.094
940.490, 2837.555
941.748, 2562.836
943.006, 2148.223
944.264, 2073.633
945.522, 2029.031
946.780, 2204.430
948.037, 1484.293
949.294, 2029.641
950.551, 1234.957
951.808, 1418.996
953.064, 1524.355
954.320, 1249.164
955.577, 1004.477
956.832, 1118.992
958.088, 834.004
959.344, 1128.852
960.599, 874.680
961.854, 1070.020
963.109, 872.395
964.364, 994.637
965.618, 710.000
966.872, 1096.191
968.127, 1091.570
969.380, 846.961
970.634, 1572.363
971.888, 1102.898
973.141, 1406.602
974.394, 1261.551
975.647, 1826.727
976.900, 2292.172
978.152, 2437.645
979.404, 3011.066
980.656, 3126.562
981.908, 3812.078
983.160, 3399.309
984.411, 3804.273
985.663, 3726.879
986.914, 3202.473
988.165, 2918.090
989.415, 2333.730
990.666, 1749.395
991.916, 1705.094
993.166, 1281.047
994.416, 1156.801
995.665, 942.594
996.915, 838.824
998.164, 554.688
999.413, 420.586
1000.662, 686.523
1001.911, 942.414
1003.159, 388.059
1004.407, 203.719
1005.655, 540.723
1006.903, 156.422
1008.151, 362.094
1009.398, 377.762
1010.646, 203.395
1011.893, 209.523
1013.139, 205.094
1014.386, 310.637
1015.633, 316.051
1016.879, 23.039
1018.125, 556.707
1019.371, 121.977
1020.616, 52.742
1021.862, 142.527
1023.107, 17.797
1024.352, 383.000
1025.597, 168.188
1026.842, 156.637
1028.086, 378.672
1029.330, 85.992
1030.574, 109.387
1031.818, 344.922
1033.062, 270.480
1034.305, 226.066
1035.548, 201.648
1036.791, 132.777
1038.034, 562.805
1039.277, 208.391
1040.519, 683.969
1041.762, 719.551
1043.004, 655.129
1044.246, 710.711
1045.487, 716.293
1046.729, 741.875
1047.970, 787.457
1049.211, 493.047
1050.452, 898.625
1051.692, 864.211
1052.933, 369.797
1054.173, 605.383
1055.413, 380.969
1056.653, 936.555
1057.893, 252.172
1059.132, 807.828
1060.371, 1033.629
1061.610, 649.684
1062.849, 1015.758
1064.088, 1001.980
1065.326, 1148.363
1066.565, 1024.832
1067.803, 1401.566
1069.041, 1338.324
1070.278, 1815.332
1071.516, 1432.391
1072.753, 1539.488
1073.990, 1146.648
1075.227, 1203.840
1076.464, 1151.012
1077.700, 1148.172
1078.936, 1175.359
1080.173, 1142.586
1081.408, 1009.844
1082.644, 1117.125
1083.880, 1314.441
1085.115, 1291.793
1086.350, 1769.168
1087.585, 2166.582
1088.820, 2014.031
1090.054, 2571.520
1091.288, 2309.059
1092.522, 3176.523
1093.756, 2591.242
1094.990, 1788.777
1096.224, 2146.539
1097.457, 1578.703
1098.690, 1400.043
1099.923, 1127.633
1101.156, 915.285
1102.388, 709.648
1103.621, 587.176
1104.853, 824.766
1106.085, 1022.438
1107.316, 400.172
1108.548, 687.980
1109.779, 475.883
1111.010, 353.863
1112.241, 781.938
1113.472, 460.109
1114.703, 358.359
1115.933, 416.691
1117.163, 275.098
1118.393, 673.559
1119.623, 82.066
1120.853, 150.625
1122.082, 679.223
1123.311, 377.871
1124.540, 356.570
1125.769, 235.324
1126.997, 274.125
1128.226, 322.980
1129.454, 361.891
1130.682, 39.027
1131.910, 250.410
1133.138, 109.484
1134.365, 371.043
1135.592, 172.047
1136.819, 453.281
1138.046, 344.758
1139.273, 536.492
1140.499, 118.504
1141.725, 410.816
1142.951, 733.012
1144.177, 96.000
1145.403, 879.418
1146.628, 403.324
1147.854, 437.805
1149.079, 442.008
1150.304, 258.840
1151.528, 667.434
1152.753, 4.762
1153.977, 269.016
1155.201, 557.836
1156.425, 218.887
1157.649, 487.008
1158.872, 73.707
1160.096, 384.141
1161.319, 231.730
1162.542, 183.074
1163.764, 0.969
1164.987, 0.000
##END=



