##NAMES=Zoisite
##RRUFFID=R050041
##IDEAL CHEMISTRY=Ca_2_Al_3_(Si_2_O_7_)(SiO_4_)O(OH)
##LOCALITY=Franklin County, Conway, Massachussetts, USA
##OWNER=RRUFF
##SOURCE=University of Arizona Mineral Museum
##DESCRIPTION=Tan colored fragment
##STATUS=The identification of this mineral has been confirmed by X-ray diffraction and chemical analysis
##URL=rruff.info/R050041
##MEASURED CHEMISTRY=(Ca_.993_Mg_.004_Na_.002_Mn_.001_)_2_(Al_.980_Fe^3+^_.020_)_3_(Si_.986_Fe^3+^_.014_)_3_O_12_(OH)
##PIN_ID=L00320
##ORIENTATION=Laser parallel to b* (0 1 0). Fiducial mark perpendicular to laser is parallel to c [0 0 1]
101.492, 0.000
102.883, 32.487
104.273, 4.285
105.664, 274.268
107.054, 314.964
108.444, 401.483
109.834, 715.223
111.223, 541.731
112.613, 791.115
114.002, 872.476
115.391, 1305.418
116.780, 1120.018
118.168, 1386.358
119.556, 1324.231
120.944, 1283.223
122.332, 1122.312
123.720, 961.430
125.107, 620.531
126.495, 559.588
127.882, 429.417
129.268, 360.237
130.655, 261.699
132.041, 76.391
133.427, 276.229
134.813, 232.319
136.199, 63.305
137.584, 360.492
138.970, 368.023
140.355, 548.236
141.740, 628.186
143.124, 907.903
144.509, 1257.417
145.893, 1086.752
147.277, 1195.931
148.660, 944.974
150.044, 813.902
151.427, 672.729
152.810, 531.047
154.193, 440.747
155.576, 365.907
156.958, 193.528
158.341, 191.143
159.723, 0.349
161.105, 197.240
162.486, 15.172
163.867, 23.294
165.249, 40.882
166.630, 16.347
168.010, 33.693
169.391, 80.638
170.771, 200.941
172.151, 2.970
173.531, 101.237
174.911, 2.240
176.290, 127.621
177.669, 264.184
179.049, 200.791
180.427, 277.443
181.806, 364.137
183.184, 560.877
184.562, 627.654
185.940, 834.461
187.318, 721.316
188.696, 768.227
190.073, 875.193
191.450, 662.223
192.827, 419.309
194.204, 476.453
195.580, 333.650
196.956, 320.902
198.332, 98.207
199.708, 95.559
201.084, 42.957
202.459, 60.396
203.834, 42.123
205.209, 4.604
206.584, 37.049
207.958, 59.455
209.333, 21.824
210.707, 65.844
212.081, 123.541
213.454, 106.648
214.828, 99.082
216.201, 86.799
217.574, 4.580
218.947, 52.377
220.320, 40.180
221.692, 87.988
223.064, 25.826
224.436, 63.689
225.808, 1.578
227.179, 129.492
228.551, 128.082
229.922, 33.959
231.293, 74.029
232.663, 107.957
234.034, 140.174
235.404, 191.775
236.774, 6.258
238.144, 75.746
239.514, 27.732
240.883, 29.688
242.252, 11.617
243.621, 13.523
244.990, 114.600
246.359, 16.281
247.727, 174.422
249.095, 27.430
250.463, 210.688
251.831, 328.729
253.198, 376.752
254.566, 524.779
255.933, 712.826
257.299, 640.902
258.666, 718.998
260.033, 767.123
261.399, 685.281
262.765, 573.465
264.131, 671.686
265.496, 449.936
266.862, 317.521
268.227, 105.576
269.592, 73.916
270.957, 52.447
272.321, 41.123
273.685, 39.906
275.050, 158.775
276.413, 143.500
277.777, 346.699
279.141, 185.730
280.504, 324.797
281.867, 313.891
283.230, 493.004
284.592, 282.129
285.955, 391.262
287.317, 140.416
288.679, 139.578
290.041, 218.748
291.403, 87.922
292.764, 157.102
294.125, 126.279
295.486, 135.451
296.847, 104.602
298.207, 53.758
299.568, 362.844
300.928, 361.926
302.288, 520.980
303.647, 780.016
305.007, 1039.051
306.366, 1198.092
307.725, 1257.137
309.084, 1392.961
310.443, 1515.314
311.801, 1384.447
313.159, 1323.586
314.517, 1022.732
315.875, 921.895
317.233, 781.035
318.590, 870.146
319.947, 789.197
321.304, 768.266
322.661, 937.344
324.018, 686.264
325.374, 905.424
326.730, 793.756
328.086, 942.965
329.442, 1012.189
330.797, 920.404
332.153, 1157.316
333.508, 946.385
334.863, 1075.412
336.217, 993.102
337.572, 692.135
338.926, 769.613
340.280, 618.670
341.634, 677.746
342.988, 456.844
344.341, 645.961
345.694, 445.098
347.047, 364.252
348.400, 283.428
349.753, 192.623
351.105, 201.834
352.457, 121.068
353.809, 19.682
355.161, 89.584
356.512, 38.869
357.864, 128.172
359.215, 97.494
360.566, 36.832
361.916, 216.188
363.267, 4.441
364.617, 314.947
365.967, 34.354
367.317, 180.770
368.667, 119.242
370.016, 76.025
371.366, 231.633
372.715, 49.338
374.064, 108.844
375.412, 158.363
376.761, 137.900
378.109, 187.451
379.457, 127.018
380.805, 186.281
382.152, 55.881
383.500, 25.494
384.847, 155.123
386.194, 14.768
387.541, 124.430
388.887, 86.227
390.233, 243.449
391.580, 303.139
392.926, 190.789
394.271, 320.506
395.617, 154.094
396.962, 413.842
398.307, 212.420
399.652, 332.150
400.997, 97.775
402.341, 216.006
403.686, 664.176
405.030, 443.277
406.374, 622.326
407.717, 812.199
409.061, 772.070
410.404, 801.957
411.747, 870.359
413.090, 1140.275
414.433, 1320.207
415.775, 1080.154
417.117, 1410.137
418.459, 1220.135
419.801, 1270.158
421.143, 1230.197
422.484, 1090.279
423.825, 1080.383
425.166, 1270.502
426.507, 1410.635
427.848, 1670.781
429.188, 1840.949
430.528, 1931.131
431.868, 1891.328
433.208, 1601.537
434.547, 1501.760
435.887, 1351.992
437.226, 992.238
438.565, 1052.494
439.904, 992.760
441.242, 833.041
442.580, 873.328
443.918, 613.629
445.256, 543.936
446.594, 654.258
447.932, 618.324
449.269, 828.680
450.606, 609.045
451.943, 879.420
453.280, 849.807
454.616, 740.211
455.952, 400.617
457.288, 451.064
458.624, 501.520
459.960, 352.006
461.295, 332.529
462.631, 343.062
463.966, 96.373
465.300, 366.953
466.635, 17.541
467.969, 358.141
469.304, 416.949
470.638, 607.568
471.972, 575.682
473.305, 496.316
474.639, 696.961
475.972, 718.662
477.305, 862.219
478.638, 1145.195
479.970, 1206.602
481.303, 1667.314
482.635, 2138.059
483.967, 2238.812
485.298, 2802.465
486.630, 3543.236
487.961, 3739.881
489.293, 3480.842
490.624, 3702.340
491.954, 3323.203
493.285, 2584.086
494.615, 2314.988
495.945, 1525.896
497.275, 1426.836
498.605, 1107.809
499.935, 958.795
501.264, 669.787
502.593, 680.785
503.922, 661.791
505.251, 542.812
506.579, 483.842
507.908, 514.875
509.236, 385.914
510.564, 446.959
511.891, 328.012
513.219, 329.066
514.546, 479.662
515.873, 370.762
517.200, 501.865
518.527, 569.938
519.853, 674.094
521.180, 745.211
522.506, 776.336
523.832, 837.387
525.157, 851.641
526.483, 866.240
527.808, 860.814
529.133, 861.979
530.458, 843.156
531.783, 824.357
533.107, 695.568
534.431, 696.785
535.756, 458.039
537.079, 489.260
538.403, 260.486
539.727, 248.215
541.050, 202.945
542.373, 204.184
543.696, 355.641
545.018, 356.879
546.341, 478.121
547.663, 388.518
548.985, 777.498
550.307, 198.748
551.629, 60.000
552.950, 21.264
554.271, 192.529
555.592, 283.902
556.913, 45.195
558.234, 56.707
559.554, 428.055
560.875, 119.418
562.195, 340.791
563.514, 692.174
564.834, 424.293
566.154, 735.682
567.473, 787.072
568.792, 978.465
570.111, 869.854
571.429, 531.371
572.748, 832.766
574.066, 474.162
575.384, 520.438
576.702, 551.834
578.019, 345.098
579.337, 436.490
580.654, 224.732
581.971, 407.600
583.288, 238.986
584.605, 220.723
585.921, 132.107
587.237, 293.648
588.553, 395.025
589.869, 556.396
591.185, 627.770
592.500, 669.135
593.815, 530.596
595.130, 524.248
596.445, 563.314
597.760, 304.668
599.074, 336.018
600.389, 147.363
601.703, 69.223
603.016, 30.041
604.330, 21.830
605.644, 63.709
606.957, 137.580
608.270, 358.865
609.583, 60.146
610.895, 162.176
612.208, 3.521
613.520, 54.783
614.832, 52.057
616.144, 204.018
617.455, 140.213
618.767, 187.715
620.078, 408.945
621.389, 34.072
622.700, 447.119
624.011, 58.305
625.321, 219.479
626.631, 119.352
627.941, 161.736
629.251, 107.182
630.561, 173.848
631.870, 74.848
633.180, 3.420
634.489, 32.449
635.798, 20.992
637.106, 4.742
638.415, 85.631
639.723, 111.639
641.031, 202.904
642.339, 186.238
643.647, 284.502
644.954, 73.270
646.261, 43.584
647.568, 14.627
648.875, 270.414
650.182, 381.037
651.488, 194.467
652.795, 255.113
654.101, 309.328
655.407, 135.504
656.712, 126.070
658.018, 236.621
659.323, 227.164
660.628, 248.342
661.933, 311.637
663.238, 230.400
664.542, 420.889
665.847, 361.365
667.151, 461.828
668.455, 402.279
669.758, 872.715
671.062, 560.555
672.365, 820.965
673.668, 881.420
674.971, 841.803
676.274, 1052.172
677.577, 852.527
678.879, 722.871
680.181, 693.197
681.483, 363.512
682.785, 443.811
684.086, 284.096
685.388, 304.438
686.689, 484.691
687.990, 284.934
689.290, 345.160
690.591, 465.369
691.891, 125.566
693.192, 515.748
694.491, 146.070
695.791, 316.221
697.091, 206.355
698.390, 286.475
699.689, 86.580
700.988, 316.666
702.287, 356.738
703.586, 276.797
704.884, 166.883
706.182, 261.096
707.480, 307.033
708.778, 347.084
710.076, 197.123
711.373, 127.145
712.670, 156.688
713.968, 107.139
715.264, 207.111
716.561, 297.066
717.857, 357.008
719.154, 456.932
720.450, 46.840
721.746, 476.725
723.041, 256.594
724.337, 236.445
725.632, 406.283
726.927, 126.102
728.222, 295.906
729.517, 455.693
730.811, 34.535
732.105, 355.174
733.400, 14.865
734.693, 494.529
735.987, 65.826
737.281, 23.746
738.574, 213.287
739.867, 82.809
741.160, 182.312
742.453, 121.801
743.745, 211.270
745.038, 300.721
746.330, 320.156
747.622, 229.576
748.913, 138.979
750.205, 338.363
751.496, 257.734
752.788, 417.086
754.079, 276.420
755.369, 175.738
756.660, 245.039
757.950, 284.322
759.241, 73.590
760.531, 7.160
761.820, 208.322
763.110, 307.508
764.399, 196.676
765.689, 45.830
766.978, 144.961
768.267, 184.066
769.555, 66.838
770.844, 342.188
772.132, 38.805
773.420, 59.859
774.708, 469.016
775.996, 52.125
777.283, 243.924
778.570, 242.703
779.857, 201.463
781.144, 250.209
782.431, 220.867
783.718, 189.451
785.004, 140.662
786.290, 219.348
787.576, 28.021
788.862, 205.623
790.147, 38.631
791.433, 7.668
792.718, 205.523
794.003, 55.932
795.288, 52.553
796.572, 171.021
797.857, 256.588
799.141, 4.971
800.425, 82.410
801.709, 35.799
802.992, 66.537
804.276, 131.736
805.559, 30.002
806.842, 108.223
808.125, 43.566
809.407, 75.400
810.690, 252.707
811.972, 120.801
813.254, 198.883
814.536, 246.953
815.818, 14.986
817.099, 183.045
818.381, 161.064
819.662, 299.074
820.943, 237.072
822.223, 115.059
823.504, 243.037
824.784, 108.996
826.065, 558.895
827.345, 96.775
828.624, 224.646
829.904, 622.508
831.183, 200.361
832.462, 278.203
833.741, 446.035
835.020, 143.859
836.299, 531.674
837.577, 249.480
838.856, 87.279
840.134, 145.068
841.412, 272.850
842.689, 450.623
843.967, 208.389
845.244, 386.146
846.521, 433.859
847.798, 61.600
849.075, 549.332
850.351, 227.057
851.628, 104.775
852.904, 622.486
854.180, 329.973
855.455, 677.670
856.731, 265.363
858.006, 413.125
859.281, 800.805
860.556, 548.480
861.831, 936.148
863.106, 563.844
864.380, 811.537
865.655, 1109.146
866.929, 946.832
868.202, 1044.342
869.476, 1402.020
870.750, 1079.689
872.023, 1407.354
873.296, 1095.012
874.569, 1171.928
875.842, 799.572
877.114, 1117.207
878.386, 764.832
879.658, 732.447
880.930, 1029.939
882.202, 1087.539
883.474, 795.131
884.745, 947.836
886.016, 1145.412
887.287, 831.859
888.558, 959.418
889.829, 930.125
891.099, 776.199
892.369, 863.742
893.639, 550.922
894.909, 698.449
896.179, 615.812
897.448, 593.332
898.718, 740.844
899.987, 468.352
901.256, 775.855
902.524, 633.254
903.793, 370.750
905.061, 668.238
906.329, 465.727
907.597, 543.207
908.865, 840.684
910.133, 468.160
911.400, 875.637
912.667, 332.648
913.934, 776.988
915.201, 934.473
916.468, 391.957
917.734, 899.438
919.001, 566.164
920.267, 813.574
921.532, 781.055
922.798, 831.812
924.064, 809.301
925.329, 1021.840
926.594, 663.062
927.859, 1070.555
929.124, 452.297
930.388, 1059.805
931.653, 697.320
932.917, 734.844
934.181, 852.363
935.445, 779.930
936.708, 497.496
937.972, 375.078
939.235, 532.688
940.498, 569.562
941.761, 530.711
943.024, 560.684
944.286, 457.066
945.548, 614.664
946.811, 507.133
948.072, 664.336
949.334, 341.945
950.596, 709.617
951.857, 235.789
953.118, 487.309
954.379, 664.637
955.640, 297.211
956.901, 484.945
958.161, 359.863
959.421, 327.559
960.681, 691.703
961.941, 283.859
963.201, 611.629
964.460, 669.406
965.720, 257.191
966.979, 604.992
968.238, 521.113
969.496, 558.934
970.755, 396.770
972.013, 734.613
973.272, 982.473
974.529, 800.348
975.787, 1048.230
977.045, 1268.891
978.302, 1096.805
979.560, 1684.742
980.817, 1312.684
982.073, 1320.645
983.330, 1578.621
984.587, 936.617
985.843, 1464.945
987.099, 892.969
988.355, 731.016
989.611, 879.621
990.866, 467.645
992.122, 415.754
993.377, 573.898
994.632, 272.059
995.887, 370.250
997.141, 218.465
998.396, 276.711
999.650, 484.832
1000.904, 183.137
1002.158, 581.477
1003.412, 229.844
1004.665, 148.242
1005.918, 306.684
1007.172, 45.148
1008.425, 216.340
1009.677, 322.148
1010.930, 40.750
1012.182, 239.332
1013.434, 165.645
1014.687, 34.328
1015.938, 193.219
1017.190, 212.012
1018.441, 20.875
1019.693, 309.809
1020.944, 38.133
1022.195, 396.352
1023.445, 174.414
1024.696, 312.277
1025.946, 520.582
1027.197, 187.555
1028.446, 25.266
1029.696, 622.977
1030.946, 60.688
1032.195, 528.457
1033.445, 216.234
1034.694, 414.082
1035.942, 121.949
1037.191, 40.172
1038.440, 427.711
1039.688, 435.602
1040.936, 253.504
1042.184, 861.410
1043.432, 399.324
1044.679, 567.250
1045.927, 685.203
1047.174, 333.191
1048.421, 1071.184
1049.668, 389.195
1050.914, 397.285
1052.161, 1115.477
1053.407, 863.746
1054.653, 642.059
1055.899, 910.391
1057.145, 848.734
1058.391, 1437.102
1059.636, 955.484
1060.881, 1533.949
1062.126, 1702.461
1063.371, 1491.031
1064.615, 2149.629
1065.860, 2328.336
1067.104, 2567.125
1068.348, 2825.977
1069.592, 2974.930
1070.836, 3163.945
1072.079, 2892.992
1073.323, 2422.090
1074.566, 2211.219
1075.809, 1910.375
1077.052, 1719.613
1078.294, 1758.926
1079.537, 1268.281
1080.779, 1367.664
1082.021, 1367.070
1083.263, 1226.516
1084.504, 1625.988
1085.746, 1595.492
1086.987, 1785.035
1088.228, 2074.605
1089.469, 1984.219
1090.710, 2483.855
1091.951, 1983.527
1093.191, 1705.117
1094.431, 1974.570
1095.671, 983.926
1096.911, 1263.289
1098.151, 982.660
1099.390, 872.051
1100.630, 601.477
1101.869, 580.949
1103.108, 650.484
1104.346, 110.078
1105.585, 619.730
1106.823, 467.832
1108.062, 427.582
1109.300, 37.402
1110.537, 577.281
1111.775, 357.238
1113.013, 287.262
1114.250, 587.363
1115.487, 207.535
1116.724, 447.777
1117.961, 188.090
1119.197, 408.480
1120.434, 568.945
1121.670, 149.477
1122.906, 280.082
1124.142, 350.746
1125.377, 31.484
1126.613, 482.285
1127.848, 63.152
1129.083, 164.082
1130.318, 325.082
1131.553, 156.148
1132.787, 377.285
1134.022, 18.488
1135.256, 350.348
1136.490, 342.348
1137.724, 4.492
1138.957, 346.805
1140.191, 449.281
1141.424, 131.980
1142.657, 324.832
1143.890, 237.965
1145.123, 141.324
1146.355, 324.914
1147.588, 538.758
1148.820, 212.879
1150.052, 187.293
1151.284, 350.980
1152.516, 345.609
1153.747, 291.027
1154.978, 294.602
1156.209, 510.781
1157.440, 283.027
1158.671, 199.848
1159.902, 707.180
1161.132, 64.941
1162.362, 783.531
1163.592, 222.711
1164.822, 412.723
1166.052, 293.867
1167.281, 325.586
1168.511, 172.750
1169.740, 237.574
1170.969, 266.324
1172.197, 403.121
1173.426, 0.363
1174.654, 0.000
##END=



