##NAMES=Zoisite
##RRUFFID=R050038
##IDEAL CHEMISTRY=Ca_2_Al_3_(Si_2_O_7_)(SiO_4_)O(OH)
##LOCALITY=Elf Shooting Creek, Clay County, North Carolina, USA
##OWNER=RRUFF
##SOURCE=University of Arizona Mineral Museum
##DESCRIPTION=Tan colored fragments of single crystals
##STATUS=The identification of this mineral has been confirmed by X-ray diffraction and chemical analysis
##URL=rruff.info/R050038
##MEASURED CHEMISTRY=(Ca_.998_Na_.002_)_2_(Al_.982_Fe^3+^_.018_)_3_(Si_.982_Fe^3+^_.018_)_3_O_12_(OH)
##PIN_ID=L00064
##ORIENTATION=Laser parallel to a* (1 0 0). Fiducial mark perpendicular to laser is parallel to b [0 1 0]
110.174, 0.000
111.566, 33.002
112.959, 75.730
114.351, 595.982
115.744, 1197.891
117.136, 1987.531
118.527, 3118.584
119.919, 3807.571
121.310, 3640.022
122.701, 3446.883
124.092, 2717.558
125.482, 1994.497
126.873, 1263.001
128.263, 835.640
129.653, 439.523
131.042, 122.089
132.432, 102.304
133.821, 103.004
135.210, 50.795
136.599, 187.549
137.987, 180.766
139.376, 520.337
140.764, 902.361
142.152, 1287.801
143.539, 1691.772
144.927, 2420.789
146.314, 2985.559
147.701, 3601.646
149.088, 3692.627
150.474, 3260.225
151.861, 2734.979
153.247, 2026.393
154.633, 1494.104
156.018, 1018.312
157.404, 643.831
158.789, 449.848
160.174, 279.838
161.559, 205.735
162.943, 189.476
164.327, 85.300
165.711, 196.146
167.095, 178.183
168.479, 140.915
169.862, 187.418
171.246, 268.654
172.628, 409.599
174.011, 676.781
175.394, 804.978
176.776, 989.359
178.158, 1239.141
179.540, 1320.274
180.922, 1474.404
182.303, 1615.707
183.684, 1884.754
185.065, 2244.490
186.446, 2670.900
187.826, 2896.909
189.207, 3198.835
190.587, 3506.709
191.967, 3412.741
193.346, 3312.764
194.726, 2895.801
196.105, 2681.898
197.484, 2272.448
198.862, 1923.572
200.241, 1535.135
201.619, 1427.291
202.997, 1013.926
204.375, 900.442
205.753, 603.785
207.130, 455.815
208.507, 287.891
209.884, 166.038
211.261, 138.235
212.638, 80.454
214.014, 111.681
215.390, 48.896
216.766, 147.046
218.141, 42.044
219.517, 107.815
220.892, 50.310
222.267, 199.526
223.642, 240.464
225.016, 115.157
226.391, 196.621
227.765, 220.872
229.139, 139.926
230.512, 141.815
231.886, 30.554
233.259, 21.138
234.632, 81.434
236.005, 142.285
237.377, 241.532
238.749, 257.557
240.122, 178.220
241.493, 200.576
242.865, 126.589
244.237, 75.057
245.608, 62.716
246.979, 61.460
248.350, 48.108
249.720, 24.498
251.090, 99.084
252.461, 197.511
253.830, 339.589
255.200, 491.348
256.570, 845.619
257.939, 1089.510
259.308, 1127.524
260.677, 1385.601
262.045, 1098.149
263.414, 760.469
264.782, 546.621
266.150, 425.652
267.517, 220.605
268.885, 166.497
270.252, 45.299
271.619, 131.984
272.986, 70.525
274.353, 203.919
275.719, 279.874
277.085, 398.762
278.451, 782.370
279.817, 883.604
281.182, 1217.448
282.548, 1479.745
283.913, 1510.700
285.278, 1750.321
286.642, 1858.340
288.007, 1804.087
289.371, 1658.662
290.735, 1462.373
292.099, 1395.422
293.462, 1137.354
294.826, 1110.929
296.189, 1109.217
297.552, 1140.562
298.914, 1223.810
300.277, 1491.903
301.639, 1906.479
303.001, 2419.102
304.363, 3243.710
305.724, 4098.539
307.086, 5253.982
308.447, 6148.854
309.808, 6933.214
311.168, 7347.127
312.529, 7060.672
313.889, 6423.877
315.249, 5516.760
316.609, 4569.355
317.969, 3771.664
319.328, 2993.699
320.687, 2493.815
322.046, 2201.995
323.405, 1948.720
324.764, 1753.458
326.122, 1716.772
327.480, 1569.211
328.838, 1679.421
330.196, 1710.759
331.553, 1791.478
332.910, 2071.303
334.267, 2121.362
335.624, 2461.922
336.981, 2672.983
338.337, 3084.830
339.693, 3466.229
341.049, 4097.602
342.405, 4679.493
343.760, 5481.264
345.116, 5783.432
346.471, 5936.033
347.826, 5519.664
349.180, 4933.293
350.535, 4286.840
351.889, 3570.270
353.243, 3013.553
354.597, 2436.666
355.950, 1939.618
357.304, 1522.432
358.657, 1271.138
360.010, 990.765
361.362, 852.333
362.715, 756.838
364.067, 641.097
365.419, 479.865
366.771, 527.840
368.123, 435.279
369.474, 445.284
370.825, 358.035
372.176, 249.246
373.527, 368.801
374.877, 295.912
376.228, 275.755
377.578, 247.388
378.928, 222.347
380.277, 265.678
381.627, 282.533
382.976, 310.220
384.325, 285.736
385.674, 312.445
387.023, 318.570
388.371, 368.145
389.719, 566.044
391.067, 739.484
392.415, 1023.771
393.762, 1211.991
395.110, 1366.926
396.457, 1417.184
397.804, 1252.997
399.150, 1138.096
400.497, 944.060
401.843, 899.103
403.189, 785.207
404.535, 1091.986
405.881, 1130.788
407.226, 1305.395
408.571, 1484.973
409.916, 1630.807
411.261, 1737.564
412.605, 1748.361
413.950, 1910.390
415.294, 2053.539
416.638, 2167.903
417.981, 2353.294
419.325, 2440.175
420.668, 2398.088
422.011, 2346.180
423.354, 2245.381
424.697, 2143.418
426.039, 1960.080
427.381, 1995.899
428.723, 2041.241
430.065, 2085.129
431.406, 2298.619
432.748, 2250.938
434.089, 2394.264
435.430, 2367.050
436.770, 2281.091
438.111, 2245.603
439.451, 2110.694
440.791, 1777.229
442.131, 1584.038
443.471, 1352.102
444.810, 1200.934
446.149, 1069.631
447.488, 892.195
448.827, 757.636
450.166, 804.514
451.504, 765.348
452.842, 866.601
454.180, 982.645
455.518, 1091.516
456.855, 950.218
458.193, 782.938
459.530, 539.731
460.867, 430.406
462.203, 340.373
463.540, 518.915
464.876, 374.423
466.212, 493.790
467.548, 796.085
468.883, 902.305
470.219, 1305.450
471.554, 1682.819
472.889, 1970.480
474.224, 2289.518
475.558, 2479.756
476.892, 2794.598
478.227, 2986.863
479.561, 3468.320
480.894, 3902.275
482.228, 4637.971
483.561, 5856.152
484.894, 6986.304
486.227, 8963.865
487.559, 11141.326
488.892, 12808.208
490.224, 14144.795
491.556, 14091.438
492.888, 13117.919
494.220, 11384.427
495.551, 9170.931
496.882, 7247.417
498.213, 5563.905
499.544, 4340.391
500.874, 3456.866
502.205, 2683.342
503.535, 2179.812
504.865, 1826.269
506.194, 1522.779
507.524, 1299.201
508.853, 1205.597
510.182, 1061.963
511.511, 1048.301
512.840, 991.970
514.168, 991.969
515.496, 1007.141
516.824, 1073.363
518.152, 1179.559
519.480, 1275.729
520.807, 1401.201
522.134, 1696.094
523.461, 2040.588
524.788, 2214.604
526.114, 2297.951
527.441, 2391.517
528.767, 2454.711
530.093, 2137.972
531.418, 1920.897
532.744, 1613.408
534.069, 1376.474
535.394, 1149.288
536.719, 1022.084
538.044, 733.819
539.368, 592.521
540.693, 425.457
542.017, 405.536
543.340, 263.787
544.664, 167.000
545.987, 188.415
547.311, 149.350
548.634, 108.430
549.956, 52.708
551.279, 86.600
552.601, 110.497
553.923, 130.838
555.245, 223.729
556.567, 307.479
557.889, 285.923
559.210, 348.559
560.531, 639.082
561.852, 676.029
563.173, 862.685
564.493, 1159.543
565.813, 1426.381
567.133, 1543.267
568.453, 1820.196
569.773, 1907.168
571.092, 2054.179
572.412, 1951.334
573.731, 1648.451
575.049, 1426.212
576.368, 1163.271
577.686, 810.970
579.005, 698.783
580.323, 568.971
581.640, 465.103
582.958, 507.433
584.275, 470.915
585.593, 531.184
586.909, 584.771
588.226, 687.504
589.543, 847.347
590.859, 1280.422
592.175, 1740.052
593.491, 2260.246
594.807, 2629.506
596.122, 2778.563
597.438, 2496.724
598.753, 2215.076
600.068, 1614.835
601.382, 1114.375
602.697, 832.316
604.011, 598.001
605.325, 396.337
606.639, 363.547
607.952, 126.826
609.266, 109.083
610.579, 3.566
611.892, 49.711
613.205, 6.906
614.518, 79.056
615.830, 14.091
617.142, 181.631
618.454, 58.442
619.766, 245.703
621.078, 148.591
622.389, 230.228
623.700, 314.264
625.011, 446.805
626.322, 369.413
627.632, 267.006
628.943, 170.584
630.253, 83.292
631.563, 44.165
632.872, 76.985
634.182, 171.363
635.491, 122.767
636.800, 106.641
638.109, 155.937
639.418, 187.018
640.726, 26.716
642.035, 78.019
643.343, 0.341
644.651, 10.655
645.958, 146.604
647.266, 214.990
648.573, 199.601
649.880, 350.110
651.187, 241.507
652.494, 468.715
653.800, 415.940
655.106, 466.373
656.412, 331.798
657.718, 271.299
659.024, 269.367
660.329, 263.677
661.634, 260.829
662.939, 242.231
664.244, 268.201
665.549, 321.440
666.853, 396.375
668.157, 497.317
669.461, 682.988
670.765, 858.642
672.069, 1164.278
673.372, 1629.897
674.675, 1665.500
675.978, 1861.085
677.281, 1886.652
678.583, 1852.207
679.886, 1647.750
681.188, 1363.282
682.490, 1218.805
683.792, 954.323
685.093, 829.834
686.394, 595.341
687.696, 710.841
688.997, 576.338
690.297, 601.834
691.598, 587.322
692.898, 512.809
694.198, 578.290
695.498, 653.770
696.798, 383.243
698.097, 524.713
699.397, 349.178
700.696, 399.424
701.995, 229.272
703.293, 119.215
704.592, 144.995
705.890, 64.604
707.188, 98.977
708.486, 85.480
709.784, 220.073
711.081, 91.742
712.378, 130.787
713.675, 216.082
714.972, 185.355
716.269, 300.607
717.565, 154.840
718.862, 203.049
720.158, 212.235
721.453, 312.399
722.749, 278.542
724.045, 320.662
725.340, 349.761
726.635, 306.836
727.930, 197.888
729.224, 209.915
730.519, 57.919
731.813, 230.894
733.107, 72.846
734.401, 42.769
735.694, 0.661
736.988, 16.490
738.281, 54.693
739.574, 46.967
740.867, 97.307
742.160, 5.740
743.452, 26.221
744.744, 9.760
746.036, 65.347
747.328, 5.012
748.620, 15.009
749.911, 2.509
751.202, 6.699
752.493, 27.846
753.784, 22.957
755.075, 5.969
756.365, 1.943
757.655, 35.034
758.945, 45.979
760.235, 114.893
761.525, 139.780
762.814, 117.641
764.103, 116.923
765.392, 88.108
766.681, 198.744
767.969, 200.323
769.258, 182.878
770.546, 143.385
771.834, 255.781
773.122, 169.155
774.409, 301.994
775.697, 215.602
776.984, 208.788
778.271, 292.300
779.558, 305.856
780.844, 299.393
782.131, 332.906
783.417, 236.396
784.703, 149.571
785.989, 222.362
787.274, 4.312
788.560, 26.712
789.845, 119.039
791.130, 3.856
792.415, 55.389
793.699, 18.661
794.983, 95.463
796.268, 55.967
797.552, 23.448
798.835, 11.406
800.119, 29.316
801.402, 33.291
802.686, 23.832
803.969, 91.065
805.251, 38.200
806.534, 120.411
807.816, 47.314
809.098, 39.980
810.380, 57.325
811.662, 24.729
812.944, 52.176
814.225, 39.677
815.506, 32.771
816.787, 15.192
818.068, 52.484
819.349, 19.864
820.629, 72.191
821.909, 44.500
823.189, 116.789
824.469, 139.061
825.749, 211.316
827.028, 163.555
828.307, 235.777
829.586, 227.983
830.865, 350.178
832.144, 412.356
833.422, 424.521
834.700, 426.674
835.978, 438.812
837.256, 433.422
838.534, 459.978
839.811, 425.128
841.088, 517.202
842.365, 529.267
843.642, 571.314
844.919, 523.348
846.195, 745.366
847.472, 617.370
848.748, 639.382
850.023, 941.379
851.299, 943.372
852.575, 1005.351
853.850, 1147.312
855.125, 1439.279
856.400, 1611.184
857.674, 1712.630
858.949, 1964.174
860.223, 2135.377
861.497, 2356.716
862.771, 2457.996
864.045, 2669.831
865.318, 2941.146
866.591, 3522.615
867.864, 3894.432
869.137, 4356.113
870.410, 4737.988
871.682, 5099.521
872.955, 4901.247
874.227, 4843.003
875.499, 4164.828
876.770, 3636.641
878.042, 3358.443
879.313, 2860.233
880.584, 2712.014
881.855, 2493.659
883.126, 2665.347
884.396, 2636.392
885.667, 2758.132
886.937, 2849.223
888.207, 2920.181
889.476, 2993.565
890.746, 3128.345
892.015, 3084.720
893.284, 3121.513
894.553, 3135.323
895.822, 3264.394
897.090, 3262.308
898.359, 3501.109
899.627, 3506.678
900.895, 3315.695
902.163, 3434.148
903.430, 3323.539
904.698, 3073.129
905.965, 3233.611
907.232, 3053.896
908.499, 3022.759
909.765, 2941.827
911.032, 3092.472
912.298, 3253.353
913.564, 3394.559
914.830, 3525.869
916.095, 3727.090
917.361, 4218.309
918.626, 4699.412
919.891, 5180.985
921.156, 5482.580
922.420, 6464.115
923.685, 6635.508
924.949, 7157.125
926.213, 7428.638
927.477, 7320.257
928.740, 6631.894
930.004, 6083.529
931.267, 5035.166
932.530, 4596.801
933.793, 3538.433
935.056, 3010.065
936.318, 2701.696
937.581, 2193.182
938.843, 2034.816
940.104, 1863.787
941.366, 1464.287
942.628, 1545.765
943.889, 1365.676
945.150, 1316.972
946.411, 1156.008
947.672, 1137.606
948.932, 904.795
950.193, 953.971
951.453, 893.811
952.713, 912.682
953.973, 764.101
955.232, 783.285
956.491, 758.556
957.751, 916.931
959.010, 660.479
960.268, 802.001
961.527, 720.301
962.785, 797.598
964.044, 796.806
965.302, 914.434
966.559, 822.811
967.817, 824.334
969.075, 1035.598
970.332, 1073.281
971.589, 1184.685
972.846, 1236.423
974.102, 1478.057
975.359, 1709.994
976.615, 1941.940
977.871, 2333.893
979.127, 2515.853
980.383, 2897.818
981.638, 3000.579
982.893, 3332.560
984.149, 3185.064
985.404, 3127.801
986.658, 2799.809
987.913, 2531.825
989.167, 2103.852
990.421, 1875.889
991.675, 1577.933
992.929, 1291.013
994.183, 1213.080
995.436, 995.152
996.689, 767.236
997.942, 749.325
999.195, 687.040
1000.448, 589.161
1001.700, 593.505
1002.952, 405.645
1004.204, 357.794
1005.456, 333.787
1006.708, 435.992
1007.959, 260.218
1009.210, 272.442
1010.461, 225.211
1011.712, 237.482
1012.963, 80.289
1014.213, 352.710
1015.464, 230.669
1016.714, 113.016
1017.964, 195.600
1019.214, 38.641
1020.463, 91.062
1021.712, 63.607
1022.962, 246.053
1024.210, 208.507
1025.459, 161.137
1026.708, 313.631
1027.956, 146.279
1029.204, 278.793
1030.452, 141.324
1031.700, 244.403
1032.948, 176.954
1034.195, 219.696
1035.442, 162.313
1036.689, 244.911
1037.936, 107.714
1039.183, 380.337
1040.429, 242.981
1041.676, 245.647
1042.922, 478.462
1044.168, 451.260
1045.413, 414.031
1046.659, 536.824
1047.904, 439.658
1049.149, 542.514
1050.394, 555.473
1051.639, 478.381
1052.884, 411.659
1054.128, 454.697
1055.372, 517.830
1056.616, 421.010
1057.860, 504.002
1059.104, 697.014
1060.347, 700.052
1061.590, 763.234
1062.833, 1016.295
1064.076, 1089.372
1065.319, 1222.569
1066.561, 1395.662
1067.803, 1588.765
1069.046, 1841.875
1070.287, 1814.990
1071.529, 1789.209
1072.771, 1982.338
1074.012, 1733.295
1075.253, 1498.616
1076.494, 1381.765
1077.735, 1229.658
1078.975, 1142.820
1080.216, 1135.987
1081.456, 1119.490
1082.696, 1192.672
1083.936, 1264.787
1085.175, 1369.051
1086.415, 1542.249
1087.654, 1605.755
1088.893, 1848.969
1090.132, 1912.200
1091.371, 1975.896
1092.609, 2119.014
1093.847, 1962.273
1095.085, 1935.539
1096.323, 1748.822
1097.561, 1372.451
1098.799, 1355.765
1100.036, 1169.132
1101.273, 902.715
1102.510, 916.074
1103.747, 689.672
1104.983, 743.118
1106.220, 546.537
1107.456, 429.976
1108.692, 453.453
1109.928, 326.935
1111.163, 310.435
1112.399, 313.959
1113.634, 187.497
1114.869, 361.059
1116.104, 224.994
1117.339, 238.576
1118.573, 172.162
1119.808, 195.824
1121.042, 129.436
1122.276, 123.048
1123.509, 176.663
1124.743, 140.614
1125.976, 94.230
1127.210, 177.849
1128.443, 141.625
1129.675, 34.758
1130.908, 9.298
1132.141, 25.800
1133.373, 32.588
1134.605, 21.487
1135.837, 45.433
1137.068, 99.856
1138.300, 154.104
1139.531, 121.212
1140.762, 37.242
1141.993, 76.852
1143.224, 10.432
1144.455, 34.342
1145.685, 108.081
1146.915, 117.892
1148.145, 249.156
1149.375, 57.163
1150.605, 87.216
1151.834, 81.201
1153.063, 83.989
1154.292, 127.852
1155.521, 48.370
1156.750, 85.218
1157.978, 15.033
1159.207, 68.790
1160.435, 13.448
1161.663, 1.471
1162.891, 102.714
1164.118, 111.317
1165.345, 2.183
1166.573, 12.571
1167.800, 63.260
1169.026, 17.799
1170.253, 81.671
1171.480, 75.453
1172.706, 9.096
1173.932, 167.941
1175.158, 22.047
1176.383, 85.749
1177.609, 111.413
1178.834, 4.848
1180.059, 209.231
1181.284, 22.895
1182.509, 56.423
1183.734, 183.942
1184.958, 27.536
1186.182, 91.585
1187.406, 285.627
1188.630, 149.072
1189.854, 52.215
1191.077, 66.241
1192.301, 89.581
1193.524, 143.120
1194.747, 129.253
1195.969, 233.593
1197.192, 76.892
1198.414, 109.944
1199.636, 12.983
1200.858, 76.100
1202.080, 59.108
1203.302, 52.101
1204.523, 125.605
1205.744, 118.566
1206.966, 123.744
1208.186, 76.725
1209.407, 179.638
1210.628, 114.894
1211.848, 87.774
1213.068, 150.638
1214.288, 123.485
1215.508, 286.429
1216.727, 149.278
1217.947, 2.240
1219.166, 235.010
1220.385, 137.937
1221.604, 150.669
1222.822, 263.384
1224.041, 53.220
1225.259, 299.529
1226.477, 222.223
1227.695, 55.724
1228.913, 248.387
1230.130, 170.951
1231.348, 214.189
1232.565, 196.894
1233.782, 70.008
1234.999, 153.112
1236.215, 305.785
1237.432, 68.658
1238.648, 241.116
1239.864, 233.562
1241.080, 155.997
1242.296, 288.419
1243.511, 70.988
1244.726, 213.795
1245.942, 146.183
1247.156, 98.841
1248.371, 311.202
1249.586, 103.550
1250.800, 147.938
1252.014, 230.259
1253.228, 172.566
1254.442, 295.029
1255.656, 327.302
1256.869, 335.799
1258.083, 182.148
1259.296, 304.365
1260.509, 266.559
1261.722, 88.735
1262.934, 190.895
1264.147, 193.017
1265.359, 165.115
1266.571, 187.145
1267.783, 229.154
1268.994, 211.109
1270.206, 103.158
1271.417, 195.140
1272.628, 186.933
1273.839, 148.993
1275.050, 300.720
1276.260, 81.604
1277.471, 43.503
1278.681, 304.589
1279.891, 75.940
1281.101, 107.459
1282.310, 48.948
1283.520, 60.555
1284.729, 76.302
1285.938, 44.300
1287.147, 74.620
1288.356, 195.937
1289.564, 117.230
1290.773, 158.501
1291.981, 89.745
1293.189, 14.668
1294.397, 157.684
1295.604, 46.591
1296.812, 77.683
1298.019, 28.748
1299.226, 94.047
1300.433, 119.299
1301.640, 158.230
1302.846, 60.858
1304.053, 99.928
1305.259, 29.246
1306.465, 21.019
1307.671, 1.649
1308.876, 56.724
1310.082, 12.606
1311.287, 62.196
1312.492, 2.265
1313.697, 28.265
1314.902, 68.629
1316.106, 79.071
1317.310, 109.743
1318.515, 50.048
1319.719, 50.271
1320.922, 90.412
1322.126, 0.665
1323.329, 81.027
1324.533, 50.665
1325.736, 90.806
1326.939, 120.736
1328.141, 29.231
1329.344, 100.794
1330.546, 51.988
1331.748, 51.938
1332.950, 131.857
1334.152, 214.576
1335.354, 54.320
1336.555, 154.066
1337.757, 103.916
1338.958, 26.369
1340.159, 273.482
1341.359, 153.111
1342.560, 232.642
1343.760, 262.313
1344.960, 186.341
1346.160, 270.916
1347.360, 210.217
1348.560, 89.452
1349.759, 348.859
1350.959, 8.232
1352.158, 197.564
1353.357, 366.733
1354.555, 5.966
1355.754, 315.072
1356.952, 224.130
1358.151, 223.159
1359.349, 182.146
1360.546, 201.836
1361.744, 170.737
1362.941, 268.502
1364.139, 167.461
1365.336, 296.228
1366.533, 374.975
1367.730, 73.654
1368.926, 177.508
1370.123, 186.036
1371.319, 54.497
1372.515, 182.562
1373.711, 200.989
1374.906, 69.531
1376.102, 157.435
1377.297, 78.074
1378.492, 78.973
1379.687, 159.506
1380.882, 110.334
1382.077, 320.774
1383.271, 271.491
1384.465, 371.954
1385.659, 352.315
1386.853, 172.944
1388.047, 113.537
1389.240, 234.092
1390.434, 144.611
1391.627, 214.692
1392.820, 355.073
1394.013, 15.482
1395.205, 345.468
1396.398, 285.802
1397.590, 175.914
1398.782, 354.582
1399.974, 224.241
1401.166, 133.008
1402.357, 321.747
1403.549, 280.010
1404.740, 379.647
1405.931, 218.884
1407.122, 264.207
1408.313, 412.410
1409.503, 290.413
1410.693, 478.848
1411.883, 249.639
1413.073, 161.363
1414.263, 166.675
1415.453, 253.134
1416.642, 107.229
1417.831, 214.966
1419.020, 235.665
1420.209, 112.856
1421.398, 207.572
1422.587, 64.549
1423.775, 176.410
1424.963, 283.179
1426.151, 130.030
1427.339, 27.222
1428.526, 224.722
1429.714, 176.311
1430.901, 404.291
1432.088, 292.447
1433.275, 190.724
1434.462, 298.068
1435.648, 242.337
1436.835, 6.320
1438.021, 234.323
1439.207, 162.084
1440.393, 299.638
1441.579, 257.210
1442.764, 14.935
1443.949, 201.374
1445.135, 287.318
1446.320, 54.923
1447.504, 430.896
1448.689, 196.050
1449.873, 172.315
1451.058, 249.676
1452.242, 146.917
1453.426, 182.791
1454.609, 339.109
1455.793, 165.916
1456.976, 277.816
1458.159, 223.838
1459.342, 70.131
1460.525, 265.435
1461.708, 311.479
1462.890, 257.412
1464.073, 283.401
1465.255, 89.473
1466.437, 175.007
1467.619, 410.639
1468.800, 187.183
1469.982, 323.043
1471.163, 468.152
1472.344, 5.623
1473.525, 408.083
1474.706, 234.745
1475.886, 28.687
1477.066, 487.862
1478.247, 210.191
1479.427, 96.614
1480.607, 353.958
1481.786, 59.972
1482.966, 234.163
1484.145, 240.067
1485.324, 75.877
1486.503, 311.638
1487.682, 257.413
1488.860, 111.958
1490.039, 257.726
1491.217, 233.464
1492.395, 138.333
1493.573, 243.975
1494.751, 209.578
1495.928, 96.193
1497.106, 271.928
1498.283, 45.735
1499.460, 139.110
1500.637, 301.479
1501.814, 5.930
1502.990, 177.132
1504.166, 169.790
1505.342, 21.859
1506.518, 53.168
1507.694, 45.689
1508.870, 87.470
1510.045, 36.983
1511.221, 69.578
1512.396, 164.037
1513.571, 90.973
1514.745, 9.465
1515.920, 0.429
1517.094, 0.000
##END=



