##NAMES=Zoisite
##RRUFFID=R050038
##IDEAL CHEMISTRY=Ca_2_Al_3_(Si_2_O_7_)(SiO_4_)O(OH)
##LOCALITY=Elf Shooting Creek, Clay County, North Carolina, USA
##OWNER=RRUFF
##SOURCE=University of Arizona Mineral Museum
##DESCRIPTION=Tan colored fragments of single crystals
##STATUS=The identification of this mineral has been confirmed by X-ray diffraction and chemical analysis
##URL=rruff.info/R050038
##MEASURED CHEMISTRY=(Ca_.998_Na_.002_)_2_(Al_.982_Fe^3+^_.018_)_3_(Si_.982_Fe^3+^_.018_)_3_O_12_(OH)
##PIN_ID=M00498
##ORIENTATION=Laser parallel to c* (0 0 1). Fiducial mark perpendicular to laser is parallel to a [1 0 0]
103.843, 0.000
105.240, 6.843
106.637, 573.353
108.033, 540.448
109.429, 4809.621
110.825, 3189.680
112.220, 4356.891
113.616, 2409.149
115.011, 2125.486
116.406, 1984.514
117.800, 1450.311
119.195, 912.250
120.589, 627.070
121.983, 431.255
123.377, 303.903
124.770, 367.754
126.163, 332.756
127.556, 449.763
128.949, 537.945
130.342, 592.139
131.734, 471.779
133.126, 500.811
134.518, 504.582
135.909, 542.600
137.301, 580.619
138.692, 709.150
140.083, 683.669
141.473, 761.726
142.864, 828.106
144.254, 708.529
145.644, 841.288
147.034, 744.007
148.423, 845.890
149.812, 554.525
151.201, 531.104
152.590, 395.680
153.979, 305.943
155.367, 134.813
156.755, 120.033
158.143, 20.246
159.530, 51.241
160.918, 69.023
162.305, 162.190
163.692, 289.813
165.078, 289.168
166.465, 413.666
167.851, 577.948
169.237, 620.312
170.623, 756.367
172.008, 793.118
173.393, 875.386
174.778, 911.077
176.163, 932.415
177.548, 868.004
178.932, 899.244
180.316, 927.671
181.700, 1011.782
183.083, 1134.460
184.467, 1287.052
185.850, 1202.226
187.233, 1390.997
188.616, 1487.472
189.998, 1558.146
191.380, 1440.021
192.762, 1442.294
194.144, 1158.274
195.525, 1007.431
196.907, 776.513
198.288, 613.698
199.669, 536.195
201.049, 359.767
202.429, 242.803
203.810, 327.286
205.189, 147.139
206.569, 140.649
207.949, 70.161
209.328, 202.650
210.707, 156.211
212.085, 122.544
213.464, 98.071
214.842, 101.769
216.220, 78.530
217.598, 4.756
218.976, 31.285
220.353, 19.959
221.730, 98.500
223.107, 63.345
224.483, 169.500
225.860, 178.953
227.236, 148.680
228.612, 137.668
229.988, 146.846
231.363, 135.969
232.738, 162.352
234.113, 127.572
235.488, 134.421
236.863, 111.758
238.237, 114.920
239.611, 108.401
240.985, 106.996
242.359, 75.190
243.732, 88.613
245.105, 20.199
246.478, 135.442
247.851, 137.346
249.223, 368.691
250.595, 430.887
251.967, 551.842
253.339, 837.447
254.711, 1134.685
256.082, 1325.025
257.453, 1399.343
258.824, 1473.350
260.195, 1339.707
261.565, 1572.146
262.935, 963.197
264.305, 465.153
265.675, 293.015
267.044, 56.758
268.414, 20.327
269.783, 23.063
271.151, 18.459
272.520, 32.846
273.888, 17.531
275.256, 19.381
276.624, 79.830
277.992, 121.766
279.359, 241.149
280.726, 202.964
282.093, 321.375
283.460, 331.151
284.827, 370.169
286.193, 266.875
287.559, 292.740
288.925, 206.911
290.290, 171.469
291.656, 169.251
293.021, 182.348
294.386, 252.762
295.750, 274.612
297.115, 343.493
298.479, 424.590
299.843, 507.924
301.207, 682.532
302.570, 876.438
303.933, 1155.661
305.296, 1400.229
306.659, 1568.175
308.022, 1826.547
309.384, 1955.411
310.746, 1950.799
312.108, 1930.753
313.470, 1760.276
314.831, 1519.998
316.193, 1326.020
317.554, 1244.823
318.914, 1126.554
320.275, 1079.662
321.635, 1058.901
322.995, 958.420
324.355, 1087.431
325.715, 1164.680
327.074, 1225.760
328.434, 1468.675
329.792, 1641.055
331.151, 1859.146
332.510, 2163.242
333.868, 2472.561
335.226, 2755.595
336.584, 3167.997
337.941, 3731.047
339.299, 4472.669
340.656, 5365.102
342.013, 5993.075
343.370, 6381.032
344.726, 6179.006
346.082, 5667.245
347.438, 4715.910
348.794, 3952.087
350.150, 3195.709
351.505, 2600.649
352.860, 2087.912
354.215, 1685.333
355.570, 1330.899
356.924, 1102.303
358.278, 916.365
359.632, 835.638
360.986, 783.771
362.339, 636.809
363.693, 556.040
365.046, 489.754
366.399, 414.926
367.751, 399.465
369.104, 302.511
370.456, 330.381
371.808, 232.045
373.159, 197.062
374.511, 183.194
375.862, 144.528
377.213, 181.161
378.564, 189.877
379.914, 175.853
381.265, 98.810
382.615, 166.847
383.965, 137.905
385.315, 223.064
386.664, 232.465
388.013, 269.238
389.362, 305.458
390.711, 323.774
392.060, 339.819
393.408, 357.893
394.756, 323.998
396.104, 289.483
397.451, 221.183
398.799, 273.490
400.146, 128.246
401.493, 31.828
402.840, 196.844
404.186, 148.976
405.533, 333.143
406.879, 286.053
408.225, 256.223
409.570, 278.126
410.916, 450.042
412.261, 562.256
413.606, 631.979
414.951, 823.376
416.295, 836.950
417.639, 954.755
418.983, 1065.360
420.327, 1266.144
421.671, 1417.901
423.014, 1501.562
424.357, 1912.278
425.700, 806.403
427.043, 864.455
428.386, 776.336
429.728, 815.834
431.070, 809.788
432.412, 798.581
433.753, 821.570
435.095, 741.521
436.436, 728.291
437.777, 681.477
439.118, 632.386
440.458, 561.652
441.798, 514.826
443.138, 431.512
444.478, 431.023
445.818, 453.454
447.157, 366.052
448.496, 402.628
449.835, 405.268
451.174, 391.042
452.513, 420.374
453.851, 462.547
455.189, 471.695
456.527, 369.300
457.864, 398.958
459.202, 397.070
460.539, 491.570
461.876, 484.300
463.212, 630.647
464.549, 813.696
465.885, 946.807
467.221, 1252.648
468.557, 1542.389
469.893, 2058.031
471.228, 2395.575
472.563, 2784.025
473.898, 2913.382
475.233, 3092.647
476.567, 3225.825
477.902, 3380.838
479.236, 3533.438
480.570, 4046.511
481.903, 4650.296
483.237, 5547.941
484.570, 6485.152
485.903, 8112.858
487.235, 9200.860
488.568, 10179.106
489.900, 10327.717
491.232, 9476.308
492.564, 10604.879
493.896, 7473.434
495.227, 5611.973
496.558, 4562.495
497.889, 3595.990
499.220, 2927.465
500.551, 2353.938
501.881, 2003.416
503.211, 1698.875
504.541, 1474.339
505.870, 1325.785
507.200, 1091.211
508.529, 1054.623
509.858, 1026.012
511.187, 956.373
512.515, 879.708
513.844, 978.018
515.172, 958.296
516.500, 1016.542
517.827, 1095.375
519.155, 1263.431
520.482, 1364.153
521.809, 1587.667
523.136, 1613.581
524.462, 1756.177
525.789, 1814.525
527.115, 1709.601
528.441, 1620.646
529.766, 1446.338
531.092, 1358.204
532.417, 1103.730
533.742, 924.156
535.067, 775.575
536.391, 695.852
537.716, 682.384
539.040, 707.015
540.364, 700.655
541.688, 716.970
543.011, 614.754
544.334, 679.524
545.657, 714.797
546.980, 662.236
548.303, 883.010
549.625, 800.202
550.947, 1019.832
552.269, 1026.416
553.591, 1120.408
554.913, 1407.359
556.234, 1537.339
557.555, 1679.643
558.876, 2102.088
560.197, 2238.041
561.517, 2809.344
562.837, 3200.831
564.157, 3872.854
565.477, 4481.132
566.797, 4981.289
568.116, 5439.965
569.435, 5609.667
570.754, 5279.193
572.073, 4740.062
573.391, 4068.242
574.709, 3410.988
576.027, 2829.581
577.345, 2298.129
578.663, 1849.129
579.980, 1489.061
581.297, 1206.722
582.614, 1003.284
583.931, 859.661
585.248, 833.006
586.564, 897.072
587.880, 879.012
589.196, 996.296
590.511, 1108.923
591.827, 1275.696
593.142, 1473.758
594.457, 1669.920
595.772, 1541.510
597.086, 1311.288
598.401, 913.131
599.715, 712.943
601.029, 518.769
602.343, 357.427
603.656, 204.119
604.969, 194.941
606.282, 86.431
607.595, 116.113
608.908, 111.846
610.220, 119.563
611.532, 174.451
612.844, 268.168
614.156, 394.563
615.468, 552.202
616.779, 783.183
618.090, 1003.196
619.401, 1326.242
620.712, 1404.301
622.022, 1676.370
623.332, 1755.448
624.642, 1613.529
625.952, 1510.609
627.262, 1374.691
628.571, 1048.773
629.880, 821.856
631.189, 599.941
632.498, 573.027
633.807, 208.116
635.115, 266.206
636.423, 166.300
637.731, 13.398
639.039, 79.504
640.346, 68.823
641.653, 15.184
642.960, 174.590
644.267, 120.954
645.574, 205.870
646.880, 257.816
648.186, 362.061
649.492, 414.815
650.798, 438.582
652.103, 482.088
653.409, 470.863
654.714, 476.645
656.019, 563.783
657.323, 538.996
658.628, 631.052
659.932, 657.768
661.236, 703.344
662.540, 775.256
663.843, 803.520
665.147, 1027.806
666.450, 1211.261
667.753, 1583.140
669.056, 1980.135
670.358, 2406.493
671.660, 2873.924
672.963, 3364.109
674.264, 3741.295
675.566, 3866.482
676.868, 3828.676
678.169, 3642.876
679.470, 3064.083
680.771, 2621.301
682.071, 2226.530
683.372, 1810.771
684.672, 1579.026
685.972, 1341.294
687.271, 1241.578
688.571, 939.875
689.870, 873.187
691.169, 815.516
692.468, 733.860
693.767, 615.221
695.065, 579.597
696.364, 429.988
697.662, 414.394
698.960, 228.816
700.257, 209.251
701.555, 138.701
702.852, 189.163
704.149, 135.635
705.446, 74.117
706.742, 28.606
708.038, 23.899
709.335, 55.590
710.631, 70.083
711.926, 70.581
713.222, 58.918
714.517, 18.563
715.812, 26.046
717.107, 17.469
718.402, 37.014
719.696, 39.504
720.990, 24.036
722.284, 44.580
723.578, 9.146
724.872, 30.720
726.165, 6.310
727.458, 26.849
728.751, 26.534
730.044, 76.179
731.336, 90.869
732.629, 124.610
733.921, 20.580
735.213, 91.241
736.504, 37.115
737.796, 87.019
739.087, 100.974
740.378, 44.988
741.669, 94.036
742.960, 24.859
744.250, 35.257
745.540, 33.402
746.830, 101.578
748.120, 18.184
749.410, 7.934
750.699, 1.330
751.988, 131.388
753.277, 95.098
754.566, 142.797
755.854, 164.489
757.143, 172.170
758.431, 291.844
759.719, 264.508
761.006, 319.164
762.294, 349.811
763.581, 471.450
764.868, 429.080
766.155, 603.700
767.442, 568.312
768.728, 586.913
770.014, 659.504
771.300, 711.086
772.586, 685.658
773.872, 774.220
775.157, 725.771
776.442, 740.311
777.727, 653.841
779.012, 668.360
780.297, 586.868
781.581, 504.366
782.865, 515.853
784.149, 473.330
785.433, 349.795
786.716, 256.250
787.999, 338.693
789.282, 210.126
790.565, 135.548
791.848, 179.959
793.130, 125.326
794.413, 60.715
795.695, 53.091
796.977, 26.565
798.258, 7.244
799.540, 50.955
800.821, 16.719
802.102, 89.521
803.382, 29.396
804.663, 80.316
805.943, 58.305
807.224, 45.353
808.504, 7.546
809.783, 16.582
811.063, 85.749
812.342, 98.989
813.621, 8.310
814.900, 90.666
816.179, 11.099
817.457, 0.432
818.736, 34.069
820.014, 2.619
821.292, 33.799
822.569, 6.198
823.847, 0.432
825.124, 54.086
826.401, 120.229
827.678, 137.542
828.954, 173.843
830.231, 173.133
831.507, 242.412
832.783, 262.679
834.059, 286.944
835.334, 304.196
836.610, 342.439
837.885, 347.696
839.160, 376.942
840.435, 426.178
841.709, 439.402
842.983, 463.615
844.258, 534.828
845.532, 547.031
846.805, 627.221
848.079, 681.400
849.352, 753.567
850.625, 851.733
851.898, 957.888
853.171, 1066.031
854.443, 1286.162
855.715, 1368.281
856.988, 1558.395
858.259, 1749.497
859.531, 1915.504
860.803, 2253.312
862.074, 2440.389
863.345, 2886.289
864.616, 3458.246
865.886, 4029.190
867.157, 4768.678
868.427, 5386.388
869.697, 5844.115
870.967, 6171.254
872.236, 5749.030
873.506, 5485.200
874.775, 4572.014
876.044, 4071.873
877.313, 3439.199
878.581, 2966.636
879.849, 2871.007
881.118, 2548.530
882.386, 2514.022
883.653, 2495.943
884.921, 2462.004
886.188, 2455.092
887.455, 2505.708
888.722, 2573.577
889.989, 2568.283
891.255, 2599.274
892.522, 2597.429
893.788, 2632.603
895.054, 2664.049
896.319, 2773.623
897.585, 2806.170
898.850, 2855.773
900.115, 3029.562
901.380, 3204.083
902.645, 3270.531
903.909, 3592.576
905.174, 3671.448
906.438, 3958.268
907.701, 4187.130
908.965, 4622.987
910.229, 5030.838
911.492, 5348.686
912.755, 6446.527
914.018, 6954.365
915.280, 8132.197
916.543, 9040.025
917.805, 10267.849
919.067, 11905.668
920.329, 13293.482
921.590, 14931.293
922.852, 16109.102
924.113, 17056.904
925.374, 17204.697
926.635, 16452.496
927.895, 14850.286
929.156, 13108.074
930.416, 10805.857
931.676, 9143.638
932.936, 7521.411
934.195, 6409.182
935.454, 5386.950
936.714, 4474.716
937.973, 3952.477
939.231, 3477.234
940.490, 3082.988
941.748, 2853.739
943.006, 2444.486
944.264, 2335.234
945.522, 2092.980
946.780, 1996.518
948.037, 1776.022
949.294, 1714.488
950.551, 1557.001
951.808, 1572.968
953.064, 1363.907
954.320, 1348.549
955.577, 1293.683
956.832, 1294.806
958.088, 1344.193
959.344, 1163.316
960.599, 1236.433
961.854, 1355.198
963.109, 1190.891
964.364, 1210.743
965.618, 1201.938
966.872, 1306.277
968.127, 1363.282
969.380, 1324.941
970.634, 1541.582
971.888, 1665.057
973.141, 1840.112
974.394, 2176.056
975.647, 2320.639
976.900, 2679.155
978.152, 3065.921
979.404, 3421.691
980.656, 3560.466
981.908, 3585.247
983.160, 3508.032
984.411, 3526.505
985.663, 2982.303
986.914, 2629.212
988.165, 2292.022
989.415, 1872.833
990.666, 1627.808
991.916, 1366.636
993.166, 1091.469
994.416, 1080.930
995.665, 868.792
996.915, 765.657
998.164, 620.526
999.413, 611.407
1000.662, 587.568
1001.911, 527.458
1003.159, 398.354
1004.407, 309.253
1005.655, 280.157
1006.903, 338.239
1008.151, 310.161
1009.398, 232.087
1010.646, 241.771
1011.893, 172.913
1013.139, 167.877
1014.386, 163.939
1015.633, 124.913
1016.879, 169.643
1018.125, 141.764
1019.371, 163.799
1020.616, 153.559
1021.862, 143.715
1023.107, 162.807
1024.352, 181.120
1025.597, 234.196
1026.842, 166.911
1028.086, 241.795
1029.330, 213.924
1030.574, 275.060
1031.818, 235.224
1033.062, 346.529
1034.305, 303.716
1035.548, 292.928
1036.791, 295.219
1038.034, 397.483
1039.277, 430.838
1040.519, 445.340
1041.762, 544.672
1043.004, 583.032
1044.246, 512.473
1045.487, 603.068
1046.729, 583.599
1047.970, 561.293
1049.211, 513.789
1050.452, 503.264
1051.692, 477.832
1052.933, 409.318
1054.173, 391.025
1055.413, 442.521
1056.653, 499.021
1057.893, 412.618
1059.132, 556.123
1060.371, 571.834
1061.610, 626.344
1062.849, 818.856
1064.088, 895.534
1065.326, 1095.050
1066.565, 1096.796
1067.803, 1190.515
1069.041, 1272.117
1070.278, 1171.688
1071.516, 1225.263
1072.753, 1090.791
1073.990, 1055.756
1075.227, 1034.473
1076.464, 964.007
1077.700, 1002.795
1078.936, 984.352
1080.173, 1041.584
1081.408, 1164.436
1082.644, 1234.979
1083.880, 1396.038
1085.115, 1593.586
1086.350, 1746.208
1087.585, 2061.772
1088.820, 2194.339
1090.054, 2394.140
1091.288, 2355.746
1092.522, 2214.255
1093.756, 1928.294
1094.990, 1785.940
1096.224, 1506.187
1097.457, 1408.892
1098.690, 1163.491
1099.923, 981.250
1101.156, 1001.147
1102.388, 700.805
1103.621, 674.494
1104.853, 691.268
1106.085, 526.317
1107.316, 534.250
1108.548, 444.557
1109.779, 355.340
1111.010, 378.136
1112.241, 281.101
1113.472, 239.014
1114.703, 259.157
1115.933, 186.216
1117.163, 191.426
1118.393, 151.384
1119.623, 198.490
1120.853, 152.854
1122.082, 143.836
1123.311, 120.032
1124.540, 100.081
1125.769, 81.151
1126.997, 125.348
1128.226, 23.624
1129.454, 97.108
1130.682, 30.559
1131.910, 41.554
1133.138, 46.643
1134.365, 6.125
1135.592, 112.081
1136.819, 36.935
1138.046, 8.244
1139.273, 19.199
1140.499, 95.364
1141.725, 54.530
1142.951, 77.188
1144.177, 16.293
1145.403, 81.369
1146.628, 56.800
1147.854, 44.932
1149.079, 42.391
1150.304, 43.245
1151.528, 21.439
1152.753, 42.524
1153.977, 24.372
1155.201, 28.509
1156.425, 54.452
1157.649, 15.522
1158.872, 23.052
1160.096, 65.636
1161.319, 36.297
1162.542, 47.649
1163.764, 26.785
1164.987, 10.040
1166.209, 36.434
1167.431, 105.810
1168.653, 11.942
1169.875, 29.895
1171.097, 65.343
1172.318, 57.464
1173.539, 100.677
1174.760, 5.999
1175.981, 96.082
1177.202, 86.734
1178.422, 45.465
1179.642, 17.314
1180.862, 77.389
1182.082, 99.838
1183.302, 43.619
1184.521, 52.050
1185.740, 37.472
1186.959, 15.118
1188.178, 84.593
1189.397, 86.286
1190.615, 48.667
1191.834, 19.109
1193.052, 36.468
1194.269, 12.881
1195.487, 57.541
1196.705, 92.973
1197.922, 50.299
1199.139, 95.874
1200.356, 22.380
1201.573, 122.657
1202.789, 112.195
1204.006, 53.483
1205.222, 151.726
1206.438, 29.168
1207.653, 82.432
1208.869, 88.637
1210.084, 41.830
1211.299, 100.010
1212.514, 28.178
1213.729, 36.331
1214.944, 65.471
1216.158, 74.597
1217.372, 74.710
1218.586, 116.969
1219.800, 17.058
1221.014, 45.180
1222.227, 99.238
1223.440, 31.351
1224.654, 87.382
1225.866, 96.736
1227.079, 130.741
1228.292, 133.152
1229.504, 18.031
1230.716, 136.991
1231.928, 86.160
1233.139, 112.136
1234.351, 139.266
1235.562, 47.633
1236.773, 95.751
1237.984, 10.879
1239.195, 26.773
1240.406, 89.735
1241.616, 19.616
1242.826, 78.604
1244.036, 155.571
1245.246, 74.665
1246.456, 47.697
1247.665, 109.530
1248.874, 110.482
1250.083, 95.311
1251.292, 42.074
1252.501, 71.823
1253.709, 30.555
1254.917, 144.285
1256.125, 152.083
1257.333, 85.764
1258.541, 107.489
1259.748, 56.300
1260.956, 84.904
1262.163, 52.512
1263.370, 116.073
1264.576, 85.617
1265.783, 43.998
1266.989, 121.539
1268.195, 73.104
1269.401, 112.037
1270.607, 107.421
1271.813, 77.996
1273.018, 59.440
1274.223, 41.895
1275.428, 44.305
1276.633, 24.639
1277.838, 74.186
1279.042, 71.286
1280.246, 115.366
1281.450, 104.507
1282.654, 21.663
1283.858, 6.610
1285.061, 67.816
1286.265, 82.193
1287.468, 47.403
1288.671, 73.587
1289.873, 80.558
1291.076, 5.510
1292.278, 47.438
1293.480, 40.073
1294.682, 124.964
1295.884, 49.876
1297.086, 68.731
1298.287, 63.568
1299.488, 3.786
1300.689, 97.004
1301.890, 76.777
1303.091, 29.774
1304.291, 33.726
1305.491, 57.937
1306.691, 79.483
1307.891, 80.897
1309.091, 100.967
1310.290, 0.416
1311.490, 114.933
1312.689, 94.709
1313.888, 47.077
1315.086, 89.674
1316.285, 64.860
1317.483, 45.730
1318.681, 73.035
1319.879, 18.617
1321.077, 73.935
1322.275, 53.226
1323.472, 2.522
1324.669, 17.576
1325.866, 117.794
1327.063, 37.957
1328.260, 174.052
1329.456, 163.160
1330.653, 47.821
1331.849, 98.044
1333.045, 44.085
1334.240, 138.106
1335.436, 99.043
1336.631, 170.832
1337.826, 100.670
1339.021, 17.466
1340.216, 90.394
1341.411, 113.337
1342.605, 51.119
1343.799, 64.970
1344.993, 212.584
1346.187, 51.391
1347.381, 108.178
1348.574, 133.010
1349.767, 65.759
1350.961, 105.286
1352.153, 142.000
1353.346, 139.700
1354.539, 144.220
1355.731, 167.889
1356.923, 165.105
1358.115, 237.739
1359.307, 147.426
1360.498, 149.858
1361.690, 78.391
1362.881, 125.962
1364.072, 104.089
1365.263, 156.864
1366.453, 100.406
1367.644, 135.691
1368.834, 41.208
1370.024, 170.677
1371.214, 128.128
1372.404, 44.174
1373.593, 174.444
1374.783, 31.858
1375.972, 109.857
1377.161, 71.271
1378.349, 31.480
1379.538, 67.328
1380.726, 63.055
1381.915, 115.893
1383.103, 97.393
1384.290, 114.453
1385.478, 85.133
1386.665, 88.016
1387.853, 55.746
1389.040, 67.642
1390.227, 112.617
1391.413, 81.275
1392.600, 108.262
1393.786, 173.317
1394.972, 127.922
1396.158, 213.931
1397.344, 116.693
1398.530, 97.360
1399.715, 142.230
1400.900, 104.079
1402.085, 68.804
1403.270, 193.208
1404.455, 106.618
1405.639, 116.868
1406.824, 173.924
1408.008, 3.656
1409.192, 101.953
1410.375, 81.511
1411.559, 19.515
1412.742, 168.609
1413.925, 45.736
1415.108, 72.704
1416.291, 65.761
1417.474, 41.924
1418.656, 159.391
1419.839, 115.502
1421.021, 37.930
1422.202, 123.014
1423.384, 116.922
1424.566, 77.669
1425.747, 169.860
1426.928, 55.040
1428.109, 12.347
1429.290, 103.063
1430.470, 109.864
1431.651, 133.479
1432.831, 141.217
1434.011, 87.215
1435.191, 150.271
1436.370, 85.307
1437.550, 71.326
1438.729, 200.030
1439.908, 110.909
1441.087, 136.731
1442.266, 105.005
1443.444, 84.899
1444.623, 168.133
1445.801, 139.312
1446.979, 124.623
1448.157, 176.266
1449.334, 117.542
1450.512, 66.610
1451.689, 72.062
1452.866, 114.748
1454.043, 121.428
1455.220, 127.529
1456.396, 24.542
1457.573, 207.300
1458.749, 172.687
1459.925, 91.654
1461.100, 152.662
1462.276, 224.236
1463.451, 84.613
1464.627, 172.177
1465.802, 72.631
1466.977, 148.232
1468.151, 152.704
1469.326, 114.747
1470.500, 167.722
1471.674, 113.294
1472.848, 142.315
1474.022, 141.290
1475.195, 50.200
1476.369, 73.895
1477.542, 119.652
1478.715, 128.341
1479.888, 0.962
1481.061, 131.768
1482.233, 34.573
1483.405, 68.279
1484.577, 116.063
1485.749, 100.950
1486.921, 80.669
1488.093, 151.368
1489.264, 7.185
1490.435, 118.048
1491.606, 47.143
1492.777, 63.469
1493.948, 211.900
1495.118, 118.371
1496.288, 98.915
1497.459, 163.942
1498.628, 92.114
1499.798, 109.825
1500.968, 145.750
1502.137, 45.068
1503.306, 183.207
1504.475, 91.492
1505.644, 4.077
1506.813, 146.806
1507.981, 152.026
1509.149, 64.364
1510.318, 134.895
1511.485, 75.660
1512.653, 0.185
1513.821, 0.000
##END=



