##NAMES=Zoisite
##RRUFFID=R050041
##IDEAL CHEMISTRY=Ca_2_Al_3_(Si_2_O_7_)(SiO_4_)O(OH)
##LOCALITY=Franklin County, Conway, Massachussetts, USA
##OWNER=RRUFF
##SOURCE=University of Arizona Mineral Museum
##DESCRIPTION=Tan colored fragment
##STATUS=The identification of this mineral has been confirmed by X-ray diffraction and chemical analysis
##URL=rruff.info/R050041
##MEASURED CHEMISTRY=(Ca_.993_Mg_.004_Na_.002_Mn_.001_)_2_(Al_.980_Fe^3+^_.020_)_3_(Si_.986_Fe^3+^_.014_)_3_O_12_(OH)
##PIN_ID=L00320
##ORIENTATION=Laser parallel to b* (0 1 0). Fiducial mark perpendicular to laser is parallel to c [0 0 1]
102.883, 0.000
104.273, 2.129
105.664, 298.126
107.054, 364.220
108.444, 545.854
109.834, 903.406
111.223, 925.323
112.613, 1335.004
114.002, 1710.727
115.391, 2241.194
116.780, 2345.453
118.168, 2524.450
119.556, 2603.357
120.944, 2386.381
122.332, 2051.533
123.720, 1538.322
125.107, 986.516
126.495, 735.859
127.882, 306.104
129.268, 167.105
130.655, 179.395
132.041, 33.326
133.427, 7.566
134.813, 102.963
136.199, 49.918
137.584, 248.652
138.970, 507.461
140.355, 815.871
141.740, 1173.908
143.124, 1731.623
144.509, 2139.461
145.893, 2237.916
147.277, 2456.420
148.660, 2024.586
150.044, 1602.459
151.427, 1270.070
152.810, 897.459
154.193, 554.648
155.576, 522.889
156.958, 371.061
158.341, 329.887
159.723, 251.543
161.105, 337.127
162.486, 83.441
163.867, 303.607
165.249, 315.666
166.630, 148.430
168.010, 252.588
169.391, 274.504
170.771, 645.578
172.151, 395.180
173.531, 602.402
174.911, 435.561
176.290, 689.148
177.669, 732.449
179.049, 805.811
180.427, 1019.234
181.806, 1132.717
183.184, 1306.260
184.562, 1515.754
185.940, 1770.391
187.318, 1864.182
188.696, 1908.779
190.073, 2162.979
191.450, 1736.012
192.827, 1339.135
194.204, 1402.355
195.580, 1145.672
196.956, 1009.086
198.332, 642.596
199.708, 766.201
201.084, 369.900
202.459, 343.688
203.834, 187.564
205.209, 191.523
206.584, 165.562
207.958, 19.682
209.333, 33.875
210.707, 51.855
212.081, 122.482
213.454, 6.891
214.828, 148.639
216.201, 115.895
217.574, 130.488
218.947, 95.135
220.320, 19.830
221.692, 54.574
223.064, 39.359
224.436, 15.811
225.808, 90.939
227.179, 3.979
228.551, 8.938
229.922, 30.816
231.293, 21.031
232.663, 95.959
234.034, 80.691
235.404, 105.543
236.774, 104.350
238.144, 84.758
239.514, 79.906
240.883, 24.658
242.252, 19.469
243.621, 45.760
244.990, 161.027
246.359, 56.322
247.727, 221.586
249.095, 16.865
250.463, 102.141
251.831, 57.367
253.198, 122.520
254.566, 297.637
255.933, 462.773
257.299, 447.949
258.666, 443.170
260.033, 418.434
261.399, 273.742
262.765, 89.092
264.131, 184.486
265.496, 50.078
266.862, 44.611
268.227, 51.680
269.592, 47.816
270.957, 43.654
272.321, 148.443
273.685, 53.242
275.050, 42.215
276.413, 2.111
277.777, 213.744
279.141, 49.750
280.504, 275.887
281.867, 312.139
283.230, 598.486
284.592, 344.918
285.955, 511.424
287.317, 247.990
288.679, 234.609
290.041, 421.277
291.403, 167.986
292.764, 344.732
294.125, 351.514
295.486, 398.344
296.847, 375.195
298.207, 581.225
299.568, 938.957
300.928, 1145.859
302.288, 1482.773
303.647, 2069.697
305.007, 2716.623
306.366, 3503.574
307.725, 3790.529
309.084, 4074.080
310.443, 4384.473
311.801, 3951.445
313.159, 3438.418
314.517, 2715.395
315.875, 2242.379
317.233, 1769.396
318.590, 1526.424
319.947, 1193.453
321.304, 960.439
322.661, 808.408
324.018, 654.334
325.374, 641.322
326.730, 578.318
328.086, 665.311
329.442, 562.242
330.797, 469.152
332.153, 715.992
333.508, 482.730
334.863, 719.381
336.217, 765.984
337.572, 682.592
338.926, 879.227
340.280, 945.883
341.634, 1002.566
342.988, 869.291
344.341, 876.037
345.694, 552.812
347.047, 659.609
348.400, 546.402
349.753, 343.168
351.105, 349.914
352.457, 186.592
353.809, 183.289
355.161, 210.014
356.512, 156.766
357.864, 323.545
359.215, 170.348
360.566, 197.178
361.916, 284.033
363.267, 20.914
364.617, 237.818
365.967, 144.744
367.317, 331.697
368.667, 168.670
370.016, 75.666
371.366, 422.295
372.715, 59.291
374.064, 72.654
375.412, 219.742
376.761, 146.037
378.109, 214.350
379.457, 41.502
380.805, 18.674
382.152, 35.869
383.500, 72.801
384.847, 83.297
386.194, 87.291
387.541, 142.822
388.887, 234.564
390.233, 271.072
391.580, 177.822
392.926, 42.732
394.271, 548.168
395.617, 253.033
396.962, 545.535
398.307, 346.721
399.652, 508.006
400.997, 580.391
402.341, 703.068
403.686, 1068.553
405.030, 1164.334
406.374, 1431.887
407.717, 1499.459
409.061, 1417.053
410.404, 1514.664
411.747, 1562.135
413.090, 1769.787
414.433, 1867.459
415.775, 1765.150
417.117, 1882.871
418.459, 1600.613
419.801, 1728.396
421.143, 1486.199
422.484, 1524.020
423.825, 1201.865
425.166, 1459.729
426.507, 1477.631
427.848, 1572.621
429.188, 1757.926
430.528, 1782.914
431.868, 1858.779
433.208, 2033.566
434.547, 1843.523
435.887, 1908.504
437.226, 1746.594
438.565, 1654.043
439.904, 1542.168
441.242, 1430.312
442.580, 1328.471
443.918, 1096.645
445.256, 1074.834
446.594, 1153.041
447.932, 931.262
449.269, 1219.498
450.606, 907.748
451.943, 1106.010
453.280, 1084.318
454.616, 1262.639
455.952, 665.443
457.288, 593.789
458.624, 692.146
459.960, 451.904
461.295, 511.121
462.631, 661.555
463.966, 482.906
465.300, 681.402
466.635, 345.238
467.969, 883.758
469.304, 784.697
470.638, 943.268
471.972, 1301.848
473.305, 1110.439
474.639, 1419.045
475.972, 1438.008
477.305, 1693.344
478.638, 2031.984
479.970, 2531.887
481.303, 2970.551
482.635, 3901.496
483.967, 4550.211
485.298, 5656.932
486.630, 6715.672
487.961, 7244.492
489.293, 7183.326
490.624, 7252.168
491.954, 6361.021
493.285, 5109.887
494.615, 4240.652
495.945, 3209.566
497.275, 2878.494
498.605, 1967.453
499.935, 1676.424
501.264, 1335.406
502.593, 1127.703
503.922, 816.709
505.251, 731.295
506.579, 864.752
507.908, 643.791
509.236, 812.840
510.564, 871.900
511.891, 540.971
513.219, 640.055
514.546, 699.174
515.873, 658.301
517.200, 1057.439
518.527, 706.586
519.853, 1215.744
521.180, 1434.914
522.506, 1454.094
523.832, 1843.156
525.157, 1442.354
526.483, 1871.562
527.808, 1620.779
529.133, 1260.006
530.458, 1359.244
531.783, 1288.508
533.107, 1127.781
534.431, 987.080
535.756, 756.387
537.079, 735.707
538.403, 587.955
539.727, 501.811
541.050, 413.840
542.373, 393.240
543.696, 322.645
545.018, 342.059
546.341, 361.479
547.663, 344.283
548.985, 294.412
550.307, 349.863
551.629, 119.352
552.950, 78.861
554.271, 71.615
555.592, 307.910
556.913, 207.463
558.234, 287.596
559.554, 447.217
560.875, 146.865
562.195, 316.541
563.514, 506.230
564.834, 235.938
566.154, 395.648
567.473, 375.363
568.792, 625.086
570.111, 404.811
571.429, 324.541
572.748, 374.277
574.066, 284.018
575.384, 235.781
576.702, 335.531
578.019, 169.896
579.337, 229.652
580.654, 239.506
581.971, 216.689
583.288, 329.275
584.605, 293.488
585.921, 603.262
587.237, 713.051
588.553, 962.852
589.869, 1002.670
591.185, 1392.504
592.500, 1682.350
593.815, 1592.234
595.130, 1652.350
596.445, 1122.252
597.760, 842.156
599.074, 812.062
600.389, 241.967
601.703, 691.875
603.016, 301.781
604.330, 51.691
605.644, 21.598
606.957, 31.508
608.270, 241.416
609.583, 21.324
610.895, 17.699
612.208, 247.605
613.520, 72.488
614.832, 207.377
616.144, 177.242
617.455, 15.730
618.767, 5.883
620.078, 26.047
621.389, 37.312
622.700, 102.705
624.011, 77.512
625.321, 122.221
626.631, 28.049
627.941, 127.779
629.251, 97.480
630.561, 97.180
631.870, 136.873
633.180, 16.566
634.489, 93.752
635.798, 176.018
637.106, 3.652
638.415, 195.945
639.723, 17.512
641.031, 192.059
642.339, 268.379
643.647, 211.025
644.954, 97.396
646.261, 76.789
647.568, 176.178
648.875, 255.740
650.182, 305.113
651.488, 0.863
652.795, 380.207
654.101, 169.541
655.407, 323.260
656.712, 272.582
658.018, 151.896
659.323, 18.795
660.628, 500.473
661.933, 90.188
663.238, 349.441
664.542, 418.686
665.847, 237.924
667.151, 517.152
668.455, 316.713
669.758, 625.924
671.062, 510.201
672.365, 559.396
673.668, 708.623
674.971, 667.801
676.274, 576.971
677.577, 726.131
678.879, 545.281
680.181, 744.424
681.483, 293.561
682.785, 602.684
684.086, 421.799
685.388, 391.119
686.689, 740.568
687.990, 392.939
689.290, 452.018
690.591, 661.086
691.891, 500.145
693.192, 899.189
694.491, 268.797
695.791, 747.824
697.091, 307.607
698.390, 566.615
699.689, 255.611
700.988, 464.596
702.287, 393.568
703.586, 292.531
704.884, 291.496
706.182, 265.367
707.480, 158.711
708.778, 248.322
710.076, 237.240
711.373, 142.924
712.670, 246.170
713.968, 60.707
715.264, 239.574
716.561, 528.430
717.857, 297.297
719.154, 716.152
720.450, 364.996
721.746, 673.828
723.041, 512.646
724.337, 491.451
725.632, 520.246
726.927, 129.029
728.222, 527.799
729.517, 436.559
730.811, 15.305
732.105, 554.020
733.400, 27.277
734.693, 651.369
735.987, 100.006
737.281, 88.627
738.574, 417.232
739.867, 24.174
741.160, 334.367
742.453, 142.895
743.745, 391.410
745.038, 369.910
746.330, 398.398
747.622, 326.875
748.913, 185.336
750.205, 93.787
751.496, 172.217
752.788, 270.637
754.079, 159.043
755.369, 247.434
756.660, 205.814
757.950, 344.178
759.241, 392.529
760.531, 250.865
761.820, 279.191
763.110, 237.502
764.399, 305.801
765.689, 55.916
766.978, 142.297
768.267, 220.498
769.555, 184.215
770.844, 592.389
772.132, 69.451
773.420, 157.279
774.708, 434.553
775.996, 99.391
777.283, 85.703
778.570, 233.656
779.857, 116.266
781.144, 204.197
782.431, 60.297
783.718, 117.555
785.004, 335.395
786.290, 333.221
787.576, 151.037
788.862, 338.492
790.147, 79.574
791.433, 37.354
792.718, 283.865
794.003, 78.383
795.288, 137.055
796.572, 154.723
797.857, 294.389
799.141, 247.963
800.425, 239.529
801.709, 77.010
802.992, 54.480
804.276, 251.943
805.559, 80.605
806.842, 204.918
808.125, 202.293
809.407, 50.340
810.690, 246.980
811.972, 124.289
813.254, 241.586
814.536, 315.574
815.818, 22.859
817.099, 350.129
818.381, 377.398
819.662, 194.660
820.943, 251.914
822.223, 29.172
823.504, 326.418
824.784, 66.348
826.065, 190.836
827.345, 58.012
828.624, 305.176
829.904, 512.336
831.183, 249.488
832.462, 166.637
833.741, 273.773
835.020, 160.906
836.299, 142.277
837.577, 205.148
838.856, 32.258
840.134, 19.367
841.412, 42.504
842.689, 553.516
843.967, 200.570
845.244, 137.617
846.521, 564.656
847.798, 1.688
849.075, 568.715
850.351, 4.258
851.628, 292.754
852.904, 709.762
854.180, 196.766
855.455, 723.766
856.731, 400.758
858.006, 520.117
859.281, 837.105
860.556, 704.090
861.831, 1141.066
863.106, 998.051
864.380, 1075.035
865.655, 1632.023
866.929, 1499.012
868.202, 1825.449
869.476, 2362.426
870.750, 1774.465
872.023, 2111.422
873.296, 1498.379
874.569, 1645.324
875.842, 1152.262
877.114, 1389.191
878.386, 886.402
879.658, 843.320
880.930, 1380.230
882.202, 1237.137
883.474, 984.035
884.745, 1108.910
886.016, 1245.797
887.287, 908.086
888.558, 914.961
889.829, 951.742
891.099, 728.363
892.369, 1065.227
893.639, 607.637
894.909, 734.488
896.179, 411.332
897.448, 678.172
898.718, 945.012
899.987, 261.844
901.256, 658.672
902.524, 815.504
903.793, 552.109
905.061, 928.934
906.329, 445.754
907.597, 322.570
908.865, 739.383
910.133, 556.199
911.400, 683.012
912.667, 329.824
913.934, 906.637
915.201, 703.445
916.468, 380.258
917.734, 867.074
919.001, 497.426
920.267, 884.242
921.532, 1051.055
922.798, 737.898
924.064, 904.738
925.329, 934.422
926.594, 791.270
927.859, 1128.137
929.124, 476.090
930.388, 1032.754
931.653, 559.648
932.917, 666.570
934.181, 723.500
935.445, 654.320
936.708, 431.266
937.972, 318.219
939.235, 585.180
940.498, 542.125
941.761, 699.070
943.024, 605.914
944.286, 242.191
945.548, 709.195
946.811, 419.211
948.072, 676.188
949.334, 303.180
950.596, 610.246
951.857, 370.348
953.118, 557.430
954.379, 554.523
955.640, 201.438
956.901, 558.547
958.161, 439.285
959.421, 226.418
960.681, 743.562
961.941, 296.332
963.201, 773.496
964.460, 600.676
965.720, 197.871
966.979, 605.090
968.238, 351.863
969.496, 661.355
970.755, 428.613
972.013, 815.883
973.272, 774.996
974.529, 751.957
975.787, 1349.270
977.045, 1181.527
978.302, 1338.871
979.560, 1936.191
980.817, 1613.566
982.073, 1390.961
983.330, 1638.375
984.587, 965.812
985.843, 1503.273
987.099, 890.754
988.355, 938.254
989.611, 725.781
990.866, 563.125
992.122, 540.352
993.377, 564.676
994.632, 452.312
995.887, 869.914
997.141, 367.492
998.396, 445.102
999.650, 452.168
1000.904, 51.953
1002.158, 588.871
1003.412, 246.598
1004.665, 304.352
1005.918, 82.137
1007.172, 39.953
1008.425, 82.195
1009.677, 355.695
1010.930, 173.488
1012.182, 481.312
1013.434, 211.219
1014.687, 249.098
1015.938, 307.016
1017.190, 424.566
1018.441, 181.914
1019.693, 569.133
1020.944, 123.781
1022.195, 393.289
1023.445, 120.355
1024.696, 247.430
1025.946, 414.500
1027.197, 311.574
1028.446, 21.328
1029.696, 545.816
1030.946, 42.969
1032.195, 490.148
1033.445, 237.359
1034.694, 364.574
1035.942, 241.793
1037.191, 0.980
1038.440, 576.258
1039.688, 493.496
1040.936, 220.746
1042.184, 968.012
1043.432, 375.281
1044.679, 452.590
1045.927, 699.941
1047.174, 87.309
1048.421, 994.758
1049.668, 512.270
1050.914, 239.844
1052.161, 1097.430
1053.407, 755.102
1054.653, 592.785
1055.899, 590.484
1057.145, 478.203
1058.391, 905.980
1059.636, 693.816
1060.881, 861.770
1062.126, 1099.840
1063.371, 717.941
1064.615, 1376.137
1065.860, 1294.387
1067.104, 1402.691
1068.348, 1291.016
1069.592, 1319.359
1070.836, 1225.953
1072.079, 1148.316
1073.323, 1064.484
1074.566, 982.961
1075.809, 1041.461
1077.052, 999.992
1078.294, 1128.539
1079.537, 777.121
1080.779, 1125.734
1082.021, 834.422
1083.263, 743.137
1084.504, 1121.883
1085.746, 940.637
1086.987, 959.426
1088.228, 1078.234
1089.469, 862.613
1090.710, 1481.398
1091.951, 1260.176
1093.191, 788.969
1094.431, 1407.805
1095.671, 476.336
1096.911, 835.105
1098.151, 583.926
1099.390, 792.195
1100.630, 461.125
1101.869, 410.109
1103.108, 739.113
1104.346, 138.223
1105.585, 517.402
1106.823, 426.652
1108.062, 405.969
1109.300, 5.359
1110.537, 604.824
1111.775, 304.355
1113.013, 243.957
1114.250, 263.641
1115.487, 223.387
1116.724, 373.207
1117.961, 56.918
1119.197, 633.031
1120.434, 633.039
1121.670, 46.875
1122.906, 413.285
1124.142, 433.516
1125.377, 93.812
1126.613, 594.195
1127.848, 34.656
1129.083, 315.277
1130.318, 306.078
1131.553, 286.988
1132.787, 398.406
1134.022, 369.859
1135.256, 571.781
1136.490, 443.750
1137.724, 125.918
1138.957, 228.289
1140.191, 300.883
1141.424, 83.711
1142.657, 636.789
1143.890, 336.379
1145.123, 67.469
1146.355, 389.961
1147.588, 632.652
1148.820, 24.449
1150.052, 198.648
1151.284, 621.902
1152.516, 305.266
1153.747, 348.695
1154.978, 282.109
1156.209, 636.172
1157.440, 332.691
1158.671, 246.160
1159.902, 869.180
1161.132, 8.355
1162.362, 693.027
1163.592, 255.887
1164.822, 235.477
1166.052, 202.570
1167.281, 0.000
##END=



