##NAMES=Zoisite
##RRUFFID=R050038
##IDEAL CHEMISTRY=Ca_2_Al_3_(Si_2_O_7_)(SiO_4_)O(OH)
##LOCALITY=Elf Shooting Creek, Clay County, North Carolina, USA
##OWNER=RRUFF
##SOURCE=University of Arizona Mineral Museum
##DESCRIPTION=Tan colored fragments of single crystals
##STATUS=The identification of this mineral has been confirmed by X-ray diffraction and chemical analysis
##URL=rruff.info/R050038
##MEASURED CHEMISTRY=(Ca_.998_Na_.002_)_2_(Al_.982_Fe^3+^_.018_)_3_(Si_.982_Fe^3+^_.018_)_3_O_12_(OH)
##PIN_ID=M00498
##ORIENTATION=Laser parallel to c* (0 0 1). Fiducial mark perpendicular to laser is parallel to a [1 0 0]
106.637, 0.000
108.033, 676.740
109.429, 1701.828
110.825, 1769.354
112.220, 1800.110
113.616, 1953.354
115.011, 1850.539
116.406, 1818.245
117.800, 1686.151
119.195, 1559.077
120.589, 1573.096
121.983, 1451.907
123.377, 1218.496
124.770, 1217.448
126.163, 1263.793
127.556, 1453.923
128.949, 1437.783
130.342, 1397.530
131.734, 1170.586
133.126, 1370.755
134.518, 1738.003
135.909, 2241.809
137.301, 2624.578
138.692, 2637.598
140.083, 3260.177
141.473, 3571.421
142.864, 4180.776
144.254, 4310.807
145.644, 4217.031
147.034, 3683.621
148.423, 2984.055
149.812, 1988.918
151.201, 1620.291
152.590, 947.388
153.979, 501.054
155.367, 322.576
156.755, 186.941
158.143, 180.494
159.530, 150.004
160.918, 52.761
162.305, 21.679
163.692, 48.296
165.078, 135.525
166.465, 44.154
167.851, 236.868
169.237, 478.684
170.623, 567.525
172.008, 716.111
173.393, 951.787
174.778, 962.733
176.163, 1008.344
177.548, 975.966
178.932, 1129.937
180.316, 1223.361
181.700, 1357.352
183.083, 1622.033
184.467, 1805.849
185.850, 2069.327
187.233, 2482.892
188.616, 2296.782
189.998, 2370.094
191.380, 2093.566
192.762, 1837.752
194.144, 1532.620
195.525, 1098.116
196.907, 1134.187
198.288, 768.947
199.669, 763.782
201.049, 553.278
202.429, 420.592
203.810, 463.046
205.189, 323.468
206.569, 340.272
207.949, 330.150
209.328, 430.664
210.707, 529.903
212.085, 242.535
213.464, 309.691
214.842, 331.458
216.220, 70.354
217.598, 54.123
218.976, 88.555
220.353, 113.895
221.730, 222.231
223.107, 242.853
224.483, 386.749
225.860, 281.923
227.236, 236.346
228.612, 286.613
229.988, 368.194
231.363, 272.706
232.738, 197.193
234.113, 179.956
235.488, 301.057
236.863, 251.680
238.237, 189.132
239.611, 142.156
240.985, 76.484
242.359, 4.348
243.732, 44.911
245.105, 129.362
246.478, 175.032
247.851, 328.439
249.223, 482.047
250.595, 554.133
251.967, 830.644
253.339, 1098.863
254.711, 1474.692
256.082, 1913.815
257.453, 2179.137
258.824, 2424.214
260.195, 2279.135
261.565, 2233.956
262.935, 1988.717
264.305, 1773.458
265.675, 1418.183
267.044, 1265.894
268.414, 1270.592
269.783, 1202.278
271.151, 1219.950
272.520, 1334.226
273.888, 1453.741
275.256, 1643.678
276.624, 1844.845
277.992, 2053.981
279.359, 2179.929
280.726, 2265.562
282.093, 2176.792
283.460, 1989.585
284.827, 1815.909
286.193, 1554.718
287.559, 1280.934
288.925, 963.519
290.290, 777.450
291.656, 711.728
293.021, 521.376
294.386, 499.418
295.750, 418.868
297.115, 434.667
298.479, 533.643
299.843, 646.853
301.207, 807.057
302.570, 1091.354
303.933, 1355.839
305.296, 1365.560
306.659, 1463.564
308.022, 1571.903
309.384, 1496.656
310.746, 1286.926
312.108, 985.750
313.470, 961.150
314.831, 838.150
316.193, 878.719
317.554, 814.833
318.914, 793.465
320.275, 1019.767
321.635, 1082.798
322.995, 1324.172
324.355, 1595.512
325.715, 2083.674
327.074, 2620.278
328.434, 3116.083
329.792, 3815.918
331.151, 4140.972
332.510, 4416.627
333.868, 4382.520
335.226, 4147.677
336.584, 3642.354
337.941, 3177.662
339.299, 2799.409
340.656, 2479.030
342.013, 2160.335
343.370, 1971.192
344.726, 1636.398
346.082, 1513.158
347.438, 1228.022
348.794, 989.481
350.150, 862.890
351.505, 627.246
352.860, 559.542
354.215, 654.781
355.570, 544.964
356.924, 578.084
358.278, 523.470
359.632, 560.006
360.986, 482.661
362.339, 379.605
363.693, 494.458
365.046, 547.485
366.399, 483.047
367.751, 410.106
369.104, 451.300
370.456, 427.799
371.808, 400.151
373.159, 390.780
374.511, 403.299
375.862, 427.142
377.213, 344.132
378.564, 313.394
379.914, 330.056
381.265, 317.580
382.615, 282.044
383.965, 287.021
385.315, 282.304
386.664, 258.409
388.013, 331.596
389.362, 448.478
390.711, 344.353
392.060, 458.192
393.408, 539.018
394.756, 488.939
396.104, 536.700
397.451, 515.643
398.799, 483.084
400.146, 386.729
401.493, 472.403
402.840, 623.132
404.186, 800.091
405.533, 1065.689
406.879, 1146.182
408.225, 1578.556
409.570, 1950.843
410.916, 2635.141
412.261, 3423.748
413.606, 4183.993
414.951, 5005.458
416.295, 5548.068
417.639, 5971.979
418.983, 5655.886
420.327, 5219.792
421.671, 4803.698
423.014, 4007.610
424.357, 3721.525
425.700, 3335.462
427.043, 3309.406
428.386, 3193.380
429.728, 3057.159
431.070, 3011.029
432.412, 2814.658
433.753, 2584.428
435.095, 2166.372
436.436, 1978.208
437.777, 1761.932
439.118, 1494.543
440.458, 1436.043
441.798, 1112.417
443.138, 952.677
444.478, 868.420
445.818, 824.437
447.157, 795.340
448.496, 930.683
449.835, 917.680
451.174, 1033.000
452.513, 994.190
453.851, 1018.904
455.189, 794.692
456.527, 678.266
457.864, 476.200
459.202, 396.146
460.539, 301.519
461.876, 281.257
463.212, 357.567
464.549, 574.972
465.885, 722.393
467.221, 1039.770
468.557, 1379.070
469.893, 1767.304
471.228, 2033.473
472.563, 2345.254
473.898, 2621.726
475.233, 2783.049
476.567, 3141.815
477.902, 3510.711
479.236, 4139.644
480.570, 4898.116
481.903, 6097.515
483.237, 7407.164
484.570, 9027.810
485.903, 10998.607
487.235, 12259.409
488.568, 12950.221
489.900, 12741.049
491.232, 11191.948
492.564, 9612.882
493.896, 7773.838
495.227, 6184.834
496.558, 4975.862
497.889, 3916.910
499.220, 3187.961
500.551, 2615.025
501.881, 2283.089
503.211, 1969.154
504.541, 1751.220
505.870, 1654.281
507.200, 1468.333
508.529, 1498.351
509.858, 1312.384
511.187, 1238.903
512.515, 1250.450
513.844, 1355.727
515.172, 1421.417
516.500, 1519.660
517.827, 1723.055
519.155, 2060.239
520.482, 2270.600
521.809, 2606.660
523.136, 2859.320
524.462, 2977.493
525.789, 3083.349
527.115, 3054.148
528.441, 3062.110
529.766, 2910.306
531.092, 2801.290
532.417, 2691.786
533.742, 2607.667
535.067, 2420.871
536.391, 2344.244
537.716, 2240.329
539.040, 2030.343
540.364, 1791.768
541.688, 1761.558
543.011, 1649.282
544.334, 1516.482
545.657, 1502.681
546.980, 1387.879
548.303, 1341.964
549.625, 1346.595
550.947, 1298.549
552.269, 1387.716
553.591, 1478.576
554.913, 1610.078
556.234, 1706.970
557.555, 1958.809
558.876, 2352.826
560.197, 2647.499
561.517, 3383.671
562.837, 3847.109
564.157, 4610.479
565.477, 5453.807
566.797, 5897.179
568.116, 6400.581
569.435, 6544.008
570.754, 5967.450
572.073, 5270.901
573.391, 4444.361
574.709, 3608.052
576.027, 2851.571
577.345, 2332.549
578.663, 1844.215
579.980, 1377.394
581.297, 1212.265
582.614, 948.480
583.931, 800.980
585.248, 718.838
586.564, 732.002
587.880, 731.365
589.196, 874.590
590.511, 910.994
591.827, 1121.226
593.142, 1312.467
594.457, 1289.184
595.772, 1074.912
597.086, 754.828
598.401, 427.012
599.715, 250.998
601.029, 112.040
602.343, 155.620
603.656, 135.585
604.969, 193.301
606.282, 119.303
607.595, 118.347
608.908, 71.189
610.220, 14.546
611.532, 32.321
612.844, 180.986
614.156, 302.723
615.468, 513.953
616.779, 604.717
618.090, 783.344
619.401, 1079.631
620.712, 1085.167
622.022, 1161.572
623.332, 1250.099
624.642, 1151.646
625.952, 923.438
627.262, 814.423
628.571, 565.813
629.880, 452.943
631.189, 294.791
632.498, 85.976
633.807, 53.953
635.115, 97.379
636.423, 2.584
637.731, 130.583
639.039, 95.170
640.346, 168.879
641.653, 199.421
642.960, 346.410
644.267, 393.773
645.574, 593.027
646.880, 655.413
648.186, 729.639
649.492, 830.558
650.798, 855.243
652.103, 893.790
653.409, 871.852
654.714, 883.437
656.019, 903.482
657.323, 835.958
658.628, 895.588
659.932, 907.014
661.236, 865.176
662.540, 1026.298
663.843, 973.973
665.147, 1226.618
666.450, 1391.391
667.753, 1686.266
669.056, 1976.399
670.358, 2142.468
671.660, 2638.044
672.963, 2983.606
674.264, 3342.161
675.566, 3364.705
676.868, 3283.239
678.169, 3153.762
679.470, 2634.275
680.771, 2298.781
682.071, 1993.277
683.372, 1583.761
684.672, 1228.234
685.972, 1118.698
687.271, 879.150
688.571, 748.591
689.870, 617.021
691.169, 400.439
692.468, 391.847
693.767, 284.241
695.065, 293.624
696.364, 159.995
697.662, 101.352
698.960, 126.692
700.257, 66.015
701.555, 35.683
702.852, 5.418
704.149, 4.816
705.446, 61.977
706.742, 17.829
708.038, 27.720
709.335, 3.659
710.631, 19.006
711.926, 28.347
713.222, 72.292
714.517, 64.203
715.812, 111.075
717.107, 129.911
718.402, 177.710
719.696, 213.471
720.990, 376.194
722.284, 265.881
723.578, 424.530
724.872, 296.143
726.165, 321.717
727.458, 362.254
728.751, 272.752
730.044, 190.214
731.336, 231.634
732.629, 121.017
733.921, 194.356
735.213, 70.656
736.504, 7.911
737.796, 59.111
739.087, 56.733
740.378, 10.336
741.669, 81.647
742.960, 62.270
744.250, 83.858
745.540, 25.911
746.830, 63.370
748.120, 62.743
749.410, 37.208
750.699, 36.752
751.988, 39.377
753.277, 43.083
754.566, 14.126
755.854, 22.721
757.143, 59.642
758.431, 7.245
759.719, 13.304
761.006, 36.570
762.294, 36.834
763.581, 23.069
764.868, 10.530
766.155, 65.035
767.442, 91.628
768.728, 75.182
770.014, 197.692
771.300, 72.163
772.586, 106.587
773.872, 188.970
775.157, 130.311
776.442, 161.864
777.727, 131.665
779.012, 125.079
780.297, 64.250
781.581, 10.375
782.865, 3.442
784.149, 25.553
785.433, 20.626
786.716, 41.454
787.999, 5.007
789.282, 60.316
790.565, 53.714
791.848, 39.543
793.130, 61.769
794.413, 63.445
795.695, 60.570
796.977, 99.443
798.258, 89.434
799.540, 119.538
800.821, 105.771
802.102, 151.125
803.382, 98.625
804.663, 63.244
805.943, 128.961
807.224, 97.813
808.504, 30.781
809.783, 11.168
811.063, 13.942
812.342, 51.875
813.621, 70.645
814.900, 29.372
816.179, 131.047
817.457, 231.681
818.736, 240.277
820.014, 195.836
821.292, 166.357
822.569, 222.840
823.847, 446.285
825.124, 491.693
826.401, 591.065
827.678, 730.400
828.954, 815.700
830.231, 800.963
831.507, 936.190
832.783, 1059.381
834.059, 1122.536
835.334, 1286.656
836.610, 1348.740
837.885, 1445.788
839.160, 1418.802
840.435, 1591.780
841.709, 1498.724
842.983, 1655.632
844.258, 1543.507
845.532, 1591.346
846.805, 1395.151
848.079, 1431.921
849.352, 1312.658
850.625, 1229.130
851.898, 1334.317
853.171, 1289.571
854.443, 1414.535
855.715, 1401.696
856.988, 1604.984
858.259, 1623.526
859.531, 1694.178
860.803, 1925.829
862.074, 1900.998
863.345, 2175.094
864.616, 2493.584
865.886, 2770.077
867.157, 3235.728
868.427, 3610.310
869.697, 3765.052
870.967, 3829.839
872.236, 3644.792
873.506, 3589.859
874.775, 3265.011
876.044, 3270.134
877.313, 3265.227
878.581, 3250.305
879.849, 3575.354
881.118, 3650.417
882.386, 3995.452
883.653, 4120.229
884.921, 4285.148
886.188, 4229.574
887.455, 4214.280
888.722, 4018.437
889.989, 3811.865
891.255, 3525.917
892.522, 3395.657
893.788, 3049.006
895.054, 2953.012
896.319, 2922.973
897.585, 2768.665
898.850, 2773.333
900.115, 2839.139
901.380, 2871.906
902.645, 2813.166
903.909, 2970.379
905.174, 3020.390
906.438, 2990.100
907.701, 3062.985
908.965, 3083.798
910.229, 3145.500
911.492, 3154.022
912.755, 3325.472
914.018, 3449.154
915.280, 3592.846
916.543, 3626.295
917.805, 3708.140
919.067, 3931.928
920.329, 3825.812
921.590, 3959.611
922.852, 3923.906
924.113, 4067.661
925.374, 3951.553
926.635, 4015.773
927.895, 4009.733
929.156, 4173.813
930.416, 3857.751
931.676, 4011.650
932.936, 3725.280
934.195, 3737.696
935.454, 3429.696
936.714, 3249.935
937.973, 3230.438
939.231, 3029.591
940.490, 2930.938
941.748, 2858.829
943.006, 2697.096
944.264, 2605.225
945.522, 2452.926
946.780, 2363.492
948.037, 2286.213
949.294, 2348.472
950.551, 2216.337
951.808, 2336.302
953.064, 2273.119
954.320, 2349.081
955.577, 2362.331
956.832, 2425.801
958.088, 2517.147
959.344, 2466.452
960.599, 2551.974
961.854, 2624.023
963.109, 2514.629
964.364, 2558.062
965.618, 2541.686
966.872, 2684.555
968.127, 2648.451
969.380, 2752.779
970.634, 3077.121
971.888, 3451.319
973.141, 3735.407
974.394, 4309.742
975.647, 4814.107
976.900, 5548.476
978.152, 6062.856
979.404, 6647.242
980.656, 7031.634
981.908, 6926.052
983.160, 6520.477
984.411, 6174.910
985.663, 5169.384
986.914, 4693.864
988.165, 4028.354
989.415, 3352.871
990.666, 3017.401
991.916, 2541.948
993.166, 2274.516
994.416, 1934.090
995.665, 1687.682
996.915, 1654.347
998.164, 1357.956
999.413, 1237.575
1000.662, 1214.206
1001.911, 938.864
1003.159, 938.542
1004.407, 842.584
1005.655, 737.299
1006.903, 742.056
1008.151, 654.817
1009.398, 637.592
1010.646, 566.691
1011.893, 448.731
1013.139, 488.611
1014.386, 472.367
1015.633, 397.277
1016.879, 313.194
1018.125, 332.136
1019.371, 384.104
1020.616, 299.083
1021.862, 395.079
1023.107, 337.109
1024.352, 393.589
1025.597, 431.641
1026.842, 364.725
1028.086, 492.478
1029.330, 535.584
1030.574, 578.048
1031.818, 626.193
1033.062, 702.991
1034.305, 767.517
1035.548, 870.718
1036.791, 983.639
1038.034, 1066.845
1039.277, 1284.066
1040.519, 1504.738
1041.762, 1736.009
1043.004, 1793.295
1044.246, 1989.599
1045.487, 2092.267
1046.729, 2196.232
1047.970, 2241.636
1049.211, 2317.056
1050.452, 2403.984
1051.692, 2529.481
1052.933, 2675.011
1054.173, 2835.056
1055.413, 3280.649
1056.653, 3987.779
1057.893, 4477.014
1059.132, 5402.689
1060.371, 6328.481
1061.610, 7714.340
1062.849, 9190.105
1064.088, 10706.938
1065.326, 12442.739
1066.565, 13498.553
1067.803, 14644.588
1069.041, 15210.479
1070.278, 14906.338
1071.516, 14142.229
1072.753, 12558.234
1073.990, 11025.622
1075.227, 9801.549
1076.464, 8817.472
1077.700, 7943.483
1078.936, 7279.524
1080.173, 6905.630
1081.408, 6921.603
1082.644, 6927.752
1083.880, 7335.739
1085.115, 7861.817
1086.350, 8547.992
1087.585, 9324.198
1088.820, 9450.331
1090.054, 9436.794
1091.288, 8803.171
1092.522, 7819.593
1093.756, 6666.020
1094.990, 5442.328
1096.224, 4498.935
1097.457, 3785.428
1098.690, 3111.957
1099.923, 2709.987
1101.156, 2296.868
1102.388, 1859.710
1103.621, 1654.544
1104.853, 1472.412
1106.085, 1250.485
1107.316, 1153.555
1108.548, 1051.646
1109.779, 934.937
1111.010, 880.080
1112.241, 708.160
1113.472, 700.385
1114.703, 515.328
1115.933, 462.997
1117.163, 526.233
1118.393, 406.208
1119.623, 398.804
1120.853, 417.208
1122.082, 329.575
1123.311, 270.844
1124.540, 255.009
1125.769, 166.214
1126.997, 257.488
1128.226, 161.699
1129.454, 200.920
1130.682, 127.054
1131.910, 116.477
1133.138, 126.083
1134.365, 120.134
1135.592, 80.519
1136.819, 148.120
1138.046, 84.261
1139.273, 233.855
1140.499, 180.029
1141.725, 259.982
1142.951, 226.113
1144.177, 5.583
1145.403, 176.870
1146.628, 158.732
1147.854, 22.507
1149.079, 159.708
1150.304, 45.075
1151.528, 21.967
1152.753, 26.955
1153.977, 1.357
1155.201, 45.363
1156.425, 23.820
1157.649, 18.762
1158.872, 69.075
1160.096, 80.082
1161.319, 59.590
1162.542, 79.607
1163.764, 60.730
1164.987, 33.268
1166.209, 88.517
1167.431, 7.068
1168.653, 179.139
1169.875, 6.830
1171.097, 81.037
1172.318, 69.989
1173.539, 10.098
1174.760, 63.691
1175.981, 28.435
1177.202, 169.667
1178.422, 60.524
1179.642, 50.696
1180.862, 16.935
1182.082, 5.182
1183.302, 20.627
1184.521, 27.293
1185.740, 64.339
1186.959, 11.772
1188.178, 44.025
1189.397, 28.696
1190.615, 44.547
1191.834, 6.748
1193.052, 13.895
1194.269, 32.128
1195.487, 45.187
1196.705, 29.705
1197.922, 127.116
1199.139, 38.065
1200.356, 78.318
1201.573, 107.247
1202.789, 27.362
1204.006, 61.833
1205.222, 67.861
1206.438, 27.808
1207.653, 19.271
1208.869, 57.777
1210.084, 15.776
1211.299, 50.639
1212.514, 54.041
1213.729, 7.683
1214.944, 47.060
1216.158, 90.777
1217.372, 57.128
1218.586, 33.564
1219.800, 18.847
1221.014, 62.658
1222.227, 99.270
1223.440, 51.878
1224.654, 49.436
1225.866, 38.912
1227.079, 120.388
1228.292, 37.598
1229.504, 22.046
1230.716, 68.115
1231.928, 59.523
1233.139, 59.927
1234.351, 105.131
1235.562, 16.823
1236.773, 47.909
1237.984, 48.095
1239.195, 56.171
1240.406, 109.540
1241.616, 35.578
1242.826, 74.159
1244.036, 79.172
1245.246, 5.689
1246.456, 22.282
1247.665, 45.240
1248.874, 64.441
1250.083, 69.303
1251.292, 31.556
1252.501, 47.446
1253.709, 55.319
1254.917, 1.453
1256.125, 58.303
1257.333, 81.303
1258.541, 51.028
1259.748, 193.707
1260.956, 19.350
1262.163, 61.094
1263.370, 151.670
1264.576, 25.247
1265.783, 35.836
1266.989, 42.291
1268.195, 68.869
1269.401, 96.517
1270.607, 13.868
1271.813, 76.439
1273.018, 93.702
1274.223, 50.072
1275.428, 117.319
1276.633, 50.438
1277.838, 102.434
1279.042, 161.933
1280.246, 65.894
1281.450, 53.182
1282.654, 22.724
1283.858, 4.435
1285.061, 10.220
1286.265, 132.550
1287.468, 4.295
1288.671, 97.429
1289.873, 63.041
1291.076, 36.692
1292.278, 41.309
1293.480, 27.104
1294.682, 2.445
1295.884, 6.643
1297.086, 37.146
1298.287, 22.586
1299.488, 34.979
1300.689, 69.355
1301.890, 79.699
1303.091, 17.282
1304.291, 42.217
1305.491, 94.002
1306.691, 119.306
1307.891, 14.439
1309.091, 180.547
1310.290, 5.388
1311.490, 128.635
1312.689, 30.623
1313.888, 52.423
1315.086, 127.476
1316.285, 141.902
1317.483, 45.264
1318.681, 96.516
1319.879, 107.603
1321.077, 27.682
1322.275, 62.654
1323.472, 66.289
1324.669, 55.893
1325.866, 54.463
1327.063, 60.928
1328.260, 119.760
1329.456, 88.238
1330.653, 124.686
1331.849, 169.672
1333.045, 164.957
1334.240, 121.405
1335.436, 180.737
1336.631, 116.718
1337.826, 72.389
1339.021, 63.639
1340.216, 56.859
1341.411, 110.612
1342.605, 77.778
1343.799, 177.917
1344.993, 238.545
1346.187, 26.634
1347.381, 177.192
1348.574, 98.643
1349.767, 47.656
1350.961, 160.567
1352.153, 135.415
1353.346, 147.360
1354.539, 175.230
1355.731, 186.123
1356.923, 89.005
1358.115, 149.676
1359.307, 64.476
1360.498, 230.303
1361.690, 126.098
1362.881, 86.770
1364.072, 99.060
1365.263, 70.971
1366.453, 68.691
1367.644, 77.396
1368.834, 94.041
1370.024, 90.629
1371.214, 167.356
1372.404, 112.940
1373.593, 192.680
1374.783, 26.174
1375.972, 88.445
1377.161, 133.072
1378.349, 43.338
1379.538, 168.834
1380.726, 126.812
1381.915, 151.957
1383.103, 79.848
1384.290, 164.375
1385.478, 48.919
1386.665, 236.673
1387.853, 124.108
1389.040, 192.359
1390.227, 210.894
1391.413, 97.505
1392.600, 125.313
1393.786, 127.470
1394.972, 172.380
1396.158, 167.646
1397.344, 93.697
1398.530, 146.138
1399.715, 106.105
1400.900, 157.529
1402.085, 186.513
1403.270, 194.008
1404.455, 106.129
1405.639, 142.948
1406.824, 131.390
1408.008, 113.143
1409.192, 163.450
1410.375, 89.954
1411.559, 66.468
1412.742, 223.914
1413.925, 51.344
1415.108, 146.375
1416.291, 133.119
1417.474, 60.836
1418.656, 180.006
1419.839, 83.840
1421.021, 19.192
1422.202, 92.008
1423.384, 134.863
1424.566, 85.567
1425.747, 182.845
1426.928, 8.511
1428.109, 187.145
1429.290, 180.697
1430.470, 5.315
1431.651, 143.028
1432.831, 147.180
1434.011, 129.505
1435.191, 193.835
1436.370, 87.695
1437.550, 73.184
1438.729, 211.754
1439.908, 165.842
1441.087, 123.688
1442.266, 193.451
1443.444, 173.855
1444.623, 145.986
1445.801, 214.326
1446.979, 100.210
1448.157, 216.043
1449.334, 168.341
1450.512, 202.086
1451.689, 238.647
1452.866, 201.690
1454.043, 265.099
1455.220, 147.261
1456.396, 141.044
1457.573, 137.651
1458.749, 207.757
1459.925, 69.054
1461.100, 213.619
1462.276, 160.839
1463.451, 171.747
1464.627, 220.718
1465.802, 142.686
1466.977, 190.408
1468.151, 254.187
1469.326, 139.143
1470.500, 270.712
1471.674, 260.501
1472.848, 202.302
1474.022, 260.939
1475.195, 73.731
1476.369, 160.150
1477.542, 137.884
1478.715, 84.585
1479.888, 137.035
1481.061, 119.662
1482.233, 50.276
1483.405, 144.905
1484.577, 145.622
1485.749, 95.465
1486.921, 217.344
1488.093, 99.299
1489.264, 139.332
1490.435, 250.455
1491.606, 81.691
1492.777, 83.023
1493.948, 264.471
1495.118, 136.059
1496.288, 97.766
1497.459, 179.604
1498.628, 61.608
1499.798, 133.776
1500.968, 106.118
1502.137, 68.430
1503.306, 351.176
1504.475, 124.165
1505.644, 37.429
1506.813, 311.002
1507.981, 124.922
1509.149, 119.240
1510.318, 233.872
1511.485, 199.157
1512.653, 95.128
1513.821, 248.405
1514.988, 4.645
1516.155, 243.138
