##NAMES=Zoisite
##RRUFFID=R050038
##IDEAL CHEMISTRY=Ca_2_Al_3_(Si_2_O_7_)(SiO_4_)O(OH)
##LOCALITY=Elf Shooting Creek, Clay County, North Carolina, USA
##OWNER=RRUFF
##SOURCE=University of Arizona Mineral Museum
##DESCRIPTION=Tan colored fragments of single crystals
##STATUS=The identification of this mineral has been confirmed by X-ray diffraction and chemical analysis
##URL=rruff.info/R050038
##MEASURED CHEMISTRY=(Ca_.998_Na_.002_)_2_(Al_.982_Fe^3+^_.018_)_3_(Si_.982_Fe^3+^_.018_)_3_O_12_(OH)
##PIN_ID=L00073
##ORIENTATION=Laser parallel to -b* (0 -1 0). Fiducial mark perpendicular to laser is parallel to c [0 0 1]
105.994, 0.000
107.387, 6.158
108.781, 38.227
110.174, 127.006
111.566, 484.026
112.959, 973.060
114.351, 1515.736
115.744, 2275.744
117.136, 2928.543
118.527, 3240.268
119.919, 2901.222
121.310, 2519.624
122.701, 2141.528
124.092, 1868.109
125.482, 1410.718
126.873, 1296.476
128.263, 1221.575
129.653, 960.062
131.042, 1014.419
132.432, 1007.641
133.821, 961.982
135.210, 1253.379
136.599, 1554.787
137.987, 1774.321
139.376, 2309.676
140.764, 2609.901
142.152, 3082.078
143.539, 3815.247
144.927, 4353.207
146.314, 4915.129
147.701, 5085.492
149.088, 4654.466
150.474, 3872.221
151.861, 2984.903
153.247, 2060.631
154.633, 1480.501
156.018, 1051.933
157.404, 766.699
158.789, 452.910
160.174, 308.343
161.559, 228.333
162.943, 60.906
164.327, 36.801
165.711, 54.090
167.095, 60.373
168.479, 18.653
169.862, 30.776
171.246, 8.461
172.628, 13.942
174.011, 58.337
175.394, 79.203
176.776, 104.157
178.158, 115.376
179.540, 255.706
180.922, 319.843
182.303, 424.895
183.684, 604.865
185.065, 896.758
186.446, 1311.579
187.826, 1708.333
189.207, 1994.136
190.587, 2268.304
191.967, 2214.824
193.346, 2084.673
194.726, 1783.820
196.105, 1523.233
197.484, 1293.882
198.862, 1002.732
200.241, 842.758
201.619, 630.483
202.997, 570.917
204.375, 455.526
205.753, 385.970
207.130, 396.422
208.507, 379.881
209.884, 368.339
211.261, 415.792
212.638, 517.124
214.014, 544.618
215.390, 396.156
216.766, 374.446
218.141, 226.614
219.517, 140.515
220.892, 22.094
222.267, 20.634
223.642, 58.606
225.016, 138.769
226.391, 138.059
227.765, 120.425
229.139, 115.826
230.512, 99.158
231.886, 106.437
233.259, 91.856
234.632, 72.591
236.005, 55.735
237.377, 33.628
238.749, 7.894
240.122, 20.964
241.493, 46.482
242.865, 90.991
244.237, 156.432
245.608, 209.790
246.979, 318.294
248.350, 386.496
249.720, 491.896
251.090, 622.758
252.461, 792.402
253.830, 940.872
255.200, 1369.224
256.570, 1748.515
257.939, 2137.774
259.308, 2481.019
260.677, 2824.265
262.045, 2822.527
263.414, 2607.811
264.782, 2479.114
266.150, 2029.438
267.517, 1852.469
268.885, 1623.436
270.252, 1395.540
271.619, 1353.223
272.986, 1347.700
274.353, 1515.450
275.719, 1661.118
277.085, 1829.625
278.451, 2106.924
279.817, 2326.977
281.182, 2489.745
282.548, 2604.212
283.913, 2542.382
285.278, 2568.256
286.642, 2367.805
288.007, 2126.967
289.371, 1741.747
290.735, 1406.159
292.099, 1137.236
293.462, 851.998
294.826, 657.472
296.189, 459.679
297.552, 444.606
298.914, 462.196
300.277, 497.352
301.639, 548.777
303.001, 523.500
304.363, 712.605
305.724, 949.245
307.086, 1093.511
308.447, 1072.536
309.808, 1088.395
311.168, 966.157
312.529, 781.829
313.889, 643.417
315.249, 505.925
316.609, 430.359
317.969, 253.721
319.328, 287.987
320.687, 346.144
322.046, 446.194
323.405, 618.021
324.764, 857.151
326.122, 1251.535
327.480, 1689.950
328.838, 2260.568
330.196, 2949.395
331.553, 3617.081
332.910, 4441.983
334.267, 4798.900
335.624, 5037.482
336.981, 4796.106
338.337, 4204.842
339.693, 3679.403
341.049, 3084.780
342.405, 2510.551
343.760, 2280.627
345.116, 1842.373
346.471, 1626.059
347.826, 1212.594
349.180, 878.362
350.535, 699.138
351.889, 437.921
353.243, 294.712
354.597, 204.508
355.950, 191.308
357.304, 69.108
358.657, 140.907
360.010, 106.240
361.362, 133.201
362.715, 145.194
364.067, 143.033
365.419, 83.538
366.771, 96.833
368.123, 80.395
369.474, 78.175
370.825, 16.741
372.176, 12.286
373.527, 7.721
374.877, 65.484
376.228, 6.881
377.578, 68.125
378.928, 52.987
380.277, 70.932
381.627, 86.812
382.976, 9.591
384.325, 77.979
385.674, 41.879
387.023, 69.048
388.371, 34.868
389.719, 56.049
391.067, 160.258
392.415, 189.980
393.762, 261.874
395.110, 292.432
396.457, 319.021
397.804, 325.940
399.150, 280.035
400.497, 290.636
401.843, 412.967
403.189, 410.708
404.535, 608.886
405.881, 776.607
407.226, 894.871
408.571, 1216.589
409.916, 1565.792
411.261, 2068.292
412.605, 2661.731
413.950, 3396.813
415.294, 4139.433
416.638, 5098.070
417.981, 6066.726
419.325, 6405.400
420.668, 6374.096
422.011, 5842.808
423.354, 5161.540
424.697, 4540.291
426.039, 3860.064
427.381, 3359.858
428.723, 3051.673
430.065, 3004.508
431.406, 2933.384
432.748, 2768.286
434.089, 2620.172
435.430, 2436.042
436.770, 2168.882
438.111, 1961.712
439.451, 1679.511
440.791, 1506.278
442.131, 1235.022
443.471, 1127.742
444.810, 883.448
446.149, 766.126
447.488, 664.750
448.827, 556.981
450.166, 550.092
451.504, 623.136
452.842, 639.741
454.180, 764.298
455.518, 817.883
456.855, 720.393
458.193, 525.562
459.530, 306.657
460.867, 97.815
462.203, 110.114
463.540, 94.542
464.876, 146.951
466.212, 302.365
467.548, 511.775
468.883, 811.184
470.219, 935.590
471.554, 1288.998
472.889, 1704.410
474.224, 1996.829
475.558, 2306.264
476.892, 2639.721
478.227, 2751.956
479.561, 3254.492
480.894, 3587.219
482.228, 4419.238
483.561, 5517.729
484.894, 6786.402
486.227, 8525.141
487.559, 10423.944
488.892, 12232.815
490.224, 13101.748
491.556, 13340.780
492.888, 12269.929
494.220, 11009.165
495.551, 8738.510
496.882, 6937.931
498.213, 5327.449
499.544, 4227.059
500.874, 3244.722
502.205, 2664.439
503.535, 2158.195
504.865, 1851.981
506.194, 1601.791
507.524, 1439.623
508.853, 1329.472
510.182, 1159.331
511.511, 1093.201
512.840, 1126.081
514.168, 1113.900
515.496, 1128.371
516.824, 1163.814
518.152, 1436.775
519.480, 1598.065
520.807, 1822.237
522.134, 2062.550
523.461, 2388.940
524.788, 2716.351
526.114, 2956.541
527.441, 3142.818
528.767, 3179.062
530.093, 3038.328
531.418, 3106.941
532.744, 2824.000
534.069, 2822.878
535.394, 2694.226
536.719, 2627.183
538.044, 2419.410
539.368, 2196.194
540.693, 2174.401
542.017, 2042.057
543.340, 1842.377
544.664, 1762.530
545.987, 1636.020
547.311, 1558.252
548.634, 1432.220
549.956, 1260.140
551.279, 1303.004
552.601, 1261.061
553.923, 1197.971
555.245, 1363.134
556.567, 1411.448
557.889, 1572.415
559.210, 1780.975
560.531, 2118.916
561.852, 2459.850
563.173, 3054.808
564.493, 3653.789
565.813, 4494.790
567.133, 5445.806
568.453, 6136.838
569.773, 6827.883
571.092, 6978.940
572.412, 6400.007
573.731, 5801.079
575.049, 4872.159
576.368, 3973.246
577.686, 3182.336
579.005, 2510.433
580.323, 1953.537
581.640, 1489.646
582.958, 1093.066
584.275, 1040.538
585.593, 852.174
586.909, 809.703
588.226, 728.358
589.543, 687.199
590.859, 779.976
592.175, 1025.451
593.491, 1222.061
594.807, 1289.153
596.122, 1325.046
597.438, 1099.848
598.753, 862.125
600.068, 593.444
601.382, 289.408
602.697, 142.891
604.011, 37.625
605.325, 56.151
606.639, 39.780
607.952, 152.827
609.266, 128.409
610.579, 118.022
611.892, 5.411
613.205, 3.470
614.518, 75.659
615.830, 208.816
617.142, 413.872
618.454, 579.960
619.766, 874.081
621.078, 1020.141
622.389, 1269.375
623.700, 1348.671
625.011, 1429.840
626.322, 1316.171
627.632, 1133.379
628.943, 912.708
630.253, 665.025
631.563, 520.382
632.872, 405.723
634.182, 264.820
635.491, 283.985
636.800, 171.711
638.109, 132.211
639.418, 60.969
640.726, 179.874
642.035, 249.128
643.343, 257.337
644.651, 335.320
645.958, 522.450
647.266, 658.859
648.573, 763.494
649.880, 876.938
651.187, 898.083
652.494, 1012.539
653.800, 934.586
655.106, 989.892
656.412, 988.384
657.718, 1001.401
659.024, 967.736
660.329, 928.289
661.634, 1007.540
662.939, 1017.688
664.244, 1151.938
665.549, 1234.097
666.853, 1339.913
668.157, 1533.713
669.461, 1866.495
670.765, 2146.260
672.069, 2706.007
673.372, 3152.737
674.675, 3633.453
675.978, 3911.153
677.281, 4150.839
678.583, 4157.509
679.886, 3791.164
681.188, 3231.801
682.490, 2782.422
683.792, 2442.029
685.093, 1863.618
686.394, 1503.191
687.696, 1323.749
688.997, 1001.292
690.297, 877.820
691.598, 665.334
692.898, 461.831
694.198, 522.312
695.498, 423.786
696.798, 243.250
698.097, 368.708
699.397, 178.159
700.696, 132.593
701.995, 127.019
703.293, 21.432
704.592, 103.828
705.890, 41.203
707.188, 68.560
708.486, 38.891
709.784, 89.194
711.081, 44.472
712.378, 27.721
713.675, 118.939
714.972, 23.131
716.269, 147.291
717.565, 182.424
718.862, 175.532
720.158, 318.615
721.453, 295.672
722.749, 409.702
724.045, 418.707
725.340, 473.685
726.635, 520.637
727.930, 400.562
729.224, 466.460
730.519, 363.333
731.813, 315.178
733.107, 302.997
734.401, 208.788
735.694, 210.553
736.988, 193.291
738.281, 100.001
739.574, 89.682
740.867, 52.332
742.160, 79.950
743.452, 51.538
744.744, 33.908
746.036, 16.577
747.328, 26.984
748.620, 28.612
749.911, 34.691
751.202, 64.044
752.493, 47.133
753.784, 31.275
755.075, 10.377
756.365, 17.430
757.655, 23.564
758.945, 54.374
760.235, 18.722
761.525, 31.160
762.814, 43.370
764.103, 105.643
765.392, 102.925
766.681, 82.595
767.969, 158.259
769.258, 155.847
770.546, 149.462
771.834, 174.609
773.122, 167.608
774.409, 160.141
775.697, 175.645
776.984, 133.816
778.271, 119.570
779.558, 149.989
780.844, 111.381
782.131, 140.742
783.417, 112.075
784.703, 26.379
785.989, 25.642
787.274, 10.136
788.560, 37.971
789.845, 54.880
791.130, 31.872
792.415, 75.934
793.699, 64.088
794.983, 82.330
796.268, 167.668
797.552, 151.148
798.835, 147.761
800.119, 118.504
801.402, 107.363
802.686, 111.331
803.969, 188.410
805.251, 72.641
806.534, 125.961
807.816, 40.400
809.098, 108.911
810.380, 128.531
811.662, 5.731
812.944, 16.054
814.225, 41.103
815.506, 71.227
816.787, 90.322
818.068, 60.390
819.349, 76.429
820.629, 157.440
821.909, 181.427
823.189, 259.389
824.469, 267.327
825.749, 393.239
827.028, 504.128
828.307, 605.994
829.586, 615.835
830.865, 859.651
832.144, 857.445
833.422, 1035.216
834.700, 1089.963
835.978, 1135.687
837.256, 1238.387
838.534, 1348.065
839.811, 1456.721
841.088, 1492.354
842.365, 1607.964
843.642, 1683.553
844.919, 1666.120
846.195, 1599.665
847.472, 1542.188
848.748, 1407.690
850.023, 1378.170
851.299, 1246.629
852.575, 1246.068
853.850, 1128.486
855.125, 1210.840
856.400, 1275.145
857.674, 1245.936
858.949, 1378.094
860.223, 1463.969
861.497, 1583.934
862.771, 1688.750
864.045, 1879.753
865.318, 2152.547
866.591, 2517.228
867.864, 2981.298
869.137, 3381.813
870.410, 3802.967
871.682, 4106.142
872.955, 4021.302
874.227, 4006.445
875.499, 3851.573
876.770, 3606.691
878.042, 3473.798
879.313, 3464.889
880.584, 3551.967
881.855, 3658.035
883.126, 4162.088
884.396, 4277.131
885.667, 4372.161
886.937, 4757.174
888.207, 4532.175
889.476, 4677.161
890.746, 4352.135
892.015, 3896.787
893.284, 3741.380
894.553, 3307.801
895.822, 3151.320
897.090, 2988.705
898.359, 2896.898
899.627, 2785.149
900.895, 2621.694
902.163, 2707.097
903.430, 2714.011
904.698, 2678.117
905.965, 2799.309
907.232, 2824.018
908.499, 2904.681
909.765, 2943.525
911.032, 2891.189
912.298, 3005.439
913.564, 3101.193
914.830, 3146.805
916.095, 3355.825
917.361, 3465.354
918.626, 3622.917
919.891, 3761.412
921.156, 3756.218
922.420, 3971.017
923.685, 3895.781
924.949, 3990.652
926.213, 4015.486
927.477, 4130.285
928.740, 4185.157
930.004, 4299.849
931.267, 4214.479
932.530, 4349.229
933.793, 3983.815
935.056, 3878.520
936.318, 3873.101
937.581, 3411.689
938.843, 3399.237
940.104, 3206.797
941.366, 3066.597
942.628, 2982.330
943.889, 2803.379
945.150, 2745.896
946.411, 2522.036
947.672, 2462.029
948.932, 2350.671
950.193, 2332.357
951.453, 2302.273
952.713, 2230.040
953.973, 2200.524
955.232, 2333.782
956.491, 2290.228
957.751, 2531.969
959.010, 2560.414
960.268, 2618.265
961.527, 2683.854
962.785, 2598.268
964.044, 2611.151
965.302, 2757.715
966.559, 2620.057
967.817, 2727.697
969.075, 2842.437
970.332, 2820.069
971.589, 3157.790
972.846, 3310.849
974.102, 3795.921
975.359, 4281.006
976.615, 4826.105
977.871, 5541.220
979.127, 6176.347
980.383, 6961.489
981.638, 7356.647
982.893, 7671.819
984.149, 7557.005
985.404, 7142.208
986.658, 6477.427
987.913, 5692.661
989.167, 4787.913
990.421, 4323.183
991.675, 3598.470
992.929, 3098.790
994.183, 2749.128
995.436, 2193.482
996.689, 1973.852
997.942, 1743.239
999.195, 1608.653
1000.448, 1469.098
1001.700, 1335.559
1002.952, 1150.053
1004.204, 974.563
1005.456, 832.100
1006.708, 972.669
1007.959, 763.256
1009.210, 662.868
1010.461, 709.194
1011.712, 586.879
1012.963, 561.619
1014.213, 553.387
1015.464, 371.285
1016.714, 495.123
1017.964, 387.587
1019.214, 264.253
1020.463, 397.169
1021.712, 352.111
1022.962, 426.354
1024.210, 392.353
1025.459, 386.474
1026.708, 482.182
1027.956, 374.939
1029.204, 543.022
1030.452, 478.771
1031.700, 443.106
1032.948, 582.260
1034.195, 591.460
1035.442, 681.652
1036.689, 810.862
1037.936, 827.302
1039.183, 1128.550
1040.429, 1135.818
1041.676, 1379.105
1042.922, 1687.415
1044.168, 1785.016
1045.413, 2038.373
1046.659, 2260.757
1047.904, 2170.874
1049.149, 2409.320
1050.394, 2480.203
1051.639, 2431.717
1052.884, 2482.634
1054.128, 2691.380
1055.372, 3025.007
1056.616, 3221.938
1057.860, 3739.332
1059.104, 4436.039
1060.347, 5154.485
1061.590, 6393.892
1062.833, 7610.687
1064.076, 9050.995
1065.319, 10967.862
1066.561, 12744.751
1067.803, 14576.552
1069.046, 16723.479
1070.287, 17310.428
1071.529, 17749.303
1072.771, 17326.297
1074.012, 15414.329
1075.253, 14181.356
1076.494, 12258.400
1077.735, 10868.865
1078.975, 9555.947
1080.216, 8583.045
1081.456, 8030.164
1082.696, 7747.298
1083.936, 7414.466
1085.175, 7921.654
1086.415, 8468.858
1087.654, 9186.127
1088.893, 9983.391
1090.132, 10460.694
1091.371, 10468.305
1092.609, 10179.053
1093.847, 9693.296
1095.085, 8610.832
1096.323, 7278.357
1097.561, 5936.279
1098.799, 4973.949
1100.036, 3932.842
1101.273, 3360.633
1102.510, 2888.483
1103.747, 2226.476
1104.983, 2137.514
1106.220, 1714.561
1107.456, 1575.742
1108.692, 1422.899
1109.928, 1142.096
1111.163, 1144.403
1112.399, 913.764
1113.634, 805.268
1114.869, 764.642
1116.104, 707.077
1117.339, 651.629
1118.573, 603.054
1119.808, 547.497
1121.042, 476.053
1122.276, 410.526
1123.509, 364.679
1124.743, 327.669
1125.976, 273.185
1127.210, 344.915
1128.443, 308.680
1129.675, 166.238
1130.908, 233.886
1132.141, 227.566
1133.373, 126.337
1134.605, 93.363
1135.837, 167.981
1137.068, 94.029
1138.300, 131.464
1139.531, 111.350
1140.762, 123.057
1141.993, 64.112
1143.224, 84.796
1144.455, 56.553
1145.685, 73.395
1146.915, 36.548
1148.145, 47.409
1149.375, 64.141
1150.605, 162.604
1151.834, 53.476
1153.063, 15.043
1154.292, 156.354
1155.521, 38.264
1156.750, 152.996
1157.978, 37.110
1159.207, 72.670
1160.435, 30.007
1161.663, 9.479
1162.891, 8.513
1164.118, 20.417
1165.345, 82.583
1166.573, 62.935
1167.800, 70.732
1169.026, 6.079
1170.253, 16.444
1171.480, 2.357
1172.706, 7.704
1173.932, 56.211
1175.158, 30.390
1176.383, 50.999
1177.609, 28.163
1178.834, 43.383
1180.059, 162.143
1181.284, 37.086
1182.509, 13.676
1183.734, 149.584
1184.958, 10.652
1186.182, 34.145
1187.406, 36.178
1188.630, 49.940
1189.854, 8.369
1191.077, 11.537
1192.301, 10.222
1193.524, 24.474
1194.747, 23.770
1195.969, 8.155
1197.192, 14.553
1198.414, 26.625
1199.636, 12.421
1200.858, 5.691
1202.080, 45.035
1203.302, 8.838
1204.523, 20.122
1205.744, 20.583
1206.966, 38.562
1208.186, 53.880
1209.407, 54.771
1210.628, 65.698
1211.848, 32.913
1213.068, 19.647
1214.288, 85.751
1215.508, 110.800
1216.727, 16.498
1217.947, 34.962
1219.166, 132.555
1220.385, 17.835
1221.604, 89.658
1222.822, 14.146
1224.041, 55.244
1225.259, 144.200
1226.477, 40.637
1227.695, 89.067
1228.913, 34.490
1230.130, 45.300
1231.348, 45.831
1232.565, 43.364
1233.782, 27.327
1234.999, 107.711
1236.215, 78.161
1237.432, 3.867
1238.648, 136.229
1239.864, 43.734
1241.080, 32.090
1242.296, 72.438
1243.511, 9.782
1244.726, 48.121
1245.942, 3.563
1247.156, 71.094
1248.371, 103.380
1249.586, 40.667
1250.800, 45.941
1252.014, 130.208
1253.228, 45.356
1254.442, 120.918
1255.656, 185.144
1256.869, 26.640
1258.083, 63.807
1259.296, 37.988
1260.509, 89.218
1261.722, 70.372
1262.934, 48.493
1264.147, 137.602
1265.359, 109.794
1266.571, 64.852
1267.783, 145.075
1268.994, 97.118
1270.206, 57.102
1271.417, 141.083
1272.628, 48.917
1273.839, 46.452
1275.050, 159.197
1276.260, 84.014
1277.471, 80.696
1278.681, 63.339
1279.891, 40.108
1281.101, 129.712
1282.310, 42.275
1283.520, 30.394
1284.729, 57.540
1285.938, 26.957
1287.147, 48.497
1288.356, 133.920
1289.564, 71.408
1290.773, 129.792
1291.981, 1.157
1293.189, 9.493
1294.397, 135.838
1295.604, 17.846
1296.812, 98.831
1298.019, 15.221
1299.226, 13.599
1300.433, 99.756
1301.640, 37.871
1302.846, 69.040
1304.053, 37.332
1305.259, 91.654
1306.465, 21.275
1307.671, 33.173
1308.876, 52.084
1310.082, 96.704
1311.287, 1.137
1312.492, 40.816
1313.697, 22.517
1314.902, 1.183
1316.106, 138.542
1317.310, 107.140
1318.515, 14.395
1319.719, 132.477
1320.922, 53.288
1322.126, 128.765
1323.329, 146.566
1324.533, 17.229
1325.736, 148.146
1326.939, 147.466
1328.141, 107.780
1329.344, 178.067
1330.546, 135.121
1331.748, 81.358
1332.950, 195.569
1334.152, 52.756
1335.354, 28.917
1336.555, 177.780
1337.757, 24.886
1338.958, 192.958
1340.159, 181.287
1341.359, 109.299
1342.560, 185.876
1343.760, 96.837
1344.960, 228.410
1346.160, 224.153
1347.360, 72.042
1348.560, 162.625
1349.759, 282.749
1350.959, 112.564
1352.158, 215.646
1353.357, 193.784
1354.555, 12.533
1355.754, 251.785
1356.952, 113.483
1358.151, 177.161
1359.349, 210.947
1360.546, 104.584
1361.744, 149.203
1362.941, 210.897
1364.139, 26.481
1365.336, 284.016
1366.533, 169.793
1367.730, 109.329
1368.926, 193.646
1370.123, 254.963
1371.319, 147.465
1372.515, 141.960
1373.711, 19.550
1374.906, 77.902
1376.102, 146.350
1377.297, 6.204
1378.492, 148.212
1379.687, 26.259
1380.882, 69.935
1382.077, 275.811
1383.271, 107.822
1384.465, 218.509
1385.659, 189.287
1386.853, 150.252
1388.047, 205.025
1389.240, 245.585
1390.434, 72.413
1391.627, 220.855
1392.820, 142.408
1394.013, 215.897
1395.205, 224.553
1396.398, 105.063
1397.590, 138.473
1398.782, 213.789
1399.974, 207.040
1401.166, 90.306
1402.357, 180.041
1403.549, 137.940
1404.740, 255.067
1405.931, 181.015
1407.122, 184.000
1408.313, 122.174
1409.503, 159.379
1410.693, 94.575
1411.883, 122.706
1413.073, 132.168
1414.263, 110.414
1415.453, 184.605
1416.642, 11.319
1417.831, 126.580
1419.020, 79.558
1420.209, 134.073
1421.398, 201.863
1422.587, 61.031
1423.775, 168.986
1424.963, 138.555
1426.151, 43.263
1427.339, 134.089
1428.526, 173.519
1429.714, 115.267
1430.901, 175.676
1432.088, 66.324
1433.275, 141.682
1434.462, 186.909
1435.648, 79.783
1436.835, 76.274
1438.021, 74.482
1439.207, 5.764
1440.393, 36.362
1441.579, 128.413
1442.764, 28.571
1443.949, 195.005
1445.135, 137.361
1446.320, 86.462
1447.504, 195.780
1448.689, 76.563
1449.873, 160.187
1451.058, 123.169
1452.242, 113.256
1453.426, 192.737
1454.609, 117.408
1455.793, 112.966
1456.976, 200.721
1458.159, 95.139
1459.342, 198.446
1460.525, 160.127
1461.708, 114.160
1462.890, 83.462
1464.073, 196.090
1465.255, 49.838
1466.437, 173.273
1467.619, 203.388
1468.800, 50.992
1469.982, 230.215
1471.163, 94.295
1472.344, 180.752
1473.525, 228.792
1474.706, 85.712
1475.886, 65.140
1477.066, 234.610
1478.247, 45.782
1479.427, 249.097
1480.607, 200.181
1481.786, 88.336
1482.966, 177.792
1484.145, 104.964
1485.324, 56.061
1486.503, 227.301
1487.682, 89.714
1488.860, 118.157
1490.039, 153.594
1491.217, 93.040
1492.395, 135.520
1493.573, 86.067
1494.751, 74.685
1495.928, 169.409
1497.106, 92.286
1498.283, 51.212
1499.460, 221.212
1500.637, 18.265
1501.814, 65.396
1502.990, 143.779
1504.166, 34.198
1505.342, 158.035
1506.518, 54.909
1507.694, 7.018
1508.870, 193.291
1510.045, 44.860
1511.221, 30.729
1512.396, 230.705
1513.571, 77.336
1514.745, 165.459
1515.920, 148.240
1517.094, 64.585
1518.269, 151.397
1519.443, 116.257
