##NAMES=Howieite
##RRUFFID=R060031
##IDEAL CHEMISTRY=Na(Fe^2+^,Fe^3+^,Al,Mg)_12_(Si_6_O_17_)_2_(O,OH)_10_
##LOCALITY=Laytonville quarry, near Longvale, California, USA
##OWNER=RRUFF
##SOURCE=University of Arizona Mineral Museum
##DESCRIPTION=Black bladed crystals associated with quartz and siderite
##STATUS=The identification of this mineral is confirmed by single-crystal X-ray diffraction and chemical analysis.
##URL=rruff.info/R060031
##MEASURED CHEMISTRY=Na_1.00_(Fe^3+^_4.41_Mn_2.68_Fe^2+^_3.89_Al_0.59_Mg_0.43_)_Î£=12_(Si_6.00_O_17_)_2_(OH)_10_
90.59570, 1722.272
91.07782, 1727.086
91.55994, 1728.881
92.04205, 1725.131
92.52417, 1720.094
93.00629, 1715.519
93.48840, 1703.008
93.97052, 1671.950
94.45264, 1619.605
94.93475, 1569.573
95.41687, 1520.392
95.89898, 1471.547
96.38110, 1425.149
96.86321, 1383.208
97.34533, 1345.510
97.82745, 1308.629
98.30956, 1274.176
98.79168, 1240.246
99.27380, 1210.048
99.75591, 1184.781
100.2380, 1163.376
100.7201, 1143.904
101.2023, 1125.585
101.6844, 1108.120
102.1665, 1090.416
102.6486, 1071.403
103.1307, 1052.553
103.6128, 1034.995
104.0950, 1018.435
104.5771, 1003.716
105.0592, 992.0607
105.5413, 982.1629
106.0234, 972.3735
106.5055, 961.4195
106.9877, 949.8280
107.4698, 939.9971
107.9519, 933.5911
108.4340, 926.8318
108.9161, 918.8792
109.3982, 909.4100
109.8804, 897.9147
110.3625, 883.0655
110.8446, 863.6328
111.3267, 847.6306
111.8088, 835.9319
112.2909, 826.4895
112.7731, 818.9817
113.2552, 813.0994
113.7373, 808.1414
114.2194, 803.1925
114.7015, 798.1000
115.1836, 793.2299
115.6658, 789.3969
116.1479, 785.4049
116.6300, 779.9195
117.1121, 772.4037
117.5942, 763.6370
118.0763, 755.3944
118.5584, 747.5934
119.0406, 740.2426
119.5227, 733.4311
120.0048, 727.0957
120.4869, 720.9170
120.9690, 714.4808
121.4511, 708.4888
121.9333, 703.9990
122.4154, 701.4128
122.8975, 699.6133
123.3796, 697.9992
123.8617, 696.6553
124.3438, 694.7103
124.8260, 692.1776
125.3081, 688.6525
125.7902, 683.2397
126.2723, 675.0979
126.7544, 665.6120
127.2365, 657.9883
127.7187, 652.8563
128.2008, 648.7314
128.6829, 645.2628
129.1650, 642.2820
129.6471, 639.6924
130.1292, 637.5485
130.6114, 635.7702
131.0935, 633.1322
131.5756, 628.8079
132.0577, 624.3494
132.5398, 620.2274
133.0219, 616.3029
133.5041, 612.1439
133.9862, 607.2947
134.4683, 601.5377
134.9504, 596.4601
135.4325, 591.9869
135.9146, 588.0767
136.3968, 584.8629
136.8789, 582.2995
137.3610, 580.0709
137.8431, 577.9133
138.3252, 575.8470
138.8073, 573.6422
139.2895, 571.2789
139.7716, 568.7648
140.2537, 566.2011
140.7358, 563.6949
141.2179, 560.8419
141.7000, 556.9728
142.1821, 552.2098
142.6643, 547.2540
143.1464, 542.1388
143.6285, 537.0041
144.1106, 532.3011
144.5927, 528.0932
145.0748, 524.4852
145.5570, 521.4976
146.0391, 519.1322
146.5212, 517.0627
147.0033, 515.1354
147.4854, 513.3835
147.9675, 511.4101
148.4497, 508.9448
148.9318, 506.3239
149.4139, 503.7148
149.8960, 501.1624
150.3781, 498.5636
150.8602, 495.8008
151.3424, 492.8267
151.8245, 489.7130
152.3066, 486.3297
152.7887, 482.9092
153.2708, 479.4947
153.7529, 476.1400
154.2351, 473.0140
154.7172, 470.5749
155.1993, 469.9301
155.6814, 468.6809
156.1635, 466.3583
156.6456, 463.4816
157.1278, 460.7786
157.6099, 458.6403
158.0920, 456.7811
158.5741, 453.9264
159.0562, 448.6484
159.5383, 444.1016
160.0205, 441.4725
160.5026, 440.1907
160.9847, 438.9283
161.4668, 436.9311
161.9489, 434.3756
162.4310, 432.1656
162.9131, 430.5799
163.3953, 429.0497
163.8774, 427.2550
164.3595, 425.2143
164.8416, 423.1372
165.3237, 421.1337
165.8058, 419.1878
166.2880, 417.2597
166.7701, 415.4066
167.2522, 413.5107
167.7343, 411.4088
168.2164, 409.0604
168.6985, 406.7162
169.1807, 404.1814
169.6628, 401.8191
170.1449, 400.2333
170.6270, 400.0849
171.1091, 400.6060
171.5912, 399.8944
172.0734, 397.1684
172.5555, 394.6161
173.0376, 393.3902
173.5197, 392.7885
174.0018, 391.7374
174.4839, 389.4292
174.9661, 386.1833
175.4482, 384.0137
175.9303, 384.0869
176.4124, 384.0037
176.8945, 383.2420
177.3766, 381.8682
177.8588, 379.9913
178.3409, 377.5479
178.8230, 374.5215
179.3051, 372.6111
179.7872, 373.0239
180.2693, 373.3534
180.7515, 372.9010
181.2336, 371.7514
181.7157, 370.3088
182.1978, 368.8882
182.6799, 367.4812
183.1620, 366.1859
183.6441, 365.0980
184.1263, 364.0070
184.6084, 362.7457
185.0905, 361.3512
185.5726, 360.0472
186.0547, 359.0764
186.5368, 358.5026
187.0190, 357.7416
187.5011, 356.7134
187.9832, 355.5742
188.4653, 354.4241
188.9474, 353.2811
189.4296, 352.1281
189.9117, 350.9866
190.3938, 349.8495
190.8759, 348.5160
191.3580, 346.7007
191.8401, 344.8065
192.3223, 343.2988
192.8044, 342.2602
193.2865, 341.4389
193.7686, 340.7661
194.2507, 340.1646
194.7328, 339.3263
195.2150, 337.9903
195.6971, 336.3760
196.1792, 334.9003
196.6613, 333.6031
197.1434, 332.4335
197.6255, 331.4806
198.1077, 330.6313
198.5898, 329.5965
199.0719, 328.0980
199.5540, 326.2517
200.0361, 324.5185
200.5182, 322.6591
201.0004, 321.3229
201.4825, 321.0685
201.9646, 321.5667
202.4467, 322.0199
202.9288, 321.8982
203.4109, 321.2267
203.8930, 320.3799
204.3752, 319.0486
204.8573, 317.8755
205.3394, 317.2465
205.8215, 316.9935
206.3036, 316.6946
206.7857, 315.9987
207.2679, 314.8866
207.7500, 313.7606
208.2321, 312.6691
208.7142, 311.5151
209.1963, 310.0799
209.6784, 308.5228
210.1606, 307.2373
210.6427, 306.6137
211.1248, 306.7428
211.6069, 306.7539
212.0890, 306.6477
212.5711, 306.4374
213.0533, 306.1598
213.5354, 305.7897
214.0175, 305.2242
214.4996, 304.3195
214.9817, 302.9642
215.4638, 302.0890
215.9460, 302.0924
216.4281, 302.1085
216.9102, 301.7834
217.3923, 301.0819
217.8744, 300.0381
218.3565, 298.5811
218.8387, 296.6090
219.3208, 295.4463
219.8029, 295.8484
220.2850, 296.3399
220.7671, 296.0170
221.2492, 294.8654
221.7314, 293.3951
222.2135, 291.9640
222.6956, 290.5878
223.1777, 289.4518
223.6598, 288.6235
224.1419, 287.9775
224.6240, 287.4371
225.1062, 286.9947
225.5883, 286.6677
226.0704, 286.5042
226.5525, 286.4916
227.0346, 286.4646
227.5167, 286.3236
227.9989, 286.2216
228.4810, 286.3544
228.9631, 286.7388
229.4452, 287.1129
229.9273, 287.3166
230.4094, 287.3558
230.8916, 287.2505
231.3737, 286.9333
231.8558, 286.5096
232.3379, 286.0942
232.8200, 285.6911
233.3021, 285.2637
233.7843, 284.6965
234.2664, 284.1045
234.7485, 283.6880
235.2306, 283.6090
235.7127, 283.6323
236.1948, 283.3234
236.6770, 282.5286
237.1591, 282.0416
237.6412, 282.6019
238.1233, 283.5987
238.6054, 284.4088
239.0875, 284.8576
239.5697, 285.0140
240.0518, 284.9307
240.5339, 284.5300
241.0160, 284.1363
241.4981, 283.8785
241.9802, 283.6869
242.4624, 283.4682
242.9445, 283.1590
243.4266, 282.9107
243.9087, 283.1230
244.3908, 284.1533
244.8729, 284.6390
245.3550, 283.8492
245.8372, 282.5866
246.3193, 281.4588
246.8014, 280.6625
247.2835, 280.1353
247.7656, 279.8269
248.2477, 279.9263
248.7299, 279.7792
249.2120, 279.4853
249.6941, 278.8229
250.1762, 277.3609
250.6583, 275.0062
251.1404, 272.4830
251.6226, 271.1824
252.1047, 272.1429
252.5868, 271.9467
253.0689, 269.2275
253.5510, 266.1272
254.0331, 264.2184
254.5153, 263.8705
254.9974, 264.2605
255.4795, 264.1692
255.9616, 263.4493
256.4437, 262.5216
256.9258, 261.2159
257.4080, 259.8811
257.8901, 258.7761
258.3722, 257.9314
258.8543, 257.1448
259.3364, 256.0832
259.8185, 254.3857
260.3007, 253.3744
260.7828, 253.4478
261.2649, 253.7373
261.7470, 253.8617
262.2291, 253.6987
262.7112, 253.1767
263.1934, 252.1472
263.6755, 250.3512
264.1576, 249.0015
264.6397, 248.4546
265.1218, 247.9665
265.6039, 247.1962
266.0861, 246.1008
266.5682, 244.7406
267.0503, 243.1149
267.5324, 241.1176
268.0145, 239.6128
268.4966, 238.8824
268.9788, 238.2778
269.4609, 237.5853
269.9430, 236.7549
270.4251, 235.7247
270.9072, 234.3824
271.3893, 232.7102
271.8715, 231.5657
272.3536, 231.2608
272.8357, 231.0552
273.3178, 230.7566
273.7999, 230.3141
274.2820, 229.6177
274.7642, 228.5260
275.2463, 227.1071
275.7284, 226.2633
276.2105, 226.2911
276.6926, 226.4153
277.1747, 226.4697
277.6568, 226.4249
278.1389, 226.2289
278.6211, 225.8362
279.1032, 225.2974
279.5853, 224.8249
280.0674, 224.3506
280.5495, 224.0014
281.0316, 223.8926
281.5138, 223.9213
281.9959, 223.9237
282.4780, 223.8403
282.9601, 223.6593
283.4422, 223.3179
283.9243, 222.6485
284.4065, 222.1533
284.8886, 221.9722
285.3707, 222.0172
285.8528, 222.2082
286.3349, 222.5387
286.8170, 222.8909
287.2992, 223.0566
287.7813, 222.9996
288.2634, 222.9026
288.7455, 222.7221
289.2276, 222.5438
289.7097, 222.4906
290.1919, 222.5937
290.6740, 222.7518
291.1561, 222.8387
291.6382, 222.8394
292.1203, 222.8857
292.6024, 223.2079
293.0846, 223.4581
293.5667, 223.2092
294.0488, 222.4141
294.5309, 221.5181
295.0130, 220.9444
295.4951, 220.6985
295.9773, 220.3130
296.4594, 219.3491
296.9415, 218.5450
297.4236, 218.7346
297.9057, 219.8417
298.3878, 220.7499
298.8700, 220.5786
299.3521, 219.4978
299.8342, 218.8530
300.3163, 219.1042
300.7984, 219.3669
301.2805, 219.1242
301.7627, 218.4398
302.2448, 217.6066
302.7269, 216.7173
303.2090, 215.8218
303.6911, 215.0523
304.1732, 214.4241
304.6554, 213.8736
305.1375, 213.3903
305.6196, 212.9653
306.1017, 212.5798
306.5838, 212.2354
307.0659, 211.9158
307.5481, 211.6140
308.0302, 211.3677
308.5123, 211.0178
308.9944, 210.5578
309.4765, 209.9535
309.9586, 209.0911
310.4408, 207.9031
310.9229, 206.6276
311.4050, 205.4850
311.8871, 204.4263
312.3692, 203.8858
312.8513, 204.5196
313.3335, 205.4541
313.8156, 205.5576
314.2977, 204.6442
314.7798, 203.5013
315.2619, 202.8516
315.7440, 202.6611
316.2262, 202.3277
316.7083, 201.6024
317.1904, 200.8587
317.6725, 200.4163
318.1546, 200.2724
318.6367, 200.2467
319.1188, 200.2832
319.6010, 200.3317
320.0831, 200.1992
320.5652, 199.7802
321.0473, 199.2927
321.5294, 198.8762
322.0115, 198.4975
322.4937, 197.9582
322.9758, 197.0367
323.4579, 196.0649
323.9400, 195.9779
324.4221, 197.2294
324.9042, 198.2211
325.3864, 198.3058
325.8685, 197.7627
326.3506, 196.9939
326.8327, 196.0352
327.3148, 195.2205
327.7969, 195.2478
328.2791, 196.3034
328.7612, 196.9601
329.2433, 196.5383
329.7254, 195.7749
330.2075, 195.6108
330.6896, 196.2083
331.1718, 196.9173
331.6539, 197.0545
332.1360, 196.5631
332.6181, 196.3013
333.1002, 196.4609
333.5823, 196.7335
334.0645, 196.9440
334.5466, 197.0708
335.0287, 197.0850
335.5108, 196.9239
335.9929, 196.6305
336.4750, 196.5186
336.9572, 196.7237
337.4393, 196.9417
337.9214, 197.0553
338.4035, 197.0837
338.8856, 197.0404
339.3677, 196.8994
339.8499, 196.7628
340.3320, 196.9522
340.8141, 197.7257
341.2962, 198.3064
341.7783, 198.5229
342.2604, 198.4754
342.7426, 198.1970
343.2247, 197.6973
343.7068, 197.2237
344.1889, 197.1580
344.6710, 197.7475
345.1531, 198.0220
345.6353, 197.7560
346.1174, 197.3258
346.5995, 197.0017
347.0816, 196.8121
347.5637, 196.6455
348.0458, 196.3952
348.5280, 196.0524
349.0101, 195.8454
349.4922, 195.9862
349.9743, 196.0287
350.4564, 195.7513
350.9385, 195.2257
351.4207, 194.5908
351.9028, 193.9011
352.3849, 193.2292
352.8670, 192.8948
353.3491, 193.3237
353.8312, 193.5617
354.3134, 193.3463
354.7955, 192.9395
355.2776, 192.6205
355.7597, 192.4908
356.2418, 192.5258
356.7239, 192.7340
357.2061, 193.5638
357.6882, 193.5745
358.1703, 191.9599
358.6524, 190.2062
359.1345, 189.2478
359.6166, 189.1945
360.0987, 189.7516
360.5808, 190.7355
361.0630, 192.2570
361.5451, 193.1002
362.0272, 192.7432
362.5093, 192.2972
362.9914, 192.1240
363.4735, 192.1335
363.9557, 192.0667
364.4378, 191.7474
364.9199, 191.2879
365.4020, 191.1837
365.8841, 191.8718
366.3662, 192.3215
366.8484, 192.3046
367.3305, 192.0619
367.8126, 191.7842
368.2947, 191.5464
368.7768, 191.3826
369.2589, 191.3570
369.7411, 191.5152
370.2232, 191.6931
370.7053, 191.9688
371.1874, 192.1924
371.6695, 192.3112
372.1516, 192.3069
372.6338, 192.1618
373.1159, 191.8266
373.5980, 191.3088
374.0801, 190.8318
374.5622, 190.2213
375.0443, 189.8936
375.5265, 190.1408
376.0086, 190.7037
376.4907, 191.2332
376.9728, 191.6086
377.4549, 191.7447
377.9370, 191.3264
378.4192, 190.0303
378.9013, 189.1037
379.3834, 189.1603
379.8655, 189.5495
380.3476, 189.8242
380.8297, 189.8933
381.3119, 189.8604
381.7940, 189.7900
382.2761, 189.6844
382.7582, 189.6461
383.2403, 189.6638
383.7224, 189.7947
384.2046, 190.1740
384.6867, 190.7107
385.1688, 191.0895
385.6509, 190.9808
386.1330, 190.6208
386.6151, 190.6031
387.0973, 191.0374
387.5794, 191.4151
388.0615, 191.3049
388.5436, 190.9924
389.0257, 190.8775
389.5078, 191.0540
389.9900, 191.4057
390.4721, 191.9271
390.9542, 192.5842
391.4363, 193.0790
391.9184, 193.2407
392.4005, 193.2868
392.8827, 193.5843
393.3648, 194.1696
393.8469, 194.5577
394.3290, 194.4244
394.8111, 194.0206
395.2932, 193.7258
395.7754, 193.5933
396.2575, 193.5509
396.7396, 193.4896
397.2217, 193.4485
397.7038, 193.7076
398.1859, 194.7924
398.6681, 195.7348
399.1501, 195.6659
399.6323, 194.8550
400.1144, 194.3421
400.5965, 194.7069
401.0786, 195.6064
401.5607, 196.0234
402.0428, 195.6130
402.5250, 195.4036
403.0071, 195.7388
403.4892, 196.2898
403.9713, 196.7587
404.4534, 197.0555
404.9355, 197.0885
405.4177, 196.6958
405.8998, 195.7373
406.3819, 195.0730
406.8640, 194.7292
407.3461, 194.6129
407.8282, 194.8698
408.3104, 195.3238
408.7925, 195.5858
409.2746, 195.4060
409.7567, 194.8625
410.2388, 194.3113
410.7209, 193.6923
411.2031, 193.1510
411.6852, 192.5388
412.1673, 192.0928
412.6494, 192.2574
413.1315, 193.0538
413.6136, 193.7868
414.0958, 193.3434
414.5779, 191.2022
415.0600, 189.9787
415.5421, 190.5275
416.0242, 191.2309
416.5063, 191.6941
416.9885, 191.8136
417.4706, 191.4365
417.9527, 190.2944
418.4348, 188.7436
418.9169, 188.0767
419.3990, 188.7287
419.8812, 189.3161
420.3633, 189.3172
420.8454, 189.1149
421.3275, 189.0859
421.8096, 189.3261
422.2917, 189.5495
422.7739, 189.3690
423.2560, 188.8135
423.7381, 188.5190
424.2202, 188.7410
424.7023, 189.0218
425.1844, 188.9735
425.6666, 188.6775
426.1487, 188.4287
426.6308, 188.3008
427.1129, 188.3130
427.5950, 188.5674
428.0771, 189.0835
428.5593, 189.5334
429.0414, 189.7921
429.5235, 189.8320
430.0056, 189.6203
430.4877, 189.0014
430.9698, 188.4874
431.4520, 188.3669
431.9341, 188.5263
432.4162, 188.8135
432.8983, 189.2222
433.3804, 189.5163
433.8625, 189.3439
434.3447, 188.6147
434.8268, 188.1762
435.3089, 188.1858
435.7910, 188.3824
436.2731, 188.7001
436.7552, 189.0726
437.2374, 189.3384
437.7195, 189.3967
438.2016, 189.2906
438.6837, 189.1827
439.1658, 188.9622
439.6479, 188.8848
440.1301, 189.0481
440.6122, 189.3176
441.0943, 189.5704
441.5764, 189.7803
442.0585, 190.0127
442.5406, 190.3929
443.0227, 191.0074
443.5049, 191.1444
443.9870, 190.2788
444.4691, 189.4753
444.9512, 188.9047
445.4333, 188.6501
445.9154, 188.9082
446.3976, 189.8465
446.8797, 191.0152
447.3618, 191.3353
447.8439, 190.4755
448.3260, 189.7512
448.8081, 189.7071
449.2903, 189.6463
449.7724, 188.9801
450.2545, 187.7524
450.7366, 186.6467
451.2187, 186.3164
451.7008, 186.5667
452.1830, 186.5912
452.6651, 186.3545
453.1472, 185.9422
453.6293, 185.4115
454.1114, 184.7319
454.5935, 183.7967
455.0757, 182.4732
455.5578, 181.1116
456.0399, 179.8612
456.5220, 178.7812
457.0041, 178.2033
457.4862, 178.3909
457.9684, 178.7504
458.4505, 178.4462
458.9326, 177.4946
459.4147, 176.5853
459.8968, 175.6934
460.3789, 175.0028
460.8611, 174.9759
461.3432, 175.4323
461.8253, 175.3362
462.3074, 173.9091
462.7895, 171.5861
463.2716, 170.1570
463.7538, 170.3893
464.2359, 170.4438
464.7180, 170.0536
465.2001, 169.4191
465.6822, 168.7422
466.1643, 168.0607
466.6465, 167.2876
467.1286, 166.2995
467.6107, 165.0447
468.0928, 163.9952
468.5749, 163.0918
469.0570, 162.4648
469.5392, 162.3307
470.0213, 162.4524
470.5034, 162.4962
470.9855, 162.3147
471.4676, 162.0117
471.9497, 161.8088
472.4319, 161.7829
472.9140, 161.5180
473.3961, 160.6323
473.8782, 159.7686
474.3603, 159.2492
474.8424, 159.0757
475.3246, 159.1409
475.8067, 159.5457
476.2888, 160.0918
476.7709, 160.2942
477.2530, 160.0902
477.7351, 159.9539
478.2173, 160.3099
478.6994, 160.7415
479.1815, 160.5462
479.6636, 159.5209
480.1457, 158.5183
480.6278, 157.8930
481.1100, 157.5961
481.5920, 157.6262
482.0742, 157.9975
482.5563, 158.3845
483.0384, 158.5102
483.5205, 158.3652
484.0026, 158.1413
484.4847, 157.5252
484.9669, 157.1705
485.4490, 157.6564
485.9311, 158.5178
486.4132, 158.8856
486.8953, 158.4405
487.3774, 157.6305
487.8596, 157.1878
488.3417, 157.2201
488.8238, 157.3355
489.3059, 157.6810
489.7880, 157.9565
490.2701, 157.9691
490.7523, 157.7944
491.2344, 157.6229
491.7165, 157.5718
492.1986, 157.5934
492.6807, 157.5927
493.1628, 157.6541
493.6450, 157.4599
494.1271, 156.5616
494.6092, 155.6629
495.0913, 155.3146
495.5734, 155.5024
496.0555, 155.7012
496.5377, 155.5453
497.0198, 155.1264
497.5019, 154.6867
497.9840, 154.2327
498.4661, 153.7419
498.9482, 153.1380
499.4304, 152.5094
499.9125, 152.0224
500.3946, 151.7068
500.8767, 151.4763
501.3588, 151.4200
501.8409, 151.3839
502.3231, 151.0471
502.8052, 150.3421
503.2873, 149.5277
503.7694, 148.8120
504.2515, 148.1943
504.7336, 147.8081
505.2158, 147.7613
505.6979, 147.7965
506.1800, 147.9916
506.6621, 148.1593
507.1442, 147.9491
507.6263, 147.2525
508.1085, 146.4093
508.5906, 145.9492
509.0727, 145.9650
509.5548, 146.0256
510.0369, 146.4476
510.5190, 146.5948
511.0012, 145.9422
511.4833, 144.8720
511.9654, 144.1468
512.4475, 144.1998
512.9296, 144.5987
513.4117, 144.5393
513.8939, 143.9552
514.3760, 143.4157
514.8581, 142.9917
515.3402, 142.7096
515.8223, 142.6560
516.3044, 142.7876
516.7866, 142.8250
517.2687, 142.6223
517.7508, 142.2788
518.2329, 141.8429
518.7150, 141.3356
519.1971, 141.0292
519.6793, 141.1510
520.1614, 141.4333
520.6435, 141.2041
521.1256, 140.2528
521.6077, 139.5153
522.0898, 139.2401
522.5720, 139.1780
523.0541, 139.1751
523.5362, 139.1877
524.0183, 139.1482
524.5004, 138.9870
524.9825, 138.7622
525.4647, 138.7901
525.9468, 139.4482
526.4289, 139.8137
526.9110, 139.6603
527.3931, 139.3041
527.8752, 138.9053
528.3574, 138.5415
528.8395, 138.3555
529.3216, 138.5996
529.8037, 139.1514
530.2858, 139.2040
530.7679, 138.5378
531.2501, 137.8801
531.7322, 137.5433
532.2143, 137.3757
532.6964, 137.2033
533.1785, 136.9782
533.6606, 136.9114
534.1428, 137.2884
534.6249, 137.8928
535.1070, 138.2459
535.5891, 138.2757
536.0712, 138.2157
536.5533, 138.2722
537.0355, 138.3868
537.5176, 138.2273
537.9997, 137.4217
538.4818, 136.8209
538.9639, 136.8674
539.4460, 137.1563
539.9282, 137.1420
540.4103, 136.7344
540.8924, 136.2755
541.3745, 136.1360
541.8566, 136.3274
542.3387, 136.4393
542.8209, 136.4661
543.3029, 136.4105
543.7850, 136.1239
544.2672, 135.8274
544.7493, 135.8100
545.2314, 136.1368
545.7135, 136.5438
546.1956, 136.7299
546.6777, 136.7167
547.1599, 136.7842
547.6420, 137.0475
548.1241, 137.1794
548.6062, 136.8472
549.0883, 136.2748
549.5704, 135.7860
550.0526, 135.3825
550.5347, 135.1829
551.0168, 135.4495
551.4989, 135.9400
551.9810, 136.1158
552.4631, 135.8600
552.9453, 135.4711
553.4274, 135.2004
553.9095, 135.0482
554.3916, 135.0158
554.8737, 135.2259
555.3558, 135.3892
555.8380, 135.3482
556.3201, 135.2521
556.8022, 135.3310
557.2843, 135.6225
557.7664, 135.9116
558.2485, 135.9468
558.7307, 135.7207
559.2128, 135.4487
559.6949, 135.0734
560.1770, 134.7391
560.6591, 134.4817
561.1412, 134.2919
561.6234, 134.1650
562.1055, 134.1037
562.5876, 134.0712
563.0697, 134.2208
563.5518, 134.3855
564.0339, 133.8230
564.5161, 132.2705
564.9982, 130.9083
565.4803, 130.7291
565.9624, 131.4509
566.4445, 131.6980
566.9266, 131.0611
567.4088, 130.5359
567.8909, 130.5693
568.3730, 130.8503
568.8551, 131.0744
569.3372, 131.1478
569.8193, 130.9598
570.3015, 130.3621
570.7836, 129.3841
571.2657, 128.6404
571.7478, 128.1441
572.2299, 127.8870
572.7120, 128.0615
573.1942, 128.3401
573.6763, 128.3940
574.1584, 128.1884
574.6405, 127.9677
575.1226, 127.9375
575.6047, 128.0678
576.0869, 128.2938
576.5690, 128.6876
577.0511, 128.8681
577.5332, 128.5830
578.0153, 128.0056
578.4974, 127.3547
578.9796, 126.5396
579.4617, 126.0804
579.9438, 126.4553
580.4259, 127.1217
580.9080, 127.5418
581.3901, 127.6503
581.8723, 127.4560
582.3544, 126.9218
582.8365, 126.1690
583.3186, 125.6057
