##NAMES=Plattnerite
##RRUFFID=R080019
##IDEAL CHEMISTRY=Pb^4+^O_2_
##LOCALITY=Snake Pit, lower Mex-Tex mine, Hansonburg District, Socorro County, New Mexico, USA
##OWNER=RRUFF
##SOURCE=William W. Pinch
##DESCRIPTION=Black twinned crystals associated with red scrutinyite, R080018, on the surface of a quartz crystal
##STATUS=The identification of this mineral has been confirmed by single-crystal X-ray diffraction.
##URL=rruff.info/R080019
146.5207, 567.4298
147.0029, 567.1500
147.4850, 566.7900
147.9671, 566.3403
148.4492, 565.8348
148.9313, 565.3351
149.4134, 564.7969
149.8955, 564.2051
150.3777, 564.0645
150.8598, 565.1560
151.3419, 566.0632
151.8240, 566.3298
152.3061, 565.9669
152.7882, 565.2152
153.2704, 564.2602
153.7525, 562.9433
154.2346, 562.0045
154.7167, 561.6144
155.1988, 561.3737
155.6809, 561.0676
156.1631, 560.6552
156.6452, 560.2145
157.1273, 559.8408
157.6094, 559.4931
158.0915, 559.3492
158.5736, 559.9261
159.0558, 560.4587
159.5379, 560.0865
160.0200, 558.5413
160.5021, 556.4367
160.9842, 554.8316
161.4663, 553.7878
161.9485, 552.8974
162.4306, 552.0914
162.9127, 551.3789
163.3948, 550.7872
163.8769, 550.3650
164.3590, 550.0059
164.8412, 549.5647
165.3233, 549.0549
165.8054, 548.4388
166.2875, 547.7280
166.7696, 546.9094
167.2517, 545.8572
167.7339, 544.1848
168.2160, 542.5516
168.6981, 541.6968
169.1802, 541.7675
169.6623, 542.1006
170.1444, 542.0225
170.6266, 541.4610
171.1087, 540.9329
171.5908, 540.5299
172.0729, 540.2455
172.5550, 540.1660
173.0371, 540.3290
173.5193, 540.4967
174.0014, 540.2083
174.4835, 539.1259
174.9656, 538.3206
175.4477, 538.2375
175.9298, 538.3278
176.4120, 538.0776
176.8941, 537.2723
177.3762, 536.1415
177.8583, 535.3120
178.3404, 534.7974
178.8225, 534.6403
179.3047, 535.3075
179.7868, 536.1666
180.2689, 536.3929
180.7510, 535.5364
181.2331, 533.9262
181.7152, 533.0709
182.1974, 533.7617
182.6795, 534.2990
183.1616, 534.1750
183.6437, 533.7269
184.1258, 533.6347
184.6079, 534.3568
185.0900, 535.6779
185.5722, 536.1740
186.0543, 535.4643
186.5364, 534.5458
187.0185, 533.7327
187.5006, 533.0005
187.9827, 532.1802
188.4649, 531.0624
188.9470, 529.8325
189.4291, 529.2210
189.9112, 529.6829
190.3933, 530.3215
190.8754, 530.6790
191.3576, 530.7560
191.8397, 530.4934
192.3218, 529.5623
192.8039, 528.3412
193.2860, 527.6981
193.7681, 528.1860
194.2503, 528.8810
194.7324, 528.6811
195.2145, 527.4389
195.6966, 526.2936
196.1787, 526.2573
196.6608, 526.6109
197.1430, 526.4442
197.6251, 525.1703
198.1072, 523.5601
198.5893, 523.0294
199.0714, 524.0246
199.5535, 524.9382
200.0357, 525.1700
200.5178, 524.9280
200.9999, 524.4063
201.4820, 523.6649
201.9641, 522.7139
202.4462, 521.4882
202.9284, 519.4465
203.4105, 518.0818
203.8926, 518.1095
204.3747, 518.8498
204.8568, 519.5035
205.3389, 519.6525
205.8211, 519.3624
206.3032, 518.9014
206.7853, 517.9293
207.2674, 517.2145
207.7495, 517.0405
208.2316, 517.1760
208.7138, 517.3355
209.1959, 517.3675
209.6780, 517.2524
210.1601, 516.8362
210.6422, 515.8721
211.1243, 514.8452
211.6065, 513.6473
212.0886, 512.4576
212.5707, 511.5508
213.0528, 511.1086
213.5349, 511.0995
214.0170, 511.2664
214.4992, 512.1778
214.9813, 512.6425
215.4634, 512.1033
215.9455, 510.8690
216.4276, 509.5644
216.9097, 508.5670
217.3919, 507.8588
217.8740, 507.2961
218.3561, 506.9044
218.8382, 506.5938
219.3203, 506.4828
219.8024, 506.4557
220.2845, 506.1564
220.7667, 505.2885
221.2488, 503.9945
221.7309, 503.0981
222.2130, 502.8150
222.6951, 502.6682
223.1772, 502.5955
223.6594, 502.5255
224.1415, 502.0893
224.6236, 500.9097
225.1057, 499.2671
225.5878, 498.1310
226.0699, 497.7050
226.5521, 497.5300
227.0342, 497.4943
227.5163, 497.5539
227.9984, 497.2387
228.4805, 496.1278
228.9626, 494.5458
229.4448, 493.1375
229.9269, 491.8712
230.4090, 490.8976
230.8911, 490.4923
231.3732, 490.6608
231.8553, 490.7533
232.3375, 490.6984
232.8196, 490.2683
233.3017, 489.0712
233.7838, 486.8021
234.2659, 484.4018
234.7480, 482.9425
235.2302, 482.5229
235.7123, 482.1020
236.1944, 481.2812
236.6765, 480.3087
237.1586, 479.3964
237.6407, 478.5995
238.1229, 477.7894
238.6050, 476.7777
239.0871, 475.5216
239.5692, 474.3199
240.0513, 473.1750
240.5334, 472.1573
241.0156, 471.3461
241.4977, 470.7629
241.9798, 470.2949
242.4619, 469.7935
242.9440, 469.2230
243.4261, 468.7474
243.9083, 468.7836
244.3904, 468.6632
244.8725, 467.7938
245.3546, 466.1071
245.8367, 464.2206
246.3188, 463.0261
246.8010, 462.8017
247.2831, 462.4122
247.7652, 461.6909
248.2473, 460.8482
248.7294, 459.9671
249.2115, 459.0785
249.6937, 458.2204
250.1758, 457.4814
250.6579, 456.9837
251.1400, 456.2505
251.6221, 454.9144
252.1042, 453.6479
252.5864, 452.9552
253.0685, 452.8158
253.5506, 452.7765
254.0327, 452.2794
254.5148, 451.1783
254.9969, 450.0688
255.4790, 448.8679
255.9612, 447.7202
256.4433, 446.7120
256.9254, 445.8463
257.4075, 445.0576
257.8896, 444.2603
258.3718, 443.3830
258.8539, 442.8525
259.3360, 443.1066
259.8181, 443.2553
260.3002, 442.8210
260.7823, 441.8290
261.2645, 440.5778
261.7466, 439.3037
262.2287, 437.9623
262.7108, 436.9755
263.1929, 436.3573
263.6750, 435.9899
264.1572, 435.9722
264.6393, 436.1934
265.1214, 436.3603
265.6035, 436.2540
266.0856, 435.8706
266.5677, 435.2176
267.0499, 433.9751
267.5320, 432.8326
268.0141, 432.1651
268.4962, 431.8585
268.9783, 431.5186
269.4604, 430.8560
269.9426, 429.9117
270.4247, 429.2495
270.9068, 429.1019
271.3889, 428.9214
271.8710, 428.4069
272.3531, 427.6918
272.8352, 427.1677
273.3174, 427.1208
273.7995, 427.3743
274.2816, 427.0371
274.7637, 425.5046
275.2458, 424.2046
275.7279, 423.8169
276.2101, 423.9667
276.6922, 423.8208
277.1743, 422.9350
277.6564, 421.6431
278.1385, 420.9277
278.6206, 421.0716
279.1028, 421.1297
279.5849, 420.8348
280.0670, 420.2829
280.5491, 419.5984
281.0312, 418.7922
281.5133, 417.9694
281.9955, 417.3853
282.4776, 417.1445
282.9597, 416.7292
283.4418, 415.7661
283.9239, 414.6067
284.4060, 413.8881
284.8882, 413.8324
285.3703, 413.9331
285.8524, 413.3440
286.3345, 411.9688
286.8166, 411.0267
287.2987, 411.2436
287.7809, 411.8459
288.2630, 411.7305
288.7451, 410.6529
289.2272, 409.4092
289.7093, 408.9296
290.1914, 409.1604
290.6736, 409.1889
291.1557, 408.6553
291.6378, 407.9788
292.1199, 407.6185
292.6020, 407.6263
293.0841, 407.7723
293.5663, 407.9690
294.0484, 408.1673
294.5305, 408.1361
295.0126, 407.9859
295.4947, 407.5015
295.9768, 406.0616
296.4590, 403.7231
296.9411, 402.1137
297.4232, 402.6893
297.9053, 404.7033
298.3874, 405.6943
298.8695, 404.9807
299.3517, 403.9008
299.8338, 403.3659
300.3159, 403.3094
300.7980, 403.3134
301.2801, 403.2694
301.7622, 403.1006
302.2444, 402.6426
302.7265, 401.7089
303.2086, 400.9368
303.6907, 400.7222
304.1728, 400.9755
304.6549, 401.4817
305.1371, 402.4372
305.6192, 403.2256
306.1013, 402.7877
306.5834, 400.9919
307.0655, 399.3932
307.5476, 398.7833
308.0298, 398.8471
308.5119, 398.8888
308.9940, 398.7936
309.4761, 398.5801
309.9582, 398.1598
310.4403, 397.5669
310.9225, 397.1636
311.4046, 397.0299
311.8867, 397.1628
312.3688, 397.7863
312.8509, 399.0797
313.3330, 400.0049
313.8152, 399.2250
314.2973, 397.2612
314.7794, 395.8086
315.2615, 395.5786
315.7436, 395.7858
316.2257, 395.5436
316.7079, 394.8169
317.1900, 394.1628
317.6721, 393.8882
318.1542, 393.9584
318.6363, 394.2654
319.1184, 395.1374
319.6006, 395.8315
320.0827, 395.6479
320.5648, 394.6908
321.0469, 393.7147
321.5290, 392.9525
322.0111, 392.4330
322.4933, 392.1509
322.9754, 392.1331
323.4575, 392.2495
323.9396, 392.7465
324.4217, 393.3629
324.9038, 393.1665
325.3860, 391.6241
325.8681, 389.6902
326.3502, 388.6775
326.8323, 388.5424
327.3144, 388.5663
327.7965, 388.4771
328.2787, 388.3888
328.7608, 388.6191
329.2429, 389.3113
329.7250, 389.8447
330.2071, 389.3636
330.6892, 388.0698
331.1714, 387.1311
331.6535, 387.0467
332.1356, 387.2485
332.6177, 387.1596
333.0998, 386.7508
333.5819, 386.2567
334.0641, 385.8202
334.5462, 385.4244
335.0283, 384.9856
335.5104, 384.4092
335.9925, 383.8812
336.4746, 383.4997
336.9568, 383.2632
337.4389, 383.1867
337.9210, 383.3116
338.4031, 383.5694
338.8852, 383.8575
339.3673, 384.3748
339.8495, 384.4762
340.3316, 383.5968
340.8137, 382.1552
341.2958, 380.9116
341.7779, 380.0487
342.2600, 379.6017
342.7421, 379.8644
343.2242, 380.9706
343.7064, 381.5486
344.1885, 381.0998
344.6706, 380.1192
345.1527, 378.9635
345.6348, 377.6916
346.1169, 376.7542
346.5991, 376.7049
347.0812, 377.5947
347.5633, 377.9860
348.0454, 377.7055
348.5275, 377.0707
349.0096, 375.9869
349.4918, 374.6256
349.9739, 373.7644
350.4560, 374.0194
350.9381, 375.0791
351.4202, 375.3742
351.9023, 374.2198
352.3845, 373.2242
352.8666, 373.1057
353.3487, 373.4440
353.8308, 373.4207
354.3129, 372.6822
354.7950, 371.6456
355.2772, 371.1639
355.7593, 371.6701
356.2414, 371.7790
356.7235, 371.0857
357.2056, 370.0954
357.6877, 369.2381
358.1699, 368.6120
358.6520, 368.2073
359.1341, 368.0364
359.6162, 368.1575
360.0983, 368.2392
360.5804, 368.3405
361.0626, 368.3589
361.5447, 368.2455
362.0268, 368.0004
362.5089, 367.6279
362.9910, 367.1167
363.4731, 366.4852
363.9553, 365.9269
364.4374, 365.3488
364.9195, 364.9342
365.4016, 364.8941
365.8837, 364.9887
366.3658, 364.8059
366.8480, 364.1763
367.3301, 363.4203
367.8122, 363.2600
368.2943, 364.4244
368.7764, 365.0561
369.2585, 364.5649
369.7407, 363.9866
370.2228, 364.3180
370.7049, 365.5674
371.1870, 366.8053
371.6691, 366.9592
372.1512, 365.8217
372.6334, 364.8449
373.1155, 364.0349
373.5976, 363.3761
374.0797, 362.8330
374.5618, 362.4418
375.0439, 362.2951
375.5261, 362.4804
376.0082, 362.9217
376.4903, 363.2505
376.9724, 363.6092
377.4545, 363.6139
377.9366, 362.9309
378.4188, 362.0254
378.9009, 361.4015
379.3830, 361.2246
379.8651, 361.2198
380.3472, 360.9376
380.8293, 360.2727
381.3115, 359.6684
381.7936, 359.0422
382.2757, 358.5832
382.7578, 358.4556
383.2399, 358.6247
383.7220, 358.8875
384.2042, 359.1239
384.6863, 359.3266
385.1684, 359.3595
385.6505, 359.0995
386.1326, 358.8394
386.6147, 358.7213
387.0969, 358.6776
387.5790, 358.5956
388.0611, 358.4160
388.5432, 358.1903
389.0253, 357.9997
389.5074, 357.8369
389.9896, 357.7389
390.4717, 357.9388
390.9538, 358.0710
391.4359, 357.8047
391.9180, 357.0861
392.4001, 356.1568
392.8823, 354.9791
393.3644, 353.6656
393.8465, 352.9877
394.3286, 353.3696
394.8107, 353.9228
395.2928, 353.9497
395.7750, 353.5427
396.2571, 352.9831
396.7392, 352.2253
397.2213, 351.4460
397.7034, 350.8110
398.1855, 350.3093
398.6677, 350.2423
399.1498, 351.2040
399.6319, 352.5745
400.1140, 352.9116
400.5961, 351.6348
401.0782, 350.2254
401.5604, 349.5961
402.0425, 349.5172
402.5246, 349.2811
403.0067, 348.6252
403.4888, 347.8460
403.9709, 347.4244
404.4531, 347.3975
404.9352, 347.2881
405.4173, 347.0541
405.8994, 346.6727
406.3815, 345.8739
406.8636, 344.7287
407.3458, 344.0992
407.8279, 344.9257
408.3100, 347.0379
408.7921, 347.6210
409.2742, 345.6616
409.7563, 343.5221
410.2385, 341.8533
410.7206, 340.6324
411.2027, 339.8229
411.6848, 339.4175
412.1669, 339.2875
412.6490, 339.1865
413.1311, 339.2550
413.6133, 339.0889
414.0954, 338.4186
414.5775, 337.7193
415.0596, 337.4476
415.5417, 337.5654
416.0238, 337.5951
416.5060, 337.0447
416.9881, 335.8931
417.4702, 335.0771
417.9523, 334.9970
418.4344, 334.8250
418.9165, 334.2802
419.3987, 333.5498
419.8808, 332.9681
420.3629, 332.7004
420.8450, 332.4860
421.3271, 331.6398
421.8092, 329.6059
422.2914, 328.3735
422.7735, 328.8774
423.2556, 329.6443
423.7377, 329.8483
424.2198, 329.4084
424.7019, 328.6575
425.1841, 327.7210
425.6662, 326.6458
426.1483, 326.0146
426.6304, 326.1342
427.1125, 326.2082
427.5946, 325.8623
428.0768, 325.2497
428.5589, 324.5512
429.0410, 323.7462
429.5231, 323.0590
430.0052, 322.9179
430.4873, 323.3421
430.9695, 323.4952
431.4516, 322.9947
431.9337, 322.2425
432.4158, 321.7365
432.8979, 321.4802
433.3800, 321.1249
433.8622, 320.3178
434.3443, 319.3570
434.8264, 318.8356
435.3085, 318.8565
435.7906, 318.8939
436.2727, 318.3106
436.7549, 317.4115
437.2370, 317.5209
437.7191, 320.3556
438.2012, 322.4932
438.6833, 321.1778
439.1654, 317.7567
439.6476, 315.7067
440.1297, 316.4600
440.6118, 318.5194
441.0939, 319.3495
441.5760, 318.4605
442.0581, 317.6351
442.5403, 316.8572
443.0224, 316.2419
443.5045, 315.9031
443.9866, 315.8263
444.4687, 315.9615
444.9508, 316.3363
445.4330, 316.8831
445.9151, 316.8359
446.3972, 315.6403
446.8793, 314.5005
447.3614, 313.4025
447.8435, 312.5370
448.3257, 312.2388
448.8078, 312.5660
449.2899, 313.0520
449.7720, 312.9691
450.2541, 312.0990
450.7362, 311.4193
451.2184, 310.8334
451.7005, 310.5397
452.1826, 310.9054
452.6647, 311.6392
453.1468, 312.0474
453.6289, 311.6018
454.1111, 310.6871
454.5932, 310.4277
455.0753, 311.0919
455.5574, 311.5942
456.0395, 311.4217
456.5216, 311.0204
457.0038, 310.7108
457.4859, 310.5367
457.9680, 310.4079
458.4501, 310.1877
458.9322, 309.9442
459.4143, 310.0243
459.8965, 310.6211
460.3786, 311.1033
460.8607, 310.7090
461.3428, 309.7975
461.8249, 309.3185
462.3070, 309.8769
462.7892, 310.4906
463.2713, 310.2207
463.7534, 309.3285
464.2355, 308.8708
464.7176, 309.3432
465.1997, 310.1771
465.6819, 310.3587
466.1640, 309.7095
466.6461, 309.1466
467.1282, 308.7765
467.6103, 308.5252
468.0924, 308.2556
468.5746, 308.0149
469.0567, 308.0840
469.5388, 308.7268
470.0209, 309.8166
470.5030, 310.4898
470.9851, 310.3897
471.4673, 310.2887
471.9494, 310.1869
472.4315, 310.1680
472.9136, 310.3831
473.3957, 310.8347
473.8778, 311.2857
474.3600, 311.4225
474.8421, 311.1913
475.3242, 311.0381
475.8063, 310.8337
476.2884, 310.8635
476.7705, 311.4250
477.2527, 312.2386
477.7348, 312.8276
478.2169, 312.9473
478.6990, 312.8530
479.1811, 312.9329
479.6632, 313.1909
480.1454, 313.6043
480.6275, 314.3078
481.1096, 315.0371
481.5917, 315.6063
482.0738, 316.0116
482.5559, 316.2787
483.0380, 316.1539
483.5201, 316.0089
484.0023, 316.5760
484.4844, 317.9044
484.9665, 319.1652
485.4486, 319.8504
485.9307, 320.1757
486.4128, 320.7477
486.8950, 321.6709
487.3771, 322.5986
487.8592, 323.2437
488.3413, 323.8919
488.8234, 325.0901
489.3055, 326.9074
489.7877, 328.6552
490.2698, 329.6039
490.7519, 329.7010
491.2340, 330.0896
491.7161, 331.0251
492.1982, 331.9106
492.6804, 332.4762
493.1625, 332.9064
493.6446, 333.4911
494.1267, 334.3362
494.6088, 335.3033
495.0909, 336.1758
495.5731, 336.9514
496.0552, 337.6361
496.5373, 338.0880
497.0194, 338.5822
497.5015, 339.2918
497.9836, 340.1272
498.4658, 340.9020
498.9479, 341.5482
499.4300, 342.0194
499.9121, 342.1230
500.3942, 341.7625
500.8763, 341.6401
501.3585, 342.1357
501.8406, 342.7970
502.3227, 343.2106
502.8048, 343.3732
503.2869, 343.5043
503.7690, 343.7905
504.2512, 344.0739
504.7333, 344.0488
505.2154, 343.6989
505.6975, 343.3672
506.1796, 343.2135
506.6617, 343.2454
507.1439, 343.5232
507.6260, 344.3986
508.1081, 344.8421
508.5902, 344.3551
509.0723, 343.4099
509.5544, 342.4819
510.0366, 341.6784
510.5187, 340.9289
511.0008, 340.1554
511.4829, 339.3597
511.9650, 338.7648
512.4471, 338.7215
512.9293, 338.4657
513.4114, 337.6533
513.8935, 336.6473
514.3756, 335.9428
514.8577, 335.6536
515.3398, 335.3582
515.8220, 334.3846
516.3041, 332.6266
516.7862, 331.3751
517.2683, 330.9142
517.7504, 330.6364
518.2325, 330.3835
518.7147, 330.0834
519.1968, 329.6054
519.6789, 328.8657
520.1610, 328.0342
520.6431, 327.3803
521.1252, 326.8549
521.6074, 326.0040
522.0895, 324.5964
522.5716, 323.0939
523.0537, 321.9563
523.5358, 321.1494
524.0179, 320.5879
524.5001, 320.7166
524.9822, 320.6805
525.4643, 319.5874
525.9464, 317.7929
526.4285, 316.4272
526.9106, 316.0003
527.3928, 316.0465
527.8749, 315.6962
528.3570, 314.7095
528.8391, 313.8517
529.3212, 313.2162
529.8033, 312.6135
530.2855, 311.8789
530.7676, 311.0845
531.2497, 310.4874
531.7318, 310.2794
532.2139, 310.1887
532.6960, 309.4603
533.1782, 307.8866
533.6603, 306.2660
534.1424, 304.3940
534.6245, 302.7797
535.1066, 301.9909
535.5887, 301.8405
536.0709, 301.3993
536.5530, 299.8497
537.0351, 297.8116
537.5172, 296.4871
537.9993, 295.9157
538.4814, 295.3441
538.9636, 294.5074
539.4457, 293.4602
539.9278, 292.2509
540.4099, 290.8466
540.8920, 289.5179
541.3741, 288.4178
541.8563, 287.3697
542.3384, 286.1747
542.8205, 284.8413
543.3026, 283.5463
543.7847, 282.4277
544.2668, 281.3929
544.7490, 280.1281
545.2311, 278.3353
545.7132, 276.7187
546.1953, 275.4632
546.6774, 274.2543
547.1595, 272.8014
547.6417, 271.1430
548.1238, 269.5492
548.6059, 268.1796
549.0880, 267.0616
549.5701, 266.3613
550.0522, 266.3441
550.5344, 266.0675
551.0165, 265.1184
551.4986, 263.8714
551.9807, 262.3944
552.4628, 260.7377
552.9449, 259.5301
553.4271, 259.4959
553.9092, 260.0147
554.3913, 260.1342
554.8734, 259.8094
555.3555, 258.8190
555.8376, 256.7687
556.3198, 254.1939
556.8019, 252.5090
557.2840, 252.0198
557.7661, 251.5040
558.2482, 250.6199
558.7303, 249.6926
559.2125, 249.0479
559.6946, 248.6617
560.1767, 248.2427
560.6588, 247.5601
561.1409, 246.7255
561.6230, 246.2510
562.1052, 246.5568
562.5873, 246.4832
563.0694, 245.7184
563.5515, 244.7419
564.0336, 243.7966
564.5157, 242.9470
564.9979, 242.2566
565.4800, 241.7734
565.9621, 241.4762
566.4442, 241.3887
566.9263, 241.5677
567.4084, 241.5659
567.8906, 241.1617
568.3727, 240.5352
568.8548, 239.9135
569.3369, 239.2939
569.8190, 238.7246
570.3011, 238.1978
570.7833, 237.7515
571.2654, 237.5457
571.7475, 237.4998
572.2296, 237.1599
572.7117, 236.2072
573.1938, 235.0508
573.6760, 234.7112
574.1581, 236.0960
574.6402, 236.6171
575.1223, 235.6102
575.6044, 234.3994
576.0865, 233.6793
576.5687, 233.4200
577.0508, 233.3699
577.5329, 233.4256
578.0150, 233.4514
578.4971, 233.0460
578.9792, 232.0689
579.4614, 231.4820
579.9435, 231.7820
580.4256, 232.1701
580.9077, 232.1140
581.3898, 231.6590
581.8719, 230.9946
582.3541, 229.9180
582.8362, 228.9097
583.3183, 228.5778
583.8004, 228.7460
584.2825, 228.7482
584.7646, 228.3569
585.2468, 227.7903
585.7289, 227.3043
586.2110, 226.9062
586.6931, 226.5906
587.1752, 226.4135
587.6573, 226.2560
588.1394, 226.0848
588.6215, 225.8969
589.1036, 225.6614
589.5858, 225.3757
590.0679, 225.1396
590.5500, 225.1463
591.0321, 225.4386
591.5142, 225.5019
591.9963, 225.2364
592.4785, 224.8769
592.9606, 224.4227
593.4427, 223.9775
593.9248, 223.7437
594.4069, 223.8283
594.8890, 223.8174
595.3712, 223.1709
595.8533, 222.2367
596.3354, 221.9147
596.8175, 222.3452
597.2996, 222.8615
597.7817, 223.0401
598.2639, 222.8951
598.7460, 222.4761
599.2281, 221.4092
599.7102, 220.6177
600.1923, 220.4713
600.6744, 220.5030
601.1566, 220.2659
601.6387, 219.7639
602.1208, 219.3236
602.6029, 219.2227
603.0850, 219.3369
603.5671, 219.1514
604.0493, 218.5475
604.5314, 217.9595
605.0135, 217.4042
605.4956, 216.9568
605.9777, 216.6477
606.4598, 216.4893
606.9420, 216.5217
607.4241, 216.9504
607.9062, 217.4536
608.3883, 217.6336
608.8704, 217.5302
609.3525, 217.4061
609.8347, 217.4022
610.3168, 217.2224
610.7989, 216.3510
611.2810, 214.5187
611.7631, 213.3791
612.2452, 213.3745
612.7274, 213.5518
613.2095, 213.5598
613.6916, 213.4715
614.1737, 213.4831
614.6558, 213.6466
615.1379, 213.7529
615.6201, 213.5145
616.1022, 212.9250
616.5843, 212.2496
617.0664, 211.3307
617.5485, 210.6194
618.0306, 210.5068
618.5128, 210.6376
618.9949, 210.5244
619.4770, 210.0251
619.9591, 209.7104
620.4412, 210.1678
620.9233, 210.8922
621.4055, 211.1037
621.8876, 210.7578
622.3697, 210.1767
622.8518, 209.4987
623.3339, 208.8183
623.8160, 208.4180
624.2982, 208.4785
624.7803, 208.5413
625.2624, 208.7983
625.7445, 208.8863
626.2266, 208.3784
626.7087, 207.5287
627.1909, 206.9924
627.6730, 207.1579
628.1551, 207.5892
628.6372, 207.4582
629.1193, 206.7405
629.6014, 206.3727
630.0836, 206.7001
630.5657, 207.0519
631.0478, 206.7434
631.5299, 206.0480
632.0120, 205.6665
632.4941, 205.9988
632.9763, 206.2254
633.4584, 205.7687
633.9405, 205.0197
634.4226, 204.6292
634.9047, 204.6680
635.3868, 204.6119
635.8690, 203.9445
636.3511, 202.8360
636.8332, 202.5188
637.3153, 203.7290
637.7974, 204.5167
638.2795, 204.5090
638.7617, 204.1624
639.2438, 203.6368
639.7259, 203.0420
640.2080, 202.6378
640.6901, 202.6537
641.1722, 202.8455
641.6544, 202.8788
642.1365, 202.7561
