##NAMES=Wittichenite
##RRUFFID=R050327
##IDEAL CHEMISTRY=Cu_3_BiS_3_
##LOCALITY=Grube Daniel, Wittichen, Schwarzwald, Germany
##OWNER=RRUFF
##SOURCE=Marcus Origlieri
##DESCRIPTION=Tin-white metallic blebs
##STATUS=The identification of this mineral has been confirmed by X-ray diffraction and chemical analysis
##URL=rruff.info/R050327
##MEASURED CHEMISTRY=Cu_3.00_Bi_1.00_S_3.00_
123.939, 0.000
124.421, 41.237
124.903, 95.879
125.385, 162.893
125.867, 242.007
126.349, 333.644
126.831, 446.395
127.313, 563.840
127.796, 684.072
128.278, 806.667
128.760, 933.003
129.242, 1063.354
129.724, 1198.173
130.206, 1333.830
130.688, 1509.190
131.170, 1648.851
131.652, 1734.538
132.135, 1764.544
132.617, 1737.594
133.099, 1648.530
133.581, 1491.579
134.063, 1331.393
134.545, 1157.334
135.027, 989.403
135.509, 835.617
135.992, 697.209
136.474, 573.348
136.956, 462.690
137.438, 366.209
137.920, 297.553
138.402, 272.453
138.884, 261.176
139.366, 240.399
139.848, 208.981
140.331, 185.790
140.813, 192.324
141.295, 236.258
141.777, 273.273
142.259, 294.160
142.741, 312.293
143.223, 341.783
143.705, 385.063
144.188, 430.533
144.670, 463.933
145.152, 483.829
145.634, 508.541
146.116, 543.627
146.598, 583.575
147.080, 625.136
147.562, 669.631
148.044, 706.404
148.527, 718.608
149.009, 707.946
149.491, 691.387
149.973, 674.808
150.455, 654.694
150.937, 622.592
151.419, 573.244
151.901, 520.704
152.383, 483.255
152.866, 459.920
153.348, 435.907
153.830, 397.129
154.312, 353.635
154.794, 332.613
155.276, 348.316
155.758, 373.418
156.240, 373.854
156.723, 350.230
157.205, 330.367
157.687, 332.354
158.169, 350.537
158.651, 363.397
159.133, 365.707
159.615, 361.473
160.097, 352.873
160.579, 339.651
161.062, 331.613
161.544, 342.632
162.026, 367.943
162.508, 376.980
162.990, 355.738
163.472, 323.215
163.954, 297.008
164.436, 277.709
164.919, 260.663
165.401, 241.899
165.883, 221.689
166.365, 206.230
166.847, 198.902
167.329, 195.413
167.811, 193.283
168.293, 192.610
168.775, 190.427
169.258, 182.892
169.740, 170.042
170.222, 160.381
170.704, 161.099
171.186, 160.853
171.668, 148.808
172.150, 124.290
172.632, 100.977
173.115, 94.580
173.597, 106.383
174.079, 111.441
174.561, 97.227
175.043, 80.632
175.525, 73.650
176.007, 77.367
176.489, 82.653
176.971, 80.507
177.454, 70.297
177.936, 58.764
178.418, 44.871
178.900, 31.533
179.382, 19.570
179.864, 9.259
180.346, 2.225
180.828, 1.728
181.311, 9.000
181.793, 13.584
182.275, 10.943
182.757, 7.378
183.239, 5.925
183.721, 7.062
184.203, 9.875
184.685, 14.464
185.167, 21.633
185.650, 25.527
186.132, 22.164
186.614, 17.338
187.096, 14.266
187.578, 13.218
188.060, 11.836
188.542, 5.063
189.024, 9.748
189.507, 14.706
189.989, 22.442
190.471, 13.057
190.953, 7.826
191.435, 6.525
191.917, 20.933
192.399, 15.054
192.881, 17.304
193.363, 19.887
193.846, 11.149
194.328, 23.268
194.810, 14.710
195.292, 14.405
195.774, 10.322
196.256, 14.419
196.738, 15.989
197.220, 9.377
197.702, 7.295
198.185, 12.332
198.667, 8.009
199.149, 20.412
199.631, 16.778
200.113, 25.096
200.595, 14.321
201.077, 8.181
201.559, 6.428
202.042, 22.195
202.524, 15.339
203.006, 17.551
203.488, 20.134
203.970, 10.096
204.452, 23.319
204.934, 13.482
205.416, 12.852
205.898, 8.008
206.381, 12.289
206.863, 13.753
207.345, 6.090
207.827, 3.482
208.309, 8.815
208.791, 3.707
209.273, 17.255
209.755, 12.917
210.238, 19.628
210.720, 7.619
211.202, 0.155
211.684, 3.009
212.166, 11.005
212.648, 2.838
213.130, 3.561
213.612, 4.649
214.094, 6.640
214.577, 4.879
215.059, 6.210
215.541, 8.273
216.023, 14.465
216.505, 11.711
216.987, 11.717
217.469, 20.671
217.951, 24.668
218.434, 20.880
218.916, 27.327
219.398, 15.484
219.880, 19.687
220.362, 30.816
220.844, 24.396
221.326, 43.649
221.808, 38.183
222.290, 31.701
222.773, 59.633
223.255, 24.149
223.737, 51.533
224.219, 53.821
224.701, 50.291
225.183, 58.091
225.665, 66.894
226.147, 74.388
226.629, 76.473
227.112, 69.430
227.594, 59.420
228.076, 45.441
228.558, 70.596
229.040, 86.252
229.522, 92.918
230.004, 63.671
230.486, 80.799
230.969, 79.342
231.451, 77.122
231.933, 100.777
232.415, 76.753
232.897, 99.998
233.379, 104.373
233.861, 104.376
234.343, 115.441
234.825, 136.208
235.307, 156.896
235.790, 163.889
236.272, 155.078
236.754, 149.448
237.236, 157.292
237.718, 166.787
238.200, 167.754
238.682, 158.374
239.165, 147.842
239.647, 143.017
240.129, 143.886
240.611, 152.309
241.093, 177.340
241.575, 202.117
242.057, 210.777
242.539, 203.072
243.021, 195.360
243.503, 201.069
243.986, 217.691
244.468, 230.681
244.950, 237.819
245.432, 240.595
245.914, 237.133
246.396, 228.876
246.878, 227.093
247.361, 241.678
247.843, 267.154
248.325, 290.619
248.807, 313.635
249.289, 327.910
249.771, 317.523
250.253, 290.780
250.735, 275.579
251.217, 288.337
251.699, 316.587
252.182, 341.418
252.664, 361.443
253.146, 380.367
253.628, 403.149
254.110, 426.956
254.592, 443.669
255.074, 442.306
255.556, 438.925
256.039, 454.831
256.521, 490.333
257.003, 518.008
257.485, 516.273
257.967, 494.853
258.449, 487.923
258.931, 503.650
259.413, 526.968
259.896, 553.356
260.378, 580.996
260.860, 599.670
261.342, 603.059
261.824, 595.475
262.306, 588.321
262.788, 576.563
263.270, 573.259
263.752, 588.682
264.235, 616.109
264.717, 641.226
265.199, 658.958
265.681, 672.047
266.163, 686.320
266.645, 704.750
267.127, 717.457
267.609, 718.478
268.091, 714.377
268.574, 712.425
269.056, 714.441
269.538, 720.934
270.020, 733.716
270.502, 758.563
270.984, 773.365
271.466, 765.345
271.948, 755.670
272.431, 765.212
272.913, 794.294
273.395, 823.112
273.877, 831.268
274.359, 814.302
274.841, 805.857
275.323, 806.811
275.805, 813.885
276.288, 826.810
276.770, 844.675
277.252, 866.318
277.734, 891.928
278.216, 920.858
278.698, 941.529
279.180, 944.619
279.662, 949.798
280.144, 962.219
280.626, 979.472
281.109, 997.877
281.591, 1015.625
282.073, 1032.458
282.555, 1047.391
283.037, 1060.812
283.519, 1071.555
284.001, 1078.214
284.483, 1083.015
284.966, 1087.736
285.448, 1093.001
285.930, 1099.045
286.412, 1107.782
286.894, 1124.319
287.376, 1129.685
287.858, 1109.777
288.340, 1088.578
288.823, 1084.530
289.305, 1097.609
289.787, 1109.939
290.269, 1101.787
290.751, 1071.621
291.233, 1042.576
291.715, 1015.955
292.197, 990.062
292.679, 963.880
293.162, 937.683
293.644, 912.518
294.126, 889.206
294.608, 867.514
295.090, 847.258
295.572, 829.899
296.054, 810.839
296.536, 788.508
297.018, 762.924
297.501, 733.554
297.983, 698.161
298.465, 660.861
298.947, 625.173
299.429, 590.029
299.911, 565.691
300.393, 565.802
300.875, 575.044
301.358, 571.287
301.840, 548.905
302.322, 522.496
302.804, 499.125
303.286, 479.584
303.768, 469.432
304.250, 475.226
304.732, 483.627
305.215, 471.479
305.697, 435.644
306.179, 408.034
306.661, 406.124
307.143, 415.816
307.625, 416.054
308.107, 402.681
308.589, 385.139
309.071, 375.915
309.553, 376.962
310.036, 358.370
310.518, 288.621
311.000, 222.948
311.482, 209.790
311.964, 241.440
312.446, 270.278
312.928, 261.007
313.410, 217.854
313.893, 192.550
314.375, 196.760
314.857, 202.078
315.339, 199.890
315.821, 193.872
316.303, 191.226
316.785, 195.384
317.267, 202.475
317.750, 203.009
318.232, 192.802
318.714, 181.502
319.196, 166.458
319.678, 152.413
320.160, 143.841
320.642, 141.343
321.124, 141.101
321.606, 136.945
322.089, 125.391
322.571, 124.827
323.053, 154.680
323.535, 178.208
324.017, 175.146
324.499, 151.792
324.981, 128.601
325.463, 120.440
325.945, 124.536
326.428, 125.687
326.910, 120.151
327.392, 118.379
327.874, 127.589
328.356, 141.502
328.838, 152.637
329.320, 159.640
329.802, 159.838
330.284, 144.952
330.767, 113.053
331.249, 90.205
331.731, 90.339
332.213, 99.773
332.695, 102.080
333.177, 95.283
333.659, 91.132
334.142, 103.567
334.624, 124.369
335.106, 128.020
335.588, 106.074
336.070, 77.729
336.552, 63.807
337.034, 62.933
337.516, 60.859
337.998, 52.053
338.480, 43.197
338.963, 42.256
339.445, 48.523
339.927, 52.328
340.409, 46.084
340.891, 31.622
341.373, 23.831
341.855, 28.533
342.337, 32.105
342.819, 28.256
343.302, 20.963
343.784, 17.475
344.266, 20.742
344.748, 26.999
345.230, 28.567
345.712, 19.784
346.194, 15.878
346.677, 19.123
347.159, 25.271
347.641, 34.879
348.123, 45.722
348.605, 49.800
349.087, 36.203
349.569, 2.701
350.051, 14.845
350.533, 0.566
351.016, 14.065
351.498, 17.128
351.980, 14.139
352.462, 1.517
352.944, 15.989
353.426, 23.879
353.908, 25.543
354.390, 2.334
354.872, 11.243
355.355, 7.279
355.837, 2.787
356.319, 16.215
356.801, 3.379
357.283, 9.763
357.765, 9.838
358.247, 15.891
358.729, 8.995
359.211, 6.098
359.694, 16.154
360.176, 19.037
360.658, 10.646
361.140, 17.077
361.622, 2.975
362.104, 0.210
362.586, 13.423
363.069, 1.227
363.551, 12.790
364.033, 22.888
364.515, 28.482
364.997, 26.768
365.479, 9.855
365.961, 3.977
366.443, 7.862
366.925, 5.823
367.408, 3.172
367.890, 1.749
368.372, 1.444
368.854, 2.323
369.336, 5.853
369.818, 7.003
370.300, 5.885
370.782, 2.742
371.264, 8.526
371.747, 12.143
372.229, 13.708
372.711, 7.087
373.193, 11.069
373.675, 10.844
374.157, 10.472
374.639, 16.018
375.121, 10.676
375.603, 16.029
376.086, 17.065
376.568, 20.070
377.050, 18.808
377.532, 18.917
378.014, 23.314
378.496, 25.311
378.978, 23.585
379.460, 26.802
379.943, 21.346
380.425, 23.526
380.907, 28.954
381.389, 27.460
381.871, 30.753
382.353, 32.292
382.835, 25.609
383.317, 33.121
383.799, 34.402
384.282, 29.338
384.764, 32.123
385.246, 6.944
385.728, 16.121
386.210, 24.677
386.692, 21.411
387.174, 7.570
387.656, 17.191
388.138, 41.686
388.621, 44.858
389.103, 7.422
389.585, 10.617
390.067, 11.435
390.549, 34.729
391.031, 29.955
391.513, 1.184
391.996, 25.857
392.478, 29.145
392.960, 12.003
393.442, 6.754
393.924, 28.389
394.406, 39.554
394.888, 22.409
395.370, 5.351
395.852, 23.488
396.335, 25.231
396.817, 20.273
397.299, 20.181
397.781, 24.995
398.263, 27.750
398.745, 27.548
399.227, 24.413
399.709, 17.555
400.191, 7.576
400.674, 1.788
401.156, 13.575
401.638, 21.546
402.120, 11.892
402.602, 14.616
403.084, 31.613
403.566, 20.211
404.048, 10.833
404.530, 27.891
405.013, 28.646
405.495, 21.669
405.977, 2.455
406.459, 28.345
406.941, 32.682
407.423, 10.930
407.905, 18.109
408.387, 30.849
408.870, 24.198
409.352, 15.793
409.834, 2.581
410.316, 9.174
410.798, 18.028
411.280, 23.449
411.762, 23.746
412.244, 17.004
412.727, 7.810
413.209, 8.762
413.691, 24.721
414.173, 35.684
414.655, 31.778
415.137, 24.169
415.619, 18.653
416.101, 16.187
416.583, 19.006
417.065, 35.130
417.548, 57.013
418.030, 63.767
418.512, 51.471
418.994, 36.125
419.476, 28.067
419.958, 26.264
420.440, 24.874
420.922, 25.124
421.405, 24.194
421.887, 19.551
422.369, 21.932
422.851, 22.608
423.333, 21.733
423.815, 14.434
424.297, 15.487
424.779, 13.191
425.262, 10.756
425.744, 12.981
426.226, 6.615
426.708, 8.763
427.190, 7.511
427.672, 7.813
428.154, 4.746
428.636, 2.717
429.118, 4.056
429.601, 3.529
430.083, 1.644
430.565, 7.500
431.047, 15.440
431.529, 21.839
432.011, 25.848
432.493, 23.365
432.975, 2.708
433.457, 26.998
433.940, 34.420
434.422, 11.976
434.904, 12.644
435.386, 17.980
435.868, 9.173
436.350, 7.074
436.832, 21.785
437.314, 33.978
437.797, 29.596
438.279, 16.589
438.761, 12.203
439.243, 22.324
439.725, 35.259
440.207, 33.701
440.689, 12.294
441.171, 7.275
441.654, 3.052
442.136, 7.642
442.618, 10.091
443.100, 10.515
443.582, 2.778
444.064, 5.449
444.546, 3.991
445.028, 2.373
445.510, 6.617
445.992, 0.120
446.475, 4.269
446.957, 3.388
447.439, 3.446
447.921, 15.136
448.403, 21.698
448.885, 6.482
449.367, 18.480
449.849, 31.912
450.332, 32.386
450.814, 19.633
451.296, 14.968
451.778, 60.256
452.260, 77.126
452.742, 44.386
453.224, 16.154
453.706, 11.886
454.189, 19.159
454.671, 22.753
455.153, 19.384
455.635, 14.823
456.117, 15.049
456.599, 20.190
457.081, 28.686
457.563, 53.622
458.045, 67.631
458.528, 49.330
459.010, 20.634
459.492, 17.445
459.974, 55.580
460.456, 98.564
460.938, 85.717
461.420, 15.926
461.902, 22.272
462.384, 0.777
462.867, 34.419
463.349, 46.711
463.831, 40.577
464.313, 32.173
464.795, 21.467
465.277, 13.951
465.759, 16.372
466.241, 26.623
466.724, 37.694
467.206, 47.514
467.688, 53.422
468.170, 49.429
468.652, 25.688
469.134, 12.649
469.616, 23.280
470.098, 33.391
470.581, 23.300
471.063, 1.408
471.545, 20.892
472.027, 21.705
472.509, 8.525
472.991, 4.457
473.473, 18.204
473.955, 29.456
474.437, 16.141
474.919, 13.045
475.402, 18.170
475.884, 21.298
476.366, 22.538
476.848, 16.232
477.330, 19.666
477.812, 19.196
478.294, 18.564
478.776, 23.368
479.259, 18.154
479.741, 22.870
480.223, 23.622
480.705, 26.187
481.187, 24.825
481.669, 24.674
482.151, 28.451
482.633, 30.052
483.116, 28.234
483.598, 30.909
484.080, 27.342
484.562, 32.750
485.044, 33.873
485.526, 22.106
486.008, 19.806
486.490, 45.337
486.972, 74.769
487.455, 79.327
487.937, 52.845
488.419, 26.115
488.901, 31.080
489.383, 57.329
489.865, 68.938
490.347, 60.802
490.829, 46.722
491.311, 31.957
491.794, 19.053
492.276, 17.368
492.758, 43.334
493.240, 59.881
493.722, 48.183
494.204, 22.693
494.686, 0.900
495.168, 17.826
495.651, 24.467
496.133, 14.864
496.615, 12.185
497.097, 28.317
497.579, 26.668
498.061, 22.046
498.543, 12.491
499.025, 4.670
499.508, 10.273
499.990, 33.409
500.472, 53.041
500.954, 40.631
501.436, 5.062
501.918, 10.361
502.400, 3.637
502.882, 23.047
503.364, 31.068
503.846, 29.217
504.329, 27.560
504.811, 28.113
505.293, 26.812
505.775, 19.318
506.257, 10.072
506.739, 5.186
507.221, 6.117
507.703, 11.261
508.186, 20.132
508.668, 33.530
509.150, 30.089
509.632, 34.354
510.114, 36.741
510.596, 37.351
511.078, 30.862
511.560, 33.539
512.042, 32.542
512.525, 31.393
513.007, 35.359
513.489, 29.900
513.971, 33.783
514.453, 33.936
514.935, 35.796
515.417, 33.958
515.899, 33.262
516.382, 36.263
516.864, 37.217
517.346, 34.952
517.828, 33.042
518.310, 42.618
518.792, 46.266
519.274, 42.910
519.756, 37.042
520.239, 32.419
520.721, 29.109
521.203, 34.442
521.685, 59.459
522.167, 75.697
522.649, 69.558
523.131, 54.808
523.613, 45.508
524.096, 44.537
524.578, 46.160
525.060, 47.143
525.542, 47.551
526.024, 46.682
526.506, 44.281
526.988, 43.449
527.470, 46.714
527.952, 52.952
528.435, 57.548
528.917, 65.178
529.399, 64.837
529.881, 47.796
530.363, 27.162
530.845, 12.434
531.327, 5.706
531.809, 7.759
532.291, 21.879
532.774, 43.308
533.256, 48.987
533.738, 32.329
534.220, 18.505
534.702, 12.621
535.184, 14.397
535.666, 27.697
536.148, 52.377
536.630, 71.038
537.113, 72.181
537.595, 65.774
538.077, 62.595
538.559, 62.750
539.041, 62.895
539.523, 61.594
540.005, 58.617
540.487, 52.891
540.969, 40.832
541.452, 33.487
541.934, 34.375
542.416, 36.257
542.898, 33.931
543.380, 29.506
543.862, 29.468
544.344, 38.588
544.826, 49.207
545.309, 44.649
545.791, 25.123
546.273, 20.855
546.755, 45.729
547.237, 73.609
547.719, 76.132
548.201, 57.092
548.683, 43.829
549.166, 44.665
549.648, 46.516
550.130, 40.660
550.612, 31.927
551.094, 30.324
551.576, 38.246
552.058, 46.512
552.540, 42.429
553.023, 24.591
553.505, 14.959
553.987, 12.603
554.469, 20.830
554.951, 55.223
555.433, 92.658
555.915, 102.009
556.397, 74.093
556.879, 42.184
557.362, 30.012
557.844, 29.496
558.326, 25.611
558.808, 16.906
559.290, 7.236
559.772, 2.391
560.254, 9.953
560.736, 8.273
561.218, 15.902
561.701, 31.565
562.183, 31.268
562.665, 27.759
563.147, 30.682
563.629, 39.001
564.111, 46.164
564.593, 49.003
565.075, 46.638
565.557, 32.273
566.040, 4.409
566.522, 6.863
567.004, 13.430
567.486, 42.181
567.968, 53.255
568.450, 48.493
568.932, 45.843
569.414, 52.754
569.896, 57.064
570.379, 45.822
570.861, 29.152
571.343, 27.353
571.825, 45.985
572.307, 69.229
572.789, 76.967
573.271, 68.452
573.753, 60.461
574.236, 54.633
574.718, 46.711
575.200, 29.114
575.682, 11.505
576.164, 6.942
576.646, 19.338
577.128, 32.319
577.610, 34.911
578.093, 33.406
578.575, 39.163
579.057, 51.516
579.539, 57.042
580.021, 46.355
580.503, 26.825
580.985, 20.510
581.467, 44.964
581.950, 50.571
582.432, 16.693
582.914, 15.192
583.396, 21.276
583.878, 6.830
584.360, 12.899
584.842, 34.888
585.324, 49.941
585.806, 40.747
586.289, 12.585
586.771, 7.068
587.253, 12.316
587.735, 9.245
588.217, 2.129
588.699, 8.869
589.181, 19.891
589.663, 40.375
590.145, 49.007
590.628, 23.872
591.110, 4.751
591.592, 0.091
592.074, 37.805
592.556, 73.560
593.038, 78.085
593.520, 58.359
594.002, 30.129
594.484, 10.724
594.967, 28.470
595.449, 2.327
595.931, 46.143
596.413, 50.077
596.895, 13.177
597.377, 9.476
597.859, 1.218
598.341, 17.579
598.823, 24.046
599.306, 24.406
599.788, 26.714
600.270, 33.823
600.752, 43.766
601.234, 57.355
601.716, 74.867
602.198, 74.042
602.680, 44.930
603.162, 17.736
603.645, 1.479
604.127, 2.743
604.609, 12.575
605.091, 54.719
605.573, 82.562
606.055, 66.154
606.537, 37.585
607.019, 28.826
607.502, 38.243
607.984, 50.996
608.466, 59.870
608.948, 63.730
609.430, 59.296
609.912, 43.788
610.394, 29.733
610.876, 12.314
611.359, 3.066
611.841, 9.781
612.323, 27.139
612.805, 47.056
613.287, 71.016
613.769, 66.572
614.251, 71.955
614.733, 74.951
615.216, 75.690
615.698, 67.412
616.180, 70.777
616.662, 69.476
617.144, 67.984
617.626, 72.977
618.108, 65.966
618.590, 70.832
619.072, 70.994
619.555, 73.325
620.037, 70.961
620.519, 70.046
621.001, 73.828
621.483, 75.010
621.965, 72.104
622.447, 69.649
622.929, 15.474
623.411, 5.082
623.894, 18.329
624.376, 46.649
624.858, 47.413
625.340, 24.939
625.822, 8.207
626.304, 9.406
626.786, 9.687
627.268, 26.835
627.750, 64.757
628.233, 79.932
628.715, 74.018
629.197, 61.580
629.679, 46.062
630.161, 31.495
630.643, 19.151
631.125, 11.370
631.607, 20.835
632.089, 51.373
632.572, 77.594
633.054, 72.323
633.536, 38.193
634.018, 21.666
634.500, 39.861
634.982, 52.127
635.464, 50.999
635.946, 44.130
636.429, 35.458
636.911, 26.472
637.393, 20.042
637.875, 17.331
638.357, 18.335
638.839, 26.471
639.321, 38.920
639.803, 43.974
640.286, 38.217
640.768, 27.320
641.250, 16.239
641.732, 5.131
642.214, 0.055
642.696, 0.294
643.178, 7.574
643.660, 34.588
644.143, 59.396
644.625, 58.107
645.107, 33.440
645.589, 13.980
646.071, 18.094
646.553, 33.908
647.035, 52.652
647.517, 71.158
647.999, 74.555
648.482, 57.706
648.964, 36.871
649.446, 29.162
649.928, 34.569
650.410, 41.265
650.892, 57.748
651.374, 63.320
651.856, 43.571
652.338, 20.212
652.821, 11.742
653.303, 18.675
653.785, 29.255
654.267, 40.702
654.749, 49.959
655.231, 52.131
655.713, 49.142
656.195, 46.254
656.677, 44.895
657.160, 45.123
657.642, 47.149
658.124, 50.911
658.606, 55.573
659.088, 70.137
659.570, 70.588
660.052, 34.129
660.534, 2.694
661.016, 5.669
661.499, 21.178
661.981, 41.298
662.463, 32.755
662.945, 17.085
663.427, 13.038
663.909, 16.695
664.391, 19.134
664.873, 18.283
665.356, 17.301
665.838, 18.791
666.320, 23.058
666.802, 33.442
667.284, 55.578
667.766, 71.312
668.248, 73.820
668.730, 71.232
669.213, 68.838
669.695, 66.335
670.177, 61.131
670.659, 47.321
671.141, 36.449
671.623, 40.418
672.105, 50.233
672.587, 47.852
673.070, 32.857
673.552, 26.431
674.034, 48.356
674.516, 87.301
674.998, 100.457
675.480, 81.573
675.962, 63.786
676.444, 51.530
676.926, 43.475
677.409, 36.913
677.891, 33.327
678.373, 39.117
678.855, 65.343
679.337, 86.748
679.819, 98.234
680.301, 97.661
680.783, 74.380
681.265, 35.005
681.748, 3.804
682.230, 3.677
682.712, 4.216
683.194, 14.989
683.676, 28.585
684.158, 32.802
684.640, 22.861
685.122, 12.861
685.604, 13.581
686.087, 21.733
686.569, 24.254
687.051, 18.697
687.533, 12.424
688.015, 2.925
688.497, 4.028
688.979, 3.105
689.461, 3.385
689.943, 9.028
690.426, 10.665
690.908, 14.414
691.390, 34.273
691.872, 61.903
692.354, 66.008
692.836, 43.585
693.318, 19.284
693.800, 5.845
694.283, 0.157
694.765, 4.301
695.247, 8.346
695.729, 8.957
696.211, 2.972
696.693, 2.753
697.175, 3.483
697.657, 3.498
698.140, 11.043
698.622, 28.279
699.104, 39.817
699.586, 32.762
700.068, 16.671
700.550, 1.071
701.032, 17.316
701.514, 21.885
701.997, 10.974
702.479, 7.793
702.961, 26.360
703.443, 44.759
703.925, 52.059
704.407, 42.828
704.889, 33.904
705.371, 29.711
705.853, 28.614
706.336, 29.819
706.818, 33.160
707.300, 35.552
707.782, 37.075
708.264, 36.609
708.746, 31.633
